Cycle,Area(mm^2),PeakDynamic(W),SubthresholdLeakage(W),GateLeakage(W),RunTimeDynamic(W)
124000000,0.0324,0.013523,0.002678,0.000431,0.000705
124001000,0.0324,0.013523,0.002678,0.000431,0.000940
124002000,0.0324,0.013523,0.002678,0.000431,0.000940
124003000,0.0324,0.013523,0.002678,0.000431,0.000705
124004000,0.0324,0.013523,0.002678,0.000431,0.014809
124005000,0.0324,0.013523,0.002678,0.000431,0.831982
124006000,0.0324,0.013523,0.002678,0.000431,0.610206
124007000,0.0324,0.013523,0.002678,0.000431,0.179818
124008000,0.0324,0.013523,0.002678,0.000431,0.159016
124009000,0.0324,0.013523,0.002678,0.000431,0.591637
124010000,0.0324,0.013523,0.002678,0.000431,0.243871
124011000,0.0324,0.013523,0.002678,0.000431,0.338246
124012000,0.0324,0.013523,0.002678,0.000431,0.164539
124013000,0.0324,0.013523,0.002678,0.000431,0.142444
124014000,0.0324,0.013523,0.002678,0.000431,0.228005
124015000,0.0324,0.013523,0.002678,0.000431,0.577181
124016000,0.0324,0.013523,0.002678,0.000431,0.300872
124017000,0.0324,0.013523,0.002678,0.000431,0.275016
124018000,0.0324,0.013523,0.002678,0.000431,0.231060
124019000,0.0324,0.013523,0.002678,0.000431,0.220013
124020000,0.0324,0.013523,0.002678,0.000431,0.191688
124021000,0.0324,0.013523,0.002678,0.000431,0.143502
124022000,0.0324,0.013523,0.002678,0.000431,0.118821
124023000,0.0324,0.013523,0.002678,0.000431,0.122112
124024000,0.0324,0.013523,0.002678,0.000431,0.113885
124025000,0.0324,0.013523,0.002678,0.000431,0.099429
124026000,0.0324,0.013523,0.002678,0.000431,0.085443
124027000,0.0324,0.013523,0.002678,0.000431,0.072750
124028000,0.0324,0.013523,0.002678,0.000431,0.070752
124029000,0.0324,0.013523,0.002678,0.000431,0.057471
124030000,0.0324,0.013523,0.002678,0.000431,0.048774
124031000,0.0324,0.013523,0.002678,0.000431,0.040312
124032000,0.0324,0.013523,0.002678,0.000431,0.034553
124033000,0.0324,0.013523,0.002678,0.000431,0.030792
124034000,0.0324,0.013523,0.002678,0.000431,0.032203
124035000,0.0324,0.013523,0.002678,0.000431,0.027502
124036000,0.0324,0.013523,0.002678,0.000431,0.032673
124037000,0.0324,0.013523,0.002678,0.000431,0.026444
124038000,0.0324,0.013523,0.002678,0.000431,0.026914
124039000,0.0324,0.013523,0.002678,0.000431,0.022330
124040000,0.0324,0.013523,0.002678,0.000431,0.019745
124041000,0.0324,0.013523,0.002678,0.000431,0.017629
124042000,0.0324,0.013523,0.002678,0.000431,0.018217
124043000,0.0324,0.013523,0.002678,0.000431,0.021743
124044000,0.0324,0.013523,0.002678,0.000431,0.014456
124045000,0.0324,0.013523,0.002678,0.000431,0.020332
124046000,0.0324,0.013523,0.002678,0.000431,0.014456
124047000,0.0324,0.013523,0.002678,0.000431,0.013868
124048000,0.0324,0.013523,0.002678,0.000431,0.010225
124049000,0.0324,0.013523,0.002678,0.000431,0.008345
124050000,0.0324,0.013523,0.002678,0.000431,0.009402
124051000,0.0324,0.013523,0.002678,0.000431,0.008462
124052000,0.0324,0.013523,0.002678,0.000431,0.007169
124053000,0.0324,0.013523,0.002678,0.000431,0.006817
124054000,0.0324,0.013523,0.002678,0.000431,0.011400
124055000,0.0324,0.013523,0.002678,0.000431,0.004819
124056000,0.0324,0.013523,0.002678,0.000431,0.004584
124057000,0.0324,0.013523,0.002678,0.000431,0.009520
124058000,0.0324,0.013523,0.002678,0.000431,0.002468
124059000,0.0324,0.013523,0.002678,0.000431,0.002938
124060000,0.0324,0.013523,0.002678,0.000431,0.005406
124061000,0.0324,0.013523,0.002678,0.000431,0.000823
124062000,0.0324,0.013523,0.002678,0.000431,0.000823
124063000,0.0324,0.013523,0.002678,0.000431,0.000705
124064000,0.0324,0.013523,0.002678,0.000431,0.000940
124065000,0.0324,0.013523,0.002678,0.000431,0.000940
124066000,0.0324,0.013523,0.002678,0.000431,0.000705
124067000,0.0324,0.013523,0.002678,0.000431,0.000940
124068000,0.0324,0.013523,0.002678,0.000431,0.000705
124069000,0.0324,0.013523,0.002678,0.000431,0.000940
124070000,0.0324,0.013523,0.002678,0.000431,0.000940
124071000,0.0324,0.013523,0.002678,0.000431,0.000705
124072000,0.0324,0.013523,0.002678,0.000431,0.000940
124073000,0.0324,0.013523,0.002678,0.000431,0.000705
124074000,0.0324,0.013523,0.002678,0.000431,0.000940
124075000,0.0324,0.013523,0.002678,0.000431,0.000823
124076000,0.0324,0.013523,0.002678,0.000431,0.000823
124077000,0.0324,0.013523,0.002678,0.000431,0.000823
124078000,0.0324,0.013523,0.002678,0.000431,0.000823
124079000,0.0324,0.013523,0.002678,0.000431,0.000940
124080000,0.0324,0.013523,0.002678,0.000431,0.000705
124081000,0.0324,0.013523,0.002678,0.000431,0.000940
124082000,0.0324,0.013523,0.002678,0.000431,0.000823
124083000,0.0324,0.013523,0.002678,0.000431,0.000823
124084000,0.0324,0.013523,0.002678,0.000431,0.000823
124085000,0.0324,0.013523,0.002678,0.000431,0.000823
124086000,0.0324,0.013523,0.002678,0.000431,0.000823
124087000,0.0324,0.013523,0.002678,0.000431,0.000823
124088000,0.0324,0.013523,0.002678,0.000431,0.000940
124089000,0.0324,0.013523,0.002678,0.000431,0.000705
124090000,0.0324,0.013523,0.002678,0.000431,0.000940
124091000,0.0324,0.013523,0.002678,0.000431,0.000705
124092000,0.0324,0.013523,0.002678,0.000431,0.000940
124093000,0.0324,0.013523,0.002678,0.000431,0.000940
124094000,0.0324,0.013523,0.002678,0.000431,0.000705
124095000,0.0324,0.013523,0.002678,0.000431,0.000940
124096000,0.0324,0.013523,0.002678,0.000431,0.000705
124097000,0.0324,0.013523,0.002678,0.000431,0.000940
124098000,0.0324,0.013523,0.002678,0.000431,0.000823
124099000,0.0324,0.013523,0.002678,0.000431,0.000823
124100000,0.0324,0.013523,0.002678,0.000431,0.000823
124101000,0.0324,0.013523,0.002678,0.000431,0.000823
124102000,0.0324,0.013523,0.002678,0.000431,0.000940
124103000,0.0324,0.013523,0.002678,0.000431,0.000705
124104000,0.0324,0.013523,0.002678,0.000431,0.000940
124105000,0.0324,0.013523,0.002678,0.000431,0.000705
124106000,0.0324,0.013523,0.002678,0.000431,0.000823
124107000,0.0324,0.013523,0.002678,0.000431,0.000940
124108000,0.0324,0.013523,0.002678,0.000431,0.000823
124109000,0.0324,0.013523,0.002678,0.000431,0.000823
124110000,0.0324,0.013523,0.002678,0.000431,0.000823
124111000,0.0324,0.013523,0.002678,0.000431,0.000823
124112000,0.0324,0.013523,0.002678,0.000431,0.000823
124113000,0.0324,0.013523,0.002678,0.000431,0.000940
124114000,0.0324,0.013523,0.002678,0.000431,0.000705
124115000,0.0324,0.013523,0.002678,0.000431,0.000940
124116000,0.0324,0.013523,0.002678,0.000431,0.000705
124117000,0.0324,0.013523,0.002678,0.000431,0.000940
124118000,0.0324,0.013523,0.002678,0.000431,0.000940
124119000,0.0324,0.013523,0.002678,0.000431,0.000705
124120000,0.0324,0.013523,0.002678,0.000431,0.000940
124121000,0.0324,0.013523,0.002678,0.000431,0.000705
124122000,0.0324,0.013523,0.002678,0.000431,0.000940
124123000,0.0324,0.013523,0.002678,0.000431,0.000823
124124000,0.0324,0.013523,0.002678,0.000431,0.000823
124125000,0.0324,0.013523,0.002678,0.000431,0.000823
124126000,0.0324,0.013523,0.002678,0.000431,0.000823
124127000,0.0324,0.013523,0.002678,0.000431,0.000940
124128000,0.0324,0.013523,0.002678,0.000431,0.000823
124129000,0.0324,0.013523,0.002678,0.000431,0.000823
124130000,0.0324,0.013523,0.002678,0.000431,0.000823
124131000,0.0324,0.013523,0.002678,0.000431,0.000823
124132000,0.0324,0.013523,0.002678,0.000431,0.000940
124133000,0.0324,0.013523,0.002678,0.000431,0.000705
124134000,0.0324,0.013523,0.002678,0.000431,0.000940
124135000,0.0324,0.013523,0.002678,0.000431,0.000823
124136000,0.0324,0.013523,0.002678,0.000431,0.000823
124137000,0.0324,0.013523,0.002678,0.000431,0.000823
124138000,0.0324,0.013523,0.002678,0.000431,0.000823
124139000,0.0324,0.013523,0.002678,0.000431,0.000940
124140000,0.0324,0.013523,0.002678,0.000431,0.000705
124141000,0.0324,0.013523,0.002678,0.000431,0.000940
124142000,0.0324,0.013523,0.002678,0.000431,0.000705
124143000,0.0324,0.013523,0.002678,0.000431,0.000940
124144000,0.0324,0.013523,0.002678,0.000431,0.000705
124145000,0.0324,0.013523,0.002678,0.000431,0.000940
124146000,0.0324,0.013523,0.002678,0.000431,0.000823
124147000,0.0324,0.013523,0.002678,0.000431,0.000823
124148000,0.0324,0.013523,0.002678,0.000431,0.000940
124149000,0.0324,0.013523,0.002678,0.000431,0.000705
124150000,0.0324,0.013523,0.002678,0.000431,0.000940
124151000,0.0324,0.013523,0.002678,0.000431,0.000705
124152000,0.0324,0.013523,0.002678,0.000431,0.000940
124153000,0.0324,0.013523,0.002678,0.000431,0.000705
124154000,0.0324,0.013523,0.002678,0.000431,0.000940
124155000,0.0324,0.013523,0.002678,0.000431,0.000940
124156000,0.0324,0.013523,0.002678,0.000431,0.000705
124157000,0.0324,0.013523,0.002678,0.000431,0.000940
124158000,0.0324,0.013523,0.002678,0.000431,0.000705
124159000,0.0324,0.013523,0.002678,0.000431,0.000940
124160000,0.0324,0.013523,0.002678,0.000431,0.000823
124161000,0.0324,0.013523,0.002678,0.000431,0.000823
124162000,0.0324,0.013523,0.002678,0.000431,0.000940
124163000,0.0324,0.013523,0.002678,0.000431,0.000705
124164000,0.0324,0.013523,0.002678,0.000431,0.000940
124165000,0.0324,0.013523,0.002678,0.000431,0.000823
124166000,0.0324,0.013523,0.002678,0.000431,0.000823
124167000,0.0324,0.013523,0.002678,0.000431,0.000823
124168000,0.0324,0.013523,0.002678,0.000431,0.000823
124169000,0.0324,0.013523,0.002678,0.000431,0.000823
124170000,0.0324,0.013523,0.002678,0.000431,0.000823
124171000,0.0324,0.013523,0.002678,0.000431,0.000940
124172000,0.0324,0.013523,0.002678,0.000431,0.000705
124173000,0.0324,0.013523,0.002678,0.000431,0.000940
124174000,0.0324,0.013523,0.002678,0.000431,0.000823
124175000,0.0324,0.013523,0.002678,0.000431,0.000823
124176000,0.0324,0.013523,0.002678,0.000431,0.000823
124177000,0.0324,0.013523,0.002678,0.000431,0.000823
124178000,0.0324,0.013523,0.002678,0.000431,0.000705
124179000,0.0324,0.013523,0.002678,0.000431,0.000940
124180000,0.0324,0.013523,0.002678,0.000431,0.000940
124181000,0.0324,0.013523,0.002678,0.000431,0.000705
124182000,0.0324,0.013523,0.002678,0.000431,0.000940
124183000,0.0324,0.013523,0.002678,0.000431,0.000705
124184000,0.0324,0.013523,0.002678,0.000431,0.000940
124185000,0.0324,0.013523,0.002678,0.000431,0.000940
124186000,0.0324,0.013523,0.002678,0.000431,0.000705
124187000,0.0324,0.013523,0.002678,0.000431,0.000940
124188000,0.0324,0.013523,0.002678,0.000431,0.000705
124189000,0.0324,0.013523,0.002678,0.000431,0.000940
124190000,0.0324,0.013523,0.002678,0.000431,0.000823
124191000,0.0324,0.013523,0.002678,0.000431,0.000823
124192000,0.0324,0.013523,0.002678,0.000431,0.000823
124193000,0.0324,0.013523,0.002678,0.000431,0.000823
124194000,0.0324,0.013523,0.002678,0.000431,0.000940
124195000,0.0324,0.013523,0.002678,0.000431,0.000705
124196000,0.0324,0.013523,0.002678,0.000431,0.000940
124197000,0.0324,0.013523,0.002678,0.000431,0.000823
124198000,0.0324,0.013523,0.002678,0.000431,0.000823
124199000,0.0324,0.013523,0.002678,0.000431,0.000823
124200000,0.0324,0.013523,0.002678,0.000431,0.000823
124201000,0.0324,0.013523,0.002678,0.000431,0.000823
124202000,0.0324,0.013523,0.002678,0.000431,0.000823
124203000,0.0324,0.013523,0.002678,0.000431,0.000823
124204000,0.0324,0.013523,0.002678,0.000431,0.000823
124205000,0.0324,0.013523,0.002678,0.000431,0.000940
124206000,0.0324,0.013523,0.002678,0.000431,0.000823
124207000,0.0324,0.013523,0.002678,0.000431,0.000823
124208000,0.0324,0.013523,0.002678,0.000431,0.000705
124209000,0.0324,0.013523,0.002678,0.000431,0.000940
124210000,0.0324,0.013523,0.002678,0.000431,0.000940
124211000,0.0324,0.013523,0.002678,0.000431,0.000705
124212000,0.0324,0.013523,0.002678,0.000431,0.000940
124213000,0.0324,0.013523,0.002678,0.000431,0.000705
124214000,0.0324,0.013523,0.002678,0.000431,0.000940
124215000,0.0324,0.013523,0.002678,0.000431,0.000823
124216000,0.0324,0.013523,0.002678,0.000431,0.000823
124217000,0.0324,0.013523,0.002678,0.000431,0.000940
124218000,0.0324,0.013523,0.002678,0.000431,0.000705
124219000,0.0324,0.013523,0.002678,0.000431,0.001880
124220000,0.0324,0.013523,0.002678,0.000431,0.439085
124221000,0.0324,0.013523,0.002678,0.000431,0.819642
124222000,0.0324,0.013523,0.002678,0.000431,0.310157
124223000,0.0324,0.013523,0.002678,0.000431,0.138801
124224000,0.0324,0.013523,0.002678,0.000431,0.510777
124225000,0.0324,0.013523,0.002678,0.000431,0.274898
124226000,0.0324,0.013523,0.002678,0.000431,0.280305
124227000,0.0324,0.013523,0.002678,0.000431,0.250100
124228000,0.0324,0.013523,0.002678,0.000431,0.149848
124229000,0.0324,0.013523,0.002678,0.000431,0.117293
124230000,0.0324,0.013523,0.002678,0.000431,0.398538
124231000,0.0324,0.013523,0.002678,0.000431,0.472698
124232000,0.0324,0.013523,0.002678,0.000431,0.257269
124233000,0.0324,0.013523,0.002678,0.000431,0.235056
124234000,0.0324,0.013523,0.002678,0.000431,0.195684
124235000,0.0324,0.013523,0.002678,0.000431,0.149378
124236000,0.0324,0.013523,0.002678,0.000431,0.131279
124237000,0.0324,0.013523,0.002678,0.000431,0.099664
124238000,0.0324,0.013523,0.002678,0.000431,0.082740
124239000,0.0324,0.013523,0.002678,0.000431,0.081917
124240000,0.0324,0.013523,0.002678,0.000431,0.060762
124241000,0.0324,0.013523,0.002678,0.000431,0.063935
124242000,0.0324,0.013523,0.002678,0.000431,0.036786
124243000,0.0324,0.013523,0.002678,0.000431,0.038784
124244000,0.0324,0.013523,0.002678,0.000431,0.033613
124245000,0.0324,0.013523,0.002678,0.000431,0.024211
124246000,0.0324,0.013523,0.002678,0.000431,0.033260
124247000,0.0324,0.013523,0.002678,0.000431,0.025974
124248000,0.0324,0.013523,0.002678,0.000431,0.019040
124249000,0.0324,0.013523,0.002678,0.000431,0.011988
124250000,0.0324,0.013523,0.002678,0.000431,0.015631
124251000,0.0324,0.013523,0.002678,0.000431,0.007639
124252000,0.0324,0.013523,0.002678,0.000431,0.007992
124253000,0.0324,0.013523,0.002678,0.000431,0.007404
124254000,0.0324,0.013523,0.002678,0.000431,0.008932
124255000,0.0324,0.013523,0.002678,0.000431,0.007874
124256000,0.0324,0.013523,0.002678,0.000431,0.009050
124257000,0.0324,0.013523,0.002678,0.000431,0.007639
124258000,0.0324,0.013523,0.002678,0.000431,0.009637
124259000,0.0324,0.013523,0.002678,0.000431,0.004584
124260000,0.0324,0.013523,0.002678,0.000431,0.005641
124261000,0.0324,0.013523,0.002678,0.000431,0.005641
124262000,0.0324,0.013523,0.002678,0.000431,0.003526
124263000,0.0324,0.013523,0.002678,0.000431,0.003056
124264000,0.0324,0.013523,0.002678,0.000431,0.003643
124265000,0.0324,0.013523,0.002678,0.000431,0.004349
124266000,0.0324,0.013523,0.002678,0.000431,0.003643
124267000,0.0324,0.013523,0.002678,0.000431,0.001645
124268000,0.0324,0.013523,0.002678,0.000431,0.001880
124269000,0.0324,0.013523,0.002678,0.000431,0.001998
124270000,0.0324,0.013523,0.002678,0.000431,0.001763
124271000,0.0324,0.013523,0.002678,0.000431,0.002233
124272000,0.0324,0.013523,0.002678,0.000431,0.001528
124273000,0.0324,0.013523,0.002678,0.000431,0.001998
124274000,0.0324,0.013523,0.002678,0.000431,0.001998
124275000,0.0324,0.013523,0.002678,0.000431,0.001763
124276000,0.0324,0.013523,0.002678,0.000431,0.002116
124277000,0.0324,0.013523,0.002678,0.000431,0.001763
124278000,0.0324,0.013523,0.002678,0.000431,0.001880
124279000,0.0324,0.013523,0.002678,0.000431,0.001880
124280000,0.0324,0.013523,0.002678,0.000431,0.001880
124281000,0.0324,0.013523,0.002678,0.000431,0.001998
124282000,0.0324,0.013523,0.002678,0.000431,0.001763
124283000,0.0324,0.013523,0.002678,0.000431,0.002116
124284000,0.0324,0.013523,0.002678,0.000431,0.001763
124285000,0.0324,0.013523,0.002678,0.000431,0.002233
124286000,0.0324,0.013523,0.002678,0.000431,0.004701
124287000,0.0324,0.013523,0.002678,0.000431,0.233293
124288000,0.0324,0.013523,0.002678,0.000431,0.815528
124289000,0.0324,0.013523,0.002678,0.000431,0.470700
124290000,0.0324,0.013523,0.002678,0.000431,0.149966
124291000,0.0324,0.013523,0.002678,0.000431,0.564135
124292000,0.0324,0.013523,0.002678,0.000431,0.294291
124293000,0.0324,0.013523,0.002678,0.000431,0.379851
124294000,0.0324,0.013523,0.002678,0.000431,0.151024
124295000,0.0324,0.013523,0.002678,0.000431,0.109301
124296000,0.0324,0.013523,0.002678,0.000431,0.477517
124297000,0.0324,0.013523,0.002678,0.000431,0.340127
124298000,0.0324,0.013523,0.002678,0.000431,0.213196
124299000,0.0324,0.013523,0.002678,0.000431,0.206144
124300000,0.0324,0.013523,0.002678,0.000431,0.189220
124301000,0.0324,0.013523,0.002678,0.000431,0.157370
124302000,0.0324,0.013523,0.002678,0.000431,0.137743
124303000,0.0324,0.013523,0.002678,0.000431,0.124345
124304000,0.0324,0.013523,0.002678,0.000431,0.118703
124305000,0.0324,0.013523,0.002678,0.000431,0.095198
124306000,0.0324,0.013523,0.002678,0.000431,0.092025
124307000,0.0324,0.013523,0.002678,0.000431,0.087441
124308000,0.0324,0.013523,0.002678,0.000431,0.078744
124309000,0.0324,0.013523,0.002678,0.000431,0.066991
124310000,0.0324,0.013523,0.002678,0.000431,0.063230
124311000,0.0324,0.013523,0.002678,0.000431,0.053710
124312000,0.0324,0.013523,0.002678,0.000431,0.047011
124313000,0.0324,0.013523,0.002678,0.000431,0.045718
124314000,0.0324,0.013523,0.002678,0.000431,0.039372
124315000,0.0324,0.013523,0.002678,0.000431,0.046776
124316000,0.0324,0.013523,0.002678,0.000431,0.025504
124317000,0.0324,0.013523,0.002678,0.000431,0.032555
124318000,0.0324,0.013523,0.002678,0.000431,0.024211
124319000,0.0324,0.013523,0.002678,0.000431,0.019510
124320000,0.0324,0.013523,0.002678,0.000431,0.019392
124321000,0.0324,0.013523,0.002678,0.000431,0.019275
124322000,0.0324,0.013523,0.002678,0.000431,0.016571
124323000,0.0324,0.013523,0.002678,0.000431,0.010342
124324000,0.0324,0.013523,0.002678,0.000431,0.009755
124325000,0.0324,0.013523,0.002678,0.000431,0.008462
124326000,0.0324,0.013523,0.002678,0.000431,0.011400
124327000,0.0324,0.013523,0.002678,0.000431,0.007874
124328000,0.0324,0.013523,0.002678,0.000431,0.012928
124329000,0.0324,0.013523,0.002678,0.000431,0.007169
124330000,0.0324,0.013523,0.002678,0.000431,0.004936
124331000,0.0324,0.013523,0.002678,0.000431,0.005171
124332000,0.0324,0.013523,0.002678,0.000431,0.005406
124333000,0.0324,0.013523,0.002678,0.000431,0.007169
124334000,0.0324,0.013523,0.002678,0.000431,0.006111
124335000,0.0324,0.013523,0.002678,0.000431,0.005876
124336000,0.0324,0.013523,0.002678,0.000431,0.006464
124337000,0.0324,0.013523,0.002678,0.000431,0.003996
124338000,0.0324,0.013523,0.002678,0.000431,0.001645
124339000,0.0324,0.013523,0.002678,0.000431,0.001880
124340000,0.0324,0.013523,0.002678,0.000431,0.004819
124341000,0.0324,0.013523,0.002678,0.000431,0.365865
124342000,0.0324,0.013523,0.002678,0.000431,0.765814
124343000,0.0324,0.013523,0.002678,0.000431,0.350587
124344000,0.0324,0.013523,0.002678,0.000431,0.134452
124345000,0.0324,0.013523,0.002678,0.000431,0.493618
124346000,0.0324,0.013523,0.002678,0.000431,0.328609
124347000,0.0324,0.013523,0.002678,0.000431,0.297464
124348000,0.0324,0.013523,0.002678,0.000431,0.261148
124349000,0.0324,0.013523,0.002678,0.000431,0.159603
124350000,0.0324,0.013523,0.002678,0.000431,0.116353
124351000,0.0324,0.013523,0.002678,0.000431,0.472816
124352000,0.0324,0.013523,0.002678,0.000431,0.311450
124353000,0.0324,0.013523,0.002678,0.000431,0.214254
124354000,0.0324,0.013523,0.002678,0.000431,0.184989
124355000,0.0324,0.013523,0.002678,0.000431,0.176527
124356000,0.0324,0.013523,0.002678,0.000431,0.167595
124357000,0.0324,0.013523,0.002678,0.000431,0.142327
124358000,0.0324,0.013523,0.002678,0.000431,0.136685
124359000,0.0324,0.013523,0.002678,0.000431,0.110359
124360000,0.0324,0.013523,0.002678,0.000431,0.092965
124361000,0.0324,0.013523,0.002678,0.000431,0.091084
124362000,0.0324,0.013523,0.002678,0.000431,0.078509
124363000,0.0324,0.013523,0.002678,0.000431,0.072750
124364000,0.0324,0.013523,0.002678,0.000431,0.072750
124365000,0.0324,0.013523,0.002678,0.000431,0.061467
124366000,0.0324,0.013523,0.002678,0.000431,0.046424
124367000,0.0324,0.013523,0.002678,0.000431,0.043368
124368000,0.0324,0.013523,0.002678,0.000431,0.047481
124369000,0.0324,0.013523,0.002678,0.000431,0.028324
124370000,0.0324,0.013523,0.002678,0.000431,0.032673
124371000,0.0324,0.013523,0.002678,0.000431,0.033378
124372000,0.0324,0.013523,0.002678,0.000431,0.037256
124373000,0.0324,0.013523,0.002678,0.000431,0.020097
124374000,0.0324,0.013523,0.002678,0.000431,0.019157
124375000,0.0324,0.013523,0.002678,0.000431,0.018334
124376000,0.0324,0.013523,0.002678,0.000431,0.018922
124377000,0.0324,0.013523,0.002678,0.000431,0.018452
124378000,0.0324,0.013523,0.002678,0.000431,0.020920
124379000,0.0324,0.013523,0.002678,0.000431,0.016924
124380000,0.0324,0.013523,0.002678,0.000431,0.013163
124381000,0.0324,0.013523,0.002678,0.000431,0.011870
124382000,0.0324,0.013523,0.002678,0.000431,0.021155
124383000,0.0324,0.013523,0.002678,0.000431,0.011165
124384000,0.0324,0.013523,0.002678,0.000431,0.008227
124385000,0.0324,0.013523,0.002678,0.000431,0.010107
124386000,0.0324,0.013523,0.002678,0.000431,0.007052
124387000,0.0324,0.013523,0.002678,0.000431,0.007757
124388000,0.0324,0.013523,0.002678,0.000431,0.007639
124389000,0.0324,0.013523,0.002678,0.000431,0.007169
124390000,0.0324,0.013523,0.002678,0.000431,0.007639
124391000,0.0324,0.013523,0.002678,0.000431,0.009872
124392000,0.0324,0.013523,0.002678,0.000431,0.006347
124393000,0.0324,0.013523,0.002678,0.000431,0.005641
124394000,0.0324,0.013523,0.002678,0.000431,0.006347
124395000,0.0324,0.013523,0.002678,0.000431,0.006229
124396000,0.0324,0.013523,0.002678,0.000431,0.006111
124397000,0.0324,0.013523,0.002678,0.000431,0.004819
124398000,0.0324,0.013523,0.002678,0.000431,0.005171
124399000,0.0324,0.013523,0.002678,0.000431,0.004701
124400000,0.0324,0.013523,0.002678,0.000431,0.005994
124401000,0.0324,0.013523,0.002678,0.000431,0.003996
124402000,0.0324,0.013523,0.002678,0.000431,0.005054
124403000,0.0324,0.013523,0.002678,0.000431,0.004819
124404000,0.0324,0.013523,0.002678,0.000431,0.001645
124405000,0.0324,0.013523,0.002678,0.000431,0.001645
124406000,0.0324,0.013523,0.002678,0.000431,0.001410
124407000,0.0324,0.013523,0.002678,0.000431,0.001645
124408000,0.0324,0.013523,0.002678,0.000431,0.001528
124409000,0.0324,0.013523,0.002678,0.000431,0.001175
124410000,0.0324,0.013523,0.002678,0.000431,0.000705
124411000,0.0324,0.013523,0.002678,0.000431,0.000940
124412000,0.0324,0.013523,0.002678,0.000431,0.222833
124413000,0.0324,0.013523,0.002678,0.000431,0.701291
124414000,0.0324,0.013523,0.002678,0.000431,0.504196
124415000,0.0324,0.013523,0.002678,0.000431,0.149378
124416000,0.0324,0.013523,0.002678,0.000431,0.277602
124417000,0.0324,0.013523,0.002678,0.000431,0.524998
124418000,0.0324,0.013523,0.002678,0.000431,0.358108
124419000,0.0324,0.013523,0.002678,0.000431,0.255976
124420000,0.0324,0.013523,0.002678,0.000431,0.148203
124421000,0.0324,0.013523,0.002678,0.000431,0.123170
124422000,0.0324,0.013523,0.002678,0.000431,0.288297
124423000,0.0324,0.013523,0.002678,0.000431,0.396070
124424000,0.0324,0.013523,0.002678,0.000431,0.110359
124425000,0.0324,0.013523,0.002678,0.000431,0.106245
124426000,0.0324,0.013523,0.002678,0.000431,0.102250
124427000,0.0324,0.013523,0.002678,0.000431,0.083445
124428000,0.0324,0.013523,0.002678,0.000431,0.074983
124429000,0.0324,0.013523,0.002678,0.000431,0.071222
124430000,0.0324,0.013523,0.002678,0.000431,0.066521
124431000,0.0324,0.013523,0.002678,0.000431,0.059939
124432000,0.0324,0.013523,0.002678,0.000431,0.056649
124433000,0.0324,0.013523,0.002678,0.000431,0.046776
124434000,0.0324,0.013523,0.002678,0.000431,0.043720
124435000,0.0324,0.013523,0.002678,0.000431,0.031027
124436000,0.0324,0.013523,0.002678,0.000431,0.031498
124437000,0.0324,0.013523,0.002678,0.000431,0.020920
124438000,0.0324,0.013523,0.002678,0.000431,0.023036
124439000,0.0324,0.013523,0.002678,0.000431,0.019510
124440000,0.0324,0.013523,0.002678,0.000431,0.012340
124441000,0.0324,0.013523,0.002678,0.000431,0.011870
124442000,0.0324,0.013523,0.002678,0.000431,0.007404
124443000,0.0324,0.013523,0.002678,0.000431,0.013163
124444000,0.0324,0.013523,0.002678,0.000431,0.006817
124445000,0.0324,0.013523,0.002678,0.000431,0.006817
124446000,0.0324,0.013523,0.002678,0.000431,0.004466
124447000,0.0324,0.013523,0.002678,0.000431,0.006111
124448000,0.0324,0.013523,0.002678,0.000431,0.006582
124449000,0.0324,0.013523,0.002678,0.000431,0.004466
124450000,0.0324,0.013523,0.002678,0.000431,0.001763
124451000,0.0324,0.013523,0.002678,0.000431,0.001645
124452000,0.0324,0.013523,0.002678,0.000431,0.001645
124453000,0.0324,0.013523,0.002678,0.000431,0.001880
124454000,0.0324,0.013523,0.002678,0.000431,0.001645
124455000,0.0324,0.013523,0.002678,0.000431,0.002468
124456000,0.0324,0.013523,0.002678,0.000431,0.015396
124457000,0.0324,0.013523,0.002678,0.000431,0.650048
124458000,0.0324,0.013523,0.002678,0.000431,0.565898
124459000,0.0324,0.013523,0.002678,0.000431,0.137743
124460000,0.0324,0.013523,0.002678,0.000431,0.134335
124461000,0.0324,0.013523,0.002678,0.000431,0.536516
124462000,0.0324,0.013523,0.002678,0.000431,0.238935
124463000,0.0324,0.013523,0.002678,0.000431,0.264791
124464000,0.0324,0.013523,0.002678,0.000431,0.274898
124465000,0.0324,0.013523,0.002678,0.000431,0.152669
124466000,0.0324,0.013523,0.002678,0.000431,0.167595
124467000,0.0324,0.013523,0.002678,0.000431,0.151141
124468000,0.0324,0.013523,0.002678,0.000431,0.545566
124469000,0.0324,0.013523,0.002678,0.000431,0.192629
124470000,0.0324,0.013523,0.002678,0.000431,0.174882
124471000,0.0324,0.013523,0.002678,0.000431,0.145030
124472000,0.0324,0.013523,0.002678,0.000431,0.136568
124473000,0.0324,0.013523,0.002678,0.000431,0.128576
124474000,0.0324,0.013523,0.002678,0.000431,0.111064
124475000,0.0324,0.013523,0.002678,0.000431,0.104247
124476000,0.0324,0.013523,0.002678,0.000431,0.091202
124477000,0.0324,0.013523,0.002678,0.000431,0.080742
124478000,0.0324,0.013523,0.002678,0.000431,0.073925
124479000,0.0324,0.013523,0.002678,0.000431,0.065228
124480000,0.0324,0.013523,0.002678,0.000431,0.062055
124481000,0.0324,0.013523,0.002678,0.000431,0.051007
124482000,0.0324,0.013523,0.002678,0.000431,0.052065
124483000,0.0324,0.013523,0.002678,0.000431,0.041958
124484000,0.0324,0.013523,0.002678,0.000431,0.030557
124485000,0.0324,0.013523,0.002678,0.000431,0.034318
124486000,0.0324,0.013523,0.002678,0.000431,0.038784
124487000,0.0324,0.013523,0.002678,0.000431,0.019275
124488000,0.0324,0.013523,0.002678,0.000431,0.023036
124489000,0.0324,0.013523,0.002678,0.000431,0.013986
124490000,0.0324,0.013523,0.002678,0.000431,0.011400
124491000,0.0324,0.013523,0.002678,0.000431,0.009520
124492000,0.0324,0.013523,0.002678,0.000431,0.010930
124493000,0.0324,0.013523,0.002678,0.000431,0.010578
124494000,0.0324,0.013523,0.002678,0.000431,0.008580
124495000,0.0324,0.013523,0.002678,0.000431,0.005759
124496000,0.0324,0.013523,0.002678,0.000431,0.005876
124497000,0.0324,0.013523,0.002678,0.000431,0.006347
124498000,0.0324,0.013523,0.002678,0.000431,0.007992
124499000,0.0324,0.013523,0.002678,0.000431,0.005171
124500000,0.0324,0.013523,0.002678,0.000431,0.008109
124501000,0.0324,0.013523,0.002678,0.000431,0.006817
124502000,0.0324,0.013523,0.002678,0.000431,0.002703
124503000,0.0324,0.013523,0.002678,0.000431,0.002586
124504000,0.0324,0.013523,0.002678,0.000431,0.003643
124505000,0.0324,0.013523,0.002678,0.000431,0.003056
124506000,0.0324,0.013523,0.002678,0.000431,0.001763
124507000,0.0324,0.013523,0.002678,0.000431,0.001645
124508000,0.0324,0.013523,0.002678,0.000431,0.004349
124509000,0.0324,0.013523,0.002678,0.000431,0.000940
124510000,0.0324,0.013523,0.002678,0.000431,0.000940
124511000,0.0324,0.013523,0.002678,0.000431,0.000823
124512000,0.0324,0.013523,0.002678,0.000431,0.000940
124513000,0.0324,0.013523,0.002678,0.000431,0.000823
124514000,0.0324,0.013523,0.002678,0.000431,0.000940
124515000,0.0324,0.013523,0.002678,0.000431,0.000940
124516000,0.0324,0.013523,0.002678,0.000431,0.000823
124517000,0.0324,0.013523,0.002678,0.000431,0.000823
124518000,0.0324,0.013523,0.002678,0.000431,0.000940
124519000,0.0324,0.013523,0.002678,0.000431,0.000940
124520000,0.0324,0.013523,0.002678,0.000431,0.000940
124521000,0.0324,0.013523,0.002678,0.000431,0.000940
124522000,0.0324,0.013523,0.002678,0.000431,0.166772
124523000,0.0324,0.013523,0.002678,0.000431,0.723856
124524000,0.0324,0.013523,0.002678,0.000431,0.494206
124525000,0.0324,0.013523,0.002678,0.000431,0.140329
124526000,0.0324,0.013523,0.002678,0.000431,0.267964
124527000,0.0324,0.013523,0.002678,0.000431,0.542158
124528000,0.0324,0.013523,0.002678,0.000431,0.288414
124529000,0.0324,0.013523,0.002678,0.000431,0.253156
124530000,0.0324,0.013523,0.002678,0.000431,0.143619
124531000,0.0324,0.013523,0.002678,0.000431,0.127401
124532000,0.0324,0.013523,0.002678,0.000431,0.365160
124533000,0.0324,0.013523,0.002678,0.000431,0.466117
124534000,0.0324,0.013523,0.002678,0.000431,0.248337
124535000,0.0324,0.013523,0.002678,0.000431,0.219778
124536000,0.0324,0.013523,0.002678,0.000431,0.182991
124537000,0.0324,0.013523,0.002678,0.000431,0.167830
124538000,0.0324,0.013523,0.002678,0.000431,0.150671
124539000,0.0324,0.013523,0.002678,0.000431,0.121407
124540000,0.0324,0.013523,0.002678,0.000431,0.087676
124541000,0.0324,0.013523,0.002678,0.000431,0.071457
124542000,0.0324,0.013523,0.002678,0.000431,0.058999
124543000,0.0324,0.013523,0.002678,0.000431,0.044073
124544000,0.0324,0.013523,0.002678,0.000431,0.052653
124545000,0.0324,0.013523,0.002678,0.000431,0.036786
124546000,0.0324,0.013523,0.002678,0.000431,0.031027
124547000,0.0324,0.013523,0.002678,0.000431,0.027502
124548000,0.0324,0.013523,0.002678,0.000431,0.027972
124549000,0.0324,0.013523,0.002678,0.000431,0.016219
124550000,0.0324,0.013523,0.002678,0.000431,0.018217
124551000,0.0324,0.013523,0.002678,0.000431,0.008580
124552000,0.0324,0.013523,0.002678,0.000431,0.006934
124553000,0.0324,0.013523,0.002678,0.000431,0.007169
124554000,0.0324,0.013523,0.002678,0.000431,0.008462
124555000,0.0324,0.013523,0.002678,0.000431,0.007874
124556000,0.0324,0.013523,0.002678,0.000431,0.010578
124557000,0.0324,0.013523,0.002678,0.000431,0.003408
124558000,0.0324,0.013523,0.002678,0.000431,0.006229
124559000,0.0324,0.013523,0.002678,0.000431,0.002351
124560000,0.0324,0.013523,0.002678,0.000431,0.002586
124561000,0.0324,0.013523,0.002678,0.000431,0.002468
124562000,0.0324,0.013523,0.002678,0.000431,0.002233
124563000,0.0324,0.013523,0.002678,0.000431,0.001998
124564000,0.0324,0.013523,0.002678,0.000431,0.002586
124565000,0.0324,0.013523,0.002678,0.000431,0.001998
124566000,0.0324,0.013523,0.002678,0.000431,0.002703
124567000,0.0324,0.013523,0.002678,0.000431,0.002351
124568000,0.0324,0.013523,0.002678,0.000431,0.002468
124569000,0.0324,0.013523,0.002678,0.000431,0.002468
124570000,0.0324,0.013523,0.002678,0.000431,0.002351
124571000,0.0324,0.013523,0.002678,0.000431,0.001880
124572000,0.0324,0.013523,0.002678,0.000431,0.002116
124573000,0.0324,0.013523,0.002678,0.000431,0.004466
124574000,0.0324,0.013523,0.002678,0.000431,0.001175
124575000,0.0324,0.013523,0.002678,0.000431,0.001528
124576000,0.0324,0.013523,0.002678,0.000431,0.000823
124577000,0.0324,0.013523,0.002678,0.000431,0.001175
124578000,0.0324,0.013523,0.002678,0.000431,0.029147
124579000,0.0324,0.013523,0.002678,0.000431,0.852667
124580000,0.0324,0.013523,0.002678,0.000431,0.556261
124581000,0.0324,0.013523,0.002678,0.000431,0.188750
124582000,0.0324,0.013523,0.002678,0.000431,0.189690
124583000,0.0324,0.013523,0.002678,0.000431,0.593282
124584000,0.0324,0.013523,0.002678,0.000431,0.267729
124585000,0.0324,0.013523,0.002678,0.000431,0.343887
124586000,0.0324,0.013523,0.002678,0.000431,0.167125
124587000,0.0324,0.013523,0.002678,0.000431,0.135510
124588000,0.0324,0.013523,0.002678,0.000431,0.243283
124589000,0.0324,0.013523,0.002678,0.000431,0.569777
124590000,0.0324,0.013523,0.002678,0.000431,0.291352
124591000,0.0324,0.013523,0.002678,0.000431,0.274311
124592000,0.0324,0.013523,0.002678,0.000431,0.231883
124593000,0.0324,0.013523,0.002678,0.000431,0.175705
124594000,0.0324,0.013523,0.002678,0.000431,0.159956
124595000,0.0324,0.013523,0.002678,0.000431,0.142327
124596000,0.0324,0.013523,0.002678,0.000431,0.113532
124597000,0.0324,0.013523,0.002678,0.000431,0.097196
124598000,0.0324,0.013523,0.002678,0.000431,0.080859
124599000,0.0324,0.013523,0.002678,0.000431,0.040782
124600000,0.0324,0.013523,0.002678,0.000431,0.051242
124601000,0.0324,0.013523,0.002678,0.000431,0.048774
124602000,0.0324,0.013523,0.002678,0.000431,0.027737
124603000,0.0324,0.013523,0.002678,0.000431,0.026091
124604000,0.0324,0.013523,0.002678,0.000431,0.021155
124605000,0.0324,0.013523,0.002678,0.000431,0.015161
124606000,0.0324,0.013523,0.002678,0.000431,0.013163
124607000,0.0324,0.013523,0.002678,0.000431,0.006229
124608000,0.0324,0.013523,0.002678,0.000431,0.014456
124609000,0.0324,0.013523,0.002678,0.000431,0.004936
124610000,0.0324,0.013523,0.002678,0.000431,0.007169
124611000,0.0324,0.013523,0.002678,0.000431,0.002703
124612000,0.0324,0.013523,0.002678,0.000431,0.005289
124613000,0.0324,0.013523,0.002678,0.000431,0.001880
124614000,0.0324,0.013523,0.002678,0.000431,0.001410
124615000,0.0324,0.013523,0.002678,0.000431,0.002938
124616000,0.0324,0.013523,0.002678,0.000431,0.548739
124617000,0.0324,0.013523,0.002678,0.000431,0.713984
124618000,0.0324,0.013523,0.002678,0.000431,0.330724
124619000,0.0324,0.013523,0.002678,0.000431,0.146910
124620000,0.0324,0.013523,0.002678,0.000431,0.559199
124621000,0.0324,0.013523,0.002678,0.000431,0.260913
124622000,0.0324,0.013523,0.002678,0.000431,0.349176
124623000,0.0324,0.013523,0.002678,0.000431,0.206379
124624000,0.0324,0.013523,0.002678,0.000431,0.178290
124625000,0.0324,0.013523,0.002678,0.000431,0.111417
124626000,0.0324,0.013523,0.002678,0.000431,0.551207
124627000,0.0324,0.013523,0.002678,0.000431,0.342477
124628000,0.0324,0.013523,0.002678,0.000431,0.254331
124629000,0.0324,0.013523,0.002678,0.000431,0.233293
124630000,0.0324,0.013523,0.002678,0.000431,0.210023
124631000,0.0324,0.013523,0.002678,0.000431,0.174529
124632000,0.0324,0.013523,0.002678,0.000431,0.139153
124633000,0.0324,0.013523,0.002678,0.000431,0.108949
124634000,0.0324,0.013523,0.002678,0.000431,0.101192
124635000,0.0324,0.013523,0.002678,0.000431,0.073690
124636000,0.0324,0.013523,0.002678,0.000431,0.073573
124637000,0.0324,0.013523,0.002678,0.000431,0.062172
124638000,0.0324,0.013523,0.002678,0.000431,0.038667
124639000,0.0324,0.013523,0.002678,0.000431,0.036904
124640000,0.0324,0.013523,0.002678,0.000431,0.024093
124641000,0.0324,0.013523,0.002678,0.000431,0.021625
124642000,0.0324,0.013523,0.002678,0.000431,0.018569
124643000,0.0324,0.013523,0.002678,0.000431,0.017982
124644000,0.0324,0.013523,0.002678,0.000431,0.011870
124645000,0.0324,0.013523,0.002678,0.000431,0.011048
124646000,0.0324,0.013523,0.002678,0.000431,0.008109
124647000,0.0324,0.013523,0.002678,0.000431,0.009755
124648000,0.0324,0.013523,0.002678,0.000431,0.009402
124649000,0.0324,0.013523,0.002678,0.000431,0.009872
124650000,0.0324,0.013523,0.002678,0.000431,0.009755
124651000,0.0324,0.013523,0.002678,0.000431,0.004701
124652000,0.0324,0.013523,0.002678,0.000431,0.005524
124653000,0.0324,0.013523,0.002678,0.000431,0.005054
124654000,0.0324,0.013523,0.002678,0.000431,0.005876
124655000,0.0324,0.013523,0.002678,0.000431,0.005994
124656000,0.0324,0.013523,0.002678,0.000431,0.004584
124657000,0.0324,0.013523,0.002678,0.000431,0.004349
124658000,0.0324,0.013523,0.002678,0.000431,0.005289
124659000,0.0324,0.013523,0.002678,0.000431,0.004701
124660000,0.0324,0.013523,0.002678,0.000431,0.003878
124661000,0.0324,0.013523,0.002678,0.000431,0.019040
124662000,0.0324,0.013523,0.002678,0.000431,0.800132
124663000,0.0324,0.013523,0.002678,0.000431,0.592107
124664000,0.0324,0.013523,0.002678,0.000431,0.198153
124665000,0.0324,0.013523,0.002678,0.000431,0.172296
124666000,0.0324,0.013523,0.002678,0.000431,0.626190
124667000,0.0324,0.013523,0.002678,0.000431,0.289002
124668000,0.0324,0.013523,0.002678,0.000431,0.366218
124669000,0.0324,0.013523,0.002678,0.000431,0.148791
124670000,0.0324,0.013523,0.002678,0.000431,0.112945
124671000,0.0324,0.013523,0.002678,0.000431,0.392309
124672000,0.0324,0.013523,0.002678,0.000431,0.493618
124673000,0.0324,0.013523,0.002678,0.000431,0.288414
124674000,0.0324,0.013523,0.002678,0.000431,0.279717
124675000,0.0324,0.013523,0.002678,0.000431,0.239993
124676000,0.0324,0.013523,0.002678,0.000431,0.179701
124677000,0.0324,0.013523,0.002678,0.000431,0.184519
124678000,0.0324,0.013523,0.002678,0.000431,0.140681
124679000,0.0324,0.013523,0.002678,0.000431,0.133042
124680000,0.0324,0.013523,0.002678,0.000431,0.095550
124681000,0.0324,0.013523,0.002678,0.000431,0.082505
124682000,0.0324,0.013523,0.002678,0.000431,0.074160
124683000,0.0324,0.013523,0.002678,0.000431,0.070164
124684000,0.0324,0.013523,0.002678,0.000431,0.045718
124685000,0.0324,0.013523,0.002678,0.000431,0.039137
124686000,0.0324,0.013523,0.002678,0.000431,0.032555
124687000,0.0324,0.013523,0.002678,0.000431,0.024798
124688000,0.0324,0.013523,0.002678,0.000431,0.021508
124689000,0.0324,0.013523,0.002678,0.000431,0.019392
124690000,0.0324,0.013523,0.002678,0.000431,0.022330
124691000,0.0324,0.013523,0.002678,0.000431,0.015044
124692000,0.0324,0.013523,0.002678,0.000431,0.014573
124693000,0.0324,0.013523,0.002678,0.000431,0.013398
124694000,0.0324,0.013523,0.002678,0.000431,0.007992
124695000,0.0324,0.013523,0.002678,0.000431,0.006464
124696000,0.0324,0.013523,0.002678,0.000431,0.009637
124697000,0.0324,0.013523,0.002678,0.000431,0.009872
124698000,0.0324,0.013523,0.002678,0.000431,0.004113
124699000,0.0324,0.013523,0.002678,0.000431,0.013751
124700000,0.0324,0.013523,0.002678,0.000431,0.002703
124701000,0.0324,0.013523,0.002678,0.000431,0.003878
124702000,0.0324,0.013523,0.002678,0.000431,0.000940
124703000,0.0324,0.013523,0.002678,0.000431,0.000823
124704000,0.0324,0.013523,0.002678,0.000431,0.000823
124705000,0.0324,0.013523,0.002678,0.000431,0.000823
124706000,0.0324,0.013523,0.002678,0.000431,0.000823
124707000,0.0324,0.013523,0.002678,0.000431,0.000823
124708000,0.0324,0.013523,0.002678,0.000431,0.078979
124709000,0.0324,0.013523,0.002678,0.000431,0.883107
124710000,0.0324,0.013523,0.002678,0.000431,0.564370
124711000,0.0324,0.013523,0.002678,0.000431,0.171944
124712000,0.0324,0.013523,0.002678,0.000431,0.296524
124713000,0.0324,0.013523,0.002678,0.000431,0.562137
124714000,0.0324,0.013523,0.002678,0.000431,0.283831
124715000,0.0324,0.013523,0.002678,0.000431,0.290295
124716000,0.0324,0.013523,0.002678,0.000431,0.154079
124717000,0.0324,0.013523,0.002678,0.000431,0.110476
124718000,0.0324,0.013523,0.002678,0.000431,0.462356
124719000,0.0324,0.013523,0.002678,0.000431,0.367863
124720000,0.0324,0.013523,0.002678,0.000431,0.235174
124721000,0.0324,0.013523,0.002678,0.000431,0.215782
124722000,0.0324,0.013523,0.002678,0.000431,0.189808
124723000,0.0324,0.013523,0.002678,0.000431,0.156312
124724000,0.0324,0.013523,0.002678,0.000431,0.126343
124725000,0.0324,0.013523,0.002678,0.000431,0.100722
124726000,0.0324,0.013523,0.002678,0.000431,0.079332
124727000,0.0324,0.013523,0.002678,0.000431,0.067226
124728000,0.0324,0.013523,0.002678,0.000431,0.051595
124729000,0.0324,0.013523,0.002678,0.000431,0.027502
124730000,0.0324,0.013523,0.002678,0.000431,0.028442
124731000,0.0324,0.013523,0.002678,0.000431,0.026796
124732000,0.0324,0.013523,0.002678,0.000431,0.026914
124733000,0.0324,0.013523,0.002678,0.000431,0.017864
124734000,0.0324,0.013523,0.002678,0.000431,0.014103
124735000,0.0324,0.013523,0.002678,0.000431,0.015631
124736000,0.0324,0.013523,0.002678,0.000431,0.012576
124737000,0.0324,0.013523,0.002678,0.000431,0.010930
124738000,0.0324,0.013523,0.002678,0.000431,0.007639
124739000,0.0324,0.013523,0.002678,0.000431,0.007169
124740000,0.0324,0.013523,0.002678,0.000431,0.011400
124741000,0.0324,0.013523,0.002678,0.000431,0.004936
124742000,0.0324,0.013523,0.002678,0.000431,0.011165
124743000,0.0324,0.013523,0.002678,0.000431,0.003526
124744000,0.0324,0.013523,0.002678,0.000431,0.005524
124745000,0.0324,0.013523,0.002678,0.000431,0.002821
124746000,0.0324,0.013523,0.002678,0.000431,0.002468
124747000,0.0324,0.013523,0.002678,0.000431,0.005641
124748000,0.0324,0.013523,0.002678,0.000431,0.001528
124749000,0.0324,0.013523,0.002678,0.000431,0.001763
124750000,0.0324,0.013523,0.002678,0.000431,0.001880
124751000,0.0324,0.013523,0.002678,0.000431,0.001410
124752000,0.0324,0.013523,0.002678,0.000431,0.001880
124753000,0.0324,0.013523,0.002678,0.000431,0.001410
124754000,0.0324,0.013523,0.002678,0.000431,0.001880
124755000,0.0324,0.013523,0.002678,0.000431,0.003643
124756000,0.0324,0.013523,0.002678,0.000431,0.000940
124757000,0.0324,0.013523,0.002678,0.000431,0.000823
124758000,0.0324,0.013523,0.002678,0.000431,0.000823
124759000,0.0324,0.013523,0.002678,0.000431,0.000940
124760000,0.0324,0.013523,0.002678,0.000431,0.000705
124761000,0.0324,0.013523,0.002678,0.000431,0.199563
124762000,0.0324,0.013523,0.002678,0.000431,0.756999
124763000,0.0324,0.013523,0.002678,0.000431,0.521943
124764000,0.0324,0.013523,0.002678,0.000431,0.167478
124765000,0.0324,0.013523,0.002678,0.000431,0.274193
124766000,0.0324,0.013523,0.002678,0.000431,0.557906
124767000,0.0324,0.013523,0.002678,0.000431,0.300755
124768000,0.0324,0.013523,0.002678,0.000431,0.276074
124769000,0.0324,0.013523,0.002678,0.000431,0.161954
124770000,0.0324,0.013523,0.002678,0.000431,0.104365
124771000,0.0324,0.013523,0.002678,0.000431,0.402416
124772000,0.0324,0.013523,0.002678,0.000431,0.510425
124773000,0.0324,0.013523,0.002678,0.000431,0.304163
124774000,0.0324,0.013523,0.002678,0.000431,0.258915
124775000,0.0324,0.013523,0.002678,0.000431,0.211903
124776000,0.0324,0.013523,0.002678,0.000431,0.187222
124777000,0.0324,0.013523,0.002678,0.000431,0.179701
124778000,0.0324,0.013523,0.002678,0.000431,0.128928
124779000,0.0324,0.013523,0.002678,0.000431,0.117293
124780000,0.0324,0.013523,0.002678,0.000431,0.079214
124781000,0.0324,0.013523,0.002678,0.000431,0.071810
124782000,0.0324,0.013523,0.002678,0.000431,0.055003
124783000,0.0324,0.013523,0.002678,0.000431,0.043015
124784000,0.0324,0.013523,0.002678,0.000431,0.037609
124785000,0.0324,0.013523,0.002678,0.000431,0.027267
124786000,0.0324,0.013523,0.002678,0.000431,0.014809
124787000,0.0324,0.013523,0.002678,0.000431,0.022800
124788000,0.0324,0.013523,0.002678,0.000431,0.009285
124789000,0.0324,0.013523,0.002678,0.000431,0.012458
124790000,0.0324,0.013523,0.002678,0.000431,0.011518
124791000,0.0324,0.013523,0.002678,0.000431,0.012576
124792000,0.0324,0.013523,0.002678,0.000431,0.006934
124793000,0.0324,0.013523,0.002678,0.000431,0.004231
124794000,0.0324,0.013523,0.002678,0.000431,0.003408
124795000,0.0324,0.013523,0.002678,0.000431,0.007874
124796000,0.0324,0.013523,0.002678,0.000431,0.002821
124797000,0.0324,0.013523,0.002678,0.000431,0.002703
124798000,0.0324,0.013523,0.002678,0.000431,0.003173
124799000,0.0324,0.013523,0.002678,0.000431,0.005406
124800000,0.0324,0.013523,0.002678,0.000431,0.008109
124801000,0.0324,0.013523,0.002678,0.000431,0.520532
124802000,0.0324,0.013523,0.002678,0.000431,0.771573
124803000,0.0324,0.013523,0.002678,0.000431,0.332957
124804000,0.0324,0.013523,0.002678,0.000431,0.170533
124805000,0.0324,0.013523,0.002678,0.000431,0.499847
124806000,0.0324,0.013523,0.002678,0.000431,0.308511
124807000,0.0324,0.013523,0.002678,0.000431,0.319089
124808000,0.0324,0.013523,0.002678,0.000431,0.247514
124809000,0.0324,0.013523,0.002678,0.000431,0.185930
124810000,0.0324,0.013523,0.002678,0.000431,0.103425
124811000,0.0324,0.013523,0.002678,0.000431,0.514186
124812000,0.0324,0.013523,0.002678,0.000431,0.424864
124813000,0.0324,0.013523,0.002678,0.000431,0.292293
124814000,0.0324,0.013523,0.002678,0.000431,0.245869
124815000,0.0324,0.013523,0.002678,0.000431,0.213666
124816000,0.0324,0.013523,0.002678,0.000431,0.172531
124817000,0.0324,0.013523,0.002678,0.000431,0.157488
124818000,0.0324,0.013523,0.002678,0.000431,0.139623
124819000,0.0324,0.013523,0.002678,0.000431,0.124462
124820000,0.0324,0.013523,0.002678,0.000431,0.094845
124821000,0.0324,0.013523,0.002678,0.000431,0.053358
124822000,0.0324,0.013523,0.002678,0.000431,0.058647
124823000,0.0324,0.013523,0.002678,0.000431,0.052065
124824000,0.0324,0.013523,0.002678,0.000431,0.037139
124825000,0.0324,0.013523,0.002678,0.000431,0.035258
124826000,0.0324,0.013523,0.002678,0.000431,0.031733
124827000,0.0324,0.013523,0.002678,0.000431,0.018922
124828000,0.0324,0.013523,0.002678,0.000431,0.014456
124829000,0.0324,0.013523,0.002678,0.000431,0.016924
124830000,0.0324,0.013523,0.002678,0.000431,0.014221
124831000,0.0324,0.013523,0.002678,0.000431,0.019745
124832000,0.0324,0.013523,0.002678,0.000431,0.017864
124833000,0.0324,0.013523,0.002678,0.000431,0.005641
124834000,0.0324,0.013523,0.002678,0.000431,0.015631
124835000,0.0324,0.013523,0.002678,0.000431,0.003291
124836000,0.0324,0.013523,0.002678,0.000431,0.003761
124837000,0.0324,0.013523,0.002678,0.000431,0.003056
124838000,0.0324,0.013523,0.002678,0.000431,0.003173
124839000,0.0324,0.013523,0.002678,0.000431,0.003173
124840000,0.0324,0.013523,0.002678,0.000431,0.003173
124841000,0.0324,0.013523,0.002678,0.000431,0.003761
124842000,0.0324,0.013523,0.002678,0.000431,0.003291
124843000,0.0324,0.013523,0.002678,0.000431,0.003291
124844000,0.0324,0.013523,0.002678,0.000431,0.003173
124845000,0.0324,0.013523,0.002678,0.000431,0.003643
124846000,0.0324,0.013523,0.002678,0.000431,0.003996
124847000,0.0324,0.013523,0.002678,0.000431,0.003291
124848000,0.0324,0.013523,0.002678,0.000431,0.003526
124849000,0.0324,0.013523,0.002678,0.000431,0.003643
124850000,0.0324,0.013523,0.002678,0.000431,0.005994
124851000,0.0324,0.013523,0.002678,0.000431,0.005641
124852000,0.0324,0.013523,0.002678,0.000431,0.001645
124853000,0.0324,0.013523,0.002678,0.000431,0.002821
124854000,0.0324,0.013523,0.002678,0.000431,0.342477
124855000,0.0324,0.013523,0.002678,0.000431,0.851844
124856000,0.0324,0.013523,0.002678,0.000431,0.412877
124857000,0.0324,0.013523,0.002678,0.000431,0.174177
124858000,0.0324,0.013523,0.002678,0.000431,0.454952
124859000,0.0324,0.013523,0.002678,0.000431,0.350587
124860000,0.0324,0.013523,0.002678,0.000431,0.320734
124861000,0.0324,0.013523,0.002678,0.000431,0.263968
124862000,0.0324,0.013523,0.002678,0.000431,0.172296
124863000,0.0324,0.013523,0.002678,0.000431,0.102132
124864000,0.0324,0.013523,0.002678,0.000431,0.538984
124865000,0.0324,0.013523,0.002678,0.000431,0.422044
124866000,0.0324,0.013523,0.002678,0.000431,0.305691
124867000,0.0324,0.013523,0.002678,0.000431,0.252686
124868000,0.0324,0.013523,0.002678,0.000431,0.221776
124869000,0.0324,0.013523,0.002678,0.000431,0.182639
124870000,0.0324,0.013523,0.002678,0.000431,0.161366
124871000,0.0324,0.013523,0.002678,0.000431,0.127283
124872000,0.0324,0.013523,0.002678,0.000431,0.103660
124873000,0.0324,0.013523,0.002678,0.000431,0.092260
124874000,0.0324,0.013523,0.002678,0.000431,0.079802
124875000,0.0324,0.013523,0.002678,0.000431,0.051007
124876000,0.0324,0.013523,0.002678,0.000431,0.045131
124877000,0.0324,0.013523,0.002678,0.000431,0.028207
124878000,0.0324,0.013523,0.002678,0.000431,0.029029
124879000,0.0324,0.013523,0.002678,0.000431,0.023741
124880000,0.0324,0.013523,0.002678,0.000431,0.023036
124881000,0.0324,0.013523,0.002678,0.000431,0.014926
124882000,0.0324,0.013523,0.002678,0.000431,0.012458
124883000,0.0324,0.013523,0.002678,0.000431,0.013281
124884000,0.0324,0.013523,0.002678,0.000431,0.015514
124885000,0.0324,0.013523,0.002678,0.000431,0.010930
124886000,0.0324,0.013523,0.002678,0.000431,0.007757
124887000,0.0324,0.013523,0.002678,0.000431,0.007287
124888000,0.0324,0.013523,0.002678,0.000431,0.006464
124889000,0.0324,0.013523,0.002678,0.000431,0.003878
124890000,0.0324,0.013523,0.002678,0.000431,0.006111
124891000,0.0324,0.013523,0.002678,0.000431,0.000823
124892000,0.0324,0.013523,0.002678,0.000431,0.271843
124893000,0.0324,0.013523,0.002678,0.000431,0.815763
124894000,0.0324,0.013523,0.002678,0.000431,0.527349
124895000,0.0324,0.013523,0.002678,0.000431,0.156077
124896000,0.0324,0.013523,0.002678,0.000431,0.320147
124897000,0.0324,0.013523,0.002678,0.000431,0.503961
124898000,0.0324,0.013523,0.002678,0.000431,0.302400
124899000,0.0324,0.013523,0.002678,0.000431,0.273958
124900000,0.0324,0.013523,0.002678,0.000431,0.167595
124901000,0.0324,0.013523,0.002678,0.000431,0.100604
124902000,0.0324,0.013523,0.002678,0.000431,0.462238
124903000,0.0324,0.013523,0.002678,0.000431,0.456950
124904000,0.0324,0.013523,0.002678,0.000431,0.294408
124905000,0.0324,0.013523,0.002678,0.000431,0.258444
124906000,0.0324,0.013523,0.002678,0.000431,0.216604
124907000,0.0324,0.013523,0.002678,0.000431,0.166067
124908000,0.0324,0.013523,0.002678,0.000431,0.126108
124909000,0.0324,0.013523,0.002678,0.000431,0.118351
124910000,0.0324,0.013523,0.002678,0.000431,0.111064
124911000,0.0324,0.013523,0.002678,0.000431,0.072397
124912000,0.0324,0.013523,0.002678,0.000431,0.050185
124913000,0.0324,0.013523,0.002678,0.000431,0.046659
124914000,0.0324,0.013523,0.002678,0.000431,0.034906
124915000,0.0324,0.013523,0.002678,0.000431,0.040547
124916000,0.0324,0.013523,0.002678,0.000431,0.029147
124917000,0.0324,0.013523,0.002678,0.000431,0.025386
124918000,0.0324,0.013523,0.002678,0.000431,0.017394
124919000,0.0324,0.013523,0.002678,0.000431,0.022565
124920000,0.0324,0.013523,0.002678,0.000431,0.018334
124921000,0.0324,0.013523,0.002678,0.000431,0.009990
124922000,0.0324,0.013523,0.002678,0.000431,0.014691
124923000,0.0324,0.013523,0.002678,0.000431,0.010695
124924000,0.0324,0.013523,0.002678,0.000431,0.008109
124925000,0.0324,0.013523,0.002678,0.000431,0.004584
124926000,0.0324,0.013523,0.002678,0.000431,0.005994
124927000,0.0324,0.013523,0.002678,0.000431,0.003408
124928000,0.0324,0.013523,0.002678,0.000431,0.003643
124929000,0.0324,0.013523,0.002678,0.000431,0.003408
124930000,0.0324,0.013523,0.002678,0.000431,0.003291
124931000,0.0324,0.013523,0.002678,0.000431,0.007522
124932000,0.0324,0.013523,0.002678,0.000431,0.004349
124933000,0.0324,0.013523,0.002678,0.000431,0.001645
124934000,0.0324,0.013523,0.002678,0.000431,0.001645
124935000,0.0324,0.013523,0.002678,0.000431,0.006347
124936000,0.0324,0.013523,0.002678,0.000431,0.000823
124937000,0.0324,0.013523,0.002678,0.000431,0.000823
124938000,0.0324,0.013523,0.002678,0.000431,0.000940
124939000,0.0324,0.013523,0.002678,0.000431,0.000823
124940000,0.0324,0.013523,0.002678,0.000431,0.000823
124941000,0.0324,0.013523,0.002678,0.000431,0.000823
124942000,0.0324,0.013523,0.002678,0.000431,0.000705
124943000,0.0324,0.013523,0.002678,0.000431,0.000940
124944000,0.0324,0.013523,0.002678,0.000431,0.000940
124945000,0.0324,0.013523,0.002678,0.000431,0.000940
124946000,0.0324,0.013523,0.002678,0.000431,0.004231
124947000,0.0324,0.013523,0.002678,0.000431,0.638296
124948000,0.0324,0.013523,0.002678,0.000431,0.731025
124949000,0.0324,0.013523,0.002678,0.000431,0.269962
124950000,0.0324,0.013523,0.002678,0.000431,0.180288
124951000,0.0324,0.013523,0.002678,0.000431,0.576123
124952000,0.0324,0.013523,0.002678,0.000431,0.303223
124953000,0.0324,0.013523,0.002678,0.000431,0.345885
124954000,0.0324,0.013523,0.002678,0.000431,0.194039
124955000,0.0324,0.013523,0.002678,0.000431,0.146088
124956000,0.0324,0.013523,0.002678,0.000431,0.208848
124957000,0.0324,0.013523,0.002678,0.000431,0.612674
124958000,0.0324,0.013523,0.002678,0.000431,0.367511
124959000,0.0324,0.013523,0.002678,0.000431,0.293115
124960000,0.0324,0.013523,0.002678,0.000431,0.235644
124961000,0.0324,0.013523,0.002678,0.000431,0.207085
124962000,0.0324,0.013523,0.002678,0.000431,0.178173
124963000,0.0324,0.013523,0.002678,0.000431,0.144677
124964000,0.0324,0.013523,0.002678,0.000431,0.119409
124965000,0.0324,0.013523,0.002678,0.000431,0.102602
124966000,0.0324,0.013523,0.002678,0.000431,0.086736
124967000,0.0324,0.013523,0.002678,0.000431,0.082505
124968000,0.0324,0.013523,0.002678,0.000431,0.050890
124969000,0.0324,0.013523,0.002678,0.000431,0.046541
124970000,0.0324,0.013523,0.002678,0.000431,0.037021
124971000,0.0324,0.013523,0.002678,0.000431,0.030675
124972000,0.0324,0.013523,0.002678,0.000431,0.049244
124973000,0.0324,0.013523,0.002678,0.000431,0.033025
124974000,0.0324,0.013523,0.002678,0.000431,0.017629
124975000,0.0324,0.013523,0.002678,0.000431,0.014573
124976000,0.0324,0.013523,0.002678,0.000431,0.018217
124977000,0.0324,0.013523,0.002678,0.000431,0.010813
124978000,0.0324,0.013523,0.002678,0.000431,0.010578
124979000,0.0324,0.013523,0.002678,0.000431,0.006699
124980000,0.0324,0.013523,0.002678,0.000431,0.011635
124981000,0.0324,0.013523,0.002678,0.000431,0.014456
124982000,0.0324,0.013523,0.002678,0.000431,0.001645
124983000,0.0324,0.013523,0.002678,0.000431,0.001998
124984000,0.0324,0.013523,0.002678,0.000431,0.001528
124985000,0.0324,0.013523,0.002678,0.000431,0.001410
124986000,0.0324,0.013523,0.002678,0.000431,0.001058
124987000,0.0324,0.013523,0.002678,0.000431,0.001058
124988000,0.0324,0.013523,0.002678,0.000431,0.323673
124989000,0.0324,0.013523,0.002678,0.000431,0.902381
124990000,0.0324,0.013523,0.002678,0.000431,0.449075
124991000,0.0324,0.013523,0.002678,0.000431,0.171709
124992000,0.0324,0.013523,0.002678,0.000431,0.529700
124993000,0.0324,0.013523,0.002678,0.000431,0.309217
124994000,0.0324,0.013523,0.002678,0.000431,0.315211
124995000,0.0324,0.013523,0.002678,0.000431,0.207085
124996000,0.0324,0.013523,0.002678,0.000431,0.173472
124997000,0.0324,0.013523,0.002678,0.000431,0.141269
124998000,0.0324,0.013523,0.002678,0.000431,0.589521
124999000,0.0324,0.013523,0.002678,0.000431,0.386433
