Cycle,Area(mm^2),PeakDynamic(W),SubthresholdLeakage(W),GateLeakage(W),RunTimeDynamic(W)
37000000,0.0324,0.013523,0.002678,0.000431,0.000940
37001000,0.0324,0.013523,0.002678,0.000431,0.000705
37002000,0.0324,0.013523,0.002678,0.000431,0.000940
37003000,0.0324,0.013523,0.002678,0.000431,0.001645
37004000,0.0324,0.013523,0.002678,0.000431,0.422984
37005000,0.0324,0.013523,0.002678,0.000431,0.733258
37006000,0.0324,0.013523,0.002678,0.000431,0.235526
37007000,0.0324,0.013523,0.002678,0.000431,0.133042
37008000,0.0324,0.013523,0.002678,0.000431,0.202384
37009000,0.0324,0.013523,0.002678,0.000431,0.535106
37010000,0.0324,0.013523,0.002678,0.000431,0.242813
37011000,0.0324,0.013523,0.002678,0.000431,0.327669
37012000,0.0324,0.013523,0.002678,0.000431,0.186987
37013000,0.0324,0.013523,0.002678,0.000431,0.154667
37014000,0.0324,0.013523,0.002678,0.000431,0.123052
37015000,0.0324,0.013523,0.002678,0.000431,0.313330
37016000,0.0324,0.013523,0.002678,0.000431,0.375620
37017000,0.0324,0.013523,0.002678,0.000431,0.160308
37018000,0.0324,0.013523,0.002678,0.000431,0.142797
37019000,0.0324,0.013523,0.002678,0.000431,0.123522
37020000,0.0324,0.013523,0.002678,0.000431,0.100722
37021000,0.0324,0.013523,0.002678,0.000431,0.090262
37022000,0.0324,0.013523,0.002678,0.000431,0.082857
37023000,0.0324,0.013523,0.002678,0.000431,0.074513
37024000,0.0324,0.013523,0.002678,0.000431,0.069929
37025000,0.0324,0.013523,0.002678,0.000431,0.064993
37026000,0.0324,0.013523,0.002678,0.000431,0.053593
37027000,0.0324,0.013523,0.002678,0.000431,0.051830
37028000,0.0324,0.013523,0.002678,0.000431,0.045483
37029000,0.0324,0.013523,0.002678,0.000431,0.041252
37030000,0.0324,0.013523,0.002678,0.000431,0.029500
37031000,0.0324,0.013523,0.002678,0.000431,0.025856
37032000,0.0324,0.013523,0.002678,0.000431,0.017747
37033000,0.0324,0.013523,0.002678,0.000431,0.014103
37034000,0.0324,0.013523,0.002678,0.000431,0.013398
37035000,0.0324,0.013523,0.002678,0.000431,0.013986
37036000,0.0324,0.013523,0.002678,0.000431,0.009167
37037000,0.0324,0.013523,0.002678,0.000431,0.008109
37038000,0.0324,0.013523,0.002678,0.000431,0.010342
37039000,0.0324,0.013523,0.002678,0.000431,0.010813
37040000,0.0324,0.013523,0.002678,0.000431,0.010342
37041000,0.0324,0.013523,0.002678,0.000431,0.009167
37042000,0.0324,0.013523,0.002678,0.000431,0.001763
37043000,0.0324,0.013523,0.002678,0.000431,0.001763
37044000,0.0324,0.013523,0.002678,0.000431,0.001763
37045000,0.0324,0.013523,0.002678,0.000431,0.003878
37046000,0.0324,0.013523,0.002678,0.000431,0.000705
37047000,0.0324,0.013523,0.002678,0.000431,0.000940
37048000,0.0324,0.013523,0.002678,0.000431,0.000705
37049000,0.0324,0.013523,0.002678,0.000431,0.000940
37050000,0.0324,0.013523,0.002678,0.000431,0.000823
37051000,0.0324,0.013523,0.002678,0.000431,0.000823
37052000,0.0324,0.013523,0.002678,0.000431,0.000940
37053000,0.0324,0.013523,0.002678,0.000431,0.000705
37054000,0.0324,0.013523,0.002678,0.000431,0.000940
37055000,0.0324,0.013523,0.002678,0.000431,0.000823
37056000,0.0324,0.013523,0.002678,0.000431,0.000823
37057000,0.0324,0.013523,0.002678,0.000431,0.037021
37058000,0.0324,0.013523,0.002678,0.000431,0.650166
37059000,0.0324,0.013523,0.002678,0.000431,0.611147
37060000,0.0324,0.013523,0.002678,0.000431,0.132102
37061000,0.0324,0.013523,0.002678,0.000431,0.133982
37062000,0.0324,0.013523,0.002678,0.000431,0.535106
37063000,0.0324,0.013523,0.002678,0.000431,0.227535
37064000,0.0324,0.013523,0.002678,0.000431,0.246339
37065000,0.0324,0.013523,0.002678,0.000431,0.338246
37066000,0.0324,0.013523,0.002678,0.000431,0.140446
37067000,0.0324,0.013523,0.002678,0.000431,0.155725
37068000,0.0324,0.013523,0.002678,0.000431,0.103307
37069000,0.0324,0.013523,0.002678,0.000431,0.409116
37070000,0.0324,0.013523,0.002678,0.000431,0.306043
37071000,0.0324,0.013523,0.002678,0.000431,0.174647
37072000,0.0324,0.013523,0.002678,0.000431,0.142679
37073000,0.0324,0.013523,0.002678,0.000431,0.135628
37074000,0.0324,0.013523,0.002678,0.000431,0.101309
37075000,0.0324,0.013523,0.002678,0.000431,0.094493
37076000,0.0324,0.013523,0.002678,0.000431,0.096961
37077000,0.0324,0.013523,0.002678,0.000431,0.091907
37078000,0.0324,0.013523,0.002678,0.000431,0.069107
37079000,0.0324,0.013523,0.002678,0.000431,0.070987
37080000,0.0324,0.013523,0.002678,0.000431,0.053123
37081000,0.0324,0.013523,0.002678,0.000431,0.049949
37082000,0.0324,0.013523,0.002678,0.000431,0.040077
37083000,0.0324,0.013523,0.002678,0.000431,0.045366
37084000,0.0324,0.013523,0.002678,0.000431,0.032908
37085000,0.0324,0.013523,0.002678,0.000431,0.039489
37086000,0.0324,0.013523,0.002678,0.000431,0.026444
37087000,0.0324,0.013523,0.002678,0.000431,0.025504
37088000,0.0324,0.013523,0.002678,0.000431,0.017864
37089000,0.0324,0.013523,0.002678,0.000431,0.016689
37090000,0.0324,0.013523,0.002678,0.000431,0.016689
37091000,0.0324,0.013523,0.002678,0.000431,0.015044
37092000,0.0324,0.013523,0.002678,0.000431,0.019275
37093000,0.0324,0.013523,0.002678,0.000431,0.018217
37094000,0.0324,0.013523,0.002678,0.000431,0.011988
37095000,0.0324,0.013523,0.002678,0.000431,0.010695
37096000,0.0324,0.013523,0.002678,0.000431,0.009167
37097000,0.0324,0.013523,0.002678,0.000431,0.007874
37098000,0.0324,0.013523,0.002678,0.000431,0.010460
37099000,0.0324,0.013523,0.002678,0.000431,0.006934
37100000,0.0324,0.013523,0.002678,0.000431,0.006464
37101000,0.0324,0.013523,0.002678,0.000431,0.006934
37102000,0.0324,0.013523,0.002678,0.000431,0.007992
37103000,0.0324,0.013523,0.002678,0.000431,0.007639
37104000,0.0324,0.013523,0.002678,0.000431,0.008227
37105000,0.0324,0.013523,0.002678,0.000431,0.004936
37106000,0.0324,0.013523,0.002678,0.000431,0.005054
37107000,0.0324,0.013523,0.002678,0.000431,0.004936
37108000,0.0324,0.013523,0.002678,0.000431,0.004936
37109000,0.0324,0.013523,0.002678,0.000431,0.005054
37110000,0.0324,0.013523,0.002678,0.000431,0.005054
37111000,0.0324,0.013523,0.002678,0.000431,0.004584
37112000,0.0324,0.013523,0.002678,0.000431,0.006699
37113000,0.0324,0.013523,0.002678,0.000431,0.004466
37114000,0.0324,0.013523,0.002678,0.000431,0.003761
37115000,0.0324,0.013523,0.002678,0.000431,0.004466
37116000,0.0324,0.013523,0.002678,0.000431,0.003996
37117000,0.0324,0.013523,0.002678,0.000431,0.004231
37118000,0.0324,0.013523,0.002678,0.000431,0.006229
37119000,0.0324,0.013523,0.002678,0.000431,0.003291
37120000,0.0324,0.013523,0.002678,0.000431,0.003526
37121000,0.0324,0.013523,0.002678,0.000431,0.002821
37122000,0.0324,0.013523,0.002678,0.000431,0.005054
37123000,0.0324,0.013523,0.002678,0.000431,0.002233
37124000,0.0324,0.013523,0.002678,0.000431,0.002703
37125000,0.0324,0.013523,0.002678,0.000431,0.006229
37126000,0.0324,0.013523,0.002678,0.000431,0.001058
37127000,0.0324,0.013523,0.002678,0.000431,0.000705
37128000,0.0324,0.013523,0.002678,0.000431,0.000940
37129000,0.0324,0.013523,0.002678,0.000431,0.000940
37130000,0.0324,0.013523,0.002678,0.000431,0.000823
37131000,0.0324,0.013523,0.002678,0.000431,0.001058
37132000,0.0324,0.013523,0.002678,0.000431,0.000940
37133000,0.0324,0.013523,0.002678,0.000431,0.000940
37134000,0.0324,0.013523,0.002678,0.000431,0.003056
37135000,0.0324,0.013523,0.002678,0.000431,0.495264
37136000,0.0324,0.013523,0.002678,0.000431,0.741250
37137000,0.0324,0.013523,0.002678,0.000431,0.154902
37138000,0.0324,0.013523,0.002678,0.000431,0.142327
37139000,0.0324,0.013523,0.002678,0.000431,0.263381
37140000,0.0324,0.013523,0.002678,0.000431,0.576946
37141000,0.0324,0.013523,0.002678,0.000431,0.230003
37142000,0.0324,0.013523,0.002678,0.000431,0.341537
37143000,0.0324,0.013523,0.002678,0.000431,0.140799
37144000,0.0324,0.013523,0.002678,0.000431,0.151024
37145000,0.0324,0.013523,0.002678,0.000431,0.105893
37146000,0.0324,0.013523,0.002678,0.000431,0.428038
37147000,0.0324,0.013523,0.002678,0.000431,0.298404
37148000,0.0324,0.013523,0.002678,0.000431,0.175822
37149000,0.0324,0.013523,0.002678,0.000431,0.134217
37150000,0.0324,0.013523,0.002678,0.000431,0.124815
37151000,0.0324,0.013523,0.002678,0.000431,0.103307
37152000,0.0324,0.013523,0.002678,0.000431,0.085325
37153000,0.0324,0.013523,0.002678,0.000431,0.070752
37154000,0.0324,0.013523,0.002678,0.000431,0.070517
37155000,0.0324,0.013523,0.002678,0.000431,0.069812
37156000,0.0324,0.013523,0.002678,0.000431,0.051125
37157000,0.0324,0.013523,0.002678,0.000431,0.045013
37158000,0.0324,0.013523,0.002678,0.000431,0.041370
37159000,0.0324,0.013523,0.002678,0.000431,0.039725
37160000,0.0324,0.013523,0.002678,0.000431,0.034201
37161000,0.0324,0.013523,0.002678,0.000431,0.025269
37162000,0.0324,0.013523,0.002678,0.000431,0.028794
37163000,0.0324,0.013523,0.002678,0.000431,0.029382
37164000,0.0324,0.013523,0.002678,0.000431,0.017159
37165000,0.0324,0.013523,0.002678,0.000431,0.017747
37166000,0.0324,0.013523,0.002678,0.000431,0.018452
37167000,0.0324,0.013523,0.002678,0.000431,0.017982
37168000,0.0324,0.013523,0.002678,0.000431,0.013046
37169000,0.0324,0.013523,0.002678,0.000431,0.012340
37170000,0.0324,0.013523,0.002678,0.000431,0.009637
37171000,0.0324,0.013523,0.002678,0.000431,0.012458
37172000,0.0324,0.013523,0.002678,0.000431,0.006699
37173000,0.0324,0.013523,0.002678,0.000431,0.008932
37174000,0.0324,0.013523,0.002678,0.000431,0.005406
37175000,0.0324,0.013523,0.002678,0.000431,0.006817
37176000,0.0324,0.013523,0.002678,0.000431,0.003761
37177000,0.0324,0.013523,0.002678,0.000431,0.006934
37178000,0.0324,0.013523,0.002678,0.000431,0.003526
37179000,0.0324,0.013523,0.002678,0.000431,0.005054
37180000,0.0324,0.013523,0.002678,0.000431,0.005524
37181000,0.0324,0.013523,0.002678,0.000431,0.001880
37182000,0.0324,0.013523,0.002678,0.000431,0.001880
37183000,0.0324,0.013523,0.002678,0.000431,0.001528
37184000,0.0324,0.013523,0.002678,0.000431,0.001763
37185000,0.0324,0.013523,0.002678,0.000431,0.001880
37186000,0.0324,0.013523,0.002678,0.000431,0.001763
37187000,0.0324,0.013523,0.002678,0.000431,0.001645
37188000,0.0324,0.013523,0.002678,0.000431,0.001763
37189000,0.0324,0.013523,0.002678,0.000431,0.001880
37190000,0.0324,0.013523,0.002678,0.000431,0.001645
37191000,0.0324,0.013523,0.002678,0.000431,0.001763
37192000,0.0324,0.013523,0.002678,0.000431,0.001763
37193000,0.0324,0.013523,0.002678,0.000431,0.001880
37194000,0.0324,0.013523,0.002678,0.000431,0.001645
37195000,0.0324,0.013523,0.002678,0.000431,0.001645
37196000,0.0324,0.013523,0.002678,0.000431,0.001880
37197000,0.0324,0.013523,0.002678,0.000431,0.001880
37198000,0.0324,0.013523,0.002678,0.000431,0.003526
37199000,0.0324,0.013523,0.002678,0.000431,0.000823
37200000,0.0324,0.013523,0.002678,0.000431,0.000940
37201000,0.0324,0.013523,0.002678,0.000431,0.000940
37202000,0.0324,0.013523,0.002678,0.000431,0.000823
37203000,0.0324,0.013523,0.002678,0.000431,0.000823
37204000,0.0324,0.013523,0.002678,0.000431,0.013868
37205000,0.0324,0.013523,0.002678,0.000431,0.627953
37206000,0.0324,0.013523,0.002678,0.000431,0.646523
37207000,0.0324,0.013523,0.002678,0.000431,0.137390
37208000,0.0324,0.013523,0.002678,0.000431,0.132572
37209000,0.0324,0.013523,0.002678,0.000431,0.418283
37210000,0.0324,0.013523,0.002678,0.000431,0.378911
37211000,0.0324,0.013523,0.002678,0.000431,0.259972
37212000,0.0324,0.013523,0.002678,0.000431,0.342007
37213000,0.0324,0.013523,0.002678,0.000431,0.140211
37214000,0.0324,0.013523,0.002678,0.000431,0.149496
37215000,0.0324,0.013523,0.002678,0.000431,0.110359
37216000,0.0324,0.013523,0.002678,0.000431,0.446137
37217000,0.0324,0.013523,0.002678,0.000431,0.307454
37218000,0.0324,0.013523,0.002678,0.000431,0.190396
37219000,0.0324,0.013523,0.002678,0.000431,0.150083
37220000,0.0324,0.013523,0.002678,0.000431,0.132337
37221000,0.0324,0.013523,0.002678,0.000431,0.109654
37222000,0.0324,0.013523,0.002678,0.000431,0.109654
37223000,0.0324,0.013523,0.002678,0.000431,0.086618
37224000,0.0324,0.013523,0.002678,0.000431,0.082152
37225000,0.0324,0.013523,0.002678,0.000431,0.079919
37226000,0.0324,0.013523,0.002678,0.000431,0.059587
37227000,0.0324,0.013523,0.002678,0.000431,0.051007
37228000,0.0324,0.013523,0.002678,0.000431,0.041958
37229000,0.0324,0.013523,0.002678,0.000431,0.036551
37230000,0.0324,0.013523,0.002678,0.000431,0.025034
37231000,0.0324,0.013523,0.002678,0.000431,0.023388
37232000,0.0324,0.013523,0.002678,0.000431,0.022095
37233000,0.0324,0.013523,0.002678,0.000431,0.022565
37234000,0.0324,0.013523,0.002678,0.000431,0.022330
37235000,0.0324,0.013523,0.002678,0.000431,0.016101
37236000,0.0324,0.013523,0.002678,0.000431,0.020567
37237000,0.0324,0.013523,0.002678,0.000431,0.015984
37238000,0.0324,0.013523,0.002678,0.000431,0.014573
37239000,0.0324,0.013523,0.002678,0.000431,0.012458
37240000,0.0324,0.013523,0.002678,0.000431,0.014103
37241000,0.0324,0.013523,0.002678,0.000431,0.014103
37242000,0.0324,0.013523,0.002678,0.000431,0.011635
37243000,0.0324,0.013523,0.002678,0.000431,0.009402
37244000,0.0324,0.013523,0.002678,0.000431,0.007404
37245000,0.0324,0.013523,0.002678,0.000431,0.007169
37246000,0.0324,0.013523,0.002678,0.000431,0.009167
37247000,0.0324,0.013523,0.002678,0.000431,0.006111
37248000,0.0324,0.013523,0.002678,0.000431,0.008462
37249000,0.0324,0.013523,0.002678,0.000431,0.008345
37250000,0.0324,0.013523,0.002678,0.000431,0.005406
37251000,0.0324,0.013523,0.002678,0.000431,0.005524
37252000,0.0324,0.013523,0.002678,0.000431,0.006699
37253000,0.0324,0.013523,0.002678,0.000431,0.005876
37254000,0.0324,0.013523,0.002678,0.000431,0.004231
37255000,0.0324,0.013523,0.002678,0.000431,0.004349
37256000,0.0324,0.013523,0.002678,0.000431,0.005406
37257000,0.0324,0.013523,0.002678,0.000431,0.003996
37258000,0.0324,0.013523,0.002678,0.000431,0.006229
37259000,0.0324,0.013523,0.002678,0.000431,0.001645
37260000,0.0324,0.013523,0.002678,0.000431,0.001763
37261000,0.0324,0.013523,0.002678,0.000431,0.001763
37262000,0.0324,0.013523,0.002678,0.000431,0.001645
37263000,0.0324,0.013523,0.002678,0.000431,0.001645
37264000,0.0324,0.013523,0.002678,0.000431,0.001763
37265000,0.0324,0.013523,0.002678,0.000431,0.001880
37266000,0.0324,0.013523,0.002678,0.000431,0.001645
37267000,0.0324,0.013523,0.002678,0.000431,0.001645
37268000,0.0324,0.013523,0.002678,0.000431,0.001763
37269000,0.0324,0.013523,0.002678,0.000431,0.001645
37270000,0.0324,0.013523,0.002678,0.000431,0.001880
37271000,0.0324,0.013523,0.002678,0.000431,0.004701
37272000,0.0324,0.013523,0.002678,0.000431,0.000940
37273000,0.0324,0.013523,0.002678,0.000431,0.000823
37274000,0.0324,0.013523,0.002678,0.000431,0.000823
37275000,0.0324,0.013523,0.002678,0.000431,0.000940
37276000,0.0324,0.013523,0.002678,0.000431,0.000940
37277000,0.0324,0.013523,0.002678,0.000431,0.000823
37278000,0.0324,0.013523,0.002678,0.000431,0.002116
37279000,0.0324,0.013523,0.002678,0.000431,0.501375
37280000,0.0324,0.013523,0.002678,0.000431,0.742896
37281000,0.0324,0.013523,0.002678,0.000431,0.193569
37282000,0.0324,0.013523,0.002678,0.000431,0.145852
37283000,0.0324,0.013523,0.002678,0.000431,0.294526
37284000,0.0324,0.013523,0.002678,0.000431,0.565428
37285000,0.0324,0.013523,0.002678,0.000431,0.244694
37286000,0.0324,0.013523,0.002678,0.000431,0.320499
37287000,0.0324,0.013523,0.002678,0.000431,0.141621
37288000,0.0324,0.013523,0.002678,0.000431,0.169241
37289000,0.0324,0.013523,0.002678,0.000431,0.104718
37290000,0.0324,0.013523,0.002678,0.000431,0.492090
37291000,0.0324,0.013523,0.002678,0.000431,0.222011
37292000,0.0324,0.013523,0.002678,0.000431,0.169476
37293000,0.0324,0.013523,0.002678,0.000431,0.130456
37294000,0.0324,0.013523,0.002678,0.000431,0.115295
37295000,0.0324,0.013523,0.002678,0.000431,0.099076
37296000,0.0324,0.013523,0.002678,0.000431,0.084385
37297000,0.0324,0.013523,0.002678,0.000431,0.068989
37298000,0.0324,0.013523,0.002678,0.000431,0.064405
37299000,0.0324,0.013523,0.002678,0.000431,0.049479
37300000,0.0324,0.013523,0.002678,0.000431,0.045954
37301000,0.0324,0.013523,0.002678,0.000431,0.031850
37302000,0.0324,0.013523,0.002678,0.000431,0.031262
37303000,0.0324,0.013523,0.002678,0.000431,0.033496
37304000,0.0324,0.013523,0.002678,0.000431,0.025739
37305000,0.0324,0.013523,0.002678,0.000431,0.017747
37306000,0.0324,0.013523,0.002678,0.000431,0.014338
37307000,0.0324,0.013523,0.002678,0.000431,0.013633
37308000,0.0324,0.013523,0.002678,0.000431,0.011283
37309000,0.0324,0.013523,0.002678,0.000431,0.010578
37310000,0.0324,0.013523,0.002678,0.000431,0.004584
37311000,0.0324,0.013523,0.002678,0.000431,0.005171
37312000,0.0324,0.013523,0.002678,0.000431,0.005994
37313000,0.0324,0.013523,0.002678,0.000431,0.004701
37314000,0.0324,0.013523,0.002678,0.000431,0.005759
37315000,0.0324,0.013523,0.002678,0.000431,0.002586
37316000,0.0324,0.013523,0.002678,0.000431,0.002586
37317000,0.0324,0.013523,0.002678,0.000431,0.002233
37318000,0.0324,0.013523,0.002678,0.000431,0.002703
37319000,0.0324,0.013523,0.002678,0.000431,0.002468
37320000,0.0324,0.013523,0.002678,0.000431,0.005054
37321000,0.0324,0.013523,0.002678,0.000431,0.004466
37322000,0.0324,0.013523,0.002678,0.000431,0.001528
37323000,0.0324,0.013523,0.002678,0.000431,0.001763
37324000,0.0324,0.013523,0.002678,0.000431,0.001645
37325000,0.0324,0.013523,0.002678,0.000431,0.001763
37326000,0.0324,0.013523,0.002678,0.000431,0.001645
37327000,0.0324,0.013523,0.002678,0.000431,0.001645
37328000,0.0324,0.013523,0.002678,0.000431,0.001645
37329000,0.0324,0.013523,0.002678,0.000431,0.001763
37330000,0.0324,0.013523,0.002678,0.000431,0.001528
37331000,0.0324,0.013523,0.002678,0.000431,0.001763
37332000,0.0324,0.013523,0.002678,0.000431,0.001763
37333000,0.0324,0.013523,0.002678,0.000431,0.001528
37334000,0.0324,0.013523,0.002678,0.000431,0.001763
37335000,0.0324,0.013523,0.002678,0.000431,0.001645
37336000,0.0324,0.013523,0.002678,0.000431,0.001645
37337000,0.0324,0.013523,0.002678,0.000431,0.001763
37338000,0.0324,0.013523,0.002678,0.000431,0.001645
37339000,0.0324,0.013523,0.002678,0.000431,0.001645
37340000,0.0324,0.013523,0.002678,0.000431,0.001528
37341000,0.0324,0.013523,0.002678,0.000431,0.001880
37342000,0.0324,0.013523,0.002678,0.000431,0.001645
37343000,0.0324,0.013523,0.002678,0.000431,0.001645
37344000,0.0324,0.013523,0.002678,0.000431,0.001763
37345000,0.0324,0.013523,0.002678,0.000431,0.001528
37346000,0.0324,0.013523,0.002678,0.000431,0.001763
37347000,0.0324,0.013523,0.002678,0.000431,0.001645
37348000,0.0324,0.013523,0.002678,0.000431,0.001645
37349000,0.0324,0.013523,0.002678,0.000431,0.001645
37350000,0.0324,0.013523,0.002678,0.000431,0.001645
37351000,0.0324,0.013523,0.002678,0.000431,0.001763
37352000,0.0324,0.013523,0.002678,0.000431,0.001763
37353000,0.0324,0.013523,0.002678,0.000431,0.001645
37354000,0.0324,0.013523,0.002678,0.000431,0.001645
37355000,0.0324,0.013523,0.002678,0.000431,0.001528
37356000,0.0324,0.013523,0.002678,0.000431,0.001763
37357000,0.0324,0.013523,0.002678,0.000431,0.001763
37358000,0.0324,0.013523,0.002678,0.000431,0.001645
37359000,0.0324,0.013523,0.002678,0.000431,0.001880
37360000,0.0324,0.013523,0.002678,0.000431,0.001645
37361000,0.0324,0.013523,0.002678,0.000431,0.001763
37362000,0.0324,0.013523,0.002678,0.000431,0.001645
37363000,0.0324,0.013523,0.002678,0.000431,0.001763
37364000,0.0324,0.013523,0.002678,0.000431,0.001763
37365000,0.0324,0.013523,0.002678,0.000431,0.001645
37366000,0.0324,0.013523,0.002678,0.000431,0.001763
37367000,0.0324,0.013523,0.002678,0.000431,0.001763
37368000,0.0324,0.013523,0.002678,0.000431,0.004231
37369000,0.0324,0.013523,0.002678,0.000431,0.000823
37370000,0.0324,0.013523,0.002678,0.000431,0.000823
37371000,0.0324,0.013523,0.002678,0.000431,0.000823
37372000,0.0324,0.013523,0.002678,0.000431,0.000823
37373000,0.0324,0.013523,0.002678,0.000431,0.000940
37374000,0.0324,0.013523,0.002678,0.000431,0.000705
37375000,0.0324,0.013523,0.002678,0.000431,0.000823
37376000,0.0324,0.013523,0.002678,0.000431,0.000940
37377000,0.0324,0.013523,0.002678,0.000431,0.000823
37378000,0.0324,0.013523,0.002678,0.000431,0.000823
37379000,0.0324,0.013523,0.002678,0.000431,0.000823
37380000,0.0324,0.013523,0.002678,0.000431,0.000823
37381000,0.0324,0.013523,0.002678,0.000431,0.000823
37382000,0.0324,0.013523,0.002678,0.000431,0.000823
37383000,0.0324,0.013523,0.002678,0.000431,0.000823
37384000,0.0324,0.013523,0.002678,0.000431,0.000940
37385000,0.0324,0.013523,0.002678,0.000431,0.000705
37386000,0.0324,0.013523,0.002678,0.000431,0.000940
37387000,0.0324,0.013523,0.002678,0.000431,0.000823
37388000,0.0324,0.013523,0.002678,0.000431,0.000823
37389000,0.0324,0.013523,0.002678,0.000431,0.000823
37390000,0.0324,0.013523,0.002678,0.000431,0.000823
37391000,0.0324,0.013523,0.002678,0.000431,0.000940
37392000,0.0324,0.013523,0.002678,0.000431,0.003761
37393000,0.0324,0.013523,0.002678,0.000431,0.509250
37394000,0.0324,0.013523,0.002678,0.000431,0.759937
37395000,0.0324,0.013523,0.002678,0.000431,0.139506
37396000,0.0324,0.013523,0.002678,0.000431,0.135392
37397000,0.0324,0.013523,0.002678,0.000431,0.257739
37398000,0.0324,0.013523,0.002678,0.000431,0.499965
37399000,0.0324,0.013523,0.002678,0.000431,0.268434
37400000,0.0324,0.013523,0.002678,0.000431,0.324143
37401000,0.0324,0.013523,0.002678,0.000431,0.176410
37402000,0.0324,0.013523,0.002678,0.000431,0.147263
37403000,0.0324,0.013523,0.002678,0.000431,0.118233
37404000,0.0324,0.013523,0.002678,0.000431,0.335425
37405000,0.0324,0.013523,0.002678,0.000431,0.354935
37406000,0.0324,0.013523,0.002678,0.000431,0.159603
37407000,0.0324,0.013523,0.002678,0.000431,0.135863
37408000,0.0324,0.013523,0.002678,0.000431,0.115530
37409000,0.0324,0.013523,0.002678,0.000431,0.089674
37410000,0.0324,0.013523,0.002678,0.000431,0.092612
37411000,0.0324,0.013523,0.002678,0.000431,0.079096
37412000,0.0324,0.013523,0.002678,0.000431,0.061820
37413000,0.0324,0.013523,0.002678,0.000431,0.043603
37414000,0.0324,0.013523,0.002678,0.000431,0.048892
37415000,0.0324,0.013523,0.002678,0.000431,0.041723
37416000,0.0324,0.013523,0.002678,0.000431,0.039254
37417000,0.0324,0.013523,0.002678,0.000431,0.031262
37418000,0.0324,0.013523,0.002678,0.000431,0.031027
37419000,0.0324,0.013523,0.002678,0.000431,0.022448
37420000,0.0324,0.013523,0.002678,0.000431,0.023388
37421000,0.0324,0.013523,0.002678,0.000431,0.022330
37422000,0.0324,0.013523,0.002678,0.000431,0.013751
37423000,0.0324,0.013523,0.002678,0.000431,0.017042
37424000,0.0324,0.013523,0.002678,0.000431,0.008462
37425000,0.0324,0.013523,0.002678,0.000431,0.005641
37426000,0.0324,0.013523,0.002678,0.000431,0.008227
37427000,0.0324,0.013523,0.002678,0.000431,0.004936
37428000,0.0324,0.013523,0.002678,0.000431,0.007169
37429000,0.0324,0.013523,0.002678,0.000431,0.004466
37430000,0.0324,0.013523,0.002678,0.000431,0.004113
37431000,0.0324,0.013523,0.002678,0.000431,0.005289
37432000,0.0324,0.013523,0.002678,0.000431,0.004701
37433000,0.0324,0.013523,0.002678,0.000431,0.003291
37434000,0.0324,0.013523,0.002678,0.000431,0.003291
37435000,0.0324,0.013523,0.002678,0.000431,0.003526
37436000,0.0324,0.013523,0.002678,0.000431,0.003408
37437000,0.0324,0.013523,0.002678,0.000431,0.003291
37438000,0.0324,0.013523,0.002678,0.000431,0.003526
37439000,0.0324,0.013523,0.002678,0.000431,0.004231
37440000,0.0324,0.013523,0.002678,0.000431,0.002586
37441000,0.0324,0.013523,0.002678,0.000431,0.004113
37442000,0.0324,0.013523,0.002678,0.000431,0.001645
37443000,0.0324,0.013523,0.002678,0.000431,0.001645
37444000,0.0324,0.013523,0.002678,0.000431,0.003526
37445000,0.0324,0.013523,0.002678,0.000431,0.000823
37446000,0.0324,0.013523,0.002678,0.000431,0.000940
37447000,0.0324,0.013523,0.002678,0.000431,0.000705
37448000,0.0324,0.013523,0.002678,0.000431,0.000940
37449000,0.0324,0.013523,0.002678,0.000431,0.000823
37450000,0.0324,0.013523,0.002678,0.000431,0.000823
37451000,0.0324,0.013523,0.002678,0.000431,0.000823
37452000,0.0324,0.013523,0.002678,0.000431,0.000823
37453000,0.0324,0.013523,0.002678,0.000431,0.000823
37454000,0.0324,0.013523,0.002678,0.000431,0.000823
37455000,0.0324,0.013523,0.002678,0.000431,0.000940
37456000,0.0324,0.013523,0.002678,0.000431,0.000705
37457000,0.0324,0.013523,0.002678,0.000431,0.000823
37458000,0.0324,0.013523,0.002678,0.000431,0.000940
37459000,0.0324,0.013523,0.002678,0.000431,0.002703
37460000,0.0324,0.013523,0.002678,0.000431,0.548034
37461000,0.0324,0.013523,0.002678,0.000431,0.709870
37462000,0.0324,0.013523,0.002678,0.000431,0.145030
37463000,0.0324,0.013523,0.002678,0.000431,0.134452
37464000,0.0324,0.013523,0.002678,0.000431,0.269962
37465000,0.0324,0.013523,0.002678,0.000431,0.492796
37466000,0.0324,0.013523,0.002678,0.000431,0.263733
37467000,0.0324,0.013523,0.002678,0.000431,0.299462
37468000,0.0324,0.013523,0.002678,0.000431,0.176057
37469000,0.0324,0.013523,0.002678,0.000431,0.145147
37470000,0.0324,0.013523,0.002678,0.000431,0.144442
37471000,0.0324,0.013523,0.002678,0.000431,0.236467
37472000,0.0324,0.013523,0.002678,0.000431,0.444492
37473000,0.0324,0.013523,0.002678,0.000431,0.160543
37474000,0.0324,0.013523,0.002678,0.000431,0.145735
37475000,0.0324,0.013523,0.002678,0.000431,0.129281
37476000,0.0324,0.013523,0.002678,0.000431,0.110947
37477000,0.0324,0.013523,0.002678,0.000431,0.098254
37478000,0.0324,0.013523,0.002678,0.000431,0.092612
37479000,0.0324,0.013523,0.002678,0.000431,0.076158
37480000,0.0324,0.013523,0.002678,0.000431,0.072985
37481000,0.0324,0.013523,0.002678,0.000431,0.052300
37482000,0.0324,0.013523,0.002678,0.000431,0.050067
37483000,0.0324,0.013523,0.002678,0.000431,0.038902
37484000,0.0324,0.013523,0.002678,0.000431,0.036669
37485000,0.0324,0.013523,0.002678,0.000431,0.029735
37486000,0.0324,0.013523,0.002678,0.000431,0.025269
37487000,0.0324,0.013523,0.002678,0.000431,0.022330
37488000,0.0324,0.013523,0.002678,0.000431,0.017042
37489000,0.0324,0.013523,0.002678,0.000431,0.022213
37490000,0.0324,0.013523,0.002678,0.000431,0.014809
37491000,0.0324,0.013523,0.002678,0.000431,0.012340
37492000,0.0324,0.013523,0.002678,0.000431,0.012928
37493000,0.0324,0.013523,0.002678,0.000431,0.013281
37494000,0.0324,0.013523,0.002678,0.000431,0.008109
37495000,0.0324,0.013523,0.002678,0.000431,0.011048
37496000,0.0324,0.013523,0.002678,0.000431,0.008462
37497000,0.0324,0.013523,0.002678,0.000431,0.008109
37498000,0.0324,0.013523,0.002678,0.000431,0.008815
37499000,0.0324,0.013523,0.002678,0.000431,0.006817
37500000,0.0324,0.013523,0.002678,0.000431,0.008462
37501000,0.0324,0.013523,0.002678,0.000431,0.005759
37502000,0.0324,0.013523,0.002678,0.000431,0.003643
37503000,0.0324,0.013523,0.002678,0.000431,0.006229
37504000,0.0324,0.013523,0.002678,0.000431,0.004584
37505000,0.0324,0.013523,0.002678,0.000431,0.003878
37506000,0.0324,0.013523,0.002678,0.000431,0.000823
37507000,0.0324,0.013523,0.002678,0.000431,0.000940
37508000,0.0324,0.013523,0.002678,0.000431,0.000823
37509000,0.0324,0.013523,0.002678,0.000431,0.000823
37510000,0.0324,0.013523,0.002678,0.000431,0.000823
37511000,0.0324,0.013523,0.002678,0.000431,0.000823
37512000,0.0324,0.013523,0.002678,0.000431,0.013868
37513000,0.0324,0.013523,0.002678,0.000431,0.671439
37514000,0.0324,0.013523,0.002678,0.000431,0.603390
37515000,0.0324,0.013523,0.002678,0.000431,0.156077
37516000,0.0324,0.013523,0.002678,0.000431,0.133512
37517000,0.0324,0.013523,0.002678,0.000431,0.518299
37518000,0.0324,0.013523,0.002678,0.000431,0.315328
37519000,0.0324,0.013523,0.002678,0.000431,0.273488
37520000,0.0324,0.013523,0.002678,0.000431,0.313683
37521000,0.0324,0.013523,0.002678,0.000431,0.153492
37522000,0.0324,0.013523,0.002678,0.000431,0.154315
37523000,0.0324,0.013523,0.002678,0.000431,0.104247
37524000,0.0324,0.013523,0.002678,0.000431,0.457890
37525000,0.0324,0.013523,0.002678,0.000431,0.266671
37526000,0.0324,0.013523,0.002678,0.000431,0.159956
37527000,0.0324,0.013523,0.002678,0.000431,0.131632
37528000,0.0324,0.013523,0.002678,0.000431,0.129163
37529000,0.0324,0.013523,0.002678,0.000431,0.094728
37530000,0.0324,0.013523,0.002678,0.000431,0.093552
37531000,0.0324,0.013523,0.002678,0.000431,0.094963
37532000,0.0324,0.013523,0.002678,0.000431,0.061467
37533000,0.0324,0.013523,0.002678,0.000431,0.048774
37534000,0.0324,0.013523,0.002678,0.000431,0.045718
37535000,0.0324,0.013523,0.002678,0.000431,0.037609
37536000,0.0324,0.013523,0.002678,0.000431,0.029970
37537000,0.0324,0.013523,0.002678,0.000431,0.024563
37538000,0.0324,0.013523,0.002678,0.000431,0.021978
37539000,0.0324,0.013523,0.002678,0.000431,0.017394
37540000,0.0324,0.013523,0.002678,0.000431,0.021625
37541000,0.0324,0.013523,0.002678,0.000431,0.015396
37542000,0.0324,0.013523,0.002678,0.000431,0.013633
37543000,0.0324,0.013523,0.002678,0.000431,0.010695
37544000,0.0324,0.013523,0.002678,0.000431,0.010695
37545000,0.0324,0.013523,0.002678,0.000431,0.010342
37546000,0.0324,0.013523,0.002678,0.000431,0.017982
37547000,0.0324,0.013523,0.002678,0.000431,0.012223
37548000,0.0324,0.013523,0.002678,0.000431,0.006347
37549000,0.0324,0.013523,0.002678,0.000431,0.007757
37550000,0.0324,0.013523,0.002678,0.000431,0.007992
37551000,0.0324,0.013523,0.002678,0.000431,0.002703
37552000,0.0324,0.013523,0.002678,0.000431,0.000823
37553000,0.0324,0.013523,0.002678,0.000431,0.000823
37554000,0.0324,0.013523,0.002678,0.000431,0.000823
37555000,0.0324,0.013523,0.002678,0.000431,0.000823
37556000,0.0324,0.013523,0.002678,0.000431,0.000823
37557000,0.0324,0.013523,0.002678,0.000431,0.000705
37558000,0.0324,0.013523,0.002678,0.000431,0.000940
37559000,0.0324,0.013523,0.002678,0.000431,0.000940
37560000,0.0324,0.013523,0.002678,0.000431,0.000705
37561000,0.0324,0.013523,0.002678,0.000431,0.000940
37562000,0.0324,0.013523,0.002678,0.000431,0.000705
37563000,0.0324,0.013523,0.002678,0.000431,0.000940
37564000,0.0324,0.013523,0.002678,0.000431,0.000823
37565000,0.0324,0.013523,0.002678,0.000431,0.000823
37566000,0.0324,0.013523,0.002678,0.000431,0.000823
37567000,0.0324,0.013523,0.002678,0.000431,0.000823
37568000,0.0324,0.013523,0.002678,0.000431,0.000940
37569000,0.0324,0.013523,0.002678,0.000431,0.000705
37570000,0.0324,0.013523,0.002678,0.000431,0.000940
37571000,0.0324,0.013523,0.002678,0.000431,0.000823
37572000,0.0324,0.013523,0.002678,0.000431,0.000823
37573000,0.0324,0.013523,0.002678,0.000431,0.000823
37574000,0.0324,0.013523,0.002678,0.000431,0.014338
37575000,0.0324,0.013523,0.002678,0.000431,0.657453
37576000,0.0324,0.013523,0.002678,0.000431,0.612087
37577000,0.0324,0.013523,0.002678,0.000431,0.144912
37578000,0.0324,0.013523,0.002678,0.000431,0.132572
37579000,0.0324,0.013523,0.002678,0.000431,0.469995
37580000,0.0324,0.013523,0.002678,0.000431,0.307571
37581000,0.0324,0.013523,0.002678,0.000431,0.226829
37582000,0.0324,0.013523,0.002678,0.000431,0.374680
37583000,0.0324,0.013523,0.002678,0.000431,0.150554
37584000,0.0324,0.013523,0.002678,0.000431,0.144090
37585000,0.0324,0.013523,0.002678,0.000431,0.111417
37586000,0.0324,0.013523,0.002678,0.000431,0.379263
37587000,0.0324,0.013523,0.002678,0.000431,0.361282
37588000,0.0324,0.013523,0.002678,0.000431,0.179701
37589000,0.0324,0.013523,0.002678,0.000431,0.140329
37590000,0.0324,0.013523,0.002678,0.000431,0.141857
37591000,0.0324,0.013523,0.002678,0.000431,0.109184
37592000,0.0324,0.013523,0.002678,0.000431,0.103425
37593000,0.0324,0.013523,0.002678,0.000431,0.084150
37594000,0.0324,0.013523,0.002678,0.000431,0.073690
37595000,0.0324,0.013523,0.002678,0.000431,0.074278
37596000,0.0324,0.013523,0.002678,0.000431,0.049597
37597000,0.0324,0.013523,0.002678,0.000431,0.040900
37598000,0.0324,0.013523,0.002678,0.000431,0.041135
37599000,0.0324,0.013523,0.002678,0.000431,0.034083
37600000,0.0324,0.013523,0.002678,0.000431,0.031498
37601000,0.0324,0.013523,0.002678,0.000431,0.023741
37602000,0.0324,0.013523,0.002678,0.000431,0.019040
37603000,0.0324,0.013523,0.002678,0.000431,0.017629
37604000,0.0324,0.013523,0.002678,0.000431,0.019862
37605000,0.0324,0.013523,0.002678,0.000431,0.011988
37606000,0.0324,0.013523,0.002678,0.000431,0.011988
37607000,0.0324,0.013523,0.002678,0.000431,0.017394
37608000,0.0324,0.013523,0.002678,0.000431,0.013398
37609000,0.0324,0.013523,0.002678,0.000431,0.012223
37610000,0.0324,0.013523,0.002678,0.000431,0.006111
37611000,0.0324,0.013523,0.002678,0.000431,0.008580
37612000,0.0324,0.013523,0.002678,0.000431,0.008227
37613000,0.0324,0.013523,0.002678,0.000431,0.002586
37614000,0.0324,0.013523,0.002678,0.000431,0.002351
37615000,0.0324,0.013523,0.002678,0.000431,0.002586
37616000,0.0324,0.013523,0.002678,0.000431,0.003996
37617000,0.0324,0.013523,0.002678,0.000431,0.001998
37618000,0.0324,0.013523,0.002678,0.000431,0.001410
37619000,0.0324,0.013523,0.002678,0.000431,0.001763
37620000,0.0324,0.013523,0.002678,0.000431,0.001645
37621000,0.0324,0.013523,0.002678,0.000431,0.001645
37622000,0.0324,0.013523,0.002678,0.000431,0.004584
37623000,0.0324,0.013523,0.002678,0.000431,0.000823
37624000,0.0324,0.013523,0.002678,0.000431,0.000940
37625000,0.0324,0.013523,0.002678,0.000431,0.001645
37626000,0.0324,0.013523,0.002678,0.000431,0.286416
37627000,0.0324,0.013523,0.002678,0.000431,0.686952
37628000,0.0324,0.013523,0.002678,0.000431,0.412289
37629000,0.0324,0.013523,0.002678,0.000431,0.140211
37630000,0.0324,0.013523,0.002678,0.000431,0.155137
37631000,0.0324,0.013523,0.002678,0.000431,0.617728
37632000,0.0324,0.013523,0.002678,0.000431,0.261500
37633000,0.0324,0.013523,0.002678,0.000431,0.274546
37634000,0.0324,0.013523,0.002678,0.000431,0.235644
37635000,0.0324,0.013523,0.002678,0.000431,0.142914
37636000,0.0324,0.013523,0.002678,0.000431,0.141034
37637000,0.0324,0.013523,0.002678,0.000431,0.229533
37638000,0.0324,0.013523,0.002678,0.000431,0.456597
37639000,0.0324,0.013523,0.002678,0.000431,0.194274
37640000,0.0324,0.013523,0.002678,0.000431,0.164422
37641000,0.0324,0.013523,0.002678,0.000431,0.149731
37642000,0.0324,0.013523,0.002678,0.000431,0.123287
37643000,0.0324,0.013523,0.002678,0.000431,0.118233
37644000,0.0324,0.013523,0.002678,0.000431,0.086971
37645000,0.0324,0.013523,0.002678,0.000431,0.085561
37646000,0.0324,0.013523,0.002678,0.000431,0.069342
37647000,0.0324,0.013523,0.002678,0.000431,0.069459
37648000,0.0324,0.013523,0.002678,0.000431,0.045836
37649000,0.0324,0.013523,0.002678,0.000431,0.045013
37650000,0.0324,0.013523,0.002678,0.000431,0.043603
37651000,0.0324,0.013523,0.002678,0.000431,0.036199
37652000,0.0324,0.013523,0.002678,0.000431,0.028207
37653000,0.0324,0.013523,0.002678,0.000431,0.016571
37654000,0.0324,0.013523,0.002678,0.000431,0.027502
37655000,0.0324,0.013523,0.002678,0.000431,0.016219
37656000,0.0324,0.013523,0.002678,0.000431,0.014103
37657000,0.0324,0.013523,0.002678,0.000431,0.016689
37658000,0.0324,0.013523,0.002678,0.000431,0.013751
37659000,0.0324,0.013523,0.002678,0.000431,0.009402
37660000,0.0324,0.013523,0.002678,0.000431,0.007992
37661000,0.0324,0.013523,0.002678,0.000431,0.015044
37662000,0.0324,0.013523,0.002678,0.000431,0.005759
37663000,0.0324,0.013523,0.002678,0.000431,0.007169
37664000,0.0324,0.013523,0.002678,0.000431,0.003056
37665000,0.0324,0.013523,0.002678,0.000431,0.005171
37666000,0.0324,0.013523,0.002678,0.000431,0.001410
37667000,0.0324,0.013523,0.002678,0.000431,0.001880
37668000,0.0324,0.013523,0.002678,0.000431,0.001645
37669000,0.0324,0.013523,0.002678,0.000431,0.001645
37670000,0.0324,0.013523,0.002678,0.000431,0.001763
37671000,0.0324,0.013523,0.002678,0.000431,0.001528
37672000,0.0324,0.013523,0.002678,0.000431,0.001763
37673000,0.0324,0.013523,0.002678,0.000431,0.001645
37674000,0.0324,0.013523,0.002678,0.000431,0.001645
37675000,0.0324,0.013523,0.002678,0.000431,0.001645
37676000,0.0324,0.013523,0.002678,0.000431,0.001763
37677000,0.0324,0.013523,0.002678,0.000431,0.001645
37678000,0.0324,0.013523,0.002678,0.000431,0.001528
37679000,0.0324,0.013523,0.002678,0.000431,0.001880
37680000,0.0324,0.013523,0.002678,0.000431,0.001645
37681000,0.0324,0.013523,0.002678,0.000431,0.001645
37682000,0.0324,0.013523,0.002678,0.000431,0.001763
37683000,0.0324,0.013523,0.002678,0.000431,0.001528
37684000,0.0324,0.013523,0.002678,0.000431,0.001763
37685000,0.0324,0.013523,0.002678,0.000431,0.001763
37686000,0.0324,0.013523,0.002678,0.000431,0.001645
37687000,0.0324,0.013523,0.002678,0.000431,0.001645
37688000,0.0324,0.013523,0.002678,0.000431,0.001528
37689000,0.0324,0.013523,0.002678,0.000431,0.003761
37690000,0.0324,0.013523,0.002678,0.000431,0.000823
37691000,0.0324,0.013523,0.002678,0.000431,0.000940
37692000,0.0324,0.013523,0.002678,0.000431,0.000705
37693000,0.0324,0.013523,0.002678,0.000431,0.000940
37694000,0.0324,0.013523,0.002678,0.000431,0.000823
37695000,0.0324,0.013523,0.002678,0.000431,0.000823
37696000,0.0324,0.013523,0.002678,0.000431,0.000705
37697000,0.0324,0.013523,0.002678,0.000431,0.000940
37698000,0.0324,0.013523,0.002678,0.000431,0.000940
37699000,0.0324,0.013523,0.002678,0.000431,0.000940
37700000,0.0324,0.013523,0.002678,0.000431,0.000823
37701000,0.0324,0.013523,0.002678,0.000431,0.000823
37702000,0.0324,0.013523,0.002678,0.000431,0.000940
37703000,0.0324,0.013523,0.002678,0.000431,0.000940
37704000,0.0324,0.013523,0.002678,0.000431,0.000823
37705000,0.0324,0.013523,0.002678,0.000431,0.000823
37706000,0.0324,0.013523,0.002678,0.000431,0.000940
37707000,0.0324,0.013523,0.002678,0.000431,0.000940
37708000,0.0324,0.013523,0.002678,0.000431,0.000823
37709000,0.0324,0.013523,0.002678,0.000431,0.000823
37710000,0.0324,0.013523,0.002678,0.000431,0.000940
37711000,0.0324,0.013523,0.002678,0.000431,0.000940
37712000,0.0324,0.013523,0.002678,0.000431,0.000823
37713000,0.0324,0.013523,0.002678,0.000431,0.000823
37714000,0.0324,0.013523,0.002678,0.000431,0.000940
37715000,0.0324,0.013523,0.002678,0.000431,0.000823
37716000,0.0324,0.013523,0.002678,0.000431,0.000940
37717000,0.0324,0.013523,0.002678,0.000431,0.000823
37718000,0.0324,0.013523,0.002678,0.000431,0.000940
37719000,0.0324,0.013523,0.002678,0.000431,0.000823
37720000,0.0324,0.013523,0.002678,0.000431,0.000823
37721000,0.0324,0.013523,0.002678,0.000431,0.000940
37722000,0.0324,0.013523,0.002678,0.000431,0.000940
37723000,0.0324,0.013523,0.002678,0.000431,0.000705
37724000,0.0324,0.013523,0.002678,0.000431,0.000940
37725000,0.0324,0.013523,0.002678,0.000431,0.000940
37726000,0.0324,0.013523,0.002678,0.000431,0.000940
37727000,0.0324,0.013523,0.002678,0.000431,0.000705
37728000,0.0324,0.013523,0.002678,0.000431,0.000940
37729000,0.0324,0.013523,0.002678,0.000431,0.000940
37730000,0.0324,0.013523,0.002678,0.000431,0.000823
37731000,0.0324,0.013523,0.002678,0.000431,0.020567
37732000,0.0324,0.013523,0.002678,0.000431,0.700350
37733000,0.0324,0.013523,0.002678,0.000431,0.607973
37734000,0.0324,0.013523,0.002678,0.000431,0.148321
37735000,0.0324,0.013523,0.002678,0.000431,0.133042
37736000,0.0324,0.013523,0.002678,0.000431,0.578709
37737000,0.0324,0.013523,0.002678,0.000431,0.296053
37738000,0.0324,0.013523,0.002678,0.000431,0.279482
37739000,0.0324,0.013523,0.002678,0.000431,0.302635
37740000,0.0324,0.013523,0.002678,0.000431,0.137155
37741000,0.0324,0.013523,0.002678,0.000431,0.159486
37742000,0.0324,0.013523,0.002678,0.000431,0.157958
37743000,0.0324,0.013523,0.002678,0.000431,0.504548
37744000,0.0324,0.013523,0.002678,0.000431,0.206262
37745000,0.0324,0.013523,0.002678,0.000431,0.167713
37746000,0.0324,0.013523,0.002678,0.000431,0.153022
37747000,0.0324,0.013523,0.002678,0.000431,0.129516
37748000,0.0324,0.013523,0.002678,0.000431,0.094375
37749000,0.0324,0.013523,0.002678,0.000431,0.090849
37750000,0.0324,0.013523,0.002678,0.000431,0.075923
37751000,0.0324,0.013523,0.002678,0.000431,0.064993
37752000,0.0324,0.013523,0.002678,0.000431,0.065698
37753000,0.0324,0.013523,0.002678,0.000431,0.064053
37754000,0.0324,0.013523,0.002678,0.000431,0.044308
37755000,0.0324,0.013523,0.002678,0.000431,0.039489
37756000,0.0324,0.013523,0.002678,0.000431,0.035964
37757000,0.0324,0.013523,0.002678,0.000431,0.031262
37758000,0.0324,0.013523,0.002678,0.000431,0.023741
37759000,0.0324,0.013523,0.002678,0.000431,0.021390
37760000,0.0324,0.013523,0.002678,0.000431,0.023153
37761000,0.0324,0.013523,0.002678,0.000431,0.018687
37762000,0.0324,0.013523,0.002678,0.000431,0.014456
37763000,0.0324,0.013523,0.002678,0.000431,0.013868
37764000,0.0324,0.013523,0.002678,0.000431,0.011988
37765000,0.0324,0.013523,0.002678,0.000431,0.011283
37766000,0.0324,0.013523,0.002678,0.000431,0.006817
37767000,0.0324,0.013523,0.002678,0.000431,0.008697
37768000,0.0324,0.013523,0.002678,0.000431,0.006111
37769000,0.0324,0.013523,0.002678,0.000431,0.005759
37770000,0.0324,0.013523,0.002678,0.000431,0.011753
37771000,0.0324,0.013523,0.002678,0.000431,0.004231
37772000,0.0324,0.013523,0.002678,0.000431,0.006347
37773000,0.0324,0.013523,0.002678,0.000431,0.003408
37774000,0.0324,0.013523,0.002678,0.000431,0.003408
37775000,0.0324,0.013523,0.002678,0.000431,0.003408
37776000,0.0324,0.013523,0.002678,0.000431,0.005171
37777000,0.0324,0.013523,0.002678,0.000431,0.002703
37778000,0.0324,0.013523,0.002678,0.000431,0.002351
37779000,0.0324,0.013523,0.002678,0.000431,0.002703
37780000,0.0324,0.013523,0.002678,0.000431,0.003878
37781000,0.0324,0.013523,0.002678,0.000431,0.001880
37782000,0.0324,0.013523,0.002678,0.000431,0.001763
37783000,0.0324,0.013523,0.002678,0.000431,0.004584
37784000,0.0324,0.013523,0.002678,0.000431,0.429448
37785000,0.0324,0.013523,0.002678,0.000431,0.712338
37786000,0.0324,0.013523,0.002678,0.000431,0.274663
37787000,0.0324,0.013523,0.002678,0.000431,0.139623
37788000,0.0324,0.013523,0.002678,0.000431,0.196272
37789000,0.0324,0.013523,0.002678,0.000431,0.595045
37790000,0.0324,0.013523,0.002678,0.000431,0.268434
37791000,0.0324,0.013523,0.002678,0.000431,0.302870
37792000,0.0324,0.013523,0.002678,0.000431,0.181464
37793000,0.0324,0.013523,0.002678,0.000431,0.156312
37794000,0.0324,0.013523,0.002678,0.000431,0.115648
37795000,0.0324,0.013523,0.002678,0.000431,0.348118
37796000,0.0324,0.013523,0.002678,0.000431,0.350587
37797000,0.0324,0.013523,0.002678,0.000431,0.149848
37798000,0.0324,0.013523,0.002678,0.000431,0.132807
37799000,0.0324,0.013523,0.002678,0.000431,0.112004
37800000,0.0324,0.013523,0.002678,0.000431,0.089321
37801000,0.0324,0.013523,0.002678,0.000431,0.079214
37802000,0.0324,0.013523,0.002678,0.000431,0.064170
37803000,0.0324,0.013523,0.002678,0.000431,0.063348
37804000,0.0324,0.013523,0.002678,0.000431,0.046541
37805000,0.0324,0.013523,0.002678,0.000431,0.051360
37806000,0.0324,0.013523,0.002678,0.000431,0.036904
37807000,0.0324,0.013523,0.002678,0.000431,0.033848
37808000,0.0324,0.013523,0.002678,0.000431,0.037256
37809000,0.0324,0.013523,0.002678,0.000431,0.033966
37810000,0.0324,0.013523,0.002678,0.000431,0.035258
37811000,0.0324,0.013523,0.002678,0.000431,0.022095
37812000,0.0324,0.013523,0.002678,0.000431,0.021978
37813000,0.0324,0.013523,0.002678,0.000431,0.018334
37814000,0.0324,0.013523,0.002678,0.000431,0.019040
37815000,0.0324,0.013523,0.002678,0.000431,0.016101
37816000,0.0324,0.013523,0.002678,0.000431,0.015866
37817000,0.0324,0.013523,0.002678,0.000431,0.012340
37818000,0.0324,0.013523,0.002678,0.000431,0.012223
37819000,0.0324,0.013523,0.002678,0.000431,0.012223
37820000,0.0324,0.013523,0.002678,0.000431,0.011165
37821000,0.0324,0.013523,0.002678,0.000431,0.014221
37822000,0.0324,0.013523,0.002678,0.000431,0.013751
37823000,0.0324,0.013523,0.002678,0.000431,0.015984
37824000,0.0324,0.013523,0.002678,0.000431,0.005289
37825000,0.0324,0.013523,0.002678,0.000431,0.006699
37826000,0.0324,0.013523,0.002678,0.000431,0.007052
37827000,0.0324,0.013523,0.002678,0.000431,0.003526
37828000,0.0324,0.013523,0.002678,0.000431,0.005641
37829000,0.0324,0.013523,0.002678,0.000431,0.002586
37830000,0.0324,0.013523,0.002678,0.000431,0.002821
37831000,0.0324,0.013523,0.002678,0.000431,0.004584
37832000,0.0324,0.013523,0.002678,0.000431,0.001998
37833000,0.0324,0.013523,0.002678,0.000431,0.001645
37834000,0.0324,0.013523,0.002678,0.000431,0.003878
37835000,0.0324,0.013523,0.002678,0.000431,0.014221
37836000,0.0324,0.013523,0.002678,0.000431,0.658745
37837000,0.0324,0.013523,0.002678,0.000431,0.609266
37838000,0.0324,0.013523,0.002678,0.000431,0.141269
37839000,0.0324,0.013523,0.002678,0.000431,0.135863
37840000,0.0324,0.013523,0.002678,0.000431,0.524763
37841000,0.0324,0.013523,0.002678,0.000431,0.322497
37842000,0.0324,0.013523,0.002678,0.000431,0.296053
37843000,0.0324,0.013523,0.002678,0.000431,0.322262
37844000,0.0324,0.013523,0.002678,0.000431,0.149261
37845000,0.0324,0.013523,0.002678,0.000431,0.160191
37846000,0.0324,0.013523,0.002678,0.000431,0.124462
37847000,0.0324,0.013523,0.002678,0.000431,0.505959
37848000,0.0324,0.013523,0.002678,0.000431,0.206497
37849000,0.0324,0.013523,0.002678,0.000431,0.159956
37850000,0.0324,0.013523,0.002678,0.000431,0.143972
37851000,0.0324,0.013523,0.002678,0.000431,0.133982
37852000,0.0324,0.013523,0.002678,0.000431,0.102485
37853000,0.0324,0.013523,0.002678,0.000431,0.102250
37854000,0.0324,0.013523,0.002678,0.000431,0.086383
37855000,0.0324,0.013523,0.002678,0.000431,0.064405
37856000,0.0324,0.013523,0.002678,0.000431,0.065228
37857000,0.0324,0.013523,0.002678,0.000431,0.049009
37858000,0.0324,0.013523,0.002678,0.000431,0.049832
37859000,0.0324,0.013523,0.002678,0.000431,0.039254
37860000,0.0324,0.013523,0.002678,0.000431,0.037609
37861000,0.0324,0.013523,0.002678,0.000431,0.030322
37862000,0.0324,0.013523,0.002678,0.000431,0.025269
37863000,0.0324,0.013523,0.002678,0.000431,0.027619
37864000,0.0324,0.013523,0.002678,0.000431,0.023036
37865000,0.0324,0.013523,0.002678,0.000431,0.025386
37866000,0.0324,0.013523,0.002678,0.000431,0.020567
37867000,0.0324,0.013523,0.002678,0.000431,0.025974
37868000,0.0324,0.013523,0.002678,0.000431,0.017747
37869000,0.0324,0.013523,0.002678,0.000431,0.016219
37870000,0.0324,0.013523,0.002678,0.000431,0.007992
37871000,0.0324,0.013523,0.002678,0.000431,0.007169
37872000,0.0324,0.013523,0.002678,0.000431,0.007639
37873000,0.0324,0.013523,0.002678,0.000431,0.007052
37874000,0.0324,0.013523,0.002678,0.000431,0.007522
37875000,0.0324,0.013523,0.002678,0.000431,0.008109
37876000,0.0324,0.013523,0.002678,0.000431,0.006111
37877000,0.0324,0.013523,0.002678,0.000431,0.006347
37878000,0.0324,0.013523,0.002678,0.000431,0.007639
37879000,0.0324,0.013523,0.002678,0.000431,0.006464
37880000,0.0324,0.013523,0.002678,0.000431,0.004349
37881000,0.0324,0.013523,0.002678,0.000431,0.004349
37882000,0.0324,0.013523,0.002678,0.000431,0.004231
37883000,0.0324,0.013523,0.002678,0.000431,0.004701
37884000,0.0324,0.013523,0.002678,0.000431,0.005524
37885000,0.0324,0.013523,0.002678,0.000431,0.003643
37886000,0.0324,0.013523,0.002678,0.000431,0.003526
37887000,0.0324,0.013523,0.002678,0.000431,0.003291
37888000,0.0324,0.013523,0.002678,0.000431,0.005054
37889000,0.0324,0.013523,0.002678,0.000431,0.002468
37890000,0.0324,0.013523,0.002678,0.000431,0.002468
37891000,0.0324,0.013523,0.002678,0.000431,0.004349
37892000,0.0324,0.013523,0.002678,0.000431,0.004113
37893000,0.0324,0.013523,0.002678,0.000431,0.000940
37894000,0.0324,0.013523,0.002678,0.000431,0.000705
37895000,0.0324,0.013523,0.002678,0.000431,0.000940
37896000,0.0324,0.013523,0.002678,0.000431,0.000823
37897000,0.0324,0.013523,0.002678,0.000431,0.000823
37898000,0.0324,0.013523,0.002678,0.000431,0.000823
37899000,0.0324,0.013523,0.002678,0.000431,0.000823
37900000,0.0324,0.013523,0.002678,0.000431,0.000705
37901000,0.0324,0.013523,0.002678,0.000431,0.000940
37902000,0.0324,0.013523,0.002678,0.000431,0.000940
37903000,0.0324,0.013523,0.002678,0.000431,0.000705
37904000,0.0324,0.013523,0.002678,0.000431,0.000940
37905000,0.0324,0.013523,0.002678,0.000431,0.000705
37906000,0.0324,0.013523,0.002678,0.000431,0.000940
37907000,0.0324,0.013523,0.002678,0.000431,0.000940
37908000,0.0324,0.013523,0.002678,0.000431,0.000705
37909000,0.0324,0.013523,0.002678,0.000431,0.000940
37910000,0.0324,0.013523,0.002678,0.000431,0.000705
37911000,0.0324,0.013523,0.002678,0.000431,0.000940
37912000,0.0324,0.013523,0.002678,0.000431,0.000823
37913000,0.0324,0.013523,0.002678,0.000431,0.000823
37914000,0.0324,0.013523,0.002678,0.000431,0.000823
37915000,0.0324,0.013523,0.002678,0.000431,0.000823
37916000,0.0324,0.013523,0.002678,0.000431,0.000823
37917000,0.0324,0.013523,0.002678,0.000431,0.015279
37918000,0.0324,0.013523,0.002678,0.000431,0.701173
37919000,0.0324,0.013523,0.002678,0.000431,0.592225
37920000,0.0324,0.013523,0.002678,0.000431,0.155490
37921000,0.0324,0.013523,0.002678,0.000431,0.137626
37922000,0.0324,0.013523,0.002678,0.000431,0.546153
37923000,0.0324,0.013523,0.002678,0.000431,0.251275
37924000,0.0324,0.013523,0.002678,0.000431,0.286416
37925000,0.0324,0.013523,0.002678,0.000431,0.334955
37926000,0.0324,0.013523,0.002678,0.000431,0.148673
37927000,0.0324,0.013523,0.002678,0.000431,0.161836
37928000,0.0324,0.013523,0.002678,0.000431,0.144207
37929000,0.0324,0.013523,0.002678,0.000431,0.494559
37930000,0.0324,0.013523,0.002678,0.000431,0.216487
37931000,0.0324,0.013523,0.002678,0.000431,0.159016
37932000,0.0324,0.013523,0.002678,0.000431,0.134805
37933000,0.0324,0.013523,0.002678,0.000431,0.125050
37934000,0.0324,0.013523,0.002678,0.000431,0.092730
37935000,0.0324,0.013523,0.002678,0.000431,0.083092
37936000,0.0324,0.013523,0.002678,0.000431,0.083563
37937000,0.0324,0.013523,0.002678,0.000431,0.084620
37938000,0.0324,0.013523,0.002678,0.000431,0.064405
37939000,0.0324,0.013523,0.002678,0.000431,0.051360
37940000,0.0324,0.013523,0.002678,0.000431,0.051007
37941000,0.0324,0.013523,0.002678,0.000431,0.037491
37942000,0.0324,0.013523,0.002678,0.000431,0.041370
37943000,0.0324,0.013523,0.002678,0.000431,0.031498
37944000,0.0324,0.013523,0.002678,0.000431,0.029735
37945000,0.0324,0.013523,0.002678,0.000431,0.021743
37946000,0.0324,0.013523,0.002678,0.000431,0.016101
37947000,0.0324,0.013523,0.002678,0.000431,0.016924
37948000,0.0324,0.013523,0.002678,0.000431,0.014338
37949000,0.0324,0.013523,0.002678,0.000431,0.011518
37950000,0.0324,0.013523,0.002678,0.000431,0.013986
37951000,0.0324,0.013523,0.002678,0.000431,0.010225
37952000,0.0324,0.013523,0.002678,0.000431,0.011400
37953000,0.0324,0.013523,0.002678,0.000431,0.010107
37954000,0.0324,0.013523,0.002678,0.000431,0.007287
37955000,0.0324,0.013523,0.002678,0.000431,0.007052
37956000,0.0324,0.013523,0.002678,0.000431,0.008815
37957000,0.0324,0.013523,0.002678,0.000431,0.006229
37958000,0.0324,0.013523,0.002678,0.000431,0.007992
37959000,0.0324,0.013523,0.002678,0.000431,0.005524
37960000,0.0324,0.013523,0.002678,0.000431,0.005406
37961000,0.0324,0.013523,0.002678,0.000431,0.008109
37962000,0.0324,0.013523,0.002678,0.000431,0.004349
37963000,0.0324,0.013523,0.002678,0.000431,0.009755
37964000,0.0324,0.013523,0.002678,0.000431,0.004231
37965000,0.0324,0.013523,0.002678,0.000431,0.000940
37966000,0.0324,0.013523,0.002678,0.000431,0.000823
37967000,0.0324,0.013523,0.002678,0.000431,0.001058
37968000,0.0324,0.013523,0.002678,0.000431,0.000940
37969000,0.0324,0.013523,0.002678,0.000431,0.000940
37970000,0.0324,0.013523,0.002678,0.000431,0.002821
37971000,0.0324,0.013523,0.002678,0.000431,0.507487
37972000,0.0324,0.013523,0.002678,0.000431,0.742896
37973000,0.0324,0.013523,0.002678,0.000431,0.171474
37974000,0.0324,0.013523,0.002678,0.000431,0.149731
37975000,0.0324,0.013523,0.002678,0.000431,0.326846
37976000,0.0324,0.013523,0.002678,0.000431,0.542510
37977000,0.0324,0.013523,0.002678,0.000431,0.262323
37978000,0.0324,0.013523,0.002678,0.000431,0.344005
37979000,0.0324,0.013523,0.002678,0.000431,0.146675
37980000,0.0324,0.013523,0.002678,0.000431,0.153844
37981000,0.0324,0.013523,0.002678,0.000431,0.145147
37982000,0.0324,0.013523,0.002678,0.000431,0.505371
37983000,0.0324,0.013523,0.002678,0.000431,0.219190
37984000,0.0324,0.013523,0.002678,0.000431,0.165010
37985000,0.0324,0.013523,0.002678,0.000431,0.135157
37986000,0.0324,0.013523,0.002678,0.000431,0.126813
37987000,0.0324,0.013523,0.002678,0.000431,0.112592
37988000,0.0324,0.013523,0.002678,0.000431,0.094258
37989000,0.0324,0.013523,0.002678,0.000431,0.081447
37990000,0.0324,0.013523,0.002678,0.000431,0.061937
37991000,0.0324,0.013523,0.002678,0.000431,0.063935
37992000,0.0324,0.013523,0.002678,0.000431,0.052418
37993000,0.0324,0.013523,0.002678,0.000431,0.046189
37994000,0.0324,0.013523,0.002678,0.000431,0.036199
37995000,0.0324,0.013523,0.002678,0.000431,0.034083
37996000,0.0324,0.013523,0.002678,0.000431,0.035258
37997000,0.0324,0.013523,0.002678,0.000431,0.039019
37998000,0.0324,0.013523,0.002678,0.000431,0.026091
37999000,0.0324,0.013523,0.002678,0.000431,0.027737
