Cycle,Area(mm^2),PeakDynamic(W),SubthresholdLeakage(W),GateLeakage(W),RunTimeDynamic(W)
59000000,0.0324,0.013523,0.002678,0.000431,0.025504
59001000,0.0324,0.013523,0.002678,0.000431,0.022448
59002000,0.0324,0.013523,0.002678,0.000431,0.016571
59003000,0.0324,0.013523,0.002678,0.000431,0.010225
59004000,0.0324,0.013523,0.002678,0.000431,0.006111
59005000,0.0324,0.013523,0.002678,0.000431,0.004584
59006000,0.0324,0.013523,0.002678,0.000431,0.001645
59007000,0.0324,0.013523,0.002678,0.000431,0.001528
59008000,0.0324,0.013523,0.002678,0.000431,0.001763
59009000,0.0324,0.013523,0.002678,0.000431,0.001763
59010000,0.0324,0.013523,0.002678,0.000431,0.001528
59011000,0.0324,0.013523,0.002678,0.000431,0.001763
59012000,0.0324,0.013523,0.002678,0.000431,0.004113
59013000,0.0324,0.013523,0.002678,0.000431,0.000940
59014000,0.0324,0.013523,0.002678,0.000431,0.000940
59015000,0.0324,0.013523,0.002678,0.000431,0.000705
59016000,0.0324,0.013523,0.002678,0.000431,0.000940
59017000,0.0324,0.013523,0.002678,0.000431,0.000705
59018000,0.0324,0.013523,0.002678,0.000431,0.000940
59019000,0.0324,0.013523,0.002678,0.000431,0.199210
59020000,0.0324,0.013523,0.002678,0.000431,0.708460
59021000,0.0324,0.013523,0.002678,0.000431,0.468820
59022000,0.0324,0.013523,0.002678,0.000431,0.139623
59023000,0.0324,0.013523,0.002678,0.000431,0.388783
59024000,0.0324,0.013523,0.002678,0.000431,0.339421
59025000,0.0324,0.013523,0.002678,0.000431,0.286534
59026000,0.0324,0.013523,0.002678,0.000431,0.275486
59027000,0.0324,0.013523,0.002678,0.000431,0.164069
59028000,0.0324,0.013523,0.002678,0.000431,0.111769
59029000,0.0324,0.013523,0.002678,0.000431,0.481043
59030000,0.0324,0.013523,0.002678,0.000431,0.301930
59031000,0.0324,0.013523,0.002678,0.000431,0.180053
59032000,0.0324,0.013523,0.002678,0.000431,0.155842
59033000,0.0324,0.013523,0.002678,0.000431,0.137273
59034000,0.0324,0.013523,0.002678,0.000431,0.100016
59035000,0.0324,0.013523,0.002678,0.000431,0.076628
59036000,0.0324,0.013523,0.002678,0.000431,0.054416
59037000,0.0324,0.013523,0.002678,0.000431,0.060527
59038000,0.0324,0.013523,0.002678,0.000431,0.061467
59039000,0.0324,0.013523,0.002678,0.000431,0.035846
59040000,0.0324,0.013523,0.002678,0.000431,0.043485
59041000,0.0324,0.013523,0.002678,0.000431,0.031027
59042000,0.0324,0.013523,0.002678,0.000431,0.023271
59043000,0.0324,0.013523,0.002678,0.000431,0.023153
59044000,0.0324,0.013523,0.002678,0.000431,0.023858
59045000,0.0324,0.013523,0.002678,0.000431,0.013281
59046000,0.0324,0.013523,0.002678,0.000431,0.016454
59047000,0.0324,0.013523,0.002678,0.000431,0.012693
59048000,0.0324,0.013523,0.002678,0.000431,0.007757
59049000,0.0324,0.013523,0.002678,0.000431,0.005406
59050000,0.0324,0.013523,0.002678,0.000431,0.004113
59051000,0.0324,0.013523,0.002678,0.000431,0.004466
59052000,0.0324,0.013523,0.002678,0.000431,0.007052
59053000,0.0324,0.013523,0.002678,0.000431,0.005876
59054000,0.0324,0.013523,0.002678,0.000431,0.002703
59055000,0.0324,0.013523,0.002678,0.000431,0.002821
59056000,0.0324,0.013523,0.002678,0.000431,0.001645
59057000,0.0324,0.013523,0.002678,0.000431,0.001410
59058000,0.0324,0.013523,0.002678,0.000431,0.001175
59059000,0.0324,0.013523,0.002678,0.000431,0.001763
59060000,0.0324,0.013523,0.002678,0.000431,0.000940
59061000,0.0324,0.013523,0.002678,0.000431,0.001763
59062000,0.0324,0.013523,0.002678,0.000431,0.001293
59063000,0.0324,0.013523,0.002678,0.000431,0.001058
59064000,0.0324,0.013523,0.002678,0.000431,0.000823
59065000,0.0324,0.013523,0.002678,0.000431,0.071340
59066000,0.0324,0.013523,0.002678,0.000431,0.752063
59067000,0.0324,0.013523,0.002678,0.000431,0.551795
59068000,0.0324,0.013523,0.002678,0.000431,0.136333
59069000,0.0324,0.013523,0.002678,0.000431,0.183932
59070000,0.0324,0.013523,0.002678,0.000431,0.531462
59071000,0.0324,0.013523,0.002678,0.000431,0.255976
59072000,0.0324,0.013523,0.002678,0.000431,0.321322
59073000,0.0324,0.013523,0.002678,0.000431,0.150671
59074000,0.0324,0.013523,0.002678,0.000431,0.120701
59075000,0.0324,0.013523,0.002678,0.000431,0.339892
59076000,0.0324,0.013523,0.002678,0.000431,0.418635
59077000,0.0324,0.013523,0.002678,0.000431,0.174647
59078000,0.0324,0.013523,0.002678,0.000431,0.147498
59079000,0.0324,0.013523,0.002678,0.000431,0.128811
59080000,0.0324,0.013523,0.002678,0.000431,0.102014
59081000,0.0324,0.013523,0.002678,0.000431,0.075101
59082000,0.0324,0.013523,0.002678,0.000431,0.055356
59083000,0.0324,0.013523,0.002678,0.000431,0.044191
59084000,0.0324,0.013523,0.002678,0.000431,0.038784
59085000,0.0324,0.013523,0.002678,0.000431,0.036669
59086000,0.0324,0.013523,0.002678,0.000431,0.021860
59087000,0.0324,0.013523,0.002678,0.000431,0.013163
59088000,0.0324,0.013523,0.002678,0.000431,0.009402
59089000,0.0324,0.013523,0.002678,0.000431,0.007874
59090000,0.0324,0.013523,0.002678,0.000431,0.008932
59091000,0.0324,0.013523,0.002678,0.000431,0.007404
59092000,0.0324,0.013523,0.002678,0.000431,0.003643
59093000,0.0324,0.013523,0.002678,0.000431,0.003878
59094000,0.0324,0.013523,0.002678,0.000431,0.003761
59095000,0.0324,0.013523,0.002678,0.000431,0.003056
59096000,0.0324,0.013523,0.002678,0.000431,0.005289
59097000,0.0324,0.013523,0.002678,0.000431,0.000940
59098000,0.0324,0.013523,0.002678,0.000431,0.000823
59099000,0.0324,0.013523,0.002678,0.000431,0.000823
59100000,0.0324,0.013523,0.002678,0.000431,0.000823
59101000,0.0324,0.013523,0.002678,0.000431,0.014573
59102000,0.0324,0.013523,0.002678,0.000431,0.761935
59103000,0.0324,0.013523,0.002678,0.000431,0.567779
59104000,0.0324,0.013523,0.002678,0.000431,0.137978
59105000,0.0324,0.013523,0.002678,0.000431,0.135628
59106000,0.0324,0.013523,0.002678,0.000431,0.548386
59107000,0.0324,0.013523,0.002678,0.000431,0.272900
59108000,0.0324,0.013523,0.002678,0.000431,0.282538
59109000,0.0324,0.013523,0.002678,0.000431,0.150436
59110000,0.0324,0.013523,0.002678,0.000431,0.173589
59111000,0.0324,0.013523,0.002678,0.000431,0.153609
59112000,0.0324,0.013523,0.002678,0.000431,0.541217
59113000,0.0324,0.013523,0.002678,0.000431,0.207202
59114000,0.0324,0.013523,0.002678,0.000431,0.172884
59115000,0.0324,0.013523,0.002678,0.000431,0.148908
59116000,0.0324,0.013523,0.002678,0.000431,0.145735
59117000,0.0324,0.013523,0.002678,0.000431,0.111534
59118000,0.0324,0.013523,0.002678,0.000431,0.101427
59119000,0.0324,0.013523,0.002678,0.000431,0.073220
59120000,0.0324,0.013523,0.002678,0.000431,0.051947
59121000,0.0324,0.013523,0.002678,0.000431,0.041487
59122000,0.0324,0.013523,0.002678,0.000431,0.031027
59123000,0.0324,0.013523,0.002678,0.000431,0.023153
59124000,0.0324,0.013523,0.002678,0.000431,0.024328
59125000,0.0324,0.013523,0.002678,0.000431,0.016101
59126000,0.0324,0.013523,0.002678,0.000431,0.017394
59127000,0.0324,0.013523,0.002678,0.000431,0.014221
59128000,0.0324,0.013523,0.002678,0.000431,0.017042
59129000,0.0324,0.013523,0.002678,0.000431,0.011165
59130000,0.0324,0.013523,0.002678,0.000431,0.013046
59131000,0.0324,0.013523,0.002678,0.000431,0.012105
59132000,0.0324,0.013523,0.002678,0.000431,0.006229
59133000,0.0324,0.013523,0.002678,0.000431,0.004113
59134000,0.0324,0.013523,0.002678,0.000431,0.004231
59135000,0.0324,0.013523,0.002678,0.000431,0.004349
59136000,0.0324,0.013523,0.002678,0.000431,0.007522
59137000,0.0324,0.013523,0.002678,0.000431,0.005289
59138000,0.0324,0.013523,0.002678,0.000431,0.003761
59139000,0.0324,0.013523,0.002678,0.000431,0.004819
59140000,0.0324,0.013523,0.002678,0.000431,0.000823
59141000,0.0324,0.013523,0.002678,0.000431,0.000823
59142000,0.0324,0.013523,0.002678,0.000431,0.000823
59143000,0.0324,0.013523,0.002678,0.000431,0.000940
59144000,0.0324,0.013523,0.002678,0.000431,0.000705
59145000,0.0324,0.013523,0.002678,0.000431,0.000940
59146000,0.0324,0.013523,0.002678,0.000431,0.000823
59147000,0.0324,0.013523,0.002678,0.000431,0.000823
59148000,0.0324,0.013523,0.002678,0.000431,0.000823
59149000,0.0324,0.013523,0.002678,0.000431,0.000823
59150000,0.0324,0.013523,0.002678,0.000431,0.000823
59151000,0.0324,0.013523,0.002678,0.000431,0.000823
59152000,0.0324,0.013523,0.002678,0.000431,0.000823
59153000,0.0324,0.013523,0.002678,0.000431,0.000823
59154000,0.0324,0.013523,0.002678,0.000431,0.000940
59155000,0.0324,0.013523,0.002678,0.000431,0.000823
59156000,0.0324,0.013523,0.002678,0.000431,0.000823
59157000,0.0324,0.013523,0.002678,0.000431,0.000705
59158000,0.0324,0.013523,0.002678,0.000431,0.000940
59159000,0.0324,0.013523,0.002678,0.000431,0.000940
59160000,0.0324,0.013523,0.002678,0.000431,0.000705
59161000,0.0324,0.013523,0.002678,0.000431,0.000940
59162000,0.0324,0.013523,0.002678,0.000431,0.000705
59163000,0.0324,0.013523,0.002678,0.000431,0.000940
59164000,0.0324,0.013523,0.002678,0.000431,0.014691
59165000,0.0324,0.013523,0.002678,0.000431,0.768987
59166000,0.0324,0.013523,0.002678,0.000431,0.543803
59167000,0.0324,0.013523,0.002678,0.000431,0.136568
59168000,0.0324,0.013523,0.002678,0.000431,0.155137
59169000,0.0324,0.013523,0.002678,0.000431,0.575536
59170000,0.0324,0.013523,0.002678,0.000431,0.267024
59171000,0.0324,0.013523,0.002678,0.000431,0.292645
59172000,0.0324,0.013523,0.002678,0.000431,0.149261
59173000,0.0324,0.013523,0.002678,0.000431,0.127283
59174000,0.0324,0.013523,0.002678,0.000431,0.361517
59175000,0.0324,0.013523,0.002678,0.000431,0.440966
59176000,0.0324,0.013523,0.002678,0.000431,0.225654
59177000,0.0324,0.013523,0.002678,0.000431,0.198153
59178000,0.0324,0.013523,0.002678,0.000431,0.179466
59179000,0.0324,0.013523,0.002678,0.000431,0.132924
59180000,0.0324,0.013523,0.002678,0.000431,0.107068
59181000,0.0324,0.013523,0.002678,0.000431,0.091437
59182000,0.0324,0.013523,0.002678,0.000431,0.087794
59183000,0.0324,0.013523,0.002678,0.000431,0.074043
59184000,0.0324,0.013523,0.002678,0.000431,0.068166
59185000,0.0324,0.013523,0.002678,0.000431,0.048069
59186000,0.0324,0.013523,0.002678,0.000431,0.046424
59187000,0.0324,0.013523,0.002678,0.000431,0.032673
59188000,0.0324,0.013523,0.002678,0.000431,0.023153
59189000,0.0324,0.013523,0.002678,0.000431,0.024211
59190000,0.0324,0.013523,0.002678,0.000431,0.008227
59191000,0.0324,0.013523,0.002678,0.000431,0.015866
59192000,0.0324,0.013523,0.002678,0.000431,0.009050
59193000,0.0324,0.013523,0.002678,0.000431,0.003408
59194000,0.0324,0.013523,0.002678,0.000431,0.003526
59195000,0.0324,0.013523,0.002678,0.000431,0.002468
59196000,0.0324,0.013523,0.002678,0.000431,0.004113
59197000,0.0324,0.013523,0.002678,0.000431,0.001058
59198000,0.0324,0.013523,0.002678,0.000431,0.000823
59199000,0.0324,0.013523,0.002678,0.000431,0.278189
59200000,0.0324,0.013523,0.002678,0.000431,0.815646
59201000,0.0324,0.013523,0.002678,0.000431,0.372799
59202000,0.0324,0.013523,0.002678,0.000431,0.138096
59203000,0.0324,0.013523,0.002678,0.000431,0.508662
59204000,0.0324,0.013523,0.002678,0.000431,0.261500
59205000,0.0324,0.013523,0.002678,0.000431,0.330842
59206000,0.0324,0.013523,0.002678,0.000431,0.194744
59207000,0.0324,0.013523,0.002678,0.000431,0.174412
59208000,0.0324,0.013523,0.002678,0.000431,0.133512
59209000,0.0324,0.013523,0.002678,0.000431,0.557319
59210000,0.0324,0.013523,0.002678,0.000431,0.230120
59211000,0.0324,0.013523,0.002678,0.000431,0.190396
59212000,0.0324,0.013523,0.002678,0.000431,0.149613
59213000,0.0324,0.013523,0.002678,0.000431,0.132454
59214000,0.0324,0.013523,0.002678,0.000431,0.106833
59215000,0.0324,0.013523,0.002678,0.000431,0.076746
59216000,0.0324,0.013523,0.002678,0.000431,0.071692
59217000,0.0324,0.013523,0.002678,0.000431,0.060292
59218000,0.0324,0.013523,0.002678,0.000431,0.053358
59219000,0.0324,0.013523,0.002678,0.000431,0.045131
59220000,0.0324,0.013523,0.002678,0.000431,0.035376
59221000,0.0324,0.013523,0.002678,0.000431,0.029029
59222000,0.0324,0.013523,0.002678,0.000431,0.014221
59223000,0.0324,0.013523,0.002678,0.000431,0.007874
59224000,0.0324,0.013523,0.002678,0.000431,0.006582
59225000,0.0324,0.013523,0.002678,0.000431,0.009872
59226000,0.0324,0.013523,0.002678,0.000431,0.003526
59227000,0.0324,0.013523,0.002678,0.000431,0.002233
59228000,0.0324,0.013523,0.002678,0.000431,0.003173
59229000,0.0324,0.013523,0.002678,0.000431,0.003056
59230000,0.0324,0.013523,0.002678,0.000431,0.002821
59231000,0.0324,0.013523,0.002678,0.000431,0.003526
59232000,0.0324,0.013523,0.002678,0.000431,0.003291
59233000,0.0324,0.013523,0.002678,0.000431,0.002233
59234000,0.0324,0.013523,0.002678,0.000431,0.001763
59235000,0.0324,0.013523,0.002678,0.000431,0.001880
59236000,0.0324,0.013523,0.002678,0.000431,0.001528
59237000,0.0324,0.013523,0.002678,0.000431,0.003291
59238000,0.0324,0.013523,0.002678,0.000431,0.000823
59239000,0.0324,0.013523,0.002678,0.000431,0.000823
59240000,0.0324,0.013523,0.002678,0.000431,0.000705
59241000,0.0324,0.013523,0.002678,0.000431,0.000940
59242000,0.0324,0.013523,0.002678,0.000431,0.000940
59243000,0.0324,0.013523,0.002678,0.000431,0.000705
59244000,0.0324,0.013523,0.002678,0.000431,0.000940
59245000,0.0324,0.013523,0.002678,0.000431,0.000705
59246000,0.0324,0.013523,0.002678,0.000431,0.000940
59247000,0.0324,0.013523,0.002678,0.000431,0.000705
59248000,0.0324,0.013523,0.002678,0.000431,0.000940
59249000,0.0324,0.013523,0.002678,0.000431,0.000823
59250000,0.0324,0.013523,0.002678,0.000431,0.000823
59251000,0.0324,0.013523,0.002678,0.000431,0.000823
59252000,0.0324,0.013523,0.002678,0.000431,0.000823
59253000,0.0324,0.013523,0.002678,0.000431,0.000940
59254000,0.0324,0.013523,0.002678,0.000431,0.000705
59255000,0.0324,0.013523,0.002678,0.000431,0.000940
59256000,0.0324,0.013523,0.002678,0.000431,0.000823
59257000,0.0324,0.013523,0.002678,0.000431,0.000823
59258000,0.0324,0.013523,0.002678,0.000431,0.000823
59259000,0.0324,0.013523,0.002678,0.000431,0.000823
59260000,0.0324,0.013523,0.002678,0.000431,0.000823
59261000,0.0324,0.013523,0.002678,0.000431,0.000823
59262000,0.0324,0.013523,0.002678,0.000431,0.000940
59263000,0.0324,0.013523,0.002678,0.000431,0.000705
59264000,0.0324,0.013523,0.002678,0.000431,0.000940
59265000,0.0324,0.013523,0.002678,0.000431,0.000705
59266000,0.0324,0.013523,0.002678,0.000431,0.000940
59267000,0.0324,0.013523,0.002678,0.000431,0.000705
59268000,0.0324,0.013523,0.002678,0.000431,0.000940
59269000,0.0324,0.013523,0.002678,0.000431,0.000823
59270000,0.0324,0.013523,0.002678,0.000431,0.000705
59271000,0.0324,0.013523,0.002678,0.000431,0.277954
59272000,0.0324,0.013523,0.002678,0.000431,0.800367
59273000,0.0324,0.013523,0.002678,0.000431,0.363045
59274000,0.0324,0.013523,0.002678,0.000431,0.136450
59275000,0.0324,0.013523,0.002678,0.000431,0.516301
59276000,0.0324,0.013523,0.002678,0.000431,0.256211
59277000,0.0324,0.013523,0.002678,0.000431,0.281950
59278000,0.0324,0.013523,0.002678,0.000431,0.234469
59279000,0.0324,0.013523,0.002678,0.000431,0.167360
59280000,0.0324,0.013523,0.002678,0.000431,0.107773
59281000,0.0324,0.013523,0.002678,0.000431,0.498319
59282000,0.0324,0.013523,0.002678,0.000431,0.265731
59283000,0.0324,0.013523,0.002678,0.000431,0.167008
59284000,0.0324,0.013523,0.002678,0.000431,0.161366
59285000,0.0324,0.013523,0.002678,0.000431,0.127401
59286000,0.0324,0.013523,0.002678,0.000431,0.127988
59287000,0.0324,0.013523,0.002678,0.000431,0.091202
59288000,0.0324,0.013523,0.002678,0.000431,0.071340
59289000,0.0324,0.013523,0.002678,0.000431,0.077921
59290000,0.0324,0.013523,0.002678,0.000431,0.044073
59291000,0.0324,0.013523,0.002678,0.000431,0.025856
59292000,0.0324,0.013523,0.002678,0.000431,0.023858
59293000,0.0324,0.013523,0.002678,0.000431,0.012105
59294000,0.0324,0.013523,0.002678,0.000431,0.012811
59295000,0.0324,0.013523,0.002678,0.000431,0.008227
59296000,0.0324,0.013523,0.002678,0.000431,0.011165
59297000,0.0324,0.013523,0.002678,0.000431,0.003408
59298000,0.0324,0.013523,0.002678,0.000431,0.005289
59299000,0.0324,0.013523,0.002678,0.000431,0.005876
59300000,0.0324,0.013523,0.002678,0.000431,0.001645
59301000,0.0324,0.013523,0.002678,0.000431,0.001763
59302000,0.0324,0.013523,0.002678,0.000431,0.001645
59303000,0.0324,0.013523,0.002678,0.000431,0.001645
59304000,0.0324,0.013523,0.002678,0.000431,0.001528
59305000,0.0324,0.013523,0.002678,0.000431,0.001528
59306000,0.0324,0.013523,0.002678,0.000431,0.001763
59307000,0.0324,0.013523,0.002678,0.000431,0.001410
59308000,0.0324,0.013523,0.002678,0.000431,0.003878
59309000,0.0324,0.013523,0.002678,0.000431,0.000823
59310000,0.0324,0.013523,0.002678,0.000431,0.000823
59311000,0.0324,0.013523,0.002678,0.000431,0.197095
59312000,0.0324,0.013523,0.002678,0.000431,0.703524
59313000,0.0324,0.013523,0.002678,0.000431,0.483041
59314000,0.0324,0.013523,0.002678,0.000431,0.135863
59315000,0.0324,0.013523,0.002678,0.000431,0.289002
59316000,0.0324,0.013523,0.002678,0.000431,0.449663
59317000,0.0324,0.013523,0.002678,0.000431,0.331077
59318000,0.0324,0.013523,0.002678,0.000431,0.263263
59319000,0.0324,0.013523,0.002678,0.000431,0.148438
59320000,0.0324,0.013523,0.002678,0.000431,0.117058
59321000,0.0324,0.013523,0.002678,0.000431,0.366335
59322000,0.0324,0.013523,0.002678,0.000431,0.427215
59323000,0.0324,0.013523,0.002678,0.000431,0.181346
59324000,0.0324,0.013523,0.002678,0.000431,0.162071
59325000,0.0324,0.013523,0.002678,0.000431,0.145500
59326000,0.0324,0.013523,0.002678,0.000431,0.121407
59327000,0.0324,0.013523,0.002678,0.000431,0.095785
59328000,0.0324,0.013523,0.002678,0.000431,0.093317
59329000,0.0324,0.013523,0.002678,0.000431,0.060645
59330000,0.0324,0.013523,0.002678,0.000431,0.064641
59331000,0.0324,0.013523,0.002678,0.000431,0.035846
59332000,0.0324,0.013523,0.002678,0.000431,0.037021
59333000,0.0324,0.013523,0.002678,0.000431,0.030675
59334000,0.0324,0.013523,0.002678,0.000431,0.017629
59335000,0.0324,0.013523,0.002678,0.000431,0.015866
59336000,0.0324,0.013523,0.002678,0.000431,0.012811
59337000,0.0324,0.013523,0.002678,0.000431,0.015749
59338000,0.0324,0.013523,0.002678,0.000431,0.013046
59339000,0.0324,0.013523,0.002678,0.000431,0.010460
59340000,0.0324,0.013523,0.002678,0.000431,0.006464
59341000,0.0324,0.013523,0.002678,0.000431,0.009285
59342000,0.0324,0.013523,0.002678,0.000431,0.006699
59343000,0.0324,0.013523,0.002678,0.000431,0.004584
59344000,0.0324,0.013523,0.002678,0.000431,0.004701
59345000,0.0324,0.013523,0.002678,0.000431,0.006347
59346000,0.0324,0.013523,0.002678,0.000431,0.004231
59347000,0.0324,0.013523,0.002678,0.000431,0.004584
59348000,0.0324,0.013523,0.002678,0.000431,0.003056
59349000,0.0324,0.013523,0.002678,0.000431,0.002703
59350000,0.0324,0.013523,0.002678,0.000431,0.002821
59351000,0.0324,0.013523,0.002678,0.000431,0.002351
59352000,0.0324,0.013523,0.002678,0.000431,0.002703
59353000,0.0324,0.013523,0.002678,0.000431,0.002586
59354000,0.0324,0.013523,0.002678,0.000431,0.002586
59355000,0.0324,0.013523,0.002678,0.000431,0.002468
59356000,0.0324,0.013523,0.002678,0.000431,0.005289
59357000,0.0324,0.013523,0.002678,0.000431,0.005524
59358000,0.0324,0.013523,0.002678,0.000431,0.074983
59359000,0.0324,0.013523,0.002678,0.000431,0.749712
59360000,0.0324,0.013523,0.002678,0.000431,0.557436
59361000,0.0324,0.013523,0.002678,0.000431,0.141739
59362000,0.0324,0.013523,0.002678,0.000431,0.192159
59363000,0.0324,0.013523,0.002678,0.000431,0.532285
59364000,0.0324,0.013523,0.002678,0.000431,0.312037
59365000,0.0324,0.013523,0.002678,0.000431,0.291940
59366000,0.0324,0.013523,0.002678,0.000431,0.152434
59367000,0.0324,0.013523,0.002678,0.000431,0.105540
59368000,0.0324,0.013523,0.002678,0.000431,0.445079
59369000,0.0324,0.013523,0.002678,0.000431,0.339774
59370000,0.0324,0.013523,0.002678,0.000431,0.159603
59371000,0.0324,0.013523,0.002678,0.000431,0.145265
59372000,0.0324,0.013523,0.002678,0.000431,0.104953
59373000,0.0324,0.013523,0.002678,0.000431,0.092377
59374000,0.0324,0.013523,0.002678,0.000431,0.073925
59375000,0.0324,0.013523,0.002678,0.000431,0.069342
59376000,0.0324,0.013523,0.002678,0.000431,0.047011
59377000,0.0324,0.013523,0.002678,0.000431,0.037962
59378000,0.0324,0.013523,0.002678,0.000431,0.028559
59379000,0.0324,0.013523,0.002678,0.000431,0.019980
59380000,0.0324,0.013523,0.002678,0.000431,0.023153
59381000,0.0324,0.013523,0.002678,0.000431,0.013281
59382000,0.0324,0.013523,0.002678,0.000431,0.013633
59383000,0.0324,0.013523,0.002678,0.000431,0.012105
59384000,0.0324,0.013523,0.002678,0.000431,0.015396
59385000,0.0324,0.013523,0.002678,0.000431,0.009402
59386000,0.0324,0.013523,0.002678,0.000431,0.003173
59387000,0.0324,0.013523,0.002678,0.000431,0.001880
59388000,0.0324,0.013523,0.002678,0.000431,0.003291
59389000,0.0324,0.013523,0.002678,0.000431,0.000823
59390000,0.0324,0.013523,0.002678,0.000431,0.000823
59391000,0.0324,0.013523,0.002678,0.000431,0.000823
59392000,0.0324,0.013523,0.002678,0.000431,0.000823
59393000,0.0324,0.013523,0.002678,0.000431,0.000940
59394000,0.0324,0.013523,0.002678,0.000431,0.000823
59395000,0.0324,0.013523,0.002678,0.000431,0.000823
59396000,0.0324,0.013523,0.002678,0.000431,0.000940
59397000,0.0324,0.013523,0.002678,0.000431,0.000823
59398000,0.0324,0.013523,0.002678,0.000431,0.072867
59399000,0.0324,0.013523,0.002678,0.000431,0.788967
59400000,0.0324,0.013523,0.002678,0.000431,0.514186
59401000,0.0324,0.013523,0.002678,0.000431,0.141974
59402000,0.0324,0.013523,0.002678,0.000431,0.384435
59403000,0.0324,0.013523,0.002678,0.000431,0.384905
59404000,0.0324,0.013523,0.002678,0.000431,0.276896
59405000,0.0324,0.013523,0.002678,0.000431,0.244224
59406000,0.0324,0.013523,0.002678,0.000431,0.185695
59407000,0.0324,0.013523,0.002678,0.000431,0.095668
59408000,0.0324,0.013523,0.002678,0.000431,0.550737
59409000,0.0324,0.013523,0.002678,0.000431,0.215899
59410000,0.0324,0.013523,0.002678,0.000431,0.163364
59411000,0.0324,0.013523,0.002678,0.000431,0.133630
59412000,0.0324,0.013523,0.002678,0.000431,0.110006
59413000,0.0324,0.013523,0.002678,0.000431,0.098371
59414000,0.0324,0.013523,0.002678,0.000431,0.087676
59415000,0.0324,0.013523,0.002678,0.000431,0.059234
59416000,0.0324,0.013523,0.002678,0.000431,0.038079
59417000,0.0324,0.013523,0.002678,0.000431,0.045013
59418000,0.0324,0.013523,0.002678,0.000431,0.027619
59419000,0.0324,0.013523,0.002678,0.000431,0.029852
59420000,0.0324,0.013523,0.002678,0.000431,0.025504
59421000,0.0324,0.013523,0.002678,0.000431,0.013868
59422000,0.0324,0.013523,0.002678,0.000431,0.016219
59423000,0.0324,0.013523,0.002678,0.000431,0.012105
59424000,0.0324,0.013523,0.002678,0.000431,0.012223
59425000,0.0324,0.013523,0.002678,0.000431,0.012693
59426000,0.0324,0.013523,0.002678,0.000431,0.012223
59427000,0.0324,0.013523,0.002678,0.000431,0.009872
59428000,0.0324,0.013523,0.002678,0.000431,0.009167
59429000,0.0324,0.013523,0.002678,0.000431,0.007874
59430000,0.0324,0.013523,0.002678,0.000431,0.007404
59431000,0.0324,0.013523,0.002678,0.000431,0.006582
59432000,0.0324,0.013523,0.002678,0.000431,0.006111
59433000,0.0324,0.013523,0.002678,0.000431,0.006699
59434000,0.0324,0.013523,0.002678,0.000431,0.003761
59435000,0.0324,0.013523,0.002678,0.000431,0.003291
59436000,0.0324,0.013523,0.002678,0.000431,0.003291
59437000,0.0324,0.013523,0.002678,0.000431,0.003643
59438000,0.0324,0.013523,0.002678,0.000431,0.003291
59439000,0.0324,0.013523,0.002678,0.000431,0.003173
59440000,0.0324,0.013523,0.002678,0.000431,0.003291
59441000,0.0324,0.013523,0.002678,0.000431,0.007169
59442000,0.0324,0.013523,0.002678,0.000431,0.000940
59443000,0.0324,0.013523,0.002678,0.000431,0.037844
59444000,0.0324,0.013523,0.002678,0.000431,0.751828
59445000,0.0324,0.013523,0.002678,0.000431,0.543215
59446000,0.0324,0.013523,0.002678,0.000431,0.145852
59447000,0.0324,0.013523,0.002678,0.000431,0.206732
59448000,0.0324,0.013523,0.002678,0.000431,0.542158
59449000,0.0324,0.013523,0.002678,0.000431,0.246457
59450000,0.0324,0.013523,0.002678,0.000431,0.321205
59451000,0.0324,0.013523,0.002678,0.000431,0.156430
59452000,0.0324,0.013523,0.002678,0.000431,0.119409
59453000,0.0324,0.013523,0.002678,0.000431,0.357873
59454000,0.0324,0.013523,0.002678,0.000431,0.422866
59455000,0.0324,0.013523,0.002678,0.000431,0.202148
59456000,0.0324,0.013523,0.002678,0.000431,0.154315
59457000,0.0324,0.013523,0.002678,0.000431,0.138213
59458000,0.0324,0.013523,0.002678,0.000431,0.098254
59459000,0.0324,0.013523,0.002678,0.000431,0.077334
59460000,0.0324,0.013523,0.002678,0.000431,0.065816
59461000,0.0324,0.013523,0.002678,0.000431,0.050537
59462000,0.0324,0.013523,0.002678,0.000431,0.038432
59463000,0.0324,0.013523,0.002678,0.000431,0.024916
59464000,0.0324,0.013523,0.002678,0.000431,0.020215
59465000,0.0324,0.013523,0.002678,0.000431,0.019040
59466000,0.0324,0.013523,0.002678,0.000431,0.014573
59467000,0.0324,0.013523,0.002678,0.000431,0.015044
59468000,0.0324,0.013523,0.002678,0.000431,0.012340
59469000,0.0324,0.013523,0.002678,0.000431,0.005641
59470000,0.0324,0.013523,0.002678,0.000431,0.005876
59471000,0.0324,0.013523,0.002678,0.000431,0.006111
59472000,0.0324,0.013523,0.002678,0.000431,0.005524
59473000,0.0324,0.013523,0.002678,0.000431,0.005994
59474000,0.0324,0.013523,0.002678,0.000431,0.005876
59475000,0.0324,0.013523,0.002678,0.000431,0.005524
59476000,0.0324,0.013523,0.002678,0.000431,0.005994
59477000,0.0324,0.013523,0.002678,0.000431,0.005406
59478000,0.0324,0.013523,0.002678,0.000431,0.005994
59479000,0.0324,0.013523,0.002678,0.000431,0.011400
59480000,0.0324,0.013523,0.002678,0.000431,0.003408
59481000,0.0324,0.013523,0.002678,0.000431,0.006582
59482000,0.0324,0.013523,0.002678,0.000431,0.002703
59483000,0.0324,0.013523,0.002678,0.000431,0.002351
59484000,0.0324,0.013523,0.002678,0.000431,0.002468
59485000,0.0324,0.013523,0.002678,0.000431,0.002821
59486000,0.0324,0.013523,0.002678,0.000431,0.002351
59487000,0.0324,0.013523,0.002678,0.000431,0.002703
59488000,0.0324,0.013523,0.002678,0.000431,0.002468
59489000,0.0324,0.013523,0.002678,0.000431,0.002586
59490000,0.0324,0.013523,0.002678,0.000431,0.003643
59491000,0.0324,0.013523,0.002678,0.000431,0.001410
59492000,0.0324,0.013523,0.002678,0.000431,0.001998
59493000,0.0324,0.013523,0.002678,0.000431,0.001528
59494000,0.0324,0.013523,0.002678,0.000431,0.001645
59495000,0.0324,0.013523,0.002678,0.000431,0.001880
59496000,0.0324,0.013523,0.002678,0.000431,0.001645
59497000,0.0324,0.013523,0.002678,0.000431,0.001528
59498000,0.0324,0.013523,0.002678,0.000431,0.002351
59499000,0.0324,0.013523,0.002678,0.000431,0.408175
59500000,0.0324,0.013523,0.002678,0.000431,0.815175
59501000,0.0324,0.013523,0.002678,0.000431,0.232588
59502000,0.0324,0.013523,0.002678,0.000431,0.137743
59503000,0.0324,0.013523,0.002678,0.000431,0.555791
59504000,0.0324,0.013523,0.002678,0.000431,0.247397
59505000,0.0324,0.013523,0.002678,0.000431,0.308159
59506000,0.0324,0.013523,0.002678,0.000431,0.197682
59507000,0.0324,0.013523,0.002678,0.000431,0.189103
59508000,0.0324,0.013523,0.002678,0.000431,0.092612
59509000,0.0324,0.013523,0.002678,0.000431,0.542158
59510000,0.0324,0.013523,0.002678,0.000431,0.239052
59511000,0.0324,0.013523,0.002678,0.000431,0.183932
59512000,0.0324,0.013523,0.002678,0.000431,0.166890
59513000,0.0324,0.013523,0.002678,0.000431,0.127283
59514000,0.0324,0.013523,0.002678,0.000431,0.105188
59515000,0.0324,0.013523,0.002678,0.000431,0.090144
59516000,0.0324,0.013523,0.002678,0.000431,0.069459
59517000,0.0324,0.013523,0.002678,0.000431,0.050185
59518000,0.0324,0.013523,0.002678,0.000431,0.038432
59519000,0.0324,0.013523,0.002678,0.000431,0.037374
59520000,0.0324,0.013523,0.002678,0.000431,0.024681
59521000,0.0324,0.013523,0.002678,0.000431,0.015514
59522000,0.0324,0.013523,0.002678,0.000431,0.020802
59523000,0.0324,0.013523,0.002678,0.000431,0.019627
59524000,0.0324,0.013523,0.002678,0.000431,0.012105
59525000,0.0324,0.013523,0.002678,0.000431,0.011518
59526000,0.0324,0.013523,0.002678,0.000431,0.007522
59527000,0.0324,0.013523,0.002678,0.000431,0.010107
59528000,0.0324,0.013523,0.002678,0.000431,0.010342
59529000,0.0324,0.013523,0.002678,0.000431,0.005289
59530000,0.0324,0.013523,0.002678,0.000431,0.003408
59531000,0.0324,0.013523,0.002678,0.000431,0.003643
59532000,0.0324,0.013523,0.002678,0.000431,0.007992
59533000,0.0324,0.013523,0.002678,0.000431,0.002351
59534000,0.0324,0.013523,0.002678,0.000431,0.003526
59535000,0.0324,0.013523,0.002678,0.000431,0.001645
59536000,0.0324,0.013523,0.002678,0.000431,0.001058
59537000,0.0324,0.013523,0.002678,0.000431,0.001293
59538000,0.0324,0.013523,0.002678,0.000431,0.001528
59539000,0.0324,0.013523,0.002678,0.000431,0.000940
59540000,0.0324,0.013523,0.002678,0.000431,0.001410
59541000,0.0324,0.013523,0.002678,0.000431,0.001175
59542000,0.0324,0.013523,0.002678,0.000431,0.001763
59543000,0.0324,0.013523,0.002678,0.000431,0.001058
59544000,0.0324,0.013523,0.002678,0.000431,0.001293
59545000,0.0324,0.013523,0.002678,0.000431,0.001293
59546000,0.0324,0.013523,0.002678,0.000431,0.001763
59547000,0.0324,0.013523,0.002678,0.000431,0.001175
59548000,0.0324,0.013523,0.002678,0.000431,0.001175
59549000,0.0324,0.013523,0.002678,0.000431,0.001528
59550000,0.0324,0.013523,0.002678,0.000431,0.000940
59551000,0.0324,0.013523,0.002678,0.000431,0.001763
59552000,0.0324,0.013523,0.002678,0.000431,0.000940
59553000,0.0324,0.013523,0.002678,0.000431,0.001410
59554000,0.0324,0.013523,0.002678,0.000431,0.001410
59555000,0.0324,0.013523,0.002678,0.000431,0.001058
59556000,0.0324,0.013523,0.002678,0.000431,0.001763
59557000,0.0324,0.013523,0.002678,0.000431,0.000823
59558000,0.0324,0.013523,0.002678,0.000431,0.000940
59559000,0.0324,0.013523,0.002678,0.000431,0.189338
59560000,0.0324,0.013523,0.002678,0.000431,0.740545
59561000,0.0324,0.013523,0.002678,0.000431,0.476929
59562000,0.0324,0.013523,0.002678,0.000431,0.137155
59563000,0.0324,0.013523,0.002678,0.000431,0.416167
59564000,0.0324,0.013523,0.002678,0.000431,0.332017
59565000,0.0324,0.013523,0.002678,0.000431,0.270080
59566000,0.0324,0.013523,0.002678,0.000431,0.255506
59567000,0.0324,0.013523,0.002678,0.000431,0.156783
59568000,0.0324,0.013523,0.002678,0.000431,0.106363
59569000,0.0324,0.013523,0.002678,0.000431,0.440378
59570000,0.0324,0.013523,0.002678,0.000431,0.309569
59571000,0.0324,0.013523,0.002678,0.000431,0.170651
59572000,0.0324,0.013523,0.002678,0.000431,0.125873
59573000,0.0324,0.013523,0.002678,0.000431,0.107656
59574000,0.0324,0.013523,0.002678,0.000431,0.092965
59575000,0.0324,0.013523,0.002678,0.000431,0.071692
59576000,0.0324,0.013523,0.002678,0.000431,0.060174
59577000,0.0324,0.013523,0.002678,0.000431,0.038902
59578000,0.0324,0.013523,0.002678,0.000431,0.032908
59579000,0.0324,0.013523,0.002678,0.000431,0.018805
59580000,0.0324,0.013523,0.002678,0.000431,0.017394
59581000,0.0324,0.013523,0.002678,0.000431,0.021625
59582000,0.0324,0.013523,0.002678,0.000431,0.010813
59583000,0.0324,0.013523,0.002678,0.000431,0.013986
59584000,0.0324,0.013523,0.002678,0.000431,0.012576
59585000,0.0324,0.013523,0.002678,0.000431,0.010460
59586000,0.0324,0.013523,0.002678,0.000431,0.011048
59587000,0.0324,0.013523,0.002678,0.000431,0.010225
59588000,0.0324,0.013523,0.002678,0.000431,0.006582
59589000,0.0324,0.013523,0.002678,0.000431,0.004819
59590000,0.0324,0.013523,0.002678,0.000431,0.008109
59591000,0.0324,0.013523,0.002678,0.000431,0.002351
59592000,0.0324,0.013523,0.002678,0.000431,0.002586
59593000,0.0324,0.013523,0.002678,0.000431,0.002116
59594000,0.0324,0.013523,0.002678,0.000431,0.000823
59595000,0.0324,0.013523,0.002678,0.000431,0.071810
59596000,0.0324,0.013523,0.002678,0.000431,0.729732
59597000,0.0324,0.013523,0.002678,0.000431,0.532403
59598000,0.0324,0.013523,0.002678,0.000431,0.136803
59599000,0.0324,0.013523,0.002678,0.000431,0.208613
59600000,0.0324,0.013523,0.002678,0.000431,0.480573
59601000,0.0324,0.013523,0.002678,0.000431,0.255859
59602000,0.0324,0.013523,0.002678,0.000431,0.294408
59603000,0.0324,0.013523,0.002678,0.000431,0.149261
59604000,0.0324,0.013523,0.002678,0.000431,0.160896
59605000,0.0324,0.013523,0.002678,0.000431,0.198975
59606000,0.0324,0.013523,0.002678,0.000431,0.522178
59607000,0.0324,0.013523,0.002678,0.000431,0.161601
59608000,0.0324,0.013523,0.002678,0.000431,0.132807
59609000,0.0324,0.013523,0.002678,0.000431,0.103777
59610000,0.0324,0.013523,0.002678,0.000431,0.083092
59611000,0.0324,0.013523,0.002678,0.000431,0.068166
59612000,0.0324,0.013523,0.002678,0.000431,0.048892
59613000,0.0324,0.013523,0.002678,0.000431,0.052183
59614000,0.0324,0.013523,0.002678,0.000431,0.035964
59615000,0.0324,0.013523,0.002678,0.000431,0.030910
59616000,0.0324,0.013523,0.002678,0.000431,0.020332
59617000,0.0324,0.013523,0.002678,0.000431,0.015279
59618000,0.0324,0.013523,0.002678,0.000431,0.010225
59619000,0.0324,0.013523,0.002678,0.000431,0.008227
59620000,0.0324,0.013523,0.002678,0.000431,0.010813
59621000,0.0324,0.013523,0.002678,0.000431,0.012693
59622000,0.0324,0.013523,0.002678,0.000431,0.006111
59623000,0.0324,0.013523,0.002678,0.000431,0.005994
59624000,0.0324,0.013523,0.002678,0.000431,0.005994
59625000,0.0324,0.013523,0.002678,0.000431,0.005876
59626000,0.0324,0.013523,0.002678,0.000431,0.006934
59627000,0.0324,0.013523,0.002678,0.000431,0.005876
59628000,0.0324,0.013523,0.002678,0.000431,0.005406
59629000,0.0324,0.013523,0.002678,0.000431,0.000823
59630000,0.0324,0.013523,0.002678,0.000431,0.000940
59631000,0.0324,0.013523,0.002678,0.000431,0.000823
59632000,0.0324,0.013523,0.002678,0.000431,0.000823
59633000,0.0324,0.013523,0.002678,0.000431,0.000940
59634000,0.0324,0.013523,0.002678,0.000431,0.000705
59635000,0.0324,0.013523,0.002678,0.000431,0.000940
59636000,0.0324,0.013523,0.002678,0.000431,0.000940
59637000,0.0324,0.013523,0.002678,0.000431,0.000940
59638000,0.0324,0.013523,0.002678,0.000431,0.000705
59639000,0.0324,0.013523,0.002678,0.000431,0.000940
59640000,0.0324,0.013523,0.002678,0.000431,0.000940
59641000,0.0324,0.013523,0.002678,0.000431,0.000823
59642000,0.0324,0.013523,0.002678,0.000431,0.000823
59643000,0.0324,0.013523,0.002678,0.000431,0.000940
59644000,0.0324,0.013523,0.002678,0.000431,0.000940
59645000,0.0324,0.013523,0.002678,0.000431,0.000823
59646000,0.0324,0.013523,0.002678,0.000431,0.000823
59647000,0.0324,0.013523,0.002678,0.000431,0.000940
59648000,0.0324,0.013523,0.002678,0.000431,0.000823
59649000,0.0324,0.013523,0.002678,0.000431,0.000940
59650000,0.0324,0.013523,0.002678,0.000431,0.000940
59651000,0.0324,0.013523,0.002678,0.000431,0.265496
59652000,0.0324,0.013523,0.002678,0.000431,0.744541
59653000,0.0324,0.013523,0.002678,0.000431,0.395600
59654000,0.0324,0.013523,0.002678,0.000431,0.136803
59655000,0.0324,0.013523,0.002678,0.000431,0.484099
59656000,0.0324,0.013523,0.002678,0.000431,0.265261
59657000,0.0324,0.013523,0.002678,0.000431,0.237642
59658000,0.0324,0.013523,0.002678,0.000431,0.230473
59659000,0.0324,0.013523,0.002678,0.000431,0.163129
59660000,0.0324,0.013523,0.002678,0.000431,0.127753
59661000,0.0324,0.013523,0.002678,0.000431,0.348001
59662000,0.0324,0.013523,0.002678,0.000431,0.399831
59663000,0.0324,0.013523,0.002678,0.000431,0.180758
59664000,0.0324,0.013523,0.002678,0.000431,0.161249
59665000,0.0324,0.013523,0.002678,0.000431,0.145265
59666000,0.0324,0.013523,0.002678,0.000431,0.116000
59667000,0.0324,0.013523,0.002678,0.000431,0.084855
59668000,0.0324,0.013523,0.002678,0.000431,0.074865
59669000,0.0324,0.013523,0.002678,0.000431,0.069342
59670000,0.0324,0.013523,0.002678,0.000431,0.056061
59671000,0.0324,0.013523,0.002678,0.000431,0.046424
59672000,0.0324,0.013523,0.002678,0.000431,0.032673
59673000,0.0324,0.013523,0.002678,0.000431,0.024798
59674000,0.0324,0.013523,0.002678,0.000431,0.022448
59675000,0.0324,0.013523,0.002678,0.000431,0.012223
59676000,0.0324,0.013523,0.002678,0.000431,0.016219
59677000,0.0324,0.013523,0.002678,0.000431,0.006111
59678000,0.0324,0.013523,0.002678,0.000431,0.007287
59679000,0.0324,0.013523,0.002678,0.000431,0.006699
59680000,0.0324,0.013523,0.002678,0.000431,0.005289
59681000,0.0324,0.013523,0.002678,0.000431,0.004584
59682000,0.0324,0.013523,0.002678,0.000431,0.006699
59683000,0.0324,0.013523,0.002678,0.000431,0.004701
59684000,0.0324,0.013523,0.002678,0.000431,0.004231
59685000,0.0324,0.013523,0.002678,0.000431,0.004819
59686000,0.0324,0.013523,0.002678,0.000431,0.003996
59687000,0.0324,0.013523,0.002678,0.000431,0.003643
59688000,0.0324,0.013523,0.002678,0.000431,0.005171
59689000,0.0324,0.013523,0.002678,0.000431,0.002351
59690000,0.0324,0.013523,0.002678,0.000431,0.002586
59691000,0.0324,0.013523,0.002678,0.000431,0.002233
59692000,0.0324,0.013523,0.002678,0.000431,0.002468
59693000,0.0324,0.013523,0.002678,0.000431,0.002233
59694000,0.0324,0.013523,0.002678,0.000431,0.002586
59695000,0.0324,0.013523,0.002678,0.000431,0.002586
59696000,0.0324,0.013523,0.002678,0.000431,0.002116
59697000,0.0324,0.013523,0.002678,0.000431,0.001998
59698000,0.0324,0.013523,0.002678,0.000431,0.002586
59699000,0.0324,0.013523,0.002678,0.000431,0.005054
59700000,0.0324,0.013523,0.002678,0.000431,0.001410
59701000,0.0324,0.013523,0.002678,0.000431,0.001645
59702000,0.0324,0.013523,0.002678,0.000431,0.001410
59703000,0.0324,0.013523,0.002678,0.000431,0.001410
59704000,0.0324,0.013523,0.002678,0.000431,0.001645
59705000,0.0324,0.013523,0.002678,0.000431,0.001058
59706000,0.0324,0.013523,0.002678,0.000431,0.001763
59707000,0.0324,0.013523,0.002678,0.000431,0.001645
59708000,0.0324,0.013523,0.002678,0.000431,0.001175
59709000,0.0324,0.013523,0.002678,0.000431,0.001880
59710000,0.0324,0.013523,0.002678,0.000431,0.001175
59711000,0.0324,0.013523,0.002678,0.000431,0.001880
59712000,0.0324,0.013523,0.002678,0.000431,0.001058
59713000,0.0324,0.013523,0.002678,0.000431,0.000940
59714000,0.0324,0.013523,0.002678,0.000431,0.017512
59715000,0.0324,0.013523,0.002678,0.000431,0.756294
59716000,0.0324,0.013523,0.002678,0.000431,0.570247
59717000,0.0324,0.013523,0.002678,0.000431,0.134922
59718000,0.0324,0.013523,0.002678,0.000431,0.135863
59719000,0.0324,0.013523,0.002678,0.000431,0.560374
59720000,0.0324,0.013523,0.002678,0.000431,0.292058
59721000,0.0324,0.013523,0.002678,0.000431,0.287827
59722000,0.0324,0.013523,0.002678,0.000431,0.162424
59723000,0.0324,0.013523,0.002678,0.000431,0.169476
59724000,0.0324,0.013523,0.002678,0.000431,0.106010
59725000,0.0324,0.013523,0.002678,0.000431,0.522765
59726000,0.0324,0.013523,0.002678,0.000431,0.261500
59727000,0.0324,0.013523,0.002678,0.000431,0.204382
59728000,0.0324,0.013523,0.002678,0.000431,0.168888
59729000,0.0324,0.013523,0.002678,0.000431,0.147263
59730000,0.0324,0.013523,0.002678,0.000431,0.111769
59731000,0.0324,0.013523,0.002678,0.000431,0.096608
59732000,0.0324,0.013523,0.002678,0.000431,0.071692
59733000,0.0324,0.013523,0.002678,0.000431,0.062172
59734000,0.0324,0.013523,0.002678,0.000431,0.055826
59735000,0.0324,0.013523,0.002678,0.000431,0.037139
59736000,0.0324,0.013523,0.002678,0.000431,0.036434
59737000,0.0324,0.013523,0.002678,0.000431,0.026444
59738000,0.0324,0.013523,0.002678,0.000431,0.031733
59739000,0.0324,0.013523,0.002678,0.000431,0.021038
59740000,0.0324,0.013523,0.002678,0.000431,0.011048
59741000,0.0324,0.013523,0.002678,0.000431,0.009167
59742000,0.0324,0.013523,0.002678,0.000431,0.004701
59743000,0.0324,0.013523,0.002678,0.000431,0.007052
59744000,0.0324,0.013523,0.002678,0.000431,0.003643
59745000,0.0324,0.013523,0.002678,0.000431,0.005641
59746000,0.0324,0.013523,0.002678,0.000431,0.004466
59747000,0.0324,0.013523,0.002678,0.000431,0.002351
59748000,0.0324,0.013523,0.002678,0.000431,0.002233
59749000,0.0324,0.013523,0.002678,0.000431,0.001763
59750000,0.0324,0.013523,0.002678,0.000431,0.002233
59751000,0.0324,0.013523,0.002678,0.000431,0.005054
59752000,0.0324,0.013523,0.002678,0.000431,0.000705
59753000,0.0324,0.013523,0.002678,0.000431,0.000940
59754000,0.0324,0.013523,0.002678,0.000431,0.000705
59755000,0.0324,0.013523,0.002678,0.000431,0.000940
59756000,0.0324,0.013523,0.002678,0.000431,0.000823
59757000,0.0324,0.013523,0.002678,0.000431,0.000823
59758000,0.0324,0.013523,0.002678,0.000431,0.000940
59759000,0.0324,0.013523,0.002678,0.000431,0.000705
59760000,0.0324,0.013523,0.002678,0.000431,0.070164
59761000,0.0324,0.013523,0.002678,0.000431,0.743953
59762000,0.0324,0.013523,0.002678,0.000431,0.561667
59763000,0.0324,0.013523,0.002678,0.000431,0.138801
59764000,0.0324,0.013523,0.002678,0.000431,0.186282
59765000,0.0324,0.013523,0.002678,0.000431,0.579296
59766000,0.0324,0.013523,0.002678,0.000431,0.253743
59767000,0.0324,0.013523,0.002678,0.000431,0.324965
59768000,0.0324,0.013523,0.002678,0.000431,0.152317
59769000,0.0324,0.013523,0.002678,0.000431,0.126695
59770000,0.0324,0.013523,0.002678,0.000431,0.333663
59771000,0.0324,0.013523,0.002678,0.000431,0.434737
59772000,0.0324,0.013523,0.002678,0.000431,0.186165
59773000,0.0324,0.013523,0.002678,0.000431,0.161131
59774000,0.0324,0.013523,0.002678,0.000431,0.141974
59775000,0.0324,0.013523,0.002678,0.000431,0.114825
59776000,0.0324,0.013523,0.002678,0.000431,0.101309
59777000,0.0324,0.013523,0.002678,0.000431,0.085678
59778000,0.0324,0.013523,0.002678,0.000431,0.072985
59779000,0.0324,0.013523,0.002678,0.000431,0.058882
59780000,0.0324,0.013523,0.002678,0.000431,0.058882
59781000,0.0324,0.013523,0.002678,0.000431,0.033848
59782000,0.0324,0.013523,0.002678,0.000431,0.029970
59783000,0.0324,0.013523,0.002678,0.000431,0.030322
59784000,0.0324,0.013523,0.002678,0.000431,0.033260
59785000,0.0324,0.013523,0.002678,0.000431,0.030322
59786000,0.0324,0.013523,0.002678,0.000431,0.016807
59787000,0.0324,0.013523,0.002678,0.000431,0.016219
59788000,0.0324,0.013523,0.002678,0.000431,0.014221
59789000,0.0324,0.013523,0.002678,0.000431,0.014103
59790000,0.0324,0.013523,0.002678,0.000431,0.010578
59791000,0.0324,0.013523,0.002678,0.000431,0.013281
59792000,0.0324,0.013523,0.002678,0.000431,0.011165
59793000,0.0324,0.013523,0.002678,0.000431,0.002821
59794000,0.0324,0.013523,0.002678,0.000431,0.004819
59795000,0.0324,0.013523,0.002678,0.000431,0.001763
59796000,0.0324,0.013523,0.002678,0.000431,0.003761
59797000,0.0324,0.013523,0.002678,0.000431,0.000823
59798000,0.0324,0.013523,0.002678,0.000431,0.000940
59799000,0.0324,0.013523,0.002678,0.000431,0.000705
59800000,0.0324,0.013523,0.002678,0.000431,0.000823
59801000,0.0324,0.013523,0.002678,0.000431,0.000823
59802000,0.0324,0.013523,0.002678,0.000431,0.000940
59803000,0.0324,0.013523,0.002678,0.000431,0.000823
59804000,0.0324,0.013523,0.002678,0.000431,0.000823
59805000,0.0324,0.013523,0.002678,0.000431,0.000705
59806000,0.0324,0.013523,0.002678,0.000431,0.000940
59807000,0.0324,0.013523,0.002678,0.000431,0.000940
59808000,0.0324,0.013523,0.002678,0.000431,0.158428
59809000,0.0324,0.013523,0.002678,0.000431,0.746657
59810000,0.0324,0.013523,0.002678,0.000431,0.496557
59811000,0.0324,0.013523,0.002678,0.000431,0.138448
59812000,0.0324,0.013523,0.002678,0.000431,0.319089
59813000,0.0324,0.013523,0.002678,0.000431,0.485979
59814000,0.0324,0.013523,0.002678,0.000431,0.254684
59815000,0.0324,0.013523,0.002678,0.000431,0.272783
59816000,0.0324,0.013523,0.002678,0.000431,0.150083
59817000,0.0324,0.013523,0.002678,0.000431,0.128458
59818000,0.0324,0.013523,0.002678,0.000431,0.342830
59819000,0.0324,0.013523,0.002678,0.000431,0.428860
59820000,0.0324,0.013523,0.002678,0.000431,0.174412
59821000,0.0324,0.013523,0.002678,0.000431,0.145617
59822000,0.0324,0.013523,0.002678,0.000431,0.113767
59823000,0.0324,0.013523,0.002678,0.000431,0.104953
59824000,0.0324,0.013523,0.002678,0.000431,0.092847
59825000,0.0324,0.013523,0.002678,0.000431,0.073103
59826000,0.0324,0.013523,0.002678,0.000431,0.064288
59827000,0.0324,0.013523,0.002678,0.000431,0.054533
59828000,0.0324,0.013523,0.002678,0.000431,0.038432
59829000,0.0324,0.013523,0.002678,0.000431,0.035376
59830000,0.0324,0.013523,0.002678,0.000431,0.024093
59831000,0.0324,0.013523,0.002678,0.000431,0.019510
59832000,0.0324,0.013523,0.002678,0.000431,0.010813
59833000,0.0324,0.013523,0.002678,0.000431,0.013516
59834000,0.0324,0.013523,0.002678,0.000431,0.010578
59835000,0.0324,0.013523,0.002678,0.000431,0.006229
59836000,0.0324,0.013523,0.002678,0.000431,0.005406
59837000,0.0324,0.013523,0.002678,0.000431,0.004231
59838000,0.0324,0.013523,0.002678,0.000431,0.008345
59839000,0.0324,0.013523,0.002678,0.000431,0.003878
59840000,0.0324,0.013523,0.002678,0.000431,0.002586
59841000,0.0324,0.013523,0.002678,0.000431,0.003878
59842000,0.0324,0.013523,0.002678,0.000431,0.001763
59843000,0.0324,0.013523,0.002678,0.000431,0.001763
59844000,0.0324,0.013523,0.002678,0.000431,0.001645
59845000,0.0324,0.013523,0.002678,0.000431,0.003643
59846000,0.0324,0.013523,0.002678,0.000431,0.000705
59847000,0.0324,0.013523,0.002678,0.000431,0.263146
59848000,0.0324,0.013523,0.002678,0.000431,0.765814
59849000,0.0324,0.013523,0.002678,0.000431,0.389253
59850000,0.0324,0.013523,0.002678,0.000431,0.136803
59851000,0.0324,0.013523,0.002678,0.000431,0.531345
59852000,0.0324,0.013523,0.002678,0.000431,0.259267
59853000,0.0324,0.013523,0.002678,0.000431,0.300990
59854000,0.0324,0.013523,0.002678,0.000431,0.218955
59855000,0.0324,0.013523,0.002678,0.000431,0.175822
59856000,0.0324,0.013523,0.002678,0.000431,0.100957
59857000,0.0324,0.013523,0.002678,0.000431,0.552382
59858000,0.0324,0.013523,0.002678,0.000431,0.243518
59859000,0.0324,0.013523,0.002678,0.000431,0.189220
59860000,0.0324,0.013523,0.002678,0.000431,0.158310
59861000,0.0324,0.013523,0.002678,0.000431,0.122347
59862000,0.0324,0.013523,0.002678,0.000431,0.103072
59863000,0.0324,0.013523,0.002678,0.000431,0.082505
59864000,0.0324,0.013523,0.002678,0.000431,0.081447
59865000,0.0324,0.013523,0.002678,0.000431,0.066403
59866000,0.0324,0.013523,0.002678,0.000431,0.058412
59867000,0.0324,0.013523,0.002678,0.000431,0.057119
59868000,0.0324,0.013523,0.002678,0.000431,0.031968
59869000,0.0324,0.013523,0.002678,0.000431,0.037021
59870000,0.0324,0.013523,0.002678,0.000431,0.029617
59871000,0.0324,0.013523,0.002678,0.000431,0.021743
59872000,0.0324,0.013523,0.002678,0.000431,0.017864
59873000,0.0324,0.013523,0.002678,0.000431,0.010578
59874000,0.0324,0.013523,0.002678,0.000431,0.011518
59875000,0.0324,0.013523,0.002678,0.000431,0.009167
59876000,0.0324,0.013523,0.002678,0.000431,0.003408
59877000,0.0324,0.013523,0.002678,0.000431,0.003408
59878000,0.0324,0.013523,0.002678,0.000431,0.003291
59879000,0.0324,0.013523,0.002678,0.000431,0.003056
59880000,0.0324,0.013523,0.002678,0.000431,0.003643
59881000,0.0324,0.013523,0.002678,0.000431,0.005641
59882000,0.0324,0.013523,0.002678,0.000431,0.002351
59883000,0.0324,0.013523,0.002678,0.000431,0.002233
59884000,0.0324,0.013523,0.002678,0.000431,0.001880
59885000,0.0324,0.013523,0.002678,0.000431,0.004466
59886000,0.0324,0.013523,0.002678,0.000431,0.302400
59887000,0.0324,0.013523,0.002678,0.000431,0.799779
59888000,0.0324,0.013523,0.002678,0.000431,0.337423
59889000,0.0324,0.013523,0.002678,0.000431,0.135392
59890000,0.0324,0.013523,0.002678,0.000431,0.504313
59891000,0.0324,0.013523,0.002678,0.000431,0.271020
59892000,0.0324,0.013523,0.002678,0.000431,0.236937
59893000,0.0324,0.013523,0.002678,0.000431,0.215429
59894000,0.0324,0.013523,0.002678,0.000431,0.158193
59895000,0.0324,0.013523,0.002678,0.000431,0.137155
59896000,0.0324,0.013523,0.002678,0.000431,0.294643
59897000,0.0324,0.013523,0.002678,0.000431,0.470113
59898000,0.0324,0.013523,0.002678,0.000431,0.182169
59899000,0.0324,0.013523,0.002678,0.000431,0.161366
59900000,0.0324,0.013523,0.002678,0.000431,0.132454
59901000,0.0324,0.013523,0.002678,0.000431,0.099429
59902000,0.0324,0.013523,0.002678,0.000431,0.083445
59903000,0.0324,0.013523,0.002678,0.000431,0.057589
59904000,0.0324,0.013523,0.002678,0.000431,0.049009
59905000,0.0324,0.013523,0.002678,0.000431,0.042193
59906000,0.0324,0.013523,0.002678,0.000431,0.037139
59907000,0.0324,0.013523,0.002678,0.000431,0.029852
59908000,0.0324,0.013523,0.002678,0.000431,0.016571
59909000,0.0324,0.013523,0.002678,0.000431,0.018452
59910000,0.0324,0.013523,0.002678,0.000431,0.019862
59911000,0.0324,0.013523,0.002678,0.000431,0.015161
59912000,0.0324,0.013523,0.002678,0.000431,0.011518
59913000,0.0324,0.013523,0.002678,0.000431,0.011635
59914000,0.0324,0.013523,0.002678,0.000431,0.014926
59915000,0.0324,0.013523,0.002678,0.000431,0.013163
59916000,0.0324,0.013523,0.002678,0.000431,0.009637
59917000,0.0324,0.013523,0.002678,0.000431,0.014809
59918000,0.0324,0.013523,0.002678,0.000431,0.004584
59919000,0.0324,0.013523,0.002678,0.000431,0.004466
59920000,0.0324,0.013523,0.002678,0.000431,0.003761
59921000,0.0324,0.013523,0.002678,0.000431,0.008580
59922000,0.0324,0.013523,0.002678,0.000431,0.002703
59923000,0.0324,0.013523,0.002678,0.000431,0.002468
59924000,0.0324,0.013523,0.002678,0.000431,0.004231
59925000,0.0324,0.013523,0.002678,0.000431,0.001528
59926000,0.0324,0.013523,0.002678,0.000431,0.001645
59927000,0.0324,0.013523,0.002678,0.000431,0.001763
59928000,0.0324,0.013523,0.002678,0.000431,0.001763
59929000,0.0324,0.013523,0.002678,0.000431,0.001645
59930000,0.0324,0.013523,0.002678,0.000431,0.001645
59931000,0.0324,0.013523,0.002678,0.000431,0.001645
59932000,0.0324,0.013523,0.002678,0.000431,0.001763
59933000,0.0324,0.013523,0.002678,0.000431,0.001763
59934000,0.0324,0.013523,0.002678,0.000431,0.001528
59935000,0.0324,0.013523,0.002678,0.000431,0.001763
59936000,0.0324,0.013523,0.002678,0.000431,0.001528
59937000,0.0324,0.013523,0.002678,0.000431,0.001763
59938000,0.0324,0.013523,0.002678,0.000431,0.001763
59939000,0.0324,0.013523,0.002678,0.000431,0.001528
59940000,0.0324,0.013523,0.002678,0.000431,0.003996
59941000,0.0324,0.013523,0.002678,0.000431,0.000823
59942000,0.0324,0.013523,0.002678,0.000431,0.000940
59943000,0.0324,0.013523,0.002678,0.000431,0.000705
59944000,0.0324,0.013523,0.002678,0.000431,0.000940
59945000,0.0324,0.013523,0.002678,0.000431,0.000823
59946000,0.0324,0.013523,0.002678,0.000431,0.000823
59947000,0.0324,0.013523,0.002678,0.000431,0.000823
59948000,0.0324,0.013523,0.002678,0.000431,0.000823
59949000,0.0324,0.013523,0.002678,0.000431,0.000823
59950000,0.0324,0.013523,0.002678,0.000431,0.000823
59951000,0.0324,0.013523,0.002678,0.000431,0.000940
59952000,0.0324,0.013523,0.002678,0.000431,0.000705
59953000,0.0324,0.013523,0.002678,0.000431,0.000940
59954000,0.0324,0.013523,0.002678,0.000431,0.000705
59955000,0.0324,0.013523,0.002678,0.000431,0.000940
59956000,0.0324,0.013523,0.002678,0.000431,0.000940
59957000,0.0324,0.013523,0.002678,0.000431,0.000940
59958000,0.0324,0.013523,0.002678,0.000431,0.000823
59959000,0.0324,0.013523,0.002678,0.000431,0.000823
59960000,0.0324,0.013523,0.002678,0.000431,0.000940
59961000,0.0324,0.013523,0.002678,0.000431,0.000940
59962000,0.0324,0.013523,0.002678,0.000431,0.000823
59963000,0.0324,0.013523,0.002678,0.000431,0.000823
59964000,0.0324,0.013523,0.002678,0.000431,0.000940
59965000,0.0324,0.013523,0.002678,0.000431,0.000823
59966000,0.0324,0.013523,0.002678,0.000431,0.000823
59967000,0.0324,0.013523,0.002678,0.000431,0.015866
59968000,0.0324,0.013523,0.002678,0.000431,0.764286
59969000,0.0324,0.013523,0.002678,0.000431,0.566016
59970000,0.0324,0.013523,0.002678,0.000431,0.134687
59971000,0.0324,0.013523,0.002678,0.000431,0.136803
59972000,0.0324,0.013523,0.002678,0.000431,0.553558
59973000,0.0324,0.013523,0.002678,0.000431,0.262323
59974000,0.0324,0.013523,0.002678,0.000431,0.308511
59975000,0.0324,0.013523,0.002678,0.000431,0.172179
59976000,0.0324,0.013523,0.002678,0.000431,0.176880
59977000,0.0324,0.013523,0.002678,0.000431,0.102250
59978000,0.0324,0.013523,0.002678,0.000431,0.531933
59979000,0.0324,0.013523,0.002678,0.000431,0.217897
59980000,0.0324,0.013523,0.002678,0.000431,0.162777
59981000,0.0324,0.013523,0.002678,0.000431,0.134922
59982000,0.0324,0.013523,0.002678,0.000431,0.107891
59983000,0.0324,0.013523,0.002678,0.000431,0.081212
59984000,0.0324,0.013523,0.002678,0.000431,0.066991
59985000,0.0324,0.013523,0.002678,0.000431,0.051360
59986000,0.0324,0.013523,0.002678,0.000431,0.042898
59987000,0.0324,0.013523,0.002678,0.000431,0.028559
59988000,0.0324,0.013523,0.002678,0.000431,0.023623
59989000,0.0324,0.013523,0.002678,0.000431,0.017394
59990000,0.0324,0.013523,0.002678,0.000431,0.007992
59991000,0.0324,0.013523,0.002678,0.000431,0.006229
59992000,0.0324,0.013523,0.002678,0.000431,0.009637
59993000,0.0324,0.013523,0.002678,0.000431,0.008462
59994000,0.0324,0.013523,0.002678,0.000431,0.003408
59995000,0.0324,0.013523,0.002678,0.000431,0.007287
59996000,0.0324,0.013523,0.002678,0.000431,0.005289
59997000,0.0324,0.013523,0.002678,0.000431,0.000940
59998000,0.0324,0.013523,0.002678,0.000431,0.000705
59999000,0.0324,0.013523,0.002678,0.000431,0.000940
