Cycle,Area(mm^2),PeakDynamic(W),SubthresholdLeakage(W),GateLeakage(W),RunTimeDynamic(W)
47000000,0.0324,0.013523,0.002678,0.000431,0.010578
47001000,0.0324,0.013523,0.002678,0.000431,0.005759
47002000,0.0324,0.013523,0.002678,0.000431,0.006817
47003000,0.0324,0.013523,0.002678,0.000431,0.004584
47004000,0.0324,0.013523,0.002678,0.000431,0.005524
47005000,0.0324,0.013523,0.002678,0.000431,0.005406
47006000,0.0324,0.013523,0.002678,0.000431,0.007639
47007000,0.0324,0.013523,0.002678,0.000431,0.002468
47008000,0.0324,0.013523,0.002678,0.000431,0.005994
47009000,0.0324,0.013523,0.002678,0.000431,0.002233
47010000,0.0324,0.013523,0.002678,0.000431,0.000940
47011000,0.0324,0.013523,0.002678,0.000431,0.011283
47012000,0.0324,0.013523,0.002678,0.000431,0.667325
47013000,0.0324,0.013523,0.002678,0.000431,0.604212
47014000,0.0324,0.013523,0.002678,0.000431,0.139036
47015000,0.0324,0.013523,0.002678,0.000431,0.137273
47016000,0.0324,0.013523,0.002678,0.000431,0.523000
47017000,0.0324,0.013523,0.002678,0.000431,0.237172
47018000,0.0324,0.013523,0.002678,0.000431,0.378558
47019000,0.0324,0.013523,0.002678,0.000431,0.151494
47020000,0.0324,0.013523,0.002678,0.000431,0.157253
47021000,0.0324,0.013523,0.002678,0.000431,0.184402
47022000,0.0324,0.013523,0.002678,0.000431,0.552500
47023000,0.0324,0.013523,0.002678,0.000431,0.200503
47024000,0.0324,0.013523,0.002678,0.000431,0.172766
47025000,0.0324,0.013523,0.002678,0.000431,0.135628
47026000,0.0324,0.013523,0.002678,0.000431,0.116118
47027000,0.0324,0.013523,0.002678,0.000431,0.095785
47028000,0.0324,0.013523,0.002678,0.000431,0.069107
47029000,0.0324,0.013523,0.002678,0.000431,0.059704
47030000,0.0324,0.013523,0.002678,0.000431,0.049009
47031000,0.0324,0.013523,0.002678,0.000431,0.039137
47032000,0.0324,0.013523,0.002678,0.000431,0.036081
47033000,0.0324,0.013523,0.002678,0.000431,0.028794
47034000,0.0324,0.013523,0.002678,0.000431,0.023388
47035000,0.0324,0.013523,0.002678,0.000431,0.019040
47036000,0.0324,0.013523,0.002678,0.000431,0.009637
47037000,0.0324,0.013523,0.002678,0.000431,0.011400
47038000,0.0324,0.013523,0.002678,0.000431,0.009520
47039000,0.0324,0.013523,0.002678,0.000431,0.006699
47040000,0.0324,0.013523,0.002678,0.000431,0.007639
47041000,0.0324,0.013523,0.002678,0.000431,0.004231
47042000,0.0324,0.013523,0.002678,0.000431,0.007522
47043000,0.0324,0.013523,0.002678,0.000431,0.002821
47044000,0.0324,0.013523,0.002678,0.000431,0.004113
47045000,0.0324,0.013523,0.002678,0.000431,0.005524
47046000,0.0324,0.013523,0.002678,0.000431,0.586583
47047000,0.0324,0.013523,0.002678,0.000431,0.744541
47048000,0.0324,0.013523,0.002678,0.000431,0.147145
47049000,0.0324,0.013523,0.002678,0.000431,0.136333
47050000,0.0324,0.013523,0.002678,0.000431,0.606210
47051000,0.0324,0.013523,0.002678,0.000431,0.253978
47052000,0.0324,0.013523,0.002678,0.000431,0.310039
47053000,0.0324,0.013523,0.002678,0.000431,0.150671
47054000,0.0324,0.013523,0.002678,0.000431,0.184989
47055000,0.0324,0.013523,0.002678,0.000431,0.094493
47056000,0.0324,0.013523,0.002678,0.000431,0.534518
47057000,0.0324,0.013523,0.002678,0.000431,0.163482
47058000,0.0324,0.013523,0.002678,0.000431,0.136803
47059000,0.0324,0.013523,0.002678,0.000431,0.124462
47060000,0.0324,0.013523,0.002678,0.000431,0.094140
47061000,0.0324,0.013523,0.002678,0.000431,0.080624
47062000,0.0324,0.013523,0.002678,0.000431,0.070634
47063000,0.0324,0.013523,0.002678,0.000431,0.064170
47064000,0.0324,0.013523,0.002678,0.000431,0.041017
47065000,0.0324,0.013523,0.002678,0.000431,0.040900
47066000,0.0324,0.013523,0.002678,0.000431,0.035611
47067000,0.0324,0.013523,0.002678,0.000431,0.028794
47068000,0.0324,0.013523,0.002678,0.000431,0.015866
47069000,0.0324,0.013523,0.002678,0.000431,0.015866
47070000,0.0324,0.013523,0.002678,0.000431,0.012340
47071000,0.0324,0.013523,0.002678,0.000431,0.011283
47072000,0.0324,0.013523,0.002678,0.000431,0.011870
47073000,0.0324,0.013523,0.002678,0.000431,0.008932
47074000,0.0324,0.013523,0.002678,0.000431,0.006934
47075000,0.0324,0.013523,0.002678,0.000431,0.004349
47076000,0.0324,0.013523,0.002678,0.000431,0.003761
47077000,0.0324,0.013523,0.002678,0.000431,0.004231
47078000,0.0324,0.013523,0.002678,0.000431,0.004113
47079000,0.0324,0.013523,0.002678,0.000431,0.003878
47080000,0.0324,0.013523,0.002678,0.000431,0.006817
47081000,0.0324,0.013523,0.002678,0.000431,0.002586
47082000,0.0324,0.013523,0.002678,0.000431,0.004936
47083000,0.0324,0.013523,0.002678,0.000431,0.000940
47084000,0.0324,0.013523,0.002678,0.000431,0.001763
47085000,0.0324,0.013523,0.002678,0.000431,0.497027
47086000,0.0324,0.013523,0.002678,0.000431,0.713631
47087000,0.0324,0.013523,0.002678,0.000431,0.141386
47088000,0.0324,0.013523,0.002678,0.000431,0.135863
47089000,0.0324,0.013523,0.002678,0.000431,0.524881
47090000,0.0324,0.013523,0.002678,0.000431,0.274428
47091000,0.0324,0.013523,0.002678,0.000431,0.299579
47092000,0.0324,0.013523,0.002678,0.000431,0.240228
47093000,0.0324,0.013523,0.002678,0.000431,0.154902
47094000,0.0324,0.013523,0.002678,0.000431,0.111182
47095000,0.0324,0.013523,0.002678,0.000431,0.486449
47096000,0.0324,0.013523,0.002678,0.000431,0.270667
47097000,0.0324,0.013523,0.002678,0.000431,0.160661
47098000,0.0324,0.013523,0.002678,0.000431,0.149261
47099000,0.0324,0.013523,0.002678,0.000431,0.117528
47100000,0.0324,0.013523,0.002678,0.000431,0.100134
47101000,0.0324,0.013523,0.002678,0.000431,0.078039
47102000,0.0324,0.013523,0.002678,0.000431,0.064641
47103000,0.0324,0.013523,0.002678,0.000431,0.052065
47104000,0.0324,0.013523,0.002678,0.000431,0.030675
47105000,0.0324,0.013523,0.002678,0.000431,0.027267
47106000,0.0324,0.013523,0.002678,0.000431,0.023741
47107000,0.0324,0.013523,0.002678,0.000431,0.021390
47108000,0.0324,0.013523,0.002678,0.000431,0.017982
47109000,0.0324,0.013523,0.002678,0.000431,0.015749
47110000,0.0324,0.013523,0.002678,0.000431,0.009520
47111000,0.0324,0.013523,0.002678,0.000431,0.010695
47112000,0.0324,0.013523,0.002678,0.000431,0.009520
47113000,0.0324,0.013523,0.002678,0.000431,0.008932
47114000,0.0324,0.013523,0.002678,0.000431,0.005171
47115000,0.0324,0.013523,0.002678,0.000431,0.004466
47116000,0.0324,0.013523,0.002678,0.000431,0.007052
47117000,0.0324,0.013523,0.002678,0.000431,0.004113
47118000,0.0324,0.013523,0.002678,0.000431,0.004936
47119000,0.0324,0.013523,0.002678,0.000431,0.005406
47120000,0.0324,0.013523,0.002678,0.000431,0.003173
47121000,0.0324,0.013523,0.002678,0.000431,0.002586
47122000,0.0324,0.013523,0.002678,0.000431,0.004466
47123000,0.0324,0.013523,0.002678,0.000431,0.001763
47124000,0.0324,0.013523,0.002678,0.000431,0.071927
47125000,0.0324,0.013523,0.002678,0.000431,0.731495
47126000,0.0324,0.013523,0.002678,0.000431,0.537691
47127000,0.0324,0.013523,0.002678,0.000431,0.135392
47128000,0.0324,0.013523,0.002678,0.000431,0.228945
47129000,0.0324,0.013523,0.002678,0.000431,0.567661
47130000,0.0324,0.013523,0.002678,0.000431,0.240815
47131000,0.0324,0.013523,0.002678,0.000431,0.289942
47132000,0.0324,0.013523,0.002678,0.000431,0.150436
47133000,0.0324,0.013523,0.002678,0.000431,0.109419
47134000,0.0324,0.013523,0.002678,0.000431,0.397363
47135000,0.0324,0.013523,0.002678,0.000431,0.360929
47136000,0.0324,0.013523,0.002678,0.000431,0.171004
47137000,0.0324,0.013523,0.002678,0.000431,0.158781
47138000,0.0324,0.013523,0.002678,0.000431,0.135745
47139000,0.0324,0.013523,0.002678,0.000431,0.121172
47140000,0.0324,0.013523,0.002678,0.000431,0.095668
47141000,0.0324,0.013523,0.002678,0.000431,0.062525
47142000,0.0324,0.013523,0.002678,0.000431,0.059469
47143000,0.0324,0.013523,0.002678,0.000431,0.046189
47144000,0.0324,0.013523,0.002678,0.000431,0.040665
47145000,0.0324,0.013523,0.002678,0.000431,0.029029
47146000,0.0324,0.013523,0.002678,0.000431,0.017864
47147000,0.0324,0.013523,0.002678,0.000431,0.018569
47148000,0.0324,0.013523,0.002678,0.000431,0.014573
47149000,0.0324,0.013523,0.002678,0.000431,0.007874
47150000,0.0324,0.013523,0.002678,0.000431,0.005054
47151000,0.0324,0.013523,0.002678,0.000431,0.001998
47152000,0.0324,0.013523,0.002678,0.000431,0.003056
47153000,0.0324,0.013523,0.002678,0.000431,0.000940
47154000,0.0324,0.013523,0.002678,0.000431,0.002233
47155000,0.0324,0.013523,0.002678,0.000431,0.433797
47156000,0.0324,0.013523,0.002678,0.000431,0.775451
47157000,0.0324,0.013523,0.002678,0.000431,0.191101
47158000,0.0324,0.013523,0.002678,0.000431,0.135863
47159000,0.0324,0.013523,0.002678,0.000431,0.502551
47160000,0.0324,0.013523,0.002678,0.000431,0.250923
47161000,0.0324,0.013523,0.002678,0.000431,0.292763
47162000,0.0324,0.013523,0.002678,0.000431,0.216252
47163000,0.0324,0.013523,0.002678,0.000431,0.164892
47164000,0.0324,0.013523,0.002678,0.000431,0.116941
47165000,0.0324,0.013523,0.002678,0.000431,0.474109
47166000,0.0324,0.013523,0.002678,0.000431,0.314740
47167000,0.0324,0.013523,0.002678,0.000431,0.191688
47168000,0.0324,0.013523,0.002678,0.000431,0.179583
47169000,0.0324,0.013523,0.002678,0.000431,0.159721
47170000,0.0324,0.013523,0.002678,0.000431,0.124227
47171000,0.0324,0.013523,0.002678,0.000431,0.109419
47172000,0.0324,0.013523,0.002678,0.000431,0.086618
47173000,0.0324,0.013523,0.002678,0.000431,0.074983
47174000,0.0324,0.013523,0.002678,0.000431,0.060174
47175000,0.0324,0.013523,0.002678,0.000431,0.055238
47176000,0.0324,0.013523,0.002678,0.000431,0.046776
47177000,0.0324,0.013523,0.002678,0.000431,0.030910
47178000,0.0324,0.013523,0.002678,0.000431,0.029735
47179000,0.0324,0.013523,0.002678,0.000431,0.033378
47180000,0.0324,0.013523,0.002678,0.000431,0.025151
47181000,0.0324,0.013523,0.002678,0.000431,0.017159
47182000,0.0324,0.013523,0.002678,0.000431,0.013046
47183000,0.0324,0.013523,0.002678,0.000431,0.018569
47184000,0.0324,0.013523,0.002678,0.000431,0.005876
47185000,0.0324,0.013523,0.002678,0.000431,0.008580
47186000,0.0324,0.013523,0.002678,0.000431,0.001763
47187000,0.0324,0.013523,0.002678,0.000431,0.000823
47188000,0.0324,0.013523,0.002678,0.000431,0.000823
47189000,0.0324,0.013523,0.002678,0.000431,0.267259
47190000,0.0324,0.013523,0.002678,0.000431,0.761935
47191000,0.0324,0.013523,0.002678,0.000431,0.390429
47192000,0.0324,0.013523,0.002678,0.000431,0.137273
47193000,0.0324,0.013523,0.002678,0.000431,0.561902
47194000,0.0324,0.013523,0.002678,0.000431,0.289589
47195000,0.0324,0.013523,0.002678,0.000431,0.273488
47196000,0.0324,0.013523,0.002678,0.000431,0.181699
47197000,0.0324,0.013523,0.002678,0.000431,0.198388
47198000,0.0324,0.013523,0.002678,0.000431,0.083680
47199000,0.0324,0.013523,0.002678,0.000431,0.556026
47200000,0.0324,0.013523,0.002678,0.000431,0.227535
47201000,0.0324,0.013523,0.002678,0.000431,0.171356
47202000,0.0324,0.013523,0.002678,0.000431,0.164775
47203000,0.0324,0.013523,0.002678,0.000431,0.137743
47204000,0.0324,0.013523,0.002678,0.000431,0.101309
47205000,0.0324,0.013523,0.002678,0.000431,0.086971
47206000,0.0324,0.013523,0.002678,0.000431,0.070282
47207000,0.0324,0.013523,0.002678,0.000431,0.048422
47208000,0.0324,0.013523,0.002678,0.000431,0.046541
47209000,0.0324,0.013523,0.002678,0.000431,0.027737
47210000,0.0324,0.013523,0.002678,0.000431,0.028559
47211000,0.0324,0.013523,0.002678,0.000431,0.018569
47212000,0.0324,0.013523,0.002678,0.000431,0.013281
47213000,0.0324,0.013523,0.002678,0.000431,0.005406
47214000,0.0324,0.013523,0.002678,0.000431,0.007639
47215000,0.0324,0.013523,0.002678,0.000431,0.007757
47216000,0.0324,0.013523,0.002678,0.000431,0.003643
47217000,0.0324,0.013523,0.002678,0.000431,0.001763
47218000,0.0324,0.013523,0.002678,0.000431,0.003996
47219000,0.0324,0.013523,0.002678,0.000431,0.000823
47220000,0.0324,0.013523,0.002678,0.000431,0.000940
47221000,0.0324,0.013523,0.002678,0.000431,0.009402
47222000,0.0324,0.013523,0.002678,0.000431,0.659921
47223000,0.0324,0.013523,0.002678,0.000431,0.636768
47224000,0.0324,0.013523,0.002678,0.000431,0.135863
47225000,0.0324,0.013523,0.002678,0.000431,0.136333
47226000,0.0324,0.013523,0.002678,0.000431,0.514421
47227000,0.0324,0.013523,0.002678,0.000431,0.272313
47228000,0.0324,0.013523,0.002678,0.000431,0.277719
47229000,0.0324,0.013523,0.002678,0.000431,0.187928
47230000,0.0324,0.013523,0.002678,0.000431,0.160426
47231000,0.0324,0.013523,0.002678,0.000431,0.113885
47232000,0.0324,0.013523,0.002678,0.000431,0.473639
47233000,0.0324,0.013523,0.002678,0.000431,0.296406
47234000,0.0324,0.013523,0.002678,0.000431,0.191688
47235000,0.0324,0.013523,0.002678,0.000431,0.176527
47236000,0.0324,0.013523,0.002678,0.000431,0.141504
47237000,0.0324,0.013523,0.002678,0.000431,0.115295
47238000,0.0324,0.013523,0.002678,0.000431,0.104718
47239000,0.0324,0.013523,0.002678,0.000431,0.083210
47240000,0.0324,0.013523,0.002678,0.000431,0.055826
47241000,0.0324,0.013523,0.002678,0.000431,0.052183
47242000,0.0324,0.013523,0.002678,0.000431,0.047481
47243000,0.0324,0.013523,0.002678,0.000431,0.028559
47244000,0.0324,0.013523,0.002678,0.000431,0.029029
47245000,0.0324,0.013523,0.002678,0.000431,0.013986
47246000,0.0324,0.013523,0.002678,0.000431,0.008932
47247000,0.0324,0.013523,0.002678,0.000431,0.012458
47248000,0.0324,0.013523,0.002678,0.000431,0.007992
47249000,0.0324,0.013523,0.002678,0.000431,0.003408
47250000,0.0324,0.013523,0.002678,0.000431,0.008580
47251000,0.0324,0.013523,0.002678,0.000431,0.002351
47252000,0.0324,0.013523,0.002678,0.000431,0.001763
47253000,0.0324,0.013523,0.002678,0.000431,0.001645
47254000,0.0324,0.013523,0.002678,0.000431,0.001645
47255000,0.0324,0.013523,0.002678,0.000431,0.001645
47256000,0.0324,0.013523,0.002678,0.000431,0.001763
47257000,0.0324,0.013523,0.002678,0.000431,0.001763
47258000,0.0324,0.013523,0.002678,0.000431,0.004936
47259000,0.0324,0.013523,0.002678,0.000431,0.530875
47260000,0.0324,0.013523,0.002678,0.000431,0.744659
47261000,0.0324,0.013523,0.002678,0.000431,0.143854
47262000,0.0324,0.013523,0.002678,0.000431,0.135863
47263000,0.0324,0.013523,0.002678,0.000431,0.521237
47264000,0.0324,0.013523,0.002678,0.000431,0.266554
47265000,0.0324,0.013523,0.002678,0.000431,0.260560
47266000,0.0324,0.013523,0.002678,0.000431,0.259972
47267000,0.0324,0.013523,0.002678,0.000431,0.149731
47268000,0.0324,0.013523,0.002678,0.000431,0.125168
47269000,0.0324,0.013523,0.002678,0.000431,0.361047
47270000,0.0324,0.013523,0.002678,0.000431,0.375738
47271000,0.0324,0.013523,0.002678,0.000431,0.163952
47272000,0.0324,0.013523,0.002678,0.000431,0.153139
47273000,0.0324,0.013523,0.002678,0.000431,0.125403
47274000,0.0324,0.013523,0.002678,0.000431,0.097431
47275000,0.0324,0.013523,0.002678,0.000431,0.079684
47276000,0.0324,0.013523,0.002678,0.000431,0.075806
47277000,0.0324,0.013523,0.002678,0.000431,0.055591
47278000,0.0324,0.013523,0.002678,0.000431,0.039960
47279000,0.0324,0.013523,0.002678,0.000431,0.027502
47280000,0.0324,0.013523,0.002678,0.000431,0.023623
47281000,0.0324,0.013523,0.002678,0.000431,0.016101
47282000,0.0324,0.013523,0.002678,0.000431,0.013281
47283000,0.0324,0.013523,0.002678,0.000431,0.011870
47284000,0.0324,0.013523,0.002678,0.000431,0.012693
47285000,0.0324,0.013523,0.002678,0.000431,0.009285
47286000,0.0324,0.013523,0.002678,0.000431,0.007992
47287000,0.0324,0.013523,0.002678,0.000431,0.001410
47288000,0.0324,0.013523,0.002678,0.000431,0.000823
47289000,0.0324,0.013523,0.002678,0.000431,0.009167
47290000,0.0324,0.013523,0.002678,0.000431,0.652046
47291000,0.0324,0.013523,0.002678,0.000431,0.629011
47292000,0.0324,0.013523,0.002678,0.000431,0.141739
47293000,0.0324,0.013523,0.002678,0.000431,0.136803
47294000,0.0324,0.013523,0.002678,0.000431,0.578121
47295000,0.0324,0.013523,0.002678,0.000431,0.273371
47296000,0.0324,0.013523,0.002678,0.000431,0.311567
47297000,0.0324,0.013523,0.002678,0.000431,0.150436
47298000,0.0324,0.013523,0.002678,0.000431,0.154902
47299000,0.0324,0.013523,0.002678,0.000431,0.199328
47300000,0.0324,0.013523,0.002678,0.000431,0.478222
47301000,0.0324,0.013523,0.002678,0.000431,0.178760
47302000,0.0324,0.013523,0.002678,0.000431,0.169358
47303000,0.0324,0.013523,0.002678,0.000431,0.149848
47304000,0.0324,0.013523,0.002678,0.000431,0.134687
47305000,0.0324,0.013523,0.002678,0.000431,0.098606
47306000,0.0324,0.013523,0.002678,0.000431,0.085443
47307000,0.0324,0.013523,0.002678,0.000431,0.058529
47308000,0.0324,0.013523,0.002678,0.000431,0.062290
47309000,0.0324,0.013523,0.002678,0.000431,0.034083
47310000,0.0324,0.013523,0.002678,0.000431,0.031027
47311000,0.0324,0.013523,0.002678,0.000431,0.027031
47312000,0.0324,0.013523,0.002678,0.000431,0.009637
47313000,0.0324,0.013523,0.002678,0.000431,0.005641
47314000,0.0324,0.013523,0.002678,0.000431,0.006817
47315000,0.0324,0.013523,0.002678,0.000431,0.004819
47316000,0.0324,0.013523,0.002678,0.000431,0.001058
47317000,0.0324,0.013523,0.002678,0.000431,0.286651
47318000,0.0324,0.013523,0.002678,0.000431,0.778742
47319000,0.0324,0.013523,0.002678,0.000431,0.286886
47320000,0.0324,0.013523,0.002678,0.000431,0.136803
47321000,0.0324,0.013523,0.002678,0.000431,0.500317
47322000,0.0324,0.013523,0.002678,0.000431,0.260913
47323000,0.0324,0.013523,0.002678,0.000431,0.332017
47324000,0.0324,0.013523,0.002678,0.000431,0.180171
47325000,0.0324,0.013523,0.002678,0.000431,0.169593
47326000,0.0324,0.013523,0.002678,0.000431,0.143267
47327000,0.0324,0.013523,0.002678,0.000431,0.532285
47328000,0.0324,0.013523,0.002678,0.000431,0.170533
47329000,0.0324,0.013523,0.002678,0.000431,0.151376
47330000,0.0324,0.013523,0.002678,0.000431,0.138213
47331000,0.0324,0.013523,0.002678,0.000431,0.098606
47332000,0.0324,0.013523,0.002678,0.000431,0.091672
47333000,0.0324,0.013523,0.002678,0.000431,0.067109
47334000,0.0324,0.013523,0.002678,0.000431,0.051360
47335000,0.0324,0.013523,0.002678,0.000431,0.049362
47336000,0.0324,0.013523,0.002678,0.000431,0.043485
47337000,0.0324,0.013523,0.002678,0.000431,0.032085
47338000,0.0324,0.013523,0.002678,0.000431,0.023976
47339000,0.0324,0.013523,0.002678,0.000431,0.014338
47340000,0.0324,0.013523,0.002678,0.000431,0.015866
47341000,0.0324,0.013523,0.002678,0.000431,0.011988
47342000,0.0324,0.013523,0.002678,0.000431,0.011753
47343000,0.0324,0.013523,0.002678,0.000431,0.010578
47344000,0.0324,0.013523,0.002678,0.000431,0.004701
47345000,0.0324,0.013523,0.002678,0.000431,0.004349
47346000,0.0324,0.013523,0.002678,0.000431,0.004819
47347000,0.0324,0.013523,0.002678,0.000431,0.004231
47348000,0.0324,0.013523,0.002678,0.000431,0.005171
47349000,0.0324,0.013523,0.002678,0.000431,0.001763
47350000,0.0324,0.013523,0.002678,0.000431,0.002233
47351000,0.0324,0.013523,0.002678,0.000431,0.001645
47352000,0.0324,0.013523,0.002678,0.000431,0.001998
47353000,0.0324,0.013523,0.002678,0.000431,0.001998
47354000,0.0324,0.013523,0.002678,0.000431,0.001645
47355000,0.0324,0.013523,0.002678,0.000431,0.002586
47356000,0.0324,0.013523,0.002678,0.000431,0.002351
47357000,0.0324,0.013523,0.002678,0.000431,0.002703
47358000,0.0324,0.013523,0.002678,0.000431,0.001058
47359000,0.0324,0.013523,0.002678,0.000431,0.001410
47360000,0.0324,0.013523,0.002678,0.000431,0.000823
47361000,0.0324,0.013523,0.002678,0.000431,0.001175
47362000,0.0324,0.013523,0.002678,0.000431,0.001175
47363000,0.0324,0.013523,0.002678,0.000431,0.001175
47364000,0.0324,0.013523,0.002678,0.000431,0.001058
47365000,0.0324,0.013523,0.002678,0.000431,0.007757
47366000,0.0324,0.013523,0.002678,0.000431,0.613967
47367000,0.0324,0.013523,0.002678,0.000431,0.643349
47368000,0.0324,0.013523,0.002678,0.000431,0.138096
47369000,0.0324,0.013523,0.002678,0.000431,0.136685
47370000,0.0324,0.013523,0.002678,0.000431,0.537574
47371000,0.0324,0.013523,0.002678,0.000431,0.264791
47372000,0.0324,0.013523,0.002678,0.000431,0.342595
47373000,0.0324,0.013523,0.002678,0.000431,0.148673
47374000,0.0324,0.013523,0.002678,0.000431,0.174059
47375000,0.0324,0.013523,0.002678,0.000431,0.159956
47376000,0.0324,0.013523,0.002678,0.000431,0.519827
47377000,0.0324,0.013523,0.002678,0.000431,0.200033
47378000,0.0324,0.013523,0.002678,0.000431,0.163247
47379000,0.0324,0.013523,0.002678,0.000431,0.151259
47380000,0.0324,0.013523,0.002678,0.000431,0.125990
47381000,0.0324,0.013523,0.002678,0.000431,0.112710
47382000,0.0324,0.013523,0.002678,0.000431,0.089204
47383000,0.0324,0.013523,0.002678,0.000431,0.076158
47384000,0.0324,0.013523,0.002678,0.000431,0.053945
47385000,0.0324,0.013523,0.002678,0.000431,0.037609
47386000,0.0324,0.013523,0.002678,0.000431,0.028912
47387000,0.0324,0.013523,0.002678,0.000431,0.020215
47388000,0.0324,0.013523,0.002678,0.000431,0.016689
47389000,0.0324,0.013523,0.002678,0.000431,0.012576
47390000,0.0324,0.013523,0.002678,0.000431,0.010813
47391000,0.0324,0.013523,0.002678,0.000431,0.006347
47392000,0.0324,0.013523,0.002678,0.000431,0.005759
47393000,0.0324,0.013523,0.002678,0.000431,0.006699
47394000,0.0324,0.013523,0.002678,0.000431,0.002468
47395000,0.0324,0.013523,0.002678,0.000431,0.003408
47396000,0.0324,0.013523,0.002678,0.000431,0.001880
47397000,0.0324,0.013523,0.002678,0.000431,0.005054
47398000,0.0324,0.013523,0.002678,0.000431,0.000823
47399000,0.0324,0.013523,0.002678,0.000431,0.057824
47400000,0.0324,0.013523,0.002678,0.000431,0.726794
47401000,0.0324,0.013523,0.002678,0.000431,0.549444
47402000,0.0324,0.013523,0.002678,0.000431,0.135980
47403000,0.0324,0.013523,0.002678,0.000431,0.157253
47404000,0.0324,0.013523,0.002678,0.000431,0.531227
47405000,0.0324,0.013523,0.002678,0.000431,0.259737
47406000,0.0324,0.013523,0.002678,0.000431,0.299227
47407000,0.0324,0.013523,0.002678,0.000431,0.163952
47408000,0.0324,0.013523,0.002678,0.000431,0.163012
47409000,0.0324,0.013523,0.002678,0.000431,0.157370
47410000,0.0324,0.013523,0.002678,0.000431,0.539102
47411000,0.0324,0.013523,0.002678,0.000431,0.212491
47412000,0.0324,0.013523,0.002678,0.000431,0.174177
47413000,0.0324,0.013523,0.002678,0.000431,0.137978
47414000,0.0324,0.013523,0.002678,0.000431,0.122229
47415000,0.0324,0.013523,0.002678,0.000431,0.110241
47416000,0.0324,0.013523,0.002678,0.000431,0.083210
47417000,0.0324,0.013523,0.002678,0.000431,0.055826
47418000,0.0324,0.013523,0.002678,0.000431,0.031968
47419000,0.0324,0.013523,0.002678,0.000431,0.027737
47420000,0.0324,0.013523,0.002678,0.000431,0.030910
47421000,0.0324,0.013523,0.002678,0.000431,0.019862
47422000,0.0324,0.013523,0.002678,0.000431,0.012458
47423000,0.0324,0.013523,0.002678,0.000431,0.011165
47424000,0.0324,0.013523,0.002678,0.000431,0.004231
47425000,0.0324,0.013523,0.002678,0.000431,0.006464
47426000,0.0324,0.013523,0.002678,0.000431,0.003643
47427000,0.0324,0.013523,0.002678,0.000431,0.004584
47428000,0.0324,0.013523,0.002678,0.000431,0.003526
47429000,0.0324,0.013523,0.002678,0.000431,0.007169
47430000,0.0324,0.013523,0.002678,0.000431,0.001528
47431000,0.0324,0.013523,0.002678,0.000431,0.001058
47432000,0.0324,0.013523,0.002678,0.000431,0.072045
47433000,0.0324,0.013523,0.002678,0.000431,0.731613
47434000,0.0324,0.013523,0.002678,0.000431,0.547094
47435000,0.0324,0.013523,0.002678,0.000431,0.136803
47436000,0.0324,0.013523,0.002678,0.000431,0.210140
47437000,0.0324,0.013523,0.002678,0.000431,0.544978
47438000,0.0324,0.013523,0.002678,0.000431,0.267612
47439000,0.0324,0.013523,0.002678,0.000431,0.290765
47440000,0.0324,0.013523,0.002678,0.000431,0.151846
47441000,0.0324,0.013523,0.002678,0.000431,0.110476
47442000,0.0324,0.013523,0.002678,0.000431,0.417578
47443000,0.0324,0.013523,0.002678,0.000431,0.320969
47444000,0.0324,0.013523,0.002678,0.000431,0.165715
47445000,0.0324,0.013523,0.002678,0.000431,0.156312
47446000,0.0324,0.013523,0.002678,0.000431,0.121642
47447000,0.0324,0.013523,0.002678,0.000431,0.108949
47448000,0.0324,0.013523,0.002678,0.000431,0.093905
47449000,0.0324,0.013523,0.002678,0.000431,0.065698
47450000,0.0324,0.013523,0.002678,0.000431,0.053945
47451000,0.0324,0.013523,0.002678,0.000431,0.034436
47452000,0.0324,0.013523,0.002678,0.000431,0.024798
47453000,0.0324,0.013523,0.002678,0.000431,0.016101
47454000,0.0324,0.013523,0.002678,0.000431,0.017629
47455000,0.0324,0.013523,0.002678,0.000431,0.011048
47456000,0.0324,0.013523,0.002678,0.000431,0.013398
47457000,0.0324,0.013523,0.002678,0.000431,0.011870
47458000,0.0324,0.013523,0.002678,0.000431,0.009167
47459000,0.0324,0.013523,0.002678,0.000431,0.008932
47460000,0.0324,0.013523,0.002678,0.000431,0.013986
47461000,0.0324,0.013523,0.002678,0.000431,0.006817
47462000,0.0324,0.013523,0.002678,0.000431,0.006347
47463000,0.0324,0.013523,0.002678,0.000431,0.003173
47464000,0.0324,0.013523,0.002678,0.000431,0.002351
47465000,0.0324,0.013523,0.002678,0.000431,0.002233
47466000,0.0324,0.013523,0.002678,0.000431,0.002821
47467000,0.0324,0.013523,0.002678,0.000431,0.002233
47468000,0.0324,0.013523,0.002678,0.000431,0.265144
47469000,0.0324,0.013523,0.002678,0.000431,0.739135
47470000,0.0324,0.013523,0.002678,0.000431,0.348706
47471000,0.0324,0.013523,0.002678,0.000431,0.139506
47472000,0.0324,0.013523,0.002678,0.000431,0.571304
47473000,0.0324,0.013523,0.002678,0.000431,0.275839
47474000,0.0324,0.013523,0.002678,0.000431,0.304868
47475000,0.0324,0.013523,0.002678,0.000431,0.184637
47476000,0.0324,0.013523,0.002678,0.000431,0.174882
47477000,0.0324,0.013523,0.002678,0.000431,0.138566
47478000,0.0324,0.013523,0.002678,0.000431,0.542040
47479000,0.0324,0.013523,0.002678,0.000431,0.209788
47480000,0.0324,0.013523,0.002678,0.000431,0.178408
47481000,0.0324,0.013523,0.002678,0.000431,0.152081
47482000,0.0324,0.013523,0.002678,0.000431,0.133630
47483000,0.0324,0.013523,0.002678,0.000431,0.110359
47484000,0.0324,0.013523,0.002678,0.000431,0.105305
47485000,0.0324,0.013523,0.002678,0.000431,0.075923
47486000,0.0324,0.013523,0.002678,0.000431,0.070517
47487000,0.0324,0.013523,0.002678,0.000431,0.050537
47488000,0.0324,0.013523,0.002678,0.000431,0.045248
47489000,0.0324,0.013523,0.002678,0.000431,0.037962
47490000,0.0324,0.013523,0.002678,0.000431,0.032555
47491000,0.0324,0.013523,0.002678,0.000431,0.024798
47492000,0.0324,0.013523,0.002678,0.000431,0.025621
47493000,0.0324,0.013523,0.002678,0.000431,0.024798
47494000,0.0324,0.013523,0.002678,0.000431,0.022330
47495000,0.0324,0.013523,0.002678,0.000431,0.021860
47496000,0.0324,0.013523,0.002678,0.000431,0.023623
47497000,0.0324,0.013523,0.002678,0.000431,0.016454
47498000,0.0324,0.013523,0.002678,0.000431,0.015161
47499000,0.0324,0.013523,0.002678,0.000431,0.009637
47500000,0.0324,0.013523,0.002678,0.000431,0.013046
47501000,0.0324,0.013523,0.002678,0.000431,0.008462
47502000,0.0324,0.013523,0.002678,0.000431,0.007757
47503000,0.0324,0.013523,0.002678,0.000431,0.008109
47504000,0.0324,0.013523,0.002678,0.000431,0.008345
47505000,0.0324,0.013523,0.002678,0.000431,0.008697
47506000,0.0324,0.013523,0.002678,0.000431,0.009050
47507000,0.0324,0.013523,0.002678,0.000431,0.006347
47508000,0.0324,0.013523,0.002678,0.000431,0.002468
47509000,0.0324,0.013523,0.002678,0.000431,0.001880
47510000,0.0324,0.013523,0.002678,0.000431,0.003643
47511000,0.0324,0.013523,0.002678,0.000431,0.000823
47512000,0.0324,0.013523,0.002678,0.000431,0.000940
47513000,0.0324,0.013523,0.002678,0.000431,0.003526
47514000,0.0324,0.013523,0.002678,0.000431,0.583527
47515000,0.0324,0.013523,0.002678,0.000431,0.716922
47516000,0.0324,0.013523,0.002678,0.000431,0.139623
47517000,0.0324,0.013523,0.002678,0.000431,0.136803
47518000,0.0324,0.013523,0.002678,0.000431,0.498084
47519000,0.0324,0.013523,0.002678,0.000431,0.236349
47520000,0.0324,0.013523,0.002678,0.000431,0.296524
47521000,0.0324,0.013523,0.002678,0.000431,0.178290
47522000,0.0324,0.013523,0.002678,0.000431,0.166537
47523000,0.0324,0.013523,0.002678,0.000431,0.115883
47524000,0.0324,0.013523,0.002678,0.000431,0.451661
47525000,0.0324,0.013523,0.002678,0.000431,0.309334
47526000,0.0324,0.013523,0.002678,0.000431,0.200386
47527000,0.0324,0.013523,0.002678,0.000431,0.167478
47528000,0.0324,0.013523,0.002678,0.000431,0.153257
47529000,0.0324,0.013523,0.002678,0.000431,0.123875
47530000,0.0324,0.013523,0.002678,0.000431,0.089909
47531000,0.0324,0.013523,0.002678,0.000431,0.074513
47532000,0.0324,0.013523,0.002678,0.000431,0.057236
47533000,0.0324,0.013523,0.002678,0.000431,0.062643
47534000,0.0324,0.013523,0.002678,0.000431,0.039372
47535000,0.0324,0.013523,0.002678,0.000431,0.027031
47536000,0.0324,0.013523,0.002678,0.000431,0.019275
47537000,0.0324,0.013523,0.002678,0.000431,0.021978
47538000,0.0324,0.013523,0.002678,0.000431,0.014691
47539000,0.0324,0.013523,0.002678,0.000431,0.009990
47540000,0.0324,0.013523,0.002678,0.000431,0.008345
47541000,0.0324,0.013523,0.002678,0.000431,0.012928
47542000,0.0324,0.013523,0.002678,0.000431,0.005289
47543000,0.0324,0.013523,0.002678,0.000431,0.004231
47544000,0.0324,0.013523,0.002678,0.000431,0.005406
47545000,0.0324,0.013523,0.002678,0.000431,0.004936
47546000,0.0324,0.013523,0.002678,0.000431,0.004584
47547000,0.0324,0.013523,0.002678,0.000431,0.006464
47548000,0.0324,0.013523,0.002678,0.000431,0.003761
47549000,0.0324,0.013523,0.002678,0.000431,0.004231
47550000,0.0324,0.013523,0.002678,0.000431,0.004113
47551000,0.0324,0.013523,0.002678,0.000431,0.003878
47552000,0.0324,0.013523,0.002678,0.000431,0.003996
47553000,0.0324,0.013523,0.002678,0.000431,0.004113
47554000,0.0324,0.013523,0.002678,0.000431,0.004466
47555000,0.0324,0.013523,0.002678,0.000431,0.004113
47556000,0.0324,0.013523,0.002678,0.000431,0.005994
47557000,0.0324,0.013523,0.002678,0.000431,0.002821
47558000,0.0324,0.013523,0.002678,0.000431,0.001763
47559000,0.0324,0.013523,0.002678,0.000431,0.004349
47560000,0.0324,0.013523,0.002678,0.000431,0.100487
47561000,0.0324,0.013523,0.002678,0.000431,0.769104
47562000,0.0324,0.013523,0.002678,0.000431,0.500317
47563000,0.0324,0.013523,0.002678,0.000431,0.136803
47564000,0.0324,0.013523,0.002678,0.000431,0.313330
47565000,0.0324,0.013523,0.002678,0.000431,0.446725
47566000,0.0324,0.013523,0.002678,0.000431,0.289942
47567000,0.0324,0.013523,0.002678,0.000431,0.233764
47568000,0.0324,0.013523,0.002678,0.000431,0.145382
47569000,0.0324,0.013523,0.002678,0.000431,0.127753
47570000,0.0324,0.013523,0.002678,0.000431,0.358461
47571000,0.0324,0.013523,0.002678,0.000431,0.417343
47572000,0.0324,0.013523,0.002678,0.000431,0.192159
47573000,0.0324,0.013523,0.002678,0.000431,0.167478
47574000,0.0324,0.013523,0.002678,0.000431,0.145500
47575000,0.0324,0.013523,0.002678,0.000431,0.124580
47576000,0.0324,0.013523,0.002678,0.000431,0.101192
47577000,0.0324,0.013523,0.002678,0.000431,0.067696
47578000,0.0324,0.013523,0.002678,0.000431,0.057236
47579000,0.0324,0.013523,0.002678,0.000431,0.049949
47580000,0.0324,0.013523,0.002678,0.000431,0.035141
47581000,0.0324,0.013523,0.002678,0.000431,0.033025
47582000,0.0324,0.013523,0.002678,0.000431,0.038784
47583000,0.0324,0.013523,0.002678,0.000431,0.021038
47584000,0.0324,0.013523,0.002678,0.000431,0.015631
47585000,0.0324,0.013523,0.002678,0.000431,0.013281
47586000,0.0324,0.013523,0.002678,0.000431,0.006699
47587000,0.0324,0.013523,0.002678,0.000431,0.004113
47588000,0.0324,0.013523,0.002678,0.000431,0.006582
47589000,0.0324,0.013523,0.002678,0.000431,0.004349
47590000,0.0324,0.013523,0.002678,0.000431,0.003761
47591000,0.0324,0.013523,0.002678,0.000431,0.001293
47592000,0.0324,0.013523,0.002678,0.000431,0.000940
47593000,0.0324,0.013523,0.002678,0.000431,0.000940
47594000,0.0324,0.013523,0.002678,0.000431,0.000940
47595000,0.0324,0.013523,0.002678,0.000431,0.000823
47596000,0.0324,0.013523,0.002678,0.000431,0.000823
47597000,0.0324,0.013523,0.002678,0.000431,0.000940
47598000,0.0324,0.013523,0.002678,0.000431,0.000940
47599000,0.0324,0.013523,0.002678,0.000431,0.000940
47600000,0.0324,0.013523,0.002678,0.000431,0.000705
47601000,0.0324,0.013523,0.002678,0.000431,0.000940
47602000,0.0324,0.013523,0.002678,0.000431,0.000823
47603000,0.0324,0.013523,0.002678,0.000431,0.073925
47604000,0.0324,0.013523,0.002678,0.000431,0.782268
47605000,0.0324,0.013523,0.002678,0.000431,0.501610
47606000,0.0324,0.013523,0.002678,0.000431,0.137390
47607000,0.0324,0.013523,0.002678,0.000431,0.211551
47608000,0.0324,0.013523,0.002678,0.000431,0.469173
47609000,0.0324,0.013523,0.002678,0.000431,0.228357
47610000,0.0324,0.013523,0.002678,0.000431,0.307336
47611000,0.0324,0.013523,0.002678,0.000431,0.157370
47612000,0.0324,0.013523,0.002678,0.000431,0.165245
47613000,0.0324,0.013523,0.002678,0.000431,0.176292
47614000,0.0324,0.013523,0.002678,0.000431,0.552853
47615000,0.0324,0.013523,0.002678,0.000431,0.225772
47616000,0.0324,0.013523,0.002678,0.000431,0.203911
47617000,0.0324,0.013523,0.002678,0.000431,0.152904
47618000,0.0324,0.013523,0.002678,0.000431,0.137861
47619000,0.0324,0.013523,0.002678,0.000431,0.101779
47620000,0.0324,0.013523,0.002678,0.000431,0.096256
47621000,0.0324,0.013523,0.002678,0.000431,0.072280
47622000,0.0324,0.013523,0.002678,0.000431,0.056178
47623000,0.0324,0.013523,0.002678,0.000431,0.047364
47624000,0.0324,0.013523,0.002678,0.000431,0.030557
47625000,0.0324,0.013523,0.002678,0.000431,0.031027
47626000,0.0324,0.013523,0.002678,0.000431,0.021273
47627000,0.0324,0.013523,0.002678,0.000431,0.023153
47628000,0.0324,0.013523,0.002678,0.000431,0.021625
47629000,0.0324,0.013523,0.002678,0.000431,0.010225
47630000,0.0324,0.013523,0.002678,0.000431,0.008580
47631000,0.0324,0.013523,0.002678,0.000431,0.008697
47632000,0.0324,0.013523,0.002678,0.000431,0.012223
47633000,0.0324,0.013523,0.002678,0.000431,0.006229
47634000,0.0324,0.013523,0.002678,0.000431,0.016807
47635000,0.0324,0.013523,0.002678,0.000431,0.001998
47636000,0.0324,0.013523,0.002678,0.000431,0.002468
47637000,0.0324,0.013523,0.002678,0.000431,0.001763
47638000,0.0324,0.013523,0.002678,0.000431,0.004701
47639000,0.0324,0.013523,0.002678,0.000431,0.000705
47640000,0.0324,0.013523,0.002678,0.000431,0.000940
47641000,0.0324,0.013523,0.002678,0.000431,0.000940
47642000,0.0324,0.013523,0.002678,0.000431,0.000705
47643000,0.0324,0.013523,0.002678,0.000431,0.000940
47644000,0.0324,0.013523,0.002678,0.000431,0.000705
47645000,0.0324,0.013523,0.002678,0.000431,0.000940
47646000,0.0324,0.013523,0.002678,0.000431,0.000823
47647000,0.0324,0.013523,0.002678,0.000431,0.000823
47648000,0.0324,0.013523,0.002678,0.000431,0.000940
47649000,0.0324,0.013523,0.002678,0.000431,0.000705
47650000,0.0324,0.013523,0.002678,0.000431,0.000940
47651000,0.0324,0.013523,0.002678,0.000431,0.000823
47652000,0.0324,0.013523,0.002678,0.000431,0.000823
47653000,0.0324,0.013523,0.002678,0.000431,0.000823
47654000,0.0324,0.013523,0.002678,0.000431,0.000823
47655000,0.0324,0.013523,0.002678,0.000431,0.000823
47656000,0.0324,0.013523,0.002678,0.000431,0.000823
47657000,0.0324,0.013523,0.002678,0.000431,0.000705
47658000,0.0324,0.013523,0.002678,0.000431,0.015631
47659000,0.0324,0.013523,0.002678,0.000431,0.783678
47660000,0.0324,0.013523,0.002678,0.000431,0.560844
47661000,0.0324,0.013523,0.002678,0.000431,0.151024
47662000,0.0324,0.013523,0.002678,0.000431,0.154667
47663000,0.0324,0.013523,0.002678,0.000431,0.573655
47664000,0.0324,0.013523,0.002678,0.000431,0.256682
47665000,0.0324,0.013523,0.002678,0.000431,0.311332
47666000,0.0324,0.013523,0.002678,0.000431,0.163482
47667000,0.0324,0.013523,0.002678,0.000431,0.145852
47668000,0.0324,0.013523,0.002678,0.000431,0.241755
47669000,0.0324,0.013523,0.002678,0.000431,0.479985
47670000,0.0324,0.013523,0.002678,0.000431,0.179818
47671000,0.0324,0.013523,0.002678,0.000431,0.167125
47672000,0.0324,0.013523,0.002678,0.000431,0.141151
47673000,0.0324,0.013523,0.002678,0.000431,0.128693
47674000,0.0324,0.013523,0.002678,0.000431,0.079684
47675000,0.0324,0.013523,0.002678,0.000431,0.079802
47676000,0.0324,0.013523,0.002678,0.000431,0.053005
47677000,0.0324,0.013523,0.002678,0.000431,0.058647
47678000,0.0324,0.013523,0.002678,0.000431,0.044543
47679000,0.0324,0.013523,0.002678,0.000431,0.027737
47680000,0.0324,0.013523,0.002678,0.000431,0.022095
47681000,0.0324,0.013523,0.002678,0.000431,0.022330
47682000,0.0324,0.013523,0.002678,0.000431,0.016101
47683000,0.0324,0.013523,0.002678,0.000431,0.015396
47684000,0.0324,0.013523,0.002678,0.000431,0.016571
47685000,0.0324,0.013523,0.002678,0.000431,0.014926
47686000,0.0324,0.013523,0.002678,0.000431,0.011635
47687000,0.0324,0.013523,0.002678,0.000431,0.010225
47688000,0.0324,0.013523,0.002678,0.000431,0.005054
47689000,0.0324,0.013523,0.002678,0.000431,0.004584
47690000,0.0324,0.013523,0.002678,0.000431,0.004349
47691000,0.0324,0.013523,0.002678,0.000431,0.005759
47692000,0.0324,0.013523,0.002678,0.000431,0.003526
47693000,0.0324,0.013523,0.002678,0.000431,0.004819
47694000,0.0324,0.013523,0.002678,0.000431,0.002468
47695000,0.0324,0.013523,0.002678,0.000431,0.005876
47696000,0.0324,0.013523,0.002678,0.000431,0.001763
47697000,0.0324,0.013523,0.002678,0.000431,0.002703
47698000,0.0324,0.013523,0.002678,0.000431,0.000823
47699000,0.0324,0.013523,0.002678,0.000431,0.000705
47700000,0.0324,0.013523,0.002678,0.000431,0.000940
47701000,0.0324,0.013523,0.002678,0.000431,0.002821
47702000,0.0324,0.013523,0.002678,0.000431,0.469760
47703000,0.0324,0.013523,0.002678,0.000431,0.760995
47704000,0.0324,0.013523,0.002678,0.000431,0.172766
47705000,0.0324,0.013523,0.002678,0.000431,0.136803
47706000,0.0324,0.013523,0.002678,0.000431,0.525704
47707000,0.0324,0.013523,0.002678,0.000431,0.264321
47708000,0.0324,0.013523,0.002678,0.000431,0.327316
47709000,0.0324,0.013523,0.002678,0.000431,0.196507
47710000,0.0324,0.013523,0.002678,0.000431,0.177350
47711000,0.0324,0.013523,0.002678,0.000431,0.101309
47712000,0.0324,0.013523,0.002678,0.000431,0.556261
47713000,0.0324,0.013523,0.002678,0.000431,0.200973
47714000,0.0324,0.013523,0.002678,0.000431,0.146675
47715000,0.0324,0.013523,0.002678,0.000431,0.135745
47716000,0.0324,0.013523,0.002678,0.000431,0.127988
47717000,0.0324,0.013523,0.002678,0.000431,0.085443
47718000,0.0324,0.013523,0.002678,0.000431,0.070517
47719000,0.0324,0.013523,0.002678,0.000431,0.044543
47720000,0.0324,0.013523,0.002678,0.000431,0.042428
47721000,0.0324,0.013523,0.002678,0.000431,0.024681
47722000,0.0324,0.013523,0.002678,0.000431,0.025386
47723000,0.0324,0.013523,0.002678,0.000431,0.015279
47724000,0.0324,0.013523,0.002678,0.000431,0.013986
47725000,0.0324,0.013523,0.002678,0.000431,0.017982
47726000,0.0324,0.013523,0.002678,0.000431,0.006229
47727000,0.0324,0.013523,0.002678,0.000431,0.006347
47728000,0.0324,0.013523,0.002678,0.000431,0.005054
47729000,0.0324,0.013523,0.002678,0.000431,0.005171
47730000,0.0324,0.013523,0.002678,0.000431,0.001998
47731000,0.0324,0.013523,0.002678,0.000431,0.001880
47732000,0.0324,0.013523,0.002678,0.000431,0.001645
47733000,0.0324,0.013523,0.002678,0.000431,0.002938
47734000,0.0324,0.013523,0.002678,0.000431,0.000940
47735000,0.0324,0.013523,0.002678,0.000431,0.000705
47736000,0.0324,0.013523,0.002678,0.000431,0.000823
47737000,0.0324,0.013523,0.002678,0.000431,0.000823
47738000,0.0324,0.013523,0.002678,0.000431,0.000940
47739000,0.0324,0.013523,0.002678,0.000431,0.000705
47740000,0.0324,0.013523,0.002678,0.000431,0.000823
47741000,0.0324,0.013523,0.002678,0.000431,0.000940
47742000,0.0324,0.013523,0.002678,0.000431,0.000823
47743000,0.0324,0.013523,0.002678,0.000431,0.000823
47744000,0.0324,0.013523,0.002678,0.000431,0.000823
47745000,0.0324,0.013523,0.002678,0.000431,0.000705
47746000,0.0324,0.013523,0.002678,0.000431,0.000940
47747000,0.0324,0.013523,0.002678,0.000431,0.000940
47748000,0.0324,0.013523,0.002678,0.000431,0.015044
47749000,0.0324,0.013523,0.002678,0.000431,0.732553
47750000,0.0324,0.013523,0.002678,0.000431,0.558847
47751000,0.0324,0.013523,0.002678,0.000431,0.136803
47752000,0.0324,0.013523,0.002678,0.000431,0.137743
47753000,0.0324,0.013523,0.002678,0.000431,0.498672
47754000,0.0324,0.013523,0.002678,0.000431,0.232823
47755000,0.0324,0.013523,0.002678,0.000431,0.286534
47756000,0.0324,0.013523,0.002678,0.000431,0.173589
47757000,0.0324,0.013523,0.002678,0.000431,0.166185
47758000,0.0324,0.013523,0.002678,0.000431,0.117058
47759000,0.0324,0.013523,0.002678,0.000431,0.444609
47760000,0.0324,0.013523,0.002678,0.000431,0.332840
47761000,0.0324,0.013523,0.002678,0.000431,0.191688
47762000,0.0324,0.013523,0.002678,0.000431,0.164892
47763000,0.0324,0.013523,0.002678,0.000431,0.130456
47764000,0.0324,0.013523,0.002678,0.000431,0.127871
47765000,0.0324,0.013523,0.002678,0.000431,0.106481
47766000,0.0324,0.013523,0.002678,0.000431,0.099194
47767000,0.0324,0.013523,0.002678,0.000431,0.067344
47768000,0.0324,0.013523,0.002678,0.000431,0.055826
47769000,0.0324,0.013523,0.002678,0.000431,0.048069
47770000,0.0324,0.013523,0.002678,0.000431,0.037256
47771000,0.0324,0.013523,0.002678,0.000431,0.025621
47772000,0.0324,0.013523,0.002678,0.000431,0.022213
47773000,0.0324,0.013523,0.002678,0.000431,0.018922
47774000,0.0324,0.013523,0.002678,0.000431,0.010578
47775000,0.0324,0.013523,0.002678,0.000431,0.009520
47776000,0.0324,0.013523,0.002678,0.000431,0.007052
47777000,0.0324,0.013523,0.002678,0.000431,0.006347
47778000,0.0324,0.013523,0.002678,0.000431,0.006229
47779000,0.0324,0.013523,0.002678,0.000431,0.001763
47780000,0.0324,0.013523,0.002678,0.000431,0.001763
47781000,0.0324,0.013523,0.002678,0.000431,0.001763
47782000,0.0324,0.013523,0.002678,0.000431,0.003996
47783000,0.0324,0.013523,0.002678,0.000431,0.000823
47784000,0.0324,0.013523,0.002678,0.000431,0.000940
47785000,0.0324,0.013523,0.002678,0.000431,0.000705
47786000,0.0324,0.013523,0.002678,0.000431,0.003056
47787000,0.0324,0.013523,0.002678,0.000431,0.568719
47788000,0.0324,0.013523,0.002678,0.000431,0.718215
47789000,0.0324,0.013523,0.002678,0.000431,0.146323
47790000,0.0324,0.013523,0.002678,0.000431,0.135863
47791000,0.0324,0.013523,0.002678,0.000431,0.503138
47792000,0.0324,0.013523,0.002678,0.000431,0.244224
47793000,0.0324,0.013523,0.002678,0.000431,0.263381
47794000,0.0324,0.013523,0.002678,0.000431,0.236937
47795000,0.0324,0.013523,0.002678,0.000431,0.160426
47796000,0.0324,0.013523,0.002678,0.000431,0.150319
47797000,0.0324,0.013523,0.002678,0.000431,0.237407
47798000,0.0324,0.013523,0.002678,0.000431,0.484569
47799000,0.0324,0.013523,0.002678,0.000431,0.173001
47800000,0.0324,0.013523,0.002678,0.000431,0.163717
47801000,0.0324,0.013523,0.002678,0.000431,0.138801
47802000,0.0324,0.013523,0.002678,0.000431,0.119174
47803000,0.0324,0.013523,0.002678,0.000431,0.078979
47804000,0.0324,0.013523,0.002678,0.000431,0.068519
47805000,0.0324,0.013523,0.002678,0.000431,0.064170
47806000,0.0324,0.013523,0.002678,0.000431,0.043838
47807000,0.0324,0.013523,0.002678,0.000431,0.039254
47808000,0.0324,0.013523,0.002678,0.000431,0.027031
47809000,0.0324,0.013523,0.002678,0.000431,0.028677
47810000,0.0324,0.013523,0.002678,0.000431,0.025621
47811000,0.0324,0.013523,0.002678,0.000431,0.014691
47812000,0.0324,0.013523,0.002678,0.000431,0.008815
47813000,0.0324,0.013523,0.002678,0.000431,0.011048
47814000,0.0324,0.013523,0.002678,0.000431,0.009637
47815000,0.0324,0.013523,0.002678,0.000431,0.005994
47816000,0.0324,0.013523,0.002678,0.000431,0.010695
47817000,0.0324,0.013523,0.002678,0.000431,0.005641
47818000,0.0324,0.013523,0.002678,0.000431,0.003996
47819000,0.0324,0.013523,0.002678,0.000431,0.008109
47820000,0.0324,0.013523,0.002678,0.000431,0.003878
47821000,0.0324,0.013523,0.002678,0.000431,0.003996
47822000,0.0324,0.013523,0.002678,0.000431,0.002233
47823000,0.0324,0.013523,0.002678,0.000431,0.002468
47824000,0.0324,0.013523,0.002678,0.000431,0.002586
47825000,0.0324,0.013523,0.002678,0.000431,0.002233
47826000,0.0324,0.013523,0.002678,0.000431,0.002703
47827000,0.0324,0.013523,0.002678,0.000431,0.002233
47828000,0.0324,0.013523,0.002678,0.000431,0.002233
47829000,0.0324,0.013523,0.002678,0.000431,0.002233
47830000,0.0324,0.013523,0.002678,0.000431,0.002468
47831000,0.0324,0.013523,0.002678,0.000431,0.002351
47832000,0.0324,0.013523,0.002678,0.000431,0.002586
47833000,0.0324,0.013523,0.002678,0.000431,0.002233
47834000,0.0324,0.013523,0.002678,0.000431,0.002468
47835000,0.0324,0.013523,0.002678,0.000431,0.002586
47836000,0.0324,0.013523,0.002678,0.000431,0.002586
47837000,0.0324,0.013523,0.002678,0.000431,0.002351
47838000,0.0324,0.013523,0.002678,0.000431,0.002586
47839000,0.0324,0.013523,0.002678,0.000431,0.002351
47840000,0.0324,0.013523,0.002678,0.000431,0.002586
47841000,0.0324,0.013523,0.002678,0.000431,0.002468
47842000,0.0324,0.013523,0.002678,0.000431,0.002233
47843000,0.0324,0.013523,0.002678,0.000431,0.001763
47844000,0.0324,0.013523,0.002678,0.000431,0.001763
47845000,0.0324,0.013523,0.002678,0.000431,0.001528
47846000,0.0324,0.013523,0.002678,0.000431,0.001763
47847000,0.0324,0.013523,0.002678,0.000431,0.001645
47848000,0.0324,0.013523,0.002678,0.000431,0.001763
47849000,0.0324,0.013523,0.002678,0.000431,0.001763
47850000,0.0324,0.013523,0.002678,0.000431,0.001645
47851000,0.0324,0.013523,0.002678,0.000431,0.003526
47852000,0.0324,0.013523,0.002678,0.000431,0.000940
47853000,0.0324,0.013523,0.002678,0.000431,0.000940
47854000,0.0324,0.013523,0.002678,0.000431,0.000940
47855000,0.0324,0.013523,0.002678,0.000431,0.000823
47856000,0.0324,0.013523,0.002678,0.000431,0.000823
47857000,0.0324,0.013523,0.002678,0.000431,0.014456
47858000,0.0324,0.013523,0.002678,0.000431,0.738312
47859000,0.0324,0.013523,0.002678,0.000431,0.552618
47860000,0.0324,0.013523,0.002678,0.000431,0.135863
47861000,0.0324,0.013523,0.002678,0.000431,0.166067
47862000,0.0324,0.013523,0.002678,0.000431,0.626073
47863000,0.0324,0.013523,0.002678,0.000431,0.254331
47864000,0.0324,0.013523,0.002678,0.000431,0.276896
47865000,0.0324,0.013523,0.002678,0.000431,0.147028
47866000,0.0324,0.013523,0.002678,0.000431,0.140211
47867000,0.0324,0.013523,0.002678,0.000431,0.243283
47868000,0.0324,0.013523,0.002678,0.000431,0.479750
47869000,0.0324,0.013523,0.002678,0.000431,0.193686
47870000,0.0324,0.013523,0.002678,0.000431,0.178290
47871000,0.0324,0.013523,0.002678,0.000431,0.167008
47872000,0.0324,0.013523,0.002678,0.000431,0.126930
47873000,0.0324,0.013523,0.002678,0.000431,0.101897
47874000,0.0324,0.013523,0.002678,0.000431,0.091319
47875000,0.0324,0.013523,0.002678,0.000431,0.076393
47876000,0.0324,0.013523,0.002678,0.000431,0.063935
47877000,0.0324,0.013523,0.002678,0.000431,0.054180
47878000,0.0324,0.013523,0.002678,0.000431,0.042310
47879000,0.0324,0.013523,0.002678,0.000431,0.023036
47880000,0.0324,0.013523,0.002678,0.000431,0.017512
47881000,0.0324,0.013523,0.002678,0.000431,0.014221
47882000,0.0324,0.013523,0.002678,0.000431,0.009402
47883000,0.0324,0.013523,0.002678,0.000431,0.007639
47884000,0.0324,0.013523,0.002678,0.000431,0.004113
47885000,0.0324,0.013523,0.002678,0.000431,0.004113
47886000,0.0324,0.013523,0.002678,0.000431,0.003996
47887000,0.0324,0.013523,0.002678,0.000431,0.003761
47888000,0.0324,0.013523,0.002678,0.000431,0.003761
47889000,0.0324,0.013523,0.002678,0.000431,0.003526
47890000,0.0324,0.013523,0.002678,0.000431,0.003643
47891000,0.0324,0.013523,0.002678,0.000431,0.007052
47892000,0.0324,0.013523,0.002678,0.000431,0.001763
47893000,0.0324,0.013523,0.002678,0.000431,0.005641
47894000,0.0324,0.013523,0.002678,0.000431,0.394895
47895000,0.0324,0.013523,0.002678,0.000431,0.774276
47896000,0.0324,0.013523,0.002678,0.000431,0.222128
47897000,0.0324,0.013523,0.002678,0.000431,0.135745
47898000,0.0324,0.013523,0.002678,0.000431,0.497849
47899000,0.0324,0.013523,0.002678,0.000431,0.252921
47900000,0.0324,0.013523,0.002678,0.000431,0.294996
47901000,0.0324,0.013523,0.002678,0.000431,0.245046
47902000,0.0324,0.013523,0.002678,0.000431,0.150554
47903000,0.0324,0.013523,0.002678,0.000431,0.115295
47904000,0.0324,0.013523,0.002678,0.000431,0.383847
47905000,0.0324,0.013523,0.002678,0.000431,0.337188
47906000,0.0324,0.013523,0.002678,0.000431,0.174647
47907000,0.0324,0.013523,0.002678,0.000431,0.163834
47908000,0.0324,0.013523,0.002678,0.000431,0.128223
47909000,0.0324,0.013523,0.002678,0.000431,0.110712
47910000,0.0324,0.013523,0.002678,0.000431,0.107773
47911000,0.0324,0.013523,0.002678,0.000431,0.085325
47912000,0.0324,0.013523,0.002678,0.000431,0.061820
47913000,0.0324,0.013523,0.002678,0.000431,0.058882
47914000,0.0324,0.013523,0.002678,0.000431,0.046306
47915000,0.0324,0.013523,0.002678,0.000431,0.032673
47916000,0.0324,0.013523,0.002678,0.000431,0.030557
47917000,0.0324,0.013523,0.002678,0.000431,0.027384
47918000,0.0324,0.013523,0.002678,0.000431,0.025151
47919000,0.0324,0.013523,0.002678,0.000431,0.016689
47920000,0.0324,0.013523,0.002678,0.000431,0.022800
47921000,0.0324,0.013523,0.002678,0.000431,0.014573
47922000,0.0324,0.013523,0.002678,0.000431,0.013868
47923000,0.0324,0.013523,0.002678,0.000431,0.011518
47924000,0.0324,0.013523,0.002678,0.000431,0.012811
47925000,0.0324,0.013523,0.002678,0.000431,0.011048
47926000,0.0324,0.013523,0.002678,0.000431,0.012576
47927000,0.0324,0.013523,0.002678,0.000431,0.008227
47928000,0.0324,0.013523,0.002678,0.000431,0.006699
47929000,0.0324,0.013523,0.002678,0.000431,0.003173
47930000,0.0324,0.013523,0.002678,0.000431,0.002938
47931000,0.0324,0.013523,0.002678,0.000431,0.005054
47932000,0.0324,0.013523,0.002678,0.000431,0.003408
47933000,0.0324,0.013523,0.002678,0.000431,0.001880
47934000,0.0324,0.013523,0.002678,0.000431,0.000940
47935000,0.0324,0.013523,0.002678,0.000431,0.000823
47936000,0.0324,0.013523,0.002678,0.000431,0.001763
47937000,0.0324,0.013523,0.002678,0.000431,0.454246
47938000,0.0324,0.013523,0.002678,0.000431,0.739135
47939000,0.0324,0.013523,0.002678,0.000431,0.178995
47940000,0.0324,0.013523,0.002678,0.000431,0.138213
47941000,0.0324,0.013523,0.002678,0.000431,0.505606
47942000,0.0324,0.013523,0.002678,0.000431,0.247984
47943000,0.0324,0.013523,0.002678,0.000431,0.278777
47944000,0.0324,0.013523,0.002678,0.000431,0.210493
47945000,0.0324,0.013523,0.002678,0.000431,0.166302
47946000,0.0324,0.013523,0.002678,0.000431,0.115883
47947000,0.0324,0.013523,0.002678,0.000431,0.455187
47948000,0.0324,0.013523,0.002678,0.000431,0.316738
47949000,0.0324,0.013523,0.002678,0.000431,0.176057
47950000,0.0324,0.013523,0.002678,0.000431,0.169123
47951000,0.0324,0.013523,0.002678,0.000431,0.139859
47952000,0.0324,0.013523,0.002678,0.000431,0.100722
47953000,0.0324,0.013523,0.002678,0.000431,0.085325
47954000,0.0324,0.013523,0.002678,0.000431,0.072867
47955000,0.0324,0.013523,0.002678,0.000431,0.051242
47956000,0.0324,0.013523,0.002678,0.000431,0.048774
47957000,0.0324,0.013523,0.002678,0.000431,0.032203
47958000,0.0324,0.013523,0.002678,0.000431,0.036434
47959000,0.0324,0.013523,0.002678,0.000431,0.024916
47960000,0.0324,0.013523,0.002678,0.000431,0.024328
47961000,0.0324,0.013523,0.002678,0.000431,0.010460
47962000,0.0324,0.013523,0.002678,0.000431,0.015866
47963000,0.0324,0.013523,0.002678,0.000431,0.011400
47964000,0.0324,0.013523,0.002678,0.000431,0.005641
47965000,0.0324,0.013523,0.002678,0.000431,0.005994
47966000,0.0324,0.013523,0.002678,0.000431,0.008227
47967000,0.0324,0.013523,0.002678,0.000431,0.004231
47968000,0.0324,0.013523,0.002678,0.000431,0.072280
47969000,0.0324,0.013523,0.002678,0.000431,0.753121
47970000,0.0324,0.013523,0.002678,0.000431,0.529464
47971000,0.0324,0.013523,0.002678,0.000431,0.136333
47972000,0.0324,0.013523,0.002678,0.000431,0.175587
47973000,0.0324,0.013523,0.002678,0.000431,0.502315
47974000,0.0324,0.013523,0.002678,0.000431,0.255154
47975000,0.0324,0.013523,0.002678,0.000431,0.330724
47976000,0.0324,0.013523,0.002678,0.000431,0.157370
47977000,0.0324,0.013523,0.002678,0.000431,0.131984
47978000,0.0324,0.013523,0.002678,0.000431,0.251628
47979000,0.0324,0.013523,0.002678,0.000431,0.476577
47980000,0.0324,0.013523,0.002678,0.000431,0.190043
47981000,0.0324,0.013523,0.002678,0.000431,0.162306
47982000,0.0324,0.013523,0.002678,0.000431,0.145735
47983000,0.0324,0.013523,0.002678,0.000431,0.129516
47984000,0.0324,0.013523,0.002678,0.000431,0.099781
47985000,0.0324,0.013523,0.002678,0.000431,0.081800
47986000,0.0324,0.013523,0.002678,0.000431,0.072397
47987000,0.0324,0.013523,0.002678,0.000431,0.052065
47988000,0.0324,0.013523,0.002678,0.000431,0.041605
47989000,0.0324,0.013523,0.002678,0.000431,0.028912
47990000,0.0324,0.013523,0.002678,0.000431,0.023036
47991000,0.0324,0.013523,0.002678,0.000431,0.019040
47992000,0.0324,0.013523,0.002678,0.000431,0.011870
47993000,0.0324,0.013523,0.002678,0.000431,0.014456
47994000,0.0324,0.013523,0.002678,0.000431,0.011870
47995000,0.0324,0.013523,0.002678,0.000431,0.009755
47996000,0.0324,0.013523,0.002678,0.000431,0.008462
47997000,0.0324,0.013523,0.002678,0.000431,0.007404
47998000,0.0324,0.013523,0.002678,0.000431,0.010695
47999000,0.0324,0.013523,0.002678,0.000431,0.006111
