Cycle,Area(mm^2),PeakDynamic(W),SubthresholdLeakage(W),GateLeakage(W),RunTimeDynamic(W)
107000000,0.0324,0.013523,0.002678,0.000431,0.010813
107001000,0.0324,0.013523,0.002678,0.000431,0.004231
107002000,0.0324,0.013523,0.002678,0.000431,0.003996
107003000,0.0324,0.013523,0.002678,0.000431,0.004349
107004000,0.0324,0.013523,0.002678,0.000431,0.007052
107005000,0.0324,0.013523,0.002678,0.000431,0.005054
107006000,0.0324,0.013523,0.002678,0.000431,0.004584
107007000,0.0324,0.013523,0.002678,0.000431,0.001645
107008000,0.0324,0.013523,0.002678,0.000431,0.001645
107009000,0.0324,0.013523,0.002678,0.000431,0.001410
107010000,0.0324,0.013523,0.002678,0.000431,0.001880
107011000,0.0324,0.013523,0.002678,0.000431,0.001645
107012000,0.0324,0.013523,0.002678,0.000431,0.001645
107013000,0.0324,0.013523,0.002678,0.000431,0.001645
107014000,0.0324,0.013523,0.002678,0.000431,0.205792
107015000,0.0324,0.013523,0.002678,0.000431,0.545566
107016000,0.0324,0.013523,0.002678,0.000431,0.515949
107017000,0.0324,0.013523,0.002678,0.000431,0.137390
107018000,0.0324,0.013523,0.002678,0.000431,0.133630
107019000,0.0324,0.013523,0.002678,0.000431,0.563783
107020000,0.0324,0.013523,0.002678,0.000431,0.248807
107021000,0.0324,0.013523,0.002678,0.000431,0.248572
107022000,0.0324,0.013523,0.002678,0.000431,0.321087
107023000,0.0324,0.013523,0.002678,0.000431,0.147263
107024000,0.0324,0.013523,0.002678,0.000431,0.161601
107025000,0.0324,0.013523,0.002678,0.000431,0.101779
107026000,0.0324,0.013523,0.002678,0.000431,0.478222
107027000,0.0324,0.013523,0.002678,0.000431,0.253626
107028000,0.0324,0.013523,0.002678,0.000431,0.170298
107029000,0.0324,0.013523,0.002678,0.000431,0.165597
107030000,0.0324,0.013523,0.002678,0.000431,0.144912
107031000,0.0324,0.013523,0.002678,0.000431,0.141739
107032000,0.0324,0.013523,0.002678,0.000431,0.118703
107033000,0.0324,0.013523,0.002678,0.000431,0.113650
107034000,0.0324,0.013523,0.002678,0.000431,0.104130
107035000,0.0324,0.013523,0.002678,0.000431,0.098724
107036000,0.0324,0.013523,0.002678,0.000431,0.086383
107037000,0.0324,0.013523,0.002678,0.000431,0.083445
107038000,0.0324,0.013523,0.002678,0.000431,0.074983
107039000,0.0324,0.013523,0.002678,0.000431,0.068049
107040000,0.0324,0.013523,0.002678,0.000431,0.060645
107041000,0.0324,0.013523,0.002678,0.000431,0.053123
107042000,0.0324,0.013523,0.002678,0.000431,0.055708
107043000,0.0324,0.013523,0.002678,0.000431,0.047951
107044000,0.0324,0.013523,0.002678,0.000431,0.048539
107045000,0.0324,0.013523,0.002678,0.000431,0.049009
107046000,0.0324,0.013523,0.002678,0.000431,0.041958
107047000,0.0324,0.013523,0.002678,0.000431,0.042545
107048000,0.0324,0.013523,0.002678,0.000431,0.036551
107049000,0.0324,0.013523,0.002678,0.000431,0.037374
107050000,0.0324,0.013523,0.002678,0.000431,0.032673
107051000,0.0324,0.013523,0.002678,0.000431,0.032673
107052000,0.0324,0.013523,0.002678,0.000431,0.028912
107053000,0.0324,0.013523,0.002678,0.000431,0.034436
107054000,0.0324,0.013523,0.002678,0.000431,0.026561
107055000,0.0324,0.013523,0.002678,0.000431,0.026209
107056000,0.0324,0.013523,0.002678,0.000431,0.024798
107057000,0.0324,0.013523,0.002678,0.000431,0.022565
107058000,0.0324,0.013523,0.002678,0.000431,0.028089
107059000,0.0324,0.013523,0.002678,0.000431,0.021508
107060000,0.0324,0.013523,0.002678,0.000431,0.026679
107061000,0.0324,0.013523,0.002678,0.000431,0.021978
107062000,0.0324,0.013523,0.002678,0.000431,0.018687
107063000,0.0324,0.013523,0.002678,0.000431,0.016571
107064000,0.0324,0.013523,0.002678,0.000431,0.016219
107065000,0.0324,0.013523,0.002678,0.000431,0.016336
107066000,0.0324,0.013523,0.002678,0.000431,0.017629
107067000,0.0324,0.013523,0.002678,0.000431,0.019627
107068000,0.0324,0.013523,0.002678,0.000431,0.014809
107069000,0.0324,0.013523,0.002678,0.000431,0.012928
107070000,0.0324,0.013523,0.002678,0.000431,0.013398
107071000,0.0324,0.013523,0.002678,0.000431,0.015631
107072000,0.0324,0.013523,0.002678,0.000431,0.011870
107073000,0.0324,0.013523,0.002678,0.000431,0.013516
107074000,0.0324,0.013523,0.002678,0.000431,0.008932
107075000,0.0324,0.013523,0.002678,0.000431,0.009520
107076000,0.0324,0.013523,0.002678,0.000431,0.010813
107077000,0.0324,0.013523,0.002678,0.000431,0.008345
107078000,0.0324,0.013523,0.002678,0.000431,0.006934
107079000,0.0324,0.013523,0.002678,0.000431,0.004349
107080000,0.0324,0.013523,0.002678,0.000431,0.004584
107081000,0.0324,0.013523,0.002678,0.000431,0.004584
107082000,0.0324,0.013523,0.002678,0.000431,0.004466
107083000,0.0324,0.013523,0.002678,0.000431,0.004584
107084000,0.0324,0.013523,0.002678,0.000431,0.004349
107085000,0.0324,0.013523,0.002678,0.000431,0.004584
107086000,0.0324,0.013523,0.002678,0.000431,0.006229
107087000,0.0324,0.013523,0.002678,0.000431,0.005289
107088000,0.0324,0.013523,0.002678,0.000431,0.002703
107089000,0.0324,0.013523,0.002678,0.000431,0.002938
107090000,0.0324,0.013523,0.002678,0.000431,0.002468
107091000,0.0324,0.013523,0.002678,0.000431,0.003291
107092000,0.0324,0.013523,0.002678,0.000431,0.002468
107093000,0.0324,0.013523,0.002678,0.000431,0.002821
107094000,0.0324,0.013523,0.002678,0.000431,0.002938
107095000,0.0324,0.013523,0.002678,0.000431,0.002586
107096000,0.0324,0.013523,0.002678,0.000431,0.003173
107097000,0.0324,0.013523,0.002678,0.000431,0.002468
107098000,0.0324,0.013523,0.002678,0.000431,0.003056
107099000,0.0324,0.013523,0.002678,0.000431,0.002938
107100000,0.0324,0.013523,0.002678,0.000431,0.002703
107101000,0.0324,0.013523,0.002678,0.000431,0.003056
107102000,0.0324,0.013523,0.002678,0.000431,0.002586
107103000,0.0324,0.013523,0.002678,0.000431,0.004231
107104000,0.0324,0.013523,0.002678,0.000431,0.002351
107105000,0.0324,0.013523,0.002678,0.000431,0.001880
107106000,0.0324,0.013523,0.002678,0.000431,0.002116
107107000,0.0324,0.013523,0.002678,0.000431,0.001880
107108000,0.0324,0.013523,0.002678,0.000431,0.001763
107109000,0.0324,0.013523,0.002678,0.000431,0.002351
107110000,0.0324,0.013523,0.002678,0.000431,0.001763
107111000,0.0324,0.013523,0.002678,0.000431,0.002351
107112000,0.0324,0.013523,0.002678,0.000431,0.001645
107113000,0.0324,0.013523,0.002678,0.000431,0.001998
107114000,0.0324,0.013523,0.002678,0.000431,0.002351
107115000,0.0324,0.013523,0.002678,0.000431,0.001645
107116000,0.0324,0.013523,0.002678,0.000431,0.002468
107117000,0.0324,0.013523,0.002678,0.000431,0.001880
107118000,0.0324,0.013523,0.002678,0.000431,0.001880
107119000,0.0324,0.013523,0.002678,0.000431,0.002351
107120000,0.0324,0.013523,0.002678,0.000431,0.002116
107121000,0.0324,0.013523,0.002678,0.000431,0.002468
107122000,0.0324,0.013523,0.002678,0.000431,0.003291
107123000,0.0324,0.013523,0.002678,0.000431,0.001175
107124000,0.0324,0.013523,0.002678,0.000431,0.001175
107125000,0.0324,0.013523,0.002678,0.000431,0.000940
107126000,0.0324,0.013523,0.002678,0.000431,0.001410
107127000,0.0324,0.013523,0.002678,0.000431,0.000823
107128000,0.0324,0.013523,0.002678,0.000431,0.001293
107129000,0.0324,0.013523,0.002678,0.000431,0.001058
107130000,0.0324,0.013523,0.002678,0.000431,0.001058
107131000,0.0324,0.013523,0.002678,0.000431,0.001410
107132000,0.0324,0.013523,0.002678,0.000431,0.000823
107133000,0.0324,0.013523,0.002678,0.000431,0.000940
107134000,0.0324,0.013523,0.002678,0.000431,0.001410
107135000,0.0324,0.013523,0.002678,0.000431,0.001058
107136000,0.0324,0.013523,0.002678,0.000431,0.001410
107137000,0.0324,0.013523,0.002678,0.000431,0.000823
107138000,0.0324,0.013523,0.002678,0.000431,0.001293
107139000,0.0324,0.013523,0.002678,0.000431,0.001293
107140000,0.0324,0.013523,0.002678,0.000431,0.000823
107141000,0.0324,0.013523,0.002678,0.000431,0.071457
107142000,0.0324,0.013523,0.002678,0.000431,0.653692
107143000,0.0324,0.013523,0.002678,0.000431,0.589521
107144000,0.0324,0.013523,0.002678,0.000431,0.144560
107145000,0.0324,0.013523,0.002678,0.000431,0.138331
107146000,0.0324,0.013523,0.002678,0.000431,0.588934
107147000,0.0324,0.013523,0.002678,0.000431,0.242108
107148000,0.0324,0.013523,0.002678,0.000431,0.308982
107149000,0.0324,0.013523,0.002678,0.000431,0.300520
107150000,0.0324,0.013523,0.002678,0.000431,0.143619
107151000,0.0324,0.013523,0.002678,0.000431,0.132689
107152000,0.0324,0.013523,0.002678,0.000431,0.244224
107153000,0.0324,0.013523,0.002678,0.000431,0.492913
107154000,0.0324,0.013523,0.002678,0.000431,0.206262
107155000,0.0324,0.013523,0.002678,0.000431,0.193922
107156000,0.0324,0.013523,0.002678,0.000431,0.165127
107157000,0.0324,0.013523,0.002678,0.000431,0.143502
107158000,0.0324,0.013523,0.002678,0.000431,0.131044
107159000,0.0324,0.013523,0.002678,0.000431,0.113885
107160000,0.0324,0.013523,0.002678,0.000431,0.106481
107161000,0.0324,0.013523,0.002678,0.000431,0.099194
107162000,0.0324,0.013523,0.002678,0.000431,0.076158
107163000,0.0324,0.013523,0.002678,0.000431,0.078274
107164000,0.0324,0.013523,0.002678,0.000431,0.065463
107165000,0.0324,0.013523,0.002678,0.000431,0.064170
107166000,0.0324,0.013523,0.002678,0.000431,0.060762
107167000,0.0324,0.013523,0.002678,0.000431,0.047951
107168000,0.0324,0.013523,0.002678,0.000431,0.052418
107169000,0.0324,0.013523,0.002678,0.000431,0.034436
107170000,0.0324,0.013523,0.002678,0.000431,0.038667
107171000,0.0324,0.013523,0.002678,0.000431,0.025856
107172000,0.0324,0.013523,0.002678,0.000431,0.026091
107173000,0.0324,0.013523,0.002678,0.000431,0.017394
107174000,0.0324,0.013523,0.002678,0.000431,0.014573
107175000,0.0324,0.013523,0.002678,0.000431,0.016101
107176000,0.0324,0.013523,0.002678,0.000431,0.018922
107177000,0.0324,0.013523,0.002678,0.000431,0.017394
107178000,0.0324,0.013523,0.002678,0.000431,0.014103
107179000,0.0324,0.013523,0.002678,0.000431,0.011988
107180000,0.0324,0.013523,0.002678,0.000431,0.015161
107181000,0.0324,0.013523,0.002678,0.000431,0.007874
107182000,0.0324,0.013523,0.002678,0.000431,0.010342
107183000,0.0324,0.013523,0.002678,0.000431,0.007287
107184000,0.0324,0.013523,0.002678,0.000431,0.008462
107185000,0.0324,0.013523,0.002678,0.000431,0.008109
107186000,0.0324,0.013523,0.002678,0.000431,0.007287
107187000,0.0324,0.013523,0.002678,0.000431,0.006699
107188000,0.0324,0.013523,0.002678,0.000431,0.006229
107189000,0.0324,0.013523,0.002678,0.000431,0.005171
107190000,0.0324,0.013523,0.002678,0.000431,0.008109
107191000,0.0324,0.013523,0.002678,0.000431,0.004584
107192000,0.0324,0.013523,0.002678,0.000431,0.004231
107193000,0.0324,0.013523,0.002678,0.000431,0.004701
107194000,0.0324,0.013523,0.002678,0.000431,0.004231
107195000,0.0324,0.013523,0.002678,0.000431,0.004936
107196000,0.0324,0.013523,0.002678,0.000431,0.007874
107197000,0.0324,0.013523,0.002678,0.000431,0.003761
107198000,0.0324,0.013523,0.002678,0.000431,0.003761
107199000,0.0324,0.013523,0.002678,0.000431,0.003408
107200000,0.0324,0.013523,0.002678,0.000431,0.003878
107201000,0.0324,0.013523,0.002678,0.000431,0.003291
107202000,0.0324,0.013523,0.002678,0.000431,0.003643
107203000,0.0324,0.013523,0.002678,0.000431,0.003643
107204000,0.0324,0.013523,0.002678,0.000431,0.003526
107205000,0.0324,0.013523,0.002678,0.000431,0.003643
107206000,0.0324,0.013523,0.002678,0.000431,0.003291
107207000,0.0324,0.013523,0.002678,0.000431,0.003643
107208000,0.0324,0.013523,0.002678,0.000431,0.003761
107209000,0.0324,0.013523,0.002678,0.000431,0.003291
107210000,0.0324,0.013523,0.002678,0.000431,0.003996
107211000,0.0324,0.013523,0.002678,0.000431,0.003408
107212000,0.0324,0.013523,0.002678,0.000431,0.003408
107213000,0.0324,0.013523,0.002678,0.000431,0.003643
107214000,0.0324,0.013523,0.002678,0.000431,0.003643
107215000,0.0324,0.013523,0.002678,0.000431,0.003643
107216000,0.0324,0.013523,0.002678,0.000431,0.003526
107217000,0.0324,0.013523,0.002678,0.000431,0.003408
107218000,0.0324,0.013523,0.002678,0.000431,0.003878
107219000,0.0324,0.013523,0.002678,0.000431,0.003526
107220000,0.0324,0.013523,0.002678,0.000431,0.003526
107221000,0.0324,0.013523,0.002678,0.000431,0.003643
107222000,0.0324,0.013523,0.002678,0.000431,0.005994
107223000,0.0324,0.013523,0.002678,0.000431,0.002938
107224000,0.0324,0.013523,0.002678,0.000431,0.003761
107225000,0.0324,0.013523,0.002678,0.000431,0.001998
107226000,0.0324,0.013523,0.002678,0.000431,0.001763
107227000,0.0324,0.013523,0.002678,0.000431,0.001763
107228000,0.0324,0.013523,0.002678,0.000431,0.001998
107229000,0.0324,0.013523,0.002678,0.000431,0.001645
107230000,0.0324,0.013523,0.002678,0.000431,0.002233
107231000,0.0324,0.013523,0.002678,0.000431,0.001528
107232000,0.0324,0.013523,0.002678,0.000431,0.001998
107233000,0.0324,0.013523,0.002678,0.000431,0.001998
107234000,0.0324,0.013523,0.002678,0.000431,0.001645
107235000,0.0324,0.013523,0.002678,0.000431,0.001645
107236000,0.0324,0.013523,0.002678,0.000431,0.002116
107237000,0.0324,0.013523,0.002678,0.000431,0.001998
107238000,0.0324,0.013523,0.002678,0.000431,0.001763
107239000,0.0324,0.013523,0.002678,0.000431,0.001880
107240000,0.0324,0.013523,0.002678,0.000431,0.001763
107241000,0.0324,0.013523,0.002678,0.000431,0.006111
107242000,0.0324,0.013523,0.002678,0.000431,0.536164
107243000,0.0324,0.013523,0.002678,0.000431,0.718567
107244000,0.0324,0.013523,0.002678,0.000431,0.188515
107245000,0.0324,0.013523,0.002678,0.000431,0.144560
107246000,0.0324,0.013523,0.002678,0.000431,0.418753
107247000,0.0324,0.013523,0.002678,0.000431,0.422161
107248000,0.0324,0.013523,0.002678,0.000431,0.267964
107249000,0.0324,0.013523,0.002678,0.000431,0.312390
107250000,0.0324,0.013523,0.002678,0.000431,0.159016
107251000,0.0324,0.013523,0.002678,0.000431,0.160661
107252000,0.0324,0.013523,0.002678,0.000431,0.125285
107253000,0.0324,0.013523,0.002678,0.000431,0.478340
107254000,0.0324,0.013523,0.002678,0.000431,0.170886
107255000,0.0324,0.013523,0.002678,0.000431,0.129399
107256000,0.0324,0.013523,0.002678,0.000431,0.124697
107257000,0.0324,0.013523,0.002678,0.000431,0.122817
107258000,0.0324,0.013523,0.002678,0.000431,0.098724
107259000,0.0324,0.013523,0.002678,0.000431,0.097196
107260000,0.0324,0.013523,0.002678,0.000431,0.085796
107261000,0.0324,0.013523,0.002678,0.000431,0.076158
107262000,0.0324,0.013523,0.002678,0.000431,0.077804
107263000,0.0324,0.013523,0.002678,0.000431,0.066168
107264000,0.0324,0.013523,0.002678,0.000431,0.059352
107265000,0.0324,0.013523,0.002678,0.000431,0.050302
107266000,0.0324,0.013523,0.002678,0.000431,0.053005
107267000,0.0324,0.013523,0.002678,0.000431,0.038902
107268000,0.0324,0.013523,0.002678,0.000431,0.042428
107269000,0.0324,0.013523,0.002678,0.000431,0.033613
107270000,0.0324,0.013523,0.002678,0.000431,0.034201
107271000,0.0324,0.013523,0.002678,0.000431,0.033496
107272000,0.0324,0.013523,0.002678,0.000431,0.027502
107273000,0.0324,0.013523,0.002678,0.000431,0.028442
107274000,0.0324,0.013523,0.002678,0.000431,0.029617
107275000,0.0324,0.013523,0.002678,0.000431,0.027619
107276000,0.0324,0.013523,0.002678,0.000431,0.023976
107277000,0.0324,0.013523,0.002678,0.000431,0.020215
107278000,0.0324,0.013523,0.002678,0.000431,0.018687
107279000,0.0324,0.013523,0.002678,0.000431,0.021978
107280000,0.0324,0.013523,0.002678,0.000431,0.017982
107281000,0.0324,0.013523,0.002678,0.000431,0.018099
107282000,0.0324,0.013523,0.002678,0.000431,0.020567
107283000,0.0324,0.013523,0.002678,0.000431,0.017512
107284000,0.0324,0.013523,0.002678,0.000431,0.018805
107285000,0.0324,0.013523,0.002678,0.000431,0.017982
107286000,0.0324,0.013523,0.002678,0.000431,0.013398
107287000,0.0324,0.013523,0.002678,0.000431,0.013046
107288000,0.0324,0.013523,0.002678,0.000431,0.010813
107289000,0.0324,0.013523,0.002678,0.000431,0.010695
107290000,0.0324,0.013523,0.002678,0.000431,0.011988
107291000,0.0324,0.013523,0.002678,0.000431,0.008815
107292000,0.0324,0.013523,0.002678,0.000431,0.006817
107293000,0.0324,0.013523,0.002678,0.000431,0.007639
107294000,0.0324,0.013523,0.002678,0.000431,0.006817
107295000,0.0324,0.013523,0.002678,0.000431,0.007874
107296000,0.0324,0.013523,0.002678,0.000431,0.010695
107297000,0.0324,0.013523,0.002678,0.000431,0.005289
107298000,0.0324,0.013523,0.002678,0.000431,0.003408
107299000,0.0324,0.013523,0.002678,0.000431,0.003173
107300000,0.0324,0.013523,0.002678,0.000431,0.002821
107301000,0.0324,0.013523,0.002678,0.000431,0.003643
107302000,0.0324,0.013523,0.002678,0.000431,0.002586
107303000,0.0324,0.013523,0.002678,0.000431,0.002586
107304000,0.0324,0.013523,0.002678,0.000431,0.002821
107305000,0.0324,0.013523,0.002678,0.000431,0.003761
107306000,0.0324,0.013523,0.002678,0.000431,0.002351
107307000,0.0324,0.013523,0.002678,0.000431,0.002703
107308000,0.0324,0.013523,0.002678,0.000431,0.003878
107309000,0.0324,0.013523,0.002678,0.000431,0.001880
107310000,0.0324,0.013523,0.002678,0.000431,0.002468
107311000,0.0324,0.013523,0.002678,0.000431,0.228827
107312000,0.0324,0.013523,0.002678,0.000431,0.664034
107313000,0.0324,0.013523,0.002678,0.000431,0.402887
107314000,0.0324,0.013523,0.002678,0.000431,0.131632
107315000,0.0324,0.013523,0.002678,0.000431,0.136450
107316000,0.0324,0.013523,0.002678,0.000431,0.597631
107317000,0.0324,0.013523,0.002678,0.000431,0.235997
107318000,0.0324,0.013523,0.002678,0.000431,0.324848
107319000,0.0324,0.013523,0.002678,0.000431,0.230708
107320000,0.0324,0.013523,0.002678,0.000431,0.138801
107321000,0.0324,0.013523,0.002678,0.000431,0.147850
107322000,0.0324,0.013523,0.002678,0.000431,0.238112
107323000,0.0324,0.013523,0.002678,0.000431,0.443199
107324000,0.0324,0.013523,0.002678,0.000431,0.170416
107325000,0.0324,0.013523,0.002678,0.000431,0.150906
107326000,0.0324,0.013523,0.002678,0.000431,0.154197
107327000,0.0324,0.013523,0.002678,0.000431,0.124345
107328000,0.0324,0.013523,0.002678,0.000431,0.111534
107329000,0.0324,0.013523,0.002678,0.000431,0.103072
107330000,0.0324,0.013523,0.002678,0.000431,0.087323
107331000,0.0324,0.013523,0.002678,0.000431,0.078156
107332000,0.0324,0.013523,0.002678,0.000431,0.068401
107333000,0.0324,0.013523,0.002678,0.000431,0.069224
107334000,0.0324,0.013523,0.002678,0.000431,0.069342
107335000,0.0324,0.013523,0.002678,0.000431,0.050067
107336000,0.0324,0.013523,0.002678,0.000431,0.047481
107337000,0.0324,0.013523,0.002678,0.000431,0.045131
107338000,0.0324,0.013523,0.002678,0.000431,0.042428
107339000,0.0324,0.013523,0.002678,0.000431,0.035494
107340000,0.0324,0.013523,0.002678,0.000431,0.032320
107341000,0.0324,0.013523,0.002678,0.000431,0.032908
107342000,0.0324,0.013523,0.002678,0.000431,0.029147
107343000,0.0324,0.013523,0.002678,0.000431,0.032320
107344000,0.0324,0.013523,0.002678,0.000431,0.022095
107345000,0.0324,0.013523,0.002678,0.000431,0.020450
107346000,0.0324,0.013523,0.002678,0.000431,0.023506
107347000,0.0324,0.013523,0.002678,0.000431,0.014221
107348000,0.0324,0.013523,0.002678,0.000431,0.014103
107349000,0.0324,0.013523,0.002678,0.000431,0.013751
107350000,0.0324,0.013523,0.002678,0.000431,0.008580
107351000,0.0324,0.013523,0.002678,0.000431,0.006347
107352000,0.0324,0.013523,0.002678,0.000431,0.011753
107353000,0.0324,0.013523,0.002678,0.000431,0.005759
107354000,0.0324,0.013523,0.002678,0.000431,0.457655
107355000,0.0324,0.013523,0.002678,0.000431,0.740075
107356000,0.0324,0.013523,0.002678,0.000431,0.166420
107357000,0.0324,0.013523,0.002678,0.000431,0.133512
107358000,0.0324,0.013523,0.002678,0.000431,0.226829
107359000,0.0324,0.013523,0.002678,0.000431,0.529112
107360000,0.0324,0.013523,0.002678,0.000431,0.263968
107361000,0.0324,0.013523,0.002678,0.000431,0.353995
107362000,0.0324,0.013523,0.002678,0.000431,0.179466
107363000,0.0324,0.013523,0.002678,0.000431,0.152317
107364000,0.0324,0.013523,0.002678,0.000431,0.103660
107365000,0.0324,0.013523,0.002678,0.000431,0.430623
107366000,0.0324,0.013523,0.002678,0.000431,0.280305
107367000,0.0324,0.013523,0.002678,0.000431,0.171004
107368000,0.0324,0.013523,0.002678,0.000431,0.141034
107369000,0.0324,0.013523,0.002678,0.000431,0.135392
107370000,0.0324,0.013523,0.002678,0.000431,0.116823
107371000,0.0324,0.013523,0.002678,0.000431,0.111887
107372000,0.0324,0.013523,0.002678,0.000431,0.095080
107373000,0.0324,0.013523,0.002678,0.000431,0.084503
107374000,0.0324,0.013523,0.002678,0.000431,0.072397
107375000,0.0324,0.013523,0.002678,0.000431,0.066168
107376000,0.0324,0.013523,0.002678,0.000431,0.056178
107377000,0.0324,0.013523,0.002678,0.000431,0.058882
107378000,0.0324,0.013523,0.002678,0.000431,0.053945
107379000,0.0324,0.013523,0.002678,0.000431,0.046424
107380000,0.0324,0.013523,0.002678,0.000431,0.041840
107381000,0.0324,0.013523,0.002678,0.000431,0.037844
107382000,0.0324,0.013523,0.002678,0.000431,0.038197
107383000,0.0324,0.013523,0.002678,0.000431,0.034083
107384000,0.0324,0.013523,0.002678,0.000431,0.029265
107385000,0.0324,0.013523,0.002678,0.000431,0.026796
107386000,0.0324,0.013523,0.002678,0.000431,0.023506
107387000,0.0324,0.013523,0.002678,0.000431,0.024916
107388000,0.0324,0.013523,0.002678,0.000431,0.018687
107389000,0.0324,0.013523,0.002678,0.000431,0.017159
107390000,0.0324,0.013523,0.002678,0.000431,0.014103
107391000,0.0324,0.013523,0.002678,0.000431,0.017159
107392000,0.0324,0.013523,0.002678,0.000431,0.014103
107393000,0.0324,0.013523,0.002678,0.000431,0.011988
107394000,0.0324,0.013523,0.002678,0.000431,0.011635
107395000,0.0324,0.013523,0.002678,0.000431,0.010107
107396000,0.0324,0.013523,0.002678,0.000431,0.012576
107397000,0.0324,0.013523,0.002678,0.000431,0.012458
107398000,0.0324,0.013523,0.002678,0.000431,0.009990
107399000,0.0324,0.013523,0.002678,0.000431,0.006934
107400000,0.0324,0.013523,0.002678,0.000431,0.010460
107401000,0.0324,0.013523,0.002678,0.000431,0.006699
107402000,0.0324,0.013523,0.002678,0.000431,0.006582
107403000,0.0324,0.013523,0.002678,0.000431,0.006464
107404000,0.0324,0.013523,0.002678,0.000431,0.006229
107405000,0.0324,0.013523,0.002678,0.000431,0.007404
107406000,0.0324,0.013523,0.002678,0.000431,0.006229
107407000,0.0324,0.013523,0.002678,0.000431,0.007522
107408000,0.0324,0.013523,0.002678,0.000431,0.005876
107409000,0.0324,0.013523,0.002678,0.000431,0.007639
107410000,0.0324,0.013523,0.002678,0.000431,0.007639
107411000,0.0324,0.013523,0.002678,0.000431,0.005759
107412000,0.0324,0.013523,0.002678,0.000431,0.008227
107413000,0.0324,0.013523,0.002678,0.000431,0.005759
107414000,0.0324,0.013523,0.002678,0.000431,0.007052
107415000,0.0324,0.013523,0.002678,0.000431,0.007287
107416000,0.0324,0.013523,0.002678,0.000431,0.007404
107417000,0.0324,0.013523,0.002678,0.000431,0.004231
107418000,0.0324,0.013523,0.002678,0.000431,0.003291
107419000,0.0324,0.013523,0.002678,0.000431,0.003878
107420000,0.0324,0.013523,0.002678,0.000431,0.003761
107421000,0.0324,0.013523,0.002678,0.000431,0.004113
107422000,0.0324,0.013523,0.002678,0.000431,0.003643
107423000,0.0324,0.013523,0.002678,0.000431,0.003761
107424000,0.0324,0.013523,0.002678,0.000431,0.003408
107425000,0.0324,0.013523,0.002678,0.000431,0.004349
107426000,0.0324,0.013523,0.002678,0.000431,0.003526
107427000,0.0324,0.013523,0.002678,0.000431,0.004701
107428000,0.0324,0.013523,0.002678,0.000431,0.003173
107429000,0.0324,0.013523,0.002678,0.000431,0.001645
107430000,0.0324,0.013523,0.002678,0.000431,0.002351
107431000,0.0324,0.013523,0.002678,0.000431,0.001998
107432000,0.0324,0.013523,0.002678,0.000431,0.001880
107433000,0.0324,0.013523,0.002678,0.000431,0.002351
107434000,0.0324,0.013523,0.002678,0.000431,0.001645
107435000,0.0324,0.013523,0.002678,0.000431,0.002351
107436000,0.0324,0.013523,0.002678,0.000431,0.002116
107437000,0.0324,0.013523,0.002678,0.000431,0.001880
107438000,0.0324,0.013523,0.002678,0.000431,0.002351
107439000,0.0324,0.013523,0.002678,0.000431,0.001998
107440000,0.0324,0.013523,0.002678,0.000431,0.001880
107441000,0.0324,0.013523,0.002678,0.000431,0.002468
107442000,0.0324,0.013523,0.002678,0.000431,0.001763
107443000,0.0324,0.013523,0.002678,0.000431,0.002116
107444000,0.0324,0.013523,0.002678,0.000431,0.001998
107445000,0.0324,0.013523,0.002678,0.000431,0.001763
107446000,0.0324,0.013523,0.002678,0.000431,0.001410
107447000,0.0324,0.013523,0.002678,0.000431,0.000823
107448000,0.0324,0.013523,0.002678,0.000431,0.000823
107449000,0.0324,0.013523,0.002678,0.000431,0.000940
107450000,0.0324,0.013523,0.002678,0.000431,0.000823
107451000,0.0324,0.013523,0.002678,0.000431,0.000823
107452000,0.0324,0.013523,0.002678,0.000431,0.000940
107453000,0.0324,0.013523,0.002678,0.000431,0.000823
107454000,0.0324,0.013523,0.002678,0.000431,0.000823
107455000,0.0324,0.013523,0.002678,0.000431,0.000940
107456000,0.0324,0.013523,0.002678,0.000431,0.000705
107457000,0.0324,0.013523,0.002678,0.000431,0.000940
107458000,0.0324,0.013523,0.002678,0.000431,0.000823
107459000,0.0324,0.013523,0.002678,0.000431,0.000823
107460000,0.0324,0.013523,0.002678,0.000431,0.000940
107461000,0.0324,0.013523,0.002678,0.000431,0.000823
107462000,0.0324,0.013523,0.002678,0.000431,0.000823
107463000,0.0324,0.013523,0.002678,0.000431,0.000940
107464000,0.0324,0.013523,0.002678,0.000431,0.000705
107465000,0.0324,0.013523,0.002678,0.000431,0.000940
107466000,0.0324,0.013523,0.002678,0.000431,0.000823
107467000,0.0324,0.013523,0.002678,0.000431,0.014573
107468000,0.0324,0.013523,0.002678,0.000431,0.656512
107469000,0.0324,0.013523,0.002678,0.000431,0.590932
107470000,0.0324,0.013523,0.002678,0.000431,0.153844
107471000,0.0324,0.013523,0.002678,0.000431,0.133159
107472000,0.0324,0.013523,0.002678,0.000431,0.567426
107473000,0.0324,0.013523,0.002678,0.000431,0.314858
107474000,0.0324,0.013523,0.002678,0.000431,0.266789
107475000,0.0324,0.013523,0.002678,0.000431,0.302988
107476000,0.0324,0.013523,0.002678,0.000431,0.151376
107477000,0.0324,0.013523,0.002678,0.000431,0.155255
107478000,0.0324,0.013523,0.002678,0.000431,0.145617
107479000,0.0324,0.013523,0.002678,0.000431,0.474931
107480000,0.0324,0.013523,0.002678,0.000431,0.164187
107481000,0.0324,0.013523,0.002678,0.000431,0.131161
107482000,0.0324,0.013523,0.002678,0.000431,0.111417
107483000,0.0324,0.013523,0.002678,0.000431,0.109536
107484000,0.0324,0.013523,0.002678,0.000431,0.087558
107485000,0.0324,0.013523,0.002678,0.000431,0.076158
107486000,0.0324,0.013523,0.002678,0.000431,0.065228
107487000,0.0324,0.013523,0.002678,0.000431,0.059587
107488000,0.0324,0.013523,0.002678,0.000431,0.057236
107489000,0.0324,0.013523,0.002678,0.000431,0.047364
107490000,0.0324,0.013523,0.002678,0.000431,0.044778
107491000,0.0324,0.013523,0.002678,0.000431,0.038902
107492000,0.0324,0.013523,0.002678,0.000431,0.035494
107493000,0.0324,0.013523,0.002678,0.000431,0.035494
107494000,0.0324,0.013523,0.002678,0.000431,0.035846
107495000,0.0324,0.013523,0.002678,0.000431,0.033613
107496000,0.0324,0.013523,0.002678,0.000431,0.030792
107497000,0.0324,0.013523,0.002678,0.000431,0.027384
107498000,0.0324,0.013523,0.002678,0.000431,0.026796
107499000,0.0324,0.013523,0.002678,0.000431,0.027737
107500000,0.0324,0.013523,0.002678,0.000431,0.021038
107501000,0.0324,0.013523,0.002678,0.000431,0.023858
107502000,0.0324,0.013523,0.002678,0.000431,0.021860
107503000,0.0324,0.013523,0.002678,0.000431,0.016101
107504000,0.0324,0.013523,0.002678,0.000431,0.014456
107505000,0.0324,0.013523,0.002678,0.000431,0.015514
107506000,0.0324,0.013523,0.002678,0.000431,0.013163
107507000,0.0324,0.013523,0.002678,0.000431,0.010813
107508000,0.0324,0.013523,0.002678,0.000431,0.010460
107509000,0.0324,0.013523,0.002678,0.000431,0.009990
107510000,0.0324,0.013523,0.002678,0.000431,0.009990
107511000,0.0324,0.013523,0.002678,0.000431,0.010695
107512000,0.0324,0.013523,0.002678,0.000431,0.009167
107513000,0.0324,0.013523,0.002678,0.000431,0.006817
107514000,0.0324,0.013523,0.002678,0.000431,0.008345
107515000,0.0324,0.013523,0.002678,0.000431,0.006464
107516000,0.0324,0.013523,0.002678,0.000431,0.005641
107517000,0.0324,0.013523,0.002678,0.000431,0.005994
107518000,0.0324,0.013523,0.002678,0.000431,0.007639
107519000,0.0324,0.013523,0.002678,0.000431,0.005289
107520000,0.0324,0.013523,0.002678,0.000431,0.006582
107521000,0.0324,0.013523,0.002678,0.000431,0.005759
107522000,0.0324,0.013523,0.002678,0.000431,0.004231
107523000,0.0324,0.013523,0.002678,0.000431,0.004231
107524000,0.0324,0.013523,0.002678,0.000431,0.004113
107525000,0.0324,0.013523,0.002678,0.000431,0.005406
107526000,0.0324,0.013523,0.002678,0.000431,0.003643
107527000,0.0324,0.013523,0.002678,0.000431,0.003408
107528000,0.0324,0.013523,0.002678,0.000431,0.002586
107529000,0.0324,0.013523,0.002678,0.000431,0.004936
107530000,0.0324,0.013523,0.002678,0.000431,0.001880
107531000,0.0324,0.013523,0.002678,0.000431,0.002586
107532000,0.0324,0.013523,0.002678,0.000431,0.001880
107533000,0.0324,0.013523,0.002678,0.000431,0.000940
107534000,0.0324,0.013523,0.002678,0.000431,0.000940
107535000,0.0324,0.013523,0.002678,0.000431,0.000705
107536000,0.0324,0.013523,0.002678,0.000431,0.000940
107537000,0.0324,0.013523,0.002678,0.000431,0.000705
107538000,0.0324,0.013523,0.002678,0.000431,0.000940
107539000,0.0324,0.013523,0.002678,0.000431,0.000940
107540000,0.0324,0.013523,0.002678,0.000431,0.000823
107541000,0.0324,0.013523,0.002678,0.000431,0.000823
107542000,0.0324,0.013523,0.002678,0.000431,0.000940
107543000,0.0324,0.013523,0.002678,0.000431,0.000940
107544000,0.0324,0.013523,0.002678,0.000431,0.000705
107545000,0.0324,0.013523,0.002678,0.000431,0.000940
107546000,0.0324,0.013523,0.002678,0.000431,0.000940
107547000,0.0324,0.013523,0.002678,0.000431,0.000940
107548000,0.0324,0.013523,0.002678,0.000431,0.000705
107549000,0.0324,0.013523,0.002678,0.000431,0.000940
107550000,0.0324,0.013523,0.002678,0.000431,0.002586
107551000,0.0324,0.013523,0.002678,0.000431,0.402769
107552000,0.0324,0.013523,0.002678,0.000431,0.691771
107553000,0.0324,0.013523,0.002678,0.000431,0.223068
107554000,0.0324,0.013523,0.002678,0.000431,0.133042
107555000,0.0324,0.013523,0.002678,0.000431,0.148791
107556000,0.0324,0.013523,0.002678,0.000431,0.613850
107557000,0.0324,0.013523,0.002678,0.000431,0.262323
107558000,0.0324,0.013523,0.002678,0.000431,0.244694
107559000,0.0324,0.013523,0.002678,0.000431,0.218720
107560000,0.0324,0.013523,0.002678,0.000431,0.138448
107561000,0.0324,0.013523,0.002678,0.000431,0.170533
107562000,0.0324,0.013523,0.002678,0.000431,0.144677
107563000,0.0324,0.013523,0.002678,0.000431,0.473639
107564000,0.0324,0.013523,0.002678,0.000431,0.176175
107565000,0.0324,0.013523,0.002678,0.000431,0.145030
107566000,0.0324,0.013523,0.002678,0.000431,0.129281
107567000,0.0324,0.013523,0.002678,0.000431,0.107186
107568000,0.0324,0.013523,0.002678,0.000431,0.097666
107569000,0.0324,0.013523,0.002678,0.000431,0.086853
107570000,0.0324,0.013523,0.002678,0.000431,0.079802
107571000,0.0324,0.013523,0.002678,0.000431,0.065346
107572000,0.0324,0.013523,0.002678,0.000431,0.059704
107573000,0.0324,0.013523,0.002678,0.000431,0.050537
107574000,0.0324,0.013523,0.002678,0.000431,0.048657
107575000,0.0324,0.013523,0.002678,0.000431,0.046659
107576000,0.0324,0.013523,0.002678,0.000431,0.035846
107577000,0.0324,0.013523,0.002678,0.000431,0.032673
107578000,0.0324,0.013523,0.002678,0.000431,0.028207
107579000,0.0324,0.013523,0.002678,0.000431,0.027502
107580000,0.0324,0.013523,0.002678,0.000431,0.023858
107581000,0.0324,0.013523,0.002678,0.000431,0.024798
107582000,0.0324,0.013523,0.002678,0.000431,0.019627
107583000,0.0324,0.013523,0.002678,0.000431,0.017159
107584000,0.0324,0.013523,0.002678,0.000431,0.020567
107585000,0.0324,0.013523,0.002678,0.000431,0.017512
107586000,0.0324,0.013523,0.002678,0.000431,0.016807
107587000,0.0324,0.013523,0.002678,0.000431,0.015866
107588000,0.0324,0.013523,0.002678,0.000431,0.010460
107589000,0.0324,0.013523,0.002678,0.000431,0.013868
107590000,0.0324,0.013523,0.002678,0.000431,0.006934
107591000,0.0324,0.013523,0.002678,0.000431,0.005876
107592000,0.0324,0.013523,0.002678,0.000431,0.006347
107593000,0.0324,0.013523,0.002678,0.000431,0.009990
107594000,0.0324,0.013523,0.002678,0.000431,0.004584
107595000,0.0324,0.013523,0.002678,0.000431,0.004349
107596000,0.0324,0.013523,0.002678,0.000431,0.004349
107597000,0.0324,0.013523,0.002678,0.000431,0.005641
107598000,0.0324,0.013523,0.002678,0.000431,0.003526
107599000,0.0324,0.013523,0.002678,0.000431,0.003173
107600000,0.0324,0.013523,0.002678,0.000431,0.003526
107601000,0.0324,0.013523,0.002678,0.000431,0.003643
107602000,0.0324,0.013523,0.002678,0.000431,0.003408
107603000,0.0324,0.013523,0.002678,0.000431,0.006699
107604000,0.0324,0.013523,0.002678,0.000431,0.002703
107605000,0.0324,0.013523,0.002678,0.000431,0.002586
107606000,0.0324,0.013523,0.002678,0.000431,0.002586
107607000,0.0324,0.013523,0.002678,0.000431,0.003996
107608000,0.0324,0.013523,0.002678,0.000431,0.001645
107609000,0.0324,0.013523,0.002678,0.000431,0.002938
107610000,0.0324,0.013523,0.002678,0.000431,0.000940
107611000,0.0324,0.013523,0.002678,0.000431,0.000705
107612000,0.0324,0.013523,0.002678,0.000431,0.000940
107613000,0.0324,0.013523,0.002678,0.000431,0.000940
107614000,0.0324,0.013523,0.002678,0.000431,0.000823
107615000,0.0324,0.013523,0.002678,0.000431,0.000823
107616000,0.0324,0.013523,0.002678,0.000431,0.000940
107617000,0.0324,0.013523,0.002678,0.000431,0.000823
107618000,0.0324,0.013523,0.002678,0.000431,0.000940
107619000,0.0324,0.013523,0.002678,0.000431,0.000823
107620000,0.0324,0.013523,0.002678,0.000431,0.000940
107621000,0.0324,0.013523,0.002678,0.000431,0.000823
107622000,0.0324,0.013523,0.002678,0.000431,0.000823
107623000,0.0324,0.013523,0.002678,0.000431,0.000940
107624000,0.0324,0.013523,0.002678,0.000431,0.000940
107625000,0.0324,0.013523,0.002678,0.000431,0.000823
107626000,0.0324,0.013523,0.002678,0.000431,0.000823
107627000,0.0324,0.013523,0.002678,0.000431,0.000940
107628000,0.0324,0.013523,0.002678,0.000431,0.000940
107629000,0.0324,0.013523,0.002678,0.000431,0.000705
107630000,0.0324,0.013523,0.002678,0.000431,0.000940
107631000,0.0324,0.013523,0.002678,0.000431,0.000940
107632000,0.0324,0.013523,0.002678,0.000431,0.000940
107633000,0.0324,0.013523,0.002678,0.000431,0.000823
107634000,0.0324,0.013523,0.002678,0.000431,0.000823
107635000,0.0324,0.013523,0.002678,0.000431,0.000940
107636000,0.0324,0.013523,0.002678,0.000431,0.000823
107637000,0.0324,0.013523,0.002678,0.000431,0.000940
107638000,0.0324,0.013523,0.002678,0.000431,0.000823
107639000,0.0324,0.013523,0.002678,0.000431,0.000940
107640000,0.0324,0.013523,0.002678,0.000431,0.000823
107641000,0.0324,0.013523,0.002678,0.000431,0.002233
107642000,0.0324,0.013523,0.002678,0.000431,0.441788
107643000,0.0324,0.013523,0.002678,0.000431,0.713984
107644000,0.0324,0.013523,0.002678,0.000431,0.180288
107645000,0.0324,0.013523,0.002678,0.000431,0.134687
107646000,0.0324,0.013523,0.002678,0.000431,0.182521
107647000,0.0324,0.013523,0.002678,0.000431,0.618433
107648000,0.0324,0.013523,0.002678,0.000431,0.240933
107649000,0.0324,0.013523,0.002678,0.000431,0.277602
107650000,0.0324,0.013523,0.002678,0.000431,0.197212
107651000,0.0324,0.013523,0.002678,0.000431,0.139976
107652000,0.0324,0.013523,0.002678,0.000431,0.159251
107653000,0.0324,0.013523,0.002678,0.000431,0.187810
107654000,0.0324,0.013523,0.002678,0.000431,0.496439
107655000,0.0324,0.013523,0.002678,0.000431,0.210846
107656000,0.0324,0.013523,0.002678,0.000431,0.162541
107657000,0.0324,0.013523,0.002678,0.000431,0.134100
107658000,0.0324,0.013523,0.002678,0.000431,0.106128
107659000,0.0324,0.013523,0.002678,0.000431,0.098724
107660000,0.0324,0.013523,0.002678,0.000431,0.087441
107661000,0.0324,0.013523,0.002678,0.000431,0.079919
107662000,0.0324,0.013523,0.002678,0.000431,0.069812
107663000,0.0324,0.013523,0.002678,0.000431,0.065933
107664000,0.0324,0.013523,0.002678,0.000431,0.053945
107665000,0.0324,0.013523,0.002678,0.000431,0.049597
107666000,0.0324,0.013523,0.002678,0.000431,0.038784
107667000,0.0324,0.013523,0.002678,0.000431,0.042193
107668000,0.0324,0.013523,0.002678,0.000431,0.035964
107669000,0.0324,0.013523,0.002678,0.000431,0.037139
107670000,0.0324,0.013523,0.002678,0.000431,0.031850
107671000,0.0324,0.013523,0.002678,0.000431,0.029852
107672000,0.0324,0.013523,0.002678,0.000431,0.023271
107673000,0.0324,0.013523,0.002678,0.000431,0.035494
107674000,0.0324,0.013523,0.002678,0.000431,0.016689
107675000,0.0324,0.013523,0.002678,0.000431,0.019627
107676000,0.0324,0.013523,0.002678,0.000431,0.014221
107677000,0.0324,0.013523,0.002678,0.000431,0.014926
107678000,0.0324,0.013523,0.002678,0.000431,0.014926
107679000,0.0324,0.013523,0.002678,0.000431,0.018922
107680000,0.0324,0.013523,0.002678,0.000431,0.013516
107681000,0.0324,0.013523,0.002678,0.000431,0.014456
107682000,0.0324,0.013523,0.002678,0.000431,0.010107
107683000,0.0324,0.013523,0.002678,0.000431,0.006934
107684000,0.0324,0.013523,0.002678,0.000431,0.007404
107685000,0.0324,0.013523,0.002678,0.000431,0.007169
107686000,0.0324,0.013523,0.002678,0.000431,0.006464
107687000,0.0324,0.013523,0.002678,0.000431,0.006817
107688000,0.0324,0.013523,0.002678,0.000431,0.012223
107689000,0.0324,0.013523,0.002678,0.000431,0.006347
107690000,0.0324,0.013523,0.002678,0.000431,0.003173
107691000,0.0324,0.013523,0.002678,0.000431,0.007287
107692000,0.0324,0.013523,0.002678,0.000431,0.003878
107693000,0.0324,0.013523,0.002678,0.000431,0.005289
107694000,0.0324,0.013523,0.002678,0.000431,0.514421
107695000,0.0324,0.013523,0.002678,0.000431,0.713984
107696000,0.0324,0.013523,0.002678,0.000431,0.194979
107697000,0.0324,0.013523,0.002678,0.000431,0.145147
107698000,0.0324,0.013523,0.002678,0.000431,0.305338
107699000,0.0324,0.013523,0.002678,0.000431,0.548504
107700000,0.0324,0.013523,0.002678,0.000431,0.261148
107701000,0.0324,0.013523,0.002678,0.000431,0.335660
107702000,0.0324,0.013523,0.002678,0.000431,0.145030
107703000,0.0324,0.013523,0.002678,0.000431,0.167830
107704000,0.0324,0.013523,0.002678,0.000431,0.117763
107705000,0.0324,0.013523,0.002678,0.000431,0.501023
107706000,0.0324,0.013523,0.002678,0.000431,0.227887
107707000,0.0324,0.013523,0.002678,0.000431,0.164069
107708000,0.0324,0.013523,0.002678,0.000431,0.139506
107709000,0.0324,0.013523,0.002678,0.000431,0.118703
107710000,0.0324,0.013523,0.002678,0.000431,0.104365
107711000,0.0324,0.013523,0.002678,0.000431,0.091672
107712000,0.0324,0.013523,0.002678,0.000431,0.082152
107713000,0.0324,0.013523,0.002678,0.000431,0.069342
107714000,0.0324,0.013523,0.002678,0.000431,0.068519
107715000,0.0324,0.013523,0.002678,0.000431,0.052183
107716000,0.0324,0.013523,0.002678,0.000431,0.051830
107717000,0.0324,0.013523,0.002678,0.000431,0.042193
107718000,0.0324,0.013523,0.002678,0.000431,0.044308
107719000,0.0324,0.013523,0.002678,0.000431,0.034201
107720000,0.0324,0.013523,0.002678,0.000431,0.026561
107721000,0.0324,0.013523,0.002678,0.000431,0.032438
107722000,0.0324,0.013523,0.002678,0.000431,0.024211
107723000,0.0324,0.013523,0.002678,0.000431,0.019862
107724000,0.0324,0.013523,0.002678,0.000431,0.021978
107725000,0.0324,0.013523,0.002678,0.000431,0.016571
107726000,0.0324,0.013523,0.002678,0.000431,0.016454
107727000,0.0324,0.013523,0.002678,0.000431,0.010813
107728000,0.0324,0.013523,0.002678,0.000431,0.010813
107729000,0.0324,0.013523,0.002678,0.000431,0.009520
107730000,0.0324,0.013523,0.002678,0.000431,0.010342
107731000,0.0324,0.013523,0.002678,0.000431,0.009872
107732000,0.0324,0.013523,0.002678,0.000431,0.011165
107733000,0.0324,0.013523,0.002678,0.000431,0.010578
107734000,0.0324,0.013523,0.002678,0.000431,0.007757
107735000,0.0324,0.013523,0.002678,0.000431,0.007522
107736000,0.0324,0.013523,0.002678,0.000431,0.005994
107737000,0.0324,0.013523,0.002678,0.000431,0.005876
107738000,0.0324,0.013523,0.002678,0.000431,0.006111
107739000,0.0324,0.013523,0.002678,0.000431,0.004466
107740000,0.0324,0.013523,0.002678,0.000431,0.005406
107741000,0.0324,0.013523,0.002678,0.000431,0.073925
107742000,0.0324,0.013523,0.002678,0.000431,0.685894
107743000,0.0324,0.013523,0.002678,0.000431,0.557554
107744000,0.0324,0.013523,0.002678,0.000431,0.152434
107745000,0.0324,0.013523,0.002678,0.000431,0.174294
107746000,0.0324,0.013523,0.002678,0.000431,0.685894
107747000,0.0324,0.013523,0.002678,0.000431,0.241991
107748000,0.0324,0.013523,0.002678,0.000431,0.295113
107749000,0.0324,0.013523,0.002678,0.000431,0.204264
107750000,0.0324,0.013523,0.002678,0.000431,0.148321
107751000,0.0324,0.013523,0.002678,0.000431,0.114943
107752000,0.0324,0.013523,0.002678,0.000431,0.445549
107753000,0.0324,0.013523,0.002678,0.000431,0.328139
107754000,0.0324,0.013523,0.002678,0.000431,0.197212
107755000,0.0324,0.013523,0.002678,0.000431,0.167360
107756000,0.0324,0.013523,0.002678,0.000431,0.172649
107757000,0.0324,0.013523,0.002678,0.000431,0.139388
107758000,0.0324,0.013523,0.002678,0.000431,0.124697
107759000,0.0324,0.013523,0.002678,0.000431,0.108949
107760000,0.0324,0.013523,0.002678,0.000431,0.099899
107761000,0.0324,0.013523,0.002678,0.000431,0.085443
107762000,0.0324,0.013523,0.002678,0.000431,0.085796
107763000,0.0324,0.013523,0.002678,0.000431,0.076158
107764000,0.0324,0.013523,0.002678,0.000431,0.072397
107765000,0.0324,0.013523,0.002678,0.000431,0.059939
107766000,0.0324,0.013523,0.002678,0.000431,0.061232
107767000,0.0324,0.013523,0.002678,0.000431,0.057354
107768000,0.0324,0.013523,0.002678,0.000431,0.056296
107769000,0.0324,0.013523,0.002678,0.000431,0.058176
107770000,0.0324,0.013523,0.002678,0.000431,0.058764
107771000,0.0324,0.013523,0.002678,0.000431,0.045366
107772000,0.0324,0.013523,0.002678,0.000431,0.048892
107773000,0.0324,0.013523,0.002678,0.000431,0.041958
107774000,0.0324,0.013523,0.002678,0.000431,0.031498
107775000,0.0324,0.013523,0.002678,0.000431,0.029852
107776000,0.0324,0.013523,0.002678,0.000431,0.027149
107777000,0.0324,0.013523,0.002678,0.000431,0.025269
107778000,0.0324,0.013523,0.002678,0.000431,0.029265
107779000,0.0324,0.013523,0.002678,0.000431,0.024211
107780000,0.0324,0.013523,0.002678,0.000431,0.027267
107781000,0.0324,0.013523,0.002678,0.000431,0.022683
107782000,0.0324,0.013523,0.002678,0.000431,0.015984
107783000,0.0324,0.013523,0.002678,0.000431,0.019980
107784000,0.0324,0.013523,0.002678,0.000431,0.016924
107785000,0.0324,0.013523,0.002678,0.000431,0.011635
107786000,0.0324,0.013523,0.002678,0.000431,0.010695
107787000,0.0324,0.013523,0.002678,0.000431,0.013633
107788000,0.0324,0.013523,0.002678,0.000431,0.014338
107789000,0.0324,0.013523,0.002678,0.000431,0.010460
107790000,0.0324,0.013523,0.002678,0.000431,0.011988
107791000,0.0324,0.013523,0.002678,0.000431,0.008109
107792000,0.0324,0.013523,0.002678,0.000431,0.008462
107793000,0.0324,0.013523,0.002678,0.000431,0.009990
107794000,0.0324,0.013523,0.002678,0.000431,0.005641
107795000,0.0324,0.013523,0.002678,0.000431,0.003526
107796000,0.0324,0.013523,0.002678,0.000431,0.006582
107797000,0.0324,0.013523,0.002678,0.000431,0.003056
107798000,0.0324,0.013523,0.002678,0.000431,0.004701
107799000,0.0324,0.013523,0.002678,0.000431,0.002233
107800000,0.0324,0.013523,0.002678,0.000431,0.002351
107801000,0.0324,0.013523,0.002678,0.000431,0.001880
107802000,0.0324,0.013523,0.002678,0.000431,0.002468
107803000,0.0324,0.013523,0.002678,0.000431,0.001293
107804000,0.0324,0.013523,0.002678,0.000431,0.001763
107805000,0.0324,0.013523,0.002678,0.000431,0.001645
107806000,0.0324,0.013523,0.002678,0.000431,0.001410
107807000,0.0324,0.013523,0.002678,0.000431,0.001645
107808000,0.0324,0.013523,0.002678,0.000431,0.001528
107809000,0.0324,0.013523,0.002678,0.000431,0.001763
107810000,0.0324,0.013523,0.002678,0.000431,0.001410
107811000,0.0324,0.013523,0.002678,0.000431,0.001293
107812000,0.0324,0.013523,0.002678,0.000431,0.000823
107813000,0.0324,0.013523,0.002678,0.000431,0.000823
107814000,0.0324,0.013523,0.002678,0.000431,0.000940
107815000,0.0324,0.013523,0.002678,0.000431,0.000823
107816000,0.0324,0.013523,0.002678,0.000431,0.002351
107817000,0.0324,0.013523,0.002678,0.000431,0.499025
107818000,0.0324,0.013523,0.002678,0.000431,0.684837
107819000,0.0324,0.013523,0.002678,0.000431,0.261853
107820000,0.0324,0.013523,0.002678,0.000431,0.146558
107821000,0.0324,0.013523,0.002678,0.000431,0.376560
107822000,0.0324,0.013523,0.002678,0.000431,0.510190
107823000,0.0324,0.013523,0.002678,0.000431,0.291587
107824000,0.0324,0.013523,0.002678,0.000431,0.290765
107825000,0.0324,0.013523,0.002678,0.000431,0.146793
107826000,0.0324,0.013523,0.002678,0.000431,0.132689
107827000,0.0324,0.013523,0.002678,0.000431,0.246104
107828000,0.0324,0.013523,0.002678,0.000431,0.495734
107829000,0.0324,0.013523,0.002678,0.000431,0.225889
107830000,0.0324,0.013523,0.002678,0.000431,0.203089
107831000,0.0324,0.013523,0.002678,0.000431,0.183226
107832000,0.0324,0.013523,0.002678,0.000431,0.152199
107833000,0.0324,0.013523,0.002678,0.000431,0.144207
107834000,0.0324,0.013523,0.002678,0.000431,0.120701
107835000,0.0324,0.013523,0.002678,0.000431,0.116588
107836000,0.0324,0.013523,0.002678,0.000431,0.106245
107837000,0.0324,0.013523,0.002678,0.000431,0.102955
107838000,0.0324,0.013523,0.002678,0.000431,0.092965
107839000,0.0324,0.013523,0.002678,0.000431,0.069812
107840000,0.0324,0.013523,0.002678,0.000431,0.068166
107841000,0.0324,0.013523,0.002678,0.000431,0.060292
107842000,0.0324,0.013523,0.002678,0.000431,0.058294
107843000,0.0324,0.013523,0.002678,0.000431,0.042193
107844000,0.0324,0.013523,0.002678,0.000431,0.053005
107845000,0.0324,0.013523,0.002678,0.000431,0.037139
107846000,0.0324,0.013523,0.002678,0.000431,0.043485
107847000,0.0324,0.013523,0.002678,0.000431,0.037021
107848000,0.0324,0.013523,0.002678,0.000431,0.033143
107849000,0.0324,0.013523,0.002678,0.000431,0.021155
107850000,0.0324,0.013523,0.002678,0.000431,0.018805
107851000,0.0324,0.013523,0.002678,0.000431,0.018805
107852000,0.0324,0.013523,0.002678,0.000431,0.013633
107853000,0.0324,0.013523,0.002678,0.000431,0.016219
107854000,0.0324,0.013523,0.002678,0.000431,0.007757
107855000,0.0324,0.013523,0.002678,0.000431,0.007757
107856000,0.0324,0.013523,0.002678,0.000431,0.009050
107857000,0.0324,0.013523,0.002678,0.000431,0.008227
107858000,0.0324,0.013523,0.002678,0.000431,0.008697
107859000,0.0324,0.013523,0.002678,0.000431,0.004819
107860000,0.0324,0.013523,0.002678,0.000431,0.010930
107861000,0.0324,0.013523,0.002678,0.000431,0.003408
107862000,0.0324,0.013523,0.002678,0.000431,0.003173
107863000,0.0324,0.013523,0.002678,0.000431,0.005406
107864000,0.0324,0.013523,0.002678,0.000431,0.004701
107865000,0.0324,0.013523,0.002678,0.000431,0.001645
107866000,0.0324,0.013523,0.002678,0.000431,0.001645
107867000,0.0324,0.013523,0.002678,0.000431,0.001645
107868000,0.0324,0.013523,0.002678,0.000431,0.001645
107869000,0.0324,0.013523,0.002678,0.000431,0.001645
107870000,0.0324,0.013523,0.002678,0.000431,0.001645
107871000,0.0324,0.013523,0.002678,0.000431,0.001763
107872000,0.0324,0.013523,0.002678,0.000431,0.001528
107873000,0.0324,0.013523,0.002678,0.000431,0.003996
107874000,0.0324,0.013523,0.002678,0.000431,0.013046
107875000,0.0324,0.013523,0.002678,0.000431,0.651459
107876000,0.0324,0.013523,0.002678,0.000431,0.620314
107877000,0.0324,0.013523,0.002678,0.000431,0.186165
107878000,0.0324,0.013523,0.002678,0.000431,0.141857
107879000,0.0324,0.013523,0.002678,0.000431,0.518182
107880000,0.0324,0.013523,0.002678,0.000431,0.315563
107881000,0.0324,0.013523,0.002678,0.000431,0.290882
107882000,0.0324,0.013523,0.002678,0.000431,0.259620
107883000,0.0324,0.013523,0.002678,0.000431,0.142327
107884000,0.0324,0.013523,0.002678,0.000431,0.188515
107885000,0.0324,0.013523,0.002678,0.000431,0.088029
107886000,0.0324,0.013523,0.002678,0.000431,0.500317
107887000,0.0324,0.013523,0.002678,0.000431,0.206144
107888000,0.0324,0.013523,0.002678,0.000431,0.151024
107889000,0.0324,0.013523,0.002678,0.000431,0.148438
107890000,0.0324,0.013523,0.002678,0.000431,0.128693
107891000,0.0324,0.013523,0.002678,0.000431,0.112004
107892000,0.0324,0.013523,0.002678,0.000431,0.103190
107893000,0.0324,0.013523,0.002678,0.000431,0.094728
107894000,0.0324,0.013523,0.002678,0.000431,0.076158
107895000,0.0324,0.013523,0.002678,0.000431,0.081447
107896000,0.0324,0.013523,0.002678,0.000431,0.065816
107897000,0.0324,0.013523,0.002678,0.000431,0.065228
107898000,0.0324,0.013523,0.002678,0.000431,0.057824
107899000,0.0324,0.013523,0.002678,0.000431,0.056178
107900000,0.0324,0.013523,0.002678,0.000431,0.046306
107901000,0.0324,0.013523,0.002678,0.000431,0.051830
107902000,0.0324,0.013523,0.002678,0.000431,0.037491
107903000,0.0324,0.013523,0.002678,0.000431,0.041370
107904000,0.0324,0.013523,0.002678,0.000431,0.031615
107905000,0.0324,0.013523,0.002678,0.000431,0.033966
107906000,0.0324,0.013523,0.002678,0.000431,0.027972
107907000,0.0324,0.013523,0.002678,0.000431,0.029147
107908000,0.0324,0.013523,0.002678,0.000431,0.028794
107909000,0.0324,0.013523,0.002678,0.000431,0.021743
107910000,0.0324,0.013523,0.002678,0.000431,0.025386
107911000,0.0324,0.013523,0.002678,0.000431,0.028324
107912000,0.0324,0.013523,0.002678,0.000431,0.022918
107913000,0.0324,0.013523,0.002678,0.000431,0.017042
107914000,0.0324,0.013523,0.002678,0.000431,0.021155
107915000,0.0324,0.013523,0.002678,0.000431,0.015749
107916000,0.0324,0.013523,0.002678,0.000431,0.013751
107917000,0.0324,0.013523,0.002678,0.000431,0.009167
107918000,0.0324,0.013523,0.002678,0.000431,0.008345
107919000,0.0324,0.013523,0.002678,0.000431,0.008697
107920000,0.0324,0.013523,0.002678,0.000431,0.008580
107921000,0.0324,0.013523,0.002678,0.000431,0.010225
107922000,0.0324,0.013523,0.002678,0.000431,0.007522
107923000,0.0324,0.013523,0.002678,0.000431,0.007992
107924000,0.0324,0.013523,0.002678,0.000431,0.007169
107925000,0.0324,0.013523,0.002678,0.000431,0.007992
107926000,0.0324,0.013523,0.002678,0.000431,0.011988
107927000,0.0324,0.013523,0.002678,0.000431,0.008932
107928000,0.0324,0.013523,0.002678,0.000431,0.005054
107929000,0.0324,0.013523,0.002678,0.000431,0.007169
107930000,0.0324,0.013523,0.002678,0.000431,0.003996
107931000,0.0324,0.013523,0.002678,0.000431,0.004349
107932000,0.0324,0.013523,0.002678,0.000431,0.008697
107933000,0.0324,0.013523,0.002678,0.000431,0.002468
107934000,0.0324,0.013523,0.002678,0.000431,0.002821
107935000,0.0324,0.013523,0.002678,0.000431,0.003526
107936000,0.0324,0.013523,0.002678,0.000431,0.003056
107937000,0.0324,0.013523,0.002678,0.000431,0.001528
107938000,0.0324,0.013523,0.002678,0.000431,0.001763
107939000,0.0324,0.013523,0.002678,0.000431,0.001763
107940000,0.0324,0.013523,0.002678,0.000431,0.001645
107941000,0.0324,0.013523,0.002678,0.000431,0.001763
107942000,0.0324,0.013523,0.002678,0.000431,0.001645
107943000,0.0324,0.013523,0.002678,0.000431,0.001880
107944000,0.0324,0.013523,0.002678,0.000431,0.001645
107945000,0.0324,0.013523,0.002678,0.000431,0.001645
107946000,0.0324,0.013523,0.002678,0.000431,0.001645
107947000,0.0324,0.013523,0.002678,0.000431,0.001763
107948000,0.0324,0.013523,0.002678,0.000431,0.001880
107949000,0.0324,0.013523,0.002678,0.000431,0.001528
107950000,0.0324,0.013523,0.002678,0.000431,0.001880
107951000,0.0324,0.013523,0.002678,0.000431,0.001645
107952000,0.0324,0.013523,0.002678,0.000431,0.001645
107953000,0.0324,0.013523,0.002678,0.000431,0.001763
107954000,0.0324,0.013523,0.002678,0.000431,0.001763
107955000,0.0324,0.013523,0.002678,0.000431,0.001880
107956000,0.0324,0.013523,0.002678,0.000431,0.001410
107957000,0.0324,0.013523,0.002678,0.000431,0.001880
107958000,0.0324,0.013523,0.002678,0.000431,0.001763
107959000,0.0324,0.013523,0.002678,0.000431,0.001645
107960000,0.0324,0.013523,0.002678,0.000431,0.001645
107961000,0.0324,0.013523,0.002678,0.000431,0.001763
107962000,0.0324,0.013523,0.002678,0.000431,0.001645
107963000,0.0324,0.013523,0.002678,0.000431,0.001763
107964000,0.0324,0.013523,0.002678,0.000431,0.001763
107965000,0.0324,0.013523,0.002678,0.000431,0.001645
107966000,0.0324,0.013523,0.002678,0.000431,0.001763
107967000,0.0324,0.013523,0.002678,0.000431,0.001645
107968000,0.0324,0.013523,0.002678,0.000431,0.001763
107969000,0.0324,0.013523,0.002678,0.000431,0.001645
107970000,0.0324,0.013523,0.002678,0.000431,0.001763
107971000,0.0324,0.013523,0.002678,0.000431,0.001763
107972000,0.0324,0.013523,0.002678,0.000431,0.001645
107973000,0.0324,0.013523,0.002678,0.000431,0.001880
107974000,0.0324,0.013523,0.002678,0.000431,0.003056
107975000,0.0324,0.013523,0.002678,0.000431,0.000823
107976000,0.0324,0.013523,0.002678,0.000431,0.000940
107977000,0.0324,0.013523,0.002678,0.000431,0.000940
107978000,0.0324,0.013523,0.002678,0.000431,0.000823
107979000,0.0324,0.013523,0.002678,0.000431,0.000823
107980000,0.0324,0.013523,0.002678,0.000431,0.000940
107981000,0.0324,0.013523,0.002678,0.000431,0.000823
107982000,0.0324,0.013523,0.002678,0.000431,0.000940
107983000,0.0324,0.013523,0.002678,0.000431,0.000823
107984000,0.0324,0.013523,0.002678,0.000431,0.000940
107985000,0.0324,0.013523,0.002678,0.000431,0.000823
107986000,0.0324,0.013523,0.002678,0.000431,0.000823
107987000,0.0324,0.013523,0.002678,0.000431,0.000940
107988000,0.0324,0.013523,0.002678,0.000431,0.000940
107989000,0.0324,0.013523,0.002678,0.000431,0.000823
107990000,0.0324,0.013523,0.002678,0.000431,0.000823
107991000,0.0324,0.013523,0.002678,0.000431,0.000940
107992000,0.0324,0.013523,0.002678,0.000431,0.000940
107993000,0.0324,0.013523,0.002678,0.000431,0.000705
107994000,0.0324,0.013523,0.002678,0.000431,0.000940
107995000,0.0324,0.013523,0.002678,0.000431,0.000940
107996000,0.0324,0.013523,0.002678,0.000431,0.000940
107997000,0.0324,0.013523,0.002678,0.000431,0.000705
107998000,0.0324,0.013523,0.002678,0.000431,0.013868
107999000,0.0324,0.013523,0.002678,0.000431,0.619961
