Cycle,Area(mm^2),PeakDynamic(W),SubthresholdLeakage(W),GateLeakage(W),RunTimeDynamic(W)
52000000,0.0324,0.013523,0.002678,0.000431,0.004819
52001000,0.0324,0.013523,0.002678,0.000431,0.005524
52002000,0.0324,0.013523,0.002678,0.000431,0.002703
52003000,0.0324,0.013523,0.002678,0.000431,0.003408
52004000,0.0324,0.013523,0.002678,0.000431,0.000823
52005000,0.0324,0.013523,0.002678,0.000431,0.071810
52006000,0.0324,0.013523,0.002678,0.000431,0.711163
52007000,0.0324,0.013523,0.002678,0.000431,0.532638
52008000,0.0324,0.013523,0.002678,0.000431,0.136098
52009000,0.0324,0.013523,0.002678,0.000431,0.210258
52010000,0.0324,0.013523,0.002678,0.000431,0.529229
52011000,0.0324,0.013523,0.002678,0.000431,0.276779
52012000,0.0324,0.013523,0.002678,0.000431,0.286769
52013000,0.0324,0.013523,0.002678,0.000431,0.145147
52014000,0.0324,0.013523,0.002678,0.000431,0.124227
52015000,0.0324,0.013523,0.002678,0.000431,0.327904
52016000,0.0324,0.013523,0.002678,0.000431,0.412171
52017000,0.0324,0.013523,0.002678,0.000431,0.172649
52018000,0.0324,0.013523,0.002678,0.000431,0.152787
52019000,0.0324,0.013523,0.002678,0.000431,0.138801
52020000,0.0324,0.013523,0.002678,0.000431,0.122934
52021000,0.0324,0.013523,0.002678,0.000431,0.103660
52022000,0.0324,0.013523,0.002678,0.000431,0.078861
52023000,0.0324,0.013523,0.002678,0.000431,0.059234
52024000,0.0324,0.013523,0.002678,0.000431,0.050772
52025000,0.0324,0.013523,0.002678,0.000431,0.030087
52026000,0.0324,0.013523,0.002678,0.000431,0.023388
52027000,0.0324,0.013523,0.002678,0.000431,0.014809
52028000,0.0324,0.013523,0.002678,0.000431,0.013633
52029000,0.0324,0.013523,0.002678,0.000431,0.010342
52030000,0.0324,0.013523,0.002678,0.000431,0.003291
52031000,0.0324,0.013523,0.002678,0.000431,0.001645
52032000,0.0324,0.013523,0.002678,0.000431,0.004701
52033000,0.0324,0.013523,0.002678,0.000431,0.000940
52034000,0.0324,0.013523,0.002678,0.000431,0.000705
52035000,0.0324,0.013523,0.002678,0.000431,0.000823
52036000,0.0324,0.013523,0.002678,0.000431,0.000823
52037000,0.0324,0.013523,0.002678,0.000431,0.000940
52038000,0.0324,0.013523,0.002678,0.000431,0.002938
52039000,0.0324,0.013523,0.002678,0.000431,0.315563
52040000,0.0324,0.013523,0.002678,0.000431,0.780387
52041000,0.0324,0.013523,0.002678,0.000431,0.291352
52042000,0.0324,0.013523,0.002678,0.000431,0.139741
52043000,0.0324,0.013523,0.002678,0.000431,0.500317
52044000,0.0324,0.013523,0.002678,0.000431,0.284771
52045000,0.0324,0.013523,0.002678,0.000431,0.264791
52046000,0.0324,0.013523,0.002678,0.000431,0.246104
52047000,0.0324,0.013523,0.002678,0.000431,0.155725
52048000,0.0324,0.013523,0.002678,0.000431,0.112239
52049000,0.0324,0.013523,0.002678,0.000431,0.390546
52050000,0.0324,0.013523,0.002678,0.000431,0.369861
52051000,0.0324,0.013523,0.002678,0.000431,0.182756
52052000,0.0324,0.013523,0.002678,0.000431,0.158428
52053000,0.0324,0.013523,0.002678,0.000431,0.133277
52054000,0.0324,0.013523,0.002678,0.000431,0.100839
52055000,0.0324,0.013523,0.002678,0.000431,0.088969
52056000,0.0324,0.013523,0.002678,0.000431,0.071457
52057000,0.0324,0.013523,0.002678,0.000431,0.059704
52058000,0.0324,0.013523,0.002678,0.000431,0.047481
52059000,0.0324,0.013523,0.002678,0.000431,0.043250
52060000,0.0324,0.013523,0.002678,0.000431,0.032673
52061000,0.0324,0.013523,0.002678,0.000431,0.026209
52062000,0.0324,0.013523,0.002678,0.000431,0.028794
52063000,0.0324,0.013523,0.002678,0.000431,0.014691
52064000,0.0324,0.013523,0.002678,0.000431,0.015514
52065000,0.0324,0.013523,0.002678,0.000431,0.012223
52066000,0.0324,0.013523,0.002678,0.000431,0.006229
52067000,0.0324,0.013523,0.002678,0.000431,0.005524
52068000,0.0324,0.013523,0.002678,0.000431,0.007757
52069000,0.0324,0.013523,0.002678,0.000431,0.006934
52070000,0.0324,0.013523,0.002678,0.000431,0.005641
52071000,0.0324,0.013523,0.002678,0.000431,0.002938
52072000,0.0324,0.013523,0.002678,0.000431,0.002586
52073000,0.0324,0.013523,0.002678,0.000431,0.002586
52074000,0.0324,0.013523,0.002678,0.000431,0.002821
52075000,0.0324,0.013523,0.002678,0.000431,0.002468
52076000,0.0324,0.013523,0.002678,0.000431,0.003056
52077000,0.0324,0.013523,0.002678,0.000431,0.005876
52078000,0.0324,0.013523,0.002678,0.000431,0.001645
52079000,0.0324,0.013523,0.002678,0.000431,0.002116
52080000,0.0324,0.013523,0.002678,0.000431,0.001645
52081000,0.0324,0.013523,0.002678,0.000431,0.001998
52082000,0.0324,0.013523,0.002678,0.000431,0.001998
52083000,0.0324,0.013523,0.002678,0.000431,0.001880
52084000,0.0324,0.013523,0.002678,0.000431,0.003761
52085000,0.0324,0.013523,0.002678,0.000431,0.000823
52086000,0.0324,0.013523,0.002678,0.000431,0.000940
52087000,0.0324,0.013523,0.002678,0.000431,0.000705
52088000,0.0324,0.013523,0.002678,0.000431,0.000940
52089000,0.0324,0.013523,0.002678,0.000431,0.000705
52090000,0.0324,0.013523,0.002678,0.000431,0.000823
52091000,0.0324,0.013523,0.002678,0.000431,0.000823
52092000,0.0324,0.013523,0.002678,0.000431,0.000940
52093000,0.0324,0.013523,0.002678,0.000431,0.215429
52094000,0.0324,0.013523,0.002678,0.000431,0.683426
52095000,0.0324,0.013523,0.002678,0.000431,0.466704
52096000,0.0324,0.013523,0.002678,0.000431,0.138683
52097000,0.0324,0.013523,0.002678,0.000431,0.347648
52098000,0.0324,0.013523,0.002678,0.000431,0.378206
52099000,0.0324,0.013523,0.002678,0.000431,0.289119
52100000,0.0324,0.013523,0.002678,0.000431,0.299344
52101000,0.0324,0.013523,0.002678,0.000431,0.157840
52102000,0.0324,0.013523,0.002678,0.000431,0.101309
52103000,0.0324,0.013523,0.002678,0.000431,0.416402
52104000,0.0324,0.013523,0.002678,0.000431,0.379616
52105000,0.0324,0.013523,0.002678,0.000431,0.212844
52106000,0.0324,0.013523,0.002678,0.000431,0.193451
52107000,0.0324,0.013523,0.002678,0.000431,0.141857
52108000,0.0324,0.013523,0.002678,0.000431,0.124815
52109000,0.0324,0.013523,0.002678,0.000431,0.114590
52110000,0.0324,0.013523,0.002678,0.000431,0.082035
52111000,0.0324,0.013523,0.002678,0.000431,0.072985
52112000,0.0324,0.013523,0.002678,0.000431,0.073573
52113000,0.0324,0.013523,0.002678,0.000431,0.058059
52114000,0.0324,0.013523,0.002678,0.000431,0.046541
52115000,0.0324,0.013523,0.002678,0.000431,0.032908
52116000,0.0324,0.013523,0.002678,0.000431,0.019510
52117000,0.0324,0.013523,0.002678,0.000431,0.025151
52118000,0.0324,0.013523,0.002678,0.000431,0.019275
52119000,0.0324,0.013523,0.002678,0.000431,0.012223
52120000,0.0324,0.013523,0.002678,0.000431,0.010460
52121000,0.0324,0.013523,0.002678,0.000431,0.009402
52122000,0.0324,0.013523,0.002678,0.000431,0.014103
52123000,0.0324,0.013523,0.002678,0.000431,0.011988
52124000,0.0324,0.013523,0.002678,0.000431,0.006699
52125000,0.0324,0.013523,0.002678,0.000431,0.005641
52126000,0.0324,0.013523,0.002678,0.000431,0.005171
52127000,0.0324,0.013523,0.002678,0.000431,0.007052
52128000,0.0324,0.013523,0.002678,0.000431,0.005289
52129000,0.0324,0.013523,0.002678,0.000431,0.009755
52130000,0.0324,0.013523,0.002678,0.000431,0.003526
52131000,0.0324,0.013523,0.002678,0.000431,0.001880
52132000,0.0324,0.013523,0.002678,0.000431,0.002116
52133000,0.0324,0.013523,0.002678,0.000431,0.001763
52134000,0.0324,0.013523,0.002678,0.000431,0.002351
52135000,0.0324,0.013523,0.002678,0.000431,0.001763
52136000,0.0324,0.013523,0.002678,0.000431,0.002116
52137000,0.0324,0.013523,0.002678,0.000431,0.002116
52138000,0.0324,0.013523,0.002678,0.000431,0.001880
52139000,0.0324,0.013523,0.002678,0.000431,0.003996
52140000,0.0324,0.013523,0.002678,0.000431,0.001528
52141000,0.0324,0.013523,0.002678,0.000431,0.001175
52142000,0.0324,0.013523,0.002678,0.000431,0.001293
52143000,0.0324,0.013523,0.002678,0.000431,0.000940
52144000,0.0324,0.013523,0.002678,0.000431,0.001410
52145000,0.0324,0.013523,0.002678,0.000431,0.000823
52146000,0.0324,0.013523,0.002678,0.000431,0.001175
52147000,0.0324,0.013523,0.002678,0.000431,0.001175
52148000,0.0324,0.013523,0.002678,0.000431,0.000940
52149000,0.0324,0.013523,0.002678,0.000431,0.001528
52150000,0.0324,0.013523,0.002678,0.000431,0.000823
52151000,0.0324,0.013523,0.002678,0.000431,0.001175
52152000,0.0324,0.013523,0.002678,0.000431,0.001175
52153000,0.0324,0.013523,0.002678,0.000431,0.000940
52154000,0.0324,0.013523,0.002678,0.000431,0.001410
52155000,0.0324,0.013523,0.002678,0.000431,0.000823
52156000,0.0324,0.013523,0.002678,0.000431,0.000940
52157000,0.0324,0.013523,0.002678,0.000431,0.116588
52158000,0.0324,0.013523,0.002678,0.000431,0.790259
52159000,0.0324,0.013523,0.002678,0.000431,0.496086
52160000,0.0324,0.013523,0.002678,0.000431,0.139153
52161000,0.0324,0.013523,0.002678,0.000431,0.337894
52162000,0.0324,0.013523,0.002678,0.000431,0.441788
52163000,0.0324,0.013523,0.002678,0.000431,0.289707
52164000,0.0324,0.013523,0.002678,0.000431,0.240580
52165000,0.0324,0.013523,0.002678,0.000431,0.156900
52166000,0.0324,0.013523,0.002678,0.000431,0.107538
52167000,0.0324,0.013523,0.002678,0.000431,0.406765
52168000,0.0324,0.013523,0.002678,0.000431,0.376678
52169000,0.0324,0.013523,0.002678,0.000431,0.193922
52170000,0.0324,0.013523,0.002678,0.000431,0.158663
52171000,0.0324,0.013523,0.002678,0.000431,0.132102
52172000,0.0324,0.013523,0.002678,0.000431,0.117763
52173000,0.0324,0.013523,0.002678,0.000431,0.089674
52174000,0.0324,0.013523,0.002678,0.000431,0.080154
52175000,0.0324,0.013523,0.002678,0.000431,0.059939
52176000,0.0324,0.013523,0.002678,0.000431,0.039254
52177000,0.0324,0.013523,0.002678,0.000431,0.032555
52178000,0.0324,0.013523,0.002678,0.000431,0.025621
52179000,0.0324,0.013523,0.002678,0.000431,0.030322
52180000,0.0324,0.013523,0.002678,0.000431,0.022918
52181000,0.0324,0.013523,0.002678,0.000431,0.018334
52182000,0.0324,0.013523,0.002678,0.000431,0.026796
52183000,0.0324,0.013523,0.002678,0.000431,0.019627
52184000,0.0324,0.013523,0.002678,0.000431,0.011988
52185000,0.0324,0.013523,0.002678,0.000431,0.012458
52186000,0.0324,0.013523,0.002678,0.000431,0.009520
52187000,0.0324,0.013523,0.002678,0.000431,0.012223
52188000,0.0324,0.013523,0.002678,0.000431,0.008345
52189000,0.0324,0.013523,0.002678,0.000431,0.007287
52190000,0.0324,0.013523,0.002678,0.000431,0.005641
52191000,0.0324,0.013523,0.002678,0.000431,0.007169
52192000,0.0324,0.013523,0.002678,0.000431,0.003643
52193000,0.0324,0.013523,0.002678,0.000431,0.004936
52194000,0.0324,0.013523,0.002678,0.000431,0.006111
52195000,0.0324,0.013523,0.002678,0.000431,0.002703
52196000,0.0324,0.013523,0.002678,0.000431,0.000705
52197000,0.0324,0.013523,0.002678,0.000431,0.000940
52198000,0.0324,0.013523,0.002678,0.000431,0.000823
52199000,0.0324,0.013523,0.002678,0.000431,0.000823
52200000,0.0324,0.013523,0.002678,0.000431,0.000705
52201000,0.0324,0.013523,0.002678,0.000431,0.000940
52202000,0.0324,0.013523,0.002678,0.000431,0.073220
52203000,0.0324,0.013523,0.002678,0.000431,0.767577
52204000,0.0324,0.013523,0.002678,0.000431,0.533343
52205000,0.0324,0.013523,0.002678,0.000431,0.136333
52206000,0.0324,0.013523,0.002678,0.000431,0.240698
52207000,0.0324,0.013523,0.002678,0.000431,0.533931
52208000,0.0324,0.013523,0.002678,0.000431,0.301930
52209000,0.0324,0.013523,0.002678,0.000431,0.269962
52210000,0.0324,0.013523,0.002678,0.000431,0.154902
52211000,0.0324,0.013523,0.002678,0.000431,0.100134
52212000,0.0324,0.013523,0.002678,0.000431,0.431328
52213000,0.0324,0.013523,0.002678,0.000431,0.336248
52214000,0.0324,0.013523,0.002678,0.000431,0.166772
52215000,0.0324,0.013523,0.002678,0.000431,0.148673
52216000,0.0324,0.013523,0.002678,0.000431,0.131514
52217000,0.0324,0.013523,0.002678,0.000431,0.122112
52218000,0.0324,0.013523,0.002678,0.000431,0.102837
52219000,0.0324,0.013523,0.002678,0.000431,0.065346
52220000,0.0324,0.013523,0.002678,0.000431,0.059822
52221000,0.0324,0.013523,0.002678,0.000431,0.049362
52222000,0.0324,0.013523,0.002678,0.000431,0.041958
52223000,0.0324,0.013523,0.002678,0.000431,0.028207
52224000,0.0324,0.013523,0.002678,0.000431,0.022330
52225000,0.0324,0.013523,0.002678,0.000431,0.012576
52226000,0.0324,0.013523,0.002678,0.000431,0.010930
52227000,0.0324,0.013523,0.002678,0.000431,0.012811
52228000,0.0324,0.013523,0.002678,0.000431,0.010342
52229000,0.0324,0.013523,0.002678,0.000431,0.012576
52230000,0.0324,0.013523,0.002678,0.000431,0.006934
52231000,0.0324,0.013523,0.002678,0.000431,0.006934
52232000,0.0324,0.013523,0.002678,0.000431,0.008345
52233000,0.0324,0.013523,0.002678,0.000431,0.005171
52234000,0.0324,0.013523,0.002678,0.000431,0.012223
52235000,0.0324,0.013523,0.002678,0.000431,0.002703
52236000,0.0324,0.013523,0.002678,0.000431,0.004584
52237000,0.0324,0.013523,0.002678,0.000431,0.001645
52238000,0.0324,0.013523,0.002678,0.000431,0.001998
52239000,0.0324,0.013523,0.002678,0.000431,0.004113
52240000,0.0324,0.013523,0.002678,0.000431,0.174999
52241000,0.0324,0.013523,0.002678,0.000431,0.706344
52242000,0.0324,0.013523,0.002678,0.000431,0.481748
52243000,0.0324,0.013523,0.002678,0.000431,0.136568
52244000,0.0324,0.013523,0.002678,0.000431,0.426392
52245000,0.0324,0.013523,0.002678,0.000431,0.340479
52246000,0.0324,0.013523,0.002678,0.000431,0.328726
52247000,0.0324,0.013523,0.002678,0.000431,0.242343
52248000,0.0324,0.013523,0.002678,0.000431,0.171826
52249000,0.0324,0.013523,0.002678,0.000431,0.102485
52250000,0.0324,0.013523,0.002678,0.000431,0.537809
52251000,0.0324,0.013523,0.002678,0.000431,0.200856
52252000,0.0324,0.013523,0.002678,0.000431,0.170416
52253000,0.0324,0.013523,0.002678,0.000431,0.146910
52254000,0.0324,0.013523,0.002678,0.000431,0.125050
52255000,0.0324,0.013523,0.002678,0.000431,0.107421
52256000,0.0324,0.013523,0.002678,0.000431,0.092025
52257000,0.0324,0.013523,0.002678,0.000431,0.072515
52258000,0.0324,0.013523,0.002678,0.000431,0.062055
52259000,0.0324,0.013523,0.002678,0.000431,0.056649
52260000,0.0324,0.013523,0.002678,0.000431,0.032673
52261000,0.0324,0.013523,0.002678,0.000431,0.027972
52262000,0.0324,0.013523,0.002678,0.000431,0.021038
52263000,0.0324,0.013523,0.002678,0.000431,0.018687
52264000,0.0324,0.013523,0.002678,0.000431,0.013986
52265000,0.0324,0.013523,0.002678,0.000431,0.011753
52266000,0.0324,0.013523,0.002678,0.000431,0.009637
52267000,0.0324,0.013523,0.002678,0.000431,0.005876
52268000,0.0324,0.013523,0.002678,0.000431,0.005054
52269000,0.0324,0.013523,0.002678,0.000431,0.002703
52270000,0.0324,0.013523,0.002678,0.000431,0.004819
52271000,0.0324,0.013523,0.002678,0.000431,0.001645
52272000,0.0324,0.013523,0.002678,0.000431,0.001645
52273000,0.0324,0.013523,0.002678,0.000431,0.002703
52274000,0.0324,0.013523,0.002678,0.000431,0.022095
52275000,0.0324,0.013523,0.002678,0.000431,0.731378
52276000,0.0324,0.013523,0.002678,0.000431,0.536281
52277000,0.0324,0.013523,0.002678,0.000431,0.165480
52278000,0.0324,0.013523,0.002678,0.000431,0.149143
52279000,0.0324,0.013523,0.002678,0.000431,0.581765
52280000,0.0324,0.013523,0.002678,0.000431,0.241285
52281000,0.0324,0.013523,0.002678,0.000431,0.363867
52282000,0.0324,0.013523,0.002678,0.000431,0.155490
52283000,0.0324,0.013523,0.002678,0.000431,0.164187
52284000,0.0324,0.013523,0.002678,0.000431,0.153492
52285000,0.0324,0.013523,0.002678,0.000431,0.553440
52286000,0.0324,0.013523,0.002678,0.000431,0.243518
52287000,0.0324,0.013523,0.002678,0.000431,0.209905
52288000,0.0324,0.013523,0.002678,0.000431,0.160779
52289000,0.0324,0.013523,0.002678,0.000431,0.132219
52290000,0.0324,0.013523,0.002678,0.000431,0.103307
52291000,0.0324,0.013523,0.002678,0.000431,0.092495
52292000,0.0324,0.013523,0.002678,0.000431,0.064523
52293000,0.0324,0.013523,0.002678,0.000431,0.053240
52294000,0.0324,0.013523,0.002678,0.000431,0.043720
52295000,0.0324,0.013523,0.002678,0.000431,0.031615
52296000,0.0324,0.013523,0.002678,0.000431,0.027619
52297000,0.0324,0.013523,0.002678,0.000431,0.024798
52298000,0.0324,0.013523,0.002678,0.000431,0.024563
52299000,0.0324,0.013523,0.002678,0.000431,0.027737
52300000,0.0324,0.013523,0.002678,0.000431,0.012811
52301000,0.0324,0.013523,0.002678,0.000431,0.010107
52302000,0.0324,0.013523,0.002678,0.000431,0.006582
52303000,0.0324,0.013523,0.002678,0.000431,0.008932
52304000,0.0324,0.013523,0.002678,0.000431,0.003996
52305000,0.0324,0.013523,0.002678,0.000431,0.004819
52306000,0.0324,0.013523,0.002678,0.000431,0.004584
52307000,0.0324,0.013523,0.002678,0.000431,0.004113
52308000,0.0324,0.013523,0.002678,0.000431,0.006347
52309000,0.0324,0.013523,0.002678,0.000431,0.004819
52310000,0.0324,0.013523,0.002678,0.000431,0.003996
52311000,0.0324,0.013523,0.002678,0.000431,0.003526
52312000,0.0324,0.013523,0.002678,0.000431,0.003291
52313000,0.0324,0.013523,0.002678,0.000431,0.003996
52314000,0.0324,0.013523,0.002678,0.000431,0.003408
52315000,0.0324,0.013523,0.002678,0.000431,0.003878
52316000,0.0324,0.013523,0.002678,0.000431,0.005406
52317000,0.0324,0.013523,0.002678,0.000431,0.002233
52318000,0.0324,0.013523,0.002678,0.000431,0.004936
52319000,0.0324,0.013523,0.002678,0.000431,0.001058
52320000,0.0324,0.013523,0.002678,0.000431,0.001293
52321000,0.0324,0.013523,0.002678,0.000431,0.000940
52322000,0.0324,0.013523,0.002678,0.000431,0.001528
52323000,0.0324,0.013523,0.002678,0.000431,0.000940
52324000,0.0324,0.013523,0.002678,0.000431,0.272078
52325000,0.0324,0.013523,0.002678,0.000431,0.808124
52326000,0.0324,0.013523,0.002678,0.000431,0.367158
52327000,0.0324,0.013523,0.002678,0.000431,0.143267
52328000,0.0324,0.013523,0.002678,0.000431,0.516771
52329000,0.0324,0.013523,0.002678,0.000431,0.275016
52330000,0.0324,0.013523,0.002678,0.000431,0.331312
52331000,0.0324,0.013523,0.002678,0.000431,0.240698
52332000,0.0324,0.013523,0.002678,0.000431,0.172884
52333000,0.0324,0.013523,0.002678,0.000431,0.084503
52334000,0.0324,0.013523,0.002678,0.000431,0.549562
52335000,0.0324,0.013523,0.002678,0.000431,0.187222
52336000,0.0324,0.013523,0.002678,0.000431,0.152904
52337000,0.0324,0.013523,0.002678,0.000431,0.131867
52338000,0.0324,0.013523,0.002678,0.000431,0.101662
52339000,0.0324,0.013523,0.002678,0.000431,0.085443
52340000,0.0324,0.013523,0.002678,0.000431,0.075336
52341000,0.0324,0.013523,0.002678,0.000431,0.065816
52342000,0.0324,0.013523,0.002678,0.000431,0.047011
52343000,0.0324,0.013523,0.002678,0.000431,0.038549
52344000,0.0324,0.013523,0.002678,0.000431,0.034553
52345000,0.0324,0.013523,0.002678,0.000431,0.030087
52346000,0.0324,0.013523,0.002678,0.000431,0.020802
52347000,0.0324,0.013523,0.002678,0.000431,0.013281
52348000,0.0324,0.013523,0.002678,0.000431,0.011753
52349000,0.0324,0.013523,0.002678,0.000431,0.010578
52350000,0.0324,0.013523,0.002678,0.000431,0.010342
52351000,0.0324,0.013523,0.002678,0.000431,0.008580
52352000,0.0324,0.013523,0.002678,0.000431,0.009402
52353000,0.0324,0.013523,0.002678,0.000431,0.003996
52354000,0.0324,0.013523,0.002678,0.000431,0.003996
52355000,0.0324,0.013523,0.002678,0.000431,0.003761
52356000,0.0324,0.013523,0.002678,0.000431,0.002468
52357000,0.0324,0.013523,0.002678,0.000431,0.004936
52358000,0.0324,0.013523,0.002678,0.000431,0.074865
52359000,0.0324,0.013523,0.002678,0.000431,0.744659
52360000,0.0324,0.013523,0.002678,0.000431,0.516301
52361000,0.0324,0.013523,0.002678,0.000431,0.135863
52362000,0.0324,0.013523,0.002678,0.000431,0.169123
52363000,0.0324,0.013523,0.002678,0.000431,0.567426
52364000,0.0324,0.013523,0.002678,0.000431,0.238347
52365000,0.0324,0.013523,0.002678,0.000431,0.311567
52366000,0.0324,0.013523,0.002678,0.000431,0.145852
52367000,0.0324,0.013523,0.002678,0.000431,0.159251
52368000,0.0324,0.013523,0.002678,0.000431,0.210728
52369000,0.0324,0.013523,0.002678,0.000431,0.520650
52370000,0.0324,0.013523,0.002678,0.000431,0.228945
52371000,0.0324,0.013523,0.002678,0.000431,0.184402
52372000,0.0324,0.013523,0.002678,0.000431,0.164892
52373000,0.0324,0.013523,0.002678,0.000431,0.130104
52374000,0.0324,0.013523,0.002678,0.000431,0.110124
52375000,0.0324,0.013523,0.002678,0.000431,0.092965
52376000,0.0324,0.013523,0.002678,0.000431,0.064641
52377000,0.0324,0.013523,0.002678,0.000431,0.051712
52378000,0.0324,0.013523,0.002678,0.000431,0.034436
52379000,0.0324,0.013523,0.002678,0.000431,0.036199
52380000,0.0324,0.013523,0.002678,0.000431,0.033496
52381000,0.0324,0.013523,0.002678,0.000431,0.026914
52382000,0.0324,0.013523,0.002678,0.000431,0.016689
52383000,0.0324,0.013523,0.002678,0.000431,0.016924
52384000,0.0324,0.013523,0.002678,0.000431,0.017982
52385000,0.0324,0.013523,0.002678,0.000431,0.016454
52386000,0.0324,0.013523,0.002678,0.000431,0.009520
52387000,0.0324,0.013523,0.002678,0.000431,0.007404
52388000,0.0324,0.013523,0.002678,0.000431,0.007639
52389000,0.0324,0.013523,0.002678,0.000431,0.010695
52390000,0.0324,0.013523,0.002678,0.000431,0.001763
52391000,0.0324,0.013523,0.002678,0.000431,0.002116
52392000,0.0324,0.013523,0.002678,0.000431,0.001528
52393000,0.0324,0.013523,0.002678,0.000431,0.001880
52394000,0.0324,0.013523,0.002678,0.000431,0.001880
52395000,0.0324,0.013523,0.002678,0.000431,0.001645
52396000,0.0324,0.013523,0.002678,0.000431,0.001998
52397000,0.0324,0.013523,0.002678,0.000431,0.001763
52398000,0.0324,0.013523,0.002678,0.000431,0.001880
52399000,0.0324,0.013523,0.002678,0.000431,0.001998
52400000,0.0324,0.013523,0.002678,0.000431,0.002116
52401000,0.0324,0.013523,0.002678,0.000431,0.001763
52402000,0.0324,0.013523,0.002678,0.000431,0.003526
52403000,0.0324,0.013523,0.002678,0.000431,0.000705
52404000,0.0324,0.013523,0.002678,0.000431,0.000940
52405000,0.0324,0.013523,0.002678,0.000431,0.000940
52406000,0.0324,0.013523,0.002678,0.000431,0.000705
52407000,0.0324,0.013523,0.002678,0.000431,0.000940
52408000,0.0324,0.013523,0.002678,0.000431,0.000823
52409000,0.0324,0.013523,0.002678,0.000431,0.000823
52410000,0.0324,0.013523,0.002678,0.000431,0.000940
52411000,0.0324,0.013523,0.002678,0.000431,0.000705
52412000,0.0324,0.013523,0.002678,0.000431,0.000940
52413000,0.0324,0.013523,0.002678,0.000431,0.000823
52414000,0.0324,0.013523,0.002678,0.000431,0.000823
52415000,0.0324,0.013523,0.002678,0.000431,0.000823
52416000,0.0324,0.013523,0.002678,0.000431,0.000823
52417000,0.0324,0.013523,0.002678,0.000431,0.000705
52418000,0.0324,0.013523,0.002678,0.000431,0.260207
52419000,0.0324,0.013523,0.002678,0.000431,0.725619
52420000,0.0324,0.013523,0.002678,0.000431,0.456715
52421000,0.0324,0.013523,0.002678,0.000431,0.136920
52422000,0.0324,0.013523,0.002678,0.000431,0.389136
52423000,0.0324,0.013523,0.002678,0.000431,0.396188
52424000,0.0324,0.013523,0.002678,0.000431,0.248690
52425000,0.0324,0.013523,0.002678,0.000431,0.281833
52426000,0.0324,0.013523,0.002678,0.000431,0.158075
52427000,0.0324,0.013523,0.002678,0.000431,0.106010
52428000,0.0324,0.013523,0.002678,0.000431,0.427685
52429000,0.0324,0.013523,0.002678,0.000431,0.368921
52430000,0.0324,0.013523,0.002678,0.000431,0.216369
52431000,0.0324,0.013523,0.002678,0.000431,0.191218
52432000,0.0324,0.013523,0.002678,0.000431,0.159368
52433000,0.0324,0.013523,0.002678,0.000431,0.134335
52434000,0.0324,0.013523,0.002678,0.000431,0.119996
52435000,0.0324,0.013523,0.002678,0.000431,0.097666
52436000,0.0324,0.013523,0.002678,0.000431,0.098136
52437000,0.0324,0.013523,0.002678,0.000431,0.064053
52438000,0.0324,0.013523,0.002678,0.000431,0.066521
52439000,0.0324,0.013523,0.002678,0.000431,0.045718
52440000,0.0324,0.013523,0.002678,0.000431,0.027267
52441000,0.0324,0.013523,0.002678,0.000431,0.019627
52442000,0.0324,0.013523,0.002678,0.000431,0.021508
52443000,0.0324,0.013523,0.002678,0.000431,0.012693
52444000,0.0324,0.013523,0.002678,0.000431,0.006229
52445000,0.0324,0.013523,0.002678,0.000431,0.008697
52446000,0.0324,0.013523,0.002678,0.000431,0.004584
52447000,0.0324,0.013523,0.002678,0.000431,0.003878
52448000,0.0324,0.013523,0.002678,0.000431,0.001880
52449000,0.0324,0.013523,0.002678,0.000431,0.001645
52450000,0.0324,0.013523,0.002678,0.000431,0.004584
52451000,0.0324,0.013523,0.002678,0.000431,0.000940
52452000,0.0324,0.013523,0.002678,0.000431,0.015044
52453000,0.0324,0.013523,0.002678,0.000431,0.748067
52454000,0.0324,0.013523,0.002678,0.000431,0.587171
52455000,0.0324,0.013523,0.002678,0.000431,0.135863
52456000,0.0324,0.013523,0.002678,0.000431,0.137861
52457000,0.0324,0.013523,0.002678,0.000431,0.525469
52458000,0.0324,0.013523,0.002678,0.000431,0.291235
52459000,0.0324,0.013523,0.002678,0.000431,0.308041
52460000,0.0324,0.013523,0.002678,0.000431,0.151259
52461000,0.0324,0.013523,0.002678,0.000431,0.163364
52462000,0.0324,0.013523,0.002678,0.000431,0.153844
52463000,0.0324,0.013523,0.002678,0.000431,0.537339
52464000,0.0324,0.013523,0.002678,0.000431,0.163482
52465000,0.0324,0.013523,0.002678,0.000431,0.142092
52466000,0.0324,0.013523,0.002678,0.000431,0.116353
52467000,0.0324,0.013523,0.002678,0.000431,0.099194
52468000,0.0324,0.013523,0.002678,0.000431,0.080859
52469000,0.0324,0.013523,0.002678,0.000431,0.061585
52470000,0.0324,0.013523,0.002678,0.000431,0.046894
52471000,0.0324,0.013523,0.002678,0.000431,0.035494
52472000,0.0324,0.013523,0.002678,0.000431,0.046541
52473000,0.0324,0.013523,0.002678,0.000431,0.027031
52474000,0.0324,0.013523,0.002678,0.000431,0.027502
52475000,0.0324,0.013523,0.002678,0.000431,0.021155
52476000,0.0324,0.013523,0.002678,0.000431,0.016807
52477000,0.0324,0.013523,0.002678,0.000431,0.017512
52478000,0.0324,0.013523,0.002678,0.000431,0.019157
52479000,0.0324,0.013523,0.002678,0.000431,0.007639
52480000,0.0324,0.013523,0.002678,0.000431,0.009637
52481000,0.0324,0.013523,0.002678,0.000431,0.006817
52482000,0.0324,0.013523,0.002678,0.000431,0.007522
52483000,0.0324,0.013523,0.002678,0.000431,0.006347
52484000,0.0324,0.013523,0.002678,0.000431,0.009050
52485000,0.0324,0.013523,0.002678,0.000431,0.003761
52486000,0.0324,0.013523,0.002678,0.000431,0.004584
52487000,0.0324,0.013523,0.002678,0.000431,0.002703
52488000,0.0324,0.013523,0.002678,0.000431,0.003761
52489000,0.0324,0.013523,0.002678,0.000431,0.003643
52490000,0.0324,0.013523,0.002678,0.000431,0.001763
52491000,0.0324,0.013523,0.002678,0.000431,0.001528
52492000,0.0324,0.013523,0.002678,0.000431,0.001763
52493000,0.0324,0.013523,0.002678,0.000431,0.001528
52494000,0.0324,0.013523,0.002678,0.000431,0.003056
52495000,0.0324,0.013523,0.002678,0.000431,0.002233
52496000,0.0324,0.013523,0.002678,0.000431,0.000940
52497000,0.0324,0.013523,0.002678,0.000431,0.000823
52498000,0.0324,0.013523,0.002678,0.000431,0.000823
52499000,0.0324,0.013523,0.002678,0.000431,0.000823
52500000,0.0324,0.013523,0.002678,0.000431,0.000823
52501000,0.0324,0.013523,0.002678,0.000431,0.000823
52502000,0.0324,0.013523,0.002678,0.000431,0.000823
52503000,0.0324,0.013523,0.002678,0.000431,0.000823
52504000,0.0324,0.013523,0.002678,0.000431,0.000823
52505000,0.0324,0.013523,0.002678,0.000431,0.000823
52506000,0.0324,0.013523,0.002678,0.000431,0.000823
52507000,0.0324,0.013523,0.002678,0.000431,0.251393
52508000,0.0324,0.013523,0.002678,0.000431,0.690243
52509000,0.0324,0.013523,0.002678,0.000431,0.426275
52510000,0.0324,0.013523,0.002678,0.000431,0.135863
52511000,0.0324,0.013523,0.002678,0.000431,0.469760
52512000,0.0324,0.013523,0.002678,0.000431,0.333663
52513000,0.0324,0.013523,0.002678,0.000431,0.270080
52514000,0.0324,0.013523,0.002678,0.000431,0.219073
52515000,0.0324,0.013523,0.002678,0.000431,0.159368
52516000,0.0324,0.013523,0.002678,0.000431,0.112357
52517000,0.0324,0.013523,0.002678,0.000431,0.495616
52518000,0.0324,0.013523,0.002678,0.000431,0.303928
52519000,0.0324,0.013523,0.002678,0.000431,0.194039
52520000,0.0324,0.013523,0.002678,0.000431,0.165010
52521000,0.0324,0.013523,0.002678,0.000431,0.156783
52522000,0.0324,0.013523,0.002678,0.000431,0.132337
52523000,0.0324,0.013523,0.002678,0.000431,0.103425
52524000,0.0324,0.013523,0.002678,0.000431,0.079919
52525000,0.0324,0.013523,0.002678,0.000431,0.056296
52526000,0.0324,0.013523,0.002678,0.000431,0.047246
52527000,0.0324,0.013523,0.002678,0.000431,0.055826
52528000,0.0324,0.013523,0.002678,0.000431,0.043485
52529000,0.0324,0.013523,0.002678,0.000431,0.046306
52530000,0.0324,0.013523,0.002678,0.000431,0.036551
52531000,0.0324,0.013523,0.002678,0.000431,0.029029
52532000,0.0324,0.013523,0.002678,0.000431,0.023036
52533000,0.0324,0.013523,0.002678,0.000431,0.017277
52534000,0.0324,0.013523,0.002678,0.000431,0.015396
52535000,0.0324,0.013523,0.002678,0.000431,0.018217
52536000,0.0324,0.013523,0.002678,0.000431,0.012340
52537000,0.0324,0.013523,0.002678,0.000431,0.013163
52538000,0.0324,0.013523,0.002678,0.000431,0.017042
52539000,0.0324,0.013523,0.002678,0.000431,0.008345
52540000,0.0324,0.013523,0.002678,0.000431,0.008462
52541000,0.0324,0.013523,0.002678,0.000431,0.004349
52542000,0.0324,0.013523,0.002678,0.000431,0.005406
52543000,0.0324,0.013523,0.002678,0.000431,0.004819
52544000,0.0324,0.013523,0.002678,0.000431,0.001528
52545000,0.0324,0.013523,0.002678,0.000431,0.000940
52546000,0.0324,0.013523,0.002678,0.000431,0.000823
52547000,0.0324,0.013523,0.002678,0.000431,0.071222
52548000,0.0324,0.013523,0.002678,0.000431,0.802365
52549000,0.0324,0.013523,0.002678,0.000431,0.528877
52550000,0.0324,0.013523,0.002678,0.000431,0.137038
52551000,0.0324,0.013523,0.002678,0.000431,0.423572
52552000,0.0324,0.013523,0.002678,0.000431,0.388666
52553000,0.0324,0.013523,0.002678,0.000431,0.308159
52554000,0.0324,0.013523,0.002678,0.000431,0.207202
52555000,0.0324,0.013523,0.002678,0.000431,0.160543
52556000,0.0324,0.013523,0.002678,0.000431,0.155020
52557000,0.0324,0.013523,0.002678,0.000431,0.547916
52558000,0.0324,0.013523,0.002678,0.000431,0.238465
52559000,0.0324,0.013523,0.002678,0.000431,0.200856
52560000,0.0324,0.013523,0.002678,0.000431,0.167713
52561000,0.0324,0.013523,0.002678,0.000431,0.149261
52562000,0.0324,0.013523,0.002678,0.000431,0.116000
52563000,0.0324,0.013523,0.002678,0.000431,0.077804
52564000,0.0324,0.013523,0.002678,0.000431,0.080272
52565000,0.0324,0.013523,0.002678,0.000431,0.061115
52566000,0.0324,0.013523,0.002678,0.000431,0.044308
52567000,0.0324,0.013523,0.002678,0.000431,0.030792
52568000,0.0324,0.013523,0.002678,0.000431,0.023271
52569000,0.0324,0.013523,0.002678,0.000431,0.018217
52570000,0.0324,0.013523,0.002678,0.000431,0.017982
52571000,0.0324,0.013523,0.002678,0.000431,0.008697
52572000,0.0324,0.013523,0.002678,0.000431,0.005289
52573000,0.0324,0.013523,0.002678,0.000431,0.005171
52574000,0.0324,0.013523,0.002678,0.000431,0.006934
52575000,0.0324,0.013523,0.002678,0.000431,0.006582
52576000,0.0324,0.013523,0.002678,0.000431,0.003526
52577000,0.0324,0.013523,0.002678,0.000431,0.002821
52578000,0.0324,0.013523,0.002678,0.000431,0.003526
52579000,0.0324,0.013523,0.002678,0.000431,0.003173
52580000,0.0324,0.013523,0.002678,0.000431,0.003173
52581000,0.0324,0.013523,0.002678,0.000431,0.003291
52582000,0.0324,0.013523,0.002678,0.000431,0.002351
52583000,0.0324,0.013523,0.002678,0.000431,0.003056
52584000,0.0324,0.013523,0.002678,0.000431,0.002821
52585000,0.0324,0.013523,0.002678,0.000431,0.003408
52586000,0.0324,0.013523,0.002678,0.000431,0.001880
52587000,0.0324,0.013523,0.002678,0.000431,0.001645
52588000,0.0324,0.013523,0.002678,0.000431,0.001763
52589000,0.0324,0.013523,0.002678,0.000431,0.001763
52590000,0.0324,0.013523,0.002678,0.000431,0.001763
52591000,0.0324,0.013523,0.002678,0.000431,0.001763
52592000,0.0324,0.013523,0.002678,0.000431,0.001528
52593000,0.0324,0.013523,0.002678,0.000431,0.001880
52594000,0.0324,0.013523,0.002678,0.000431,0.001645
52595000,0.0324,0.013523,0.002678,0.000431,0.001763
52596000,0.0324,0.013523,0.002678,0.000431,0.001763
52597000,0.0324,0.013523,0.002678,0.000431,0.001645
52598000,0.0324,0.013523,0.002678,0.000431,0.001645
52599000,0.0324,0.013523,0.002678,0.000431,0.001645
52600000,0.0324,0.013523,0.002678,0.000431,0.001645
52601000,0.0324,0.013523,0.002678,0.000431,0.001880
52602000,0.0324,0.013523,0.002678,0.000431,0.001410
52603000,0.0324,0.013523,0.002678,0.000431,0.001645
52604000,0.0324,0.013523,0.002678,0.000431,0.001763
52605000,0.0324,0.013523,0.002678,0.000431,0.001763
52606000,0.0324,0.013523,0.002678,0.000431,0.001645
52607000,0.0324,0.013523,0.002678,0.000431,0.001410
52608000,0.0324,0.013523,0.002678,0.000431,0.001880
52609000,0.0324,0.013523,0.002678,0.000431,0.001293
52610000,0.0324,0.013523,0.002678,0.000431,0.001763
52611000,0.0324,0.013523,0.002678,0.000431,0.001645
52612000,0.0324,0.013523,0.002678,0.000431,0.001645
52613000,0.0324,0.013523,0.002678,0.000431,0.005054
52614000,0.0324,0.013523,0.002678,0.000431,0.429095
52615000,0.0324,0.013523,0.002678,0.000431,0.783208
52616000,0.0324,0.013523,0.002678,0.000431,0.228357
52617000,0.0324,0.013523,0.002678,0.000431,0.137273
52618000,0.0324,0.013523,0.002678,0.000431,0.520062
52619000,0.0324,0.013523,0.002678,0.000431,0.294878
52620000,0.0324,0.013523,0.002678,0.000431,0.281245
52621000,0.0324,0.013523,0.002678,0.000431,0.188398
52622000,0.0324,0.013523,0.002678,0.000431,0.187457
52623000,0.0324,0.013523,0.002678,0.000431,0.086031
52624000,0.0324,0.013523,0.002678,0.000431,0.555321
52625000,0.0324,0.013523,0.002678,0.000431,0.253038
52626000,0.0324,0.013523,0.002678,0.000431,0.196742
52627000,0.0324,0.013523,0.002678,0.000431,0.147968
52628000,0.0324,0.013523,0.002678,0.000431,0.130574
52629000,0.0324,0.013523,0.002678,0.000431,0.108126
52630000,0.0324,0.013523,0.002678,0.000431,0.083563
52631000,0.0324,0.013523,0.002678,0.000431,0.063348
52632000,0.0324,0.013523,0.002678,0.000431,0.047951
52633000,0.0324,0.013523,0.002678,0.000431,0.029970
52634000,0.0324,0.013523,0.002678,0.000431,0.025386
52635000,0.0324,0.013523,0.002678,0.000431,0.024328
52636000,0.0324,0.013523,0.002678,0.000431,0.019392
52637000,0.0324,0.013523,0.002678,0.000431,0.008227
52638000,0.0324,0.013523,0.002678,0.000431,0.006229
52639000,0.0324,0.013523,0.002678,0.000431,0.007992
52640000,0.0324,0.013523,0.002678,0.000431,0.002116
52641000,0.0324,0.013523,0.002678,0.000431,0.001763
52642000,0.0324,0.013523,0.002678,0.000431,0.001763
52643000,0.0324,0.013523,0.002678,0.000431,0.004349
52644000,0.0324,0.013523,0.002678,0.000431,0.000940
52645000,0.0324,0.013523,0.002678,0.000431,0.000823
52646000,0.0324,0.013523,0.002678,0.000431,0.000823
52647000,0.0324,0.013523,0.002678,0.000431,0.000940
52648000,0.0324,0.013523,0.002678,0.000431,0.000705
52649000,0.0324,0.013523,0.002678,0.000431,0.000823
52650000,0.0324,0.013523,0.002678,0.000431,0.000940
52651000,0.0324,0.013523,0.002678,0.000431,0.000823
52652000,0.0324,0.013523,0.002678,0.000431,0.000823
52653000,0.0324,0.013523,0.002678,0.000431,0.000823
52654000,0.0324,0.013523,0.002678,0.000431,0.014221
52655000,0.0324,0.013523,0.002678,0.000431,0.777331
52656000,0.0324,0.013523,0.002678,0.000431,0.558611
52657000,0.0324,0.013523,0.002678,0.000431,0.142562
52658000,0.0324,0.013523,0.002678,0.000431,0.139271
52659000,0.0324,0.013523,0.002678,0.000431,0.554498
52660000,0.0324,0.013523,0.002678,0.000431,0.275133
52661000,0.0324,0.013523,0.002678,0.000431,0.316974
52662000,0.0324,0.013523,0.002678,0.000431,0.154197
52663000,0.0324,0.013523,0.002678,0.000431,0.166655
52664000,0.0324,0.013523,0.002678,0.000431,0.148673
52665000,0.0324,0.013523,0.002678,0.000431,0.524998
52666000,0.0324,0.013523,0.002678,0.000431,0.207790
52667000,0.0324,0.013523,0.002678,0.000431,0.170298
52668000,0.0324,0.013523,0.002678,0.000431,0.137508
52669000,0.0324,0.013523,0.002678,0.000431,0.123170
52670000,0.0324,0.013523,0.002678,0.000431,0.109889
52671000,0.0324,0.013523,0.002678,0.000431,0.078039
52672000,0.0324,0.013523,0.002678,0.000431,0.058882
52673000,0.0324,0.013523,0.002678,0.000431,0.045601
52674000,0.0324,0.013523,0.002678,0.000431,0.026444
52675000,0.0324,0.013523,0.002678,0.000431,0.035494
52676000,0.0324,0.013523,0.002678,0.000431,0.014456
52677000,0.0324,0.013523,0.002678,0.000431,0.015161
52678000,0.0324,0.013523,0.002678,0.000431,0.019627
52679000,0.0324,0.013523,0.002678,0.000431,0.013516
52680000,0.0324,0.013523,0.002678,0.000431,0.013868
52681000,0.0324,0.013523,0.002678,0.000431,0.011283
52682000,0.0324,0.013523,0.002678,0.000431,0.010460
52683000,0.0324,0.013523,0.002678,0.000431,0.004936
52684000,0.0324,0.013523,0.002678,0.000431,0.004113
52685000,0.0324,0.013523,0.002678,0.000431,0.007404
52686000,0.0324,0.013523,0.002678,0.000431,0.002821
52687000,0.0324,0.013523,0.002678,0.000431,0.005524
52688000,0.0324,0.013523,0.002678,0.000431,0.003878
52689000,0.0324,0.013523,0.002678,0.000431,0.002116
52690000,0.0324,0.013523,0.002678,0.000431,0.488447
52691000,0.0324,0.013523,0.002678,0.000431,0.740780
52692000,0.0324,0.013523,0.002678,0.000431,0.170416
52693000,0.0324,0.013523,0.002678,0.000431,0.134922
52694000,0.0324,0.013523,0.002678,0.000431,0.499965
52695000,0.0324,0.013523,0.002678,0.000431,0.232941
52696000,0.0324,0.013523,0.002678,0.000431,0.299227
52697000,0.0324,0.013523,0.002678,0.000431,0.228827
52698000,0.0324,0.013523,0.002678,0.000431,0.161836
52699000,0.0324,0.013523,0.002678,0.000431,0.112710
52700000,0.0324,0.013523,0.002678,0.000431,0.405237
52701000,0.0324,0.013523,0.002678,0.000431,0.417225
52702000,0.0324,0.013523,0.002678,0.000431,0.220600
52703000,0.0324,0.013523,0.002678,0.000431,0.178643
52704000,0.0324,0.013523,0.002678,0.000431,0.158310
52705000,0.0324,0.013523,0.002678,0.000431,0.129986
52706000,0.0324,0.013523,0.002678,0.000431,0.103307
52707000,0.0324,0.013523,0.002678,0.000431,0.084385
52708000,0.0324,0.013523,0.002678,0.000431,0.052300
52709000,0.0324,0.013523,0.002678,0.000431,0.046659
52710000,0.0324,0.013523,0.002678,0.000431,0.036551
52711000,0.0324,0.013523,0.002678,0.000431,0.027384
52712000,0.0324,0.013523,0.002678,0.000431,0.021390
52713000,0.0324,0.013523,0.002678,0.000431,0.020450
52714000,0.0324,0.013523,0.002678,0.000431,0.011988
52715000,0.0324,0.013523,0.002678,0.000431,0.017747
52716000,0.0324,0.013523,0.002678,0.000431,0.008932
52717000,0.0324,0.013523,0.002678,0.000431,0.002586
52718000,0.0324,0.013523,0.002678,0.000431,0.002938
52719000,0.0324,0.013523,0.002678,0.000431,0.002233
52720000,0.0324,0.013523,0.002678,0.000431,0.005171
52721000,0.0324,0.013523,0.002678,0.000431,0.001645
52722000,0.0324,0.013523,0.002678,0.000431,0.001998
52723000,0.0324,0.013523,0.002678,0.000431,0.000940
52724000,0.0324,0.013523,0.002678,0.000431,0.001293
52725000,0.0324,0.013523,0.002678,0.000431,0.001058
52726000,0.0324,0.013523,0.002678,0.000431,0.001058
52727000,0.0324,0.013523,0.002678,0.000431,0.001410
52728000,0.0324,0.013523,0.002678,0.000431,0.015279
52729000,0.0324,0.013523,0.002678,0.000431,0.815175
52730000,0.0324,0.013523,0.002678,0.000431,0.562490
52731000,0.0324,0.013523,0.002678,0.000431,0.151611
52732000,0.0324,0.013523,0.002678,0.000431,0.154079
52733000,0.0324,0.013523,0.002678,0.000431,0.580237
52734000,0.0324,0.013523,0.002678,0.000431,0.251510
52735000,0.0324,0.013523,0.002678,0.000431,0.350939
52736000,0.0324,0.013523,0.002678,0.000431,0.155490
52737000,0.0324,0.013523,0.002678,0.000431,0.145265
52738000,0.0324,0.013523,0.002678,0.000431,0.234939
52739000,0.0324,0.013523,0.002678,0.000431,0.472933
52740000,0.0324,0.013523,0.002678,0.000431,0.150436
52741000,0.0324,0.013523,0.002678,0.000431,0.150789
52742000,0.0324,0.013523,0.002678,0.000431,0.118468
52743000,0.0324,0.013523,0.002678,0.000431,0.101309
52744000,0.0324,0.013523,0.002678,0.000431,0.081917
52745000,0.0324,0.013523,0.002678,0.000431,0.079449
52746000,0.0324,0.013523,0.002678,0.000431,0.050420
52747000,0.0324,0.013523,0.002678,0.000431,0.048539
52748000,0.0324,0.013523,0.002678,0.000431,0.032908
52749000,0.0324,0.013523,0.002678,0.000431,0.017512
52750000,0.0324,0.013523,0.002678,0.000431,0.008345
52751000,0.0324,0.013523,0.002678,0.000431,0.004701
52752000,0.0324,0.013523,0.002678,0.000431,0.007522
52753000,0.0324,0.013523,0.002678,0.000431,0.004819
52754000,0.0324,0.013523,0.002678,0.000431,0.004701
52755000,0.0324,0.013523,0.002678,0.000431,0.001410
52756000,0.0324,0.013523,0.002678,0.000431,0.001645
52757000,0.0324,0.013523,0.002678,0.000431,0.001293
52758000,0.0324,0.013523,0.002678,0.000431,0.074865
52759000,0.0324,0.013523,0.002678,0.000431,0.729850
52760000,0.0324,0.013523,0.002678,0.000431,0.517594
52761000,0.0324,0.013523,0.002678,0.000431,0.139976
52762000,0.0324,0.013523,0.002678,0.000431,0.222951
52763000,0.0324,0.013523,0.002678,0.000431,0.510895
52764000,0.0324,0.013523,0.002678,0.000431,0.304633
52765000,0.0324,0.013523,0.002678,0.000431,0.285006
52766000,0.0324,0.013523,0.002678,0.000431,0.146793
52767000,0.0324,0.013523,0.002678,0.000431,0.133277
52768000,0.0324,0.013523,0.002678,0.000431,0.267964
52769000,0.0324,0.013523,0.002678,0.000431,0.492561
52770000,0.0324,0.013523,0.002678,0.000431,0.181699
52771000,0.0324,0.013523,0.002678,0.000431,0.163482
52772000,0.0324,0.013523,0.002678,0.000431,0.144207
52773000,0.0324,0.013523,0.002678,0.000431,0.114472
52774000,0.0324,0.013523,0.002678,0.000431,0.101074
52775000,0.0324,0.013523,0.002678,0.000431,0.080507
52776000,0.0324,0.013523,0.002678,0.000431,0.073573
52777000,0.0324,0.013523,0.002678,0.000431,0.052535
52778000,0.0324,0.013523,0.002678,0.000431,0.050890
52779000,0.0324,0.013523,0.002678,0.000431,0.033025
52780000,0.0324,0.013523,0.002678,0.000431,0.029617
52781000,0.0324,0.013523,0.002678,0.000431,0.026209
52782000,0.0324,0.013523,0.002678,0.000431,0.013868
52783000,0.0324,0.013523,0.002678,0.000431,0.012340
52784000,0.0324,0.013523,0.002678,0.000431,0.009402
52785000,0.0324,0.013523,0.002678,0.000431,0.009167
52786000,0.0324,0.013523,0.002678,0.000431,0.007287
52787000,0.0324,0.013523,0.002678,0.000431,0.006111
52788000,0.0324,0.013523,0.002678,0.000431,0.003878
52789000,0.0324,0.013523,0.002678,0.000431,0.002586
52790000,0.0324,0.013523,0.002678,0.000431,0.003408
52791000,0.0324,0.013523,0.002678,0.000431,0.001880
52792000,0.0324,0.013523,0.002678,0.000431,0.000940
52793000,0.0324,0.013523,0.002678,0.000431,0.001763
52794000,0.0324,0.013523,0.002678,0.000431,0.322850
52795000,0.0324,0.013523,0.002678,0.000431,0.803188
52796000,0.0324,0.013523,0.002678,0.000431,0.302635
52797000,0.0324,0.013523,0.002678,0.000431,0.136920
52798000,0.0324,0.013523,0.002678,0.000431,0.545566
52799000,0.0324,0.013523,0.002678,0.000431,0.247867
52800000,0.0324,0.013523,0.002678,0.000431,0.339421
52801000,0.0324,0.013523,0.002678,0.000431,0.183344
52802000,0.0324,0.013523,0.002678,0.000431,0.169358
52803000,0.0324,0.013523,0.002678,0.000431,0.147498
52804000,0.0324,0.013523,0.002678,0.000431,0.531815
52805000,0.0324,0.013523,0.002678,0.000431,0.185695
52806000,0.0324,0.013523,0.002678,0.000431,0.156195
52807000,0.0324,0.013523,0.002678,0.000431,0.141504
52808000,0.0324,0.013523,0.002678,0.000431,0.123287
52809000,0.0324,0.013523,0.002678,0.000431,0.084503
52810000,0.0324,0.013523,0.002678,0.000431,0.076628
52811000,0.0324,0.013523,0.002678,0.000431,0.049479
52812000,0.0324,0.013523,0.002678,0.000431,0.036434
52813000,0.0324,0.013523,0.002678,0.000431,0.029852
52814000,0.0324,0.013523,0.002678,0.000431,0.023036
52815000,0.0324,0.013523,0.002678,0.000431,0.013281
52816000,0.0324,0.013523,0.002678,0.000431,0.007169
52817000,0.0324,0.013523,0.002678,0.000431,0.005054
52818000,0.0324,0.013523,0.002678,0.000431,0.004466
52819000,0.0324,0.013523,0.002678,0.000431,0.004819
52820000,0.0324,0.013523,0.002678,0.000431,0.004349
52821000,0.0324,0.013523,0.002678,0.000431,0.004113
52822000,0.0324,0.013523,0.002678,0.000431,0.003761
52823000,0.0324,0.013523,0.002678,0.000431,0.006699
52824000,0.0324,0.013523,0.002678,0.000431,0.002586
52825000,0.0324,0.013523,0.002678,0.000431,0.002468
52826000,0.0324,0.013523,0.002678,0.000431,0.006817
52827000,0.0324,0.013523,0.002678,0.000431,0.001528
52828000,0.0324,0.013523,0.002678,0.000431,0.001763
52829000,0.0324,0.013523,0.002678,0.000431,0.001645
52830000,0.0324,0.013523,0.002678,0.000431,0.004466
52831000,0.0324,0.013523,0.002678,0.000431,0.000705
52832000,0.0324,0.013523,0.002678,0.000431,0.000940
52833000,0.0324,0.013523,0.002678,0.000431,0.000823
52834000,0.0324,0.013523,0.002678,0.000431,0.000823
52835000,0.0324,0.013523,0.002678,0.000431,0.000705
52836000,0.0324,0.013523,0.002678,0.000431,0.000940
52837000,0.0324,0.013523,0.002678,0.000431,0.000705
52838000,0.0324,0.013523,0.002678,0.000431,0.257974
52839000,0.0324,0.013523,0.002678,0.000431,0.705287
52840000,0.0324,0.013523,0.002678,0.000431,0.421221
52841000,0.0324,0.013523,0.002678,0.000431,0.136333
52842000,0.0324,0.013523,0.002678,0.000431,0.436735
52843000,0.0324,0.013523,0.002678,0.000431,0.275251
52844000,0.0324,0.013523,0.002678,0.000431,0.302165
52845000,0.0324,0.013523,0.002678,0.000431,0.244224
52846000,0.0324,0.013523,0.002678,0.000431,0.153844
52847000,0.0324,0.013523,0.002678,0.000431,0.129869
52848000,0.0324,0.013523,0.002678,0.000431,0.359166
52849000,0.0324,0.013523,0.002678,0.000431,0.386433
52850000,0.0324,0.013523,0.002678,0.000431,0.163364
52851000,0.0324,0.013523,0.002678,0.000431,0.144090
52852000,0.0324,0.013523,0.002678,0.000431,0.123640
52853000,0.0324,0.013523,0.002678,0.000431,0.098254
52854000,0.0324,0.013523,0.002678,0.000431,0.084385
52855000,0.0324,0.013523,0.002678,0.000431,0.064758
52856000,0.0324,0.013523,0.002678,0.000431,0.052888
52857000,0.0324,0.013523,0.002678,0.000431,0.036081
52858000,0.0324,0.013523,0.002678,0.000431,0.032438
52859000,0.0324,0.013523,0.002678,0.000431,0.029029
52860000,0.0324,0.013523,0.002678,0.000431,0.016336
52861000,0.0324,0.013523,0.002678,0.000431,0.013633
52862000,0.0324,0.013523,0.002678,0.000431,0.019157
52863000,0.0324,0.013523,0.002678,0.000431,0.006347
52864000,0.0324,0.013523,0.002678,0.000431,0.005876
52865000,0.0324,0.013523,0.002678,0.000431,0.006229
52866000,0.0324,0.013523,0.002678,0.000431,0.007992
52867000,0.0324,0.013523,0.002678,0.000431,0.007522
52868000,0.0324,0.013523,0.002678,0.000431,0.005641
52869000,0.0324,0.013523,0.002678,0.000431,0.005171
52870000,0.0324,0.013523,0.002678,0.000431,0.001880
52871000,0.0324,0.013523,0.002678,0.000431,0.001645
52872000,0.0324,0.013523,0.002678,0.000431,0.001645
52873000,0.0324,0.013523,0.002678,0.000431,0.003056
52874000,0.0324,0.013523,0.002678,0.000431,0.203441
52875000,0.0324,0.013523,0.002678,0.000431,0.690008
52876000,0.0324,0.013523,0.002678,0.000431,0.470230
52877000,0.0324,0.013523,0.002678,0.000431,0.135392
52878000,0.0324,0.013523,0.002678,0.000431,0.394660
52879000,0.0324,0.013523,0.002678,0.000431,0.317679
52880000,0.0324,0.013523,0.002678,0.000431,0.287709
52881000,0.0324,0.013523,0.002678,0.000431,0.275839
52882000,0.0324,0.013523,0.002678,0.000431,0.153609
52883000,0.0324,0.013523,0.002678,0.000431,0.115413
52884000,0.0324,0.013523,0.002678,0.000431,0.394425
52885000,0.0324,0.013523,0.002678,0.000431,0.374915
52886000,0.0324,0.013523,0.002678,0.000431,0.184519
52887000,0.0324,0.013523,0.002678,0.000431,0.174294
52888000,0.0324,0.013523,0.002678,0.000431,0.144207
52889000,0.0324,0.013523,0.002678,0.000431,0.132337
52890000,0.0324,0.013523,0.002678,0.000431,0.103072
52891000,0.0324,0.013523,0.002678,0.000431,0.077334
52892000,0.0324,0.013523,0.002678,0.000431,0.066521
52893000,0.0324,0.013523,0.002678,0.000431,0.055943
52894000,0.0324,0.013523,0.002678,0.000431,0.045483
52895000,0.0324,0.013523,0.002678,0.000431,0.035846
52896000,0.0324,0.013523,0.002678,0.000431,0.031498
52897000,0.0324,0.013523,0.002678,0.000431,0.018334
52898000,0.0324,0.013523,0.002678,0.000431,0.012928
52899000,0.0324,0.013523,0.002678,0.000431,0.010225
52900000,0.0324,0.013523,0.002678,0.000431,0.007522
52901000,0.0324,0.013523,0.002678,0.000431,0.008697
52902000,0.0324,0.013523,0.002678,0.000431,0.009520
52903000,0.0324,0.013523,0.002678,0.000431,0.006229
52904000,0.0324,0.013523,0.002678,0.000431,0.008697
52905000,0.0324,0.013523,0.002678,0.000431,0.003643
52906000,0.0324,0.013523,0.002678,0.000431,0.005876
52907000,0.0324,0.013523,0.002678,0.000431,0.002703
52908000,0.0324,0.013523,0.002678,0.000431,0.002703
52909000,0.0324,0.013523,0.002678,0.000431,0.001645
52910000,0.0324,0.013523,0.002678,0.000431,0.002351
52911000,0.0324,0.013523,0.002678,0.000431,0.001763
52912000,0.0324,0.013523,0.002678,0.000431,0.003643
52913000,0.0324,0.013523,0.002678,0.000431,0.000823
52914000,0.0324,0.013523,0.002678,0.000431,0.014573
52915000,0.0324,0.013523,0.002678,0.000431,0.773335
52916000,0.0324,0.013523,0.002678,0.000431,0.538867
52917000,0.0324,0.013523,0.002678,0.000431,0.141857
52918000,0.0324,0.013523,0.002678,0.000431,0.141974
52919000,0.0324,0.013523,0.002678,0.000431,0.541452
52920000,0.0324,0.013523,0.002678,0.000431,0.263381
52921000,0.0324,0.013523,0.002678,0.000431,0.308864
52922000,0.0324,0.013523,0.002678,0.000431,0.154432
52923000,0.0324,0.013523,0.002678,0.000431,0.157253
52924000,0.0324,0.013523,0.002678,0.000431,0.206732
52925000,0.0324,0.013523,0.002678,0.000431,0.490680
52926000,0.0324,0.013523,0.002678,0.000431,0.188280
52927000,0.0324,0.013523,0.002678,0.000431,0.158310
52928000,0.0324,0.013523,0.002678,0.000431,0.132924
52929000,0.0324,0.013523,0.002678,0.000431,0.125638
52930000,0.0324,0.013523,0.002678,0.000431,0.103307
52931000,0.0324,0.013523,0.002678,0.000431,0.082857
52932000,0.0324,0.013523,0.002678,0.000431,0.075923
52933000,0.0324,0.013523,0.002678,0.000431,0.070752
52934000,0.0324,0.013523,0.002678,0.000431,0.064053
52935000,0.0324,0.013523,0.002678,0.000431,0.050067
52936000,0.0324,0.013523,0.002678,0.000431,0.035964
52937000,0.0324,0.013523,0.002678,0.000431,0.034083
52938000,0.0324,0.013523,0.002678,0.000431,0.028207
52939000,0.0324,0.013523,0.002678,0.000431,0.024681
52940000,0.0324,0.013523,0.002678,0.000431,0.024328
52941000,0.0324,0.013523,0.002678,0.000431,0.024798
52942000,0.0324,0.013523,0.002678,0.000431,0.025269
52943000,0.0324,0.013523,0.002678,0.000431,0.025386
52944000,0.0324,0.013523,0.002678,0.000431,0.020215
52945000,0.0324,0.013523,0.002678,0.000431,0.017277
52946000,0.0324,0.013523,0.002678,0.000431,0.014573
52947000,0.0324,0.013523,0.002678,0.000431,0.016807
52948000,0.0324,0.013523,0.002678,0.000431,0.006934
52949000,0.0324,0.013523,0.002678,0.000431,0.005994
52950000,0.0324,0.013523,0.002678,0.000431,0.007052
52951000,0.0324,0.013523,0.002678,0.000431,0.003408
52952000,0.0324,0.013523,0.002678,0.000431,0.003643
52953000,0.0324,0.013523,0.002678,0.000431,0.006934
52954000,0.0324,0.013523,0.002678,0.000431,0.017982
52955000,0.0324,0.013523,0.002678,0.000431,0.699880
52956000,0.0324,0.013523,0.002678,0.000431,0.577651
52957000,0.0324,0.013523,0.002678,0.000431,0.136215
52958000,0.0324,0.013523,0.002678,0.000431,0.135980
52959000,0.0324,0.013523,0.002678,0.000431,0.542510
52960000,0.0324,0.013523,0.002678,0.000431,0.269610
52961000,0.0324,0.013523,0.002678,0.000431,0.345768
52962000,0.0324,0.013523,0.002678,0.000431,0.157605
52963000,0.0324,0.013523,0.002678,0.000431,0.172531
52964000,0.0324,0.013523,0.002678,0.000431,0.146323
52965000,0.0324,0.013523,0.002678,0.000431,0.523471
52966000,0.0324,0.013523,0.002678,0.000431,0.172179
52967000,0.0324,0.013523,0.002678,0.000431,0.126930
52968000,0.0324,0.013523,0.002678,0.000431,0.113532
52969000,0.0324,0.013523,0.002678,0.000431,0.097548
52970000,0.0324,0.013523,0.002678,0.000431,0.084033
52971000,0.0324,0.013523,0.002678,0.000431,0.070047
52972000,0.0324,0.013523,0.002678,0.000431,0.058647
52973000,0.0324,0.013523,0.002678,0.000431,0.036199
52974000,0.0324,0.013523,0.002678,0.000431,0.033848
52975000,0.0324,0.013523,0.002678,0.000431,0.026326
52976000,0.0324,0.013523,0.002678,0.000431,0.018452
52977000,0.0324,0.013523,0.002678,0.000431,0.022095
52978000,0.0324,0.013523,0.002678,0.000431,0.011753
52979000,0.0324,0.013523,0.002678,0.000431,0.012223
52980000,0.0324,0.013523,0.002678,0.000431,0.016336
52981000,0.0324,0.013523,0.002678,0.000431,0.011283
52982000,0.0324,0.013523,0.002678,0.000431,0.012223
52983000,0.0324,0.013523,0.002678,0.000431,0.005641
52984000,0.0324,0.013523,0.002678,0.000431,0.005289
52985000,0.0324,0.013523,0.002678,0.000431,0.008109
52986000,0.0324,0.013523,0.002678,0.000431,0.000823
52987000,0.0324,0.013523,0.002678,0.000431,0.000705
52988000,0.0324,0.013523,0.002678,0.000431,0.000940
52989000,0.0324,0.013523,0.002678,0.000431,0.000940
52990000,0.0324,0.013523,0.002678,0.000431,0.000705
52991000,0.0324,0.013523,0.002678,0.000431,0.000940
52992000,0.0324,0.013523,0.002678,0.000431,0.000705
52993000,0.0324,0.013523,0.002678,0.000431,0.000940
52994000,0.0324,0.013523,0.002678,0.000431,0.000940
52995000,0.0324,0.013523,0.002678,0.000431,0.000705
52996000,0.0324,0.013523,0.002678,0.000431,0.000940
52997000,0.0324,0.013523,0.002678,0.000431,0.002468
52998000,0.0324,0.013523,0.002678,0.000431,0.503256
52999000,0.0324,0.013523,0.002678,0.000431,0.727735
