Cycle,Area(mm^2),PeakDynamic(W),SubthresholdLeakage(W),GateLeakage(W),RunTimeDynamic(W)
53000000,0.0324,0.013523,0.002678,0.000431,0.142327
53001000,0.0324,0.013523,0.002678,0.000431,0.136803
53002000,0.0324,0.013523,0.002678,0.000431,0.574595
53003000,0.0324,0.013523,0.002678,0.000431,0.246927
53004000,0.0324,0.013523,0.002678,0.000431,0.313213
53005000,0.0324,0.013523,0.002678,0.000431,0.222951
53006000,0.0324,0.013523,0.002678,0.000431,0.159133
53007000,0.0324,0.013523,0.002678,0.000431,0.107303
53008000,0.0324,0.013523,0.002678,0.000431,0.503021
53009000,0.0324,0.013523,0.002678,0.000431,0.250570
53010000,0.0324,0.013523,0.002678,0.000431,0.178525
53011000,0.0324,0.013523,0.002678,0.000431,0.141269
53012000,0.0324,0.013523,0.002678,0.000431,0.122582
53013000,0.0324,0.013523,0.002678,0.000431,0.101662
53014000,0.0324,0.013523,0.002678,0.000431,0.098724
53015000,0.0324,0.013523,0.002678,0.000431,0.086266
53016000,0.0324,0.013523,0.002678,0.000431,0.053945
53017000,0.0324,0.013523,0.002678,0.000431,0.047834
53018000,0.0324,0.013523,0.002678,0.000431,0.034436
53019000,0.0324,0.013523,0.002678,0.000431,0.028324
53020000,0.0324,0.013523,0.002678,0.000431,0.020450
53021000,0.0324,0.013523,0.002678,0.000431,0.011988
53022000,0.0324,0.013523,0.002678,0.000431,0.008462
53023000,0.0324,0.013523,0.002678,0.000431,0.006464
53024000,0.0324,0.013523,0.002678,0.000431,0.003761
53025000,0.0324,0.013523,0.002678,0.000431,0.004113
53026000,0.0324,0.013523,0.002678,0.000431,0.003643
53027000,0.0324,0.013523,0.002678,0.000431,0.003643
53028000,0.0324,0.013523,0.002678,0.000431,0.003056
53029000,0.0324,0.013523,0.002678,0.000431,0.004466
53030000,0.0324,0.013523,0.002678,0.000431,0.003526
53031000,0.0324,0.013523,0.002678,0.000431,0.004584
53032000,0.0324,0.013523,0.002678,0.000431,0.007639
53033000,0.0324,0.013523,0.002678,0.000431,0.000940
53034000,0.0324,0.013523,0.002678,0.000431,0.232588
53035000,0.0324,0.013523,0.002678,0.000431,0.668383
53036000,0.0324,0.013523,0.002678,0.000431,0.465882
53037000,0.0324,0.013523,0.002678,0.000431,0.136333
53038000,0.0324,0.013523,0.002678,0.000431,0.285946
53039000,0.0324,0.013523,0.002678,0.000431,0.497732
53040000,0.0324,0.013523,0.002678,0.000431,0.254684
53041000,0.0324,0.013523,0.002678,0.000431,0.265731
53042000,0.0324,0.013523,0.002678,0.000431,0.149613
53043000,0.0324,0.013523,0.002678,0.000431,0.146323
53044000,0.0324,0.013523,0.002678,0.000431,0.237995
53045000,0.0324,0.013523,0.002678,0.000431,0.494206
53046000,0.0324,0.013523,0.002678,0.000431,0.218955
53047000,0.0324,0.013523,0.002678,0.000431,0.205674
53048000,0.0324,0.013523,0.002678,0.000431,0.155020
53049000,0.0324,0.013523,0.002678,0.000431,0.135392
53050000,0.0324,0.013523,0.002678,0.000431,0.110006
53051000,0.0324,0.013523,0.002678,0.000431,0.088381
53052000,0.0324,0.013523,0.002678,0.000431,0.071575
53053000,0.0324,0.013523,0.002678,0.000431,0.070282
53054000,0.0324,0.013523,0.002678,0.000431,0.041723
53055000,0.0324,0.013523,0.002678,0.000431,0.027502
53056000,0.0324,0.013523,0.002678,0.000431,0.033496
53057000,0.0324,0.013523,0.002678,0.000431,0.021155
53058000,0.0324,0.013523,0.002678,0.000431,0.016219
53059000,0.0324,0.013523,0.002678,0.000431,0.012105
53060000,0.0324,0.013523,0.002678,0.000431,0.012458
53061000,0.0324,0.013523,0.002678,0.000431,0.009402
53062000,0.0324,0.013523,0.002678,0.000431,0.003761
53063000,0.0324,0.013523,0.002678,0.000431,0.003996
53064000,0.0324,0.013523,0.002678,0.000431,0.007992
53065000,0.0324,0.013523,0.002678,0.000431,0.001645
53066000,0.0324,0.013523,0.002678,0.000431,0.001645
53067000,0.0324,0.013523,0.002678,0.000431,0.001645
53068000,0.0324,0.013523,0.002678,0.000431,0.001645
53069000,0.0324,0.013523,0.002678,0.000431,0.001645
53070000,0.0324,0.013523,0.002678,0.000431,0.001763
53071000,0.0324,0.013523,0.002678,0.000431,0.001528
53072000,0.0324,0.013523,0.002678,0.000431,0.003291
53073000,0.0324,0.013523,0.002678,0.000431,0.002821
53074000,0.0324,0.013523,0.002678,0.000431,0.000705
53075000,0.0324,0.013523,0.002678,0.000431,0.000940
53076000,0.0324,0.013523,0.002678,0.000431,0.000705
53077000,0.0324,0.013523,0.002678,0.000431,0.000940
53078000,0.0324,0.013523,0.002678,0.000431,0.000940
53079000,0.0324,0.013523,0.002678,0.000431,0.000705
53080000,0.0324,0.013523,0.002678,0.000431,0.000705
53081000,0.0324,0.013523,0.002678,0.000431,0.000940
53082000,0.0324,0.013523,0.002678,0.000431,0.000940
53083000,0.0324,0.013523,0.002678,0.000431,0.000705
53084000,0.0324,0.013523,0.002678,0.000431,0.000940
53085000,0.0324,0.013523,0.002678,0.000431,0.000705
53086000,0.0324,0.013523,0.002678,0.000431,0.000940
53087000,0.0324,0.013523,0.002678,0.000431,0.000823
53088000,0.0324,0.013523,0.002678,0.000431,0.000823
53089000,0.0324,0.013523,0.002678,0.000431,0.000823
53090000,0.0324,0.013523,0.002678,0.000431,0.000823
53091000,0.0324,0.013523,0.002678,0.000431,0.000823
53092000,0.0324,0.013523,0.002678,0.000431,0.000823
53093000,0.0324,0.013523,0.002678,0.000431,0.000940
53094000,0.0324,0.013523,0.002678,0.000431,0.000823
53095000,0.0324,0.013523,0.002678,0.000431,0.000823
53096000,0.0324,0.013523,0.002678,0.000431,0.000823
53097000,0.0324,0.013523,0.002678,0.000431,0.000823
53098000,0.0324,0.013523,0.002678,0.000431,0.000823
53099000,0.0324,0.013523,0.002678,0.000431,0.000823
53100000,0.0324,0.013523,0.002678,0.000431,0.000940
53101000,0.0324,0.013523,0.002678,0.000431,0.000705
53102000,0.0324,0.013523,0.002678,0.000431,0.000940
53103000,0.0324,0.013523,0.002678,0.000431,0.000705
53104000,0.0324,0.013523,0.002678,0.000431,0.000940
53105000,0.0324,0.013523,0.002678,0.000431,0.000823
53106000,0.0324,0.013523,0.002678,0.000431,0.000823
53107000,0.0324,0.013523,0.002678,0.000431,0.000940
53108000,0.0324,0.013523,0.002678,0.000431,0.000705
53109000,0.0324,0.013523,0.002678,0.000431,0.000940
53110000,0.0324,0.013523,0.002678,0.000431,0.000823
53111000,0.0324,0.013523,0.002678,0.000431,0.000823
53112000,0.0324,0.013523,0.002678,0.000431,0.000823
53113000,0.0324,0.013523,0.002678,0.000431,0.000823
53114000,0.0324,0.013523,0.002678,0.000431,0.000823
53115000,0.0324,0.013523,0.002678,0.000431,0.000823
53116000,0.0324,0.013523,0.002678,0.000431,0.000940
53117000,0.0324,0.013523,0.002678,0.000431,0.000705
53118000,0.0324,0.013523,0.002678,0.000431,0.000823
53119000,0.0324,0.013523,0.002678,0.000431,0.000940
53120000,0.0324,0.013523,0.002678,0.000431,0.000823
53121000,0.0324,0.013523,0.002678,0.000431,0.000823
53122000,0.0324,0.013523,0.002678,0.000431,0.000823
53123000,0.0324,0.013523,0.002678,0.000431,0.000705
53124000,0.0324,0.013523,0.002678,0.000431,0.000940
53125000,0.0324,0.013523,0.002678,0.000431,0.000940
53126000,0.0324,0.013523,0.002678,0.000431,0.000705
53127000,0.0324,0.013523,0.002678,0.000431,0.000940
53128000,0.0324,0.013523,0.002678,0.000431,0.000705
53129000,0.0324,0.013523,0.002678,0.000431,0.000940
53130000,0.0324,0.013523,0.002678,0.000431,0.000940
53131000,0.0324,0.013523,0.002678,0.000431,0.000705
53132000,0.0324,0.013523,0.002678,0.000431,0.000705
53133000,0.0324,0.013523,0.002678,0.000431,0.000940
53134000,0.0324,0.013523,0.002678,0.000431,0.000823
53135000,0.0324,0.013523,0.002678,0.000431,0.000823
53136000,0.0324,0.013523,0.002678,0.000431,0.000940
53137000,0.0324,0.013523,0.002678,0.000431,0.000705
53138000,0.0324,0.013523,0.002678,0.000431,0.000940
53139000,0.0324,0.013523,0.002678,0.000431,0.000823
53140000,0.0324,0.013523,0.002678,0.000431,0.000823
53141000,0.0324,0.013523,0.002678,0.000431,0.000823
53142000,0.0324,0.013523,0.002678,0.000431,0.000705
53143000,0.0324,0.013523,0.002678,0.000431,0.000823
53144000,0.0324,0.013523,0.002678,0.000431,0.000823
53145000,0.0324,0.013523,0.002678,0.000431,0.000823
53146000,0.0324,0.013523,0.002678,0.000431,0.000940
53147000,0.0324,0.013523,0.002678,0.000431,0.000705
53148000,0.0324,0.013523,0.002678,0.000431,0.000823
53149000,0.0324,0.013523,0.002678,0.000431,0.000940
53150000,0.0324,0.013523,0.002678,0.000431,0.000823
53151000,0.0324,0.013523,0.002678,0.000431,0.000705
53152000,0.0324,0.013523,0.002678,0.000431,0.000940
53153000,0.0324,0.013523,0.002678,0.000431,0.000823
53154000,0.0324,0.013523,0.002678,0.000431,0.000823
53155000,0.0324,0.013523,0.002678,0.000431,0.000940
53156000,0.0324,0.013523,0.002678,0.000431,0.000705
53157000,0.0324,0.013523,0.002678,0.000431,0.000940
53158000,0.0324,0.013523,0.002678,0.000431,0.000705
53159000,0.0324,0.013523,0.002678,0.000431,0.029970
53160000,0.0324,0.013523,0.002678,0.000431,0.778037
53161000,0.0324,0.013523,0.002678,0.000431,0.545683
53162000,0.0324,0.013523,0.002678,0.000431,0.134805
53163000,0.0324,0.013523,0.002678,0.000431,0.178760
53164000,0.0324,0.013523,0.002678,0.000431,0.554851
53165000,0.0324,0.013523,0.002678,0.000431,0.273488
53166000,0.0324,0.013523,0.002678,0.000431,0.277367
53167000,0.0324,0.013523,0.002678,0.000431,0.145030
53168000,0.0324,0.013523,0.002678,0.000431,0.150436
53169000,0.0324,0.013523,0.002678,0.000431,0.239522
53170000,0.0324,0.013523,0.002678,0.000431,0.493501
53171000,0.0324,0.013523,0.002678,0.000431,0.185695
53172000,0.0324,0.013523,0.002678,0.000431,0.171356
53173000,0.0324,0.013523,0.002678,0.000431,0.163952
53174000,0.0324,0.013523,0.002678,0.000431,0.135275
53175000,0.0324,0.013523,0.002678,0.000431,0.113415
53176000,0.0324,0.013523,0.002678,0.000431,0.076393
53177000,0.0324,0.013523,0.002678,0.000431,0.068166
53178000,0.0324,0.013523,0.002678,0.000431,0.055943
53179000,0.0324,0.013523,0.002678,0.000431,0.051595
53180000,0.0324,0.013523,0.002678,0.000431,0.045366
53181000,0.0324,0.013523,0.002678,0.000431,0.027737
53182000,0.0324,0.013523,0.002678,0.000431,0.028089
53183000,0.0324,0.013523,0.002678,0.000431,0.024681
53184000,0.0324,0.013523,0.002678,0.000431,0.019510
53185000,0.0324,0.013523,0.002678,0.000431,0.017629
53186000,0.0324,0.013523,0.002678,0.000431,0.016689
53187000,0.0324,0.013523,0.002678,0.000431,0.011165
53188000,0.0324,0.013523,0.002678,0.000431,0.007522
53189000,0.0324,0.013523,0.002678,0.000431,0.005406
53190000,0.0324,0.013523,0.002678,0.000431,0.005876
53191000,0.0324,0.013523,0.002678,0.000431,0.005054
53192000,0.0324,0.013523,0.002678,0.000431,0.008697
53193000,0.0324,0.013523,0.002678,0.000431,0.003526
53194000,0.0324,0.013523,0.002678,0.000431,0.003056
53195000,0.0324,0.013523,0.002678,0.000431,0.002938
53196000,0.0324,0.013523,0.002678,0.000431,0.003526
53197000,0.0324,0.013523,0.002678,0.000431,0.002233
53198000,0.0324,0.013523,0.002678,0.000431,0.002116
53199000,0.0324,0.013523,0.002678,0.000431,0.005171
53200000,0.0324,0.013523,0.002678,0.000431,0.001528
53201000,0.0324,0.013523,0.002678,0.000431,0.000823
53202000,0.0324,0.013523,0.002678,0.000431,0.000940
53203000,0.0324,0.013523,0.002678,0.000431,0.014338
53204000,0.0324,0.013523,0.002678,0.000431,0.716569
53205000,0.0324,0.013523,0.002678,0.000431,0.597983
53206000,0.0324,0.013523,0.002678,0.000431,0.137390
53207000,0.0324,0.013523,0.002678,0.000431,0.135275
53208000,0.0324,0.013523,0.002678,0.000431,0.517359
53209000,0.0324,0.013523,0.002678,0.000431,0.247867
53210000,0.0324,0.013523,0.002678,0.000431,0.304280
53211000,0.0324,0.013523,0.002678,0.000431,0.214606
53212000,0.0324,0.013523,0.002678,0.000431,0.153844
53213000,0.0324,0.013523,0.002678,0.000431,0.113415
53214000,0.0324,0.013523,0.002678,0.000431,0.417460
53215000,0.0324,0.013523,0.002678,0.000431,0.348589
53216000,0.0324,0.013523,0.002678,0.000431,0.164069
53217000,0.0324,0.013523,0.002678,0.000431,0.141974
53218000,0.0324,0.013523,0.002678,0.000431,0.130456
53219000,0.0324,0.013523,0.002678,0.000431,0.105305
53220000,0.0324,0.013523,0.002678,0.000431,0.094023
53221000,0.0324,0.013523,0.002678,0.000431,0.069929
53222000,0.0324,0.013523,0.002678,0.000431,0.053710
53223000,0.0324,0.013523,0.002678,0.000431,0.041487
53224000,0.0324,0.013523,0.002678,0.000431,0.034436
53225000,0.0324,0.013523,0.002678,0.000431,0.026679
53226000,0.0324,0.013523,0.002678,0.000431,0.021273
53227000,0.0324,0.013523,0.002678,0.000431,0.019862
53228000,0.0324,0.013523,0.002678,0.000431,0.017394
53229000,0.0324,0.013523,0.002678,0.000431,0.009637
53230000,0.0324,0.013523,0.002678,0.000431,0.003878
53231000,0.0324,0.013523,0.002678,0.000431,0.006229
53232000,0.0324,0.013523,0.002678,0.000431,0.002586
53233000,0.0324,0.013523,0.002678,0.000431,0.002233
53234000,0.0324,0.013523,0.002678,0.000431,0.002468
53235000,0.0324,0.013523,0.002678,0.000431,0.001998
53236000,0.0324,0.013523,0.002678,0.000431,0.002468
53237000,0.0324,0.013523,0.002678,0.000431,0.002703
53238000,0.0324,0.013523,0.002678,0.000431,0.004231
53239000,0.0324,0.013523,0.002678,0.000431,0.001528
53240000,0.0324,0.013523,0.002678,0.000431,0.000823
53241000,0.0324,0.013523,0.002678,0.000431,0.000823
53242000,0.0324,0.013523,0.002678,0.000431,0.063113
53243000,0.0324,0.013523,0.002678,0.000431,0.723033
53244000,0.0324,0.013523,0.002678,0.000431,0.547211
53245000,0.0324,0.013523,0.002678,0.000431,0.137273
53246000,0.0324,0.013523,0.002678,0.000431,0.170298
53247000,0.0324,0.013523,0.002678,0.000431,0.509015
53248000,0.0324,0.013523,0.002678,0.000431,0.266319
53249000,0.0324,0.013523,0.002678,0.000431,0.311920
53250000,0.0324,0.013523,0.002678,0.000431,0.146205
53251000,0.0324,0.013523,0.002678,0.000431,0.148908
53252000,0.0324,0.013523,0.002678,0.000431,0.242578
53253000,0.0324,0.013523,0.002678,0.000431,0.535929
53254000,0.0324,0.013523,0.002678,0.000431,0.210258
53255000,0.0324,0.013523,0.002678,0.000431,0.186635
53256000,0.0324,0.013523,0.002678,0.000431,0.150906
53257000,0.0324,0.013523,0.002678,0.000431,0.126578
53258000,0.0324,0.013523,0.002678,0.000431,0.125520
53259000,0.0324,0.013523,0.002678,0.000431,0.077804
53260000,0.0324,0.013523,0.002678,0.000431,0.086618
53261000,0.0324,0.013523,0.002678,0.000431,0.044426
53262000,0.0324,0.013523,0.002678,0.000431,0.040312
53263000,0.0324,0.013523,0.002678,0.000431,0.029852
53264000,0.0324,0.013523,0.002678,0.000431,0.027972
53265000,0.0324,0.013523,0.002678,0.000431,0.019040
53266000,0.0324,0.013523,0.002678,0.000431,0.016571
53267000,0.0324,0.013523,0.002678,0.000431,0.009637
53268000,0.0324,0.013523,0.002678,0.000431,0.005994
53269000,0.0324,0.013523,0.002678,0.000431,0.005524
53270000,0.0324,0.013523,0.002678,0.000431,0.006934
53271000,0.0324,0.013523,0.002678,0.000431,0.004231
53272000,0.0324,0.013523,0.002678,0.000431,0.004349
53273000,0.0324,0.013523,0.002678,0.000431,0.003878
53274000,0.0324,0.013523,0.002678,0.000431,0.006699
53275000,0.0324,0.013523,0.002678,0.000431,0.002703
53276000,0.0324,0.013523,0.002678,0.000431,0.002586
53277000,0.0324,0.013523,0.002678,0.000431,0.002468
53278000,0.0324,0.013523,0.002678,0.000431,0.002586
53279000,0.0324,0.013523,0.002678,0.000431,0.002468
53280000,0.0324,0.013523,0.002678,0.000431,0.007639
53281000,0.0324,0.013523,0.002678,0.000431,0.000823
53282000,0.0324,0.013523,0.002678,0.000431,0.000940
53283000,0.0324,0.013523,0.002678,0.000431,0.262440
53284000,0.0324,0.013523,0.002678,0.000431,0.743601
53285000,0.0324,0.013523,0.002678,0.000431,0.422514
53286000,0.0324,0.013523,0.002678,0.000431,0.155020
53287000,0.0324,0.013523,0.002678,0.000431,0.483628
53288000,0.0324,0.013523,0.002678,0.000431,0.276191
53289000,0.0324,0.013523,0.002678,0.000431,0.318031
53290000,0.0324,0.013523,0.002678,0.000431,0.229768
53291000,0.0324,0.013523,0.002678,0.000431,0.187928
53292000,0.0324,0.013523,0.002678,0.000431,0.082975
53293000,0.0324,0.013523,0.002678,0.000431,0.548269
53294000,0.0324,0.013523,0.002678,0.000431,0.217427
53295000,0.0324,0.013523,0.002678,0.000431,0.162777
53296000,0.0324,0.013523,0.002678,0.000431,0.138448
53297000,0.0324,0.013523,0.002678,0.000431,0.117411
53298000,0.0324,0.013523,0.002678,0.000431,0.096491
53299000,0.0324,0.013523,0.002678,0.000431,0.086383
53300000,0.0324,0.013523,0.002678,0.000431,0.053475
53301000,0.0324,0.013523,0.002678,0.000431,0.047834
53302000,0.0324,0.013523,0.002678,0.000431,0.037844
53303000,0.0324,0.013523,0.002678,0.000431,0.020567
53304000,0.0324,0.013523,0.002678,0.000431,0.025386
53305000,0.0324,0.013523,0.002678,0.000431,0.019392
53306000,0.0324,0.013523,0.002678,0.000431,0.012928
53307000,0.0324,0.013523,0.002678,0.000431,0.023153
53308000,0.0324,0.013523,0.002678,0.000431,0.012105
53309000,0.0324,0.013523,0.002678,0.000431,0.006111
53310000,0.0324,0.013523,0.002678,0.000431,0.005994
53311000,0.0324,0.013523,0.002678,0.000431,0.005759
53312000,0.0324,0.013523,0.002678,0.000431,0.008345
53313000,0.0324,0.013523,0.002678,0.000431,0.000940
53314000,0.0324,0.013523,0.002678,0.000431,0.001058
53315000,0.0324,0.013523,0.002678,0.000431,0.000705
53316000,0.0324,0.013523,0.002678,0.000431,0.001175
53317000,0.0324,0.013523,0.002678,0.000431,0.000705
53318000,0.0324,0.013523,0.002678,0.000431,0.001058
53319000,0.0324,0.013523,0.002678,0.000431,0.000940
53320000,0.0324,0.013523,0.002678,0.000431,0.000823
53321000,0.0324,0.013523,0.002678,0.000431,0.001058
53322000,0.0324,0.013523,0.002678,0.000431,0.000823
53323000,0.0324,0.013523,0.002678,0.000431,0.001058
53324000,0.0324,0.013523,0.002678,0.000431,0.000823
53325000,0.0324,0.013523,0.002678,0.000431,0.000940
53326000,0.0324,0.013523,0.002678,0.000431,0.000940
53327000,0.0324,0.013523,0.002678,0.000431,0.000940
53328000,0.0324,0.013523,0.002678,0.000431,0.000823
53329000,0.0324,0.013523,0.002678,0.000431,0.001058
53330000,0.0324,0.013523,0.002678,0.000431,0.000940
53331000,0.0324,0.013523,0.002678,0.000431,0.000940
53332000,0.0324,0.013523,0.002678,0.000431,0.000940
53333000,0.0324,0.013523,0.002678,0.000431,0.000823
53334000,0.0324,0.013523,0.002678,0.000431,0.001410
53335000,0.0324,0.013523,0.002678,0.000431,0.001528
53336000,0.0324,0.013523,0.002678,0.000431,0.284536
53337000,0.0324,0.013523,0.002678,0.000431,0.753356
53338000,0.0324,0.013523,0.002678,0.000431,0.341302
53339000,0.0324,0.013523,0.002678,0.000431,0.137626
53340000,0.0324,0.013523,0.002678,0.000431,0.472463
53341000,0.0324,0.013523,0.002678,0.000431,0.273606
53342000,0.0324,0.013523,0.002678,0.000431,0.274781
53343000,0.0324,0.013523,0.002678,0.000431,0.259385
53344000,0.0324,0.013523,0.002678,0.000431,0.159133
53345000,0.0324,0.013523,0.002678,0.000431,0.121289
53346000,0.0324,0.013523,0.002678,0.000431,0.378441
53347000,0.0324,0.013523,0.002678,0.000431,0.395482
53348000,0.0324,0.013523,0.002678,0.000431,0.190983
53349000,0.0324,0.013523,0.002678,0.000431,0.184284
53350000,0.0324,0.013523,0.002678,0.000431,0.146088
53351000,0.0324,0.013523,0.002678,0.000431,0.111064
53352000,0.0324,0.013523,0.002678,0.000431,0.104247
53353000,0.0324,0.013523,0.002678,0.000431,0.090849
53354000,0.0324,0.013523,0.002678,0.000431,0.071105
53355000,0.0324,0.013523,0.002678,0.000431,0.058176
53356000,0.0324,0.013523,0.002678,0.000431,0.046659
53357000,0.0324,0.013523,0.002678,0.000431,0.043250
53358000,0.0324,0.013523,0.002678,0.000431,0.041017
53359000,0.0324,0.013523,0.002678,0.000431,0.031850
53360000,0.0324,0.013523,0.002678,0.000431,0.027737
53361000,0.0324,0.013523,0.002678,0.000431,0.021978
53362000,0.0324,0.013523,0.002678,0.000431,0.018569
53363000,0.0324,0.013523,0.002678,0.000431,0.012693
53364000,0.0324,0.013523,0.002678,0.000431,0.010225
53365000,0.0324,0.013523,0.002678,0.000431,0.010107
53366000,0.0324,0.013523,0.002678,0.000431,0.007287
53367000,0.0324,0.013523,0.002678,0.000431,0.005759
53368000,0.0324,0.013523,0.002678,0.000431,0.006347
53369000,0.0324,0.013523,0.002678,0.000431,0.010342
53370000,0.0324,0.013523,0.002678,0.000431,0.008580
53371000,0.0324,0.013523,0.002678,0.000431,0.002351
53372000,0.0324,0.013523,0.002678,0.000431,0.002468
53373000,0.0324,0.013523,0.002678,0.000431,0.001763
53374000,0.0324,0.013523,0.002678,0.000431,0.072280
53375000,0.0324,0.013523,0.002678,0.000431,0.761935
53376000,0.0324,0.013523,0.002678,0.000431,0.538749
53377000,0.0324,0.013523,0.002678,0.000431,0.139036
53378000,0.0324,0.013523,0.002678,0.000431,0.280892
53379000,0.0324,0.013523,0.002678,0.000431,0.496322
53380000,0.0324,0.013523,0.002678,0.000431,0.239522
53381000,0.0324,0.013523,0.002678,0.000431,0.294408
53382000,0.0324,0.013523,0.002678,0.000431,0.145382
53383000,0.0324,0.013523,0.002678,0.000431,0.139506
53384000,0.0324,0.013523,0.002678,0.000431,0.312860
53385000,0.0324,0.013523,0.002678,0.000431,0.440613
53386000,0.0324,0.013523,0.002678,0.000431,0.205204
53387000,0.0324,0.013523,0.002678,0.000431,0.171004
53388000,0.0324,0.013523,0.002678,0.000431,0.150906
53389000,0.0324,0.013523,0.002678,0.000431,0.117176
53390000,0.0324,0.013523,0.002678,0.000431,0.097666
53391000,0.0324,0.013523,0.002678,0.000431,0.072045
53392000,0.0324,0.013523,0.002678,0.000431,0.081917
53393000,0.0324,0.013523,0.002678,0.000431,0.058176
53394000,0.0324,0.013523,0.002678,0.000431,0.055238
53395000,0.0324,0.013523,0.002678,0.000431,0.052300
53396000,0.0324,0.013523,0.002678,0.000431,0.037139
53397000,0.0324,0.013523,0.002678,0.000431,0.026444
53398000,0.0324,0.013523,0.002678,0.000431,0.019157
53399000,0.0324,0.013523,0.002678,0.000431,0.016101
53400000,0.0324,0.013523,0.002678,0.000431,0.010107
53401000,0.0324,0.013523,0.002678,0.000431,0.006817
53402000,0.0324,0.013523,0.002678,0.000431,0.007874
53403000,0.0324,0.013523,0.002678,0.000431,0.003526
53404000,0.0324,0.013523,0.002678,0.000431,0.001880
53405000,0.0324,0.013523,0.002678,0.000431,0.001763
53406000,0.0324,0.013523,0.002678,0.000431,0.001528
53407000,0.0324,0.013523,0.002678,0.000431,0.001880
53408000,0.0324,0.013523,0.002678,0.000431,0.001880
53409000,0.0324,0.013523,0.002678,0.000431,0.006699
53410000,0.0324,0.013523,0.002678,0.000431,0.371624
53411000,0.0324,0.013523,0.002678,0.000431,0.788144
53412000,0.0324,0.013523,0.002678,0.000431,0.252803
53413000,0.0324,0.013523,0.002678,0.000431,0.140916
53414000,0.0324,0.013523,0.002678,0.000431,0.530992
53415000,0.0324,0.013523,0.002678,0.000431,0.264438
53416000,0.0324,0.013523,0.002678,0.000431,0.304280
53417000,0.0324,0.013523,0.002678,0.000431,0.184754
53418000,0.0324,0.013523,0.002678,0.000431,0.185695
53419000,0.0324,0.013523,0.002678,0.000431,0.101544
53420000,0.0324,0.013523,0.002678,0.000431,0.544743
53421000,0.0324,0.013523,0.002678,0.000431,0.185107
53422000,0.0324,0.013523,0.002678,0.000431,0.150789
53423000,0.0324,0.013523,0.002678,0.000431,0.116353
53424000,0.0324,0.013523,0.002678,0.000431,0.114472
53425000,0.0324,0.013523,0.002678,0.000431,0.086148
53426000,0.0324,0.013523,0.002678,0.000431,0.073455
53427000,0.0324,0.013523,0.002678,0.000431,0.065228
53428000,0.0324,0.013523,0.002678,0.000431,0.044661
53429000,0.0324,0.013523,0.002678,0.000431,0.045013
53430000,0.0324,0.013523,0.002678,0.000431,0.049009
53431000,0.0324,0.013523,0.002678,0.000431,0.036081
53432000,0.0324,0.013523,0.002678,0.000431,0.024446
53433000,0.0324,0.013523,0.002678,0.000431,0.015866
53434000,0.0324,0.013523,0.002678,0.000431,0.013633
53435000,0.0324,0.013523,0.002678,0.000431,0.022330
53436000,0.0324,0.013523,0.002678,0.000431,0.009637
53437000,0.0324,0.013523,0.002678,0.000431,0.004701
53438000,0.0324,0.013523,0.002678,0.000431,0.008462
53439000,0.0324,0.013523,0.002678,0.000431,0.006817
53440000,0.0324,0.013523,0.002678,0.000431,0.003056
53441000,0.0324,0.013523,0.002678,0.000431,0.004466
53442000,0.0324,0.013523,0.002678,0.000431,0.005171
53443000,0.0324,0.013523,0.002678,0.000431,0.002586
53444000,0.0324,0.013523,0.002678,0.000431,0.002821
53445000,0.0324,0.013523,0.002678,0.000431,0.001998
53446000,0.0324,0.013523,0.002678,0.000431,0.003173
53447000,0.0324,0.013523,0.002678,0.000431,0.001998
53448000,0.0324,0.013523,0.002678,0.000431,0.002938
53449000,0.0324,0.013523,0.002678,0.000431,0.002586
53450000,0.0324,0.013523,0.002678,0.000431,0.003056
53451000,0.0324,0.013523,0.002678,0.000431,0.005054
53452000,0.0324,0.013523,0.002678,0.000431,0.000705
53453000,0.0324,0.013523,0.002678,0.000431,0.001528
53454000,0.0324,0.013523,0.002678,0.000431,0.001058
53455000,0.0324,0.013523,0.002678,0.000431,0.019745
53456000,0.0324,0.013523,0.002678,0.000431,0.714689
53457000,0.0324,0.013523,0.002678,0.000431,0.550737
53458000,0.0324,0.013523,0.002678,0.000431,0.134217
53459000,0.0324,0.013523,0.002678,0.000431,0.136568
53460000,0.0324,0.013523,0.002678,0.000431,0.544978
53461000,0.0324,0.013523,0.002678,0.000431,0.270902
53462000,0.0324,0.013523,0.002678,0.000431,0.327669
53463000,0.0324,0.013523,0.002678,0.000431,0.145030
53464000,0.0324,0.013523,0.002678,0.000431,0.186987
53465000,0.0324,0.013523,0.002678,0.000431,0.089086
53466000,0.0324,0.013523,0.002678,0.000431,0.533578
53467000,0.0324,0.013523,0.002678,0.000431,0.232236
53468000,0.0324,0.013523,0.002678,0.000431,0.181228
53469000,0.0324,0.013523,0.002678,0.000431,0.167125
53470000,0.0324,0.013523,0.002678,0.000431,0.128928
53471000,0.0324,0.013523,0.002678,0.000431,0.104835
53472000,0.0324,0.013523,0.002678,0.000431,0.102720
53473000,0.0324,0.013523,0.002678,0.000431,0.067579
53474000,0.0324,0.013523,0.002678,0.000431,0.051125
53475000,0.0324,0.013523,0.002678,0.000431,0.062760
53476000,0.0324,0.013523,0.002678,0.000431,0.034553
53477000,0.0324,0.013523,0.002678,0.000431,0.029735
53478000,0.0324,0.013523,0.002678,0.000431,0.026444
53479000,0.0324,0.013523,0.002678,0.000431,0.018569
53480000,0.0324,0.013523,0.002678,0.000431,0.015279
53481000,0.0324,0.013523,0.002678,0.000431,0.019392
53482000,0.0324,0.013523,0.002678,0.000431,0.014691
53483000,0.0324,0.013523,0.002678,0.000431,0.003643
53484000,0.0324,0.013523,0.002678,0.000431,0.003291
53485000,0.0324,0.013523,0.002678,0.000431,0.003291
53486000,0.0324,0.013523,0.002678,0.000431,0.006229
53487000,0.0324,0.013523,0.002678,0.000431,0.002351
53488000,0.0324,0.013523,0.002678,0.000431,0.002821
53489000,0.0324,0.013523,0.002678,0.000431,0.002468
53490000,0.0324,0.013523,0.002678,0.000431,0.002586
53491000,0.0324,0.013523,0.002678,0.000431,0.002468
53492000,0.0324,0.013523,0.002678,0.000431,0.002468
53493000,0.0324,0.013523,0.002678,0.000431,0.002703
53494000,0.0324,0.013523,0.002678,0.000431,0.002351
53495000,0.0324,0.013523,0.002678,0.000431,0.002821
53496000,0.0324,0.013523,0.002678,0.000431,0.002468
53497000,0.0324,0.013523,0.002678,0.000431,0.002586
53498000,0.0324,0.013523,0.002678,0.000431,0.002586
53499000,0.0324,0.013523,0.002678,0.000431,0.002351
53500000,0.0324,0.013523,0.002678,0.000431,0.002468
53501000,0.0324,0.013523,0.002678,0.000431,0.002703
53502000,0.0324,0.013523,0.002678,0.000431,0.002703
53503000,0.0324,0.013523,0.002678,0.000431,0.002351
53504000,0.0324,0.013523,0.002678,0.000431,0.002703
53505000,0.0324,0.013523,0.002678,0.000431,0.002468
53506000,0.0324,0.013523,0.002678,0.000431,0.002586
53507000,0.0324,0.013523,0.002678,0.000431,0.002468
53508000,0.0324,0.013523,0.002678,0.000431,0.002586
53509000,0.0324,0.013523,0.002678,0.000431,0.002586
53510000,0.0324,0.013523,0.002678,0.000431,0.002468
53511000,0.0324,0.013523,0.002678,0.000431,0.002586
53512000,0.0324,0.013523,0.002678,0.000431,0.002586
53513000,0.0324,0.013523,0.002678,0.000431,0.002703
53514000,0.0324,0.013523,0.002678,0.000431,0.002351
53515000,0.0324,0.013523,0.002678,0.000431,0.002703
53516000,0.0324,0.013523,0.002678,0.000431,0.002586
53517000,0.0324,0.013523,0.002678,0.000431,0.002586
53518000,0.0324,0.013523,0.002678,0.000431,0.002703
53519000,0.0324,0.013523,0.002678,0.000431,0.002468
53520000,0.0324,0.013523,0.002678,0.000431,0.003643
53521000,0.0324,0.013523,0.002678,0.000431,0.003173
53522000,0.0324,0.013523,0.002678,0.000431,0.001763
53523000,0.0324,0.013523,0.002678,0.000431,0.001880
53524000,0.0324,0.013523,0.002678,0.000431,0.002586
53525000,0.0324,0.013523,0.002678,0.000431,0.002116
53526000,0.0324,0.013523,0.002678,0.000431,0.000823
53527000,0.0324,0.013523,0.002678,0.000431,0.000823
53528000,0.0324,0.013523,0.002678,0.000431,0.015396
53529000,0.0324,0.013523,0.002678,0.000431,0.733376
53530000,0.0324,0.013523,0.002678,0.000431,0.565193
53531000,0.0324,0.013523,0.002678,0.000431,0.142327
53532000,0.0324,0.013523,0.002678,0.000431,0.135863
53533000,0.0324,0.013523,0.002678,0.000431,0.550149
53534000,0.0324,0.013523,0.002678,0.000431,0.275721
53535000,0.0324,0.013523,0.002678,0.000431,0.288297
53536000,0.0324,0.013523,0.002678,0.000431,0.184402
53537000,0.0324,0.013523,0.002678,0.000431,0.167595
53538000,0.0324,0.013523,0.002678,0.000431,0.111769
53539000,0.0324,0.013523,0.002678,0.000431,0.473051
53540000,0.0324,0.013523,0.002678,0.000431,0.286651
53541000,0.0324,0.013523,0.002678,0.000431,0.195684
53542000,0.0324,0.013523,0.002678,0.000431,0.160661
53543000,0.0324,0.013523,0.002678,0.000431,0.132454
53544000,0.0324,0.013523,0.002678,0.000431,0.104483
53545000,0.0324,0.013523,0.002678,0.000431,0.087323
53546000,0.0324,0.013523,0.002678,0.000431,0.071222
53547000,0.0324,0.013523,0.002678,0.000431,0.065463
53548000,0.0324,0.013523,0.002678,0.000431,0.047951
53549000,0.0324,0.013523,0.002678,0.000431,0.039960
53550000,0.0324,0.013523,0.002678,0.000431,0.033025
53551000,0.0324,0.013523,0.002678,0.000431,0.018569
53552000,0.0324,0.013523,0.002678,0.000431,0.017512
53553000,0.0324,0.013523,0.002678,0.000431,0.017512
53554000,0.0324,0.013523,0.002678,0.000431,0.015631
53555000,0.0324,0.013523,0.002678,0.000431,0.012693
53556000,0.0324,0.013523,0.002678,0.000431,0.006817
53557000,0.0324,0.013523,0.002678,0.000431,0.006582
53558000,0.0324,0.013523,0.002678,0.000431,0.003643
53559000,0.0324,0.013523,0.002678,0.000431,0.003173
53560000,0.0324,0.013523,0.002678,0.000431,0.003526
53561000,0.0324,0.013523,0.002678,0.000431,0.003408
53562000,0.0324,0.013523,0.002678,0.000431,0.003173
53563000,0.0324,0.013523,0.002678,0.000431,0.003526
53564000,0.0324,0.013523,0.002678,0.000431,0.003408
53565000,0.0324,0.013523,0.002678,0.000431,0.005054
53566000,0.0324,0.013523,0.002678,0.000431,0.002703
53567000,0.0324,0.013523,0.002678,0.000431,0.005171
53568000,0.0324,0.013523,0.002678,0.000431,0.003056
53569000,0.0324,0.013523,0.002678,0.000431,0.000940
53570000,0.0324,0.013523,0.002678,0.000431,0.000823
53571000,0.0324,0.013523,0.002678,0.000431,0.000823
53572000,0.0324,0.013523,0.002678,0.000431,0.000940
53573000,0.0324,0.013523,0.002678,0.000431,0.000940
53574000,0.0324,0.013523,0.002678,0.000431,0.000823
53575000,0.0324,0.013523,0.002678,0.000431,0.000823
53576000,0.0324,0.013523,0.002678,0.000431,0.000940
53577000,0.0324,0.013523,0.002678,0.000431,0.000940
53578000,0.0324,0.013523,0.002678,0.000431,0.000823
53579000,0.0324,0.013523,0.002678,0.000431,0.000823
53580000,0.0324,0.013523,0.002678,0.000431,0.248455
53581000,0.0324,0.013523,0.002678,0.000431,0.690948
53582000,0.0324,0.013523,0.002678,0.000431,0.437322
53583000,0.0324,0.013523,0.002678,0.000431,0.134452
53584000,0.0324,0.013523,0.002678,0.000431,0.249747
53585000,0.0324,0.013523,0.002678,0.000431,0.527466
53586000,0.0324,0.013523,0.002678,0.000431,0.263381
53587000,0.0324,0.013523,0.002678,0.000431,0.282303
53588000,0.0324,0.013523,0.002678,0.000431,0.145382
53589000,0.0324,0.013523,0.002678,0.000431,0.167948
53590000,0.0324,0.013523,0.002678,0.000431,0.146088
53591000,0.0324,0.013523,0.002678,0.000431,0.544155
53592000,0.0324,0.013523,0.002678,0.000431,0.212256
53593000,0.0324,0.013523,0.002678,0.000431,0.176997
53594000,0.0324,0.013523,0.002678,0.000431,0.144442
53595000,0.0324,0.013523,0.002678,0.000431,0.114002
53596000,0.0324,0.013523,0.002678,0.000431,0.078274
53597000,0.0324,0.013523,0.002678,0.000431,0.075336
53598000,0.0324,0.013523,0.002678,0.000431,0.048304
53599000,0.0324,0.013523,0.002678,0.000431,0.040312
53600000,0.0324,0.013523,0.002678,0.000431,0.033848
53601000,0.0324,0.013523,0.002678,0.000431,0.022918
53602000,0.0324,0.013523,0.002678,0.000431,0.021625
53603000,0.0324,0.013523,0.002678,0.000431,0.028559
53604000,0.0324,0.013523,0.002678,0.000431,0.020450
53605000,0.0324,0.013523,0.002678,0.000431,0.015396
53606000,0.0324,0.013523,0.002678,0.000431,0.008345
53607000,0.0324,0.013523,0.002678,0.000431,0.010107
53608000,0.0324,0.013523,0.002678,0.000431,0.008932
53609000,0.0324,0.013523,0.002678,0.000431,0.006699
53610000,0.0324,0.013523,0.002678,0.000431,0.005641
53611000,0.0324,0.013523,0.002678,0.000431,0.006347
53612000,0.0324,0.013523,0.002678,0.000431,0.011165
53613000,0.0324,0.013523,0.002678,0.000431,0.003056
53614000,0.0324,0.013523,0.002678,0.000431,0.002938
53615000,0.0324,0.013523,0.002678,0.000431,0.002586
53616000,0.0324,0.013523,0.002678,0.000431,0.007757
53617000,0.0324,0.013523,0.002678,0.000431,0.000705
53618000,0.0324,0.013523,0.002678,0.000431,0.000940
53619000,0.0324,0.013523,0.002678,0.000431,0.000823
53620000,0.0324,0.013523,0.002678,0.000431,0.000823
53621000,0.0324,0.013523,0.002678,0.000431,0.000823
53622000,0.0324,0.013523,0.002678,0.000431,0.000823
53623000,0.0324,0.013523,0.002678,0.000431,0.000823
53624000,0.0324,0.013523,0.002678,0.000431,0.000823
53625000,0.0324,0.013523,0.002678,0.000431,0.000940
53626000,0.0324,0.013523,0.002678,0.000431,0.000705
53627000,0.0324,0.013523,0.002678,0.000431,0.000940
53628000,0.0324,0.013523,0.002678,0.000431,0.000823
53629000,0.0324,0.013523,0.002678,0.000431,0.000823
53630000,0.0324,0.013523,0.002678,0.000431,0.000705
53631000,0.0324,0.013523,0.002678,0.000431,0.000940
53632000,0.0324,0.013523,0.002678,0.000431,0.000940
53633000,0.0324,0.013523,0.002678,0.000431,0.000705
53634000,0.0324,0.013523,0.002678,0.000431,0.000940
53635000,0.0324,0.013523,0.002678,0.000431,0.000705
53636000,0.0324,0.013523,0.002678,0.000431,0.000940
53637000,0.0324,0.013523,0.002678,0.000431,0.000823
53638000,0.0324,0.013523,0.002678,0.000431,0.000823
53639000,0.0324,0.013523,0.002678,0.000431,0.000940
53640000,0.0324,0.013523,0.002678,0.000431,0.000705
53641000,0.0324,0.013523,0.002678,0.000431,0.000940
53642000,0.0324,0.013523,0.002678,0.000431,0.000823
53643000,0.0324,0.013523,0.002678,0.000431,0.000823
53644000,0.0324,0.013523,0.002678,0.000431,0.000823
53645000,0.0324,0.013523,0.002678,0.000431,0.000823
53646000,0.0324,0.013523,0.002678,0.000431,0.000823
53647000,0.0324,0.013523,0.002678,0.000431,0.000823
53648000,0.0324,0.013523,0.002678,0.000431,0.006111
53649000,0.0324,0.013523,0.002678,0.000431,0.666502
53650000,0.0324,0.013523,0.002678,0.000431,0.642997
53651000,0.0324,0.013523,0.002678,0.000431,0.136333
53652000,0.0324,0.013523,0.002678,0.000431,0.136803
53653000,0.0324,0.013523,0.002678,0.000431,0.505489
53654000,0.0324,0.013523,0.002678,0.000431,0.231060
53655000,0.0324,0.013523,0.002678,0.000431,0.321440
53656000,0.0324,0.013523,0.002678,0.000431,0.161719
53657000,0.0324,0.013523,0.002678,0.000431,0.180876
53658000,0.0324,0.013523,0.002678,0.000431,0.108479
53659000,0.0324,0.013523,0.002678,0.000431,0.534518
53660000,0.0324,0.013523,0.002678,0.000431,0.241638
53661000,0.0324,0.013523,0.002678,0.000431,0.176527
53662000,0.0324,0.013523,0.002678,0.000431,0.142327
53663000,0.0324,0.013523,0.002678,0.000431,0.130574
53664000,0.0324,0.013523,0.002678,0.000431,0.112004
53665000,0.0324,0.013523,0.002678,0.000431,0.088264
53666000,0.0324,0.013523,0.002678,0.000431,0.079567
53667000,0.0324,0.013523,0.002678,0.000431,0.053240
53668000,0.0324,0.013523,0.002678,0.000431,0.051242
53669000,0.0324,0.013523,0.002678,0.000431,0.036551
53670000,0.0324,0.013523,0.002678,0.000431,0.038432
53671000,0.0324,0.013523,0.002678,0.000431,0.038079
53672000,0.0324,0.013523,0.002678,0.000431,0.022095
53673000,0.0324,0.013523,0.002678,0.000431,0.019157
53674000,0.0324,0.013523,0.002678,0.000431,0.010107
53675000,0.0324,0.013523,0.002678,0.000431,0.013516
53676000,0.0324,0.013523,0.002678,0.000431,0.005641
53677000,0.0324,0.013523,0.002678,0.000431,0.005876
53678000,0.0324,0.013523,0.002678,0.000431,0.003643
53679000,0.0324,0.013523,0.002678,0.000431,0.003291
53680000,0.0324,0.013523,0.002678,0.000431,0.005524
53681000,0.0324,0.013523,0.002678,0.000431,0.002703
53682000,0.0324,0.013523,0.002678,0.000431,0.004349
53683000,0.0324,0.013523,0.002678,0.000431,0.001763
53684000,0.0324,0.013523,0.002678,0.000431,0.001645
53685000,0.0324,0.013523,0.002678,0.000431,0.001880
53686000,0.0324,0.013523,0.002678,0.000431,0.001763
53687000,0.0324,0.013523,0.002678,0.000431,0.001763
53688000,0.0324,0.013523,0.002678,0.000431,0.001645
53689000,0.0324,0.013523,0.002678,0.000431,0.001645
53690000,0.0324,0.013523,0.002678,0.000431,0.001880
53691000,0.0324,0.013523,0.002678,0.000431,0.001645
53692000,0.0324,0.013523,0.002678,0.000431,0.002821
53693000,0.0324,0.013523,0.002678,0.000431,0.002116
53694000,0.0324,0.013523,0.002678,0.000431,0.000705
53695000,0.0324,0.013523,0.002678,0.000431,0.000940
53696000,0.0324,0.013523,0.002678,0.000431,0.000823
53697000,0.0324,0.013523,0.002678,0.000431,0.000823
53698000,0.0324,0.013523,0.002678,0.000431,0.000823
53699000,0.0324,0.013523,0.002678,0.000431,0.000823
53700000,0.0324,0.013523,0.002678,0.000431,0.000823
53701000,0.0324,0.013523,0.002678,0.000431,0.000705
53702000,0.0324,0.013523,0.002678,0.000431,0.000940
53703000,0.0324,0.013523,0.002678,0.000431,0.002116
53704000,0.0324,0.013523,0.002678,0.000431,0.449898
53705000,0.0324,0.013523,0.002678,0.000431,0.751005
53706000,0.0324,0.013523,0.002678,0.000431,0.203089
53707000,0.0324,0.013523,0.002678,0.000431,0.135863
53708000,0.0324,0.013523,0.002678,0.000431,0.558847
53709000,0.0324,0.013523,0.002678,0.000431,0.257974
53710000,0.0324,0.013523,0.002678,0.000431,0.292410
53711000,0.0324,0.013523,0.002678,0.000431,0.227182
53712000,0.0324,0.013523,0.002678,0.000431,0.162071
53713000,0.0324,0.013523,0.002678,0.000431,0.112592
53714000,0.0324,0.013523,0.002678,0.000431,0.459065
53715000,0.0324,0.013523,0.002678,0.000431,0.282890
53716000,0.0324,0.013523,0.002678,0.000431,0.159838
53717000,0.0324,0.013523,0.002678,0.000431,0.162071
53718000,0.0324,0.013523,0.002678,0.000431,0.122229
53719000,0.0324,0.013523,0.002678,0.000431,0.104365
53720000,0.0324,0.013523,0.002678,0.000431,0.094845
53721000,0.0324,0.013523,0.002678,0.000431,0.072750
53722000,0.0324,0.013523,0.002678,0.000431,0.056531
53723000,0.0324,0.013523,0.002678,0.000431,0.054651
53724000,0.0324,0.013523,0.002678,0.000431,0.039842
53725000,0.0324,0.013523,0.002678,0.000431,0.047246
53726000,0.0324,0.013523,0.002678,0.000431,0.023388
53727000,0.0324,0.013523,0.002678,0.000431,0.024681
53728000,0.0324,0.013523,0.002678,0.000431,0.013633
53729000,0.0324,0.013523,0.002678,0.000431,0.016571
53730000,0.0324,0.013523,0.002678,0.000431,0.017277
53731000,0.0324,0.013523,0.002678,0.000431,0.012576
53732000,0.0324,0.013523,0.002678,0.000431,0.016219
53733000,0.0324,0.013523,0.002678,0.000431,0.011283
53734000,0.0324,0.013523,0.002678,0.000431,0.015984
53735000,0.0324,0.013523,0.002678,0.000431,0.011753
53736000,0.0324,0.013523,0.002678,0.000431,0.007052
53737000,0.0324,0.013523,0.002678,0.000431,0.008932
53738000,0.0324,0.013523,0.002678,0.000431,0.004936
53739000,0.0324,0.013523,0.002678,0.000431,0.005289
53740000,0.0324,0.013523,0.002678,0.000431,0.006347
53741000,0.0324,0.013523,0.002678,0.000431,0.005289
53742000,0.0324,0.013523,0.002678,0.000431,0.004113
53743000,0.0324,0.013523,0.002678,0.000431,0.004113
53744000,0.0324,0.013523,0.002678,0.000431,0.004349
53745000,0.0324,0.013523,0.002678,0.000431,0.007169
53746000,0.0324,0.013523,0.002678,0.000431,0.001645
53747000,0.0324,0.013523,0.002678,0.000431,0.003408
53748000,0.0324,0.013523,0.002678,0.000431,0.000940
53749000,0.0324,0.013523,0.002678,0.000431,0.000705
53750000,0.0324,0.013523,0.002678,0.000431,0.000940
53751000,0.0324,0.013523,0.002678,0.000431,0.015161
53752000,0.0324,0.013523,0.002678,0.000431,0.707167
53753000,0.0324,0.013523,0.002678,0.000431,0.568484
53754000,0.0324,0.013523,0.002678,0.000431,0.138566
53755000,0.0324,0.013523,0.002678,0.000431,0.141504
53756000,0.0324,0.013523,0.002678,0.000431,0.573538
53757000,0.0324,0.013523,0.002678,0.000431,0.271960
53758000,0.0324,0.013523,0.002678,0.000431,0.287709
53759000,0.0324,0.013523,0.002678,0.000431,0.212021
53760000,0.0324,0.013523,0.002678,0.000431,0.153022
53761000,0.0324,0.013523,0.002678,0.000431,0.106010
53762000,0.0324,0.013523,0.002678,0.000431,0.480338
53763000,0.0324,0.013523,0.002678,0.000431,0.253038
53764000,0.0324,0.013523,0.002678,0.000431,0.164187
53765000,0.0324,0.013523,0.002678,0.000431,0.145617
53766000,0.0324,0.013523,0.002678,0.000431,0.127753
53767000,0.0324,0.013523,0.002678,0.000431,0.106245
53768000,0.0324,0.013523,0.002678,0.000431,0.105893
53769000,0.0324,0.013523,0.002678,0.000431,0.088616
53770000,0.0324,0.013523,0.002678,0.000431,0.073455
53771000,0.0324,0.013523,0.002678,0.000431,0.064993
53772000,0.0324,0.013523,0.002678,0.000431,0.056884
53773000,0.0324,0.013523,0.002678,0.000431,0.055943
53774000,0.0324,0.013523,0.002678,0.000431,0.034436
53775000,0.0324,0.013523,0.002678,0.000431,0.034201
53776000,0.0324,0.013523,0.002678,0.000431,0.032203
53777000,0.0324,0.013523,0.002678,0.000431,0.039372
53778000,0.0324,0.013523,0.002678,0.000431,0.028912
53779000,0.0324,0.013523,0.002678,0.000431,0.021038
53780000,0.0324,0.013523,0.002678,0.000431,0.019980
53781000,0.0324,0.013523,0.002678,0.000431,0.016571
53782000,0.0324,0.013523,0.002678,0.000431,0.016336
53783000,0.0324,0.013523,0.002678,0.000431,0.007757
53784000,0.0324,0.013523,0.002678,0.000431,0.018099
53785000,0.0324,0.013523,0.002678,0.000431,0.005994
53786000,0.0324,0.013523,0.002678,0.000431,0.001880
53787000,0.0324,0.013523,0.002678,0.000431,0.001763
53788000,0.0324,0.013523,0.002678,0.000431,0.001763
53789000,0.0324,0.013523,0.002678,0.000431,0.003526
53790000,0.0324,0.013523,0.002678,0.000431,0.078861
53791000,0.0324,0.013523,0.002678,0.000431,0.737607
53792000,0.0324,0.013523,0.002678,0.000431,0.515714
53793000,0.0324,0.013523,0.002678,0.000431,0.135863
53794000,0.0324,0.013523,0.002678,0.000431,0.176175
53795000,0.0324,0.013523,0.002678,0.000431,0.531462
53796000,0.0324,0.013523,0.002678,0.000431,0.265026
53797000,0.0324,0.013523,0.002678,0.000431,0.315681
53798000,0.0324,0.013523,0.002678,0.000431,0.144090
53799000,0.0324,0.013523,0.002678,0.000431,0.192159
53800000,0.0324,0.013523,0.002678,0.000431,0.084150
53801000,0.0324,0.013523,0.002678,0.000431,0.558729
53802000,0.0324,0.013523,0.002678,0.000431,0.243518
53803000,0.0324,0.013523,0.002678,0.000431,0.193686
53804000,0.0324,0.013523,0.002678,0.000431,0.171474
53805000,0.0324,0.013523,0.002678,0.000431,0.135510
53806000,0.0324,0.013523,0.002678,0.000431,0.103190
53807000,0.0324,0.013523,0.002678,0.000431,0.082035
53808000,0.0324,0.013523,0.002678,0.000431,0.064053
53809000,0.0324,0.013523,0.002678,0.000431,0.052770
53810000,0.0324,0.013523,0.002678,0.000431,0.041370
53811000,0.0324,0.013523,0.002678,0.000431,0.038432
53812000,0.0324,0.013523,0.002678,0.000431,0.029382
53813000,0.0324,0.013523,0.002678,0.000431,0.026209
53814000,0.0324,0.013523,0.002678,0.000431,0.015749
53815000,0.0324,0.013523,0.002678,0.000431,0.015161
53816000,0.0324,0.013523,0.002678,0.000431,0.015161
53817000,0.0324,0.013523,0.002678,0.000431,0.012223
53818000,0.0324,0.013523,0.002678,0.000431,0.011400
53819000,0.0324,0.013523,0.002678,0.000431,0.013868
53820000,0.0324,0.013523,0.002678,0.000431,0.011400
53821000,0.0324,0.013523,0.002678,0.000431,0.011283
53822000,0.0324,0.013523,0.002678,0.000431,0.005876
53823000,0.0324,0.013523,0.002678,0.000431,0.005641
53824000,0.0324,0.013523,0.002678,0.000431,0.007169
53825000,0.0324,0.013523,0.002678,0.000431,0.006699
53826000,0.0324,0.013523,0.002678,0.000431,0.005054
53827000,0.0324,0.013523,0.002678,0.000431,0.006111
53828000,0.0324,0.013523,0.002678,0.000431,0.002351
53829000,0.0324,0.013523,0.002678,0.000431,0.000940
53830000,0.0324,0.013523,0.002678,0.000431,0.000823
53831000,0.0324,0.013523,0.002678,0.000431,0.267494
53832000,0.0324,0.013523,0.002678,0.000431,0.732671
53833000,0.0324,0.013523,0.002678,0.000431,0.406177
53834000,0.0324,0.013523,0.002678,0.000431,0.136333
53835000,0.0324,0.013523,0.002678,0.000431,0.475401
53836000,0.0324,0.013523,0.002678,0.000431,0.291822
53837000,0.0324,0.013523,0.002678,0.000431,0.236349
53838000,0.0324,0.013523,0.002678,0.000431,0.257387
53839000,0.0324,0.013523,0.002678,0.000431,0.159486
53840000,0.0324,0.013523,0.002678,0.000431,0.130221
53841000,0.0324,0.013523,0.002678,0.000431,0.318266
53842000,0.0324,0.013523,0.002678,0.000431,0.432151
53843000,0.0324,0.013523,0.002678,0.000431,0.192864
53844000,0.0324,0.013523,0.002678,0.000431,0.172414
53845000,0.0324,0.013523,0.002678,0.000431,0.125403
53846000,0.0324,0.013523,0.002678,0.000431,0.111299
53847000,0.0324,0.013523,0.002678,0.000431,0.102250
53848000,0.0324,0.013523,0.002678,0.000431,0.078744
53849000,0.0324,0.013523,0.002678,0.000431,0.074748
53850000,0.0324,0.013523,0.002678,0.000431,0.050772
53851000,0.0324,0.013523,0.002678,0.000431,0.044073
53852000,0.0324,0.013523,0.002678,0.000431,0.041958
53853000,0.0324,0.013523,0.002678,0.000431,0.029500
53854000,0.0324,0.013523,0.002678,0.000431,0.024446
53855000,0.0324,0.013523,0.002678,0.000431,0.015044
53856000,0.0324,0.013523,0.002678,0.000431,0.022330
53857000,0.0324,0.013523,0.002678,0.000431,0.018217
53858000,0.0324,0.013523,0.002678,0.000431,0.008697
53859000,0.0324,0.013523,0.002678,0.000431,0.007169
53860000,0.0324,0.013523,0.002678,0.000431,0.002703
53861000,0.0324,0.013523,0.002678,0.000431,0.002703
53862000,0.0324,0.013523,0.002678,0.000431,0.002468
53863000,0.0324,0.013523,0.002678,0.000431,0.009520
53864000,0.0324,0.013523,0.002678,0.000431,0.000823
53865000,0.0324,0.013523,0.002678,0.000431,0.014103
53866000,0.0324,0.013523,0.002678,0.000431,0.705874
53867000,0.0324,0.013523,0.002678,0.000431,0.601509
53868000,0.0324,0.013523,0.002678,0.000431,0.135863
53869000,0.0324,0.013523,0.002678,0.000431,0.135863
53870000,0.0324,0.013523,0.002678,0.000431,0.546506
53871000,0.0324,0.013523,0.002678,0.000431,0.272195
53872000,0.0324,0.013523,0.002678,0.000431,0.330607
53873000,0.0324,0.013523,0.002678,0.000431,0.163129
53874000,0.0324,0.013523,0.002678,0.000431,0.179583
53875000,0.0324,0.013523,0.002678,0.000431,0.101779
53876000,0.0324,0.013523,0.002678,0.000431,0.542275
53877000,0.0324,0.013523,0.002678,0.000431,0.235997
53878000,0.0324,0.013523,0.002678,0.000431,0.189926
53879000,0.0324,0.013523,0.002678,0.000431,0.178760
53880000,0.0324,0.013523,0.002678,0.000431,0.135275
53881000,0.0324,0.013523,0.002678,0.000431,0.115530
53882000,0.0324,0.013523,0.002678,0.000431,0.098254
53883000,0.0324,0.013523,0.002678,0.000431,0.073690
53884000,0.0324,0.013523,0.002678,0.000431,0.065698
53885000,0.0324,0.013523,0.002678,0.000431,0.048539
53886000,0.0324,0.013523,0.002678,0.000431,0.043250
53887000,0.0324,0.013523,0.002678,0.000431,0.033143
53888000,0.0324,0.013523,0.002678,0.000431,0.027737
53889000,0.0324,0.013523,0.002678,0.000431,0.020215
53890000,0.0324,0.013523,0.002678,0.000431,0.022448
53891000,0.0324,0.013523,0.002678,0.000431,0.006111
53892000,0.0324,0.013523,0.002678,0.000431,0.003996
53893000,0.0324,0.013523,0.002678,0.000431,0.007169
53894000,0.0324,0.013523,0.002678,0.000431,0.003291
53895000,0.0324,0.013523,0.002678,0.000431,0.004819
53896000,0.0324,0.013523,0.002678,0.000431,0.002821
53897000,0.0324,0.013523,0.002678,0.000431,0.004113
53898000,0.0324,0.013523,0.002678,0.000431,0.001763
53899000,0.0324,0.013523,0.002678,0.000431,0.001763
53900000,0.0324,0.013523,0.002678,0.000431,0.001645
53901000,0.0324,0.013523,0.002678,0.000431,0.001763
53902000,0.0324,0.013523,0.002678,0.000431,0.001528
53903000,0.0324,0.013523,0.002678,0.000431,0.001763
53904000,0.0324,0.013523,0.002678,0.000431,0.001528
53905000,0.0324,0.013523,0.002678,0.000431,0.001880
53906000,0.0324,0.013523,0.002678,0.000431,0.003878
53907000,0.0324,0.013523,0.002678,0.000431,0.000940
53908000,0.0324,0.013523,0.002678,0.000431,0.000940
53909000,0.0324,0.013523,0.002678,0.000431,0.000705
53910000,0.0324,0.013523,0.002678,0.000431,0.000823
53911000,0.0324,0.013523,0.002678,0.000431,0.002116
53912000,0.0324,0.013523,0.002678,0.000431,0.348471
53913000,0.0324,0.013523,0.002678,0.000431,0.788732
53914000,0.0324,0.013523,0.002678,0.000431,0.272783
53915000,0.0324,0.013523,0.002678,0.000431,0.136333
53916000,0.0324,0.013523,0.002678,0.000431,0.475284
53917000,0.0324,0.013523,0.002678,0.000431,0.252451
53918000,0.0324,0.013523,0.002678,0.000431,0.261500
53919000,0.0324,0.013523,0.002678,0.000431,0.269140
53920000,0.0324,0.013523,0.002678,0.000431,0.152787
53921000,0.0324,0.013523,0.002678,0.000431,0.149848
53922000,0.0324,0.013523,0.002678,0.000431,0.234469
53923000,0.0324,0.013523,0.002678,0.000431,0.473756
53924000,0.0324,0.013523,0.002678,0.000431,0.152552
53925000,0.0324,0.013523,0.002678,0.000431,0.144325
53926000,0.0324,0.013523,0.002678,0.000431,0.125403
53927000,0.0324,0.013523,0.002678,0.000431,0.108008
53928000,0.0324,0.013523,0.002678,0.000431,0.101309
53929000,0.0324,0.013523,0.002678,0.000431,0.068049
53930000,0.0324,0.013523,0.002678,0.000431,0.055826
53931000,0.0324,0.013523,0.002678,0.000431,0.048539
53932000,0.0324,0.013523,0.002678,0.000431,0.044661
53933000,0.0324,0.013523,0.002678,0.000431,0.030440
53934000,0.0324,0.013523,0.002678,0.000431,0.028442
53935000,0.0324,0.013523,0.002678,0.000431,0.020567
53936000,0.0324,0.013523,0.002678,0.000431,0.025034
53937000,0.0324,0.013523,0.002678,0.000431,0.010930
53938000,0.0324,0.013523,0.002678,0.000431,0.008815
53939000,0.0324,0.013523,0.002678,0.000431,0.007169
53940000,0.0324,0.013523,0.002678,0.000431,0.007522
53941000,0.0324,0.013523,0.002678,0.000431,0.008815
53942000,0.0324,0.013523,0.002678,0.000431,0.006934
53943000,0.0324,0.013523,0.002678,0.000431,0.002586
53944000,0.0324,0.013523,0.002678,0.000431,0.005171
53945000,0.0324,0.013523,0.002678,0.000431,0.057236
53946000,0.0324,0.013523,0.002678,0.000431,0.686012
53947000,0.0324,0.013523,0.002678,0.000431,0.555438
53948000,0.0324,0.013523,0.002678,0.000431,0.135863
53949000,0.0324,0.013523,0.002678,0.000431,0.141739
53950000,0.0324,0.013523,0.002678,0.000431,0.550737
53951000,0.0324,0.013523,0.002678,0.000431,0.271373
53952000,0.0324,0.013523,0.002678,0.000431,0.351057
53953000,0.0324,0.013523,0.002678,0.000431,0.150319
53954000,0.0324,0.013523,0.002678,0.000431,0.163952
53955000,0.0324,0.013523,0.002678,0.000431,0.142209
53956000,0.0324,0.013523,0.002678,0.000431,0.527937
53957000,0.0324,0.013523,0.002678,0.000431,0.206732
53958000,0.0324,0.013523,0.002678,0.000431,0.173354
53959000,0.0324,0.013523,0.002678,0.000431,0.167478
53960000,0.0324,0.013523,0.002678,0.000431,0.128811
53961000,0.0324,0.013523,0.002678,0.000431,0.115530
53962000,0.0324,0.013523,0.002678,0.000431,0.107303
53963000,0.0324,0.013523,0.002678,0.000431,0.085090
53964000,0.0324,0.013523,0.002678,0.000431,0.079449
53965000,0.0324,0.013523,0.002678,0.000431,0.069342
53966000,0.0324,0.013523,0.002678,0.000431,0.044896
53967000,0.0324,0.013523,0.002678,0.000431,0.053005
53968000,0.0324,0.013523,0.002678,0.000431,0.029852
53969000,0.0324,0.013523,0.002678,0.000431,0.021273
53970000,0.0324,0.013523,0.002678,0.000431,0.014809
53971000,0.0324,0.013523,0.002678,0.000431,0.018452
53972000,0.0324,0.013523,0.002678,0.000431,0.011048
53973000,0.0324,0.013523,0.002678,0.000431,0.012928
53974000,0.0324,0.013523,0.002678,0.000431,0.009050
53975000,0.0324,0.013523,0.002678,0.000431,0.010225
53976000,0.0324,0.013523,0.002678,0.000431,0.009050
53977000,0.0324,0.013523,0.002678,0.000431,0.012576
53978000,0.0324,0.013523,0.002678,0.000431,0.006347
53979000,0.0324,0.013523,0.002678,0.000431,0.003408
53980000,0.0324,0.013523,0.002678,0.000431,0.005759
53981000,0.0324,0.013523,0.002678,0.000431,0.005876
53982000,0.0324,0.013523,0.002678,0.000431,0.002233
53983000,0.0324,0.013523,0.002678,0.000431,0.014338
53984000,0.0324,0.013523,0.002678,0.000431,0.689773
53985000,0.0324,0.013523,0.002678,0.000431,0.584938
53986000,0.0324,0.013523,0.002678,0.000431,0.135392
53987000,0.0324,0.013523,0.002678,0.000431,0.135863
53988000,0.0324,0.013523,0.002678,0.000431,0.506782
53989000,0.0324,0.013523,0.002678,0.000431,0.237760
53990000,0.0324,0.013523,0.002678,0.000431,0.271960
53991000,0.0324,0.013523,0.002678,0.000431,0.224126
53992000,0.0324,0.013523,0.002678,0.000431,0.159603
53993000,0.0324,0.013523,0.002678,0.000431,0.156077
53994000,0.0324,0.013523,0.002678,0.000431,0.192041
53995000,0.0324,0.013523,0.002678,0.000431,0.509837
53996000,0.0324,0.013523,0.002678,0.000431,0.180993
53997000,0.0324,0.013523,0.002678,0.000431,0.145970
53998000,0.0324,0.013523,0.002678,0.000431,0.123522
53999000,0.0324,0.013523,0.002678,0.000431,0.117176
