Cycle,Area(mm^2),PeakDynamic(W),SubthresholdLeakage(W),GateLeakage(W),RunTimeDynamic(W)
64000000,0.0324,0.013523,0.002678,0.000431,0.047481
64001000,0.0324,0.013523,0.002678,0.000431,0.027384
64002000,0.0324,0.013523,0.002678,0.000431,0.031380
64003000,0.0324,0.013523,0.002678,0.000431,0.014221
64004000,0.0324,0.013523,0.002678,0.000431,0.014338
64005000,0.0324,0.013523,0.002678,0.000431,0.011165
64006000,0.0324,0.013523,0.002678,0.000431,0.009990
64007000,0.0324,0.013523,0.002678,0.000431,0.006229
64008000,0.0324,0.013523,0.002678,0.000431,0.006347
64009000,0.0324,0.013523,0.002678,0.000431,0.006111
64010000,0.0324,0.013523,0.002678,0.000431,0.003526
64011000,0.0324,0.013523,0.002678,0.000431,0.003291
64012000,0.0324,0.013523,0.002678,0.000431,0.002821
64013000,0.0324,0.013523,0.002678,0.000431,0.003291
64014000,0.0324,0.013523,0.002678,0.000431,0.002586
64015000,0.0324,0.013523,0.002678,0.000431,0.002468
64016000,0.0324,0.013523,0.002678,0.000431,0.002233
64017000,0.0324,0.013523,0.002678,0.000431,0.002233
64018000,0.0324,0.013523,0.002678,0.000431,0.002233
64019000,0.0324,0.013523,0.002678,0.000431,0.001880
64020000,0.0324,0.013523,0.002678,0.000431,0.001763
64021000,0.0324,0.013523,0.002678,0.000431,0.001645
64022000,0.0324,0.013523,0.002678,0.000431,0.001763
64023000,0.0324,0.013523,0.002678,0.000431,0.021860
64024000,0.0324,0.013523,0.002678,0.000431,0.765931
64025000,0.0324,0.013523,0.002678,0.000431,0.551325
64026000,0.0324,0.013523,0.002678,0.000431,0.135863
64027000,0.0324,0.013523,0.002678,0.000431,0.157488
64028000,0.0324,0.013523,0.002678,0.000431,0.593752
64029000,0.0324,0.013523,0.002678,0.000431,0.268317
64030000,0.0324,0.013523,0.002678,0.000431,0.314976
64031000,0.0324,0.013523,0.002678,0.000431,0.149966
64032000,0.0324,0.013523,0.002678,0.000431,0.121759
64033000,0.0324,0.013523,0.002678,0.000431,0.353055
64034000,0.0324,0.013523,0.002678,0.000431,0.393484
64035000,0.0324,0.013523,0.002678,0.000431,0.148673
64036000,0.0324,0.013523,0.002678,0.000431,0.137861
64037000,0.0324,0.013523,0.002678,0.000431,0.096138
64038000,0.0324,0.013523,0.002678,0.000431,0.075101
64039000,0.0324,0.013523,0.002678,0.000431,0.062995
64040000,0.0324,0.013523,0.002678,0.000431,0.056061
64041000,0.0324,0.013523,0.002678,0.000431,0.041723
64042000,0.0324,0.013523,0.002678,0.000431,0.020567
64043000,0.0324,0.013523,0.002678,0.000431,0.017982
64044000,0.0324,0.013523,0.002678,0.000431,0.019040
64045000,0.0324,0.013523,0.002678,0.000431,0.006347
64046000,0.0324,0.013523,0.002678,0.000431,0.009637
64047000,0.0324,0.013523,0.002678,0.000431,0.005054
64048000,0.0324,0.013523,0.002678,0.000431,0.004231
64049000,0.0324,0.013523,0.002678,0.000431,0.006229
64050000,0.0324,0.013523,0.002678,0.000431,0.002586
64051000,0.0324,0.013523,0.002678,0.000431,0.517124
64052000,0.0324,0.013523,0.002678,0.000431,0.721035
64053000,0.0324,0.013523,0.002678,0.000431,0.143032
64054000,0.0324,0.013523,0.002678,0.000431,0.135863
64055000,0.0324,0.013523,0.002678,0.000431,0.530640
64056000,0.0324,0.013523,0.002678,0.000431,0.263616
64057000,0.0324,0.013523,0.002678,0.000431,0.267142
64058000,0.0324,0.013523,0.002678,0.000431,0.219778
64059000,0.0324,0.013523,0.002678,0.000431,0.146205
64060000,0.0324,0.013523,0.002678,0.000431,0.119291
64061000,0.0324,0.013523,0.002678,0.000431,0.391016
64062000,0.0324,0.013523,0.002678,0.000431,0.390311
64063000,0.0324,0.013523,0.002678,0.000431,0.167478
64064000,0.0324,0.013523,0.002678,0.000431,0.150789
64065000,0.0324,0.013523,0.002678,0.000431,0.123757
64066000,0.0324,0.013523,0.002678,0.000431,0.116941
64067000,0.0324,0.013523,0.002678,0.000431,0.079919
64068000,0.0324,0.013523,0.002678,0.000431,0.071340
64069000,0.0324,0.013523,0.002678,0.000431,0.064758
64070000,0.0324,0.013523,0.002678,0.000431,0.043250
64071000,0.0324,0.013523,0.002678,0.000431,0.032320
64072000,0.0324,0.013523,0.002678,0.000431,0.021978
64073000,0.0324,0.013523,0.002678,0.000431,0.019392
64074000,0.0324,0.013523,0.002678,0.000431,0.017747
64075000,0.0324,0.013523,0.002678,0.000431,0.022565
64076000,0.0324,0.013523,0.002678,0.000431,0.011165
64077000,0.0324,0.013523,0.002678,0.000431,0.011283
64078000,0.0324,0.013523,0.002678,0.000431,0.011518
64079000,0.0324,0.013523,0.002678,0.000431,0.005524
64080000,0.0324,0.013523,0.002678,0.000431,0.011283
64081000,0.0324,0.013523,0.002678,0.000431,0.009755
64082000,0.0324,0.013523,0.002678,0.000431,0.008697
64083000,0.0324,0.013523,0.002678,0.000431,0.664857
64084000,0.0324,0.013523,0.002678,0.000431,0.635475
64085000,0.0324,0.013523,0.002678,0.000431,0.138331
64086000,0.0324,0.013523,0.002678,0.000431,0.138918
64087000,0.0324,0.013523,0.002678,0.000431,0.588581
64088000,0.0324,0.013523,0.002678,0.000431,0.267964
64089000,0.0324,0.013523,0.002678,0.000431,0.308629
64090000,0.0324,0.013523,0.002678,0.000431,0.150083
64091000,0.0324,0.013523,0.002678,0.000431,0.159603
64092000,0.0324,0.013523,0.002678,0.000431,0.184284
64093000,0.0324,0.013523,0.002678,0.000431,0.498319
64094000,0.0324,0.013523,0.002678,0.000431,0.164775
64095000,0.0324,0.013523,0.002678,0.000431,0.144560
64096000,0.0324,0.013523,0.002678,0.000431,0.116000
64097000,0.0324,0.013523,0.002678,0.000431,0.103895
64098000,0.0324,0.013523,0.002678,0.000431,0.084503
64099000,0.0324,0.013523,0.002678,0.000431,0.064523
64100000,0.0324,0.013523,0.002678,0.000431,0.050772
64101000,0.0324,0.013523,0.002678,0.000431,0.041252
64102000,0.0324,0.013523,0.002678,0.000431,0.034436
64103000,0.0324,0.013523,0.002678,0.000431,0.028442
64104000,0.0324,0.013523,0.002678,0.000431,0.019040
64105000,0.0324,0.013523,0.002678,0.000431,0.015984
64106000,0.0324,0.013523,0.002678,0.000431,0.015984
64107000,0.0324,0.013523,0.002678,0.000431,0.019980
64108000,0.0324,0.013523,0.002678,0.000431,0.015984
64109000,0.0324,0.013523,0.002678,0.000431,0.011988
64110000,0.0324,0.013523,0.002678,0.000431,0.015514
64111000,0.0324,0.013523,0.002678,0.000431,0.011283
64112000,0.0324,0.013523,0.002678,0.000431,0.011870
64113000,0.0324,0.013523,0.002678,0.000431,0.009402
64114000,0.0324,0.013523,0.002678,0.000431,0.018687
64115000,0.0324,0.013523,0.002678,0.000431,0.005876
64116000,0.0324,0.013523,0.002678,0.000431,0.003408
64117000,0.0324,0.013523,0.002678,0.000431,0.007639
64118000,0.0324,0.013523,0.002678,0.000431,0.001058
64119000,0.0324,0.013523,0.002678,0.000431,0.014338
64120000,0.0324,0.013523,0.002678,0.000431,0.696354
64121000,0.0324,0.013523,0.002678,0.000431,0.575536
64122000,0.0324,0.013523,0.002678,0.000431,0.136803
64123000,0.0324,0.013523,0.002678,0.000431,0.137273
64124000,0.0324,0.013523,0.002678,0.000431,0.536281
64125000,0.0324,0.013523,0.002678,0.000431,0.269375
64126000,0.0324,0.013523,0.002678,0.000431,0.316268
64127000,0.0324,0.013523,0.002678,0.000431,0.158898
64128000,0.0324,0.013523,0.002678,0.000431,0.189808
64129000,0.0324,0.013523,0.002678,0.000431,0.086031
64130000,0.0324,0.013523,0.002678,0.000431,0.583762
64131000,0.0324,0.013523,0.002678,0.000431,0.272078
64132000,0.0324,0.013523,0.002678,0.000431,0.190631
64133000,0.0324,0.013523,0.002678,0.000431,0.182756
64134000,0.0324,0.013523,0.002678,0.000431,0.142209
64135000,0.0324,0.013523,0.002678,0.000431,0.128458
64136000,0.0324,0.013523,0.002678,0.000431,0.114355
64137000,0.0324,0.013523,0.002678,0.000431,0.086853
64138000,0.0324,0.013523,0.002678,0.000431,0.080742
64139000,0.0324,0.013523,0.002678,0.000431,0.068166
64140000,0.0324,0.013523,0.002678,0.000431,0.058882
64141000,0.0324,0.013523,0.002678,0.000431,0.042310
64142000,0.0324,0.013523,0.002678,0.000431,0.031380
64143000,0.0324,0.013523,0.002678,0.000431,0.027972
64144000,0.0324,0.013523,0.002678,0.000431,0.030910
64145000,0.0324,0.013523,0.002678,0.000431,0.023271
64146000,0.0324,0.013523,0.002678,0.000431,0.023271
64147000,0.0324,0.013523,0.002678,0.000431,0.014573
64148000,0.0324,0.013523,0.002678,0.000431,0.009990
64149000,0.0324,0.013523,0.002678,0.000431,0.008109
64150000,0.0324,0.013523,0.002678,0.000431,0.008462
64151000,0.0324,0.013523,0.002678,0.000431,0.009050
64152000,0.0324,0.013523,0.002678,0.000431,0.005524
64153000,0.0324,0.013523,0.002678,0.000431,0.008697
64154000,0.0324,0.013523,0.002678,0.000431,0.005054
64155000,0.0324,0.013523,0.002678,0.000431,0.004113
64156000,0.0324,0.013523,0.002678,0.000431,0.001880
64157000,0.0324,0.013523,0.002678,0.000431,0.001763
64158000,0.0324,0.013523,0.002678,0.000431,0.006934
64159000,0.0324,0.013523,0.002678,0.000431,0.551795
64160000,0.0324,0.013523,0.002678,0.000431,0.769457
64161000,0.0324,0.013523,0.002678,0.000431,0.164069
64162000,0.0324,0.013523,0.002678,0.000431,0.137273
64163000,0.0324,0.013523,0.002678,0.000431,0.551090
64164000,0.0324,0.013523,0.002678,0.000431,0.251745
64165000,0.0324,0.013523,0.002678,0.000431,0.324495
64166000,0.0324,0.013523,0.002678,0.000431,0.172884
64167000,0.0324,0.013523,0.002678,0.000431,0.189103
64168000,0.0324,0.013523,0.002678,0.000431,0.091907
64169000,0.0324,0.013523,0.002678,0.000431,0.563548
64170000,0.0324,0.013523,0.002678,0.000431,0.217897
64171000,0.0324,0.013523,0.002678,0.000431,0.171591
64172000,0.0324,0.013523,0.002678,0.000431,0.147028
64173000,0.0324,0.013523,0.002678,0.000431,0.116823
64174000,0.0324,0.013523,0.002678,0.000431,0.098371
64175000,0.0324,0.013523,0.002678,0.000431,0.070282
64176000,0.0324,0.013523,0.002678,0.000431,0.058176
64177000,0.0324,0.013523,0.002678,0.000431,0.048892
64178000,0.0324,0.013523,0.002678,0.000431,0.039489
64179000,0.0324,0.013523,0.002678,0.000431,0.023506
64180000,0.0324,0.013523,0.002678,0.000431,0.012576
64181000,0.0324,0.013523,0.002678,0.000431,0.012576
64182000,0.0324,0.013523,0.002678,0.000431,0.009050
64183000,0.0324,0.013523,0.002678,0.000431,0.005289
64184000,0.0324,0.013523,0.002678,0.000431,0.005171
64185000,0.0324,0.013523,0.002678,0.000431,0.005171
64186000,0.0324,0.013523,0.002678,0.000431,0.007522
64187000,0.0324,0.013523,0.002678,0.000431,0.006817
64188000,0.0324,0.013523,0.002678,0.000431,0.004349
64189000,0.0324,0.013523,0.002678,0.000431,0.002468
64190000,0.0324,0.013523,0.002678,0.000431,0.004936
64191000,0.0324,0.013523,0.002678,0.000431,0.001645
64192000,0.0324,0.013523,0.002678,0.000431,0.001880
64193000,0.0324,0.013523,0.002678,0.000431,0.001528
64194000,0.0324,0.013523,0.002678,0.000431,0.001645
64195000,0.0324,0.013523,0.002678,0.000431,0.001645
64196000,0.0324,0.013523,0.002678,0.000431,0.001763
64197000,0.0324,0.013523,0.002678,0.000431,0.001763
64198000,0.0324,0.013523,0.002678,0.000431,0.001528
64199000,0.0324,0.013523,0.002678,0.000431,0.001763
64200000,0.0324,0.013523,0.002678,0.000431,0.001645
64201000,0.0324,0.013523,0.002678,0.000431,0.001528
64202000,0.0324,0.013523,0.002678,0.000431,0.003056
64203000,0.0324,0.013523,0.002678,0.000431,0.002468
64204000,0.0324,0.013523,0.002678,0.000431,0.000823
64205000,0.0324,0.013523,0.002678,0.000431,0.000823
64206000,0.0324,0.013523,0.002678,0.000431,0.000823
64207000,0.0324,0.013523,0.002678,0.000431,0.000940
64208000,0.0324,0.013523,0.002678,0.000431,0.000823
64209000,0.0324,0.013523,0.002678,0.000431,0.000940
64210000,0.0324,0.013523,0.002678,0.000431,0.000940
64211000,0.0324,0.013523,0.002678,0.000431,0.000705
64212000,0.0324,0.013523,0.002678,0.000431,0.000705
64213000,0.0324,0.013523,0.002678,0.000431,0.002116
64214000,0.0324,0.013523,0.002678,0.000431,0.561785
64215000,0.0324,0.013523,0.002678,0.000431,0.737372
64216000,0.0324,0.013523,0.002678,0.000431,0.143854
64217000,0.0324,0.013523,0.002678,0.000431,0.136333
64218000,0.0324,0.013523,0.002678,0.000431,0.504431
64219000,0.0324,0.013523,0.002678,0.000431,0.273253
64220000,0.0324,0.013523,0.002678,0.000431,0.321557
64221000,0.0324,0.013523,0.002678,0.000431,0.147733
64222000,0.0324,0.013523,0.002678,0.000431,0.183932
64223000,0.0324,0.013523,0.002678,0.000431,0.114943
64224000,0.0324,0.013523,0.002678,0.000431,0.559199
64225000,0.0324,0.013523,0.002678,0.000431,0.218367
64226000,0.0324,0.013523,0.002678,0.000431,0.183932
64227000,0.0324,0.013523,0.002678,0.000431,0.144912
64228000,0.0324,0.013523,0.002678,0.000431,0.135745
64229000,0.0324,0.013523,0.002678,0.000431,0.098489
64230000,0.0324,0.013523,0.002678,0.000431,0.077921
64231000,0.0324,0.013523,0.002678,0.000431,0.067344
64232000,0.0324,0.013523,0.002678,0.000431,0.055708
64233000,0.0324,0.013523,0.002678,0.000431,0.041252
64234000,0.0324,0.013523,0.002678,0.000431,0.036786
64235000,0.0324,0.013523,0.002678,0.000431,0.038314
64236000,0.0324,0.013523,0.002678,0.000431,0.026561
64237000,0.0324,0.013523,0.002678,0.000431,0.022683
64238000,0.0324,0.013523,0.002678,0.000431,0.019980
64239000,0.0324,0.013523,0.002678,0.000431,0.014691
64240000,0.0324,0.013523,0.002678,0.000431,0.017747
64241000,0.0324,0.013523,0.002678,0.000431,0.012458
64242000,0.0324,0.013523,0.002678,0.000431,0.013046
64243000,0.0324,0.013523,0.002678,0.000431,0.014103
64244000,0.0324,0.013523,0.002678,0.000431,0.006817
64245000,0.0324,0.013523,0.002678,0.000431,0.007287
64246000,0.0324,0.013523,0.002678,0.000431,0.007757
64247000,0.0324,0.013523,0.002678,0.000431,0.007874
64248000,0.0324,0.013523,0.002678,0.000431,0.007169
64249000,0.0324,0.013523,0.002678,0.000431,0.008345
64250000,0.0324,0.013523,0.002678,0.000431,0.003761
64251000,0.0324,0.013523,0.002678,0.000431,0.008345
64252000,0.0324,0.013523,0.002678,0.000431,0.002351
64253000,0.0324,0.013523,0.002678,0.000431,0.003526
64254000,0.0324,0.013523,0.002678,0.000431,0.000940
64255000,0.0324,0.013523,0.002678,0.000431,0.000940
64256000,0.0324,0.013523,0.002678,0.000431,0.000823
64257000,0.0324,0.013523,0.002678,0.000431,0.000823
64258000,0.0324,0.013523,0.002678,0.000431,0.000940
64259000,0.0324,0.013523,0.002678,0.000431,0.000940
64260000,0.0324,0.013523,0.002678,0.000431,0.000823
64261000,0.0324,0.013523,0.002678,0.000431,0.000823
64262000,0.0324,0.013523,0.002678,0.000431,0.000940
64263000,0.0324,0.013523,0.002678,0.000431,0.001763
64264000,0.0324,0.013523,0.002678,0.000431,0.408410
64265000,0.0324,0.013523,0.002678,0.000431,0.785911
64266000,0.0324,0.013523,0.002678,0.000431,0.225537
64267000,0.0324,0.013523,0.002678,0.000431,0.137861
64268000,0.0324,0.013523,0.002678,0.000431,0.565663
64269000,0.0324,0.013523,0.002678,0.000431,0.281245
64270000,0.0324,0.013523,0.002678,0.000431,0.335190
64271000,0.0324,0.013523,0.002678,0.000431,0.160073
64272000,0.0324,0.013523,0.002678,0.000431,0.150083
64273000,0.0324,0.013523,0.002678,0.000431,0.232353
64274000,0.0324,0.013523,0.002678,0.000431,0.532990
64275000,0.0324,0.013523,0.002678,0.000431,0.217427
64276000,0.0324,0.013523,0.002678,0.000431,0.196507
64277000,0.0324,0.013523,0.002678,0.000431,0.177468
64278000,0.0324,0.013523,0.002678,0.000431,0.150201
64279000,0.0324,0.013523,0.002678,0.000431,0.136803
64280000,0.0324,0.013523,0.002678,0.000431,0.107656
64281000,0.0324,0.013523,0.002678,0.000431,0.086148
64282000,0.0324,0.013523,0.002678,0.000431,0.065228
64283000,0.0324,0.013523,0.002678,0.000431,0.043133
64284000,0.0324,0.013523,0.002678,0.000431,0.040547
64285000,0.0324,0.013523,0.002678,0.000431,0.041605
64286000,0.0324,0.013523,0.002678,0.000431,0.030910
64287000,0.0324,0.013523,0.002678,0.000431,0.021860
64288000,0.0324,0.013523,0.002678,0.000431,0.011400
64289000,0.0324,0.013523,0.002678,0.000431,0.006699
64290000,0.0324,0.013523,0.002678,0.000431,0.010930
64291000,0.0324,0.013523,0.002678,0.000431,0.004701
64292000,0.0324,0.013523,0.002678,0.000431,0.004113
64293000,0.0324,0.013523,0.002678,0.000431,0.003878
64294000,0.0324,0.013523,0.002678,0.000431,0.004466
64295000,0.0324,0.013523,0.002678,0.000431,0.007052
64296000,0.0324,0.013523,0.002678,0.000431,0.003526
64297000,0.0324,0.013523,0.002678,0.000431,0.004701
64298000,0.0324,0.013523,0.002678,0.000431,0.004349
64299000,0.0324,0.013523,0.002678,0.000431,0.004231
64300000,0.0324,0.013523,0.002678,0.000431,0.001058
64301000,0.0324,0.013523,0.002678,0.000431,0.263381
64302000,0.0324,0.013523,0.002678,0.000431,0.739487
64303000,0.0324,0.013523,0.002678,0.000431,0.451543
64304000,0.0324,0.013523,0.002678,0.000431,0.143854
64305000,0.0324,0.013523,0.002678,0.000431,0.479280
64306000,0.0324,0.013523,0.002678,0.000431,0.277014
64307000,0.0324,0.013523,0.002678,0.000431,0.301460
64308000,0.0324,0.013523,0.002678,0.000431,0.242343
64309000,0.0324,0.013523,0.002678,0.000431,0.174529
64310000,0.0324,0.013523,0.002678,0.000431,0.102250
64311000,0.0324,0.013523,0.002678,0.000431,0.548386
64312000,0.0324,0.013523,0.002678,0.000431,0.280540
64313000,0.0324,0.013523,0.002678,0.000431,0.211551
64314000,0.0324,0.013523,0.002678,0.000431,0.188515
64315000,0.0324,0.013523,0.002678,0.000431,0.156783
64316000,0.0324,0.013523,0.002678,0.000431,0.140446
64317000,0.0324,0.013523,0.002678,0.000431,0.104247
64318000,0.0324,0.013523,0.002678,0.000431,0.095080
64319000,0.0324,0.013523,0.002678,0.000431,0.074865
64320000,0.0324,0.013523,0.002678,0.000431,0.072515
64321000,0.0324,0.013523,0.002678,0.000431,0.055121
64322000,0.0324,0.013523,0.002678,0.000431,0.051477
64323000,0.0324,0.013523,0.002678,0.000431,0.031733
64324000,0.0324,0.013523,0.002678,0.000431,0.031027
64325000,0.0324,0.013523,0.002678,0.000431,0.032203
64326000,0.0324,0.013523,0.002678,0.000431,0.022448
64327000,0.0324,0.013523,0.002678,0.000431,0.023506
64328000,0.0324,0.013523,0.002678,0.000431,0.016101
64329000,0.0324,0.013523,0.002678,0.000431,0.016101
64330000,0.0324,0.013523,0.002678,0.000431,0.012340
64331000,0.0324,0.013523,0.002678,0.000431,0.018099
64332000,0.0324,0.013523,0.002678,0.000431,0.007874
64333000,0.0324,0.013523,0.002678,0.000431,0.007874
64334000,0.0324,0.013523,0.002678,0.000431,0.005641
64335000,0.0324,0.013523,0.002678,0.000431,0.005171
64336000,0.0324,0.013523,0.002678,0.000431,0.003408
64337000,0.0324,0.013523,0.002678,0.000431,0.005289
64338000,0.0324,0.013523,0.002678,0.000431,0.002586
64339000,0.0324,0.013523,0.002678,0.000431,0.002703
64340000,0.0324,0.013523,0.002678,0.000431,0.002703
64341000,0.0324,0.013523,0.002678,0.000431,0.003878
64342000,0.0324,0.013523,0.002678,0.000431,0.005994
64343000,0.0324,0.013523,0.002678,0.000431,0.001293
64344000,0.0324,0.013523,0.002678,0.000431,0.000940
64345000,0.0324,0.013523,0.002678,0.000431,0.000823
64346000,0.0324,0.013523,0.002678,0.000431,0.000823
64347000,0.0324,0.013523,0.002678,0.000431,0.000705
64348000,0.0324,0.013523,0.002678,0.000431,0.004231
64349000,0.0324,0.013523,0.002678,0.000431,0.631949
64350000,0.0324,0.013523,0.002678,0.000431,0.718802
64351000,0.0324,0.013523,0.002678,0.000431,0.165127
64352000,0.0324,0.013523,0.002678,0.000431,0.150436
64353000,0.0324,0.013523,0.002678,0.000431,0.560257
64354000,0.0324,0.013523,0.002678,0.000431,0.259032
64355000,0.0324,0.013523,0.002678,0.000431,0.302518
64356000,0.0324,0.013523,0.002678,0.000431,0.165245
64357000,0.0324,0.013523,0.002678,0.000431,0.151259
64358000,0.0324,0.013523,0.002678,0.000431,0.209083
64359000,0.0324,0.013523,0.002678,0.000431,0.534636
64360000,0.0324,0.013523,0.002678,0.000431,0.208613
64361000,0.0324,0.013523,0.002678,0.000431,0.196860
64362000,0.0324,0.013523,0.002678,0.000431,0.168770
64363000,0.0324,0.013523,0.002678,0.000431,0.132102
64364000,0.0324,0.013523,0.002678,0.000431,0.111887
64365000,0.0324,0.013523,0.002678,0.000431,0.094258
64366000,0.0324,0.013523,0.002678,0.000431,0.078979
64367000,0.0324,0.013523,0.002678,0.000431,0.058882
64368000,0.0324,0.013523,0.002678,0.000431,0.051007
64369000,0.0324,0.013523,0.002678,0.000431,0.041135
64370000,0.0324,0.013523,0.002678,0.000431,0.034906
64371000,0.0324,0.013523,0.002678,0.000431,0.022330
64372000,0.0324,0.013523,0.002678,0.000431,0.015749
64373000,0.0324,0.013523,0.002678,0.000431,0.015279
64374000,0.0324,0.013523,0.002678,0.000431,0.010225
64375000,0.0324,0.013523,0.002678,0.000431,0.009167
64376000,0.0324,0.013523,0.002678,0.000431,0.007992
64377000,0.0324,0.013523,0.002678,0.000431,0.004584
64378000,0.0324,0.013523,0.002678,0.000431,0.003878
64379000,0.0324,0.013523,0.002678,0.000431,0.004466
64380000,0.0324,0.013523,0.002678,0.000431,0.007874
64381000,0.0324,0.013523,0.002678,0.000431,0.004466
64382000,0.0324,0.013523,0.002678,0.000431,0.002821
64383000,0.0324,0.013523,0.002678,0.000431,0.002116
64384000,0.0324,0.013523,0.002678,0.000431,0.002351
64385000,0.0324,0.013523,0.002678,0.000431,0.002586
64386000,0.0324,0.013523,0.002678,0.000431,0.002233
64387000,0.0324,0.013523,0.002678,0.000431,0.002938
64388000,0.0324,0.013523,0.002678,0.000431,0.002938
64389000,0.0324,0.013523,0.002678,0.000431,0.108714
64390000,0.0324,0.013523,0.002678,0.000431,0.802600
64391000,0.0324,0.013523,0.002678,0.000431,0.506546
64392000,0.0324,0.013523,0.002678,0.000431,0.138448
64393000,0.0324,0.013523,0.002678,0.000431,0.405707
64394000,0.0324,0.013523,0.002678,0.000431,0.348354
64395000,0.0324,0.013523,0.002678,0.000431,0.274781
64396000,0.0324,0.013523,0.002678,0.000431,0.240110
64397000,0.0324,0.013523,0.002678,0.000431,0.153374
64398000,0.0324,0.013523,0.002678,0.000431,0.125873
64399000,0.0324,0.013523,0.002678,0.000431,0.487272
64400000,0.0324,0.013523,0.002678,0.000431,0.278894
64401000,0.0324,0.013523,0.002678,0.000431,0.167125
64402000,0.0324,0.013523,0.002678,0.000431,0.159486
64403000,0.0324,0.013523,0.002678,0.000431,0.121289
64404000,0.0324,0.013523,0.002678,0.000431,0.091202
64405000,0.0324,0.013523,0.002678,0.000431,0.082035
64406000,0.0324,0.013523,0.002678,0.000431,0.073338
64407000,0.0324,0.013523,0.002678,0.000431,0.046071
64408000,0.0324,0.013523,0.002678,0.000431,0.045131
64409000,0.0324,0.013523,0.002678,0.000431,0.025504
64410000,0.0324,0.013523,0.002678,0.000431,0.024681
64411000,0.0324,0.013523,0.002678,0.000431,0.019862
64412000,0.0324,0.013523,0.002678,0.000431,0.015866
64413000,0.0324,0.013523,0.002678,0.000431,0.016807
64414000,0.0324,0.013523,0.002678,0.000431,0.013281
64415000,0.0324,0.013523,0.002678,0.000431,0.015866
64416000,0.0324,0.013523,0.002678,0.000431,0.008345
64417000,0.0324,0.013523,0.002678,0.000431,0.007757
64418000,0.0324,0.013523,0.002678,0.000431,0.006582
64419000,0.0324,0.013523,0.002678,0.000431,0.006934
64420000,0.0324,0.013523,0.002678,0.000431,0.004349
64421000,0.0324,0.013523,0.002678,0.000431,0.004584
64422000,0.0324,0.013523,0.002678,0.000431,0.005524
64423000,0.0324,0.013523,0.002678,0.000431,0.003173
64424000,0.0324,0.013523,0.002678,0.000431,0.004466
64425000,0.0324,0.013523,0.002678,0.000431,0.002586
64426000,0.0324,0.013523,0.002678,0.000431,0.003526
64427000,0.0324,0.013523,0.002678,0.000431,0.000940
64428000,0.0324,0.013523,0.002678,0.000431,0.113062
64429000,0.0324,0.013523,0.002678,0.000431,0.781797
64430000,0.0324,0.013523,0.002678,0.000431,0.499377
64431000,0.0324,0.013523,0.002678,0.000431,0.137626
64432000,0.0324,0.013523,0.002678,0.000431,0.382789
64433000,0.0324,0.013523,0.002678,0.000431,0.387373
64434000,0.0324,0.013523,0.002678,0.000431,0.276661
64435000,0.0324,0.013523,0.002678,0.000431,0.259737
64436000,0.0324,0.013523,0.002678,0.000431,0.155490
64437000,0.0324,0.013523,0.002678,0.000431,0.107421
64438000,0.0324,0.013523,0.002678,0.000431,0.512423
64439000,0.0324,0.013523,0.002678,0.000431,0.324025
64440000,0.0324,0.013523,0.002678,0.000431,0.219425
64441000,0.0324,0.013523,0.002678,0.000431,0.189690
64442000,0.0324,0.013523,0.002678,0.000431,0.153257
64443000,0.0324,0.013523,0.002678,0.000431,0.129046
64444000,0.0324,0.013523,0.002678,0.000431,0.099899
64445000,0.0324,0.013523,0.002678,0.000431,0.101662
64446000,0.0324,0.013523,0.002678,0.000431,0.075688
64447000,0.0324,0.013523,0.002678,0.000431,0.053828
64448000,0.0324,0.013523,0.002678,0.000431,0.041958
64449000,0.0324,0.013523,0.002678,0.000431,0.043956
64450000,0.0324,0.013523,0.002678,0.000431,0.036434
64451000,0.0324,0.013523,0.002678,0.000431,0.036316
64452000,0.0324,0.013523,0.002678,0.000431,0.031498
64453000,0.0324,0.013523,0.002678,0.000431,0.024093
64454000,0.0324,0.013523,0.002678,0.000431,0.020097
64455000,0.0324,0.013523,0.002678,0.000431,0.020450
64456000,0.0324,0.013523,0.002678,0.000431,0.014103
64457000,0.0324,0.013523,0.002678,0.000431,0.013751
64458000,0.0324,0.013523,0.002678,0.000431,0.009285
64459000,0.0324,0.013523,0.002678,0.000431,0.013398
64460000,0.0324,0.013523,0.002678,0.000431,0.011988
64461000,0.0324,0.013523,0.002678,0.000431,0.005641
64462000,0.0324,0.013523,0.002678,0.000431,0.005994
64463000,0.0324,0.013523,0.002678,0.000431,0.008932
64464000,0.0324,0.013523,0.002678,0.000431,0.004936
64465000,0.0324,0.013523,0.002678,0.000431,0.005171
64466000,0.0324,0.013523,0.002678,0.000431,0.005876
64467000,0.0324,0.013523,0.002678,0.000431,0.006347
64468000,0.0324,0.013523,0.002678,0.000431,0.003761
64469000,0.0324,0.013523,0.002678,0.000431,0.006934
64470000,0.0324,0.013523,0.002678,0.000431,0.004113
64471000,0.0324,0.013523,0.002678,0.000431,0.001763
64472000,0.0324,0.013523,0.002678,0.000431,0.001410
64473000,0.0324,0.013523,0.002678,0.000431,0.028677
64474000,0.0324,0.013523,0.002678,0.000431,0.825988
64475000,0.0324,0.013523,0.002678,0.000431,0.543803
64476000,0.0324,0.013523,0.002678,0.000431,0.153844
64477000,0.0324,0.013523,0.002678,0.000431,0.195919
64478000,0.0324,0.013523,0.002678,0.000431,0.573067
64479000,0.0324,0.013523,0.002678,0.000431,0.275133
64480000,0.0324,0.013523,0.002678,0.000431,0.286416
64481000,0.0324,0.013523,0.002678,0.000431,0.163012
64482000,0.0324,0.013523,0.002678,0.000431,0.100016
64483000,0.0324,0.013523,0.002678,0.000431,0.441083
64484000,0.0324,0.013523,0.002678,0.000431,0.349881
64485000,0.0324,0.013523,0.002678,0.000431,0.172884
64486000,0.0324,0.013523,0.002678,0.000431,0.160779
64487000,0.0324,0.013523,0.002678,0.000431,0.130574
64488000,0.0324,0.013523,0.002678,0.000431,0.102250
64489000,0.0324,0.013523,0.002678,0.000431,0.084385
64490000,0.0324,0.013523,0.002678,0.000431,0.064758
64491000,0.0324,0.013523,0.002678,0.000431,0.067579
64492000,0.0324,0.013523,0.002678,0.000431,0.057706
64493000,0.0324,0.013523,0.002678,0.000431,0.032673
64494000,0.0324,0.013523,0.002678,0.000431,0.031733
64495000,0.0324,0.013523,0.002678,0.000431,0.025504
64496000,0.0324,0.013523,0.002678,0.000431,0.020802
64497000,0.0324,0.013523,0.002678,0.000431,0.019157
64498000,0.0324,0.013523,0.002678,0.000431,0.016454
64499000,0.0324,0.013523,0.002678,0.000431,0.014691
64500000,0.0324,0.013523,0.002678,0.000431,0.007874
64501000,0.0324,0.013523,0.002678,0.000431,0.009050
64502000,0.0324,0.013523,0.002678,0.000431,0.004936
64503000,0.0324,0.013523,0.002678,0.000431,0.014103
64504000,0.0324,0.013523,0.002678,0.000431,0.002938
64505000,0.0324,0.013523,0.002678,0.000431,0.003173
64506000,0.0324,0.013523,0.002678,0.000431,0.003291
64507000,0.0324,0.013523,0.002678,0.000431,0.005054
64508000,0.0324,0.013523,0.002678,0.000431,0.002468
64509000,0.0324,0.013523,0.002678,0.000431,0.001880
64510000,0.0324,0.013523,0.002678,0.000431,0.002116
64511000,0.0324,0.013523,0.002678,0.000431,0.001645
64512000,0.0324,0.013523,0.002678,0.000431,0.002233
64513000,0.0324,0.013523,0.002678,0.000431,0.002116
64514000,0.0324,0.013523,0.002678,0.000431,0.002233
64515000,0.0324,0.013523,0.002678,0.000431,0.001763
64516000,0.0324,0.013523,0.002678,0.000431,0.002351
64517000,0.0324,0.013523,0.002678,0.000431,0.001763
64518000,0.0324,0.013523,0.002678,0.000431,0.001410
64519000,0.0324,0.013523,0.002678,0.000431,0.001293
64520000,0.0324,0.013523,0.002678,0.000431,0.000940
64521000,0.0324,0.013523,0.002678,0.000431,0.295701
64522000,0.0324,0.013523,0.002678,0.000431,0.811532
64523000,0.0324,0.013523,0.002678,0.000431,0.321792
64524000,0.0324,0.013523,0.002678,0.000431,0.136803
64525000,0.0324,0.013523,0.002678,0.000431,0.492208
64526000,0.0324,0.013523,0.002678,0.000431,0.238230
64527000,0.0324,0.013523,0.002678,0.000431,0.313800
64528000,0.0324,0.013523,0.002678,0.000431,0.203794
64529000,0.0324,0.013523,0.002678,0.000431,0.187693
64530000,0.0324,0.013523,0.002678,0.000431,0.101662
64531000,0.0324,0.013523,0.002678,0.000431,0.550502
64532000,0.0324,0.013523,0.002678,0.000431,0.212138
64533000,0.0324,0.013523,0.002678,0.000431,0.159251
64534000,0.0324,0.013523,0.002678,0.000431,0.156548
64535000,0.0324,0.013523,0.002678,0.000431,0.117881
64536000,0.0324,0.013523,0.002678,0.000431,0.110359
64537000,0.0324,0.013523,0.002678,0.000431,0.091672
64538000,0.0324,0.013523,0.002678,0.000431,0.084620
64539000,0.0324,0.013523,0.002678,0.000431,0.069929
64540000,0.0324,0.013523,0.002678,0.000431,0.060645
64541000,0.0324,0.013523,0.002678,0.000431,0.052183
64542000,0.0324,0.013523,0.002678,0.000431,0.036551
64543000,0.0324,0.013523,0.002678,0.000431,0.029382
64544000,0.0324,0.013523,0.002678,0.000431,0.029735
64545000,0.0324,0.013523,0.002678,0.000431,0.025739
64546000,0.0324,0.013523,0.002678,0.000431,0.025504
64547000,0.0324,0.013523,0.002678,0.000431,0.013986
64548000,0.0324,0.013523,0.002678,0.000431,0.019392
64549000,0.0324,0.013523,0.002678,0.000431,0.009050
64550000,0.0324,0.013523,0.002678,0.000431,0.011753
64551000,0.0324,0.013523,0.002678,0.000431,0.007874
64552000,0.0324,0.013523,0.002678,0.000431,0.012223
64553000,0.0324,0.013523,0.002678,0.000431,0.007992
64554000,0.0324,0.013523,0.002678,0.000431,0.007992
64555000,0.0324,0.013523,0.002678,0.000431,0.004819
64556000,0.0324,0.013523,0.002678,0.000431,0.004466
64557000,0.0324,0.013523,0.002678,0.000431,0.004819
64558000,0.0324,0.013523,0.002678,0.000431,0.005994
64559000,0.0324,0.013523,0.002678,0.000431,0.004701
64560000,0.0324,0.013523,0.002678,0.000431,0.005289
64561000,0.0324,0.013523,0.002678,0.000431,0.001645
64562000,0.0324,0.013523,0.002678,0.000431,0.004349
64563000,0.0324,0.013523,0.002678,0.000431,0.000705
64564000,0.0324,0.013523,0.002678,0.000431,0.000940
64565000,0.0324,0.013523,0.002678,0.000431,0.000823
64566000,0.0324,0.013523,0.002678,0.000431,0.000823
64567000,0.0324,0.013523,0.002678,0.000431,0.000940
64568000,0.0324,0.013523,0.002678,0.000431,0.000705
64569000,0.0324,0.013523,0.002678,0.000431,0.000940
64570000,0.0324,0.013523,0.002678,0.000431,0.000823
64571000,0.0324,0.013523,0.002678,0.000431,0.000823
64572000,0.0324,0.013523,0.002678,0.000431,0.000823
64573000,0.0324,0.013523,0.002678,0.000431,0.000823
64574000,0.0324,0.013523,0.002678,0.000431,0.000823
64575000,0.0324,0.013523,0.002678,0.000431,0.000823
64576000,0.0324,0.013523,0.002678,0.000431,0.000940
64577000,0.0324,0.013523,0.002678,0.000431,0.000823
64578000,0.0324,0.013523,0.002678,0.000431,0.001058
64579000,0.0324,0.013523,0.002678,0.000431,0.290647
64580000,0.0324,0.013523,0.002678,0.000431,0.807184
64581000,0.0324,0.013523,0.002678,0.000431,0.305338
64582000,0.0324,0.013523,0.002678,0.000431,0.137155
64583000,0.0324,0.013523,0.002678,0.000431,0.493736
64584000,0.0324,0.013523,0.002678,0.000431,0.280775
64585000,0.0324,0.013523,0.002678,0.000431,0.272313
64586000,0.0324,0.013523,0.002678,0.000431,0.213901
64587000,0.0324,0.013523,0.002678,0.000431,0.153374
64588000,0.0324,0.013523,0.002678,0.000431,0.115295
64589000,0.0324,0.013523,0.002678,0.000431,0.498672
64590000,0.0324,0.013523,0.002678,0.000431,0.328139
64591000,0.0324,0.013523,0.002678,0.000431,0.188750
64592000,0.0324,0.013523,0.002678,0.000431,0.172414
64593000,0.0324,0.013523,0.002678,0.000431,0.132924
64594000,0.0324,0.013523,0.002678,0.000431,0.098254
64595000,0.0324,0.013523,0.002678,0.000431,0.094258
64596000,0.0324,0.013523,0.002678,0.000431,0.097078
64597000,0.0324,0.013523,0.002678,0.000431,0.067344
64598000,0.0324,0.013523,0.002678,0.000431,0.044191
64599000,0.0324,0.013523,0.002678,0.000431,0.036551
64600000,0.0324,0.013523,0.002678,0.000431,0.031145
64601000,0.0324,0.013523,0.002678,0.000431,0.020450
64602000,0.0324,0.013523,0.002678,0.000431,0.013868
64603000,0.0324,0.013523,0.002678,0.000431,0.013868
64604000,0.0324,0.013523,0.002678,0.000431,0.019392
64605000,0.0324,0.013523,0.002678,0.000431,0.005994
64606000,0.0324,0.013523,0.002678,0.000431,0.006347
64607000,0.0324,0.013523,0.002678,0.000431,0.004113
64608000,0.0324,0.013523,0.002678,0.000431,0.001998
64609000,0.0324,0.013523,0.002678,0.000431,0.004231
64610000,0.0324,0.013523,0.002678,0.000431,0.016219
64611000,0.0324,0.013523,0.002678,0.000431,0.808946
64612000,0.0324,0.013523,0.002678,0.000431,0.570129
64613000,0.0324,0.013523,0.002678,0.000431,0.136803
64614000,0.0324,0.013523,0.002678,0.000431,0.136333
64615000,0.0324,0.013523,0.002678,0.000431,0.525233
64616000,0.0324,0.013523,0.002678,0.000431,0.249982
64617000,0.0324,0.013523,0.002678,0.000431,0.343652
64618000,0.0324,0.013523,0.002678,0.000431,0.145852
64619000,0.0324,0.013523,0.002678,0.000431,0.166067
64620000,0.0324,0.013523,0.002678,0.000431,0.179818
64621000,0.0324,0.013523,0.002678,0.000431,0.565781
64622000,0.0324,0.013523,0.002678,0.000431,0.234116
64623000,0.0324,0.013523,0.002678,0.000431,0.188750
64624000,0.0324,0.013523,0.002678,0.000431,0.160896
64625000,0.0324,0.013523,0.002678,0.000431,0.147263
64626000,0.0324,0.013523,0.002678,0.000431,0.109184
64627000,0.0324,0.013523,0.002678,0.000431,0.091084
64628000,0.0324,0.013523,0.002678,0.000431,0.072632
64629000,0.0324,0.013523,0.002678,0.000431,0.049479
64630000,0.0324,0.013523,0.002678,0.000431,0.038667
64631000,0.0324,0.013523,0.002678,0.000431,0.036786
64632000,0.0324,0.013523,0.002678,0.000431,0.023036
64633000,0.0324,0.013523,0.002678,0.000431,0.019157
64634000,0.0324,0.013523,0.002678,0.000431,0.015866
64635000,0.0324,0.013523,0.002678,0.000431,0.020215
64636000,0.0324,0.013523,0.002678,0.000431,0.009637
64637000,0.0324,0.013523,0.002678,0.000431,0.013751
64638000,0.0324,0.013523,0.002678,0.000431,0.005876
64639000,0.0324,0.013523,0.002678,0.000431,0.009872
64640000,0.0324,0.013523,0.002678,0.000431,0.006111
64641000,0.0324,0.013523,0.002678,0.000431,0.006582
64642000,0.0324,0.013523,0.002678,0.000431,0.002938
64643000,0.0324,0.013523,0.002678,0.000431,0.003526
64644000,0.0324,0.013523,0.002678,0.000431,0.002351
64645000,0.0324,0.013523,0.002678,0.000431,0.004819
64646000,0.0324,0.013523,0.002678,0.000431,0.001763
64647000,0.0324,0.013523,0.002678,0.000431,0.001528
64648000,0.0324,0.013523,0.002678,0.000431,0.001880
64649000,0.0324,0.013523,0.002678,0.000431,0.001410
64650000,0.0324,0.013523,0.002678,0.000431,0.001880
64651000,0.0324,0.013523,0.002678,0.000431,0.001645
64652000,0.0324,0.013523,0.002678,0.000431,0.001645
64653000,0.0324,0.013523,0.002678,0.000431,0.001645
64654000,0.0324,0.013523,0.002678,0.000431,0.001645
64655000,0.0324,0.013523,0.002678,0.000431,0.001880
64656000,0.0324,0.013523,0.002678,0.000431,0.001528
64657000,0.0324,0.013523,0.002678,0.000431,0.001763
64658000,0.0324,0.013523,0.002678,0.000431,0.001645
64659000,0.0324,0.013523,0.002678,0.000431,0.001645
64660000,0.0324,0.013523,0.002678,0.000431,0.001645
64661000,0.0324,0.013523,0.002678,0.000431,0.001645
64662000,0.0324,0.013523,0.002678,0.000431,0.001645
64663000,0.0324,0.013523,0.002678,0.000431,0.001645
64664000,0.0324,0.013523,0.002678,0.000431,0.001763
64665000,0.0324,0.013523,0.002678,0.000431,0.001645
64666000,0.0324,0.013523,0.002678,0.000431,0.001763
64667000,0.0324,0.013523,0.002678,0.000431,0.001528
64668000,0.0324,0.013523,0.002678,0.000431,0.001763
64669000,0.0324,0.013523,0.002678,0.000431,0.001645
64670000,0.0324,0.013523,0.002678,0.000431,0.001645
64671000,0.0324,0.013523,0.002678,0.000431,0.001880
64672000,0.0324,0.013523,0.002678,0.000431,0.001410
64673000,0.0324,0.013523,0.002678,0.000431,0.004819
64674000,0.0324,0.013523,0.002678,0.000431,0.000705
64675000,0.0324,0.013523,0.002678,0.000431,0.000940
64676000,0.0324,0.013523,0.002678,0.000431,0.000940
64677000,0.0324,0.013523,0.002678,0.000431,0.000705
64678000,0.0324,0.013523,0.002678,0.000431,0.000940
64679000,0.0324,0.013523,0.002678,0.000431,0.000705
64680000,0.0324,0.013523,0.002678,0.000431,0.000940
64681000,0.0324,0.013523,0.002678,0.000431,0.000823
64682000,0.0324,0.013523,0.002678,0.000431,0.000823
64683000,0.0324,0.013523,0.002678,0.000431,0.000823
64684000,0.0324,0.013523,0.002678,0.000431,0.000823
64685000,0.0324,0.013523,0.002678,0.000431,0.000940
64686000,0.0324,0.013523,0.002678,0.000431,0.000705
64687000,0.0324,0.013523,0.002678,0.000431,0.269962
64688000,0.0324,0.013523,0.002678,0.000431,0.767812
64689000,0.0324,0.013523,0.002678,0.000431,0.434737
64690000,0.0324,0.013523,0.002678,0.000431,0.142914
64691000,0.0324,0.013523,0.002678,0.000431,0.557906
64692000,0.0324,0.013523,0.002678,0.000431,0.292175
64693000,0.0324,0.013523,0.002678,0.000431,0.332135
64694000,0.0324,0.013523,0.002678,0.000431,0.182404
64695000,0.0324,0.013523,0.002678,0.000431,0.140329
64696000,0.0324,0.013523,0.002678,0.000431,0.241403
64697000,0.0324,0.013523,0.002678,0.000431,0.519475
64698000,0.0324,0.013523,0.002678,0.000431,0.201796
64699000,0.0324,0.013523,0.002678,0.000431,0.179701
64700000,0.0324,0.013523,0.002678,0.000431,0.157840
64701000,0.0324,0.013523,0.002678,0.000431,0.131514
64702000,0.0324,0.013523,0.002678,0.000431,0.123522
64703000,0.0324,0.013523,0.002678,0.000431,0.094728
64704000,0.0324,0.013523,0.002678,0.000431,0.086266
64705000,0.0324,0.013523,0.002678,0.000431,0.070869
64706000,0.0324,0.013523,0.002678,0.000431,0.057001
64707000,0.0324,0.013523,0.002678,0.000431,0.047716
64708000,0.0324,0.013523,0.002678,0.000431,0.038079
64709000,0.0324,0.013523,0.002678,0.000431,0.039137
64710000,0.0324,0.013523,0.002678,0.000431,0.029735
64711000,0.0324,0.013523,0.002678,0.000431,0.026326
64712000,0.0324,0.013523,0.002678,0.000431,0.019157
64713000,0.0324,0.013523,0.002678,0.000431,0.018805
64714000,0.0324,0.013523,0.002678,0.000431,0.009755
64715000,0.0324,0.013523,0.002678,0.000431,0.006582
64716000,0.0324,0.013523,0.002678,0.000431,0.004466
64717000,0.0324,0.013523,0.002678,0.000431,0.005994
64718000,0.0324,0.013523,0.002678,0.000431,0.003526
64719000,0.0324,0.013523,0.002678,0.000431,0.004349
64720000,0.0324,0.013523,0.002678,0.000431,0.030792
64721000,0.0324,0.013523,0.002678,0.000431,0.791317
64722000,0.0324,0.013523,0.002678,0.000431,0.527231
64723000,0.0324,0.013523,0.002678,0.000431,0.169946
64724000,0.0324,0.013523,0.002678,0.000431,0.192746
64725000,0.0324,0.013523,0.002678,0.000431,0.572245
64726000,0.0324,0.013523,0.002678,0.000431,0.284418
64727000,0.0324,0.013523,0.002678,0.000431,0.290647
64728000,0.0324,0.013523,0.002678,0.000431,0.165480
64729000,0.0324,0.013523,0.002678,0.000431,0.114590
64730000,0.0324,0.013523,0.002678,0.000431,0.474109
64731000,0.0324,0.013523,0.002678,0.000431,0.299462
64732000,0.0324,0.013523,0.002678,0.000431,0.182051
64733000,0.0324,0.013523,0.002678,0.000431,0.150671
64734000,0.0324,0.013523,0.002678,0.000431,0.127871
64735000,0.0324,0.013523,0.002678,0.000431,0.117058
64736000,0.0324,0.013523,0.002678,0.000431,0.107773
64737000,0.0324,0.013523,0.002678,0.000431,0.084738
64738000,0.0324,0.013523,0.002678,0.000431,0.066874
64739000,0.0324,0.013523,0.002678,0.000431,0.059117
64740000,0.0324,0.013523,0.002678,0.000431,0.058999
64741000,0.0324,0.013523,0.002678,0.000431,0.041017
64742000,0.0324,0.013523,0.002678,0.000431,0.039842
64743000,0.0324,0.013523,0.002678,0.000431,0.032673
64744000,0.0324,0.013523,0.002678,0.000431,0.027737
64745000,0.0324,0.013523,0.002678,0.000431,0.027031
64746000,0.0324,0.013523,0.002678,0.000431,0.020685
64747000,0.0324,0.013523,0.002678,0.000431,0.016689
64748000,0.0324,0.013523,0.002678,0.000431,0.013516
64749000,0.0324,0.013523,0.002678,0.000431,0.014103
64750000,0.0324,0.013523,0.002678,0.000431,0.008580
64751000,0.0324,0.013523,0.002678,0.000431,0.008345
64752000,0.0324,0.013523,0.002678,0.000431,0.008932
64753000,0.0324,0.013523,0.002678,0.000431,0.008462
64754000,0.0324,0.013523,0.002678,0.000431,0.009755
64755000,0.0324,0.013523,0.002678,0.000431,0.010342
64756000,0.0324,0.013523,0.002678,0.000431,0.006817
64757000,0.0324,0.013523,0.002678,0.000431,0.008815
64758000,0.0324,0.013523,0.002678,0.000431,0.005524
64759000,0.0324,0.013523,0.002678,0.000431,0.005406
64760000,0.0324,0.013523,0.002678,0.000431,0.005406
64761000,0.0324,0.013523,0.002678,0.000431,0.005524
64762000,0.0324,0.013523,0.002678,0.000431,0.004584
64763000,0.0324,0.013523,0.002678,0.000431,0.005406
64764000,0.0324,0.013523,0.002678,0.000431,0.004701
64765000,0.0324,0.013523,0.002678,0.000431,0.005054
64766000,0.0324,0.013523,0.002678,0.000431,0.004466
64767000,0.0324,0.013523,0.002678,0.000431,0.005054
64768000,0.0324,0.013523,0.002678,0.000431,0.005641
64769000,0.0324,0.013523,0.002678,0.000431,0.004466
64770000,0.0324,0.013523,0.002678,0.000431,0.004584
64771000,0.0324,0.013523,0.002678,0.000431,0.003761
64772000,0.0324,0.013523,0.002678,0.000431,0.004231
64773000,0.0324,0.013523,0.002678,0.000431,0.003761
64774000,0.0324,0.013523,0.002678,0.000431,0.003173
64775000,0.0324,0.013523,0.002678,0.000431,0.003408
64776000,0.0324,0.013523,0.002678,0.000431,0.005876
64777000,0.0324,0.013523,0.002678,0.000431,0.002468
64778000,0.0324,0.013523,0.002678,0.000431,0.002586
64779000,0.0324,0.013523,0.002678,0.000431,0.002351
64780000,0.0324,0.013523,0.002678,0.000431,0.002351
64781000,0.0324,0.013523,0.002678,0.000431,0.002468
64782000,0.0324,0.013523,0.002678,0.000431,0.002468
64783000,0.0324,0.013523,0.002678,0.000431,0.002116
64784000,0.0324,0.013523,0.002678,0.000431,0.002233
64785000,0.0324,0.013523,0.002678,0.000431,0.002468
64786000,0.0324,0.013523,0.002678,0.000431,0.002233
64787000,0.0324,0.013523,0.002678,0.000431,0.004349
64788000,0.0324,0.013523,0.002678,0.000431,0.003056
64789000,0.0324,0.013523,0.002678,0.000431,0.000705
64790000,0.0324,0.013523,0.002678,0.000431,0.000940
64791000,0.0324,0.013523,0.002678,0.000431,0.000823
64792000,0.0324,0.013523,0.002678,0.000431,0.000823
64793000,0.0324,0.013523,0.002678,0.000431,0.000823
64794000,0.0324,0.013523,0.002678,0.000431,0.000823
64795000,0.0324,0.013523,0.002678,0.000431,0.000823
64796000,0.0324,0.013523,0.002678,0.000431,0.000823
64797000,0.0324,0.013523,0.002678,0.000431,0.000940
64798000,0.0324,0.013523,0.002678,0.000431,0.000823
64799000,0.0324,0.013523,0.002678,0.000431,0.000823
64800000,0.0324,0.013523,0.002678,0.000431,0.000705
64801000,0.0324,0.013523,0.002678,0.000431,0.000940
64802000,0.0324,0.013523,0.002678,0.000431,0.000940
64803000,0.0324,0.013523,0.002678,0.000431,0.000705
64804000,0.0324,0.013523,0.002678,0.000431,0.000940
64805000,0.0324,0.013523,0.002678,0.000431,0.000705
64806000,0.0324,0.013523,0.002678,0.000431,0.000940
64807000,0.0324,0.013523,0.002678,0.000431,0.000823
64808000,0.0324,0.013523,0.002678,0.000431,0.000823
64809000,0.0324,0.013523,0.002678,0.000431,0.000823
64810000,0.0324,0.013523,0.002678,0.000431,0.000823
64811000,0.0324,0.013523,0.002678,0.000431,0.000940
64812000,0.0324,0.013523,0.002678,0.000431,0.000823
64813000,0.0324,0.013523,0.002678,0.000431,0.000588
64814000,0.0324,0.013523,0.002678,0.000431,0.000940
64815000,0.0324,0.013523,0.002678,0.000431,0.000940
64816000,0.0324,0.013523,0.002678,0.000431,0.000823
64817000,0.0324,0.013523,0.002678,0.000431,0.000823
64818000,0.0324,0.013523,0.002678,0.000431,0.254684
64819000,0.0324,0.013523,0.002678,0.000431,0.689303
64820000,0.0324,0.013523,0.002678,0.000431,0.436147
64821000,0.0324,0.013523,0.002678,0.000431,0.136333
64822000,0.0324,0.013523,0.002678,0.000431,0.447077
64823000,0.0324,0.013523,0.002678,0.000431,0.308747
64824000,0.0324,0.013523,0.002678,0.000431,0.265731
64825000,0.0324,0.013523,0.002678,0.000431,0.249395
64826000,0.0324,0.013523,0.002678,0.000431,0.151376
64827000,0.0324,0.013523,0.002678,0.000431,0.119879
64828000,0.0324,0.013523,0.002678,0.000431,0.399361
64829000,0.0324,0.013523,0.002678,0.000431,0.356110
64830000,0.0324,0.013523,0.002678,0.000431,0.164539
64831000,0.0324,0.013523,0.002678,0.000431,0.151729
64832000,0.0324,0.013523,0.002678,0.000431,0.125873
64833000,0.0324,0.013523,0.002678,0.000431,0.088616
64834000,0.0324,0.013523,0.002678,0.000431,0.081094
64835000,0.0324,0.013523,0.002678,0.000431,0.051712
64836000,0.0324,0.013523,0.002678,0.000431,0.055591
64837000,0.0324,0.013523,0.002678,0.000431,0.043250
64838000,0.0324,0.013523,0.002678,0.000431,0.030205
64839000,0.0324,0.013523,0.002678,0.000431,0.025151
64840000,0.0324,0.013523,0.002678,0.000431,0.026209
64841000,0.0324,0.013523,0.002678,0.000431,0.028442
64842000,0.0324,0.013523,0.002678,0.000431,0.023153
64843000,0.0324,0.013523,0.002678,0.000431,0.022683
64844000,0.0324,0.013523,0.002678,0.000431,0.014809
64845000,0.0324,0.013523,0.002678,0.000431,0.016924
64846000,0.0324,0.013523,0.002678,0.000431,0.015161
64847000,0.0324,0.013523,0.002678,0.000431,0.014809
64848000,0.0324,0.013523,0.002678,0.000431,0.015984
64849000,0.0324,0.013523,0.002678,0.000431,0.013633
64850000,0.0324,0.013523,0.002678,0.000431,0.011048
64851000,0.0324,0.013523,0.002678,0.000431,0.014338
64852000,0.0324,0.013523,0.002678,0.000431,0.007757
64853000,0.0324,0.013523,0.002678,0.000431,0.008815
64854000,0.0324,0.013523,0.002678,0.000431,0.010225
64855000,0.0324,0.013523,0.002678,0.000431,0.006229
64856000,0.0324,0.013523,0.002678,0.000431,0.008462
64857000,0.0324,0.013523,0.002678,0.000431,0.009637
64858000,0.0324,0.013523,0.002678,0.000431,0.005994
64859000,0.0324,0.013523,0.002678,0.000431,0.001645
64860000,0.0324,0.013523,0.002678,0.000431,0.004466
64861000,0.0324,0.013523,0.002678,0.000431,0.001058
64862000,0.0324,0.013523,0.002678,0.000431,0.000940
64863000,0.0324,0.013523,0.002678,0.000431,0.000940
64864000,0.0324,0.013523,0.002678,0.000431,0.001175
64865000,0.0324,0.013523,0.002678,0.000431,0.179701
64866000,0.0324,0.013523,0.002678,0.000431,0.729968
64867000,0.0324,0.013523,0.002678,0.000431,0.456479
64868000,0.0324,0.013523,0.002678,0.000431,0.137743
64869000,0.0324,0.013523,0.002678,0.000431,0.445432
64870000,0.0324,0.013523,0.002678,0.000431,0.248690
64871000,0.0324,0.013523,0.002678,0.000431,0.291000
64872000,0.0324,0.013523,0.002678,0.000431,0.238582
64873000,0.0324,0.013523,0.002678,0.000431,0.154785
64874000,0.0324,0.013523,0.002678,0.000431,0.112474
64875000,0.0324,0.013523,0.002678,0.000431,0.499495
64876000,0.0324,0.013523,0.002678,0.000431,0.317914
64877000,0.0324,0.013523,0.002678,0.000431,0.202736
64878000,0.0324,0.013523,0.002678,0.000431,0.166772
64879000,0.0324,0.013523,0.002678,0.000431,0.137038
64880000,0.0324,0.013523,0.002678,0.000431,0.106363
64881000,0.0324,0.013523,0.002678,0.000431,0.094258
64882000,0.0324,0.013523,0.002678,0.000431,0.080154
64883000,0.0324,0.013523,0.002678,0.000431,0.060997
64884000,0.0324,0.013523,0.002678,0.000431,0.057824
64885000,0.0324,0.013523,0.002678,0.000431,0.040900
64886000,0.0324,0.013523,0.002678,0.000431,0.029970
64887000,0.0324,0.013523,0.002678,0.000431,0.019745
64888000,0.0324,0.013523,0.002678,0.000431,0.013163
64889000,0.0324,0.013523,0.002678,0.000431,0.004466
64890000,0.0324,0.013523,0.002678,0.000431,0.004231
64891000,0.0324,0.013523,0.002678,0.000431,0.004231
64892000,0.0324,0.013523,0.002678,0.000431,0.007169
64893000,0.0324,0.013523,0.002678,0.000431,0.006582
64894000,0.0324,0.013523,0.002678,0.000431,0.005171
64895000,0.0324,0.013523,0.002678,0.000431,0.001763
64896000,0.0324,0.013523,0.002678,0.000431,0.001763
64897000,0.0324,0.013523,0.002678,0.000431,0.001528
64898000,0.0324,0.013523,0.002678,0.000431,0.001880
64899000,0.0324,0.013523,0.002678,0.000431,0.001880
64900000,0.0324,0.013523,0.002678,0.000431,0.001528
64901000,0.0324,0.013523,0.002678,0.000431,0.002821
64902000,0.0324,0.013523,0.002678,0.000431,0.001998
64903000,0.0324,0.013523,0.002678,0.000431,0.000940
64904000,0.0324,0.013523,0.002678,0.000431,0.000823
64905000,0.0324,0.013523,0.002678,0.000431,0.000823
64906000,0.0324,0.013523,0.002678,0.000431,0.000940
64907000,0.0324,0.013523,0.002678,0.000431,0.000705
64908000,0.0324,0.013523,0.002678,0.000431,0.000940
64909000,0.0324,0.013523,0.002678,0.000431,0.000705
64910000,0.0324,0.013523,0.002678,0.000431,0.000823
64911000,0.0324,0.013523,0.002678,0.000431,0.000823
64912000,0.0324,0.013523,0.002678,0.000431,0.128223
64913000,0.0324,0.013523,0.002678,0.000431,0.799544
64914000,0.0324,0.013523,0.002678,0.000431,0.490210
64915000,0.0324,0.013523,0.002678,0.000431,0.136803
64916000,0.0324,0.013523,0.002678,0.000431,0.420516
64917000,0.0324,0.013523,0.002678,0.000431,0.318971
64918000,0.0324,0.013523,0.002678,0.000431,0.270080
64919000,0.0324,0.013523,0.002678,0.000431,0.233058
64920000,0.0324,0.013523,0.002678,0.000431,0.157723
64921000,0.0324,0.013523,0.002678,0.000431,0.125050
64922000,0.0324,0.013523,0.002678,0.000431,0.463766
64923000,0.0324,0.013523,0.002678,0.000431,0.312625
64924000,0.0324,0.013523,0.002678,0.000431,0.161014
64925000,0.0324,0.013523,0.002678,0.000431,0.152552
64926000,0.0324,0.013523,0.002678,0.000431,0.124110
64927000,0.0324,0.013523,0.002678,0.000431,0.115413
64928000,0.0324,0.013523,0.002678,0.000431,0.084385
64929000,0.0324,0.013523,0.002678,0.000431,0.080859
64930000,0.0324,0.013523,0.002678,0.000431,0.075923
64931000,0.0324,0.013523,0.002678,0.000431,0.050185
64932000,0.0324,0.013523,0.002678,0.000431,0.034906
64933000,0.0324,0.013523,0.002678,0.000431,0.036551
64934000,0.0324,0.013523,0.002678,0.000431,0.023506
64935000,0.0324,0.013523,0.002678,0.000431,0.011165
64936000,0.0324,0.013523,0.002678,0.000431,0.006229
64937000,0.0324,0.013523,0.002678,0.000431,0.003761
64938000,0.0324,0.013523,0.002678,0.000431,0.005641
64939000,0.0324,0.013523,0.002678,0.000431,0.004113
64940000,0.0324,0.013523,0.002678,0.000431,0.001763
64941000,0.0324,0.013523,0.002678,0.000431,0.003761
64942000,0.0324,0.013523,0.002678,0.000431,0.000823
64943000,0.0324,0.013523,0.002678,0.000431,0.000705
64944000,0.0324,0.013523,0.002678,0.000431,0.263616
64945000,0.0324,0.013523,0.002678,0.000431,0.730790
64946000,0.0324,0.013523,0.002678,0.000431,0.412759
64947000,0.0324,0.013523,0.002678,0.000431,0.143032
64948000,0.0324,0.013523,0.002678,0.000431,0.498907
64949000,0.0324,0.013523,0.002678,0.000431,0.257857
64950000,0.0324,0.013523,0.002678,0.000431,0.330842
64951000,0.0324,0.013523,0.002678,0.000431,0.224949
64952000,0.0324,0.013523,0.002678,0.000431,0.179701
64953000,0.0324,0.013523,0.002678,0.000431,0.099194
64954000,0.0324,0.013523,0.002678,0.000431,0.574948
64955000,0.0324,0.013523,0.002678,0.000431,0.247749
64956000,0.0324,0.013523,0.002678,0.000431,0.187575
64957000,0.0324,0.013523,0.002678,0.000431,0.157723
64958000,0.0324,0.013523,0.002678,0.000431,0.123992
64959000,0.0324,0.013523,0.002678,0.000431,0.104365
64960000,0.0324,0.013523,0.002678,0.000431,0.089792
64961000,0.0324,0.013523,0.002678,0.000431,0.066051
64962000,0.0324,0.013523,0.002678,0.000431,0.063935
64963000,0.0324,0.013523,0.002678,0.000431,0.041252
64964000,0.0324,0.013523,0.002678,0.000431,0.046776
64965000,0.0324,0.013523,0.002678,0.000431,0.023506
64966000,0.0324,0.013523,0.002678,0.000431,0.026091
64967000,0.0324,0.013523,0.002678,0.000431,0.022330
64968000,0.0324,0.013523,0.002678,0.000431,0.011165
64969000,0.0324,0.013523,0.002678,0.000431,0.012811
64970000,0.0324,0.013523,0.002678,0.000431,0.010578
64971000,0.0324,0.013523,0.002678,0.000431,0.010225
64972000,0.0324,0.013523,0.002678,0.000431,0.008697
64973000,0.0324,0.013523,0.002678,0.000431,0.006817
64974000,0.0324,0.013523,0.002678,0.000431,0.005641
64975000,0.0324,0.013523,0.002678,0.000431,0.003996
64976000,0.0324,0.013523,0.002678,0.000431,0.004349
64977000,0.0324,0.013523,0.002678,0.000431,0.003643
64978000,0.0324,0.013523,0.002678,0.000431,0.005054
64979000,0.0324,0.013523,0.002678,0.000431,0.006699
64980000,0.0324,0.013523,0.002678,0.000431,0.002116
64981000,0.0324,0.013523,0.002678,0.000431,0.002116
64982000,0.0324,0.013523,0.002678,0.000431,0.002116
64983000,0.0324,0.013523,0.002678,0.000431,0.004584
64984000,0.0324,0.013523,0.002678,0.000431,0.001645
64985000,0.0324,0.013523,0.002678,0.000431,0.001645
64986000,0.0324,0.013523,0.002678,0.000431,0.001410
64987000,0.0324,0.013523,0.002678,0.000431,0.001410
64988000,0.0324,0.013523,0.002678,0.000431,0.001293
64989000,0.0324,0.013523,0.002678,0.000431,0.001763
64990000,0.0324,0.013523,0.002678,0.000431,0.001410
64991000,0.0324,0.013523,0.002678,0.000431,0.274428
64992000,0.0324,0.013523,0.002678,0.000431,0.769339
64993000,0.0324,0.013523,0.002678,0.000431,0.386198
64994000,0.0324,0.013523,0.002678,0.000431,0.145735
64995000,0.0324,0.013523,0.002678,0.000431,0.537926
64996000,0.0324,0.013523,0.002678,0.000431,0.293115
64997000,0.0324,0.013523,0.002678,0.000431,0.340949
64998000,0.0324,0.013523,0.002678,0.000431,0.210728
64999000,0.0324,0.013523,0.002678,0.000431,0.153492
