Cycle,Area(mm^2),PeakDynamic(W),SubthresholdLeakage(W),GateLeakage(W),RunTimeDynamic(W)
32000000,0.0324,0.013523,0.002678,0.000431,0.000940
32001000,0.0324,0.013523,0.002678,0.000431,0.000823
32002000,0.0324,0.013523,0.002678,0.000431,0.000823
32003000,0.0324,0.013523,0.002678,0.000431,0.000823
32004000,0.0324,0.013523,0.002678,0.000431,0.000823
32005000,0.0324,0.013523,0.002678,0.000431,0.001058
32006000,0.0324,0.013523,0.002678,0.000431,0.000823
32007000,0.0324,0.013523,0.002678,0.000431,0.000940
32008000,0.0324,0.013523,0.002678,0.000431,0.000940
32009000,0.0324,0.013523,0.002678,0.000431,0.000940
32010000,0.0324,0.013523,0.002678,0.000431,0.000705
32011000,0.0324,0.013523,0.002678,0.000431,0.000940
32012000,0.0324,0.013523,0.002678,0.000431,0.000940
32013000,0.0324,0.013523,0.002678,0.000431,0.163952
32014000,0.0324,0.013523,0.002678,0.000431,0.595045
32015000,0.0324,0.013523,0.002678,0.000431,0.537221
32016000,0.0324,0.013523,0.002678,0.000431,0.141504
32017000,0.0324,0.013523,0.002678,0.000431,0.145382
32018000,0.0324,0.013523,0.002678,0.000431,0.621019
32019000,0.0324,0.013523,0.002678,0.000431,0.280422
32020000,0.0324,0.013523,0.002678,0.000431,0.298992
32021000,0.0324,0.013523,0.002678,0.000431,0.234234
32022000,0.0324,0.013523,0.002678,0.000431,0.147028
32023000,0.0324,0.013523,0.002678,0.000431,0.108949
32024000,0.0324,0.013523,0.002678,0.000431,0.339421
32025000,0.0324,0.013523,0.002678,0.000431,0.328844
32026000,0.0324,0.013523,0.002678,0.000431,0.141386
32027000,0.0324,0.013523,0.002678,0.000431,0.110829
32028000,0.0324,0.013523,0.002678,0.000431,0.102485
32029000,0.0324,0.013523,0.002678,0.000431,0.085796
32030000,0.0324,0.013523,0.002678,0.000431,0.070517
32031000,0.0324,0.013523,0.002678,0.000431,0.061115
32032000,0.0324,0.013523,0.002678,0.000431,0.054180
32033000,0.0324,0.013523,0.002678,0.000431,0.038549
32034000,0.0324,0.013523,0.002678,0.000431,0.038079
32035000,0.0324,0.013523,0.002678,0.000431,0.037021
32036000,0.0324,0.013523,0.002678,0.000431,0.029265
32037000,0.0324,0.013523,0.002678,0.000431,0.026091
32038000,0.0324,0.013523,0.002678,0.000431,0.027267
32039000,0.0324,0.013523,0.002678,0.000431,0.013398
32040000,0.0324,0.013523,0.002678,0.000431,0.014809
32041000,0.0324,0.013523,0.002678,0.000431,0.013163
32042000,0.0324,0.013523,0.002678,0.000431,0.012811
32043000,0.0324,0.013523,0.002678,0.000431,0.007522
32044000,0.0324,0.013523,0.002678,0.000431,0.009520
32045000,0.0324,0.013523,0.002678,0.000431,0.009520
32046000,0.0324,0.013523,0.002678,0.000431,0.006817
32047000,0.0324,0.013523,0.002678,0.000431,0.003526
32048000,0.0324,0.013523,0.002678,0.000431,0.002351
32049000,0.0324,0.013523,0.002678,0.000431,0.004701
32050000,0.0324,0.013523,0.002678,0.000431,0.076863
32051000,0.0324,0.013523,0.002678,0.000431,0.646993
32052000,0.0324,0.013523,0.002678,0.000431,0.557084
32053000,0.0324,0.013523,0.002678,0.000431,0.134452
32054000,0.0324,0.013523,0.002678,0.000431,0.136685
32055000,0.0324,0.013523,0.002678,0.000431,0.547564
32056000,0.0324,0.013523,0.002678,0.000431,0.248455
32057000,0.0324,0.013523,0.002678,0.000431,0.248455
32058000,0.0324,0.013523,0.002678,0.000431,0.306631
32059000,0.0324,0.013523,0.002678,0.000431,0.145735
32060000,0.0324,0.013523,0.002678,0.000431,0.186517
32061000,0.0324,0.013523,0.002678,0.000431,0.082740
32062000,0.0324,0.013523,0.002678,0.000431,0.487742
32063000,0.0324,0.013523,0.002678,0.000431,0.170298
32064000,0.0324,0.013523,0.002678,0.000431,0.113062
32065000,0.0324,0.013523,0.002678,0.000431,0.109771
32066000,0.0324,0.013523,0.002678,0.000431,0.094845
32067000,0.0324,0.013523,0.002678,0.000431,0.088146
32068000,0.0324,0.013523,0.002678,0.000431,0.074983
32069000,0.0324,0.013523,0.002678,0.000431,0.066756
32070000,0.0324,0.013523,0.002678,0.000431,0.059587
32071000,0.0324,0.013523,0.002678,0.000431,0.053358
32072000,0.0324,0.013523,0.002678,0.000431,0.050890
32073000,0.0324,0.013523,0.002678,0.000431,0.040665
32074000,0.0324,0.013523,0.002678,0.000431,0.037844
32075000,0.0324,0.013523,0.002678,0.000431,0.032085
32076000,0.0324,0.013523,0.002678,0.000431,0.030910
32077000,0.0324,0.013523,0.002678,0.000431,0.028089
32078000,0.0324,0.013523,0.002678,0.000431,0.026914
32079000,0.0324,0.013523,0.002678,0.000431,0.017042
32080000,0.0324,0.013523,0.002678,0.000431,0.016571
32081000,0.0324,0.013523,0.002678,0.000431,0.017159
32082000,0.0324,0.013523,0.002678,0.000431,0.014809
32083000,0.0324,0.013523,0.002678,0.000431,0.017277
32084000,0.0324,0.013523,0.002678,0.000431,0.013633
32085000,0.0324,0.013523,0.002678,0.000431,0.014573
32086000,0.0324,0.013523,0.002678,0.000431,0.011870
32087000,0.0324,0.013523,0.002678,0.000431,0.011400
32088000,0.0324,0.013523,0.002678,0.000431,0.008932
32089000,0.0324,0.013523,0.002678,0.000431,0.010930
32090000,0.0324,0.013523,0.002678,0.000431,0.006699
32091000,0.0324,0.013523,0.002678,0.000431,0.009520
32092000,0.0324,0.013523,0.002678,0.000431,0.008697
32093000,0.0324,0.013523,0.002678,0.000431,0.005876
32094000,0.0324,0.013523,0.002678,0.000431,0.002586
32095000,0.0324,0.013523,0.002678,0.000431,0.002468
32096000,0.0324,0.013523,0.002678,0.000431,0.002586
32097000,0.0324,0.013523,0.002678,0.000431,0.002468
32098000,0.0324,0.013523,0.002678,0.000431,0.002586
32099000,0.0324,0.013523,0.002678,0.000431,0.003996
32100000,0.0324,0.013523,0.002678,0.000431,0.001763
32101000,0.0324,0.013523,0.002678,0.000431,0.001645
32102000,0.0324,0.013523,0.002678,0.000431,0.001763
32103000,0.0324,0.013523,0.002678,0.000431,0.001645
32104000,0.0324,0.013523,0.002678,0.000431,0.001645
32105000,0.0324,0.013523,0.002678,0.000431,0.001763
32106000,0.0324,0.013523,0.002678,0.000431,0.001528
32107000,0.0324,0.013523,0.002678,0.000431,0.001763
32108000,0.0324,0.013523,0.002678,0.000431,0.001645
32109000,0.0324,0.013523,0.002678,0.000431,0.001645
32110000,0.0324,0.013523,0.002678,0.000431,0.001763
32111000,0.0324,0.013523,0.002678,0.000431,0.003056
32112000,0.0324,0.013523,0.002678,0.000431,0.000823
32113000,0.0324,0.013523,0.002678,0.000431,0.000823
32114000,0.0324,0.013523,0.002678,0.000431,0.000823
32115000,0.0324,0.013523,0.002678,0.000431,0.000823
32116000,0.0324,0.013523,0.002678,0.000431,0.000940
32117000,0.0324,0.013523,0.002678,0.000431,0.000940
32118000,0.0324,0.013523,0.002678,0.000431,0.000823
32119000,0.0324,0.013523,0.002678,0.000431,0.000823
32120000,0.0324,0.013523,0.002678,0.000431,0.000940
32121000,0.0324,0.013523,0.002678,0.000431,0.000823
32122000,0.0324,0.013523,0.002678,0.000431,0.000940
32123000,0.0324,0.013523,0.002678,0.000431,0.000823
32124000,0.0324,0.013523,0.002678,0.000431,0.000940
32125000,0.0324,0.013523,0.002678,0.000431,0.000823
32126000,0.0324,0.013523,0.002678,0.000431,0.000823
32127000,0.0324,0.013523,0.002678,0.000431,0.000940
32128000,0.0324,0.013523,0.002678,0.000431,0.000705
32129000,0.0324,0.013523,0.002678,0.000431,0.000940
32130000,0.0324,0.013523,0.002678,0.000431,0.000823
32131000,0.0324,0.013523,0.002678,0.000431,0.000823
32132000,0.0324,0.013523,0.002678,0.000431,0.000823
32133000,0.0324,0.013523,0.002678,0.000431,0.000823
32134000,0.0324,0.013523,0.002678,0.000431,0.000940
32135000,0.0324,0.013523,0.002678,0.000431,0.000705
32136000,0.0324,0.013523,0.002678,0.000431,0.000940
32137000,0.0324,0.013523,0.002678,0.000431,0.000940
32138000,0.0324,0.013523,0.002678,0.000431,0.000823
32139000,0.0324,0.013523,0.002678,0.000431,0.000823
32140000,0.0324,0.013523,0.002678,0.000431,0.000940
32141000,0.0324,0.013523,0.002678,0.000431,0.000823
32142000,0.0324,0.013523,0.002678,0.000431,0.000940
32143000,0.0324,0.013523,0.002678,0.000431,0.000823
32144000,0.0324,0.013523,0.002678,0.000431,0.000940
32145000,0.0324,0.013523,0.002678,0.000431,0.000823
32146000,0.0324,0.013523,0.002678,0.000431,0.000823
32147000,0.0324,0.013523,0.002678,0.000431,0.000705
32148000,0.0324,0.013523,0.002678,0.000431,0.000940
32149000,0.0324,0.013523,0.002678,0.000431,0.000940
32150000,0.0324,0.013523,0.002678,0.000431,0.000823
32151000,0.0324,0.013523,0.002678,0.000431,0.000940
32152000,0.0324,0.013523,0.002678,0.000431,0.000823
32153000,0.0324,0.013523,0.002678,0.000431,0.000940
32154000,0.0324,0.013523,0.002678,0.000431,0.000823
32155000,0.0324,0.013523,0.002678,0.000431,0.000823
32156000,0.0324,0.013523,0.002678,0.000431,0.000940
32157000,0.0324,0.013523,0.002678,0.000431,0.000940
32158000,0.0324,0.013523,0.002678,0.000431,0.000823
32159000,0.0324,0.013523,0.002678,0.000431,0.000823
32160000,0.0324,0.013523,0.002678,0.000431,0.000940
32161000,0.0324,0.013523,0.002678,0.000431,0.000705
32162000,0.0324,0.013523,0.002678,0.000431,0.000823
32163000,0.0324,0.013523,0.002678,0.000431,0.020332
32164000,0.0324,0.013523,0.002678,0.000431,0.613145
32165000,0.0324,0.013523,0.002678,0.000431,0.593987
32166000,0.0324,0.013523,0.002678,0.000431,0.137743
32167000,0.0324,0.013523,0.002678,0.000431,0.133042
32168000,0.0324,0.013523,0.002678,0.000431,0.556143
32169000,0.0324,0.013523,0.002678,0.000431,0.239757
32170000,0.0324,0.013523,0.002678,0.000431,0.269257
32171000,0.0324,0.013523,0.002678,0.000431,0.315681
32172000,0.0324,0.013523,0.002678,0.000431,0.151494
32173000,0.0324,0.013523,0.002678,0.000431,0.158546
32174000,0.0324,0.013523,0.002678,0.000431,0.112474
32175000,0.0324,0.013523,0.002678,0.000431,0.466704
32176000,0.0324,0.013523,0.002678,0.000431,0.175470
32177000,0.0324,0.013523,0.002678,0.000431,0.106833
32178000,0.0324,0.013523,0.002678,0.000431,0.092847
32179000,0.0324,0.013523,0.002678,0.000431,0.089556
32180000,0.0324,0.013523,0.002678,0.000431,0.064170
32181000,0.0324,0.013523,0.002678,0.000431,0.053710
32182000,0.0324,0.013523,0.002678,0.000431,0.049244
32183000,0.0324,0.013523,0.002678,0.000431,0.045248
32184000,0.0324,0.013523,0.002678,0.000431,0.030557
32185000,0.0324,0.013523,0.002678,0.000431,0.023036
32186000,0.0324,0.013523,0.002678,0.000431,0.020920
32187000,0.0324,0.013523,0.002678,0.000431,0.018452
32188000,0.0324,0.013523,0.002678,0.000431,0.014691
32189000,0.0324,0.013523,0.002678,0.000431,0.011988
32190000,0.0324,0.013523,0.002678,0.000431,0.010460
32191000,0.0324,0.013523,0.002678,0.000431,0.015749
32192000,0.0324,0.013523,0.002678,0.000431,0.014809
32193000,0.0324,0.013523,0.002678,0.000431,0.006699
32194000,0.0324,0.013523,0.002678,0.000431,0.007522
32195000,0.0324,0.013523,0.002678,0.000431,0.009285
32196000,0.0324,0.013523,0.002678,0.000431,0.002351
32197000,0.0324,0.013523,0.002678,0.000431,0.002586
32198000,0.0324,0.013523,0.002678,0.000431,0.002468
32199000,0.0324,0.013523,0.002678,0.000431,0.002703
32200000,0.0324,0.013523,0.002678,0.000431,0.002586
32201000,0.0324,0.013523,0.002678,0.000431,0.004113
32202000,0.0324,0.013523,0.002678,0.000431,0.001880
32203000,0.0324,0.013523,0.002678,0.000431,0.001528
32204000,0.0324,0.013523,0.002678,0.000431,0.001880
32205000,0.0324,0.013523,0.002678,0.000431,0.001645
32206000,0.0324,0.013523,0.002678,0.000431,0.001880
32207000,0.0324,0.013523,0.002678,0.000431,0.001645
32208000,0.0324,0.013523,0.002678,0.000431,0.001763
32209000,0.0324,0.013523,0.002678,0.000431,0.001880
32210000,0.0324,0.013523,0.002678,0.000431,0.001645
32211000,0.0324,0.013523,0.002678,0.000431,0.001763
32212000,0.0324,0.013523,0.002678,0.000431,0.001763
32213000,0.0324,0.013523,0.002678,0.000431,0.001880
32214000,0.0324,0.013523,0.002678,0.000431,0.001763
32215000,0.0324,0.013523,0.002678,0.000431,0.001645
32216000,0.0324,0.013523,0.002678,0.000431,0.001763
32217000,0.0324,0.013523,0.002678,0.000431,0.003291
32218000,0.0324,0.013523,0.002678,0.000431,0.003643
32219000,0.0324,0.013523,0.002678,0.000431,0.473991
32220000,0.0324,0.013523,0.002678,0.000431,0.702348
32221000,0.0324,0.013523,0.002678,0.000431,0.139859
32222000,0.0324,0.013523,0.002678,0.000431,0.133512
32223000,0.0324,0.013523,0.002678,0.000431,0.206615
32224000,0.0324,0.013523,0.002678,0.000431,0.548857
32225000,0.0324,0.013523,0.002678,0.000431,0.271255
32226000,0.0324,0.013523,0.002678,0.000431,0.275721
32227000,0.0324,0.013523,0.002678,0.000431,0.187340
32228000,0.0324,0.013523,0.002678,0.000431,0.141151
32229000,0.0324,0.013523,0.002678,0.000431,0.161719
32230000,0.0324,0.013523,0.002678,0.000431,0.191218
32231000,0.0324,0.013523,0.002678,0.000431,0.453894
32232000,0.0324,0.013523,0.002678,0.000431,0.139623
32233000,0.0324,0.013523,0.002678,0.000431,0.109771
32234000,0.0324,0.013523,0.002678,0.000431,0.108361
32235000,0.0324,0.013523,0.002678,0.000431,0.089909
32236000,0.0324,0.013523,0.002678,0.000431,0.078039
32237000,0.0324,0.013523,0.002678,0.000431,0.060292
32238000,0.0324,0.013523,0.002678,0.000431,0.060292
32239000,0.0324,0.013523,0.002678,0.000431,0.043838
32240000,0.0324,0.013523,0.002678,0.000431,0.044191
32241000,0.0324,0.013523,0.002678,0.000431,0.042193
32242000,0.0324,0.013523,0.002678,0.000431,0.035611
32243000,0.0324,0.013523,0.002678,0.000431,0.033848
32244000,0.0324,0.013523,0.002678,0.000431,0.023858
32245000,0.0324,0.013523,0.002678,0.000431,0.026914
32246000,0.0324,0.013523,0.002678,0.000431,0.018569
32247000,0.0324,0.013523,0.002678,0.000431,0.016101
32248000,0.0324,0.013523,0.002678,0.000431,0.018569
32249000,0.0324,0.013523,0.002678,0.000431,0.012340
32250000,0.0324,0.013523,0.002678,0.000431,0.011635
32251000,0.0324,0.013523,0.002678,0.000431,0.008462
32252000,0.0324,0.013523,0.002678,0.000431,0.010930
32253000,0.0324,0.013523,0.002678,0.000431,0.009755
32254000,0.0324,0.013523,0.002678,0.000431,0.006817
32255000,0.0324,0.013523,0.002678,0.000431,0.006699
32256000,0.0324,0.013523,0.002678,0.000431,0.007757
32257000,0.0324,0.013523,0.002678,0.000431,0.005876
32258000,0.0324,0.013523,0.002678,0.000431,0.006111
32259000,0.0324,0.013523,0.002678,0.000431,0.005759
32260000,0.0324,0.013523,0.002678,0.000431,0.007052
32261000,0.0324,0.013523,0.002678,0.000431,0.005171
32262000,0.0324,0.013523,0.002678,0.000431,0.004936
32263000,0.0324,0.013523,0.002678,0.000431,0.005054
32264000,0.0324,0.013523,0.002678,0.000431,0.004819
32265000,0.0324,0.013523,0.002678,0.000431,0.004936
32266000,0.0324,0.013523,0.002678,0.000431,0.004701
32267000,0.0324,0.013523,0.002678,0.000431,0.004466
32268000,0.0324,0.013523,0.002678,0.000431,0.003878
32269000,0.0324,0.013523,0.002678,0.000431,0.004466
32270000,0.0324,0.013523,0.002678,0.000431,0.005759
32271000,0.0324,0.013523,0.002678,0.000431,0.003643
32272000,0.0324,0.013523,0.002678,0.000431,0.003408
32273000,0.0324,0.013523,0.002678,0.000431,0.004466
32274000,0.0324,0.013523,0.002678,0.000431,0.003643
32275000,0.0324,0.013523,0.002678,0.000431,0.004466
32276000,0.0324,0.013523,0.002678,0.000431,0.003291
32277000,0.0324,0.013523,0.002678,0.000431,0.000823
32278000,0.0324,0.013523,0.002678,0.000431,0.000705
32279000,0.0324,0.013523,0.002678,0.000431,0.000940
32280000,0.0324,0.013523,0.002678,0.000431,0.000940
32281000,0.0324,0.013523,0.002678,0.000431,0.000705
32282000,0.0324,0.013523,0.002678,0.000431,0.000940
32283000,0.0324,0.013523,0.002678,0.000431,0.000705
32284000,0.0324,0.013523,0.002678,0.000431,0.000940
32285000,0.0324,0.013523,0.002678,0.000431,0.000823
32286000,0.0324,0.013523,0.002678,0.000431,0.000823
32287000,0.0324,0.013523,0.002678,0.000431,0.000940
32288000,0.0324,0.013523,0.002678,0.000431,0.000705
32289000,0.0324,0.013523,0.002678,0.000431,0.000940
32290000,0.0324,0.013523,0.002678,0.000431,0.000823
32291000,0.0324,0.013523,0.002678,0.000431,0.000823
32292000,0.0324,0.013523,0.002678,0.000431,0.000823
32293000,0.0324,0.013523,0.002678,0.000431,0.000823
32294000,0.0324,0.013523,0.002678,0.000431,0.000823
32295000,0.0324,0.013523,0.002678,0.000431,0.000823
32296000,0.0324,0.013523,0.002678,0.000431,0.000823
32297000,0.0324,0.013523,0.002678,0.000431,0.000823
32298000,0.0324,0.013523,0.002678,0.000431,0.000940
32299000,0.0324,0.013523,0.002678,0.000431,0.000705
32300000,0.0324,0.013523,0.002678,0.000431,0.000940
32301000,0.0324,0.013523,0.002678,0.000431,0.000705
32302000,0.0324,0.013523,0.002678,0.000431,0.000940
32303000,0.0324,0.013523,0.002678,0.000431,0.000940
32304000,0.0324,0.013523,0.002678,0.000431,0.000705
32305000,0.0324,0.013523,0.002678,0.000431,0.224714
32306000,0.0324,0.013523,0.002678,0.000431,0.602449
32307000,0.0324,0.013523,0.002678,0.000431,0.479045
32308000,0.0324,0.013523,0.002678,0.000431,0.133512
32309000,0.0324,0.013523,0.002678,0.000431,0.145970
32310000,0.0324,0.013523,0.002678,0.000431,0.594340
32311000,0.0324,0.013523,0.002678,0.000431,0.229180
32312000,0.0324,0.013523,0.002678,0.000431,0.272430
32313000,0.0324,0.013523,0.002678,0.000431,0.255154
32314000,0.0324,0.013523,0.002678,0.000431,0.149261
32315000,0.0324,0.013523,0.002678,0.000431,0.171709
32316000,0.0324,0.013523,0.002678,0.000431,0.136098
32317000,0.0324,0.013523,0.002678,0.000431,0.460005
32318000,0.0324,0.013523,0.002678,0.000431,0.154432
32319000,0.0324,0.013523,0.002678,0.000431,0.116588
32320000,0.0324,0.013523,0.002678,0.000431,0.114825
32321000,0.0324,0.013523,0.002678,0.000431,0.094140
32322000,0.0324,0.013523,0.002678,0.000431,0.074160
32323000,0.0324,0.013523,0.002678,0.000431,0.073338
32324000,0.0324,0.013523,0.002678,0.000431,0.070047
32325000,0.0324,0.013523,0.002678,0.000431,0.059939
32326000,0.0324,0.013523,0.002678,0.000431,0.046541
32327000,0.0324,0.013523,0.002678,0.000431,0.042780
32328000,0.0324,0.013523,0.002678,0.000431,0.042545
32329000,0.0324,0.013523,0.002678,0.000431,0.034201
32330000,0.0324,0.013523,0.002678,0.000431,0.034671
32331000,0.0324,0.013523,0.002678,0.000431,0.033966
32332000,0.0324,0.013523,0.002678,0.000431,0.030322
32333000,0.0324,0.013523,0.002678,0.000431,0.027854
32334000,0.0324,0.013523,0.002678,0.000431,0.026326
32335000,0.0324,0.013523,0.002678,0.000431,0.031498
32336000,0.0324,0.013523,0.002678,0.000431,0.023623
32337000,0.0324,0.013523,0.002678,0.000431,0.018805
32338000,0.0324,0.013523,0.002678,0.000431,0.019862
32339000,0.0324,0.013523,0.002678,0.000431,0.019980
32340000,0.0324,0.013523,0.002678,0.000431,0.019980
32341000,0.0324,0.013523,0.002678,0.000431,0.018334
32342000,0.0324,0.013523,0.002678,0.000431,0.017277
32343000,0.0324,0.013523,0.002678,0.000431,0.017747
32344000,0.0324,0.013523,0.002678,0.000431,0.018687
32345000,0.0324,0.013523,0.002678,0.000431,0.017747
32346000,0.0324,0.013523,0.002678,0.000431,0.015514
32347000,0.0324,0.013523,0.002678,0.000431,0.014338
32348000,0.0324,0.013523,0.002678,0.000431,0.012928
32349000,0.0324,0.013523,0.002678,0.000431,0.011518
32350000,0.0324,0.013523,0.002678,0.000431,0.014221
32351000,0.0324,0.013523,0.002678,0.000431,0.009755
32352000,0.0324,0.013523,0.002678,0.000431,0.009637
32353000,0.0324,0.013523,0.002678,0.000431,0.010225
32354000,0.0324,0.013523,0.002678,0.000431,0.011283
32355000,0.0324,0.013523,0.002678,0.000431,0.008462
32356000,0.0324,0.013523,0.002678,0.000431,0.013163
32357000,0.0324,0.013523,0.002678,0.000431,0.008345
32358000,0.0324,0.013523,0.002678,0.000431,0.006229
32359000,0.0324,0.013523,0.002678,0.000431,0.006464
32360000,0.0324,0.013523,0.002678,0.000431,0.009050
32361000,0.0324,0.013523,0.002678,0.000431,0.007287
32362000,0.0324,0.013523,0.002678,0.000431,0.004936
32363000,0.0324,0.013523,0.002678,0.000431,0.004466
32364000,0.0324,0.013523,0.002678,0.000431,0.003996
32365000,0.0324,0.013523,0.002678,0.000431,0.004466
32366000,0.0324,0.013523,0.002678,0.000431,0.004349
32367000,0.0324,0.013523,0.002678,0.000431,0.003878
32368000,0.0324,0.013523,0.002678,0.000431,0.004584
32369000,0.0324,0.013523,0.002678,0.000431,0.003878
32370000,0.0324,0.013523,0.002678,0.000431,0.003408
32371000,0.0324,0.013523,0.002678,0.000431,0.003643
32372000,0.0324,0.013523,0.002678,0.000431,0.005054
32373000,0.0324,0.013523,0.002678,0.000431,0.002468
32374000,0.0324,0.013523,0.002678,0.000431,0.002468
32375000,0.0324,0.013523,0.002678,0.000431,0.002703
32376000,0.0324,0.013523,0.002678,0.000431,0.003643
32377000,0.0324,0.013523,0.002678,0.000431,0.004231
32378000,0.0324,0.013523,0.002678,0.000431,0.002116
32379000,0.0324,0.013523,0.002678,0.000431,0.000940
32380000,0.0324,0.013523,0.002678,0.000431,0.001410
32381000,0.0324,0.013523,0.002678,0.000431,0.251393
32382000,0.0324,0.013523,0.002678,0.000431,0.695649
32383000,0.0324,0.013523,0.002678,0.000431,0.349881
32384000,0.0324,0.013523,0.002678,0.000431,0.132102
32385000,0.0324,0.013523,0.002678,0.000431,0.133982
32386000,0.0324,0.013523,0.002678,0.000431,0.600451
32387000,0.0324,0.013523,0.002678,0.000431,0.257034
32388000,0.0324,0.013523,0.002678,0.000431,0.283478
32389000,0.0324,0.013523,0.002678,0.000431,0.224596
32390000,0.0324,0.013523,0.002678,0.000431,0.144912
32391000,0.0324,0.013523,0.002678,0.000431,0.177585
32392000,0.0324,0.013523,0.002678,0.000431,0.098489
32393000,0.0324,0.013523,0.002678,0.000431,0.473051
32394000,0.0324,0.013523,0.002678,0.000431,0.139271
32395000,0.0324,0.013523,0.002678,0.000431,0.101779
32396000,0.0324,0.013523,0.002678,0.000431,0.098136
32397000,0.0324,0.013523,0.002678,0.000431,0.074630
32398000,0.0324,0.013523,0.002678,0.000431,0.064523
32399000,0.0324,0.013523,0.002678,0.000431,0.058412
32400000,0.0324,0.013523,0.002678,0.000431,0.049597
32401000,0.0324,0.013523,0.002678,0.000431,0.053005
32402000,0.0324,0.013523,0.002678,0.000431,0.044661
32403000,0.0324,0.013523,0.002678,0.000431,0.039254
32404000,0.0324,0.013523,0.002678,0.000431,0.041723
32405000,0.0324,0.013523,0.002678,0.000431,0.037962
32406000,0.0324,0.013523,0.002678,0.000431,0.028559
32407000,0.0324,0.013523,0.002678,0.000431,0.029265
32408000,0.0324,0.013523,0.002678,0.000431,0.025151
32409000,0.0324,0.013523,0.002678,0.000431,0.029970
32410000,0.0324,0.013523,0.002678,0.000431,0.018922
32411000,0.0324,0.013523,0.002678,0.000431,0.017277
32412000,0.0324,0.013523,0.002678,0.000431,0.018099
32413000,0.0324,0.013523,0.002678,0.000431,0.017629
32414000,0.0324,0.013523,0.002678,0.000431,0.011870
32415000,0.0324,0.013523,0.002678,0.000431,0.007639
32416000,0.0324,0.013523,0.002678,0.000431,0.006111
32417000,0.0324,0.013523,0.002678,0.000431,0.007757
32418000,0.0324,0.013523,0.002678,0.000431,0.005171
32419000,0.0324,0.013523,0.002678,0.000431,0.006347
32420000,0.0324,0.013523,0.002678,0.000431,0.003996
32421000,0.0324,0.013523,0.002678,0.000431,0.004231
32422000,0.0324,0.013523,0.002678,0.000431,0.004466
32423000,0.0324,0.013523,0.002678,0.000431,0.004113
32424000,0.0324,0.013523,0.002678,0.000431,0.004231
32425000,0.0324,0.013523,0.002678,0.000431,0.004231
32426000,0.0324,0.013523,0.002678,0.000431,0.003996
32427000,0.0324,0.013523,0.002678,0.000431,0.004584
32428000,0.0324,0.013523,0.002678,0.000431,0.004231
32429000,0.0324,0.013523,0.002678,0.000431,0.004113
32430000,0.0324,0.013523,0.002678,0.000431,0.004466
32431000,0.0324,0.013523,0.002678,0.000431,0.005524
32432000,0.0324,0.013523,0.002678,0.000431,0.004231
32433000,0.0324,0.013523,0.002678,0.000431,0.003291
32434000,0.0324,0.013523,0.002678,0.000431,0.003408
32435000,0.0324,0.013523,0.002678,0.000431,0.003643
32436000,0.0324,0.013523,0.002678,0.000431,0.003291
32437000,0.0324,0.013523,0.002678,0.000431,0.003526
32438000,0.0324,0.013523,0.002678,0.000431,0.003408
32439000,0.0324,0.013523,0.002678,0.000431,0.003643
32440000,0.0324,0.013523,0.002678,0.000431,0.004466
32441000,0.0324,0.013523,0.002678,0.000431,0.005406
32442000,0.0324,0.013523,0.002678,0.000431,0.001880
32443000,0.0324,0.013523,0.002678,0.000431,0.001763
32444000,0.0324,0.013523,0.002678,0.000431,0.001763
32445000,0.0324,0.013523,0.002678,0.000431,0.001645
32446000,0.0324,0.013523,0.002678,0.000431,0.001763
32447000,0.0324,0.013523,0.002678,0.000431,0.001763
32448000,0.0324,0.013523,0.002678,0.000431,0.001763
32449000,0.0324,0.013523,0.002678,0.000431,0.001645
32450000,0.0324,0.013523,0.002678,0.000431,0.001880
32451000,0.0324,0.013523,0.002678,0.000431,0.001763
32452000,0.0324,0.013523,0.002678,0.000431,0.003173
32453000,0.0324,0.013523,0.002678,0.000431,0.001528
32454000,0.0324,0.013523,0.002678,0.000431,0.000940
32455000,0.0324,0.013523,0.002678,0.000431,0.001763
32456000,0.0324,0.013523,0.002678,0.000431,0.370331
32457000,0.0324,0.013523,0.002678,0.000431,0.685542
32458000,0.0324,0.013523,0.002678,0.000431,0.216017
32459000,0.0324,0.013523,0.002678,0.000431,0.133512
32460000,0.0324,0.013523,0.002678,0.000431,0.140329
32461000,0.0324,0.013523,0.002678,0.000431,0.590579
32462000,0.0324,0.013523,0.002678,0.000431,0.243753
32463000,0.0324,0.013523,0.002678,0.000431,0.276191
32464000,0.0324,0.013523,0.002678,0.000431,0.257152
32465000,0.0324,0.013523,0.002678,0.000431,0.143854
32466000,0.0324,0.013523,0.002678,0.000431,0.167478
32467000,0.0324,0.013523,0.002678,0.000431,0.137626
32468000,0.0324,0.013523,0.002678,0.000431,0.460710
32469000,0.0324,0.013523,0.002678,0.000431,0.126108
32470000,0.0324,0.013523,0.002678,0.000431,0.111064
32471000,0.0324,0.013523,0.002678,0.000431,0.081565
32472000,0.0324,0.013523,0.002678,0.000431,0.065463
32473000,0.0324,0.013523,0.002678,0.000431,0.057471
32474000,0.0324,0.013523,0.002678,0.000431,0.049362
32475000,0.0324,0.013523,0.002678,0.000431,0.041135
32476000,0.0324,0.013523,0.002678,0.000431,0.034436
32477000,0.0324,0.013523,0.002678,0.000431,0.037139
32478000,0.0324,0.013523,0.002678,0.000431,0.028442
32479000,0.0324,0.013523,0.002678,0.000431,0.028324
32480000,0.0324,0.013523,0.002678,0.000431,0.019627
32481000,0.0324,0.013523,0.002678,0.000431,0.014456
32482000,0.0324,0.013523,0.002678,0.000431,0.014691
32483000,0.0324,0.013523,0.002678,0.000431,0.015044
32484000,0.0324,0.013523,0.002678,0.000431,0.014809
32485000,0.0324,0.013523,0.002678,0.000431,0.015396
32486000,0.0324,0.013523,0.002678,0.000431,0.014456
32487000,0.0324,0.013523,0.002678,0.000431,0.012928
32488000,0.0324,0.013523,0.002678,0.000431,0.011518
32489000,0.0324,0.013523,0.002678,0.000431,0.008227
32490000,0.0324,0.013523,0.002678,0.000431,0.008462
32491000,0.0324,0.013523,0.002678,0.000431,0.011048
32492000,0.0324,0.013523,0.002678,0.000431,0.007874
32493000,0.0324,0.013523,0.002678,0.000431,0.007874
32494000,0.0324,0.013523,0.002678,0.000431,0.013633
32495000,0.0324,0.013523,0.002678,0.000431,0.004936
32496000,0.0324,0.013523,0.002678,0.000431,0.005289
32497000,0.0324,0.013523,0.002678,0.000431,0.005054
32498000,0.0324,0.013523,0.002678,0.000431,0.005289
32499000,0.0324,0.013523,0.002678,0.000431,0.005171
32500000,0.0324,0.013523,0.002678,0.000431,0.005054
32501000,0.0324,0.013523,0.002678,0.000431,0.008697
32502000,0.0324,0.013523,0.002678,0.000431,0.003173
32503000,0.0324,0.013523,0.002678,0.000431,0.003643
32504000,0.0324,0.013523,0.002678,0.000431,0.003408
32505000,0.0324,0.013523,0.002678,0.000431,0.003408
32506000,0.0324,0.013523,0.002678,0.000431,0.003643
32507000,0.0324,0.013523,0.002678,0.000431,0.003291
32508000,0.0324,0.013523,0.002678,0.000431,0.003408
32509000,0.0324,0.013523,0.002678,0.000431,0.003643
32510000,0.0324,0.013523,0.002678,0.000431,0.003291
32511000,0.0324,0.013523,0.002678,0.000431,0.005406
32512000,0.0324,0.013523,0.002678,0.000431,0.002468
32513000,0.0324,0.013523,0.002678,0.000431,0.002703
32514000,0.0324,0.013523,0.002678,0.000431,0.002586
32515000,0.0324,0.013523,0.002678,0.000431,0.004819
32516000,0.0324,0.013523,0.002678,0.000431,0.001763
32517000,0.0324,0.013523,0.002678,0.000431,0.002703
32518000,0.0324,0.013523,0.002678,0.000431,0.001998
32519000,0.0324,0.013523,0.002678,0.000431,0.000940
32520000,0.0324,0.013523,0.002678,0.000431,0.000823
32521000,0.0324,0.013523,0.002678,0.000431,0.000823
32522000,0.0324,0.013523,0.002678,0.000431,0.000940
32523000,0.0324,0.013523,0.002678,0.000431,0.000940
32524000,0.0324,0.013523,0.002678,0.000431,0.000705
32525000,0.0324,0.013523,0.002678,0.000431,0.000940
32526000,0.0324,0.013523,0.002678,0.000431,0.000940
32527000,0.0324,0.013523,0.002678,0.000431,0.000940
32528000,0.0324,0.013523,0.002678,0.000431,0.002586
32529000,0.0324,0.013523,0.002678,0.000431,0.438850
32530000,0.0324,0.013523,0.002678,0.000431,0.727617
32531000,0.0324,0.013523,0.002678,0.000431,0.138918
32532000,0.0324,0.013523,0.002678,0.000431,0.133982
32533000,0.0324,0.013523,0.002678,0.000431,0.151259
32534000,0.0324,0.013523,0.002678,0.000431,0.571069
32535000,0.0324,0.013523,0.002678,0.000431,0.248690
32536000,0.0324,0.013523,0.002678,0.000431,0.265614
32537000,0.0324,0.013523,0.002678,0.000431,0.242108
32538000,0.0324,0.013523,0.002678,0.000431,0.145265
32539000,0.0324,0.013523,0.002678,0.000431,0.176527
32540000,0.0324,0.013523,0.002678,0.000431,0.096961
32541000,0.0324,0.013523,0.002678,0.000431,0.469525
32542000,0.0324,0.013523,0.002678,0.000431,0.131867
32543000,0.0324,0.013523,0.002678,0.000431,0.098254
32544000,0.0324,0.013523,0.002678,0.000431,0.091202
32545000,0.0324,0.013523,0.002678,0.000431,0.070869
32546000,0.0324,0.013523,0.002678,0.000431,0.062290
32547000,0.0324,0.013523,0.002678,0.000431,0.056178
32548000,0.0324,0.013523,0.002678,0.000431,0.049949
32549000,0.0324,0.013523,0.002678,0.000431,0.053123
32550000,0.0324,0.013523,0.002678,0.000431,0.040312
32551000,0.0324,0.013523,0.002678,0.000431,0.040195
32552000,0.0324,0.013523,0.002678,0.000431,0.028794
32553000,0.0324,0.013523,0.002678,0.000431,0.026796
32554000,0.0324,0.013523,0.002678,0.000431,0.023623
32555000,0.0324,0.013523,0.002678,0.000431,0.024681
32556000,0.0324,0.013523,0.002678,0.000431,0.018805
32557000,0.0324,0.013523,0.002678,0.000431,0.018569
32558000,0.0324,0.013523,0.002678,0.000431,0.018334
32559000,0.0324,0.013523,0.002678,0.000431,0.017277
32560000,0.0324,0.013523,0.002678,0.000431,0.013868
32561000,0.0324,0.013523,0.002678,0.000431,0.013046
32562000,0.0324,0.013523,0.002678,0.000431,0.009755
32563000,0.0324,0.013523,0.002678,0.000431,0.009167
32564000,0.0324,0.013523,0.002678,0.000431,0.006699
32565000,0.0324,0.013523,0.002678,0.000431,0.006111
32566000,0.0324,0.013523,0.002678,0.000431,0.005054
32567000,0.0324,0.013523,0.002678,0.000431,0.006817
32568000,0.0324,0.013523,0.002678,0.000431,0.005641
32569000,0.0324,0.013523,0.002678,0.000431,0.003526
32570000,0.0324,0.013523,0.002678,0.000431,0.006347
32571000,0.0324,0.013523,0.002678,0.000431,0.002233
32572000,0.0324,0.013523,0.002678,0.000431,0.002821
32573000,0.0324,0.013523,0.002678,0.000431,0.002468
32574000,0.0324,0.013523,0.002678,0.000431,0.004231
32575000,0.0324,0.013523,0.002678,0.000431,0.001763
32576000,0.0324,0.013523,0.002678,0.000431,0.001528
32577000,0.0324,0.013523,0.002678,0.000431,0.001763
32578000,0.0324,0.013523,0.002678,0.000431,0.001528
32579000,0.0324,0.013523,0.002678,0.000431,0.001880
32580000,0.0324,0.013523,0.002678,0.000431,0.001763
32581000,0.0324,0.013523,0.002678,0.000431,0.001528
32582000,0.0324,0.013523,0.002678,0.000431,0.003173
32583000,0.0324,0.013523,0.002678,0.000431,0.002351
32584000,0.0324,0.013523,0.002678,0.000431,0.000940
32585000,0.0324,0.013523,0.002678,0.000431,0.000705
32586000,0.0324,0.013523,0.002678,0.000431,0.000823
32587000,0.0324,0.013523,0.002678,0.000431,0.000823
32588000,0.0324,0.013523,0.002678,0.000431,0.000940
32589000,0.0324,0.013523,0.002678,0.000431,0.000705
32590000,0.0324,0.013523,0.002678,0.000431,0.000940
32591000,0.0324,0.013523,0.002678,0.000431,0.000705
32592000,0.0324,0.013523,0.002678,0.000431,0.000940
32593000,0.0324,0.013523,0.002678,0.000431,0.000940
32594000,0.0324,0.013523,0.002678,0.000431,0.000823
32595000,0.0324,0.013523,0.002678,0.000431,0.000823
32596000,0.0324,0.013523,0.002678,0.000431,0.001645
32597000,0.0324,0.013523,0.002678,0.000431,0.395717
32598000,0.0324,0.013523,0.002678,0.000431,0.710458
32599000,0.0324,0.013523,0.002678,0.000431,0.158898
32600000,0.0324,0.013523,0.002678,0.000431,0.133512
32601000,0.0324,0.013523,0.002678,0.000431,0.135628
32602000,0.0324,0.013523,0.002678,0.000431,0.593517
32603000,0.0324,0.013523,0.002678,0.000431,0.240698
32604000,0.0324,0.013523,0.002678,0.000431,0.309569
32605000,0.0324,0.013523,0.002678,0.000431,0.218837
32606000,0.0324,0.013523,0.002678,0.000431,0.137861
32607000,0.0324,0.013523,0.002678,0.000431,0.167830
32608000,0.0324,0.013523,0.002678,0.000431,0.107891
32609000,0.0324,0.013523,0.002678,0.000431,0.465882
32610000,0.0324,0.013523,0.002678,0.000431,0.185459
32611000,0.0324,0.013523,0.002678,0.000431,0.115883
32612000,0.0324,0.013523,0.002678,0.000431,0.103542
32613000,0.0324,0.013523,0.002678,0.000431,0.093552
32614000,0.0324,0.013523,0.002678,0.000431,0.083915
32615000,0.0324,0.013523,0.002678,0.000431,0.070282
32616000,0.0324,0.013523,0.002678,0.000431,0.067814
32617000,0.0324,0.013523,0.002678,0.000431,0.061937
32618000,0.0324,0.013523,0.002678,0.000431,0.052418
32619000,0.0324,0.013523,0.002678,0.000431,0.057471
32620000,0.0324,0.013523,0.002678,0.000431,0.042310
32621000,0.0324,0.013523,0.002678,0.000431,0.037727
32622000,0.0324,0.013523,0.002678,0.000431,0.034201
32623000,0.0324,0.013523,0.002678,0.000431,0.032320
32624000,0.0324,0.013523,0.002678,0.000431,0.032673
32625000,0.0324,0.013523,0.002678,0.000431,0.024211
32626000,0.0324,0.013523,0.002678,0.000431,0.026561
32627000,0.0324,0.013523,0.002678,0.000431,0.026444
32628000,0.0324,0.013523,0.002678,0.000431,0.021155
32629000,0.0324,0.013523,0.002678,0.000431,0.018099
32630000,0.0324,0.013523,0.002678,0.000431,0.014809
32631000,0.0324,0.013523,0.002678,0.000431,0.014573
32632000,0.0324,0.013523,0.002678,0.000431,0.013516
32633000,0.0324,0.013523,0.002678,0.000431,0.014456
32634000,0.0324,0.013523,0.002678,0.000431,0.012223
32635000,0.0324,0.013523,0.002678,0.000431,0.013046
32636000,0.0324,0.013523,0.002678,0.000431,0.010342
32637000,0.0324,0.013523,0.002678,0.000431,0.007287
32638000,0.0324,0.013523,0.002678,0.000431,0.006934
32639000,0.0324,0.013523,0.002678,0.000431,0.010930
32640000,0.0324,0.013523,0.002678,0.000431,0.005641
32641000,0.0324,0.013523,0.002678,0.000431,0.006347
32642000,0.0324,0.013523,0.002678,0.000431,0.005524
32643000,0.0324,0.013523,0.002678,0.000431,0.004819
32644000,0.0324,0.013523,0.002678,0.000431,0.007874
32645000,0.0324,0.013523,0.002678,0.000431,0.004231
32646000,0.0324,0.013523,0.002678,0.000431,0.004349
32647000,0.0324,0.013523,0.002678,0.000431,0.004349
32648000,0.0324,0.013523,0.002678,0.000431,0.003878
32649000,0.0324,0.013523,0.002678,0.000431,0.004231
32650000,0.0324,0.013523,0.002678,0.000431,0.004231
32651000,0.0324,0.013523,0.002678,0.000431,0.004349
32652000,0.0324,0.013523,0.002678,0.000431,0.005171
32653000,0.0324,0.013523,0.002678,0.000431,0.004701
32654000,0.0324,0.013523,0.002678,0.000431,0.003643
32655000,0.0324,0.013523,0.002678,0.000431,0.003056
32656000,0.0324,0.013523,0.002678,0.000431,0.003761
32657000,0.0324,0.013523,0.002678,0.000431,0.003408
32658000,0.0324,0.013523,0.002678,0.000431,0.003408
32659000,0.0324,0.013523,0.002678,0.000431,0.003643
32660000,0.0324,0.013523,0.002678,0.000431,0.003291
32661000,0.0324,0.013523,0.002678,0.000431,0.003526
32662000,0.0324,0.013523,0.002678,0.000431,0.003173
32663000,0.0324,0.013523,0.002678,0.000431,0.003643
32664000,0.0324,0.013523,0.002678,0.000431,0.003408
32665000,0.0324,0.013523,0.002678,0.000431,0.003291
32666000,0.0324,0.013523,0.002678,0.000431,0.003291
32667000,0.0324,0.013523,0.002678,0.000431,0.003173
32668000,0.0324,0.013523,0.002678,0.000431,0.005641
32669000,0.0324,0.013523,0.002678,0.000431,0.002233
32670000,0.0324,0.013523,0.002678,0.000431,0.002586
32671000,0.0324,0.013523,0.002678,0.000431,0.002586
32672000,0.0324,0.013523,0.002678,0.000431,0.002233
32673000,0.0324,0.013523,0.002678,0.000431,0.002468
32674000,0.0324,0.013523,0.002678,0.000431,0.002351
32675000,0.0324,0.013523,0.002678,0.000431,0.002586
32676000,0.0324,0.013523,0.002678,0.000431,0.003408
32677000,0.0324,0.013523,0.002678,0.000431,0.000940
32678000,0.0324,0.013523,0.002678,0.000431,0.000823
32679000,0.0324,0.013523,0.002678,0.000431,0.000940
32680000,0.0324,0.013523,0.002678,0.000431,0.000823
32681000,0.0324,0.013523,0.002678,0.000431,0.000823
32682000,0.0324,0.013523,0.002678,0.000431,0.000940
32683000,0.0324,0.013523,0.002678,0.000431,0.000940
32684000,0.0324,0.013523,0.002678,0.000431,0.000705
32685000,0.0324,0.013523,0.002678,0.000431,0.000940
32686000,0.0324,0.013523,0.002678,0.000431,0.014103
32687000,0.0324,0.013523,0.002678,0.000431,0.560844
32688000,0.0324,0.013523,0.002678,0.000431,0.631126
32689000,0.0324,0.013523,0.002678,0.000431,0.132572
32690000,0.0324,0.013523,0.002678,0.000431,0.132572
32691000,0.0324,0.013523,0.002678,0.000431,0.373152
32692000,0.0324,0.013523,0.002678,0.000431,0.416285
32693000,0.0324,0.013523,0.002678,0.000431,0.262440
32694000,0.0324,0.013523,0.002678,0.000431,0.329314
32695000,0.0324,0.013523,0.002678,0.000431,0.148673
32696000,0.0324,0.013523,0.002678,0.000431,0.139153
32697000,0.0324,0.013523,0.002678,0.000431,0.123405
32698000,0.0324,0.013523,0.002678,0.000431,0.334838
32699000,0.0324,0.013523,0.002678,0.000431,0.305926
32700000,0.0324,0.013523,0.002678,0.000431,0.121877
32701000,0.0324,0.013523,0.002678,0.000431,0.111182
32702000,0.0324,0.013523,0.002678,0.000431,0.108479
32703000,0.0324,0.013523,0.002678,0.000431,0.087323
32704000,0.0324,0.013523,0.002678,0.000431,0.082622
32705000,0.0324,0.013523,0.002678,0.000431,0.074630
32706000,0.0324,0.013523,0.002678,0.000431,0.060409
32707000,0.0324,0.013523,0.002678,0.000431,0.050890
32708000,0.0324,0.013523,0.002678,0.000431,0.050067
32709000,0.0324,0.013523,0.002678,0.000431,0.044073
32710000,0.0324,0.013523,0.002678,0.000431,0.042193
32711000,0.0324,0.013523,0.002678,0.000431,0.037609
32712000,0.0324,0.013523,0.002678,0.000431,0.032673
32713000,0.0324,0.013523,0.002678,0.000431,0.026796
32714000,0.0324,0.013523,0.002678,0.000431,0.029029
32715000,0.0324,0.013523,0.002678,0.000431,0.033260
32716000,0.0324,0.013523,0.002678,0.000431,0.021978
32717000,0.0324,0.013523,0.002678,0.000431,0.024211
32718000,0.0324,0.013523,0.002678,0.000431,0.023036
32719000,0.0324,0.013523,0.002678,0.000431,0.020450
32720000,0.0324,0.013523,0.002678,0.000431,0.018687
32721000,0.0324,0.013523,0.002678,0.000431,0.017747
32722000,0.0324,0.013523,0.002678,0.000431,0.015631
32723000,0.0324,0.013523,0.002678,0.000431,0.017629
32724000,0.0324,0.013523,0.002678,0.000431,0.013751
32725000,0.0324,0.013523,0.002678,0.000431,0.013281
32726000,0.0324,0.013523,0.002678,0.000431,0.015514
32727000,0.0324,0.013523,0.002678,0.000431,0.015161
32728000,0.0324,0.013523,0.002678,0.000431,0.012576
32729000,0.0324,0.013523,0.002678,0.000431,0.011870
32730000,0.0324,0.013523,0.002678,0.000431,0.012811
32731000,0.0324,0.013523,0.002678,0.000431,0.005171
32732000,0.0324,0.013523,0.002678,0.000431,0.005171
32733000,0.0324,0.013523,0.002678,0.000431,0.005406
32734000,0.0324,0.013523,0.002678,0.000431,0.005994
32735000,0.0324,0.013523,0.002678,0.000431,0.005289
32736000,0.0324,0.013523,0.002678,0.000431,0.004231
32737000,0.0324,0.013523,0.002678,0.000431,0.005054
32738000,0.0324,0.013523,0.002678,0.000431,0.004701
32739000,0.0324,0.013523,0.002678,0.000431,0.004936
32740000,0.0324,0.013523,0.002678,0.000431,0.002468
32741000,0.0324,0.013523,0.002678,0.000431,0.002468
32742000,0.0324,0.013523,0.002678,0.000431,0.002468
32743000,0.0324,0.013523,0.002678,0.000431,0.002468
32744000,0.0324,0.013523,0.002678,0.000431,0.002703
32745000,0.0324,0.013523,0.002678,0.000431,0.002703
32746000,0.0324,0.013523,0.002678,0.000431,0.002233
32747000,0.0324,0.013523,0.002678,0.000431,0.002586
32748000,0.0324,0.013523,0.002678,0.000431,0.002586
32749000,0.0324,0.013523,0.002678,0.000431,0.002468
32750000,0.0324,0.013523,0.002678,0.000431,0.002586
32751000,0.0324,0.013523,0.002678,0.000431,0.002468
32752000,0.0324,0.013523,0.002678,0.000431,0.002468
32753000,0.0324,0.013523,0.002678,0.000431,0.002468
32754000,0.0324,0.013523,0.002678,0.000431,0.002703
32755000,0.0324,0.013523,0.002678,0.000431,0.004113
32756000,0.0324,0.013523,0.002678,0.000431,0.001880
32757000,0.0324,0.013523,0.002678,0.000431,0.001528
32758000,0.0324,0.013523,0.002678,0.000431,0.001763
32759000,0.0324,0.013523,0.002678,0.000431,0.001880
32760000,0.0324,0.013523,0.002678,0.000431,0.003526
32761000,0.0324,0.013523,0.002678,0.000431,0.001058
32762000,0.0324,0.013523,0.002678,0.000431,0.000705
32763000,0.0324,0.013523,0.002678,0.000431,0.000940
32764000,0.0324,0.013523,0.002678,0.000431,0.000823
32765000,0.0324,0.013523,0.002678,0.000431,0.000823
32766000,0.0324,0.013523,0.002678,0.000431,0.000823
32767000,0.0324,0.013523,0.002678,0.000431,0.000823
32768000,0.0324,0.013523,0.002678,0.000431,0.000940
32769000,0.0324,0.013523,0.002678,0.000431,0.000705
32770000,0.0324,0.013523,0.002678,0.000431,0.000940
32771000,0.0324,0.013523,0.002678,0.000431,0.000823
32772000,0.0324,0.013523,0.002678,0.000431,0.000823
32773000,0.0324,0.013523,0.002678,0.000431,0.000940
32774000,0.0324,0.013523,0.002678,0.000431,0.000940
32775000,0.0324,0.013523,0.002678,0.000431,0.000940
32776000,0.0324,0.013523,0.002678,0.000431,0.000823
32777000,0.0324,0.013523,0.002678,0.000431,0.000823
32778000,0.0324,0.013523,0.002678,0.000431,0.000940
32779000,0.0324,0.013523,0.002678,0.000431,0.000940
32780000,0.0324,0.013523,0.002678,0.000431,0.000823
32781000,0.0324,0.013523,0.002678,0.000431,0.000823
32782000,0.0324,0.013523,0.002678,0.000431,0.000940
32783000,0.0324,0.013523,0.002678,0.000431,0.000940
32784000,0.0324,0.013523,0.002678,0.000431,0.000823
32785000,0.0324,0.013523,0.002678,0.000431,0.000823
32786000,0.0324,0.013523,0.002678,0.000431,0.000940
32787000,0.0324,0.013523,0.002678,0.000431,0.000823
32788000,0.0324,0.013523,0.002678,0.000431,0.000940
32789000,0.0324,0.013523,0.002678,0.000431,0.000823
32790000,0.0324,0.013523,0.002678,0.000431,0.000940
32791000,0.0324,0.013523,0.002678,0.000431,0.000823
32792000,0.0324,0.013523,0.002678,0.000431,0.000823
32793000,0.0324,0.013523,0.002678,0.000431,0.000940
32794000,0.0324,0.013523,0.002678,0.000431,0.000940
32795000,0.0324,0.013523,0.002678,0.000431,0.000823
32796000,0.0324,0.013523,0.002678,0.000431,0.000823
32797000,0.0324,0.013523,0.002678,0.000431,0.000940
32798000,0.0324,0.013523,0.002678,0.000431,0.011635
32799000,0.0324,0.013523,0.002678,0.000431,0.526174
32800000,0.0324,0.013523,0.002678,0.000431,0.631949
32801000,0.0324,0.013523,0.002678,0.000431,0.145147
32802000,0.0324,0.013523,0.002678,0.000431,0.132102
32803000,0.0324,0.013523,0.002678,0.000431,0.311920
32804000,0.0324,0.013523,0.002678,0.000431,0.517242
32805000,0.0324,0.013523,0.002678,0.000431,0.229650
32806000,0.0324,0.013523,0.002678,0.000431,0.337071
32807000,0.0324,0.013523,0.002678,0.000431,0.157253
32808000,0.0324,0.013523,0.002678,0.000431,0.143619
32809000,0.0324,0.013523,0.002678,0.000431,0.111887
32810000,0.0324,0.013523,0.002678,0.000431,0.357756
32811000,0.0324,0.013523,0.002678,0.000431,0.309687
32812000,0.0324,0.013523,0.002678,0.000431,0.155372
32813000,0.0324,0.013523,0.002678,0.000431,0.130339
32814000,0.0324,0.013523,0.002678,0.000431,0.104247
32815000,0.0324,0.013523,0.002678,0.000431,0.090849
32816000,0.0324,0.013523,0.002678,0.000431,0.086031
32817000,0.0324,0.013523,0.002678,0.000431,0.080037
32818000,0.0324,0.013523,0.002678,0.000431,0.070869
32819000,0.0324,0.013523,0.002678,0.000431,0.070987
32820000,0.0324,0.013523,0.002678,0.000431,0.053475
32821000,0.0324,0.013523,0.002678,0.000431,0.048539
32822000,0.0324,0.013523,0.002678,0.000431,0.047599
32823000,0.0324,0.013523,0.002678,0.000431,0.035023
32824000,0.0324,0.013523,0.002678,0.000431,0.033848
32825000,0.0324,0.013523,0.002678,0.000431,0.033025
32826000,0.0324,0.013523,0.002678,0.000431,0.029382
32827000,0.0324,0.013523,0.002678,0.000431,0.023271
32828000,0.0324,0.013523,0.002678,0.000431,0.026679
32829000,0.0324,0.013523,0.002678,0.000431,0.023388
32830000,0.0324,0.013523,0.002678,0.000431,0.025739
32831000,0.0324,0.013523,0.002678,0.000431,0.020215
32832000,0.0324,0.013523,0.002678,0.000431,0.014456
32833000,0.0324,0.013523,0.002678,0.000431,0.018334
32834000,0.0324,0.013523,0.002678,0.000431,0.017042
32835000,0.0324,0.013523,0.002678,0.000431,0.018334
32836000,0.0324,0.013523,0.002678,0.000431,0.011635
32837000,0.0324,0.013523,0.002678,0.000431,0.010460
32838000,0.0324,0.013523,0.002678,0.000431,0.009167
32839000,0.0324,0.013523,0.002678,0.000431,0.008580
32840000,0.0324,0.013523,0.002678,0.000431,0.010930
32841000,0.0324,0.013523,0.002678,0.000431,0.007052
32842000,0.0324,0.013523,0.002678,0.000431,0.009167
32843000,0.0324,0.013523,0.002678,0.000431,0.008227
32844000,0.0324,0.013523,0.002678,0.000431,0.005641
32845000,0.0324,0.013523,0.002678,0.000431,0.005876
32846000,0.0324,0.013523,0.002678,0.000431,0.005759
32847000,0.0324,0.013523,0.002678,0.000431,0.005641
32848000,0.0324,0.013523,0.002678,0.000431,0.007757
32849000,0.0324,0.013523,0.002678,0.000431,0.004349
32850000,0.0324,0.013523,0.002678,0.000431,0.004231
32851000,0.0324,0.013523,0.002678,0.000431,0.004231
32852000,0.0324,0.013523,0.002678,0.000431,0.005171
32853000,0.0324,0.013523,0.002678,0.000431,0.005171
32854000,0.0324,0.013523,0.002678,0.000431,0.002468
32855000,0.0324,0.013523,0.002678,0.000431,0.002703
32856000,0.0324,0.013523,0.002678,0.000431,0.002468
32857000,0.0324,0.013523,0.002678,0.000431,0.002586
32858000,0.0324,0.013523,0.002678,0.000431,0.002586
32859000,0.0324,0.013523,0.002678,0.000431,0.002351
32860000,0.0324,0.013523,0.002678,0.000431,0.002586
32861000,0.0324,0.013523,0.002678,0.000431,0.002586
32862000,0.0324,0.013523,0.002678,0.000431,0.002586
32863000,0.0324,0.013523,0.002678,0.000431,0.002351
32864000,0.0324,0.013523,0.002678,0.000431,0.002703
32865000,0.0324,0.013523,0.002678,0.000431,0.002586
32866000,0.0324,0.013523,0.002678,0.000431,0.002468
32867000,0.0324,0.013523,0.002678,0.000431,0.002468
32868000,0.0324,0.013523,0.002678,0.000431,0.002586
32869000,0.0324,0.013523,0.002678,0.000431,0.002703
32870000,0.0324,0.013523,0.002678,0.000431,0.002468
32871000,0.0324,0.013523,0.002678,0.000431,0.004349
32872000,0.0324,0.013523,0.002678,0.000431,0.001763
32873000,0.0324,0.013523,0.002678,0.000431,0.001763
32874000,0.0324,0.013523,0.002678,0.000431,0.003761
32875000,0.0324,0.013523,0.002678,0.000431,0.000823
32876000,0.0324,0.013523,0.002678,0.000431,0.000940
32877000,0.0324,0.013523,0.002678,0.000431,0.000940
32878000,0.0324,0.013523,0.002678,0.000431,0.000823
32879000,0.0324,0.013523,0.002678,0.000431,0.000823
32880000,0.0324,0.013523,0.002678,0.000431,0.000940
32881000,0.0324,0.013523,0.002678,0.000431,0.000823
32882000,0.0324,0.013523,0.002678,0.000431,0.000940
32883000,0.0324,0.013523,0.002678,0.000431,0.000823
32884000,0.0324,0.013523,0.002678,0.000431,0.000940
32885000,0.0324,0.013523,0.002678,0.000431,0.209905
32886000,0.0324,0.013523,0.002678,0.000431,0.551560
32887000,0.0324,0.013523,0.002678,0.000431,0.520297
32888000,0.0324,0.013523,0.002678,0.000431,0.132572
32889000,0.0324,0.013523,0.002678,0.000431,0.142209
32890000,0.0324,0.013523,0.002678,0.000431,0.590227
32891000,0.0324,0.013523,0.002678,0.000431,0.267024
32892000,0.0324,0.013523,0.002678,0.000431,0.240933
32893000,0.0324,0.013523,0.002678,0.000431,0.269140
32894000,0.0324,0.013523,0.002678,0.000431,0.143972
32895000,0.0324,0.013523,0.002678,0.000431,0.182286
32896000,0.0324,0.013523,0.002678,0.000431,0.092847
32897000,0.0324,0.013523,0.002678,0.000431,0.473756
32898000,0.0324,0.013523,0.002678,0.000431,0.167478
32899000,0.0324,0.013523,0.002678,0.000431,0.125520
32900000,0.0324,0.013523,0.002678,0.000431,0.108831
32901000,0.0324,0.013523,0.002678,0.000431,0.101662
32902000,0.0324,0.013523,0.002678,0.000431,0.076276
32903000,0.0324,0.013523,0.002678,0.000431,0.072162
32904000,0.0324,0.013523,0.002678,0.000431,0.056884
32905000,0.0324,0.013523,0.002678,0.000431,0.051360
32906000,0.0324,0.013523,0.002678,0.000431,0.052418
32907000,0.0324,0.013523,0.002678,0.000431,0.039607
32908000,0.0324,0.013523,0.002678,0.000431,0.037256
32909000,0.0324,0.013523,0.002678,0.000431,0.042545
32910000,0.0324,0.013523,0.002678,0.000431,0.023858
32911000,0.0324,0.013523,0.002678,0.000431,0.025386
32912000,0.0324,0.013523,0.002678,0.000431,0.024328
32913000,0.0324,0.013523,0.002678,0.000431,0.024681
32914000,0.0324,0.013523,0.002678,0.000431,0.026444
32915000,0.0324,0.013523,0.002678,0.000431,0.017629
32916000,0.0324,0.013523,0.002678,0.000431,0.023271
32917000,0.0324,0.013523,0.002678,0.000431,0.018452
32918000,0.0324,0.013523,0.002678,0.000431,0.014926
32919000,0.0324,0.013523,0.002678,0.000431,0.014926
32920000,0.0324,0.013523,0.002678,0.000431,0.015279
32921000,0.0324,0.013523,0.002678,0.000431,0.006699
32922000,0.0324,0.013523,0.002678,0.000431,0.007052
32923000,0.0324,0.013523,0.002678,0.000431,0.007992
32924000,0.0324,0.013523,0.002678,0.000431,0.007522
32925000,0.0324,0.013523,0.002678,0.000431,0.010107
32926000,0.0324,0.013523,0.002678,0.000431,0.003996
32927000,0.0324,0.013523,0.002678,0.000431,0.004349
32928000,0.0324,0.013523,0.002678,0.000431,0.004584
32929000,0.0324,0.013523,0.002678,0.000431,0.003761
32930000,0.0324,0.013523,0.002678,0.000431,0.004701
32931000,0.0324,0.013523,0.002678,0.000431,0.003761
32932000,0.0324,0.013523,0.002678,0.000431,0.004231
32933000,0.0324,0.013523,0.002678,0.000431,0.004349
32934000,0.0324,0.013523,0.002678,0.000431,0.004349
32935000,0.0324,0.013523,0.002678,0.000431,0.004231
32936000,0.0324,0.013523,0.002678,0.000431,0.003996
32937000,0.0324,0.013523,0.002678,0.000431,0.004466
32938000,0.0324,0.013523,0.002678,0.000431,0.004231
32939000,0.0324,0.013523,0.002678,0.000431,0.004349
32940000,0.0324,0.013523,0.002678,0.000431,0.004113
32941000,0.0324,0.013523,0.002678,0.000431,0.004113
32942000,0.0324,0.013523,0.002678,0.000431,0.007874
32943000,0.0324,0.013523,0.002678,0.000431,0.002468
32944000,0.0324,0.013523,0.002678,0.000431,0.002703
32945000,0.0324,0.013523,0.002678,0.000431,0.003878
32946000,0.0324,0.013523,0.002678,0.000431,0.004701
32947000,0.0324,0.013523,0.002678,0.000431,0.031027
32948000,0.0324,0.013523,0.002678,0.000431,0.584820
32949000,0.0324,0.013523,0.002678,0.000431,0.607621
32950000,0.0324,0.013523,0.002678,0.000431,0.132572
32951000,0.0324,0.013523,0.002678,0.000431,0.133512
32952000,0.0324,0.013523,0.002678,0.000431,0.498437
32953000,0.0324,0.013523,0.002678,0.000431,0.255741
32954000,0.0324,0.013523,0.002678,0.000431,0.232706
32955000,0.0324,0.013523,0.002678,0.000431,0.311920
32956000,0.0324,0.013523,0.002678,0.000431,0.155842
32957000,0.0324,0.013523,0.002678,0.000431,0.144677
32958000,0.0324,0.013523,0.002678,0.000431,0.167360
32959000,0.0324,0.013523,0.002678,0.000431,0.144677
32960000,0.0324,0.013523,0.002678,0.000431,0.476459
32961000,0.0324,0.013523,0.002678,0.000431,0.137861
32962000,0.0324,0.013523,0.002678,0.000431,0.118586
32963000,0.0324,0.013523,0.002678,0.000431,0.097196
32964000,0.0324,0.013523,0.002678,0.000431,0.079802
32965000,0.0324,0.013523,0.002678,0.000431,0.066168
32966000,0.0324,0.013523,0.002678,0.000431,0.059234
32967000,0.0324,0.013523,0.002678,0.000431,0.050067
32968000,0.0324,0.013523,0.002678,0.000431,0.037844
32969000,0.0324,0.013523,0.002678,0.000431,0.034201
32970000,0.0324,0.013523,0.002678,0.000431,0.034201
32971000,0.0324,0.013523,0.002678,0.000431,0.030205
32972000,0.0324,0.013523,0.002678,0.000431,0.029500
32973000,0.0324,0.013523,0.002678,0.000431,0.026679
32974000,0.0324,0.013523,0.002678,0.000431,0.030087
32975000,0.0324,0.013523,0.002678,0.000431,0.030910
32976000,0.0324,0.013523,0.002678,0.000431,0.018805
32977000,0.0324,0.013523,0.002678,0.000431,0.017747
32978000,0.0324,0.013523,0.002678,0.000431,0.017512
32979000,0.0324,0.013523,0.002678,0.000431,0.013868
32980000,0.0324,0.013523,0.002678,0.000431,0.014456
32981000,0.0324,0.013523,0.002678,0.000431,0.013986
32982000,0.0324,0.013523,0.002678,0.000431,0.011400
32983000,0.0324,0.013523,0.002678,0.000431,0.011988
32984000,0.0324,0.013523,0.002678,0.000431,0.015161
32985000,0.0324,0.013523,0.002678,0.000431,0.008697
32986000,0.0324,0.013523,0.002678,0.000431,0.008580
32987000,0.0324,0.013523,0.002678,0.000431,0.008697
32988000,0.0324,0.013523,0.002678,0.000431,0.007757
32989000,0.0324,0.013523,0.002678,0.000431,0.007874
32990000,0.0324,0.013523,0.002678,0.000431,0.007992
32991000,0.0324,0.013523,0.002678,0.000431,0.009755
32992000,0.0324,0.013523,0.002678,0.000431,0.009050
32993000,0.0324,0.013523,0.002678,0.000431,0.004466
32994000,0.0324,0.013523,0.002678,0.000431,0.005524
32995000,0.0324,0.013523,0.002678,0.000431,0.004466
32996000,0.0324,0.013523,0.002678,0.000431,0.003878
32997000,0.0324,0.013523,0.002678,0.000431,0.001645
32998000,0.0324,0.013523,0.002678,0.000431,0.001645
32999000,0.0324,0.013523,0.002678,0.000431,0.001645
