Cycle,Area(mm^2),PeakDynamic(W),SubthresholdLeakage(W),GateLeakage(W),RunTimeDynamic(W)
69000000,0.0324,0.013523,0.002678,0.000431,0.012693
69001000,0.0324,0.013523,0.002678,0.000431,0.011400
69002000,0.0324,0.013523,0.002678,0.000431,0.007169
69003000,0.0324,0.013523,0.002678,0.000431,0.009755
69004000,0.0324,0.013523,0.002678,0.000431,0.006464
69005000,0.0324,0.013523,0.002678,0.000431,0.002586
69006000,0.0324,0.013523,0.002678,0.000431,0.002351
69007000,0.0324,0.013523,0.002678,0.000431,0.002468
69008000,0.0324,0.013523,0.002678,0.000431,0.002703
69009000,0.0324,0.013523,0.002678,0.000431,0.002703
69010000,0.0324,0.013523,0.002678,0.000431,0.002351
69011000,0.0324,0.013523,0.002678,0.000431,0.003996
69012000,0.0324,0.013523,0.002678,0.000431,0.001410
69013000,0.0324,0.013523,0.002678,0.000431,0.001880
69014000,0.0324,0.013523,0.002678,0.000431,0.001528
69015000,0.0324,0.013523,0.002678,0.000431,0.001645
69016000,0.0324,0.013523,0.002678,0.000431,0.001763
69017000,0.0324,0.013523,0.002678,0.000431,0.001763
69018000,0.0324,0.013523,0.002678,0.000431,0.004466
69019000,0.0324,0.013523,0.002678,0.000431,0.015279
69020000,0.0324,0.013523,0.002678,0.000431,0.754061
69021000,0.0324,0.013523,0.002678,0.000431,0.593165
69022000,0.0324,0.013523,0.002678,0.000431,0.140094
69023000,0.0324,0.013523,0.002678,0.000431,0.136450
69024000,0.0324,0.013523,0.002678,0.000431,0.531815
69025000,0.0324,0.013523,0.002678,0.000431,0.264203
69026000,0.0324,0.013523,0.002678,0.000431,0.316856
69027000,0.0324,0.013523,0.002678,0.000431,0.157840
69028000,0.0324,0.013523,0.002678,0.000431,0.150554
69029000,0.0324,0.013523,0.002678,0.000431,0.217192
69030000,0.0324,0.013523,0.002678,0.000431,0.512775
69031000,0.0324,0.013523,0.002678,0.000431,0.204382
69032000,0.0324,0.013523,0.002678,0.000431,0.150436
69033000,0.0324,0.013523,0.002678,0.000431,0.126695
69034000,0.0324,0.013523,0.002678,0.000431,0.099194
69035000,0.0324,0.013523,0.002678,0.000431,0.091554
69036000,0.0324,0.013523,0.002678,0.000431,0.058882
69037000,0.0324,0.013523,0.002678,0.000431,0.047481
69038000,0.0324,0.013523,0.002678,0.000431,0.048539
69039000,0.0324,0.013523,0.002678,0.000431,0.041017
69040000,0.0324,0.013523,0.002678,0.000431,0.036434
69041000,0.0324,0.013523,0.002678,0.000431,0.019040
69042000,0.0324,0.013523,0.002678,0.000431,0.017512
69043000,0.0324,0.013523,0.002678,0.000431,0.016336
69044000,0.0324,0.013523,0.002678,0.000431,0.015396
69045000,0.0324,0.013523,0.002678,0.000431,0.021625
69046000,0.0324,0.013523,0.002678,0.000431,0.007639
69047000,0.0324,0.013523,0.002678,0.000431,0.006934
69048000,0.0324,0.013523,0.002678,0.000431,0.006229
69049000,0.0324,0.013523,0.002678,0.000431,0.006582
69050000,0.0324,0.013523,0.002678,0.000431,0.007522
69051000,0.0324,0.013523,0.002678,0.000431,0.006347
69052000,0.0324,0.013523,0.002678,0.000431,0.002586
69053000,0.0324,0.013523,0.002678,0.000431,0.002821
69054000,0.0324,0.013523,0.002678,0.000431,0.002586
69055000,0.0324,0.013523,0.002678,0.000431,0.002821
69056000,0.0324,0.013523,0.002678,0.000431,0.002703
69057000,0.0324,0.013523,0.002678,0.000431,0.006582
69058000,0.0324,0.013523,0.002678,0.000431,0.000940
69059000,0.0324,0.013523,0.002678,0.000431,0.000705
69060000,0.0324,0.013523,0.002678,0.000431,0.261030
69061000,0.0324,0.013523,0.002678,0.000431,0.753591
69062000,0.0324,0.013523,0.002678,0.000431,0.401711
69063000,0.0324,0.013523,0.002678,0.000431,0.136803
69064000,0.0324,0.013523,0.002678,0.000431,0.487272
69065000,0.0324,0.013523,0.002678,0.000431,0.304633
69066000,0.0324,0.013523,0.002678,0.000431,0.275133
69067000,0.0324,0.013523,0.002678,0.000431,0.251510
69068000,0.0324,0.013523,0.002678,0.000431,0.156783
69069000,0.0324,0.013523,0.002678,0.000431,0.104953
69070000,0.0324,0.013523,0.002678,0.000431,0.539807
69071000,0.0324,0.013523,0.002678,0.000431,0.317444
69072000,0.0324,0.013523,0.002678,0.000431,0.235762
69073000,0.0324,0.013523,0.002678,0.000431,0.185577
69074000,0.0324,0.013523,0.002678,0.000431,0.157135
69075000,0.0324,0.013523,0.002678,0.000431,0.128576
69076000,0.0324,0.013523,0.002678,0.000431,0.111652
69077000,0.0324,0.013523,0.002678,0.000431,0.089321
69078000,0.0324,0.013523,0.002678,0.000431,0.052888
69079000,0.0324,0.013523,0.002678,0.000431,0.051947
69080000,0.0324,0.013523,0.002678,0.000431,0.039137
69081000,0.0324,0.013523,0.002678,0.000431,0.028442
69082000,0.0324,0.013523,0.002678,0.000431,0.025504
69083000,0.0324,0.013523,0.002678,0.000431,0.018334
69084000,0.0324,0.013523,0.002678,0.000431,0.011753
69085000,0.0324,0.013523,0.002678,0.000431,0.007287
69086000,0.0324,0.013523,0.002678,0.000431,0.007169
69087000,0.0324,0.013523,0.002678,0.000431,0.008345
69088000,0.0324,0.013523,0.002678,0.000431,0.005994
69089000,0.0324,0.013523,0.002678,0.000431,0.007874
69090000,0.0324,0.013523,0.002678,0.000431,0.004113
69091000,0.0324,0.013523,0.002678,0.000431,0.003878
69092000,0.0324,0.013523,0.002678,0.000431,0.006582
69093000,0.0324,0.013523,0.002678,0.000431,0.002351
69094000,0.0324,0.013523,0.002678,0.000431,0.005759
69095000,0.0324,0.013523,0.002678,0.000431,0.001763
69096000,0.0324,0.013523,0.002678,0.000431,0.001528
69097000,0.0324,0.013523,0.002678,0.000431,0.003173
69098000,0.0324,0.013523,0.002678,0.000431,0.001058
69099000,0.0324,0.013523,0.002678,0.000431,0.000823
69100000,0.0324,0.013523,0.002678,0.000431,0.001058
69101000,0.0324,0.013523,0.002678,0.000431,0.000823
69102000,0.0324,0.013523,0.002678,0.000431,0.000823
69103000,0.0324,0.013523,0.002678,0.000431,0.000940
69104000,0.0324,0.013523,0.002678,0.000431,0.000823
69105000,0.0324,0.013523,0.002678,0.000431,0.000940
69106000,0.0324,0.013523,0.002678,0.000431,0.000823
69107000,0.0324,0.013523,0.002678,0.000431,0.000940
69108000,0.0324,0.013523,0.002678,0.000431,0.000823
69109000,0.0324,0.013523,0.002678,0.000431,0.001058
69110000,0.0324,0.013523,0.002678,0.000431,0.000940
69111000,0.0324,0.013523,0.002678,0.000431,0.000940
69112000,0.0324,0.013523,0.002678,0.000431,0.000705
69113000,0.0324,0.013523,0.002678,0.000431,0.000940
69114000,0.0324,0.013523,0.002678,0.000431,0.001058
69115000,0.0324,0.013523,0.002678,0.000431,0.000823
69116000,0.0324,0.013523,0.002678,0.000431,0.015749
69117000,0.0324,0.013523,0.002678,0.000431,0.791317
69118000,0.0324,0.013523,0.002678,0.000431,0.598571
69119000,0.0324,0.013523,0.002678,0.000431,0.148203
69120000,0.0324,0.013523,0.002678,0.000431,0.144560
69121000,0.0324,0.013523,0.002678,0.000431,0.555086
69122000,0.0324,0.013523,0.002678,0.000431,0.277837
69123000,0.0324,0.013523,0.002678,0.000431,0.332017
69124000,0.0324,0.013523,0.002678,0.000431,0.152552
69125000,0.0324,0.013523,0.002678,0.000431,0.116588
69126000,0.0324,0.013523,0.002678,0.000431,0.383847
69127000,0.0324,0.013523,0.002678,0.000431,0.458242
69128000,0.0324,0.013523,0.002678,0.000431,0.233999
69129000,0.0324,0.013523,0.002678,0.000431,0.198975
69130000,0.0324,0.013523,0.002678,0.000431,0.174529
69131000,0.0324,0.013523,0.002678,0.000431,0.139859
69132000,0.0324,0.013523,0.002678,0.000431,0.112827
69133000,0.0324,0.013523,0.002678,0.000431,0.104718
69134000,0.0324,0.013523,0.002678,0.000431,0.082857
69135000,0.0324,0.013523,0.002678,0.000431,0.057236
69136000,0.0324,0.013523,0.002678,0.000431,0.049714
69137000,0.0324,0.013523,0.002678,0.000431,0.038667
69138000,0.0324,0.013523,0.002678,0.000431,0.033496
69139000,0.0324,0.013523,0.002678,0.000431,0.024211
69140000,0.0324,0.013523,0.002678,0.000431,0.026091
69141000,0.0324,0.013523,0.002678,0.000431,0.007639
69142000,0.0324,0.013523,0.002678,0.000431,0.007404
69143000,0.0324,0.013523,0.002678,0.000431,0.005759
69144000,0.0324,0.013523,0.002678,0.000431,0.008932
69145000,0.0324,0.013523,0.002678,0.000431,0.005876
69146000,0.0324,0.013523,0.002678,0.000431,0.005641
69147000,0.0324,0.013523,0.002678,0.000431,0.002468
69148000,0.0324,0.013523,0.002678,0.000431,0.002703
69149000,0.0324,0.013523,0.002678,0.000431,0.006464
69150000,0.0324,0.013523,0.002678,0.000431,0.000823
69151000,0.0324,0.013523,0.002678,0.000431,0.000705
69152000,0.0324,0.013523,0.002678,0.000431,0.000940
69153000,0.0324,0.013523,0.002678,0.000431,0.000940
69154000,0.0324,0.013523,0.002678,0.000431,0.000705
69155000,0.0324,0.013523,0.002678,0.000431,0.000940
69156000,0.0324,0.013523,0.002678,0.000431,0.000705
69157000,0.0324,0.013523,0.002678,0.000431,0.000940
69158000,0.0324,0.013523,0.002678,0.000431,0.071810
69159000,0.0324,0.013523,0.002678,0.000431,0.846555
69160000,0.0324,0.013523,0.002678,0.000431,0.555673
69161000,0.0324,0.013523,0.002678,0.000431,0.144795
69162000,0.0324,0.013523,0.002678,0.000431,0.236937
69163000,0.0324,0.013523,0.002678,0.000431,0.514656
69164000,0.0324,0.013523,0.002678,0.000431,0.253391
69165000,0.0324,0.013523,0.002678,0.000431,0.268082
69166000,0.0324,0.013523,0.002678,0.000431,0.152317
69167000,0.0324,0.013523,0.002678,0.000431,0.131514
69168000,0.0324,0.013523,0.002678,0.000431,0.349059
69169000,0.0324,0.013523,0.002678,0.000431,0.387725
69170000,0.0324,0.013523,0.002678,0.000431,0.138213
69171000,0.0324,0.013523,0.002678,0.000431,0.130339
69172000,0.0324,0.013523,0.002678,0.000431,0.117646
69173000,0.0324,0.013523,0.002678,0.000431,0.096843
69174000,0.0324,0.013523,0.002678,0.000431,0.072162
69175000,0.0324,0.013523,0.002678,0.000431,0.070282
69176000,0.0324,0.013523,0.002678,0.000431,0.054651
69177000,0.0324,0.013523,0.002678,0.000431,0.036904
69178000,0.0324,0.013523,0.002678,0.000431,0.023858
69179000,0.0324,0.013523,0.002678,0.000431,0.023506
69180000,0.0324,0.013523,0.002678,0.000431,0.012223
69181000,0.0324,0.013523,0.002678,0.000431,0.009285
69182000,0.0324,0.013523,0.002678,0.000431,0.012105
69183000,0.0324,0.013523,0.002678,0.000431,0.015396
69184000,0.0324,0.013523,0.002678,0.000431,0.006699
69185000,0.0324,0.013523,0.002678,0.000431,0.007757
69186000,0.0324,0.013523,0.002678,0.000431,0.005759
69187000,0.0324,0.013523,0.002678,0.000431,0.004113
69188000,0.0324,0.013523,0.002678,0.000431,0.003173
69189000,0.0324,0.013523,0.002678,0.000431,0.003996
69190000,0.0324,0.013523,0.002678,0.000431,0.004466
69191000,0.0324,0.013523,0.002678,0.000431,0.003056
69192000,0.0324,0.013523,0.002678,0.000431,0.003761
69193000,0.0324,0.013523,0.002678,0.000431,0.006111
69194000,0.0324,0.013523,0.002678,0.000431,0.002821
69195000,0.0324,0.013523,0.002678,0.000431,0.003291
69196000,0.0324,0.013523,0.002678,0.000431,0.003526
69197000,0.0324,0.013523,0.002678,0.000431,0.002938
69198000,0.0324,0.013523,0.002678,0.000431,0.003761
69199000,0.0324,0.013523,0.002678,0.000431,0.002938
69200000,0.0324,0.013523,0.002678,0.000431,0.003056
69201000,0.0324,0.013523,0.002678,0.000431,0.004701
69202000,0.0324,0.013523,0.002678,0.000431,0.004819
69203000,0.0324,0.013523,0.002678,0.000431,0.500435
69204000,0.0324,0.013523,0.002678,0.000431,0.723268
69205000,0.0324,0.013523,0.002678,0.000431,0.166067
69206000,0.0324,0.013523,0.002678,0.000431,0.145970
69207000,0.0324,0.013523,0.002678,0.000431,0.557436
69208000,0.0324,0.013523,0.002678,0.000431,0.266907
69209000,0.0324,0.013523,0.002678,0.000431,0.340597
69210000,0.0324,0.013523,0.002678,0.000431,0.157018
69211000,0.0324,0.013523,0.002678,0.000431,0.157840
69212000,0.0324,0.013523,0.002678,0.000431,0.187575
69213000,0.0324,0.013523,0.002678,0.000431,0.533225
69214000,0.0324,0.013523,0.002678,0.000431,0.140916
69215000,0.0324,0.013523,0.002678,0.000431,0.111299
69216000,0.0324,0.013523,0.002678,0.000431,0.101192
69217000,0.0324,0.013523,0.002678,0.000431,0.091202
69218000,0.0324,0.013523,0.002678,0.000431,0.060645
69219000,0.0324,0.013523,0.002678,0.000431,0.043603
69220000,0.0324,0.013523,0.002678,0.000431,0.032438
69221000,0.0324,0.013523,0.002678,0.000431,0.019627
69222000,0.0324,0.013523,0.002678,0.000431,0.017864
69223000,0.0324,0.013523,0.002678,0.000431,0.012693
69224000,0.0324,0.013523,0.002678,0.000431,0.008815
69225000,0.0324,0.013523,0.002678,0.000431,0.005994
69226000,0.0324,0.013523,0.002678,0.000431,0.007404
69227000,0.0324,0.013523,0.002678,0.000431,0.008815
69228000,0.0324,0.013523,0.002678,0.000431,0.005289
69229000,0.0324,0.013523,0.002678,0.000431,0.007992
69230000,0.0324,0.013523,0.002678,0.000431,0.005759
69231000,0.0324,0.013523,0.002678,0.000431,0.002821
69232000,0.0324,0.013523,0.002678,0.000431,0.002703
69233000,0.0324,0.013523,0.002678,0.000431,0.004466
69234000,0.0324,0.013523,0.002678,0.000431,0.001763
69235000,0.0324,0.013523,0.002678,0.000431,0.001528
69236000,0.0324,0.013523,0.002678,0.000431,0.001645
69237000,0.0324,0.013523,0.002678,0.000431,0.001763
69238000,0.0324,0.013523,0.002678,0.000431,0.001645
69239000,0.0324,0.013523,0.002678,0.000431,0.001528
69240000,0.0324,0.013523,0.002678,0.000431,0.001528
69241000,0.0324,0.013523,0.002678,0.000431,0.001528
69242000,0.0324,0.013523,0.002678,0.000431,0.001880
69243000,0.0324,0.013523,0.002678,0.000431,0.001528
69244000,0.0324,0.013523,0.002678,0.000431,0.004819
69245000,0.0324,0.013523,0.002678,0.000431,0.000823
69246000,0.0324,0.013523,0.002678,0.000431,0.000940
69247000,0.0324,0.013523,0.002678,0.000431,0.070987
69248000,0.0324,0.013523,0.002678,0.000431,0.722681
69249000,0.0324,0.013523,0.002678,0.000431,0.538749
69250000,0.0324,0.013523,0.002678,0.000431,0.139623
69251000,0.0324,0.013523,0.002678,0.000431,0.210375
69252000,0.0324,0.013523,0.002678,0.000431,0.508192
69253000,0.0324,0.013523,0.002678,0.000431,0.285358
69254000,0.0324,0.013523,0.002678,0.000431,0.275486
69255000,0.0324,0.013523,0.002678,0.000431,0.157840
69256000,0.0324,0.013523,0.002678,0.000431,0.118586
69257000,0.0324,0.013523,0.002678,0.000431,0.371154
69258000,0.0324,0.013523,0.002678,0.000431,0.416050
69259000,0.0324,0.013523,0.002678,0.000431,0.192394
69260000,0.0324,0.013523,0.002678,0.000431,0.175235
69261000,0.0324,0.013523,0.002678,0.000431,0.156430
69262000,0.0324,0.013523,0.002678,0.000431,0.125638
69263000,0.0324,0.013523,0.002678,0.000431,0.112474
69264000,0.0324,0.013523,0.002678,0.000431,0.084503
69265000,0.0324,0.013523,0.002678,0.000431,0.054533
69266000,0.0324,0.013523,0.002678,0.000431,0.044308
69267000,0.0324,0.013523,0.002678,0.000431,0.031850
69268000,0.0324,0.013523,0.002678,0.000431,0.026091
69269000,0.0324,0.013523,0.002678,0.000431,0.023623
69270000,0.0324,0.013523,0.002678,0.000431,0.019862
69271000,0.0324,0.013523,0.002678,0.000431,0.011753
69272000,0.0324,0.013523,0.002678,0.000431,0.014338
69273000,0.0324,0.013523,0.002678,0.000431,0.012105
69274000,0.0324,0.013523,0.002678,0.000431,0.009167
69275000,0.0324,0.013523,0.002678,0.000431,0.007052
69276000,0.0324,0.013523,0.002678,0.000431,0.005759
69277000,0.0324,0.013523,0.002678,0.000431,0.003408
69278000,0.0324,0.013523,0.002678,0.000431,0.006111
69279000,0.0324,0.013523,0.002678,0.000431,0.002233
69280000,0.0324,0.013523,0.002678,0.000431,0.002703
69281000,0.0324,0.013523,0.002678,0.000431,0.002586
69282000,0.0324,0.013523,0.002678,0.000431,0.002703
69283000,0.0324,0.013523,0.002678,0.000431,0.002586
69284000,0.0324,0.013523,0.002678,0.000431,0.002821
69285000,0.0324,0.013523,0.002678,0.000431,0.003173
69286000,0.0324,0.013523,0.002678,0.000431,0.002703
69287000,0.0324,0.013523,0.002678,0.000431,0.001645
69288000,0.0324,0.013523,0.002678,0.000431,0.001645
69289000,0.0324,0.013523,0.002678,0.000431,0.001645
69290000,0.0324,0.013523,0.002678,0.000431,0.001175
69291000,0.0324,0.013523,0.002678,0.000431,0.214489
69292000,0.0324,0.013523,0.002678,0.000431,0.749830
69293000,0.0324,0.013523,0.002678,0.000431,0.459770
69294000,0.0324,0.013523,0.002678,0.000431,0.138331
69295000,0.0324,0.013523,0.002678,0.000431,0.508780
69296000,0.0324,0.013523,0.002678,0.000431,0.255976
69297000,0.0324,0.013523,0.002678,0.000431,0.308629
69298000,0.0324,0.013523,0.002678,0.000431,0.200738
69299000,0.0324,0.013523,0.002678,0.000431,0.187928
69300000,0.0324,0.013523,0.002678,0.000431,0.097666
69301000,0.0324,0.013523,0.002678,0.000431,0.571069
69302000,0.0324,0.013523,0.002678,0.000431,0.210375
69303000,0.0324,0.013523,0.002678,0.000431,0.181111
69304000,0.0324,0.013523,0.002678,0.000431,0.148791
69305000,0.0324,0.013523,0.002678,0.000431,0.128458
69306000,0.0324,0.013523,0.002678,0.000431,0.089439
69307000,0.0324,0.013523,0.002678,0.000431,0.078626
69308000,0.0324,0.013523,0.002678,0.000431,0.063818
69309000,0.0324,0.013523,0.002678,0.000431,0.052770
69310000,0.0324,0.013523,0.002678,0.000431,0.047599
69311000,0.0324,0.013523,0.002678,0.000431,0.046071
69312000,0.0324,0.013523,0.002678,0.000431,0.023506
69313000,0.0324,0.013523,0.002678,0.000431,0.021625
69314000,0.0324,0.013523,0.002678,0.000431,0.021273
69315000,0.0324,0.013523,0.002678,0.000431,0.013751
69316000,0.0324,0.013523,0.002678,0.000431,0.014809
69317000,0.0324,0.013523,0.002678,0.000431,0.011753
69318000,0.0324,0.013523,0.002678,0.000431,0.009285
69319000,0.0324,0.013523,0.002678,0.000431,0.008697
69320000,0.0324,0.013523,0.002678,0.000431,0.008932
69321000,0.0324,0.013523,0.002678,0.000431,0.013751
69322000,0.0324,0.013523,0.002678,0.000431,0.009990
69323000,0.0324,0.013523,0.002678,0.000431,0.004584
69324000,0.0324,0.013523,0.002678,0.000431,0.004584
69325000,0.0324,0.013523,0.002678,0.000431,0.004466
69326000,0.0324,0.013523,0.002678,0.000431,0.004701
69327000,0.0324,0.013523,0.002678,0.000431,0.004936
69328000,0.0324,0.013523,0.002678,0.000431,0.004231
69329000,0.0324,0.013523,0.002678,0.000431,0.004584
69330000,0.0324,0.013523,0.002678,0.000431,0.004584
69331000,0.0324,0.013523,0.002678,0.000431,0.004819
69332000,0.0324,0.013523,0.002678,0.000431,0.007639
69333000,0.0324,0.013523,0.002678,0.000431,0.002821
69334000,0.0324,0.013523,0.002678,0.000431,0.002821
69335000,0.0324,0.013523,0.002678,0.000431,0.002351
69336000,0.0324,0.013523,0.002678,0.000431,0.003526
69337000,0.0324,0.013523,0.002678,0.000431,0.002468
69338000,0.0324,0.013523,0.002678,0.000431,0.002586
69339000,0.0324,0.013523,0.002678,0.000431,0.001998
69340000,0.0324,0.013523,0.002678,0.000431,0.002233
69341000,0.0324,0.013523,0.002678,0.000431,0.002351
69342000,0.0324,0.013523,0.002678,0.000431,0.002116
69343000,0.0324,0.013523,0.002678,0.000431,0.002468
69344000,0.0324,0.013523,0.002678,0.000431,0.002116
69345000,0.0324,0.013523,0.002678,0.000431,0.003173
69346000,0.0324,0.013523,0.002678,0.000431,0.003878
69347000,0.0324,0.013523,0.002678,0.000431,0.002938
69348000,0.0324,0.013523,0.002678,0.000431,0.002233
69349000,0.0324,0.013523,0.002678,0.000431,0.003878
69350000,0.0324,0.013523,0.002678,0.000431,0.000940
69351000,0.0324,0.013523,0.002678,0.000431,0.000940
69352000,0.0324,0.013523,0.002678,0.000431,0.167595
69353000,0.0324,0.013523,0.002678,0.000431,0.759820
69354000,0.0324,0.013523,0.002678,0.000431,0.479397
69355000,0.0324,0.013523,0.002678,0.000431,0.136333
69356000,0.0324,0.013523,0.002678,0.000431,0.444374
69357000,0.0324,0.013523,0.002678,0.000431,0.267377
69358000,0.0324,0.013523,0.002678,0.000431,0.301577
69359000,0.0324,0.013523,0.002678,0.000431,0.239405
69360000,0.0324,0.013523,0.002678,0.000431,0.170063
69361000,0.0324,0.013523,0.002678,0.000431,0.104835
69362000,0.0324,0.013523,0.002678,0.000431,0.539219
69363000,0.0324,0.013523,0.002678,0.000431,0.262558
69364000,0.0324,0.013523,0.002678,0.000431,0.184519
69365000,0.0324,0.013523,0.002678,0.000431,0.150906
69366000,0.0324,0.013523,0.002678,0.000431,0.104365
69367000,0.0324,0.013523,0.002678,0.000431,0.092142
69368000,0.0324,0.013523,0.002678,0.000431,0.061585
69369000,0.0324,0.013523,0.002678,0.000431,0.035846
69370000,0.0324,0.013523,0.002678,0.000431,0.033378
69371000,0.0324,0.013523,0.002678,0.000431,0.029029
69372000,0.0324,0.013523,0.002678,0.000431,0.018569
69373000,0.0324,0.013523,0.002678,0.000431,0.012576
69374000,0.0324,0.013523,0.002678,0.000431,0.010578
69375000,0.0324,0.013523,0.002678,0.000431,0.011870
69376000,0.0324,0.013523,0.002678,0.000431,0.014456
69377000,0.0324,0.013523,0.002678,0.000431,0.011870
69378000,0.0324,0.013523,0.002678,0.000431,0.011870
69379000,0.0324,0.013523,0.002678,0.000431,0.005759
69380000,0.0324,0.013523,0.002678,0.000431,0.007639
69381000,0.0324,0.013523,0.002678,0.000431,0.004113
69382000,0.0324,0.013523,0.002678,0.000431,0.003761
69383000,0.0324,0.013523,0.002678,0.000431,0.002821
69384000,0.0324,0.013523,0.002678,0.000431,0.001998
69385000,0.0324,0.013523,0.002678,0.000431,0.596338
69386000,0.0324,0.013523,0.002678,0.000431,0.742073
69387000,0.0324,0.013523,0.002678,0.000431,0.140564
69388000,0.0324,0.013523,0.002678,0.000431,0.155137
69389000,0.0324,0.013523,0.002678,0.000431,0.538984
69390000,0.0324,0.013523,0.002678,0.000431,0.235291
69391000,0.0324,0.013523,0.002678,0.000431,0.311802
69392000,0.0324,0.013523,0.002678,0.000431,0.160779
69393000,0.0324,0.013523,0.002678,0.000431,0.120349
69394000,0.0324,0.013523,0.002678,0.000431,0.349411
69395000,0.0324,0.013523,0.002678,0.000431,0.448605
69396000,0.0324,0.013523,0.002678,0.000431,0.204382
69397000,0.0324,0.013523,0.002678,0.000431,0.188515
69398000,0.0324,0.013523,0.002678,0.000431,0.155020
69399000,0.0324,0.013523,0.002678,0.000431,0.139976
69400000,0.0324,0.013523,0.002678,0.000431,0.107186
69401000,0.0324,0.013523,0.002678,0.000431,0.094845
69402000,0.0324,0.013523,0.002678,0.000431,0.088499
69403000,0.0324,0.013523,0.002678,0.000431,0.058999
69404000,0.0324,0.013523,0.002678,0.000431,0.037962
69405000,0.0324,0.013523,0.002678,0.000431,0.033966
69406000,0.0324,0.013523,0.002678,0.000431,0.028207
69407000,0.0324,0.013523,0.002678,0.000431,0.026326
69408000,0.0324,0.013523,0.002678,0.000431,0.019627
69409000,0.0324,0.013523,0.002678,0.000431,0.015984
69410000,0.0324,0.013523,0.002678,0.000431,0.009050
69411000,0.0324,0.013523,0.002678,0.000431,0.010813
69412000,0.0324,0.013523,0.002678,0.000431,0.007052
69413000,0.0324,0.013523,0.002678,0.000431,0.010578
69414000,0.0324,0.013523,0.002678,0.000431,0.003291
69415000,0.0324,0.013523,0.002678,0.000431,0.005994
69416000,0.0324,0.013523,0.002678,0.000431,0.001763
69417000,0.0324,0.013523,0.002678,0.000431,0.001645
69418000,0.0324,0.013523,0.002678,0.000431,0.001645
69419000,0.0324,0.013523,0.002678,0.000431,0.001763
69420000,0.0324,0.013523,0.002678,0.000431,0.001763
69421000,0.0324,0.013523,0.002678,0.000431,0.001645
69422000,0.0324,0.013523,0.002678,0.000431,0.001645
69423000,0.0324,0.013523,0.002678,0.000431,0.001880
69424000,0.0324,0.013523,0.002678,0.000431,0.001645
69425000,0.0324,0.013523,0.002678,0.000431,0.001763
69426000,0.0324,0.013523,0.002678,0.000431,0.001528
69427000,0.0324,0.013523,0.002678,0.000431,0.223304
69428000,0.0324,0.013523,0.002678,0.000431,0.757822
69429000,0.0324,0.013523,0.002678,0.000431,0.470113
69430000,0.0324,0.013523,0.002678,0.000431,0.137273
69431000,0.0324,0.013523,0.002678,0.000431,0.515361
69432000,0.0324,0.013523,0.002678,0.000431,0.264556
69433000,0.0324,0.013523,0.002678,0.000431,0.351762
69434000,0.0324,0.013523,0.002678,0.000431,0.188633
69435000,0.0324,0.013523,0.002678,0.000431,0.140211
69436000,0.0324,0.013523,0.002678,0.000431,0.236702
69437000,0.0324,0.013523,0.002678,0.000431,0.516301
69438000,0.0324,0.013523,0.002678,0.000431,0.191453
69439000,0.0324,0.013523,0.002678,0.000431,0.165245
69440000,0.0324,0.013523,0.002678,0.000431,0.121524
69441000,0.0324,0.013523,0.002678,0.000431,0.095785
69442000,0.0324,0.013523,0.002678,0.000431,0.084150
69443000,0.0324,0.013523,0.002678,0.000431,0.064170
69444000,0.0324,0.013523,0.002678,0.000431,0.046306
69445000,0.0324,0.013523,0.002678,0.000431,0.038667
69446000,0.0324,0.013523,0.002678,0.000431,0.023741
69447000,0.0324,0.013523,0.002678,0.000431,0.015631
69448000,0.0324,0.013523,0.002678,0.000431,0.011400
69449000,0.0324,0.013523,0.002678,0.000431,0.012576
69450000,0.0324,0.013523,0.002678,0.000431,0.010460
69451000,0.0324,0.013523,0.002678,0.000431,0.010813
69452000,0.0324,0.013523,0.002678,0.000431,0.009872
69453000,0.0324,0.013523,0.002678,0.000431,0.007287
69454000,0.0324,0.013523,0.002678,0.000431,0.010460
69455000,0.0324,0.013523,0.002678,0.000431,0.005641
69456000,0.0324,0.013523,0.002678,0.000431,0.003056
69457000,0.0324,0.013523,0.002678,0.000431,0.002351
69458000,0.0324,0.013523,0.002678,0.000431,0.001998
69459000,0.0324,0.013523,0.002678,0.000431,0.003291
69460000,0.0324,0.013523,0.002678,0.000431,0.000940
69461000,0.0324,0.013523,0.002678,0.000431,0.000940
69462000,0.0324,0.013523,0.002678,0.000431,0.000940
69463000,0.0324,0.013523,0.002678,0.000431,0.000940
69464000,0.0324,0.013523,0.002678,0.000431,0.000940
69465000,0.0324,0.013523,0.002678,0.000431,0.014221
69466000,0.0324,0.013523,0.002678,0.000431,0.808829
69467000,0.0324,0.013523,0.002678,0.000431,0.537456
69468000,0.0324,0.013523,0.002678,0.000431,0.143384
69469000,0.0324,0.013523,0.002678,0.000431,0.164422
69470000,0.0324,0.013523,0.002678,0.000431,0.561785
69471000,0.0324,0.013523,0.002678,0.000431,0.257622
69472000,0.0324,0.013523,0.002678,0.000431,0.288297
69473000,0.0324,0.013523,0.002678,0.000431,0.158663
69474000,0.0324,0.013523,0.002678,0.000431,0.125638
69475000,0.0324,0.013523,0.002678,0.000431,0.369038
69476000,0.0324,0.013523,0.002678,0.000431,0.395247
69477000,0.0324,0.013523,0.002678,0.000431,0.183579
69478000,0.0324,0.013523,0.002678,0.000431,0.163364
69479000,0.0324,0.013523,0.002678,0.000431,0.130339
69480000,0.0324,0.013523,0.002678,0.000431,0.111299
69481000,0.0324,0.013523,0.002678,0.000431,0.086266
69482000,0.0324,0.013523,0.002678,0.000431,0.072045
69483000,0.0324,0.013523,0.002678,0.000431,0.067814
69484000,0.0324,0.013523,0.002678,0.000431,0.046306
69485000,0.0324,0.013523,0.002678,0.000431,0.054533
69486000,0.0324,0.013523,0.002678,0.000431,0.035141
69487000,0.0324,0.013523,0.002678,0.000431,0.018922
69488000,0.0324,0.013523,0.002678,0.000431,0.014221
69489000,0.0324,0.013523,0.002678,0.000431,0.014926
69490000,0.0324,0.013523,0.002678,0.000431,0.006934
69491000,0.0324,0.013523,0.002678,0.000431,0.012811
69492000,0.0324,0.013523,0.002678,0.000431,0.005759
69493000,0.0324,0.013523,0.002678,0.000431,0.007287
69494000,0.0324,0.013523,0.002678,0.000431,0.001998
69495000,0.0324,0.013523,0.002678,0.000431,0.001528
69496000,0.0324,0.013523,0.002678,0.000431,0.001763
69497000,0.0324,0.013523,0.002678,0.000431,0.001528
69498000,0.0324,0.013523,0.002678,0.000431,0.003408
69499000,0.0324,0.013523,0.002678,0.000431,0.000823
69500000,0.0324,0.013523,0.002678,0.000431,0.000823
69501000,0.0324,0.013523,0.002678,0.000431,0.000940
69502000,0.0324,0.013523,0.002678,0.000431,0.000705
69503000,0.0324,0.013523,0.002678,0.000431,0.000940
69504000,0.0324,0.013523,0.002678,0.000431,0.000823
69505000,0.0324,0.013523,0.002678,0.000431,0.000823
69506000,0.0324,0.013523,0.002678,0.000431,0.000823
69507000,0.0324,0.013523,0.002678,0.000431,0.000823
69508000,0.0324,0.013523,0.002678,0.000431,0.000823
69509000,0.0324,0.013523,0.002678,0.000431,0.000823
69510000,0.0324,0.013523,0.002678,0.000431,0.000940
69511000,0.0324,0.013523,0.002678,0.000431,0.000705
69512000,0.0324,0.013523,0.002678,0.000431,0.000823
69513000,0.0324,0.013523,0.002678,0.000431,0.000823
69514000,0.0324,0.013523,0.002678,0.000431,0.000823
69515000,0.0324,0.013523,0.002678,0.000431,0.000823
69516000,0.0324,0.013523,0.002678,0.000431,0.000940
69517000,0.0324,0.013523,0.002678,0.000431,0.000705
69518000,0.0324,0.013523,0.002678,0.000431,0.000940
69519000,0.0324,0.013523,0.002678,0.000431,0.000823
69520000,0.0324,0.013523,0.002678,0.000431,0.000823
69521000,0.0324,0.013523,0.002678,0.000431,0.000823
69522000,0.0324,0.013523,0.002678,0.000431,0.000823
69523000,0.0324,0.013523,0.002678,0.000431,0.000823
69524000,0.0324,0.013523,0.002678,0.000431,0.000823
69525000,0.0324,0.013523,0.002678,0.000431,0.000940
69526000,0.0324,0.013523,0.002678,0.000431,0.000705
69527000,0.0324,0.013523,0.002678,0.000431,0.000940
69528000,0.0324,0.013523,0.002678,0.000431,0.000940
69529000,0.0324,0.013523,0.002678,0.000431,0.000823
69530000,0.0324,0.013523,0.002678,0.000431,0.000940
69531000,0.0324,0.013523,0.002678,0.000431,0.079096
69532000,0.0324,0.013523,0.002678,0.000431,0.798839
69533000,0.0324,0.013523,0.002678,0.000431,0.500670
69534000,0.0324,0.013523,0.002678,0.000431,0.135980
69535000,0.0324,0.013523,0.002678,0.000431,0.320852
69536000,0.0324,0.013523,0.002678,0.000431,0.450721
69537000,0.0324,0.013523,0.002678,0.000431,0.286064
69538000,0.0324,0.013523,0.002678,0.000431,0.261618
69539000,0.0324,0.013523,0.002678,0.000431,0.162071
69540000,0.0324,0.013523,0.002678,0.000431,0.107186
69541000,0.0324,0.013523,0.002678,0.000431,0.540630
69542000,0.0324,0.013523,0.002678,0.000431,0.285006
69543000,0.0324,0.013523,0.002678,0.000431,0.176880
69544000,0.0324,0.013523,0.002678,0.000431,0.138801
69545000,0.0324,0.013523,0.002678,0.000431,0.114120
69546000,0.0324,0.013523,0.002678,0.000431,0.082975
69547000,0.0324,0.013523,0.002678,0.000431,0.080272
69548000,0.0324,0.013523,0.002678,0.000431,0.048422
69549000,0.0324,0.013523,0.002678,0.000431,0.045718
69550000,0.0324,0.013523,0.002678,0.000431,0.040077
69551000,0.0324,0.013523,0.002678,0.000431,0.033731
69552000,0.0324,0.013523,0.002678,0.000431,0.026679
69553000,0.0324,0.013523,0.002678,0.000431,0.025034
69554000,0.0324,0.013523,0.002678,0.000431,0.012928
69555000,0.0324,0.013523,0.002678,0.000431,0.012340
69556000,0.0324,0.013523,0.002678,0.000431,0.013163
69557000,0.0324,0.013523,0.002678,0.000431,0.014338
69558000,0.0324,0.013523,0.002678,0.000431,0.006817
69559000,0.0324,0.013523,0.002678,0.000431,0.003643
69560000,0.0324,0.013523,0.002678,0.000431,0.002938
69561000,0.0324,0.013523,0.002678,0.000431,0.004701
69562000,0.0324,0.013523,0.002678,0.000431,0.001998
69563000,0.0324,0.013523,0.002678,0.000431,0.002116
69564000,0.0324,0.013523,0.002678,0.000431,0.002351
69565000,0.0324,0.013523,0.002678,0.000431,0.002351
69566000,0.0324,0.013523,0.002678,0.000431,0.002351
69567000,0.0324,0.013523,0.002678,0.000431,0.002351
69568000,0.0324,0.013523,0.002678,0.000431,0.001998
69569000,0.0324,0.013523,0.002678,0.000431,0.001528
69570000,0.0324,0.013523,0.002678,0.000431,0.003761
69571000,0.0324,0.013523,0.002678,0.000431,0.000823
69572000,0.0324,0.013523,0.002678,0.000431,0.000823
69573000,0.0324,0.013523,0.002678,0.000431,0.000823
69574000,0.0324,0.013523,0.002678,0.000431,0.000823
69575000,0.0324,0.013523,0.002678,0.000431,0.000940
69576000,0.0324,0.013523,0.002678,0.000431,0.000705
69577000,0.0324,0.013523,0.002678,0.000431,0.000940
69578000,0.0324,0.013523,0.002678,0.000431,0.000823
69579000,0.0324,0.013523,0.002678,0.000431,0.000823
69580000,0.0324,0.013523,0.002678,0.000431,0.000823
69581000,0.0324,0.013523,0.002678,0.000431,0.000823
69582000,0.0324,0.013523,0.002678,0.000431,0.000823
69583000,0.0324,0.013523,0.002678,0.000431,0.000823
69584000,0.0324,0.013523,0.002678,0.000431,0.000823
69585000,0.0324,0.013523,0.002678,0.000431,0.000823
69586000,0.0324,0.013523,0.002678,0.000431,0.000940
69587000,0.0324,0.013523,0.002678,0.000431,0.000823
69588000,0.0324,0.013523,0.002678,0.000431,0.000823
69589000,0.0324,0.013523,0.002678,0.000431,0.000705
69590000,0.0324,0.013523,0.002678,0.000431,0.000940
69591000,0.0324,0.013523,0.002678,0.000431,0.000940
69592000,0.0324,0.013523,0.002678,0.000431,0.000705
69593000,0.0324,0.013523,0.002678,0.000431,0.000940
69594000,0.0324,0.013523,0.002678,0.000431,0.000705
69595000,0.0324,0.013523,0.002678,0.000431,0.000940
69596000,0.0324,0.013523,0.002678,0.000431,0.000823
69597000,0.0324,0.013523,0.002678,0.000431,0.000823
69598000,0.0324,0.013523,0.002678,0.000431,0.000823
69599000,0.0324,0.013523,0.002678,0.000431,0.000823
69600000,0.0324,0.013523,0.002678,0.000431,0.000940
69601000,0.0324,0.013523,0.002678,0.000431,0.000705
69602000,0.0324,0.013523,0.002678,0.000431,0.000940
69603000,0.0324,0.013523,0.002678,0.000431,0.000705
69604000,0.0324,0.013523,0.002678,0.000431,0.000940
69605000,0.0324,0.013523,0.002678,0.000431,0.000705
69606000,0.0324,0.013523,0.002678,0.000431,0.000940
69607000,0.0324,0.013523,0.002678,0.000431,0.000940
69608000,0.0324,0.013523,0.002678,0.000431,0.000705
69609000,0.0324,0.013523,0.002678,0.000431,0.000940
69610000,0.0324,0.013523,0.002678,0.000431,0.000705
69611000,0.0324,0.013523,0.002678,0.000431,0.000940
69612000,0.0324,0.013523,0.002678,0.000431,0.000823
69613000,0.0324,0.013523,0.002678,0.000431,0.000823
69614000,0.0324,0.013523,0.002678,0.000431,0.000823
69615000,0.0324,0.013523,0.002678,0.000431,0.000823
69616000,0.0324,0.013523,0.002678,0.000431,0.000940
69617000,0.0324,0.013523,0.002678,0.000431,0.000705
69618000,0.0324,0.013523,0.002678,0.000431,0.000940
69619000,0.0324,0.013523,0.002678,0.000431,0.000823
69620000,0.0324,0.013523,0.002678,0.000431,0.000823
69621000,0.0324,0.013523,0.002678,0.000431,0.000823
69622000,0.0324,0.013523,0.002678,0.000431,0.000823
69623000,0.0324,0.013523,0.002678,0.000431,0.000823
69624000,0.0324,0.013523,0.002678,0.000431,0.000823
69625000,0.0324,0.013523,0.002678,0.000431,0.000823
69626000,0.0324,0.013523,0.002678,0.000431,0.000940
69627000,0.0324,0.013523,0.002678,0.000431,0.000823
69628000,0.0324,0.013523,0.002678,0.000431,0.000823
69629000,0.0324,0.013523,0.002678,0.000431,0.000823
69630000,0.0324,0.013523,0.002678,0.000431,0.000705
69631000,0.0324,0.013523,0.002678,0.000431,0.000940
69632000,0.0324,0.013523,0.002678,0.000431,0.000940
69633000,0.0324,0.013523,0.002678,0.000431,0.000705
69634000,0.0324,0.013523,0.002678,0.000431,0.000940
69635000,0.0324,0.013523,0.002678,0.000431,0.000705
69636000,0.0324,0.013523,0.002678,0.000431,0.000940
69637000,0.0324,0.013523,0.002678,0.000431,0.000823
69638000,0.0324,0.013523,0.002678,0.000431,0.000823
69639000,0.0324,0.013523,0.002678,0.000431,0.000823
69640000,0.0324,0.013523,0.002678,0.000431,0.000823
69641000,0.0324,0.013523,0.002678,0.000431,0.000823
69642000,0.0324,0.013523,0.002678,0.000431,0.000823
69643000,0.0324,0.013523,0.002678,0.000431,0.000940
69644000,0.0324,0.013523,0.002678,0.000431,0.000705
69645000,0.0324,0.013523,0.002678,0.000431,0.000940
69646000,0.0324,0.013523,0.002678,0.000431,0.000823
69647000,0.0324,0.013523,0.002678,0.000431,0.000823
69648000,0.0324,0.013523,0.002678,0.000431,0.000705
69649000,0.0324,0.013523,0.002678,0.000431,0.000940
69650000,0.0324,0.013523,0.002678,0.000431,0.000940
69651000,0.0324,0.013523,0.002678,0.000431,0.000705
69652000,0.0324,0.013523,0.002678,0.000431,0.000940
69653000,0.0324,0.013523,0.002678,0.000431,0.000705
69654000,0.0324,0.013523,0.002678,0.000431,0.000940
69655000,0.0324,0.013523,0.002678,0.000431,0.000823
69656000,0.0324,0.013523,0.002678,0.000431,0.000823
69657000,0.0324,0.013523,0.002678,0.000431,0.000940
69658000,0.0324,0.013523,0.002678,0.000431,0.000705
69659000,0.0324,0.013523,0.002678,0.000431,0.000940
69660000,0.0324,0.013523,0.002678,0.000431,0.000823
69661000,0.0324,0.013523,0.002678,0.000431,0.000823
69662000,0.0324,0.013523,0.002678,0.000431,0.000823
69663000,0.0324,0.013523,0.002678,0.000431,0.000823
69664000,0.0324,0.013523,0.002678,0.000431,0.000705
69665000,0.0324,0.013523,0.002678,0.000431,0.013633
69666000,0.0324,0.013523,0.002678,0.000431,0.717039
69667000,0.0324,0.013523,0.002678,0.000431,0.621724
69668000,0.0324,0.013523,0.002678,0.000431,0.145617
69669000,0.0324,0.013523,0.002678,0.000431,0.154902
69670000,0.0324,0.013523,0.002678,0.000431,0.575536
69671000,0.0324,0.013523,0.002678,0.000431,0.237054
69672000,0.0324,0.013523,0.002678,0.000431,0.314623
69673000,0.0324,0.013523,0.002678,0.000431,0.145735
69674000,0.0324,0.013523,0.002678,0.000431,0.155960
69675000,0.0324,0.013523,0.002678,0.000431,0.222833
69676000,0.0324,0.013523,0.002678,0.000431,0.494559
69677000,0.0324,0.013523,0.002678,0.000431,0.192159
69678000,0.0324,0.013523,0.002678,0.000431,0.163599
69679000,0.0324,0.013523,0.002678,0.000431,0.147263
69680000,0.0324,0.013523,0.002678,0.000431,0.133982
69681000,0.0324,0.013523,0.002678,0.000431,0.097196
69682000,0.0324,0.013523,0.002678,0.000431,0.084385
69683000,0.0324,0.013523,0.002678,0.000431,0.056766
69684000,0.0324,0.013523,0.002678,0.000431,0.053710
69685000,0.0324,0.013523,0.002678,0.000431,0.040900
69686000,0.0324,0.013523,0.002678,0.000431,0.040665
69687000,0.0324,0.013523,0.002678,0.000431,0.035023
69688000,0.0324,0.013523,0.002678,0.000431,0.029970
69689000,0.0324,0.013523,0.002678,0.000431,0.030675
69690000,0.0324,0.013523,0.002678,0.000431,0.018099
69691000,0.0324,0.013523,0.002678,0.000431,0.017042
69692000,0.0324,0.013523,0.002678,0.000431,0.019040
69693000,0.0324,0.013523,0.002678,0.000431,0.017394
69694000,0.0324,0.013523,0.002678,0.000431,0.009990
69695000,0.0324,0.013523,0.002678,0.000431,0.011753
69696000,0.0324,0.013523,0.002678,0.000431,0.008345
69697000,0.0324,0.013523,0.002678,0.000431,0.010930
69698000,0.0324,0.013523,0.002678,0.000431,0.007874
69699000,0.0324,0.013523,0.002678,0.000431,0.007169
69700000,0.0324,0.013523,0.002678,0.000431,0.007522
69701000,0.0324,0.013523,0.002678,0.000431,0.007757
69702000,0.0324,0.013523,0.002678,0.000431,0.007639
69703000,0.0324,0.013523,0.002678,0.000431,0.006111
69704000,0.0324,0.013523,0.002678,0.000431,0.010578
69705000,0.0324,0.013523,0.002678,0.000431,0.004701
69706000,0.0324,0.013523,0.002678,0.000431,0.004936
69707000,0.0324,0.013523,0.002678,0.000431,0.607151
69708000,0.0324,0.013523,0.002678,0.000431,0.705169
69709000,0.0324,0.013523,0.002678,0.000431,0.137978
69710000,0.0324,0.013523,0.002678,0.000431,0.136333
69711000,0.0324,0.013523,0.002678,0.000431,0.576828
69712000,0.0324,0.013523,0.002678,0.000431,0.236349
69713000,0.0324,0.013523,0.002678,0.000431,0.359989
69714000,0.0324,0.013523,0.002678,0.000431,0.152434
69715000,0.0324,0.013523,0.002678,0.000431,0.165597
69716000,0.0324,0.013523,0.002678,0.000431,0.168535
69717000,0.0324,0.013523,0.002678,0.000431,0.535458
69718000,0.0324,0.013523,0.002678,0.000431,0.177820
69719000,0.0324,0.013523,0.002678,0.000431,0.162541
69720000,0.0324,0.013523,0.002678,0.000431,0.129986
69721000,0.0324,0.013523,0.002678,0.000431,0.114708
69722000,0.0324,0.013523,0.002678,0.000431,0.096256
69723000,0.0324,0.013523,0.002678,0.000431,0.070517
69724000,0.0324,0.013523,0.002678,0.000431,0.068989
69725000,0.0324,0.013523,0.002678,0.000431,0.042663
69726000,0.0324,0.013523,0.002678,0.000431,0.036551
69727000,0.0324,0.013523,0.002678,0.000431,0.031850
69728000,0.0324,0.013523,0.002678,0.000431,0.019745
69729000,0.0324,0.013523,0.002678,0.000431,0.015984
69730000,0.0324,0.013523,0.002678,0.000431,0.014926
69731000,0.0324,0.013523,0.002678,0.000431,0.009285
69732000,0.0324,0.013523,0.002678,0.000431,0.011165
69733000,0.0324,0.013523,0.002678,0.000431,0.010813
69734000,0.0324,0.013523,0.002678,0.000431,0.007052
69735000,0.0324,0.013523,0.002678,0.000431,0.006464
69736000,0.0324,0.013523,0.002678,0.000431,0.003408
69737000,0.0324,0.013523,0.002678,0.000431,0.003526
69738000,0.0324,0.013523,0.002678,0.000431,0.003408
69739000,0.0324,0.013523,0.002678,0.000431,0.003408
69740000,0.0324,0.013523,0.002678,0.000431,0.003643
69741000,0.0324,0.013523,0.002678,0.000431,0.003291
69742000,0.0324,0.013523,0.002678,0.000431,0.003878
69743000,0.0324,0.013523,0.002678,0.000431,0.007639
69744000,0.0324,0.013523,0.002678,0.000431,0.003408
69745000,0.0324,0.013523,0.002678,0.000431,0.000705
69746000,0.0324,0.013523,0.002678,0.000431,0.000940
69747000,0.0324,0.013523,0.002678,0.000431,0.000823
69748000,0.0324,0.013523,0.002678,0.000431,0.000823
69749000,0.0324,0.013523,0.002678,0.000431,0.000823
69750000,0.0324,0.013523,0.002678,0.000431,0.074983
69751000,0.0324,0.013523,0.002678,0.000431,0.781915
69752000,0.0324,0.013523,0.002678,0.000431,0.506311
69753000,0.0324,0.013523,0.002678,0.000431,0.137508
69754000,0.0324,0.013523,0.002678,0.000431,0.330842
69755000,0.0324,0.013523,0.002678,0.000431,0.413699
69756000,0.0324,0.013523,0.002678,0.000431,0.267494
69757000,0.0324,0.013523,0.002678,0.000431,0.260678
69758000,0.0324,0.013523,0.002678,0.000431,0.168653
69759000,0.0324,0.013523,0.002678,0.000431,0.116941
69760000,0.0324,0.013523,0.002678,0.000431,0.490093
69761000,0.0324,0.013523,0.002678,0.000431,0.305573
69762000,0.0324,0.013523,0.002678,0.000431,0.193451
69763000,0.0324,0.013523,0.002678,0.000431,0.149848
69764000,0.0324,0.013523,0.002678,0.000431,0.138918
69765000,0.0324,0.013523,0.002678,0.000431,0.103660
69766000,0.0324,0.013523,0.002678,0.000431,0.087441
69767000,0.0324,0.013523,0.002678,0.000431,0.058294
69768000,0.0324,0.013523,0.002678,0.000431,0.051125
69769000,0.0324,0.013523,0.002678,0.000431,0.039489
69770000,0.0324,0.013523,0.002678,0.000431,0.031380
69771000,0.0324,0.013523,0.002678,0.000431,0.019862
69772000,0.0324,0.013523,0.002678,0.000431,0.024211
69773000,0.0324,0.013523,0.002678,0.000431,0.014573
69774000,0.0324,0.013523,0.002678,0.000431,0.016336
69775000,0.0324,0.013523,0.002678,0.000431,0.014809
69776000,0.0324,0.013523,0.002678,0.000431,0.012223
69777000,0.0324,0.013523,0.002678,0.000431,0.010813
69778000,0.0324,0.013523,0.002678,0.000431,0.009872
69779000,0.0324,0.013523,0.002678,0.000431,0.005641
69780000,0.0324,0.013523,0.002678,0.000431,0.008462
69781000,0.0324,0.013523,0.002678,0.000431,0.006347
69782000,0.0324,0.013523,0.002678,0.000431,0.002233
69783000,0.0324,0.013523,0.002678,0.000431,0.001293
69784000,0.0324,0.013523,0.002678,0.000431,0.000823
69785000,0.0324,0.013523,0.002678,0.000431,0.014573
69786000,0.0324,0.013523,0.002678,0.000431,0.825753
69787000,0.0324,0.013523,0.002678,0.000431,0.531227
69788000,0.0324,0.013523,0.002678,0.000431,0.141857
69789000,0.0324,0.013523,0.002678,0.000431,0.214019
69790000,0.0324,0.013523,0.002678,0.000431,0.496674
69791000,0.0324,0.013523,0.002678,0.000431,0.261500
69792000,0.0324,0.013523,0.002678,0.000431,0.266084
69793000,0.0324,0.013523,0.002678,0.000431,0.172414
69794000,0.0324,0.013523,0.002678,0.000431,0.105893
69795000,0.0324,0.013523,0.002678,0.000431,0.531933
69796000,0.0324,0.013523,0.002678,0.000431,0.283596
69797000,0.0324,0.013523,0.002678,0.000431,0.198858
69798000,0.0324,0.013523,0.002678,0.000431,0.163482
69799000,0.0324,0.013523,0.002678,0.000431,0.138801
69800000,0.0324,0.013523,0.002678,0.000431,0.110712
69801000,0.0324,0.013523,0.002678,0.000431,0.104130
69802000,0.0324,0.013523,0.002678,0.000431,0.073103
69803000,0.0324,0.013523,0.002678,0.000431,0.065111
69804000,0.0324,0.013523,0.002678,0.000431,0.057119
69805000,0.0324,0.013523,0.002678,0.000431,0.049009
69806000,0.0324,0.013523,0.002678,0.000431,0.031733
69807000,0.0324,0.013523,0.002678,0.000431,0.018805
69808000,0.0324,0.013523,0.002678,0.000431,0.024563
69809000,0.0324,0.013523,0.002678,0.000431,0.028207
69810000,0.0324,0.013523,0.002678,0.000431,0.021155
69811000,0.0324,0.013523,0.002678,0.000431,0.007992
69812000,0.0324,0.013523,0.002678,0.000431,0.010578
69813000,0.0324,0.013523,0.002678,0.000431,0.006229
69814000,0.0324,0.013523,0.002678,0.000431,0.007522
69815000,0.0324,0.013523,0.002678,0.000431,0.004819
69816000,0.0324,0.013523,0.002678,0.000431,0.006582
69817000,0.0324,0.013523,0.002678,0.000431,0.005759
69818000,0.0324,0.013523,0.002678,0.000431,0.005289
69819000,0.0324,0.013523,0.002678,0.000431,0.002703
69820000,0.0324,0.013523,0.002678,0.000431,0.002938
69821000,0.0324,0.013523,0.002678,0.000431,0.003643
69822000,0.0324,0.013523,0.002678,0.000431,0.001763
69823000,0.0324,0.013523,0.002678,0.000431,0.003526
69824000,0.0324,0.013523,0.002678,0.000431,0.001058
69825000,0.0324,0.013523,0.002678,0.000431,0.000940
69826000,0.0324,0.013523,0.002678,0.000431,0.000705
69827000,0.0324,0.013523,0.002678,0.000431,0.000940
69828000,0.0324,0.013523,0.002678,0.000431,0.000940
69829000,0.0324,0.013523,0.002678,0.000431,0.000823
69830000,0.0324,0.013523,0.002678,0.000431,0.277719
69831000,0.0324,0.013523,0.002678,0.000431,0.790142
69832000,0.0324,0.013523,0.002678,0.000431,0.391721
69833000,0.0324,0.013523,0.002678,0.000431,0.136803
69834000,0.0324,0.013523,0.002678,0.000431,0.542510
69835000,0.0324,0.013523,0.002678,0.000431,0.257739
69836000,0.0324,0.013523,0.002678,0.000431,0.318736
69837000,0.0324,0.013523,0.002678,0.000431,0.177938
69838000,0.0324,0.013523,0.002678,0.000431,0.181111
69839000,0.0324,0.013523,0.002678,0.000431,0.114002
69840000,0.0324,0.013523,0.002678,0.000431,0.594105
69841000,0.0324,0.013523,0.002678,0.000431,0.269962
69842000,0.0324,0.013523,0.002678,0.000431,0.216252
69843000,0.0324,0.013523,0.002678,0.000431,0.173589
69844000,0.0324,0.013523,0.002678,0.000431,0.133042
69845000,0.0324,0.013523,0.002678,0.000431,0.112122
69846000,0.0324,0.013523,0.002678,0.000431,0.094963
69847000,0.0324,0.013523,0.002678,0.000431,0.049127
69848000,0.0324,0.013523,0.002678,0.000431,0.042780
69849000,0.0324,0.013523,0.002678,0.000431,0.028089
69850000,0.0324,0.013523,0.002678,0.000431,0.019392
69851000,0.0324,0.013523,0.002678,0.000431,0.020920
69852000,0.0324,0.013523,0.002678,0.000431,0.013516
69853000,0.0324,0.013523,0.002678,0.000431,0.010225
69854000,0.0324,0.013523,0.002678,0.000431,0.008227
69855000,0.0324,0.013523,0.002678,0.000431,0.005641
69856000,0.0324,0.013523,0.002678,0.000431,0.005641
69857000,0.0324,0.013523,0.002678,0.000431,0.006699
69858000,0.0324,0.013523,0.002678,0.000431,0.005406
69859000,0.0324,0.013523,0.002678,0.000431,0.005994
69860000,0.0324,0.013523,0.002678,0.000431,0.005759
69861000,0.0324,0.013523,0.002678,0.000431,0.006347
69862000,0.0324,0.013523,0.002678,0.000431,0.009285
69863000,0.0324,0.013523,0.002678,0.000431,0.004584
69864000,0.0324,0.013523,0.002678,0.000431,0.006934
69865000,0.0324,0.013523,0.002678,0.000431,0.004231
69866000,0.0324,0.013523,0.002678,0.000431,0.003291
69867000,0.0324,0.013523,0.002678,0.000431,0.004349
69868000,0.0324,0.013523,0.002678,0.000431,0.003761
69869000,0.0324,0.013523,0.002678,0.000431,0.003408
69870000,0.0324,0.013523,0.002678,0.000431,0.004231
69871000,0.0324,0.013523,0.002678,0.000431,0.003526
69872000,0.0324,0.013523,0.002678,0.000431,0.003173
69873000,0.0324,0.013523,0.002678,0.000431,0.003761
69874000,0.0324,0.013523,0.002678,0.000431,0.002938
69875000,0.0324,0.013523,0.002678,0.000431,0.002821
69876000,0.0324,0.013523,0.002678,0.000431,0.003643
69877000,0.0324,0.013523,0.002678,0.000431,0.002351
69878000,0.0324,0.013523,0.002678,0.000431,0.003761
69879000,0.0324,0.013523,0.002678,0.000431,0.002938
69880000,0.0324,0.013523,0.002678,0.000431,0.002938
69881000,0.0324,0.013523,0.002678,0.000431,0.005759
69882000,0.0324,0.013523,0.002678,0.000431,0.001998
69883000,0.0324,0.013523,0.002678,0.000431,0.002821
69884000,0.0324,0.013523,0.002678,0.000431,0.001880
69885000,0.0324,0.013523,0.002678,0.000431,0.002351
69886000,0.0324,0.013523,0.002678,0.000431,0.002233
69887000,0.0324,0.013523,0.002678,0.000431,0.002468
69888000,0.0324,0.013523,0.002678,0.000431,0.002116
69889000,0.0324,0.013523,0.002678,0.000431,0.002586
69890000,0.0324,0.013523,0.002678,0.000431,0.001998
69891000,0.0324,0.013523,0.002678,0.000431,0.002586
69892000,0.0324,0.013523,0.002678,0.000431,0.004113
69893000,0.0324,0.013523,0.002678,0.000431,0.001998
69894000,0.0324,0.013523,0.002678,0.000431,0.432739
69895000,0.0324,0.013523,0.002678,0.000431,0.826106
69896000,0.0324,0.013523,0.002678,0.000431,0.256094
69897000,0.0324,0.013523,0.002678,0.000431,0.159016
69898000,0.0324,0.013523,0.002678,0.000431,0.530640
69899000,0.0324,0.013523,0.002678,0.000431,0.237524
69900000,0.0324,0.013523,0.002678,0.000431,0.292880
69901000,0.0324,0.013523,0.002678,0.000431,0.160896
69902000,0.0324,0.013523,0.002678,0.000431,0.131632
69903000,0.0324,0.013523,0.002678,0.000431,0.320617
69904000,0.0324,0.013523,0.002678,0.000431,0.434149
69905000,0.0324,0.013523,0.002678,0.000431,0.162894
69906000,0.0324,0.013523,0.002678,0.000431,0.134335
69907000,0.0324,0.013523,0.002678,0.000431,0.111417
69908000,0.0324,0.013523,0.002678,0.000431,0.092612
69909000,0.0324,0.013523,0.002678,0.000431,0.067461
69910000,0.0324,0.013523,0.002678,0.000431,0.055473
69911000,0.0324,0.013523,0.002678,0.000431,0.047481
69912000,0.0324,0.013523,0.002678,0.000431,0.028677
69913000,0.0324,0.013523,0.002678,0.000431,0.014691
69914000,0.0324,0.013523,0.002678,0.000431,0.012458
69915000,0.0324,0.013523,0.002678,0.000431,0.009990
69916000,0.0324,0.013523,0.002678,0.000431,0.009755
69917000,0.0324,0.013523,0.002678,0.000431,0.011635
69918000,0.0324,0.013523,0.002678,0.000431,0.009872
69919000,0.0324,0.013523,0.002678,0.000431,0.005524
69920000,0.0324,0.013523,0.002678,0.000431,0.005524
69921000,0.0324,0.013523,0.002678,0.000431,0.005759
69922000,0.0324,0.013523,0.002678,0.000431,0.005054
69923000,0.0324,0.013523,0.002678,0.000431,0.005054
69924000,0.0324,0.013523,0.002678,0.000431,0.006934
69925000,0.0324,0.013523,0.002678,0.000431,0.004466
69926000,0.0324,0.013523,0.002678,0.000431,0.003408
69927000,0.0324,0.013523,0.002678,0.000431,0.004349
69928000,0.0324,0.013523,0.002678,0.000431,0.003408
69929000,0.0324,0.013523,0.002678,0.000431,0.003173
69930000,0.0324,0.013523,0.002678,0.000431,0.006582
69931000,0.0324,0.013523,0.002678,0.000431,0.002351
69932000,0.0324,0.013523,0.002678,0.000431,0.002586
69933000,0.0324,0.013523,0.002678,0.000431,0.002116
69934000,0.0324,0.013523,0.002678,0.000431,0.002586
69935000,0.0324,0.013523,0.002678,0.000431,0.002233
69936000,0.0324,0.013523,0.002678,0.000431,0.001880
69937000,0.0324,0.013523,0.002678,0.000431,0.004584
69938000,0.0324,0.013523,0.002678,0.000431,0.071105
69939000,0.0324,0.013523,0.002678,0.000431,0.773570
69940000,0.0324,0.013523,0.002678,0.000431,0.511013
69941000,0.0324,0.013523,0.002678,0.000431,0.138801
69942000,0.0324,0.013523,0.002678,0.000431,0.436500
69943000,0.0324,0.013523,0.002678,0.000431,0.320852
69944000,0.0324,0.013523,0.002678,0.000431,0.309687
69945000,0.0324,0.013523,0.002678,0.000431,0.212138
69946000,0.0324,0.013523,0.002678,0.000431,0.173589
69947000,0.0324,0.013523,0.002678,0.000431,0.152434
69948000,0.0324,0.013523,0.002678,0.000431,0.567896
69949000,0.0324,0.013523,0.002678,0.000431,0.242343
69950000,0.0324,0.013523,0.002678,0.000431,0.203089
69951000,0.0324,0.013523,0.002678,0.000431,0.182169
69952000,0.0324,0.013523,0.002678,0.000431,0.146793
69953000,0.0324,0.013523,0.002678,0.000431,0.104012
69954000,0.0324,0.013523,0.002678,0.000431,0.090497
69955000,0.0324,0.013523,0.002678,0.000431,0.069107
69956000,0.0324,0.013523,0.002678,0.000431,0.056766
69957000,0.0324,0.013523,0.002678,0.000431,0.037609
69958000,0.0324,0.013523,0.002678,0.000431,0.022918
69959000,0.0324,0.013523,0.002678,0.000431,0.031380
69960000,0.0324,0.013523,0.002678,0.000431,0.013163
69961000,0.0324,0.013523,0.002678,0.000431,0.010460
69962000,0.0324,0.013523,0.002678,0.000431,0.009637
69963000,0.0324,0.013523,0.002678,0.000431,0.006699
69964000,0.0324,0.013523,0.002678,0.000431,0.003526
69965000,0.0324,0.013523,0.002678,0.000431,0.004466
69966000,0.0324,0.013523,0.002678,0.000431,0.005876
69967000,0.0324,0.013523,0.002678,0.000431,0.001763
69968000,0.0324,0.013523,0.002678,0.000431,0.001763
69969000,0.0324,0.013523,0.002678,0.000431,0.001763
69970000,0.0324,0.013523,0.002678,0.000431,0.001880
69971000,0.0324,0.013523,0.002678,0.000431,0.001763
69972000,0.0324,0.013523,0.002678,0.000431,0.001410
69973000,0.0324,0.013523,0.002678,0.000431,0.005054
69974000,0.0324,0.013523,0.002678,0.000431,0.000823
69975000,0.0324,0.013523,0.002678,0.000431,0.001058
69976000,0.0324,0.013523,0.002678,0.000431,0.108361
69977000,0.0324,0.013523,0.002678,0.000431,0.836801
69978000,0.0324,0.013523,0.002678,0.000431,0.485156
69979000,0.0324,0.013523,0.002678,0.000431,0.138213
69980000,0.0324,0.013523,0.002678,0.000431,0.455422
69981000,0.0324,0.013523,0.002678,0.000431,0.261970
69982000,0.0324,0.013523,0.002678,0.000431,0.346238
69983000,0.0324,0.013523,0.002678,0.000431,0.210375
69984000,0.0324,0.013523,0.002678,0.000431,0.168535
69985000,0.0324,0.013523,0.002678,0.000431,0.163482
69986000,0.0324,0.013523,0.002678,0.000431,0.546271
69987000,0.0324,0.013523,0.002678,0.000431,0.206615
69988000,0.0324,0.013523,0.002678,0.000431,0.174764
69989000,0.0324,0.013523,0.002678,0.000431,0.154667
69990000,0.0324,0.013523,0.002678,0.000431,0.117411
69991000,0.0324,0.013523,0.002678,0.000431,0.108714
69992000,0.0324,0.013523,0.002678,0.000431,0.085678
69993000,0.0324,0.013523,0.002678,0.000431,0.056414
69994000,0.0324,0.013523,0.002678,0.000431,0.051007
69995000,0.0324,0.013523,0.002678,0.000431,0.042193
69996000,0.0324,0.013523,0.002678,0.000431,0.031850
69997000,0.0324,0.013523,0.002678,0.000431,0.021038
69998000,0.0324,0.013523,0.002678,0.000431,0.015514
69999000,0.0324,0.013523,0.002678,0.000431,0.012811
