Cycle,Area(mm^2),PeakDynamic(W),SubthresholdLeakage(W),GateLeakage(W),RunTimeDynamic(W)
123000000,0.0324,0.013523,0.002678,0.000431,0.009637
123001000,0.0324,0.013523,0.002678,0.000431,0.011988
123002000,0.0324,0.013523,0.002678,0.000431,0.016101
123003000,0.0324,0.013523,0.002678,0.000431,0.005759
123004000,0.0324,0.013523,0.002678,0.000431,0.005641
123005000,0.0324,0.013523,0.002678,0.000431,0.006229
123006000,0.0324,0.013523,0.002678,0.000431,0.006464
123007000,0.0324,0.013523,0.002678,0.000431,0.005641
123008000,0.0324,0.013523,0.002678,0.000431,0.006111
123009000,0.0324,0.013523,0.002678,0.000431,0.003526
123010000,0.0324,0.013523,0.002678,0.000431,0.003526
123011000,0.0324,0.013523,0.002678,0.000431,0.003408
123012000,0.0324,0.013523,0.002678,0.000431,0.003526
123013000,0.0324,0.013523,0.002678,0.000431,0.003291
123014000,0.0324,0.013523,0.002678,0.000431,0.007169
123015000,0.0324,0.013523,0.002678,0.000431,0.002586
123016000,0.0324,0.013523,0.002678,0.000431,0.006111
123017000,0.0324,0.013523,0.002678,0.000431,0.001763
123018000,0.0324,0.013523,0.002678,0.000431,0.003173
123019000,0.0324,0.013523,0.002678,0.000431,0.000940
123020000,0.0324,0.013523,0.002678,0.000431,0.000823
123021000,0.0324,0.013523,0.002678,0.000431,0.000823
123022000,0.0324,0.013523,0.002678,0.000431,0.000823
123023000,0.0324,0.013523,0.002678,0.000431,0.000940
123024000,0.0324,0.013523,0.002678,0.000431,0.000705
123025000,0.0324,0.013523,0.002678,0.000431,0.000823
123026000,0.0324,0.013523,0.002678,0.000431,0.000940
123027000,0.0324,0.013523,0.002678,0.000431,0.000823
123028000,0.0324,0.013523,0.002678,0.000431,0.000823
123029000,0.0324,0.013523,0.002678,0.000431,0.000705
123030000,0.0324,0.013523,0.002678,0.000431,0.000823
123031000,0.0324,0.013523,0.002678,0.000431,0.000823
123032000,0.0324,0.013523,0.002678,0.000431,0.000823
123033000,0.0324,0.013523,0.002678,0.000431,0.000940
123034000,0.0324,0.013523,0.002678,0.000431,0.000705
123035000,0.0324,0.013523,0.002678,0.000431,0.000940
123036000,0.0324,0.013523,0.002678,0.000431,0.000705
123037000,0.0324,0.013523,0.002678,0.000431,0.000940
123038000,0.0324,0.013523,0.002678,0.000431,0.000705
123039000,0.0324,0.013523,0.002678,0.000431,0.000940
123040000,0.0324,0.013523,0.002678,0.000431,0.003996
123041000,0.0324,0.013523,0.002678,0.000431,0.517477
123042000,0.0324,0.013523,0.002678,0.000431,0.727970
123043000,0.0324,0.013523,0.002678,0.000431,0.188868
123044000,0.0324,0.013523,0.002678,0.000431,0.137978
123045000,0.0324,0.013523,0.002678,0.000431,0.343887
123046000,0.0324,0.013523,0.002678,0.000431,0.532638
123047000,0.0324,0.013523,0.002678,0.000431,0.297346
123048000,0.0324,0.013523,0.002678,0.000431,0.308394
123049000,0.0324,0.013523,0.002678,0.000431,0.145030
123050000,0.0324,0.013523,0.002678,0.000431,0.155372
123051000,0.0324,0.013523,0.002678,0.000431,0.152081
123052000,0.0324,0.013523,0.002678,0.000431,0.527349
123053000,0.0324,0.013523,0.002678,0.000431,0.271960
123054000,0.0324,0.013523,0.002678,0.000431,0.214254
123055000,0.0324,0.013523,0.002678,0.000431,0.198858
123056000,0.0324,0.013523,0.002678,0.000431,0.180406
123057000,0.0324,0.013523,0.002678,0.000431,0.167830
123058000,0.0324,0.013523,0.002678,0.000431,0.148086
123059000,0.0324,0.013523,0.002678,0.000431,0.128458
123060000,0.0324,0.013523,0.002678,0.000431,0.120349
123061000,0.0324,0.013523,0.002678,0.000431,0.107891
123062000,0.0324,0.013523,0.002678,0.000431,0.105305
123063000,0.0324,0.013523,0.002678,0.000431,0.076628
123064000,0.0324,0.013523,0.002678,0.000431,0.065933
123065000,0.0324,0.013523,0.002678,0.000431,0.051712
123066000,0.0324,0.013523,0.002678,0.000431,0.055473
123067000,0.0324,0.013523,0.002678,0.000431,0.046659
123068000,0.0324,0.013523,0.002678,0.000431,0.036904
123069000,0.0324,0.013523,0.002678,0.000431,0.034436
123070000,0.0324,0.013523,0.002678,0.000431,0.028677
123071000,0.0324,0.013523,0.002678,0.000431,0.024093
123072000,0.0324,0.013523,0.002678,0.000431,0.023976
123073000,0.0324,0.013523,0.002678,0.000431,0.025739
123074000,0.0324,0.013523,0.002678,0.000431,0.018569
123075000,0.0324,0.013523,0.002678,0.000431,0.022565
123076000,0.0324,0.013523,0.002678,0.000431,0.019627
123077000,0.0324,0.013523,0.002678,0.000431,0.015984
123078000,0.0324,0.013523,0.002678,0.000431,0.012928
123079000,0.0324,0.013523,0.002678,0.000431,0.016689
123080000,0.0324,0.013523,0.002678,0.000431,0.014926
123081000,0.0324,0.013523,0.002678,0.000431,0.006699
123082000,0.0324,0.013523,0.002678,0.000431,0.005876
123083000,0.0324,0.013523,0.002678,0.000431,0.008580
123084000,0.0324,0.013523,0.002678,0.000431,0.005171
123085000,0.0324,0.013523,0.002678,0.000431,0.007992
123086000,0.0324,0.013523,0.002678,0.000431,0.006111
123087000,0.0324,0.013523,0.002678,0.000431,0.004113
123088000,0.0324,0.013523,0.002678,0.000431,0.001763
123089000,0.0324,0.013523,0.002678,0.000431,0.001763
123090000,0.0324,0.013523,0.002678,0.000431,0.001528
123091000,0.0324,0.013523,0.002678,0.000431,0.001880
123092000,0.0324,0.013523,0.002678,0.000431,0.003643
123093000,0.0324,0.013523,0.002678,0.000431,0.001058
123094000,0.0324,0.013523,0.002678,0.000431,0.000940
123095000,0.0324,0.013523,0.002678,0.000431,0.000940
123096000,0.0324,0.013523,0.002678,0.000431,0.000940
123097000,0.0324,0.013523,0.002678,0.000431,0.001175
123098000,0.0324,0.013523,0.002678,0.000431,0.279600
123099000,0.0324,0.013523,0.002678,0.000431,0.751240
123100000,0.0324,0.013523,0.002678,0.000431,0.436382
123101000,0.0324,0.013523,0.002678,0.000431,0.136450
123102000,0.0324,0.013523,0.002678,0.000431,0.211081
123103000,0.0324,0.013523,0.002678,0.000431,0.590814
123104000,0.0324,0.013523,0.002678,0.000431,0.313095
123105000,0.0324,0.013523,0.002678,0.000431,0.335308
123106000,0.0324,0.013523,0.002678,0.000431,0.155607
123107000,0.0324,0.013523,0.002678,0.000431,0.164775
123108000,0.0324,0.013523,0.002678,0.000431,0.127048
123109000,0.0324,0.013523,0.002678,0.000431,0.517242
123110000,0.0324,0.013523,0.002678,0.000431,0.263028
123111000,0.0324,0.013523,0.002678,0.000431,0.196272
123112000,0.0324,0.013523,0.002678,0.000431,0.192981
123113000,0.0324,0.013523,0.002678,0.000431,0.152199
123114000,0.0324,0.013523,0.002678,0.000431,0.139859
123115000,0.0324,0.013523,0.002678,0.000431,0.136803
123116000,0.0324,0.013523,0.002678,0.000431,0.120114
123117000,0.0324,0.013523,0.002678,0.000431,0.098019
123118000,0.0324,0.013523,0.002678,0.000431,0.084855
123119000,0.0324,0.013523,0.002678,0.000431,0.083680
123120000,0.0324,0.013523,0.002678,0.000431,0.067931
123121000,0.0324,0.013523,0.002678,0.000431,0.067696
123122000,0.0324,0.013523,0.002678,0.000431,0.070282
123123000,0.0324,0.013523,0.002678,0.000431,0.052535
123124000,0.0324,0.013523,0.002678,0.000431,0.045601
123125000,0.0324,0.013523,0.002678,0.000431,0.035023
123126000,0.0324,0.013523,0.002678,0.000431,0.029147
123127000,0.0324,0.013523,0.002678,0.000431,0.025269
123128000,0.0324,0.013523,0.002678,0.000431,0.025621
123129000,0.0324,0.013523,0.002678,0.000431,0.025034
123130000,0.0324,0.013523,0.002678,0.000431,0.020802
123131000,0.0324,0.013523,0.002678,0.000431,0.025739
123132000,0.0324,0.013523,0.002678,0.000431,0.015749
123133000,0.0324,0.013523,0.002678,0.000431,0.016336
123134000,0.0324,0.013523,0.002678,0.000431,0.013516
123135000,0.0324,0.013523,0.002678,0.000431,0.017629
123136000,0.0324,0.013523,0.002678,0.000431,0.010695
123137000,0.0324,0.013523,0.002678,0.000431,0.011635
123138000,0.0324,0.013523,0.002678,0.000431,0.011988
123139000,0.0324,0.013523,0.002678,0.000431,0.008345
123140000,0.0324,0.013523,0.002678,0.000431,0.007404
123141000,0.0324,0.013523,0.002678,0.000431,0.007287
123142000,0.0324,0.013523,0.002678,0.000431,0.007522
123143000,0.0324,0.013523,0.002678,0.000431,0.007287
123144000,0.0324,0.013523,0.002678,0.000431,0.007287
123145000,0.0324,0.013523,0.002678,0.000431,0.006582
123146000,0.0324,0.013523,0.002678,0.000431,0.014338
123147000,0.0324,0.013523,0.002678,0.000431,0.005289
123148000,0.0324,0.013523,0.002678,0.000431,0.007052
123149000,0.0324,0.013523,0.002678,0.000431,0.004819
123150000,0.0324,0.013523,0.002678,0.000431,0.002468
123151000,0.0324,0.013523,0.002678,0.000431,0.002586
123152000,0.0324,0.013523,0.002678,0.000431,0.002468
123153000,0.0324,0.013523,0.002678,0.000431,0.007639
123154000,0.0324,0.013523,0.002678,0.000431,0.000940
123155000,0.0324,0.013523,0.002678,0.000431,0.000823
123156000,0.0324,0.013523,0.002678,0.000431,0.000940
123157000,0.0324,0.013523,0.002678,0.000431,0.000705
123158000,0.0324,0.013523,0.002678,0.000431,0.000940
123159000,0.0324,0.013523,0.002678,0.000431,0.000823
123160000,0.0324,0.013523,0.002678,0.000431,0.000823
123161000,0.0324,0.013523,0.002678,0.000431,0.000823
123162000,0.0324,0.013523,0.002678,0.000431,0.000823
123163000,0.0324,0.013523,0.002678,0.000431,0.000823
123164000,0.0324,0.013523,0.002678,0.000431,0.000823
123165000,0.0324,0.013523,0.002678,0.000431,0.000940
123166000,0.0324,0.013523,0.002678,0.000431,0.000705
123167000,0.0324,0.013523,0.002678,0.000431,0.000940
123168000,0.0324,0.013523,0.002678,0.000431,0.000823
123169000,0.0324,0.013523,0.002678,0.000431,0.000823
123170000,0.0324,0.013523,0.002678,0.000431,0.000705
123171000,0.0324,0.013523,0.002678,0.000431,0.000940
123172000,0.0324,0.013523,0.002678,0.000431,0.000940
123173000,0.0324,0.013523,0.002678,0.000431,0.000705
123174000,0.0324,0.013523,0.002678,0.000431,0.071575
123175000,0.0324,0.013523,0.002678,0.000431,0.703641
123176000,0.0324,0.013523,0.002678,0.000431,0.579179
123177000,0.0324,0.013523,0.002678,0.000431,0.168418
123178000,0.0324,0.013523,0.002678,0.000431,0.158898
123179000,0.0324,0.013523,0.002678,0.000431,0.603155
123180000,0.0324,0.013523,0.002678,0.000431,0.253391
123181000,0.0324,0.013523,0.002678,0.000431,0.327551
123182000,0.0324,0.013523,0.002678,0.000431,0.260090
123183000,0.0324,0.013523,0.002678,0.000431,0.150906
123184000,0.0324,0.013523,0.002678,0.000431,0.106951
123185000,0.0324,0.013523,0.002678,0.000431,0.440026
123186000,0.0324,0.013523,0.002678,0.000431,0.324613
123187000,0.0324,0.013523,0.002678,0.000431,0.189103
123188000,0.0324,0.013523,0.002678,0.000431,0.160073
123189000,0.0324,0.013523,0.002678,0.000431,0.155137
123190000,0.0324,0.013523,0.002678,0.000431,0.136333
123191000,0.0324,0.013523,0.002678,0.000431,0.103660
123192000,0.0324,0.013523,0.002678,0.000431,0.100604
123193000,0.0324,0.013523,0.002678,0.000431,0.094845
123194000,0.0324,0.013523,0.002678,0.000431,0.075336
123195000,0.0324,0.013523,0.002678,0.000431,0.079332
123196000,0.0324,0.013523,0.002678,0.000431,0.076863
123197000,0.0324,0.013523,0.002678,0.000431,0.068049
123198000,0.0324,0.013523,0.002678,0.000431,0.052888
123199000,0.0324,0.013523,0.002678,0.000431,0.049597
123200000,0.0324,0.013523,0.002678,0.000431,0.051830
123201000,0.0324,0.013523,0.002678,0.000431,0.054298
123202000,0.0324,0.013523,0.002678,0.000431,0.044191
123203000,0.0324,0.013523,0.002678,0.000431,0.037021
123204000,0.0324,0.013523,0.002678,0.000431,0.033025
123205000,0.0324,0.013523,0.002678,0.000431,0.032555
123206000,0.0324,0.013523,0.002678,0.000431,0.024798
123207000,0.0324,0.013523,0.002678,0.000431,0.020920
123208000,0.0324,0.013523,0.002678,0.000431,0.013046
123209000,0.0324,0.013523,0.002678,0.000431,0.012693
123210000,0.0324,0.013523,0.002678,0.000431,0.011400
123211000,0.0324,0.013523,0.002678,0.000431,0.010813
123212000,0.0324,0.013523,0.002678,0.000431,0.010578
123213000,0.0324,0.013523,0.002678,0.000431,0.004936
123214000,0.0324,0.013523,0.002678,0.000431,0.004466
123215000,0.0324,0.013523,0.002678,0.000431,0.004584
123216000,0.0324,0.013523,0.002678,0.000431,0.007757
123217000,0.0324,0.013523,0.002678,0.000431,0.003761
123218000,0.0324,0.013523,0.002678,0.000431,0.004113
123219000,0.0324,0.013523,0.002678,0.000431,0.003408
123220000,0.0324,0.013523,0.002678,0.000431,0.003408
123221000,0.0324,0.013523,0.002678,0.000431,0.004466
123222000,0.0324,0.013523,0.002678,0.000431,0.002233
123223000,0.0324,0.013523,0.002678,0.000431,0.002586
123224000,0.0324,0.013523,0.002678,0.000431,0.002468
123225000,0.0324,0.013523,0.002678,0.000431,0.004349
123226000,0.0324,0.013523,0.002678,0.000431,0.000940
123227000,0.0324,0.013523,0.002678,0.000431,0.000940
123228000,0.0324,0.013523,0.002678,0.000431,0.001763
123229000,0.0324,0.013523,0.002678,0.000431,0.280657
123230000,0.0324,0.013523,0.002678,0.000431,0.726677
123231000,0.0324,0.013523,0.002678,0.000431,0.400301
123232000,0.0324,0.013523,0.002678,0.000431,0.144442
123233000,0.0324,0.013523,0.002678,0.000431,0.198623
123234000,0.0324,0.013523,0.002678,0.000431,0.608914
123235000,0.0324,0.013523,0.002678,0.000431,0.236702
123236000,0.0324,0.013523,0.002678,0.000431,0.351174
123237000,0.0324,0.013523,0.002678,0.000431,0.157135
123238000,0.0324,0.013523,0.002678,0.000431,0.163482
123239000,0.0324,0.013523,0.002678,0.000431,0.103542
123240000,0.0324,0.013523,0.002678,0.000431,0.495029
123241000,0.0324,0.013523,0.002678,0.000431,0.406295
123242000,0.0324,0.013523,0.002678,0.000431,0.283008
123243000,0.0324,0.013523,0.002678,0.000431,0.237054
123244000,0.0324,0.013523,0.002678,0.000431,0.221188
123245000,0.0324,0.013523,0.002678,0.000431,0.194627
123246000,0.0324,0.013523,0.002678,0.000431,0.179701
123247000,0.0324,0.013523,0.002678,0.000431,0.142209
123248000,0.0324,0.013523,0.002678,0.000431,0.127753
123249000,0.0324,0.013523,0.002678,0.000431,0.121054
123250000,0.0324,0.013523,0.002678,0.000431,0.116470
123251000,0.0324,0.013523,0.002678,0.000431,0.084973
123252000,0.0324,0.013523,0.002678,0.000431,0.073220
123253000,0.0324,0.013523,0.002678,0.000431,0.096021
123254000,0.0324,0.013523,0.002678,0.000431,0.066991
123255000,0.0324,0.013523,0.002678,0.000431,0.064053
123256000,0.0324,0.013523,0.002678,0.000431,0.051477
123257000,0.0324,0.013523,0.002678,0.000431,0.039137
123258000,0.0324,0.013523,0.002678,0.000431,0.035023
123259000,0.0324,0.013523,0.002678,0.000431,0.040312
123260000,0.0324,0.013523,0.002678,0.000431,0.026326
123261000,0.0324,0.013523,0.002678,0.000431,0.021273
123262000,0.0324,0.013523,0.002678,0.000431,0.030792
123263000,0.0324,0.013523,0.002678,0.000431,0.019862
123264000,0.0324,0.013523,0.002678,0.000431,0.023388
123265000,0.0324,0.013523,0.002678,0.000431,0.014691
123266000,0.0324,0.013523,0.002678,0.000431,0.016219
123267000,0.0324,0.013523,0.002678,0.000431,0.008580
123268000,0.0324,0.013523,0.002678,0.000431,0.011400
123269000,0.0324,0.013523,0.002678,0.000431,0.008462
123270000,0.0324,0.013523,0.002678,0.000431,0.014809
123271000,0.0324,0.013523,0.002678,0.000431,0.006347
123272000,0.0324,0.013523,0.002678,0.000431,0.007522
123273000,0.0324,0.013523,0.002678,0.000431,0.003408
123274000,0.0324,0.013523,0.002678,0.000431,0.003291
123275000,0.0324,0.013523,0.002678,0.000431,0.003291
123276000,0.0324,0.013523,0.002678,0.000431,0.003291
123277000,0.0324,0.013523,0.002678,0.000431,0.003291
123278000,0.0324,0.013523,0.002678,0.000431,0.007169
123279000,0.0324,0.013523,0.002678,0.000431,0.001998
123280000,0.0324,0.013523,0.002678,0.000431,0.001645
123281000,0.0324,0.013523,0.002678,0.000431,0.001880
123282000,0.0324,0.013523,0.002678,0.000431,0.001645
123283000,0.0324,0.013523,0.002678,0.000431,0.001880
123284000,0.0324,0.013523,0.002678,0.000431,0.001645
123285000,0.0324,0.013523,0.002678,0.000431,0.001645
123286000,0.0324,0.013523,0.002678,0.000431,0.001998
123287000,0.0324,0.013523,0.002678,0.000431,0.001763
123288000,0.0324,0.013523,0.002678,0.000431,0.001763
123289000,0.0324,0.013523,0.002678,0.000431,0.001763
123290000,0.0324,0.013523,0.002678,0.000431,0.001880
123291000,0.0324,0.013523,0.002678,0.000431,0.001763
123292000,0.0324,0.013523,0.002678,0.000431,0.001528
123293000,0.0324,0.013523,0.002678,0.000431,0.001880
123294000,0.0324,0.013523,0.002678,0.000431,0.001880
123295000,0.0324,0.013523,0.002678,0.000431,0.001880
123296000,0.0324,0.013523,0.002678,0.000431,0.001645
123297000,0.0324,0.013523,0.002678,0.000431,0.001880
123298000,0.0324,0.013523,0.002678,0.000431,0.001880
123299000,0.0324,0.013523,0.002678,0.000431,0.005054
123300000,0.0324,0.013523,0.002678,0.000431,0.000940
123301000,0.0324,0.013523,0.002678,0.000431,0.000940
123302000,0.0324,0.013523,0.002678,0.000431,0.000940
123303000,0.0324,0.013523,0.002678,0.000431,0.000823
123304000,0.0324,0.013523,0.002678,0.000431,0.000823
123305000,0.0324,0.013523,0.002678,0.000431,0.000940
123306000,0.0324,0.013523,0.002678,0.000431,0.000823
123307000,0.0324,0.013523,0.002678,0.000431,0.000823
123308000,0.0324,0.013523,0.002678,0.000431,0.000940
123309000,0.0324,0.013523,0.002678,0.000431,0.000940
123310000,0.0324,0.013523,0.002678,0.000431,0.000940
123311000,0.0324,0.013523,0.002678,0.000431,0.000705
123312000,0.0324,0.013523,0.002678,0.000431,0.000940
123313000,0.0324,0.013523,0.002678,0.000431,0.000940
123314000,0.0324,0.013523,0.002678,0.000431,0.000823
123315000,0.0324,0.013523,0.002678,0.000431,0.000823
123316000,0.0324,0.013523,0.002678,0.000431,0.000940
123317000,0.0324,0.013523,0.002678,0.000431,0.000940
123318000,0.0324,0.013523,0.002678,0.000431,0.000823
123319000,0.0324,0.013523,0.002678,0.000431,0.000823
123320000,0.0324,0.013523,0.002678,0.000431,0.000940
123321000,0.0324,0.013523,0.002678,0.000431,0.000823
123322000,0.0324,0.013523,0.002678,0.000431,0.000940
123323000,0.0324,0.013523,0.002678,0.000431,0.000823
123324000,0.0324,0.013523,0.002678,0.000431,0.000940
123325000,0.0324,0.013523,0.002678,0.000431,0.000823
123326000,0.0324,0.013523,0.002678,0.000431,0.000823
123327000,0.0324,0.013523,0.002678,0.000431,0.000940
123328000,0.0324,0.013523,0.002678,0.000431,0.000940
123329000,0.0324,0.013523,0.002678,0.000431,0.000823
123330000,0.0324,0.013523,0.002678,0.000431,0.000823
123331000,0.0324,0.013523,0.002678,0.000431,0.000940
123332000,0.0324,0.013523,0.002678,0.000431,0.000940
123333000,0.0324,0.013523,0.002678,0.000431,0.000705
123334000,0.0324,0.013523,0.002678,0.000431,0.000940
123335000,0.0324,0.013523,0.002678,0.000431,0.000940
123336000,0.0324,0.013523,0.002678,0.000431,0.000940
123337000,0.0324,0.013523,0.002678,0.000431,0.000823
123338000,0.0324,0.013523,0.002678,0.000431,0.000823
123339000,0.0324,0.013523,0.002678,0.000431,0.000940
123340000,0.0324,0.013523,0.002678,0.000431,0.000823
123341000,0.0324,0.013523,0.002678,0.000431,0.000940
123342000,0.0324,0.013523,0.002678,0.000431,0.000823
123343000,0.0324,0.013523,0.002678,0.000431,0.000940
123344000,0.0324,0.013523,0.002678,0.000431,0.000823
123345000,0.0324,0.013523,0.002678,0.000431,0.000940
123346000,0.0324,0.013523,0.002678,0.000431,0.000823
123347000,0.0324,0.013523,0.002678,0.000431,0.002821
123348000,0.0324,0.013523,0.002678,0.000431,0.366335
123349000,0.0324,0.013523,0.002678,0.000431,0.771925
123350000,0.0324,0.013523,0.002678,0.000431,0.440261
123351000,0.0324,0.013523,0.002678,0.000431,0.160191
123352000,0.0324,0.013523,0.002678,0.000431,0.345415
123353000,0.0324,0.013523,0.002678,0.000431,0.520650
123354000,0.0324,0.013523,0.002678,0.000431,0.260795
123355000,0.0324,0.013523,0.002678,0.000431,0.310509
123356000,0.0324,0.013523,0.002678,0.000431,0.153962
123357000,0.0324,0.013523,0.002678,0.000431,0.118821
123358000,0.0324,0.013523,0.002678,0.000431,0.361752
123359000,0.0324,0.013523,0.002678,0.000431,0.507839
123360000,0.0324,0.013523,0.002678,0.000431,0.300637
123361000,0.0324,0.013523,0.002678,0.000431,0.293233
123362000,0.0324,0.013523,0.002678,0.000431,0.262558
123363000,0.0324,0.013523,0.002678,0.000431,0.233411
123364000,0.0324,0.013523,0.002678,0.000431,0.220013
123365000,0.0324,0.013523,0.002678,0.000431,0.189573
123366000,0.0324,0.013523,0.002678,0.000431,0.178408
123367000,0.0324,0.013523,0.002678,0.000431,0.159721
123368000,0.0324,0.013523,0.002678,0.000431,0.144795
123369000,0.0324,0.013523,0.002678,0.000431,0.135628
123370000,0.0324,0.013523,0.002678,0.000431,0.106716
123371000,0.0324,0.013523,0.002678,0.000431,0.102720
123372000,0.0324,0.013523,0.002678,0.000431,0.092847
123373000,0.0324,0.013523,0.002678,0.000431,0.080507
123374000,0.0324,0.013523,0.002678,0.000431,0.080154
123375000,0.0324,0.013523,0.002678,0.000431,0.064876
123376000,0.0324,0.013523,0.002678,0.000431,0.059117
123377000,0.0324,0.013523,0.002678,0.000431,0.051242
123378000,0.0324,0.013523,0.002678,0.000431,0.038314
123379000,0.0324,0.013523,0.002678,0.000431,0.029147
123380000,0.0324,0.013523,0.002678,0.000431,0.037021
123381000,0.0324,0.013523,0.002678,0.000431,0.020332
123382000,0.0324,0.013523,0.002678,0.000431,0.033378
123383000,0.0324,0.013523,0.002678,0.000431,0.021390
123384000,0.0324,0.013523,0.002678,0.000431,0.020332
123385000,0.0324,0.013523,0.002678,0.000431,0.009285
123386000,0.0324,0.013523,0.002678,0.000431,0.016454
123387000,0.0324,0.013523,0.002678,0.000431,0.007287
123388000,0.0324,0.013523,0.002678,0.000431,0.007287
123389000,0.0324,0.013523,0.002678,0.000431,0.006934
123390000,0.0324,0.013523,0.002678,0.000431,0.007639
123391000,0.0324,0.013523,0.002678,0.000431,0.007992
123392000,0.0324,0.013523,0.002678,0.000431,0.008697
123393000,0.0324,0.013523,0.002678,0.000431,0.006699
123394000,0.0324,0.013523,0.002678,0.000431,0.006229
123395000,0.0324,0.013523,0.002678,0.000431,0.008462
123396000,0.0324,0.013523,0.002678,0.000431,0.005406
123397000,0.0324,0.013523,0.002678,0.000431,0.005171
123398000,0.0324,0.013523,0.002678,0.000431,0.005054
123399000,0.0324,0.013523,0.002678,0.000431,0.004819
123400000,0.0324,0.013523,0.002678,0.000431,0.007169
123401000,0.0324,0.013523,0.002678,0.000431,0.003408
123402000,0.0324,0.013523,0.002678,0.000431,0.006699
123403000,0.0324,0.013523,0.002678,0.000431,0.005289
123404000,0.0324,0.013523,0.002678,0.000431,0.001763
123405000,0.0324,0.013523,0.002678,0.000431,0.001645
123406000,0.0324,0.013523,0.002678,0.000431,0.001763
123407000,0.0324,0.013523,0.002678,0.000431,0.001645
123408000,0.0324,0.013523,0.002678,0.000431,0.001645
123409000,0.0324,0.013523,0.002678,0.000431,0.001763
123410000,0.0324,0.013523,0.002678,0.000431,0.004466
123411000,0.0324,0.013523,0.002678,0.000431,0.000940
123412000,0.0324,0.013523,0.002678,0.000431,0.000705
123413000,0.0324,0.013523,0.002678,0.000431,0.000940
123414000,0.0324,0.013523,0.002678,0.000431,0.000823
123415000,0.0324,0.013523,0.002678,0.000431,0.000823
123416000,0.0324,0.013523,0.002678,0.000431,0.000823
123417000,0.0324,0.013523,0.002678,0.000431,0.000823
123418000,0.0324,0.013523,0.002678,0.000431,0.000823
123419000,0.0324,0.013523,0.002678,0.000431,0.000823
123420000,0.0324,0.013523,0.002678,0.000431,0.000940
123421000,0.0324,0.013523,0.002678,0.000431,0.000705
123422000,0.0324,0.013523,0.002678,0.000431,0.000705
123423000,0.0324,0.013523,0.002678,0.000431,0.000940
123424000,0.0324,0.013523,0.002678,0.000431,0.000705
123425000,0.0324,0.013523,0.002678,0.000431,0.203559
123426000,0.0324,0.013523,0.002678,0.000431,0.773335
123427000,0.0324,0.013523,0.002678,0.000431,0.530170
123428000,0.0324,0.013523,0.002678,0.000431,0.155725
123429000,0.0324,0.013523,0.002678,0.000431,0.245751
123430000,0.0324,0.013523,0.002678,0.000431,0.546624
123431000,0.0324,0.013523,0.002678,0.000431,0.278307
123432000,0.0324,0.013523,0.002678,0.000431,0.305103
123433000,0.0324,0.013523,0.002678,0.000431,0.160896
123434000,0.0324,0.013523,0.002678,0.000431,0.147028
123435000,0.0324,0.013523,0.002678,0.000431,0.229533
123436000,0.0324,0.013523,0.002678,0.000431,0.524881
123437000,0.0324,0.013523,0.002678,0.000431,0.286769
123438000,0.0324,0.013523,0.002678,0.000431,0.254449
123439000,0.0324,0.013523,0.002678,0.000431,0.238465
123440000,0.0324,0.013523,0.002678,0.000431,0.225772
123441000,0.0324,0.013523,0.002678,0.000431,0.192981
123442000,0.0324,0.013523,0.002678,0.000431,0.181816
123443000,0.0324,0.013523,0.002678,0.000431,0.173707
123444000,0.0324,0.013523,0.002678,0.000431,0.150671
123445000,0.0324,0.013523,0.002678,0.000431,0.143972
123446000,0.0324,0.013523,0.002678,0.000431,0.134687
123447000,0.0324,0.013523,0.002678,0.000431,0.124697
123448000,0.0324,0.013523,0.002678,0.000431,0.106363
123449000,0.0324,0.013523,0.002678,0.000431,0.101662
123450000,0.0324,0.013523,0.002678,0.000431,0.096843
123451000,0.0324,0.013523,0.002678,0.000431,0.082740
123452000,0.0324,0.013523,0.002678,0.000431,0.082622
123453000,0.0324,0.013523,0.002678,0.000431,0.073573
123454000,0.0324,0.013523,0.002678,0.000431,0.083327
123455000,0.0324,0.013523,0.002678,0.000431,0.065816
123456000,0.0324,0.013523,0.002678,0.000431,0.051947
123457000,0.0324,0.013523,0.002678,0.000431,0.055238
123458000,0.0324,0.013523,0.002678,0.000431,0.051477
123459000,0.0324,0.013523,0.002678,0.000431,0.054063
123460000,0.0324,0.013523,0.002678,0.000431,0.049479
123461000,0.0324,0.013523,0.002678,0.000431,0.045483
123462000,0.0324,0.013523,0.002678,0.000431,0.030675
123463000,0.0324,0.013523,0.002678,0.000431,0.029852
123464000,0.0324,0.013523,0.002678,0.000431,0.027737
123465000,0.0324,0.013523,0.002678,0.000431,0.019275
123466000,0.0324,0.013523,0.002678,0.000431,0.021390
123467000,0.0324,0.013523,0.002678,0.000431,0.013398
123468000,0.0324,0.013523,0.002678,0.000431,0.019157
123469000,0.0324,0.013523,0.002678,0.000431,0.013281
123470000,0.0324,0.013523,0.002678,0.000431,0.015044
123471000,0.0324,0.013523,0.002678,0.000431,0.009402
123472000,0.0324,0.013523,0.002678,0.000431,0.009637
123473000,0.0324,0.013523,0.002678,0.000431,0.009637
123474000,0.0324,0.013523,0.002678,0.000431,0.006582
123475000,0.0324,0.013523,0.002678,0.000431,0.006934
123476000,0.0324,0.013523,0.002678,0.000431,0.009755
123477000,0.0324,0.013523,0.002678,0.000431,0.008462
123478000,0.0324,0.013523,0.002678,0.000431,0.005641
123479000,0.0324,0.013523,0.002678,0.000431,0.003526
123480000,0.0324,0.013523,0.002678,0.000431,0.002938
123481000,0.0324,0.013523,0.002678,0.000431,0.002586
123482000,0.0324,0.013523,0.002678,0.000431,0.005406
123483000,0.0324,0.013523,0.002678,0.000431,0.001880
123484000,0.0324,0.013523,0.002678,0.000431,0.002821
123485000,0.0324,0.013523,0.002678,0.000431,0.001998
123486000,0.0324,0.013523,0.002678,0.000431,0.000940
123487000,0.0324,0.013523,0.002678,0.000431,0.000940
123488000,0.0324,0.013523,0.002678,0.000431,0.000940
123489000,0.0324,0.013523,0.002678,0.000431,0.000705
123490000,0.0324,0.013523,0.002678,0.000431,0.014926
123491000,0.0324,0.013523,0.002678,0.000431,0.756294
123492000,0.0324,0.013523,0.002678,0.000431,0.591989
123493000,0.0324,0.013523,0.002678,0.000431,0.142327
123494000,0.0324,0.013523,0.002678,0.000431,0.133747
123495000,0.0324,0.013523,0.002678,0.000431,0.619491
123496000,0.0324,0.013523,0.002678,0.000431,0.266319
123497000,0.0324,0.013523,0.002678,0.000431,0.281010
123498000,0.0324,0.013523,0.002678,0.000431,0.219895
123499000,0.0324,0.013523,0.002678,0.000431,0.146675
123500000,0.0324,0.013523,0.002678,0.000431,0.103072
123501000,0.0324,0.013523,0.002678,0.000431,0.428390
123502000,0.0324,0.013523,0.002678,0.000431,0.306749
123503000,0.0324,0.013523,0.002678,0.000431,0.184049
123504000,0.0324,0.013523,0.002678,0.000431,0.182756
123505000,0.0324,0.013523,0.002678,0.000431,0.170298
123506000,0.0324,0.013523,0.002678,0.000431,0.149496
123507000,0.0324,0.013523,0.002678,0.000431,0.160073
123508000,0.0324,0.013523,0.002678,0.000431,0.145735
123509000,0.0324,0.013523,0.002678,0.000431,0.132102
123510000,0.0324,0.013523,0.002678,0.000431,0.119409
123511000,0.0324,0.013523,0.002678,0.000431,0.111299
123512000,0.0324,0.013523,0.002678,0.000431,0.109419
123513000,0.0324,0.013523,0.002678,0.000431,0.097901
123514000,0.0324,0.013523,0.002678,0.000431,0.088969
123515000,0.0324,0.013523,0.002678,0.000431,0.069224
123516000,0.0324,0.013523,0.002678,0.000431,0.070987
123517000,0.0324,0.013523,0.002678,0.000431,0.063113
123518000,0.0324,0.013523,0.002678,0.000431,0.050302
123519000,0.0324,0.013523,0.002678,0.000431,0.048774
123520000,0.0324,0.013523,0.002678,0.000431,0.043603
123521000,0.0324,0.013523,0.002678,0.000431,0.040195
123522000,0.0324,0.013523,0.002678,0.000431,0.040665
123523000,0.0324,0.013523,0.002678,0.000431,0.037374
123524000,0.0324,0.013523,0.002678,0.000431,0.031027
123525000,0.0324,0.013523,0.002678,0.000431,0.028559
123526000,0.0324,0.013523,0.002678,0.000431,0.023741
123527000,0.0324,0.013523,0.002678,0.000431,0.019275
123528000,0.0324,0.013523,0.002678,0.000431,0.019627
123529000,0.0324,0.013523,0.002678,0.000431,0.017042
123530000,0.0324,0.013523,0.002678,0.000431,0.016807
123531000,0.0324,0.013523,0.002678,0.000431,0.017159
123532000,0.0324,0.013523,0.002678,0.000431,0.010695
123533000,0.0324,0.013523,0.002678,0.000431,0.011518
123534000,0.0324,0.013523,0.002678,0.000431,0.012223
123535000,0.0324,0.013523,0.002678,0.000431,0.010225
123536000,0.0324,0.013523,0.002678,0.000431,0.006817
123537000,0.0324,0.013523,0.002678,0.000431,0.006934
123538000,0.0324,0.013523,0.002678,0.000431,0.007992
123539000,0.0324,0.013523,0.002678,0.000431,0.005876
123540000,0.0324,0.013523,0.002678,0.000431,0.006111
123541000,0.0324,0.013523,0.002678,0.000431,0.002821
123542000,0.0324,0.013523,0.002678,0.000431,0.002821
123543000,0.0324,0.013523,0.002678,0.000431,0.002586
123544000,0.0324,0.013523,0.002678,0.000431,0.002468
123545000,0.0324,0.013523,0.002678,0.000431,0.002821
123546000,0.0324,0.013523,0.002678,0.000431,0.002703
123547000,0.0324,0.013523,0.002678,0.000431,0.002821
123548000,0.0324,0.013523,0.002678,0.000431,0.002586
123549000,0.0324,0.013523,0.002678,0.000431,0.002468
123550000,0.0324,0.013523,0.002678,0.000431,0.002938
123551000,0.0324,0.013523,0.002678,0.000431,0.002703
123552000,0.0324,0.013523,0.002678,0.000431,0.002586
123553000,0.0324,0.013523,0.002678,0.000431,0.002703
123554000,0.0324,0.013523,0.002678,0.000431,0.002703
123555000,0.0324,0.013523,0.002678,0.000431,0.004819
123556000,0.0324,0.013523,0.002678,0.000431,0.004113
123557000,0.0324,0.013523,0.002678,0.000431,0.004349
123558000,0.0324,0.013523,0.002678,0.000431,0.380909
123559000,0.0324,0.013523,0.002678,0.000431,0.706932
123560000,0.0324,0.013523,0.002678,0.000431,0.258092
123561000,0.0324,0.013523,0.002678,0.000431,0.133982
123562000,0.0324,0.013523,0.002678,0.000431,0.230708
123563000,0.0324,0.013523,0.002678,0.000431,0.527702
123564000,0.0324,0.013523,0.002678,0.000431,0.253743
123565000,0.0324,0.013523,0.002678,0.000431,0.331900
123566000,0.0324,0.013523,0.002678,0.000431,0.146205
123567000,0.0324,0.013523,0.002678,0.000431,0.160191
123568000,0.0324,0.013523,0.002678,0.000431,0.102837
123569000,0.0324,0.013523,0.002678,0.000431,0.488565
123570000,0.0324,0.013523,0.002678,0.000431,0.307689
123571000,0.0324,0.013523,0.002678,0.000431,0.204852
123572000,0.0324,0.013523,0.002678,0.000431,0.192159
123573000,0.0324,0.013523,0.002678,0.000431,0.183109
123574000,0.0324,0.013523,0.002678,0.000431,0.162777
123575000,0.0324,0.013523,0.002678,0.000431,0.152669
123576000,0.0324,0.013523,0.002678,0.000431,0.140211
123577000,0.0324,0.013523,0.002678,0.000431,0.121642
123578000,0.0324,0.013523,0.002678,0.000431,0.115413
123579000,0.0324,0.013523,0.002678,0.000431,0.106010
123580000,0.0324,0.013523,0.002678,0.000431,0.098489
123581000,0.0324,0.013523,0.002678,0.000431,0.090262
123582000,0.0324,0.013523,0.002678,0.000431,0.079919
123583000,0.0324,0.013523,0.002678,0.000431,0.064641
123584000,0.0324,0.013523,0.002678,0.000431,0.066051
123585000,0.0324,0.013523,0.002678,0.000431,0.060057
123586000,0.0324,0.013523,0.002678,0.000431,0.055003
123587000,0.0324,0.013523,0.002678,0.000431,0.046189
123588000,0.0324,0.013523,0.002678,0.000431,0.042663
123589000,0.0324,0.013523,0.002678,0.000431,0.053123
123590000,0.0324,0.013523,0.002678,0.000431,0.051242
123591000,0.0324,0.013523,0.002678,0.000431,0.038784
123592000,0.0324,0.013523,0.002678,0.000431,0.038197
123593000,0.0324,0.013523,0.002678,0.000431,0.032203
123594000,0.0324,0.013523,0.002678,0.000431,0.019392
123595000,0.0324,0.013523,0.002678,0.000431,0.022800
123596000,0.0324,0.013523,0.002678,0.000431,0.020802
123597000,0.0324,0.013523,0.002678,0.000431,0.019275
123598000,0.0324,0.013523,0.002678,0.000431,0.014573
123599000,0.0324,0.013523,0.002678,0.000431,0.013281
123600000,0.0324,0.013523,0.002678,0.000431,0.011400
123601000,0.0324,0.013523,0.002678,0.000431,0.005641
123602000,0.0324,0.013523,0.002678,0.000431,0.004231
123603000,0.0324,0.013523,0.002678,0.000431,0.004113
123604000,0.0324,0.013523,0.002678,0.000431,0.004231
123605000,0.0324,0.013523,0.002678,0.000431,0.007052
123606000,0.0324,0.013523,0.002678,0.000431,0.003408
123607000,0.0324,0.013523,0.002678,0.000431,0.004231
123608000,0.0324,0.013523,0.002678,0.000431,0.002586
123609000,0.0324,0.013523,0.002678,0.000431,0.002468
123610000,0.0324,0.013523,0.002678,0.000431,0.002233
123611000,0.0324,0.013523,0.002678,0.000431,0.002351
123612000,0.0324,0.013523,0.002678,0.000431,0.003761
123613000,0.0324,0.013523,0.002678,0.000431,0.001645
123614000,0.0324,0.013523,0.002678,0.000431,0.001528
123615000,0.0324,0.013523,0.002678,0.000431,0.001528
123616000,0.0324,0.013523,0.002678,0.000431,0.000823
123617000,0.0324,0.013523,0.002678,0.000431,0.000823
123618000,0.0324,0.013523,0.002678,0.000431,0.000940
123619000,0.0324,0.013523,0.002678,0.000431,0.015514
123620000,0.0324,0.013523,0.002678,0.000431,0.708577
123621000,0.0324,0.013523,0.002678,0.000431,0.588934
123622000,0.0324,0.013523,0.002678,0.000431,0.142797
123623000,0.0324,0.013523,0.002678,0.000431,0.139036
123624000,0.0324,0.013523,0.002678,0.000431,0.612674
123625000,0.0324,0.013523,0.002678,0.000431,0.239170
123626000,0.0324,0.013523,0.002678,0.000431,0.333898
123627000,0.0324,0.013523,0.002678,0.000431,0.215429
123628000,0.0324,0.013523,0.002678,0.000431,0.152199
123629000,0.0324,0.013523,0.002678,0.000431,0.115295
123630000,0.0324,0.013523,0.002678,0.000431,0.470230
123631000,0.0324,0.013523,0.002678,0.000431,0.394425
123632000,0.0324,0.013523,0.002678,0.000431,0.287827
123633000,0.0324,0.013523,0.002678,0.000431,0.248337
123634000,0.0324,0.013523,0.002678,0.000431,0.215077
123635000,0.0324,0.013523,0.002678,0.000431,0.202501
123636000,0.0324,0.013523,0.002678,0.000431,0.184989
123637000,0.0324,0.013523,0.002678,0.000431,0.163247
123638000,0.0324,0.013523,0.002678,0.000431,0.158898
123639000,0.0324,0.013523,0.002678,0.000431,0.134100
123640000,0.0324,0.013523,0.002678,0.000431,0.114355
123641000,0.0324,0.013523,0.002678,0.000431,0.102014
123642000,0.0324,0.013523,0.002678,0.000431,0.100487
123643000,0.0324,0.013523,0.002678,0.000431,0.089556
123644000,0.0324,0.013523,0.002678,0.000431,0.084033
123645000,0.0324,0.013523,0.002678,0.000431,0.068872
123646000,0.0324,0.013523,0.002678,0.000431,0.069107
123647000,0.0324,0.013523,0.002678,0.000431,0.060880
123648000,0.0324,0.013523,0.002678,0.000431,0.057119
123649000,0.0324,0.013523,0.002678,0.000431,0.050067
123650000,0.0324,0.013523,0.002678,0.000431,0.047364
123651000,0.0324,0.013523,0.002678,0.000431,0.037139
123652000,0.0324,0.013523,0.002678,0.000431,0.039607
123653000,0.0324,0.013523,0.002678,0.000431,0.031380
123654000,0.0324,0.013523,0.002678,0.000431,0.029852
123655000,0.0324,0.013523,0.002678,0.000431,0.025504
123656000,0.0324,0.013523,0.002678,0.000431,0.024093
123657000,0.0324,0.013523,0.002678,0.000431,0.025621
123658000,0.0324,0.013523,0.002678,0.000431,0.019040
123659000,0.0324,0.013523,0.002678,0.000431,0.019980
123660000,0.0324,0.013523,0.002678,0.000431,0.021978
123661000,0.0324,0.013523,0.002678,0.000431,0.024328
123662000,0.0324,0.013523,0.002678,0.000431,0.017159
123663000,0.0324,0.013523,0.002678,0.000431,0.007757
123664000,0.0324,0.013523,0.002678,0.000431,0.007992
123665000,0.0324,0.013523,0.002678,0.000431,0.007404
123666000,0.0324,0.013523,0.002678,0.000431,0.009050
123667000,0.0324,0.013523,0.002678,0.000431,0.007287
123668000,0.0324,0.013523,0.002678,0.000431,0.007287
123669000,0.0324,0.013523,0.002678,0.000431,0.006934
123670000,0.0324,0.013523,0.002678,0.000431,0.005876
123671000,0.0324,0.013523,0.002678,0.000431,0.010578
123672000,0.0324,0.013523,0.002678,0.000431,0.005289
123673000,0.0324,0.013523,0.002678,0.000431,0.004584
123674000,0.0324,0.013523,0.002678,0.000431,0.005759
123675000,0.0324,0.013523,0.002678,0.000431,0.007639
123676000,0.0324,0.013523,0.002678,0.000431,0.004584
123677000,0.0324,0.013523,0.002678,0.000431,0.003878
123678000,0.0324,0.013523,0.002678,0.000431,0.003761
123679000,0.0324,0.013523,0.002678,0.000431,0.003526
123680000,0.0324,0.013523,0.002678,0.000431,0.002703
123681000,0.0324,0.013523,0.002678,0.000431,0.003408
123682000,0.0324,0.013523,0.002678,0.000431,0.003056
123683000,0.0324,0.013523,0.002678,0.000431,0.002703
123684000,0.0324,0.013523,0.002678,0.000431,0.003526
123685000,0.0324,0.013523,0.002678,0.000431,0.002703
123686000,0.0324,0.013523,0.002678,0.000431,0.003056
123687000,0.0324,0.013523,0.002678,0.000431,0.003173
123688000,0.0324,0.013523,0.002678,0.000431,0.002938
123689000,0.0324,0.013523,0.002678,0.000431,0.003173
123690000,0.0324,0.013523,0.002678,0.000431,0.002821
123691000,0.0324,0.013523,0.002678,0.000431,0.007404
123692000,0.0324,0.013523,0.002678,0.000431,0.001998
123693000,0.0324,0.013523,0.002678,0.000431,0.002351
123694000,0.0324,0.013523,0.002678,0.000431,0.001998
123695000,0.0324,0.013523,0.002678,0.000431,0.002116
123696000,0.0324,0.013523,0.002678,0.000431,0.002821
123697000,0.0324,0.013523,0.002678,0.000431,0.001998
123698000,0.0324,0.013523,0.002678,0.000431,0.002468
123699000,0.0324,0.013523,0.002678,0.000431,0.002586
123700000,0.0324,0.013523,0.002678,0.000431,0.002116
123701000,0.0324,0.013523,0.002678,0.000431,0.002233
123702000,0.0324,0.013523,0.002678,0.000431,0.002351
123703000,0.0324,0.013523,0.002678,0.000431,0.002468
123704000,0.0324,0.013523,0.002678,0.000431,0.002351
123705000,0.0324,0.013523,0.002678,0.000431,0.001880
123706000,0.0324,0.013523,0.002678,0.000431,0.002586
123707000,0.0324,0.013523,0.002678,0.000431,0.001880
123708000,0.0324,0.013523,0.002678,0.000431,0.002468
123709000,0.0324,0.013523,0.002678,0.000431,0.002233
123710000,0.0324,0.013523,0.002678,0.000431,0.002233
123711000,0.0324,0.013523,0.002678,0.000431,0.002703
123712000,0.0324,0.013523,0.002678,0.000431,0.001763
123713000,0.0324,0.013523,0.002678,0.000431,0.002233
123714000,0.0324,0.013523,0.002678,0.000431,0.002586
123715000,0.0324,0.013523,0.002678,0.000431,0.002351
123716000,0.0324,0.013523,0.002678,0.000431,0.002468
123717000,0.0324,0.013523,0.002678,0.000431,0.002233
123718000,0.0324,0.013523,0.002678,0.000431,0.001763
123719000,0.0324,0.013523,0.002678,0.000431,0.005289
123720000,0.0324,0.013523,0.002678,0.000431,0.000823
123721000,0.0324,0.013523,0.002678,0.000431,0.000823
123722000,0.0324,0.013523,0.002678,0.000431,0.000940
123723000,0.0324,0.013523,0.002678,0.000431,0.000940
123724000,0.0324,0.013523,0.002678,0.000431,0.000823
123725000,0.0324,0.013523,0.002678,0.000431,0.000823
123726000,0.0324,0.013523,0.002678,0.000431,0.000940
123727000,0.0324,0.013523,0.002678,0.000431,0.000940
123728000,0.0324,0.013523,0.002678,0.000431,0.000823
123729000,0.0324,0.013523,0.002678,0.000431,0.000823
123730000,0.0324,0.013523,0.002678,0.000431,0.000940
123731000,0.0324,0.013523,0.002678,0.000431,0.000940
123732000,0.0324,0.013523,0.002678,0.000431,0.170768
123733000,0.0324,0.013523,0.002678,0.000431,0.752415
123734000,0.0324,0.013523,0.002678,0.000431,0.529464
123735000,0.0324,0.013523,0.002678,0.000431,0.177585
123736000,0.0324,0.013523,0.002678,0.000431,0.227300
123737000,0.0324,0.013523,0.002678,0.000431,0.587406
123738000,0.0324,0.013523,0.002678,0.000431,0.273723
123739000,0.0324,0.013523,0.002678,0.000431,0.353407
123740000,0.0324,0.013523,0.002678,0.000431,0.157488
123741000,0.0324,0.013523,0.002678,0.000431,0.134452
123742000,0.0324,0.013523,0.002678,0.000431,0.241520
123743000,0.0324,0.013523,0.002678,0.000431,0.542863
123744000,0.0324,0.013523,0.002678,0.000431,0.263146
123745000,0.0324,0.013523,0.002678,0.000431,0.252921
123746000,0.0324,0.013523,0.002678,0.000431,0.223656
123747000,0.0324,0.013523,0.002678,0.000431,0.208848
123748000,0.0324,0.013523,0.002678,0.000431,0.186635
123749000,0.0324,0.013523,0.002678,0.000431,0.190983
123750000,0.0324,0.013523,0.002678,0.000431,0.164892
123751000,0.0324,0.013523,0.002678,0.000431,0.143502
123752000,0.0324,0.013523,0.002678,0.000431,0.128928
123753000,0.0324,0.013523,0.002678,0.000431,0.106010
123754000,0.0324,0.013523,0.002678,0.000431,0.103307
123755000,0.0324,0.013523,0.002678,0.000431,0.096961
123756000,0.0324,0.013523,0.002678,0.000431,0.091437
123757000,0.0324,0.013523,0.002678,0.000431,0.079684
123758000,0.0324,0.013523,0.002678,0.000431,0.073925
123759000,0.0324,0.013523,0.002678,0.000431,0.058294
123760000,0.0324,0.013523,0.002678,0.000431,0.057824
123761000,0.0324,0.013523,0.002678,0.000431,0.050537
123762000,0.0324,0.013523,0.002678,0.000431,0.043838
123763000,0.0324,0.013523,0.002678,0.000431,0.034318
123764000,0.0324,0.013523,0.002678,0.000431,0.038784
123765000,0.0324,0.013523,0.002678,0.000431,0.033966
123766000,0.0324,0.013523,0.002678,0.000431,0.023976
123767000,0.0324,0.013523,0.002678,0.000431,0.023858
123768000,0.0324,0.013523,0.002678,0.000431,0.024798
123769000,0.0324,0.013523,0.002678,0.000431,0.020802
123770000,0.0324,0.013523,0.002678,0.000431,0.021273
123771000,0.0324,0.013523,0.002678,0.000431,0.023858
123772000,0.0324,0.013523,0.002678,0.000431,0.014926
123773000,0.0324,0.013523,0.002678,0.000431,0.011518
123774000,0.0324,0.013523,0.002678,0.000431,0.014103
123775000,0.0324,0.013523,0.002678,0.000431,0.009167
123776000,0.0324,0.013523,0.002678,0.000431,0.009990
123777000,0.0324,0.013523,0.002678,0.000431,0.006817
123778000,0.0324,0.013523,0.002678,0.000431,0.007639
123779000,0.0324,0.013523,0.002678,0.000431,0.006582
123780000,0.0324,0.013523,0.002678,0.000431,0.007522
123781000,0.0324,0.013523,0.002678,0.000431,0.006699
123782000,0.0324,0.013523,0.002678,0.000431,0.004819
123783000,0.0324,0.013523,0.002678,0.000431,0.005054
123784000,0.0324,0.013523,0.002678,0.000431,0.005054
123785000,0.0324,0.013523,0.002678,0.000431,0.005171
123786000,0.0324,0.013523,0.002678,0.000431,0.005171
123787000,0.0324,0.013523,0.002678,0.000431,0.004819
123788000,0.0324,0.013523,0.002678,0.000431,0.005171
123789000,0.0324,0.013523,0.002678,0.000431,0.004936
123790000,0.0324,0.013523,0.002678,0.000431,0.004819
123791000,0.0324,0.013523,0.002678,0.000431,0.006229
123792000,0.0324,0.013523,0.002678,0.000431,0.002468
123793000,0.0324,0.013523,0.002678,0.000431,0.002586
123794000,0.0324,0.013523,0.002678,0.000431,0.002468
123795000,0.0324,0.013523,0.002678,0.000431,0.002586
123796000,0.0324,0.013523,0.002678,0.000431,0.002586
123797000,0.0324,0.013523,0.002678,0.000431,0.004584
123798000,0.0324,0.013523,0.002678,0.000431,0.003526
123799000,0.0324,0.013523,0.002678,0.000431,0.000823
123800000,0.0324,0.013523,0.002678,0.000431,0.000823
123801000,0.0324,0.013523,0.002678,0.000431,0.000823
123802000,0.0324,0.013523,0.002678,0.000431,0.000940
123803000,0.0324,0.013523,0.002678,0.000431,0.072750
123804000,0.0324,0.013523,0.002678,0.000431,0.789554
123805000,0.0324,0.013523,0.002678,0.000431,0.559787
123806000,0.0324,0.013523,0.002678,0.000431,0.148791
123807000,0.0324,0.013523,0.002678,0.000431,0.181228
123808000,0.0324,0.013523,0.002678,0.000431,0.583292
123809000,0.0324,0.013523,0.002678,0.000431,0.262911
123810000,0.0324,0.013523,0.002678,0.000431,0.365278
123811000,0.0324,0.013523,0.002678,0.000431,0.150789
123812000,0.0324,0.013523,0.002678,0.000431,0.152669
123813000,0.0324,0.013523,0.002678,0.000431,0.185342
123814000,0.0324,0.013523,0.002678,0.000431,0.535458
123815000,0.0324,0.013523,0.002678,0.000431,0.263616
123816000,0.0324,0.013523,0.002678,0.000431,0.220483
123817000,0.0324,0.013523,0.002678,0.000431,0.184284
123818000,0.0324,0.013523,0.002678,0.000431,0.159486
123819000,0.0324,0.013523,0.002678,0.000431,0.146323
123820000,0.0324,0.013523,0.002678,0.000431,0.140799
123821000,0.0324,0.013523,0.002678,0.000431,0.128576
123822000,0.0324,0.013523,0.002678,0.000431,0.113885
123823000,0.0324,0.013523,0.002678,0.000431,0.102485
123824000,0.0324,0.013523,0.002678,0.000431,0.099429
123825000,0.0324,0.013523,0.002678,0.000431,0.082857
123826000,0.0324,0.013523,0.002678,0.000431,0.076393
123827000,0.0324,0.013523,0.002678,0.000431,0.072985
123828000,0.0324,0.013523,0.002678,0.000431,0.065346
123829000,0.0324,0.013523,0.002678,0.000431,0.057589
123830000,0.0324,0.013523,0.002678,0.000431,0.054533
123831000,0.0324,0.013523,0.002678,0.000431,0.054886
123832000,0.0324,0.013523,0.002678,0.000431,0.044778
123833000,0.0324,0.013523,0.002678,0.000431,0.045601
123834000,0.0324,0.013523,0.002678,0.000431,0.031262
123835000,0.0324,0.013523,0.002678,0.000431,0.036081
123836000,0.0324,0.013523,0.002678,0.000431,0.028324
123837000,0.0324,0.013523,0.002678,0.000431,0.021390
123838000,0.0324,0.013523,0.002678,0.000431,0.029852
123839000,0.0324,0.013523,0.002678,0.000431,0.015044
123840000,0.0324,0.013523,0.002678,0.000431,0.015866
123841000,0.0324,0.013523,0.002678,0.000431,0.019745
123842000,0.0324,0.013523,0.002678,0.000431,0.015396
123843000,0.0324,0.013523,0.002678,0.000431,0.008697
123844000,0.0324,0.013523,0.002678,0.000431,0.006817
123845000,0.0324,0.013523,0.002678,0.000431,0.006817
123846000,0.0324,0.013523,0.002678,0.000431,0.006699
123847000,0.0324,0.013523,0.002678,0.000431,0.007992
123848000,0.0324,0.013523,0.002678,0.000431,0.006934
123849000,0.0324,0.013523,0.002678,0.000431,0.006229
123850000,0.0324,0.013523,0.002678,0.000431,0.005759
123851000,0.0324,0.013523,0.002678,0.000431,0.007757
123852000,0.0324,0.013523,0.002678,0.000431,0.006817
123853000,0.0324,0.013523,0.002678,0.000431,0.006582
123854000,0.0324,0.013523,0.002678,0.000431,0.004231
123855000,0.0324,0.013523,0.002678,0.000431,0.003996
123856000,0.0324,0.013523,0.002678,0.000431,0.004349
123857000,0.0324,0.013523,0.002678,0.000431,0.005054
123858000,0.0324,0.013523,0.002678,0.000431,0.004936
123859000,0.0324,0.013523,0.002678,0.000431,0.007287
123860000,0.0324,0.013523,0.002678,0.000431,0.000940
123861000,0.0324,0.013523,0.002678,0.000431,0.000823
123862000,0.0324,0.013523,0.002678,0.000431,0.000705
123863000,0.0324,0.013523,0.002678,0.000431,0.072750
123864000,0.0324,0.013523,0.002678,0.000431,0.749712
123865000,0.0324,0.013523,0.002678,0.000431,0.596691
123866000,0.0324,0.013523,0.002678,0.000431,0.146205
123867000,0.0324,0.013523,0.002678,0.000431,0.158546
123868000,0.0324,0.013523,0.002678,0.000431,0.615730
123869000,0.0324,0.013523,0.002678,0.000431,0.267024
123870000,0.0324,0.013523,0.002678,0.000431,0.377265
123871000,0.0324,0.013523,0.002678,0.000431,0.185224
123872000,0.0324,0.013523,0.002678,0.000431,0.153139
123873000,0.0324,0.013523,0.002678,0.000431,0.146910
123874000,0.0324,0.013523,0.002678,0.000431,0.568131
123875000,0.0324,0.013523,0.002678,0.000431,0.353407
123876000,0.0324,0.013523,0.002678,0.000431,0.257739
123877000,0.0324,0.013523,0.002678,0.000431,0.225184
123878000,0.0324,0.013523,0.002678,0.000431,0.183109
123879000,0.0324,0.013523,0.002678,0.000431,0.172649
123880000,0.0324,0.013523,0.002678,0.000431,0.160308
123881000,0.0324,0.013523,0.002678,0.000431,0.129281
123882000,0.0324,0.013523,0.002678,0.000431,0.117176
123883000,0.0324,0.013523,0.002678,0.000431,0.104012
123884000,0.0324,0.013523,0.002678,0.000431,0.078039
123885000,0.0324,0.013523,0.002678,0.000431,0.059117
123886000,0.0324,0.013523,0.002678,0.000431,0.071810
123887000,0.0324,0.013523,0.002678,0.000431,0.050537
123888000,0.0324,0.013523,0.002678,0.000431,0.052653
123889000,0.0324,0.013523,0.002678,0.000431,0.042193
123890000,0.0324,0.013523,0.002678,0.000431,0.039960
123891000,0.0324,0.013523,0.002678,0.000431,0.034553
123892000,0.0324,0.013523,0.002678,0.000431,0.039254
123893000,0.0324,0.013523,0.002678,0.000431,0.025151
123894000,0.0324,0.013523,0.002678,0.000431,0.021038
123895000,0.0324,0.013523,0.002678,0.000431,0.020450
123896000,0.0324,0.013523,0.002678,0.000431,0.013868
123897000,0.0324,0.013523,0.002678,0.000431,0.011518
123898000,0.0324,0.013523,0.002678,0.000431,0.010813
123899000,0.0324,0.013523,0.002678,0.000431,0.009755
123900000,0.0324,0.013523,0.002678,0.000431,0.015984
123901000,0.0324,0.013523,0.002678,0.000431,0.008815
123902000,0.0324,0.013523,0.002678,0.000431,0.011870
123903000,0.0324,0.013523,0.002678,0.000431,0.007052
123904000,0.0324,0.013523,0.002678,0.000431,0.007287
123905000,0.0324,0.013523,0.002678,0.000431,0.008815
123906000,0.0324,0.013523,0.002678,0.000431,0.005994
123907000,0.0324,0.013523,0.002678,0.000431,0.005759
123908000,0.0324,0.013523,0.002678,0.000431,0.006111
123909000,0.0324,0.013523,0.002678,0.000431,0.006934
123910000,0.0324,0.013523,0.002678,0.000431,0.006229
123911000,0.0324,0.013523,0.002678,0.000431,0.005524
123912000,0.0324,0.013523,0.002678,0.000431,0.004701
123913000,0.0324,0.013523,0.002678,0.000431,0.005406
123914000,0.0324,0.013523,0.002678,0.000431,0.002703
123915000,0.0324,0.013523,0.002678,0.000431,0.004936
123916000,0.0324,0.013523,0.002678,0.000431,0.001528
123917000,0.0324,0.013523,0.002678,0.000431,0.001763
123918000,0.0324,0.013523,0.002678,0.000431,0.004936
123919000,0.0324,0.013523,0.002678,0.000431,0.001058
123920000,0.0324,0.013523,0.002678,0.000431,0.000823
123921000,0.0324,0.013523,0.002678,0.000431,0.000823
123922000,0.0324,0.013523,0.002678,0.000431,0.000823
123923000,0.0324,0.013523,0.002678,0.000431,0.000823
123924000,0.0324,0.013523,0.002678,0.000431,0.000940
123925000,0.0324,0.013523,0.002678,0.000431,0.000705
123926000,0.0324,0.013523,0.002678,0.000431,0.000940
123927000,0.0324,0.013523,0.002678,0.000431,0.000823
123928000,0.0324,0.013523,0.002678,0.000431,0.000823
123929000,0.0324,0.013523,0.002678,0.000431,0.000940
123930000,0.0324,0.013523,0.002678,0.000431,0.104718
123931000,0.0324,0.013523,0.002678,0.000431,0.896858
123932000,0.0324,0.013523,0.002678,0.000431,0.544038
123933000,0.0324,0.013523,0.002678,0.000431,0.179348
123934000,0.0324,0.013523,0.002678,0.000431,0.291587
123935000,0.0324,0.013523,0.002678,0.000431,0.504901
123936000,0.0324,0.013523,0.002678,0.000431,0.330019
123937000,0.0324,0.013523,0.002678,0.000431,0.275721
123938000,0.0324,0.013523,0.002678,0.000431,0.164304
123939000,0.0324,0.013523,0.002678,0.000431,0.100016
123940000,0.0324,0.013523,0.002678,0.000431,0.537339
123941000,0.0324,0.013523,0.002678,0.000431,0.392309
123942000,0.0324,0.013523,0.002678,0.000431,0.276191
123943000,0.0324,0.013523,0.002678,0.000431,0.247514
123944000,0.0324,0.013523,0.002678,0.000431,0.209435
123945000,0.0324,0.013523,0.002678,0.000431,0.194509
123946000,0.0324,0.013523,0.002678,0.000431,0.170533
123947000,0.0324,0.013523,0.002678,0.000431,0.136098
123948000,0.0324,0.013523,0.002678,0.000431,0.130926
123949000,0.0324,0.013523,0.002678,0.000431,0.121877
123950000,0.0324,0.013523,0.002678,0.000431,0.102837
123951000,0.0324,0.013523,0.002678,0.000431,0.108008
123952000,0.0324,0.013523,0.002678,0.000431,0.077921
123953000,0.0324,0.013523,0.002678,0.000431,0.072632
123954000,0.0324,0.013523,0.002678,0.000431,0.052770
123955000,0.0324,0.013523,0.002678,0.000431,0.060527
123956000,0.0324,0.013523,0.002678,0.000431,0.047129
123957000,0.0324,0.013523,0.002678,0.000431,0.034906
123958000,0.0324,0.013523,0.002678,0.000431,0.033496
123959000,0.0324,0.013523,0.002678,0.000431,0.040312
123960000,0.0324,0.013523,0.002678,0.000431,0.035611
123961000,0.0324,0.013523,0.002678,0.000431,0.027149
123962000,0.0324,0.013523,0.002678,0.000431,0.026326
123963000,0.0324,0.013523,0.002678,0.000431,0.019510
123964000,0.0324,0.013523,0.002678,0.000431,0.021038
123965000,0.0324,0.013523,0.002678,0.000431,0.015866
123966000,0.0324,0.013523,0.002678,0.000431,0.013516
123967000,0.0324,0.013523,0.002678,0.000431,0.007639
123968000,0.0324,0.013523,0.002678,0.000431,0.006699
123969000,0.0324,0.013523,0.002678,0.000431,0.006111
123970000,0.0324,0.013523,0.002678,0.000431,0.005289
123971000,0.0324,0.013523,0.002678,0.000431,0.004231
123972000,0.0324,0.013523,0.002678,0.000431,0.006699
123973000,0.0324,0.013523,0.002678,0.000431,0.002703
123974000,0.0324,0.013523,0.002678,0.000431,0.002586
123975000,0.0324,0.013523,0.002678,0.000431,0.002468
123976000,0.0324,0.013523,0.002678,0.000431,0.004936
123977000,0.0324,0.013523,0.002678,0.000431,0.001763
123978000,0.0324,0.013523,0.002678,0.000431,0.001528
123979000,0.0324,0.013523,0.002678,0.000431,0.001763
123980000,0.0324,0.013523,0.002678,0.000431,0.001528
123981000,0.0324,0.013523,0.002678,0.000431,0.001763
123982000,0.0324,0.013523,0.002678,0.000431,0.003173
123983000,0.0324,0.013523,0.002678,0.000431,0.002821
123984000,0.0324,0.013523,0.002678,0.000431,0.000823
123985000,0.0324,0.013523,0.002678,0.000431,0.000823
123986000,0.0324,0.013523,0.002678,0.000431,0.000823
123987000,0.0324,0.013523,0.002678,0.000431,0.000823
123988000,0.0324,0.013523,0.002678,0.000431,0.000940
123989000,0.0324,0.013523,0.002678,0.000431,0.000705
123990000,0.0324,0.013523,0.002678,0.000431,0.000823
123991000,0.0324,0.013523,0.002678,0.000431,0.000823
123992000,0.0324,0.013523,0.002678,0.000431,0.000705
123993000,0.0324,0.013523,0.002678,0.000431,0.000940
123994000,0.0324,0.013523,0.002678,0.000431,0.000823
123995000,0.0324,0.013523,0.002678,0.000431,0.000705
123996000,0.0324,0.013523,0.002678,0.000431,0.000940
123997000,0.0324,0.013523,0.002678,0.000431,0.000823
123998000,0.0324,0.013523,0.002678,0.000431,0.000823
123999000,0.0324,0.013523,0.002678,0.000431,0.000823
