Cycle,Area(mm^2),PeakDynamic(W),SubthresholdLeakage(W),GateLeakage(W),RunTimeDynamic(W)
28000000,0.0324,0.013523,0.002678,0.000431,0.076276
28001000,0.0324,0.013523,0.002678,0.000431,0.068284
28002000,0.0324,0.013523,0.002678,0.000431,0.062760
28003000,0.0324,0.013523,0.002678,0.000431,0.047481
28004000,0.0324,0.013523,0.002678,0.000431,0.042898
28005000,0.0324,0.013523,0.002678,0.000431,0.034436
28006000,0.0324,0.013523,0.002678,0.000431,0.024328
28007000,0.0324,0.013523,0.002678,0.000431,0.023741
28008000,0.0324,0.013523,0.002678,0.000431,0.023506
28009000,0.0324,0.013523,0.002678,0.000431,0.021508
28010000,0.0324,0.013523,0.002678,0.000431,0.024798
28011000,0.0324,0.013523,0.002678,0.000431,0.022330
28012000,0.0324,0.013523,0.002678,0.000431,0.011400
28013000,0.0324,0.013523,0.002678,0.000431,0.013398
28014000,0.0324,0.013523,0.002678,0.000431,0.012340
28015000,0.0324,0.013523,0.002678,0.000431,0.008815
28016000,0.0324,0.013523,0.002678,0.000431,0.009285
28017000,0.0324,0.013523,0.002678,0.000431,0.012811
28018000,0.0324,0.013523,0.002678,0.000431,0.004231
28019000,0.0324,0.013523,0.002678,0.000431,0.008109
28020000,0.0324,0.013523,0.002678,0.000431,0.001763
28021000,0.0324,0.013523,0.002678,0.000431,0.002468
28022000,0.0324,0.013523,0.002678,0.000431,0.002116
28023000,0.0324,0.013523,0.002678,0.000431,0.000705
28024000,0.0324,0.013523,0.002678,0.000431,0.000940
28025000,0.0324,0.013523,0.002678,0.000431,0.071575
28026000,0.0324,0.013523,0.002678,0.000431,0.586113
28027000,0.0324,0.013523,0.002678,0.000431,0.588934
28028000,0.0324,0.013523,0.002678,0.000431,0.136803
28029000,0.0324,0.013523,0.002678,0.000431,0.133512
28030000,0.0324,0.013523,0.002678,0.000431,0.575300
28031000,0.0324,0.013523,0.002678,0.000431,0.268199
28032000,0.0324,0.013523,0.002678,0.000431,0.236937
28033000,0.0324,0.013523,0.002678,0.000431,0.284066
28034000,0.0324,0.013523,0.002678,0.000431,0.141621
28035000,0.0324,0.013523,0.002678,0.000431,0.152434
28036000,0.0324,0.013523,0.002678,0.000431,0.109066
28037000,0.0324,0.013523,0.002678,0.000431,0.453306
28038000,0.0324,0.013523,0.002678,0.000431,0.189573
28039000,0.0324,0.013523,0.002678,0.000431,0.120701
28040000,0.0324,0.013523,0.002678,0.000431,0.104483
28041000,0.0324,0.013523,0.002678,0.000431,0.091672
28042000,0.0324,0.013523,0.002678,0.000431,0.079214
28043000,0.0324,0.013523,0.002678,0.000431,0.068754
28044000,0.0324,0.013523,0.002678,0.000431,0.065111
28045000,0.0324,0.013523,0.002678,0.000431,0.060997
28046000,0.0324,0.013523,0.002678,0.000431,0.046541
28047000,0.0324,0.013523,0.002678,0.000431,0.052888
28048000,0.0324,0.013523,0.002678,0.000431,0.041605
28049000,0.0324,0.013523,0.002678,0.000431,0.036199
28050000,0.0324,0.013523,0.002678,0.000431,0.033496
28051000,0.0324,0.013523,0.002678,0.000431,0.031498
28052000,0.0324,0.013523,0.002678,0.000431,0.021038
28053000,0.0324,0.013523,0.002678,0.000431,0.022213
28054000,0.0324,0.013523,0.002678,0.000431,0.021978
28055000,0.0324,0.013523,0.002678,0.000431,0.025034
28056000,0.0324,0.013523,0.002678,0.000431,0.014691
28057000,0.0324,0.013523,0.002678,0.000431,0.014338
28058000,0.0324,0.013523,0.002678,0.000431,0.008462
28059000,0.0324,0.013523,0.002678,0.000431,0.007992
28060000,0.0324,0.013523,0.002678,0.000431,0.009755
28061000,0.0324,0.013523,0.002678,0.000431,0.007052
28062000,0.0324,0.013523,0.002678,0.000431,0.006582
28063000,0.0324,0.013523,0.002678,0.000431,0.007287
28064000,0.0324,0.013523,0.002678,0.000431,0.006347
28065000,0.0324,0.013523,0.002678,0.000431,0.006582
28066000,0.0324,0.013523,0.002678,0.000431,0.008227
28067000,0.0324,0.013523,0.002678,0.000431,0.005876
28068000,0.0324,0.013523,0.002678,0.000431,0.005524
28069000,0.0324,0.013523,0.002678,0.000431,0.005759
28070000,0.0324,0.013523,0.002678,0.000431,0.004936
28071000,0.0324,0.013523,0.002678,0.000431,0.005524
28072000,0.0324,0.013523,0.002678,0.000431,0.003643
28073000,0.0324,0.013523,0.002678,0.000431,0.007404
28074000,0.0324,0.013523,0.002678,0.000431,0.005054
28075000,0.0324,0.013523,0.002678,0.000431,0.000940
28076000,0.0324,0.013523,0.002678,0.000431,0.000705
28077000,0.0324,0.013523,0.002678,0.000431,0.000940
28078000,0.0324,0.013523,0.002678,0.000431,0.000823
28079000,0.0324,0.013523,0.002678,0.000431,0.000823
28080000,0.0324,0.013523,0.002678,0.000431,0.000940
28081000,0.0324,0.013523,0.002678,0.000431,0.000705
28082000,0.0324,0.013523,0.002678,0.000431,0.000940
28083000,0.0324,0.013523,0.002678,0.000431,0.000823
28084000,0.0324,0.013523,0.002678,0.000431,0.000823
28085000,0.0324,0.013523,0.002678,0.000431,0.000823
28086000,0.0324,0.013523,0.002678,0.000431,0.000823
28087000,0.0324,0.013523,0.002678,0.000431,0.000823
28088000,0.0324,0.013523,0.002678,0.000431,0.000823
28089000,0.0324,0.013523,0.002678,0.000431,0.000940
28090000,0.0324,0.013523,0.002678,0.000431,0.001645
28091000,0.0324,0.013523,0.002678,0.000431,0.414052
28092000,0.0324,0.013523,0.002678,0.000431,0.727970
28093000,0.0324,0.013523,0.002678,0.000431,0.143972
28094000,0.0324,0.013523,0.002678,0.000431,0.135392
28095000,0.0324,0.013523,0.002678,0.000431,0.182756
28096000,0.0324,0.013523,0.002678,0.000431,0.579061
28097000,0.0324,0.013523,0.002678,0.000431,0.279835
28098000,0.0324,0.013523,0.002678,0.000431,0.312625
28099000,0.0324,0.013523,0.002678,0.000431,0.202619
28100000,0.0324,0.013523,0.002678,0.000431,0.139741
28101000,0.0324,0.013523,0.002678,0.000431,0.122112
28102000,0.0324,0.013523,0.002678,0.000431,0.328961
28103000,0.0324,0.013523,0.002678,0.000431,0.317679
28104000,0.0324,0.013523,0.002678,0.000431,0.109889
28105000,0.0324,0.013523,0.002678,0.000431,0.097313
28106000,0.0324,0.013523,0.002678,0.000431,0.081094
28107000,0.0324,0.013523,0.002678,0.000431,0.070282
28108000,0.0324,0.013523,0.002678,0.000431,0.056649
28109000,0.0324,0.013523,0.002678,0.000431,0.047246
28110000,0.0324,0.013523,0.002678,0.000431,0.039842
28111000,0.0324,0.013523,0.002678,0.000431,0.032320
28112000,0.0324,0.013523,0.002678,0.000431,0.026326
28113000,0.0324,0.013523,0.002678,0.000431,0.016924
28114000,0.0324,0.013523,0.002678,0.000431,0.016689
28115000,0.0324,0.013523,0.002678,0.000431,0.011400
28116000,0.0324,0.013523,0.002678,0.000431,0.005876
28117000,0.0324,0.013523,0.002678,0.000431,0.003291
28118000,0.0324,0.013523,0.002678,0.000431,0.003526
28119000,0.0324,0.013523,0.002678,0.000431,0.004819
28120000,0.0324,0.013523,0.002678,0.000431,0.002586
28121000,0.0324,0.013523,0.002678,0.000431,0.002586
28122000,0.0324,0.013523,0.002678,0.000431,0.002821
28123000,0.0324,0.013523,0.002678,0.000431,0.002233
28124000,0.0324,0.013523,0.002678,0.000431,0.002703
28125000,0.0324,0.013523,0.002678,0.000431,0.004701
28126000,0.0324,0.013523,0.002678,0.000431,0.001645
28127000,0.0324,0.013523,0.002678,0.000431,0.001880
28128000,0.0324,0.013523,0.002678,0.000431,0.001528
28129000,0.0324,0.013523,0.002678,0.000431,0.001880
28130000,0.0324,0.013523,0.002678,0.000431,0.001528
28131000,0.0324,0.013523,0.002678,0.000431,0.001763
28132000,0.0324,0.013523,0.002678,0.000431,0.001880
28133000,0.0324,0.013523,0.002678,0.000431,0.003056
28134000,0.0324,0.013523,0.002678,0.000431,0.106010
28135000,0.0324,0.013523,0.002678,0.000431,0.598571
28136000,0.0324,0.013523,0.002678,0.000431,0.552970
28137000,0.0324,0.013523,0.002678,0.000431,0.133630
28138000,0.0324,0.013523,0.002678,0.000431,0.133394
28139000,0.0324,0.013523,0.002678,0.000431,0.578944
28140000,0.0324,0.013523,0.002678,0.000431,0.235526
28141000,0.0324,0.013523,0.002678,0.000431,0.319912
28142000,0.0324,0.013523,0.002678,0.000431,0.244341
28143000,0.0324,0.013523,0.002678,0.000431,0.144560
28144000,0.0324,0.013523,0.002678,0.000431,0.168065
28145000,0.0324,0.013523,0.002678,0.000431,0.145617
28146000,0.0324,0.013523,0.002678,0.000431,0.464354
28147000,0.0324,0.013523,0.002678,0.000431,0.110359
28148000,0.0324,0.013523,0.002678,0.000431,0.088616
28149000,0.0324,0.013523,0.002678,0.000431,0.077216
28150000,0.0324,0.013523,0.002678,0.000431,0.073925
28151000,0.0324,0.013523,0.002678,0.000431,0.058412
28152000,0.0324,0.013523,0.002678,0.000431,0.053945
28153000,0.0324,0.013523,0.002678,0.000431,0.058999
28154000,0.0324,0.013523,0.002678,0.000431,0.043133
28155000,0.0324,0.013523,0.002678,0.000431,0.037962
28156000,0.0324,0.013523,0.002678,0.000431,0.033260
28157000,0.0324,0.013523,0.002678,0.000431,0.026091
28158000,0.0324,0.013523,0.002678,0.000431,0.025739
28159000,0.0324,0.013523,0.002678,0.000431,0.022565
28160000,0.0324,0.013523,0.002678,0.000431,0.017394
28161000,0.0324,0.013523,0.002678,0.000431,0.016219
28162000,0.0324,0.013523,0.002678,0.000431,0.012693
28163000,0.0324,0.013523,0.002678,0.000431,0.014221
28164000,0.0324,0.013523,0.002678,0.000431,0.010813
28165000,0.0324,0.013523,0.002678,0.000431,0.011988
28166000,0.0324,0.013523,0.002678,0.000431,0.008815
28167000,0.0324,0.013523,0.002678,0.000431,0.009285
28168000,0.0324,0.013523,0.002678,0.000431,0.005406
28169000,0.0324,0.013523,0.002678,0.000431,0.006582
28170000,0.0324,0.013523,0.002678,0.000431,0.007169
28171000,0.0324,0.013523,0.002678,0.000431,0.004584
28172000,0.0324,0.013523,0.002678,0.000431,0.002351
28173000,0.0324,0.013523,0.002678,0.000431,0.002586
28174000,0.0324,0.013523,0.002678,0.000431,0.002468
28175000,0.0324,0.013523,0.002678,0.000431,0.002468
28176000,0.0324,0.013523,0.002678,0.000431,0.002351
28177000,0.0324,0.013523,0.002678,0.000431,0.002468
28178000,0.0324,0.013523,0.002678,0.000431,0.002233
28179000,0.0324,0.013523,0.002678,0.000431,0.002586
28180000,0.0324,0.013523,0.002678,0.000431,0.004466
28181000,0.0324,0.013523,0.002678,0.000431,0.001293
28182000,0.0324,0.013523,0.002678,0.000431,0.001058
28183000,0.0324,0.013523,0.002678,0.000431,0.001528
28184000,0.0324,0.013523,0.002678,0.000431,0.001645
28185000,0.0324,0.013523,0.002678,0.000431,0.001528
28186000,0.0324,0.013523,0.002678,0.000431,0.000823
28187000,0.0324,0.013523,0.002678,0.000431,0.000823
28188000,0.0324,0.013523,0.002678,0.000431,0.000823
28189000,0.0324,0.013523,0.002678,0.000431,0.000823
28190000,0.0324,0.013523,0.002678,0.000431,0.000940
28191000,0.0324,0.013523,0.002678,0.000431,0.000823
28192000,0.0324,0.013523,0.002678,0.000431,0.072162
28193000,0.0324,0.013523,0.002678,0.000431,0.589991
28194000,0.0324,0.013523,0.002678,0.000431,0.557436
28195000,0.0324,0.013523,0.002678,0.000431,0.137273
28196000,0.0324,0.013523,0.002678,0.000431,0.132689
28197000,0.0324,0.013523,0.002678,0.000431,0.589874
28198000,0.0324,0.013523,0.002678,0.000431,0.237877
28199000,0.0324,0.013523,0.002678,0.000431,0.284066
28200000,0.0324,0.013523,0.002678,0.000431,0.286416
28201000,0.0324,0.013523,0.002678,0.000431,0.139388
28202000,0.0324,0.013523,0.002678,0.000431,0.165362
28203000,0.0324,0.013523,0.002678,0.000431,0.106363
28204000,0.0324,0.013523,0.002678,0.000431,0.460946
28205000,0.0324,0.013523,0.002678,0.000431,0.138448
28206000,0.0324,0.013523,0.002678,0.000431,0.099311
28207000,0.0324,0.013523,0.002678,0.000431,0.074983
28208000,0.0324,0.013523,0.002678,0.000431,0.073455
28209000,0.0324,0.013523,0.002678,0.000431,0.060762
28210000,0.0324,0.013523,0.002678,0.000431,0.045013
28211000,0.0324,0.013523,0.002678,0.000431,0.043250
28212000,0.0324,0.013523,0.002678,0.000431,0.031615
28213000,0.0324,0.013523,0.002678,0.000431,0.028794
28214000,0.0324,0.013523,0.002678,0.000431,0.028324
28215000,0.0324,0.013523,0.002678,0.000431,0.028559
28216000,0.0324,0.013523,0.002678,0.000431,0.024211
28217000,0.0324,0.013523,0.002678,0.000431,0.016454
28218000,0.0324,0.013523,0.002678,0.000431,0.012105
28219000,0.0324,0.013523,0.002678,0.000431,0.012223
28220000,0.0324,0.013523,0.002678,0.000431,0.015514
28221000,0.0324,0.013523,0.002678,0.000431,0.008345
28222000,0.0324,0.013523,0.002678,0.000431,0.006699
28223000,0.0324,0.013523,0.002678,0.000431,0.004466
28224000,0.0324,0.013523,0.002678,0.000431,0.005641
28225000,0.0324,0.013523,0.002678,0.000431,0.003408
28226000,0.0324,0.013523,0.002678,0.000431,0.005524
28227000,0.0324,0.013523,0.002678,0.000431,0.002468
28228000,0.0324,0.013523,0.002678,0.000431,0.002468
28229000,0.0324,0.013523,0.002678,0.000431,0.002468
28230000,0.0324,0.013523,0.002678,0.000431,0.004466
28231000,0.0324,0.013523,0.002678,0.000431,0.001645
28232000,0.0324,0.013523,0.002678,0.000431,0.003291
28233000,0.0324,0.013523,0.002678,0.000431,0.000940
28234000,0.0324,0.013523,0.002678,0.000431,0.000705
28235000,0.0324,0.013523,0.002678,0.000431,0.000940
28236000,0.0324,0.013523,0.002678,0.000431,0.000705
28237000,0.0324,0.013523,0.002678,0.000431,0.000940
28238000,0.0324,0.013523,0.002678,0.000431,0.000823
28239000,0.0324,0.013523,0.002678,0.000431,0.000823
28240000,0.0324,0.013523,0.002678,0.000431,0.000705
28241000,0.0324,0.013523,0.002678,0.000431,0.000940
28242000,0.0324,0.013523,0.002678,0.000431,0.001410
28243000,0.0324,0.013523,0.002678,0.000431,0.379263
28244000,0.0324,0.013523,0.002678,0.000431,0.680606
28245000,0.0324,0.013523,0.002678,0.000431,0.195332
28246000,0.0324,0.013523,0.002678,0.000431,0.133042
28247000,0.0324,0.013523,0.002678,0.000431,0.141386
28248000,0.0324,0.013523,0.002678,0.000431,0.608208
28249000,0.0324,0.013523,0.002678,0.000431,0.231531
28250000,0.0324,0.013523,0.002678,0.000431,0.322850
28251000,0.0324,0.013523,0.002678,0.000431,0.239522
28252000,0.0324,0.013523,0.002678,0.000431,0.143149
28253000,0.0324,0.013523,0.002678,0.000431,0.146088
28254000,0.0324,0.013523,0.002678,0.000431,0.194157
28255000,0.0324,0.013523,0.002678,0.000431,0.420163
28256000,0.0324,0.013523,0.002678,0.000431,0.132454
28257000,0.0324,0.013523,0.002678,0.000431,0.104365
28258000,0.0324,0.013523,0.002678,0.000431,0.095668
28259000,0.0324,0.013523,0.002678,0.000431,0.085678
28260000,0.0324,0.013523,0.002678,0.000431,0.070517
28261000,0.0324,0.013523,0.002678,0.000431,0.065698
28262000,0.0324,0.013523,0.002678,0.000431,0.056061
28263000,0.0324,0.013523,0.002678,0.000431,0.045483
28264000,0.0324,0.013523,0.002678,0.000431,0.042545
28265000,0.0324,0.013523,0.002678,0.000431,0.041840
28266000,0.0324,0.013523,0.002678,0.000431,0.031733
28267000,0.0324,0.013523,0.002678,0.000431,0.025739
28268000,0.0324,0.013523,0.002678,0.000431,0.027737
28269000,0.0324,0.013523,0.002678,0.000431,0.021625
28270000,0.0324,0.013523,0.002678,0.000431,0.017042
28271000,0.0324,0.013523,0.002678,0.000431,0.018099
28272000,0.0324,0.013523,0.002678,0.000431,0.015866
28273000,0.0324,0.013523,0.002678,0.000431,0.016336
28274000,0.0324,0.013523,0.002678,0.000431,0.014221
28275000,0.0324,0.013523,0.002678,0.000431,0.016336
28276000,0.0324,0.013523,0.002678,0.000431,0.015514
28277000,0.0324,0.013523,0.002678,0.000431,0.010460
28278000,0.0324,0.013523,0.002678,0.000431,0.009755
28279000,0.0324,0.013523,0.002678,0.000431,0.007522
28280000,0.0324,0.013523,0.002678,0.000431,0.006111
28281000,0.0324,0.013523,0.002678,0.000431,0.005759
28282000,0.0324,0.013523,0.002678,0.000431,0.005994
28283000,0.0324,0.013523,0.002678,0.000431,0.006347
28284000,0.0324,0.013523,0.002678,0.000431,0.005406
28285000,0.0324,0.013523,0.002678,0.000431,0.006464
28286000,0.0324,0.013523,0.002678,0.000431,0.005759
28287000,0.0324,0.013523,0.002678,0.000431,0.008109
28288000,0.0324,0.013523,0.002678,0.000431,0.004936
28289000,0.0324,0.013523,0.002678,0.000431,0.005054
28290000,0.0324,0.013523,0.002678,0.000431,0.005406
28291000,0.0324,0.013523,0.002678,0.000431,0.005054
28292000,0.0324,0.013523,0.002678,0.000431,0.005406
28293000,0.0324,0.013523,0.002678,0.000431,0.005876
28294000,0.0324,0.013523,0.002678,0.000431,0.005759
28295000,0.0324,0.013523,0.002678,0.000431,0.005524
28296000,0.0324,0.013523,0.002678,0.000431,0.005524
28297000,0.0324,0.013523,0.002678,0.000431,0.002703
28298000,0.0324,0.013523,0.002678,0.000431,0.002468
28299000,0.0324,0.013523,0.002678,0.000431,0.002821
28300000,0.0324,0.013523,0.002678,0.000431,0.002351
28301000,0.0324,0.013523,0.002678,0.000431,0.002586
28302000,0.0324,0.013523,0.002678,0.000431,0.002468
28303000,0.0324,0.013523,0.002678,0.000431,0.003761
28304000,0.0324,0.013523,0.002678,0.000431,0.001763
28305000,0.0324,0.013523,0.002678,0.000431,0.001528
28306000,0.0324,0.013523,0.002678,0.000431,0.001645
28307000,0.0324,0.013523,0.002678,0.000431,0.001763
28308000,0.0324,0.013523,0.002678,0.000431,0.001998
28309000,0.0324,0.013523,0.002678,0.000431,0.003291
28310000,0.0324,0.013523,0.002678,0.000431,0.000823
28311000,0.0324,0.013523,0.002678,0.000431,0.000823
28312000,0.0324,0.013523,0.002678,0.000431,0.000823
28313000,0.0324,0.013523,0.002678,0.000431,0.000823
28314000,0.0324,0.013523,0.002678,0.000431,0.000823
28315000,0.0324,0.013523,0.002678,0.000431,0.000940
28316000,0.0324,0.013523,0.002678,0.000431,0.000705
28317000,0.0324,0.013523,0.002678,0.000431,0.000823
28318000,0.0324,0.013523,0.002678,0.000431,0.000940
28319000,0.0324,0.013523,0.002678,0.000431,0.000823
28320000,0.0324,0.013523,0.002678,0.000431,0.000823
28321000,0.0324,0.013523,0.002678,0.000431,0.000823
28322000,0.0324,0.013523,0.002678,0.000431,0.000705
28323000,0.0324,0.013523,0.002678,0.000431,0.000940
28324000,0.0324,0.013523,0.002678,0.000431,0.000940
28325000,0.0324,0.013523,0.002678,0.000431,0.000705
28326000,0.0324,0.013523,0.002678,0.000431,0.000940
28327000,0.0324,0.013523,0.002678,0.000431,0.000705
28328000,0.0324,0.013523,0.002678,0.000431,0.000940
28329000,0.0324,0.013523,0.002678,0.000431,0.000940
28330000,0.0324,0.013523,0.002678,0.000431,0.000705
28331000,0.0324,0.013523,0.002678,0.000431,0.000940
28332000,0.0324,0.013523,0.002678,0.000431,0.000705
28333000,0.0324,0.013523,0.002678,0.000431,0.000823
28334000,0.0324,0.013523,0.002678,0.000431,0.000823
28335000,0.0324,0.013523,0.002678,0.000431,0.000940
28336000,0.0324,0.013523,0.002678,0.000431,0.000823
28337000,0.0324,0.013523,0.002678,0.000431,0.000823
28338000,0.0324,0.013523,0.002678,0.000431,0.000705
28339000,0.0324,0.013523,0.002678,0.000431,0.000940
28340000,0.0324,0.013523,0.002678,0.000431,0.000940
28341000,0.0324,0.013523,0.002678,0.000431,0.000705
28342000,0.0324,0.013523,0.002678,0.000431,0.000940
28343000,0.0324,0.013523,0.002678,0.000431,0.000705
28344000,0.0324,0.013523,0.002678,0.000431,0.000940
28345000,0.0324,0.013523,0.002678,0.000431,0.000823
28346000,0.0324,0.013523,0.002678,0.000431,0.000823
28347000,0.0324,0.013523,0.002678,0.000431,0.000940
28348000,0.0324,0.013523,0.002678,0.000431,0.000705
28349000,0.0324,0.013523,0.002678,0.000431,0.000940
28350000,0.0324,0.013523,0.002678,0.000431,0.000823
28351000,0.0324,0.013523,0.002678,0.000431,0.000823
28352000,0.0324,0.013523,0.002678,0.000431,0.000823
28353000,0.0324,0.013523,0.002678,0.000431,0.000823
28354000,0.0324,0.013523,0.002678,0.000431,0.000823
28355000,0.0324,0.013523,0.002678,0.000431,0.082857
28356000,0.0324,0.013523,0.002678,0.000431,0.621959
28357000,0.0324,0.013523,0.002678,0.000431,0.550384
28358000,0.0324,0.013523,0.002678,0.000431,0.136920
28359000,0.0324,0.013523,0.002678,0.000431,0.141386
28360000,0.0324,0.013523,0.002678,0.000431,0.623369
28361000,0.0324,0.013523,0.002678,0.000431,0.254684
28362000,0.0324,0.013523,0.002678,0.000431,0.272665
28363000,0.0324,0.013523,0.002678,0.000431,0.254213
28364000,0.0324,0.013523,0.002678,0.000431,0.141857
28365000,0.0324,0.013523,0.002678,0.000431,0.155372
28366000,0.0324,0.013523,0.002678,0.000431,0.189808
28367000,0.0324,0.013523,0.002678,0.000431,0.430623
28368000,0.0324,0.013523,0.002678,0.000431,0.119056
28369000,0.0324,0.013523,0.002678,0.000431,0.103777
28370000,0.0324,0.013523,0.002678,0.000431,0.076158
28371000,0.0324,0.013523,0.002678,0.000431,0.077334
28372000,0.0324,0.013523,0.002678,0.000431,0.067814
28373000,0.0324,0.013523,0.002678,0.000431,0.053593
28374000,0.0324,0.013523,0.002678,0.000431,0.051830
28375000,0.0324,0.013523,0.002678,0.000431,0.045718
28376000,0.0324,0.013523,0.002678,0.000431,0.040077
28377000,0.0324,0.013523,0.002678,0.000431,0.036669
28378000,0.0324,0.013523,0.002678,0.000431,0.032555
28379000,0.0324,0.013523,0.002678,0.000431,0.025974
28380000,0.0324,0.013523,0.002678,0.000431,0.023506
28381000,0.0324,0.013523,0.002678,0.000431,0.020920
28382000,0.0324,0.013523,0.002678,0.000431,0.020450
28383000,0.0324,0.013523,0.002678,0.000431,0.018569
28384000,0.0324,0.013523,0.002678,0.000431,0.014573
28385000,0.0324,0.013523,0.002678,0.000431,0.014926
28386000,0.0324,0.013523,0.002678,0.000431,0.013516
28387000,0.0324,0.013523,0.002678,0.000431,0.013398
28388000,0.0324,0.013523,0.002678,0.000431,0.011165
28389000,0.0324,0.013523,0.002678,0.000431,0.010225
28390000,0.0324,0.013523,0.002678,0.000431,0.009167
28391000,0.0324,0.013523,0.002678,0.000431,0.012576
28392000,0.0324,0.013523,0.002678,0.000431,0.005171
28393000,0.0324,0.013523,0.002678,0.000431,0.004819
28394000,0.0324,0.013523,0.002678,0.000431,0.004936
28395000,0.0324,0.013523,0.002678,0.000431,0.002468
28396000,0.0324,0.013523,0.002678,0.000431,0.004349
28397000,0.0324,0.013523,0.002678,0.000431,0.073338
28398000,0.0324,0.013523,0.002678,0.000431,0.565898
28399000,0.0324,0.013523,0.002678,0.000431,0.587641
28400000,0.0324,0.013523,0.002678,0.000431,0.136450
28401000,0.0324,0.013523,0.002678,0.000431,0.134687
28402000,0.0324,0.013523,0.002678,0.000431,0.606210
28403000,0.0324,0.013523,0.002678,0.000431,0.236114
28404000,0.0324,0.013523,0.002678,0.000431,0.321675
28405000,0.0324,0.013523,0.002678,0.000431,0.247279
28406000,0.0324,0.013523,0.002678,0.000431,0.145500
28407000,0.0324,0.013523,0.002678,0.000431,0.149613
28408000,0.0324,0.013523,0.002678,0.000431,0.205087
28409000,0.0324,0.013523,0.002678,0.000431,0.402416
28410000,0.0324,0.013523,0.002678,0.000431,0.108008
28411000,0.0324,0.013523,0.002678,0.000431,0.092730
28412000,0.0324,0.013523,0.002678,0.000431,0.083092
28413000,0.0324,0.013523,0.002678,0.000431,0.081800
28414000,0.0324,0.013523,0.002678,0.000431,0.065463
28415000,0.0324,0.013523,0.002678,0.000431,0.053358
28416000,0.0324,0.013523,0.002678,0.000431,0.046424
28417000,0.0324,0.013523,0.002678,0.000431,0.044543
28418000,0.0324,0.013523,0.002678,0.000431,0.031615
28419000,0.0324,0.013523,0.002678,0.000431,0.029029
28420000,0.0324,0.013523,0.002678,0.000431,0.022800
28421000,0.0324,0.013523,0.002678,0.000431,0.023858
28422000,0.0324,0.013523,0.002678,0.000431,0.019510
28423000,0.0324,0.013523,0.002678,0.000431,0.014103
28424000,0.0324,0.013523,0.002678,0.000431,0.016454
28425000,0.0324,0.013523,0.002678,0.000431,0.019627
28426000,0.0324,0.013523,0.002678,0.000431,0.011518
28427000,0.0324,0.013523,0.002678,0.000431,0.010578
28428000,0.0324,0.013523,0.002678,0.000431,0.009167
28429000,0.0324,0.013523,0.002678,0.000431,0.005994
28430000,0.0324,0.013523,0.002678,0.000431,0.006817
28431000,0.0324,0.013523,0.002678,0.000431,0.004466
28432000,0.0324,0.013523,0.002678,0.000431,0.005289
28433000,0.0324,0.013523,0.002678,0.000431,0.005876
28434000,0.0324,0.013523,0.002678,0.000431,0.003291
28435000,0.0324,0.013523,0.002678,0.000431,0.003526
28436000,0.0324,0.013523,0.002678,0.000431,0.003291
28437000,0.0324,0.013523,0.002678,0.000431,0.004113
28438000,0.0324,0.013523,0.002678,0.000431,0.003408
28439000,0.0324,0.013523,0.002678,0.000431,0.004466
28440000,0.0324,0.013523,0.002678,0.000431,0.001528
28441000,0.0324,0.013523,0.002678,0.000431,0.001645
28442000,0.0324,0.013523,0.002678,0.000431,0.001763
28443000,0.0324,0.013523,0.002678,0.000431,0.001645
28444000,0.0324,0.013523,0.002678,0.000431,0.001763
28445000,0.0324,0.013523,0.002678,0.000431,0.001645
28446000,0.0324,0.013523,0.002678,0.000431,0.001410
28447000,0.0324,0.013523,0.002678,0.000431,0.001880
28448000,0.0324,0.013523,0.002678,0.000431,0.001763
28449000,0.0324,0.013523,0.002678,0.000431,0.001528
28450000,0.0324,0.013523,0.002678,0.000431,0.001763
28451000,0.0324,0.013523,0.002678,0.000431,0.001528
28452000,0.0324,0.013523,0.002678,0.000431,0.003761
28453000,0.0324,0.013523,0.002678,0.000431,0.000940
28454000,0.0324,0.013523,0.002678,0.000431,0.000705
28455000,0.0324,0.013523,0.002678,0.000431,0.000940
28456000,0.0324,0.013523,0.002678,0.000431,0.000823
28457000,0.0324,0.013523,0.002678,0.000431,0.000823
28458000,0.0324,0.013523,0.002678,0.000431,0.000940
28459000,0.0324,0.013523,0.002678,0.000431,0.000940
28460000,0.0324,0.013523,0.002678,0.000431,0.000940
28461000,0.0324,0.013523,0.002678,0.000431,0.000823
28462000,0.0324,0.013523,0.002678,0.000431,0.000823
28463000,0.0324,0.013523,0.002678,0.000431,0.001763
28464000,0.0324,0.013523,0.002678,0.000431,0.388078
28465000,0.0324,0.013523,0.002678,0.000431,0.689420
28466000,0.0324,0.013523,0.002678,0.000431,0.182521
28467000,0.0324,0.013523,0.002678,0.000431,0.133512
28468000,0.0324,0.013523,0.002678,0.000431,0.176410
28469000,0.0324,0.013523,0.002678,0.000431,0.581529
28470000,0.0324,0.013523,0.002678,0.000431,0.303693
28471000,0.0324,0.013523,0.002678,0.000431,0.289472
28472000,0.0324,0.013523,0.002678,0.000431,0.197800
28473000,0.0324,0.013523,0.002678,0.000431,0.140799
28474000,0.0324,0.013523,0.002678,0.000431,0.118821
28475000,0.0324,0.013523,0.002678,0.000431,0.312390
28476000,0.0324,0.013523,0.002678,0.000431,0.334485
28477000,0.0324,0.013523,0.002678,0.000431,0.116588
28478000,0.0324,0.013523,0.002678,0.000431,0.098254
28479000,0.0324,0.013523,0.002678,0.000431,0.083680
28480000,0.0324,0.013523,0.002678,0.000431,0.072750
28481000,0.0324,0.013523,0.002678,0.000431,0.074748
28482000,0.0324,0.013523,0.002678,0.000431,0.068284
28483000,0.0324,0.013523,0.002678,0.000431,0.053358
28484000,0.0324,0.013523,0.002678,0.000431,0.046071
28485000,0.0324,0.013523,0.002678,0.000431,0.035846
28486000,0.0324,0.013523,0.002678,0.000431,0.034318
28487000,0.0324,0.013523,0.002678,0.000431,0.026796
28488000,0.0324,0.013523,0.002678,0.000431,0.023153
28489000,0.0324,0.013523,0.002678,0.000431,0.018922
28490000,0.0324,0.013523,0.002678,0.000431,0.019392
28491000,0.0324,0.013523,0.002678,0.000431,0.021038
28492000,0.0324,0.013523,0.002678,0.000431,0.022330
28493000,0.0324,0.013523,0.002678,0.000431,0.013751
28494000,0.0324,0.013523,0.002678,0.000431,0.010107
28495000,0.0324,0.013523,0.002678,0.000431,0.009755
28496000,0.0324,0.013523,0.002678,0.000431,0.010107
28497000,0.0324,0.013523,0.002678,0.000431,0.009285
28498000,0.0324,0.013523,0.002678,0.000431,0.010578
28499000,0.0324,0.013523,0.002678,0.000431,0.007404
28500000,0.0324,0.013523,0.002678,0.000431,0.008580
28501000,0.0324,0.013523,0.002678,0.000431,0.005759
28502000,0.0324,0.013523,0.002678,0.000431,0.010225
28503000,0.0324,0.013523,0.002678,0.000431,0.006699
28504000,0.0324,0.013523,0.002678,0.000431,0.002468
28505000,0.0324,0.013523,0.002678,0.000431,0.002586
28506000,0.0324,0.013523,0.002678,0.000431,0.002586
28507000,0.0324,0.013523,0.002678,0.000431,0.002586
28508000,0.0324,0.013523,0.002678,0.000431,0.002586
28509000,0.0324,0.013523,0.002678,0.000431,0.002586
28510000,0.0324,0.013523,0.002678,0.000431,0.002586
28511000,0.0324,0.013523,0.002678,0.000431,0.002703
28512000,0.0324,0.013523,0.002678,0.000431,0.002351
28513000,0.0324,0.013523,0.002678,0.000431,0.002703
28514000,0.0324,0.013523,0.002678,0.000431,0.002703
28515000,0.0324,0.013523,0.002678,0.000431,0.002703
28516000,0.0324,0.013523,0.002678,0.000431,0.002351
28517000,0.0324,0.013523,0.002678,0.000431,0.003643
28518000,0.0324,0.013523,0.002678,0.000431,0.003291
28519000,0.0324,0.013523,0.002678,0.000431,0.001645
28520000,0.0324,0.013523,0.002678,0.000431,0.003643
28521000,0.0324,0.013523,0.002678,0.000431,0.000940
28522000,0.0324,0.013523,0.002678,0.000431,0.000940
28523000,0.0324,0.013523,0.002678,0.000431,0.000823
28524000,0.0324,0.013523,0.002678,0.000431,0.000823
28525000,0.0324,0.013523,0.002678,0.000431,0.000940
28526000,0.0324,0.013523,0.002678,0.000431,0.000823
28527000,0.0324,0.013523,0.002678,0.000431,0.000940
28528000,0.0324,0.013523,0.002678,0.000431,0.000823
28529000,0.0324,0.013523,0.002678,0.000431,0.000940
28530000,0.0324,0.013523,0.002678,0.000431,0.000823
28531000,0.0324,0.013523,0.002678,0.000431,0.000823
28532000,0.0324,0.013523,0.002678,0.000431,0.000940
28533000,0.0324,0.013523,0.002678,0.000431,0.000940
28534000,0.0324,0.013523,0.002678,0.000431,0.000823
28535000,0.0324,0.013523,0.002678,0.000431,0.000823
28536000,0.0324,0.013523,0.002678,0.000431,0.000940
28537000,0.0324,0.013523,0.002678,0.000431,0.000940
28538000,0.0324,0.013523,0.002678,0.000431,0.001880
28539000,0.0324,0.013523,0.002678,0.000431,0.302988
28540000,0.0324,0.013523,0.002678,0.000431,0.690478
28541000,0.0324,0.013523,0.002678,0.000431,0.282890
28542000,0.0324,0.013523,0.002678,0.000431,0.131632
28543000,0.0324,0.013523,0.002678,0.000431,0.133982
28544000,0.0324,0.013523,0.002678,0.000431,0.577298
28545000,0.0324,0.013523,0.002678,0.000431,0.222363
28546000,0.0324,0.013523,0.002678,0.000431,0.280657
28547000,0.0324,0.013523,0.002678,0.000431,0.264673
28548000,0.0324,0.013523,0.002678,0.000431,0.139741
28549000,0.0324,0.013523,0.002678,0.000431,0.165480
28550000,0.0324,0.013523,0.002678,0.000431,0.111769
28551000,0.0324,0.013523,0.002678,0.000431,0.448135
28552000,0.0324,0.013523,0.002678,0.000431,0.125638
28553000,0.0324,0.013523,0.002678,0.000431,0.081447
28554000,0.0324,0.013523,0.002678,0.000431,0.069459
28555000,0.0324,0.013523,0.002678,0.000431,0.070282
28556000,0.0324,0.013523,0.002678,0.000431,0.060645
28557000,0.0324,0.013523,0.002678,0.000431,0.060174
28558000,0.0324,0.013523,0.002678,0.000431,0.048539
28559000,0.0324,0.013523,0.002678,0.000431,0.048892
28560000,0.0324,0.013523,0.002678,0.000431,0.041958
28561000,0.0324,0.013523,0.002678,0.000431,0.042428
28562000,0.0324,0.013523,0.002678,0.000431,0.038549
28563000,0.0324,0.013523,0.002678,0.000431,0.032203
28564000,0.0324,0.013523,0.002678,0.000431,0.028442
28565000,0.0324,0.013523,0.002678,0.000431,0.025739
28566000,0.0324,0.013523,0.002678,0.000431,0.022448
28567000,0.0324,0.013523,0.002678,0.000431,0.019510
28568000,0.0324,0.013523,0.002678,0.000431,0.021978
28569000,0.0324,0.013523,0.002678,0.000431,0.014691
28570000,0.0324,0.013523,0.002678,0.000431,0.013516
28571000,0.0324,0.013523,0.002678,0.000431,0.012458
28572000,0.0324,0.013523,0.002678,0.000431,0.011870
28573000,0.0324,0.013523,0.002678,0.000431,0.015044
28574000,0.0324,0.013523,0.002678,0.000431,0.011165
28575000,0.0324,0.013523,0.002678,0.000431,0.012223
28576000,0.0324,0.013523,0.002678,0.000431,0.009285
28577000,0.0324,0.013523,0.002678,0.000431,0.009402
28578000,0.0324,0.013523,0.002678,0.000431,0.008345
28579000,0.0324,0.013523,0.002678,0.000431,0.009520
28580000,0.0324,0.013523,0.002678,0.000431,0.006934
28581000,0.0324,0.013523,0.002678,0.000431,0.008109
28582000,0.0324,0.013523,0.002678,0.000431,0.006111
28583000,0.0324,0.013523,0.002678,0.000431,0.006347
28584000,0.0324,0.013523,0.002678,0.000431,0.005289
28585000,0.0324,0.013523,0.002678,0.000431,0.007287
28586000,0.0324,0.013523,0.002678,0.000431,0.004113
28587000,0.0324,0.013523,0.002678,0.000431,0.004584
28588000,0.0324,0.013523,0.002678,0.000431,0.003996
28589000,0.0324,0.013523,0.002678,0.000431,0.004466
28590000,0.0324,0.013523,0.002678,0.000431,0.004231
28591000,0.0324,0.013523,0.002678,0.000431,0.004231
28592000,0.0324,0.013523,0.002678,0.000431,0.004936
28593000,0.0324,0.013523,0.002678,0.000431,0.004584
28594000,0.0324,0.013523,0.002678,0.000431,0.004701
28595000,0.0324,0.013523,0.002678,0.000431,0.002351
28596000,0.0324,0.013523,0.002678,0.000431,0.002821
28597000,0.0324,0.013523,0.002678,0.000431,0.002468
28598000,0.0324,0.013523,0.002678,0.000431,0.003761
28599000,0.0324,0.013523,0.002678,0.000431,0.002938
28600000,0.0324,0.013523,0.002678,0.000431,0.002351
28601000,0.0324,0.013523,0.002678,0.000431,0.001880
28602000,0.0324,0.013523,0.002678,0.000431,0.000823
28603000,0.0324,0.013523,0.002678,0.000431,0.203676
28604000,0.0324,0.013523,0.002678,0.000431,0.493971
28605000,0.0324,0.013523,0.002678,0.000431,0.498907
28606000,0.0324,0.013523,0.002678,0.000431,0.132572
28607000,0.0324,0.013523,0.002678,0.000431,0.133512
28608000,0.0324,0.013523,0.002678,0.000431,0.554028
28609000,0.0324,0.013523,0.002678,0.000431,0.235997
28610000,0.0324,0.013523,0.002678,0.000431,0.238582
28611000,0.0324,0.013523,0.002678,0.000431,0.293115
28612000,0.0324,0.013523,0.002678,0.000431,0.140211
28613000,0.0324,0.013523,0.002678,0.000431,0.146910
28614000,0.0324,0.013523,0.002678,0.000431,0.134570
28615000,0.0324,0.013523,0.002678,0.000431,0.294056
28616000,0.0324,0.013523,0.002678,0.000431,0.327904
28617000,0.0324,0.013523,0.002678,0.000431,0.078156
28618000,0.0324,0.013523,0.002678,0.000431,0.062995
28619000,0.0324,0.013523,0.002678,0.000431,0.060645
28620000,0.0324,0.013523,0.002678,0.000431,0.053828
28621000,0.0324,0.013523,0.002678,0.000431,0.051360
28622000,0.0324,0.013523,0.002678,0.000431,0.047951
28623000,0.0324,0.013523,0.002678,0.000431,0.041840
28624000,0.0324,0.013523,0.002678,0.000431,0.038197
28625000,0.0324,0.013523,0.002678,0.000431,0.034788
28626000,0.0324,0.013523,0.002678,0.000431,0.022330
28627000,0.0324,0.013523,0.002678,0.000431,0.022213
28628000,0.0324,0.013523,0.002678,0.000431,0.015866
28629000,0.0324,0.013523,0.002678,0.000431,0.014573
28630000,0.0324,0.013523,0.002678,0.000431,0.018099
28631000,0.0324,0.013523,0.002678,0.000431,0.012458
28632000,0.0324,0.013523,0.002678,0.000431,0.017864
28633000,0.0324,0.013523,0.002678,0.000431,0.008345
28634000,0.0324,0.013523,0.002678,0.000431,0.008227
28635000,0.0324,0.013523,0.002678,0.000431,0.008697
28636000,0.0324,0.013523,0.002678,0.000431,0.008227
28637000,0.0324,0.013523,0.002678,0.000431,0.007874
28638000,0.0324,0.013523,0.002678,0.000431,0.008697
28639000,0.0324,0.013523,0.002678,0.000431,0.007404
28640000,0.0324,0.013523,0.002678,0.000431,0.009050
28641000,0.0324,0.013523,0.002678,0.000431,0.008227
28642000,0.0324,0.013523,0.002678,0.000431,0.006464
28643000,0.0324,0.013523,0.002678,0.000431,0.006699
28644000,0.0324,0.013523,0.002678,0.000431,0.003526
28645000,0.0324,0.013523,0.002678,0.000431,0.003643
28646000,0.0324,0.013523,0.002678,0.000431,0.003173
28647000,0.0324,0.013523,0.002678,0.000431,0.003526
28648000,0.0324,0.013523,0.002678,0.000431,0.003408
28649000,0.0324,0.013523,0.002678,0.000431,0.003408
28650000,0.0324,0.013523,0.002678,0.000431,0.003408
28651000,0.0324,0.013523,0.002678,0.000431,0.003643
28652000,0.0324,0.013523,0.002678,0.000431,0.003291
28653000,0.0324,0.013523,0.002678,0.000431,0.003643
28654000,0.0324,0.013523,0.002678,0.000431,0.003408
28655000,0.0324,0.013523,0.002678,0.000431,0.003526
28656000,0.0324,0.013523,0.002678,0.000431,0.003526
28657000,0.0324,0.013523,0.002678,0.000431,0.003643
28658000,0.0324,0.013523,0.002678,0.000431,0.003291
28659000,0.0324,0.013523,0.002678,0.000431,0.003408
28660000,0.0324,0.013523,0.002678,0.000431,0.004936
28661000,0.0324,0.013523,0.002678,0.000431,0.003878
28662000,0.0324,0.013523,0.002678,0.000431,0.003643
28663000,0.0324,0.013523,0.002678,0.000431,0.000940
28664000,0.0324,0.013523,0.002678,0.000431,0.000823
28665000,0.0324,0.013523,0.002678,0.000431,0.000823
28666000,0.0324,0.013523,0.002678,0.000431,0.000940
28667000,0.0324,0.013523,0.002678,0.000431,0.000705
28668000,0.0324,0.013523,0.002678,0.000431,0.000940
28669000,0.0324,0.013523,0.002678,0.000431,0.000823
28670000,0.0324,0.013523,0.002678,0.000431,0.000823
28671000,0.0324,0.013523,0.002678,0.000431,0.000823
28672000,0.0324,0.013523,0.002678,0.000431,0.000823
28673000,0.0324,0.013523,0.002678,0.000431,0.002116
28674000,0.0324,0.013523,0.002678,0.000431,0.284183
28675000,0.0324,0.013523,0.002678,0.000431,0.654514
28676000,0.0324,0.013523,0.002678,0.000431,0.282655
28677000,0.0324,0.013523,0.002678,0.000431,0.131161
28678000,0.0324,0.013523,0.002678,0.000431,0.134570
28679000,0.0324,0.013523,0.002678,0.000431,0.595633
28680000,0.0324,0.013523,0.002678,0.000431,0.227300
28681000,0.0324,0.013523,0.002678,0.000431,0.290530
28682000,0.0324,0.013523,0.002678,0.000431,0.259385
28683000,0.0324,0.013523,0.002678,0.000431,0.151494
28684000,0.0324,0.013523,0.002678,0.000431,0.174294
28685000,0.0324,0.013523,0.002678,0.000431,0.101192
28686000,0.0324,0.013523,0.002678,0.000431,0.473874
28687000,0.0324,0.013523,0.002678,0.000431,0.127401
28688000,0.0324,0.013523,0.002678,0.000431,0.093435
28689000,0.0324,0.013523,0.002678,0.000431,0.088381
28690000,0.0324,0.013523,0.002678,0.000431,0.069224
28691000,0.0324,0.013523,0.002678,0.000431,0.058882
28692000,0.0324,0.013523,0.002678,0.000431,0.047834
28693000,0.0324,0.013523,0.002678,0.000431,0.042898
28694000,0.0324,0.013523,0.002678,0.000431,0.035023
28695000,0.0324,0.013523,0.002678,0.000431,0.033966
28696000,0.0324,0.013523,0.002678,0.000431,0.029500
28697000,0.0324,0.013523,0.002678,0.000431,0.024093
28698000,0.0324,0.013523,0.002678,0.000431,0.022565
28699000,0.0324,0.013523,0.002678,0.000431,0.019862
28700000,0.0324,0.013523,0.002678,0.000431,0.018334
28701000,0.0324,0.013523,0.002678,0.000431,0.015866
28702000,0.0324,0.013523,0.002678,0.000431,0.016101
28703000,0.0324,0.013523,0.002678,0.000431,0.009637
28704000,0.0324,0.013523,0.002678,0.000431,0.011165
28705000,0.0324,0.013523,0.002678,0.000431,0.010695
28706000,0.0324,0.013523,0.002678,0.000431,0.008932
28707000,0.0324,0.013523,0.002678,0.000431,0.010695
28708000,0.0324,0.013523,0.002678,0.000431,0.009167
28709000,0.0324,0.013523,0.002678,0.000431,0.009050
28710000,0.0324,0.013523,0.002678,0.000431,0.010107
28711000,0.0324,0.013523,0.002678,0.000431,0.007522
28712000,0.0324,0.013523,0.002678,0.000431,0.010460
28713000,0.0324,0.013523,0.002678,0.000431,0.005994
28714000,0.0324,0.013523,0.002678,0.000431,0.005406
28715000,0.0324,0.013523,0.002678,0.000431,0.006934
28716000,0.0324,0.013523,0.002678,0.000431,0.009402
28717000,0.0324,0.013523,0.002678,0.000431,0.003878
28718000,0.0324,0.013523,0.002678,0.000431,0.004231
28719000,0.0324,0.013523,0.002678,0.000431,0.003761
28720000,0.0324,0.013523,0.002678,0.000431,0.003996
28721000,0.0324,0.013523,0.002678,0.000431,0.003996
28722000,0.0324,0.013523,0.002678,0.000431,0.003878
28723000,0.0324,0.013523,0.002678,0.000431,0.003173
28724000,0.0324,0.013523,0.002678,0.000431,0.003173
28725000,0.0324,0.013523,0.002678,0.000431,0.003173
28726000,0.0324,0.013523,0.002678,0.000431,0.003173
28727000,0.0324,0.013523,0.002678,0.000431,0.003761
28728000,0.0324,0.013523,0.002678,0.000431,0.002821
28729000,0.0324,0.013523,0.002678,0.000431,0.005171
28730000,0.0324,0.013523,0.002678,0.000431,0.002233
28731000,0.0324,0.013523,0.002678,0.000431,0.002586
28732000,0.0324,0.013523,0.002678,0.000431,0.002468
28733000,0.0324,0.013523,0.002678,0.000431,0.002233
28734000,0.0324,0.013523,0.002678,0.000431,0.002586
28735000,0.0324,0.013523,0.002678,0.000431,0.002233
28736000,0.0324,0.013523,0.002678,0.000431,0.002468
28737000,0.0324,0.013523,0.002678,0.000431,0.002351
28738000,0.0324,0.013523,0.002678,0.000431,0.002351
28739000,0.0324,0.013523,0.002678,0.000431,0.002586
28740000,0.0324,0.013523,0.002678,0.000431,0.002351
28741000,0.0324,0.013523,0.002678,0.000431,0.002351
28742000,0.0324,0.013523,0.002678,0.000431,0.002586
28743000,0.0324,0.013523,0.002678,0.000431,0.002351
28744000,0.0324,0.013523,0.002678,0.000431,0.002468
28745000,0.0324,0.013523,0.002678,0.000431,0.002351
28746000,0.0324,0.013523,0.002678,0.000431,0.002351
28747000,0.0324,0.013523,0.002678,0.000431,0.002703
28748000,0.0324,0.013523,0.002678,0.000431,0.002116
28749000,0.0324,0.013523,0.002678,0.000431,0.002586
28750000,0.0324,0.013523,0.002678,0.000431,0.002351
28751000,0.0324,0.013523,0.002678,0.000431,0.002468
28752000,0.0324,0.013523,0.002678,0.000431,0.002468
28753000,0.0324,0.013523,0.002678,0.000431,0.002233
28754000,0.0324,0.013523,0.002678,0.000431,0.002468
28755000,0.0324,0.013523,0.002678,0.000431,0.002586
28756000,0.0324,0.013523,0.002678,0.000431,0.002116
28757000,0.0324,0.013523,0.002678,0.000431,0.002468
28758000,0.0324,0.013523,0.002678,0.000431,0.002233
28759000,0.0324,0.013523,0.002678,0.000431,0.002586
28760000,0.0324,0.013523,0.002678,0.000431,0.002468
28761000,0.0324,0.013523,0.002678,0.000431,0.001645
28762000,0.0324,0.013523,0.002678,0.000431,0.001528
28763000,0.0324,0.013523,0.002678,0.000431,0.001763
28764000,0.0324,0.013523,0.002678,0.000431,0.004466
28765000,0.0324,0.013523,0.002678,0.000431,0.000940
28766000,0.0324,0.013523,0.002678,0.000431,0.000823
28767000,0.0324,0.013523,0.002678,0.000431,0.000940
28768000,0.0324,0.013523,0.002678,0.000431,0.003526
28769000,0.0324,0.013523,0.002678,0.000431,0.428978
28770000,0.0324,0.013523,0.002678,0.000431,0.713396
28771000,0.0324,0.013523,0.002678,0.000431,0.141386
28772000,0.0324,0.013523,0.002678,0.000431,0.133512
28773000,0.0324,0.013523,0.002678,0.000431,0.185342
28774000,0.0324,0.013523,0.002678,0.000431,0.575065
28775000,0.0324,0.013523,0.002678,0.000431,0.266907
28776000,0.0324,0.013523,0.002678,0.000431,0.259972
28777000,0.0324,0.013523,0.002678,0.000431,0.203559
28778000,0.0324,0.013523,0.002678,0.000431,0.146088
28779000,0.0324,0.013523,0.002678,0.000431,0.163952
28780000,0.0324,0.013523,0.002678,0.000431,0.130926
28781000,0.0324,0.013523,0.002678,0.000431,0.466117
28782000,0.0324,0.013523,0.002678,0.000431,0.113650
28783000,0.0324,0.013523,0.002678,0.000431,0.084385
28784000,0.0324,0.013523,0.002678,0.000431,0.076276
28785000,0.0324,0.013523,0.002678,0.000431,0.075336
28786000,0.0324,0.013523,0.002678,0.000431,0.055003
28787000,0.0324,0.013523,0.002678,0.000431,0.053828
28788000,0.0324,0.013523,0.002678,0.000431,0.040900
28789000,0.0324,0.013523,0.002678,0.000431,0.038667
28790000,0.0324,0.013523,0.002678,0.000431,0.036434
28791000,0.0324,0.013523,0.002678,0.000431,0.031615
28792000,0.0324,0.013523,0.002678,0.000431,0.029970
28793000,0.0324,0.013523,0.002678,0.000431,0.031615
28794000,0.0324,0.013523,0.002678,0.000431,0.032908
28795000,0.0324,0.013523,0.002678,0.000431,0.026209
28796000,0.0324,0.013523,0.002678,0.000431,0.022918
28797000,0.0324,0.013523,0.002678,0.000431,0.023623
28798000,0.0324,0.013523,0.002678,0.000431,0.020097
28799000,0.0324,0.013523,0.002678,0.000431,0.013868
28800000,0.0324,0.013523,0.002678,0.000431,0.011518
28801000,0.0324,0.013523,0.002678,0.000431,0.012105
28802000,0.0324,0.013523,0.002678,0.000431,0.010695
28803000,0.0324,0.013523,0.002678,0.000431,0.007052
28804000,0.0324,0.013523,0.002678,0.000431,0.008697
28805000,0.0324,0.013523,0.002678,0.000431,0.005876
28806000,0.0324,0.013523,0.002678,0.000431,0.006229
28807000,0.0324,0.013523,0.002678,0.000431,0.006582
28808000,0.0324,0.013523,0.002678,0.000431,0.004701
28809000,0.0324,0.013523,0.002678,0.000431,0.005054
28810000,0.0324,0.013523,0.002678,0.000431,0.007992
28811000,0.0324,0.013523,0.002678,0.000431,0.003173
28812000,0.0324,0.013523,0.002678,0.000431,0.002586
28813000,0.0324,0.013523,0.002678,0.000431,0.004466
28814000,0.0324,0.013523,0.002678,0.000431,0.002703
28815000,0.0324,0.013523,0.002678,0.000431,0.001998
28816000,0.0324,0.013523,0.002678,0.000431,0.000940
28817000,0.0324,0.013523,0.002678,0.000431,0.190513
28818000,0.0324,0.013523,0.002678,0.000431,0.502903
28819000,0.0324,0.013523,0.002678,0.000431,0.533460
28820000,0.0324,0.013523,0.002678,0.000431,0.133982
28821000,0.0324,0.013523,0.002678,0.000431,0.131161
28822000,0.0324,0.013523,0.002678,0.000431,0.564370
28823000,0.0324,0.013523,0.002678,0.000431,0.243283
28824000,0.0324,0.013523,0.002678,0.000431,0.248220
28825000,0.0324,0.013523,0.002678,0.000431,0.323673
28826000,0.0324,0.013523,0.002678,0.000431,0.147145
28827000,0.0324,0.013523,0.002678,0.000431,0.145970
28828000,0.0324,0.013523,0.002678,0.000431,0.109066
28829000,0.0324,0.013523,0.002678,0.000431,0.425805
28830000,0.0324,0.013523,0.002678,0.000431,0.212256
28831000,0.0324,0.013523,0.002678,0.000431,0.115765
28832000,0.0324,0.013523,0.002678,0.000431,0.098019
28833000,0.0324,0.013523,0.002678,0.000431,0.082270
28834000,0.0324,0.013523,0.002678,0.000431,0.062055
28835000,0.0324,0.013523,0.002678,0.000431,0.067344
28836000,0.0324,0.013523,0.002678,0.000431,0.053358
28837000,0.0324,0.013523,0.002678,0.000431,0.041605
28838000,0.0324,0.013523,0.002678,0.000431,0.043133
28839000,0.0324,0.013523,0.002678,0.000431,0.039019
28840000,0.0324,0.013523,0.002678,0.000431,0.031615
28841000,0.0324,0.013523,0.002678,0.000431,0.027854
28842000,0.0324,0.013523,0.002678,0.000431,0.026679
28843000,0.0324,0.013523,0.002678,0.000431,0.026914
28844000,0.0324,0.013523,0.002678,0.000431,0.015161
28845000,0.0324,0.013523,0.002678,0.000431,0.015866
28846000,0.0324,0.013523,0.002678,0.000431,0.019510
28847000,0.0324,0.013523,0.002678,0.000431,0.012693
28848000,0.0324,0.013523,0.002678,0.000431,0.011870
28849000,0.0324,0.013523,0.002678,0.000431,0.014809
28850000,0.0324,0.013523,0.002678,0.000431,0.013633
28851000,0.0324,0.013523,0.002678,0.000431,0.009637
28852000,0.0324,0.013523,0.002678,0.000431,0.007404
28853000,0.0324,0.013523,0.002678,0.000431,0.003996
28854000,0.0324,0.013523,0.002678,0.000431,0.004113
28855000,0.0324,0.013523,0.002678,0.000431,0.004349
28856000,0.0324,0.013523,0.002678,0.000431,0.003996
28857000,0.0324,0.013523,0.002678,0.000431,0.005994
28858000,0.0324,0.013523,0.002678,0.000431,0.003173
28859000,0.0324,0.013523,0.002678,0.000431,0.003291
28860000,0.0324,0.013523,0.002678,0.000431,0.002821
28861000,0.0324,0.013523,0.002678,0.000431,0.003996
28862000,0.0324,0.013523,0.002678,0.000431,0.001763
28863000,0.0324,0.013523,0.002678,0.000431,0.001763
28864000,0.0324,0.013523,0.002678,0.000431,0.001645
28865000,0.0324,0.013523,0.002678,0.000431,0.001645
28866000,0.0324,0.013523,0.002678,0.000431,0.001763
28867000,0.0324,0.013523,0.002678,0.000431,0.001763
28868000,0.0324,0.013523,0.002678,0.000431,0.001528
28869000,0.0324,0.013523,0.002678,0.000431,0.001763
28870000,0.0324,0.013523,0.002678,0.000431,0.001880
28871000,0.0324,0.013523,0.002678,0.000431,0.001645
28872000,0.0324,0.013523,0.002678,0.000431,0.001528
28873000,0.0324,0.013523,0.002678,0.000431,0.001763
28874000,0.0324,0.013523,0.002678,0.000431,0.001880
28875000,0.0324,0.013523,0.002678,0.000431,0.001645
28876000,0.0324,0.013523,0.002678,0.000431,0.001763
28877000,0.0324,0.013523,0.002678,0.000431,0.001528
28878000,0.0324,0.013523,0.002678,0.000431,0.001880
28879000,0.0324,0.013523,0.002678,0.000431,0.001763
28880000,0.0324,0.013523,0.002678,0.000431,0.001528
28881000,0.0324,0.013523,0.002678,0.000431,0.001880
28882000,0.0324,0.013523,0.002678,0.000431,0.001763
28883000,0.0324,0.013523,0.002678,0.000431,0.001528
28884000,0.0324,0.013523,0.002678,0.000431,0.001763
28885000,0.0324,0.013523,0.002678,0.000431,0.001763
28886000,0.0324,0.013523,0.002678,0.000431,0.001763
28887000,0.0324,0.013523,0.002678,0.000431,0.001528
28888000,0.0324,0.013523,0.002678,0.000431,0.001880
28889000,0.0324,0.013523,0.002678,0.000431,0.001645
28890000,0.0324,0.013523,0.002678,0.000431,0.001763
28891000,0.0324,0.013523,0.002678,0.000431,0.001528
28892000,0.0324,0.013523,0.002678,0.000431,0.003643
28893000,0.0324,0.013523,0.002678,0.000431,0.000940
28894000,0.0324,0.013523,0.002678,0.000431,0.000823
28895000,0.0324,0.013523,0.002678,0.000431,0.000823
28896000,0.0324,0.013523,0.002678,0.000431,0.000940
28897000,0.0324,0.013523,0.002678,0.000431,0.192394
28898000,0.0324,0.013523,0.002678,0.000431,0.534166
28899000,0.0324,0.013523,0.002678,0.000431,0.525233
28900000,0.0324,0.013523,0.002678,0.000431,0.132689
28901000,0.0324,0.013523,0.002678,0.000431,0.133159
28902000,0.0324,0.013523,0.002678,0.000431,0.645465
28903000,0.0324,0.013523,0.002678,0.000431,0.236467
28904000,0.0324,0.013523,0.002678,0.000431,0.260795
28905000,0.0324,0.013523,0.002678,0.000431,0.270667
28906000,0.0324,0.013523,0.002678,0.000431,0.138918
28907000,0.0324,0.013523,0.002678,0.000431,0.166420
28908000,0.0324,0.013523,0.002678,0.000431,0.141151
28909000,0.0324,0.013523,0.002678,0.000431,0.457655
28910000,0.0324,0.013523,0.002678,0.000431,0.141151
28911000,0.0324,0.013523,0.002678,0.000431,0.106951
28912000,0.0324,0.013523,0.002678,0.000431,0.093670
28913000,0.0324,0.013523,0.002678,0.000431,0.086148
28914000,0.0324,0.013523,0.002678,0.000431,0.068049
28915000,0.0324,0.013523,0.002678,0.000431,0.056884
28916000,0.0324,0.013523,0.002678,0.000431,0.053710
28917000,0.0324,0.013523,0.002678,0.000431,0.043956
28918000,0.0324,0.013523,0.002678,0.000431,0.044896
28919000,0.0324,0.013523,0.002678,0.000431,0.038667
28920000,0.0324,0.013523,0.002678,0.000431,0.039137
28921000,0.0324,0.013523,0.002678,0.000431,0.029735
28922000,0.0324,0.013523,0.002678,0.000431,0.023623
28923000,0.0324,0.013523,0.002678,0.000431,0.021155
28924000,0.0324,0.013523,0.002678,0.000431,0.018217
28925000,0.0324,0.013523,0.002678,0.000431,0.017864
28926000,0.0324,0.013523,0.002678,0.000431,0.015514
28927000,0.0324,0.013523,0.002678,0.000431,0.013046
28928000,0.0324,0.013523,0.002678,0.000431,0.012458
28929000,0.0324,0.013523,0.002678,0.000431,0.008580
28930000,0.0324,0.013523,0.002678,0.000431,0.009285
28931000,0.0324,0.013523,0.002678,0.000431,0.008580
28932000,0.0324,0.013523,0.002678,0.000431,0.009637
28933000,0.0324,0.013523,0.002678,0.000431,0.006817
28934000,0.0324,0.013523,0.002678,0.000431,0.007522
28935000,0.0324,0.013523,0.002678,0.000431,0.005524
28936000,0.0324,0.013523,0.002678,0.000431,0.009637
28937000,0.0324,0.013523,0.002678,0.000431,0.003526
28938000,0.0324,0.013523,0.002678,0.000431,0.004701
28939000,0.0324,0.013523,0.002678,0.000431,0.002821
28940000,0.0324,0.013523,0.002678,0.000431,0.002703
28941000,0.0324,0.013523,0.002678,0.000431,0.003291
28942000,0.0324,0.013523,0.002678,0.000431,0.002586
28943000,0.0324,0.013523,0.002678,0.000431,0.001763
28944000,0.0324,0.013523,0.002678,0.000431,0.001645
28945000,0.0324,0.013523,0.002678,0.000431,0.003173
28946000,0.0324,0.013523,0.002678,0.000431,0.002468
28947000,0.0324,0.013523,0.002678,0.000431,0.001645
28948000,0.0324,0.013523,0.002678,0.000431,0.274076
28949000,0.0324,0.013523,0.002678,0.000431,0.678960
28950000,0.0324,0.013523,0.002678,0.000431,0.339069
28951000,0.0324,0.013523,0.002678,0.000431,0.131632
28952000,0.0324,0.013523,0.002678,0.000431,0.135275
28953000,0.0324,0.013523,0.002678,0.000431,0.607738
28954000,0.0324,0.013523,0.002678,0.000431,0.268317
28955000,0.0324,0.013523,0.002678,0.000431,0.242343
28956000,0.0324,0.013523,0.002678,0.000431,0.244694
28957000,0.0324,0.013523,0.002678,0.000431,0.139036
28958000,0.0324,0.013523,0.002678,0.000431,0.180758
28959000,0.0324,0.013523,0.002678,0.000431,0.093670
28960000,0.0324,0.013523,0.002678,0.000431,0.485862
28961000,0.0324,0.013523,0.002678,0.000431,0.153139
28962000,0.0324,0.013523,0.002678,0.000431,0.114002
28963000,0.0324,0.013523,0.002678,0.000431,0.099311
28964000,0.0324,0.013523,0.002678,0.000431,0.086853
28965000,0.0324,0.013523,0.002678,0.000431,0.076393
28966000,0.0324,0.013523,0.002678,0.000431,0.065111
28967000,0.0324,0.013523,0.002678,0.000431,0.053593
28968000,0.0324,0.013523,0.002678,0.000431,0.053005
28969000,0.0324,0.013523,0.002678,0.000431,0.046894
28970000,0.0324,0.013523,0.002678,0.000431,0.031615
28971000,0.0324,0.013523,0.002678,0.000431,0.027972
28972000,0.0324,0.013523,0.002678,0.000431,0.028442
28973000,0.0324,0.013523,0.002678,0.000431,0.026796
28974000,0.0324,0.013523,0.002678,0.000431,0.021273
28975000,0.0324,0.013523,0.002678,0.000431,0.021038
28976000,0.0324,0.013523,0.002678,0.000431,0.019275
28977000,0.0324,0.013523,0.002678,0.000431,0.018452
28978000,0.0324,0.013523,0.002678,0.000431,0.018217
28979000,0.0324,0.013523,0.002678,0.000431,0.014691
28980000,0.0324,0.013523,0.002678,0.000431,0.018687
28981000,0.0324,0.013523,0.002678,0.000431,0.015984
28982000,0.0324,0.013523,0.002678,0.000431,0.010342
28983000,0.0324,0.013523,0.002678,0.000431,0.012576
28984000,0.0324,0.013523,0.002678,0.000431,0.011048
28985000,0.0324,0.013523,0.002678,0.000431,0.005406
28986000,0.0324,0.013523,0.002678,0.000431,0.006229
28987000,0.0324,0.013523,0.002678,0.000431,0.005289
28988000,0.0324,0.013523,0.002678,0.000431,0.003526
28989000,0.0324,0.013523,0.002678,0.000431,0.003173
28990000,0.0324,0.013523,0.002678,0.000431,0.003643
28991000,0.0324,0.013523,0.002678,0.000431,0.003173
28992000,0.0324,0.013523,0.002678,0.000431,0.003408
28993000,0.0324,0.013523,0.002678,0.000431,0.003173
28994000,0.0324,0.013523,0.002678,0.000431,0.003526
28995000,0.0324,0.013523,0.002678,0.000431,0.003291
28996000,0.0324,0.013523,0.002678,0.000431,0.003291
28997000,0.0324,0.013523,0.002678,0.000431,0.003173
28998000,0.0324,0.013523,0.002678,0.000431,0.003291
28999000,0.0324,0.013523,0.002678,0.000431,0.003526
