Cycle,Area(mm^2),PeakDynamic(W),SubthresholdLeakage(W),GateLeakage(W),RunTimeDynamic(W)
77000000,0.0324,0.013523,0.002678,0.000431,0.003761
77001000,0.0324,0.013523,0.002678,0.000431,0.002821
77002000,0.0324,0.013523,0.002678,0.000431,0.003291
77003000,0.0324,0.013523,0.002678,0.000431,0.005406
77004000,0.0324,0.013523,0.002678,0.000431,0.001528
77005000,0.0324,0.013523,0.002678,0.000431,0.001880
77006000,0.0324,0.013523,0.002678,0.000431,0.003408
77007000,0.0324,0.013523,0.002678,0.000431,0.072515
77008000,0.0324,0.013523,0.002678,0.000431,0.778624
77009000,0.0324,0.013523,0.002678,0.000431,0.531462
77010000,0.0324,0.013523,0.002678,0.000431,0.137743
77011000,0.0324,0.013523,0.002678,0.000431,0.365748
77012000,0.0324,0.013523,0.002678,0.000431,0.392544
77013000,0.0324,0.013523,0.002678,0.000431,0.302988
77014000,0.0324,0.013523,0.002678,0.000431,0.231295
77015000,0.0324,0.013523,0.002678,0.000431,0.182521
77016000,0.0324,0.013523,0.002678,0.000431,0.086971
77017000,0.0324,0.013523,0.002678,0.000431,0.604212
77018000,0.0324,0.013523,0.002678,0.000431,0.188163
77019000,0.0324,0.013523,0.002678,0.000431,0.138918
77020000,0.0324,0.013523,0.002678,0.000431,0.107068
77021000,0.0324,0.013523,0.002678,0.000431,0.100722
77022000,0.0324,0.013523,0.002678,0.000431,0.090027
77023000,0.0324,0.013523,0.002678,0.000431,0.068519
77024000,0.0324,0.013523,0.002678,0.000431,0.054063
77025000,0.0324,0.013523,0.002678,0.000431,0.046189
77026000,0.0324,0.013523,0.002678,0.000431,0.043133
77027000,0.0324,0.013523,0.002678,0.000431,0.030557
77028000,0.0324,0.013523,0.002678,0.000431,0.037139
77029000,0.0324,0.013523,0.002678,0.000431,0.024798
77030000,0.0324,0.013523,0.002678,0.000431,0.017394
77031000,0.0324,0.013523,0.002678,0.000431,0.019275
77032000,0.0324,0.013523,0.002678,0.000431,0.010107
77033000,0.0324,0.013523,0.002678,0.000431,0.007757
77034000,0.0324,0.013523,0.002678,0.000431,0.008580
77035000,0.0324,0.013523,0.002678,0.000431,0.003643
77036000,0.0324,0.013523,0.002678,0.000431,0.003761
77037000,0.0324,0.013523,0.002678,0.000431,0.006347
77038000,0.0324,0.013523,0.002678,0.000431,0.002586
77039000,0.0324,0.013523,0.002678,0.000431,0.002703
77040000,0.0324,0.013523,0.002678,0.000431,0.002586
77041000,0.0324,0.013523,0.002678,0.000431,0.004584
77042000,0.0324,0.013523,0.002678,0.000431,0.004584
77043000,0.0324,0.013523,0.002678,0.000431,0.002116
77044000,0.0324,0.013523,0.002678,0.000431,0.000705
77045000,0.0324,0.013523,0.002678,0.000431,0.000940
77046000,0.0324,0.013523,0.002678,0.000431,0.000705
77047000,0.0324,0.013523,0.002678,0.000431,0.000940
77048000,0.0324,0.013523,0.002678,0.000431,0.051007
77049000,0.0324,0.013523,0.002678,0.000431,0.810357
77050000,0.0324,0.013523,0.002678,0.000431,0.520885
77051000,0.0324,0.013523,0.002678,0.000431,0.151141
77052000,0.0324,0.013523,0.002678,0.000431,0.244224
77053000,0.0324,0.013523,0.002678,0.000431,0.466587
77054000,0.0324,0.013523,0.002678,0.000431,0.283243
77055000,0.0324,0.013523,0.002678,0.000431,0.264203
77056000,0.0324,0.013523,0.002678,0.000431,0.164892
77057000,0.0324,0.013523,0.002678,0.000431,0.105188
77058000,0.0324,0.013523,0.002678,0.000431,0.535106
77059000,0.0324,0.013523,0.002678,0.000431,0.296524
77060000,0.0324,0.013523,0.002678,0.000431,0.219895
77061000,0.0324,0.013523,0.002678,0.000431,0.169476
77062000,0.0324,0.013523,0.002678,0.000431,0.142444
77063000,0.0324,0.013523,0.002678,0.000431,0.108596
77064000,0.0324,0.013523,0.002678,0.000431,0.078861
77065000,0.0324,0.013523,0.002678,0.000431,0.078979
77066000,0.0324,0.013523,0.002678,0.000431,0.049127
77067000,0.0324,0.013523,0.002678,0.000431,0.045836
77068000,0.0324,0.013523,0.002678,0.000431,0.032555
77069000,0.0324,0.013523,0.002678,0.000431,0.033143
77070000,0.0324,0.013523,0.002678,0.000431,0.022095
77071000,0.0324,0.013523,0.002678,0.000431,0.017394
77072000,0.0324,0.013523,0.002678,0.000431,0.015984
77073000,0.0324,0.013523,0.002678,0.000431,0.014573
77074000,0.0324,0.013523,0.002678,0.000431,0.014573
77075000,0.0324,0.013523,0.002678,0.000431,0.009050
77076000,0.0324,0.013523,0.002678,0.000431,0.009990
77077000,0.0324,0.013523,0.002678,0.000431,0.009402
77078000,0.0324,0.013523,0.002678,0.000431,0.012458
77079000,0.0324,0.013523,0.002678,0.000431,0.008932
77080000,0.0324,0.013523,0.002678,0.000431,0.006817
77081000,0.0324,0.013523,0.002678,0.000431,0.007874
77082000,0.0324,0.013523,0.002678,0.000431,0.008580
77083000,0.0324,0.013523,0.002678,0.000431,0.005289
77084000,0.0324,0.013523,0.002678,0.000431,0.005641
77085000,0.0324,0.013523,0.002678,0.000431,0.003643
77086000,0.0324,0.013523,0.002678,0.000431,0.003408
77087000,0.0324,0.013523,0.002678,0.000431,0.006347
77088000,0.0324,0.013523,0.002678,0.000431,0.004113
77089000,0.0324,0.013523,0.002678,0.000431,0.000940
77090000,0.0324,0.013523,0.002678,0.000431,0.003761
77091000,0.0324,0.013523,0.002678,0.000431,0.680841
77092000,0.0324,0.013523,0.002678,0.000431,0.680841
77093000,0.0324,0.013523,0.002678,0.000431,0.151141
77094000,0.0324,0.013523,0.002678,0.000431,0.157253
77095000,0.0324,0.013523,0.002678,0.000431,0.532168
77096000,0.0324,0.013523,0.002678,0.000431,0.272783
77097000,0.0324,0.013523,0.002678,0.000431,0.281245
77098000,0.0324,0.013523,0.002678,0.000431,0.154315
77099000,0.0324,0.013523,0.002678,0.000431,0.117881
77100000,0.0324,0.013523,0.002678,0.000431,0.456715
77101000,0.0324,0.013523,0.002678,0.000431,0.391251
77102000,0.0324,0.013523,0.002678,0.000431,0.208495
77103000,0.0324,0.013523,0.002678,0.000431,0.176175
77104000,0.0324,0.013523,0.002678,0.000431,0.154667
77105000,0.0324,0.013523,0.002678,0.000431,0.120819
77106000,0.0324,0.013523,0.002678,0.000431,0.086853
77107000,0.0324,0.013523,0.002678,0.000431,0.069342
77108000,0.0324,0.013523,0.002678,0.000431,0.045366
77109000,0.0324,0.013523,0.002678,0.000431,0.039137
77110000,0.0324,0.013523,0.002678,0.000431,0.027149
77111000,0.0324,0.013523,0.002678,0.000431,0.023153
77112000,0.0324,0.013523,0.002678,0.000431,0.026561
77113000,0.0324,0.013523,0.002678,0.000431,0.022800
77114000,0.0324,0.013523,0.002678,0.000431,0.021155
77115000,0.0324,0.013523,0.002678,0.000431,0.019275
77116000,0.0324,0.013523,0.002678,0.000431,0.014103
77117000,0.0324,0.013523,0.002678,0.000431,0.013868
77118000,0.0324,0.013523,0.002678,0.000431,0.009050
77119000,0.0324,0.013523,0.002678,0.000431,0.006347
77120000,0.0324,0.013523,0.002678,0.000431,0.005524
77121000,0.0324,0.013523,0.002678,0.000431,0.003878
77122000,0.0324,0.013523,0.002678,0.000431,0.004349
77123000,0.0324,0.013523,0.002678,0.000431,0.005759
77124000,0.0324,0.013523,0.002678,0.000431,0.003526
77125000,0.0324,0.013523,0.002678,0.000431,0.009755
77126000,0.0324,0.013523,0.002678,0.000431,0.000940
77127000,0.0324,0.013523,0.002678,0.000431,0.150083
77128000,0.0324,0.013523,0.002678,0.000431,0.840914
77129000,0.0324,0.013523,0.002678,0.000431,0.491620
77130000,0.0324,0.013523,0.002678,0.000431,0.137743
77131000,0.0324,0.013523,0.002678,0.000431,0.483628
77132000,0.0324,0.013523,0.002678,0.000431,0.272313
77133000,0.0324,0.013523,0.002678,0.000431,0.312037
77134000,0.0324,0.013523,0.002678,0.000431,0.170651
77135000,0.0324,0.013523,0.002678,0.000431,0.174647
77136000,0.0324,0.013523,0.002678,0.000431,0.161249
77137000,0.0324,0.013523,0.002678,0.000431,0.546506
77138000,0.0324,0.013523,0.002678,0.000431,0.130691
77139000,0.0324,0.013523,0.002678,0.000431,0.110712
77140000,0.0324,0.013523,0.002678,0.000431,0.095080
77141000,0.0324,0.013523,0.002678,0.000431,0.081565
77142000,0.0324,0.013523,0.002678,0.000431,0.062760
77143000,0.0324,0.013523,0.002678,0.000431,0.045718
77144000,0.0324,0.013523,0.002678,0.000431,0.029382
77145000,0.0324,0.013523,0.002678,0.000431,0.025151
77146000,0.0324,0.013523,0.002678,0.000431,0.019745
77147000,0.0324,0.013523,0.002678,0.000431,0.020802
77148000,0.0324,0.013523,0.002678,0.000431,0.006699
77149000,0.0324,0.013523,0.002678,0.000431,0.009285
77150000,0.0324,0.013523,0.002678,0.000431,0.004231
77151000,0.0324,0.013523,0.002678,0.000431,0.006934
77152000,0.0324,0.013523,0.002678,0.000431,0.005641
77153000,0.0324,0.013523,0.002678,0.000431,0.003878
77154000,0.0324,0.013523,0.002678,0.000431,0.007874
77155000,0.0324,0.013523,0.002678,0.000431,0.003526
77156000,0.0324,0.013523,0.002678,0.000431,0.002938
77157000,0.0324,0.013523,0.002678,0.000431,0.001293
77158000,0.0324,0.013523,0.002678,0.000431,0.118351
77159000,0.0324,0.013523,0.002678,0.000431,0.769457
77160000,0.0324,0.013523,0.002678,0.000431,0.472463
77161000,0.0324,0.013523,0.002678,0.000431,0.137626
77162000,0.0324,0.013523,0.002678,0.000431,0.450956
77163000,0.0324,0.013523,0.002678,0.000431,0.321205
77164000,0.0324,0.013523,0.002678,0.000431,0.275133
77165000,0.0324,0.013523,0.002678,0.000431,0.226594
77166000,0.0324,0.013523,0.002678,0.000431,0.182874
77167000,0.0324,0.013523,0.002678,0.000431,0.088734
77168000,0.0324,0.013523,0.002678,0.000431,0.586936
77169000,0.0324,0.013523,0.002678,0.000431,0.223304
77170000,0.0324,0.013523,0.002678,0.000431,0.184167
77171000,0.0324,0.013523,0.002678,0.000431,0.158193
77172000,0.0324,0.013523,0.002678,0.000431,0.121289
77173000,0.0324,0.013523,0.002678,0.000431,0.092847
77174000,0.0324,0.013523,0.002678,0.000431,0.087911
77175000,0.0324,0.013523,0.002678,0.000431,0.068519
77176000,0.0324,0.013523,0.002678,0.000431,0.067696
77177000,0.0324,0.013523,0.002678,0.000431,0.037609
77178000,0.0324,0.013523,0.002678,0.000431,0.016689
77179000,0.0324,0.013523,0.002678,0.000431,0.020920
77180000,0.0324,0.013523,0.002678,0.000431,0.437440
77181000,0.0324,0.013523,0.002678,0.000431,0.806713
77182000,0.0324,0.013523,0.002678,0.000431,0.224714
77183000,0.0324,0.013523,0.002678,0.000431,0.137743
77184000,0.0324,0.013523,0.002678,0.000431,0.559669
77185000,0.0324,0.013523,0.002678,0.000431,0.270785
77186000,0.0324,0.013523,0.002678,0.000431,0.289237
77187000,0.0324,0.013523,0.002678,0.000431,0.160779
77188000,0.0324,0.013523,0.002678,0.000431,0.143267
77189000,0.0324,0.013523,0.002678,0.000431,0.243048
77190000,0.0324,0.013523,0.002678,0.000431,0.545213
77191000,0.0324,0.013523,0.002678,0.000431,0.173707
77192000,0.0324,0.013523,0.002678,0.000431,0.162659
77193000,0.0324,0.013523,0.002678,0.000431,0.133982
77194000,0.0324,0.013523,0.002678,0.000431,0.104483
77195000,0.0324,0.013523,0.002678,0.000431,0.091554
77196000,0.0324,0.013523,0.002678,0.000431,0.073925
77197000,0.0324,0.013523,0.002678,0.000431,0.046189
77198000,0.0324,0.013523,0.002678,0.000431,0.021743
77199000,0.0324,0.013523,0.002678,0.000431,0.017629
77200000,0.0324,0.013523,0.002678,0.000431,0.014456
77201000,0.0324,0.013523,0.002678,0.000431,0.016689
77202000,0.0324,0.013523,0.002678,0.000431,0.011635
77203000,0.0324,0.013523,0.002678,0.000431,0.006229
77204000,0.0324,0.013523,0.002678,0.000431,0.014456
77205000,0.0324,0.013523,0.002678,0.000431,0.002703
77206000,0.0324,0.013523,0.002678,0.000431,0.002233
77207000,0.0324,0.013523,0.002678,0.000431,0.001293
77208000,0.0324,0.013523,0.002678,0.000431,0.000940
77209000,0.0324,0.013523,0.002678,0.000431,0.001410
77210000,0.0324,0.013523,0.002678,0.000431,0.000823
77211000,0.0324,0.013523,0.002678,0.000431,0.000823
77212000,0.0324,0.013523,0.002678,0.000431,0.276779
77213000,0.0324,0.013523,0.002678,0.000431,0.795901
77214000,0.0324,0.013523,0.002678,0.000431,0.402064
77215000,0.0324,0.013523,0.002678,0.000431,0.145265
77216000,0.0324,0.013523,0.002678,0.000431,0.513951
77217000,0.0324,0.013523,0.002678,0.000431,0.258209
77218000,0.0324,0.013523,0.002678,0.000431,0.318854
77219000,0.0324,0.013523,0.002678,0.000431,0.167713
77220000,0.0324,0.013523,0.002678,0.000431,0.171826
77221000,0.0324,0.013523,0.002678,0.000431,0.167360
77222000,0.0324,0.013523,0.002678,0.000431,0.519475
77223000,0.0324,0.013523,0.002678,0.000431,0.180171
77224000,0.0324,0.013523,0.002678,0.000431,0.164775
77225000,0.0324,0.013523,0.002678,0.000431,0.147145
77226000,0.0324,0.013523,0.002678,0.000431,0.126225
77227000,0.0324,0.013523,0.002678,0.000431,0.104247
77228000,0.0324,0.013523,0.002678,0.000431,0.080272
77229000,0.0324,0.013523,0.002678,0.000431,0.083092
77230000,0.0324,0.013523,0.002678,0.000431,0.060997
77231000,0.0324,0.013523,0.002678,0.000431,0.045718
77232000,0.0324,0.013523,0.002678,0.000431,0.032908
77233000,0.0324,0.013523,0.002678,0.000431,0.027267
77234000,0.0324,0.013523,0.002678,0.000431,0.018569
77235000,0.0324,0.013523,0.002678,0.000431,0.013163
77236000,0.0324,0.013523,0.002678,0.000431,0.015866
77237000,0.0324,0.013523,0.002678,0.000431,0.010813
77238000,0.0324,0.013523,0.002678,0.000431,0.013163
77239000,0.0324,0.013523,0.002678,0.000431,0.008697
77240000,0.0324,0.013523,0.002678,0.000431,0.007404
77241000,0.0324,0.013523,0.002678,0.000431,0.008109
77242000,0.0324,0.013523,0.002678,0.000431,0.007757
77243000,0.0324,0.013523,0.002678,0.000431,0.006934
77244000,0.0324,0.013523,0.002678,0.000431,0.008462
77245000,0.0324,0.013523,0.002678,0.000431,0.007169
77246000,0.0324,0.013523,0.002678,0.000431,0.007757
77247000,0.0324,0.013523,0.002678,0.000431,0.007992
77248000,0.0324,0.013523,0.002678,0.000431,0.008227
77249000,0.0324,0.013523,0.002678,0.000431,0.008227
77250000,0.0324,0.013523,0.002678,0.000431,0.007287
77251000,0.0324,0.013523,0.002678,0.000431,0.006934
77252000,0.0324,0.013523,0.002678,0.000431,0.009050
77253000,0.0324,0.013523,0.002678,0.000431,0.009402
77254000,0.0324,0.013523,0.002678,0.000431,0.008580
77255000,0.0324,0.013523,0.002678,0.000431,0.007522
77256000,0.0324,0.013523,0.002678,0.000431,0.005171
77257000,0.0324,0.013523,0.002678,0.000431,0.005876
77258000,0.0324,0.013523,0.002678,0.000431,0.006582
77259000,0.0324,0.013523,0.002678,0.000431,0.004936
77260000,0.0324,0.013523,0.002678,0.000431,0.006464
77261000,0.0324,0.013523,0.002678,0.000431,0.005759
77262000,0.0324,0.013523,0.002678,0.000431,0.005524
77263000,0.0324,0.013523,0.002678,0.000431,0.006464
77264000,0.0324,0.013523,0.002678,0.000431,0.005406
77265000,0.0324,0.013523,0.002678,0.000431,0.006229
77266000,0.0324,0.013523,0.002678,0.000431,0.005759
77267000,0.0324,0.013523,0.002678,0.000431,0.006111
77268000,0.0324,0.013523,0.002678,0.000431,0.005641
77269000,0.0324,0.013523,0.002678,0.000431,0.009167
77270000,0.0324,0.013523,0.002678,0.000431,0.004231
77271000,0.0324,0.013523,0.002678,0.000431,0.000940
77272000,0.0324,0.013523,0.002678,0.000431,0.113297
77273000,0.0324,0.013523,0.002678,0.000431,0.755119
77274000,0.0324,0.013523,0.002678,0.000431,0.491150
77275000,0.0324,0.013523,0.002678,0.000431,0.136803
77276000,0.0324,0.013523,0.002678,0.000431,0.462356
77277000,0.0324,0.013523,0.002678,0.000431,0.302400
77278000,0.0324,0.013523,0.002678,0.000431,0.308041
77279000,0.0324,0.013523,0.002678,0.000431,0.215782
77280000,0.0324,0.013523,0.002678,0.000431,0.188280
77281000,0.0324,0.013523,0.002678,0.000431,0.087441
77282000,0.0324,0.013523,0.002678,0.000431,0.578826
77283000,0.0324,0.013523,0.002678,0.000431,0.232941
77284000,0.0324,0.013523,0.002678,0.000431,0.170651
77285000,0.0324,0.013523,0.002678,0.000431,0.136215
77286000,0.0324,0.013523,0.002678,0.000431,0.116470
77287000,0.0324,0.013523,0.002678,0.000431,0.081682
77288000,0.0324,0.013523,0.002678,0.000431,0.078744
77289000,0.0324,0.013523,0.002678,0.000431,0.040430
77290000,0.0324,0.013523,0.002678,0.000431,0.031027
77291000,0.0324,0.013523,0.002678,0.000431,0.022095
77292000,0.0324,0.013523,0.002678,0.000431,0.021038
77293000,0.0324,0.013523,0.002678,0.000431,0.020685
77294000,0.0324,0.013523,0.002678,0.000431,0.021155
77295000,0.0324,0.013523,0.002678,0.000431,0.017982
77296000,0.0324,0.013523,0.002678,0.000431,0.013751
77297000,0.0324,0.013523,0.002678,0.000431,0.007052
77298000,0.0324,0.013523,0.002678,0.000431,0.006699
77299000,0.0324,0.013523,0.002678,0.000431,0.004349
77300000,0.0324,0.013523,0.002678,0.000431,0.001058
77301000,0.0324,0.013523,0.002678,0.000431,0.000940
77302000,0.0324,0.013523,0.002678,0.000431,0.000705
77303000,0.0324,0.013523,0.002678,0.000431,0.073220
77304000,0.0324,0.013523,0.002678,0.000431,0.788262
77305000,0.0324,0.013523,0.002678,0.000431,0.551325
77306000,0.0324,0.013523,0.002678,0.000431,0.137743
77307000,0.0324,0.013523,0.002678,0.000431,0.229297
77308000,0.0324,0.013523,0.002678,0.000431,0.456127
77309000,0.0324,0.013523,0.002678,0.000431,0.246574
77310000,0.0324,0.013523,0.002678,0.000431,0.308864
77311000,0.0324,0.013523,0.002678,0.000431,0.153609
77312000,0.0324,0.013523,0.002678,0.000431,0.132689
77313000,0.0324,0.013523,0.002678,0.000431,0.326963
77314000,0.0324,0.013523,0.002678,0.000431,0.429213
77315000,0.0324,0.013523,0.002678,0.000431,0.160661
77316000,0.0324,0.013523,0.002678,0.000431,0.143737
77317000,0.0324,0.013523,0.002678,0.000431,0.129869
77318000,0.0324,0.013523,0.002678,0.000431,0.119174
77319000,0.0324,0.013523,0.002678,0.000431,0.091319
77320000,0.0324,0.013523,0.002678,0.000431,0.065581
77321000,0.0324,0.013523,0.002678,0.000431,0.056884
77322000,0.0324,0.013523,0.002678,0.000431,0.046659
77323000,0.0324,0.013523,0.002678,0.000431,0.028912
77324000,0.0324,0.013523,0.002678,0.000431,0.026444
77325000,0.0324,0.013523,0.002678,0.000431,0.024798
77326000,0.0324,0.013523,0.002678,0.000431,0.015044
77327000,0.0324,0.013523,0.002678,0.000431,0.020450
77328000,0.0324,0.013523,0.002678,0.000431,0.016689
77329000,0.0324,0.013523,0.002678,0.000431,0.011870
77330000,0.0324,0.013523,0.002678,0.000431,0.009285
77331000,0.0324,0.013523,0.002678,0.000431,0.007052
77332000,0.0324,0.013523,0.002678,0.000431,0.006229
77333000,0.0324,0.013523,0.002678,0.000431,0.006699
77334000,0.0324,0.013523,0.002678,0.000431,0.007052
77335000,0.0324,0.013523,0.002678,0.000431,0.009755
77336000,0.0324,0.013523,0.002678,0.000431,0.008580
77337000,0.0324,0.013523,0.002678,0.000431,0.005641
77338000,0.0324,0.013523,0.002678,0.000431,0.001528
77339000,0.0324,0.013523,0.002678,0.000431,0.001763
77340000,0.0324,0.013523,0.002678,0.000431,0.001645
77341000,0.0324,0.013523,0.002678,0.000431,0.001528
77342000,0.0324,0.013523,0.002678,0.000431,0.001763
77343000,0.0324,0.013523,0.002678,0.000431,0.001645
77344000,0.0324,0.013523,0.002678,0.000431,0.001645
77345000,0.0324,0.013523,0.002678,0.000431,0.001763
77346000,0.0324,0.013523,0.002678,0.000431,0.004113
77347000,0.0324,0.013523,0.002678,0.000431,0.000823
77348000,0.0324,0.013523,0.002678,0.000431,0.000823
77349000,0.0324,0.013523,0.002678,0.000431,0.000940
77350000,0.0324,0.013523,0.002678,0.000431,0.000940
77351000,0.0324,0.013523,0.002678,0.000431,0.127636
77352000,0.0324,0.013523,0.002678,0.000431,0.780270
77353000,0.0324,0.013523,0.002678,0.000431,0.471523
77354000,0.0324,0.013523,0.002678,0.000431,0.137743
77355000,0.0324,0.013523,0.002678,0.000431,0.460005
77356000,0.0324,0.013523,0.002678,0.000431,0.285829
77357000,0.0324,0.013523,0.002678,0.000431,0.288649
77358000,0.0324,0.013523,0.002678,0.000431,0.205909
77359000,0.0324,0.013523,0.002678,0.000431,0.184637
77360000,0.0324,0.013523,0.002678,0.000431,0.096021
77361000,0.0324,0.013523,0.002678,0.000431,0.573773
77362000,0.0324,0.013523,0.002678,0.000431,0.282303
77363000,0.0324,0.013523,0.002678,0.000431,0.209788
77364000,0.0324,0.013523,0.002678,0.000431,0.182756
77365000,0.0324,0.013523,0.002678,0.000431,0.162189
77366000,0.0324,0.013523,0.002678,0.000431,0.137978
77367000,0.0324,0.013523,0.002678,0.000431,0.111652
77368000,0.0324,0.013523,0.002678,0.000431,0.094728
77369000,0.0324,0.013523,0.002678,0.000431,0.082622
77370000,0.0324,0.013523,0.002678,0.000431,0.065816
77371000,0.0324,0.013523,0.002678,0.000431,0.058882
77372000,0.0324,0.013523,0.002678,0.000431,0.045718
77373000,0.0324,0.013523,0.002678,0.000431,0.039019
77374000,0.0324,0.013523,0.002678,0.000431,0.033731
77375000,0.0324,0.013523,0.002678,0.000431,0.040195
77376000,0.0324,0.013523,0.002678,0.000431,0.024563
77377000,0.0324,0.013523,0.002678,0.000431,0.012223
77378000,0.0324,0.013523,0.002678,0.000431,0.016924
77379000,0.0324,0.013523,0.002678,0.000431,0.018569
77380000,0.0324,0.013523,0.002678,0.000431,0.011870
77381000,0.0324,0.013523,0.002678,0.000431,0.005289
77382000,0.0324,0.013523,0.002678,0.000431,0.007052
77383000,0.0324,0.013523,0.002678,0.000431,0.005054
77384000,0.0324,0.013523,0.002678,0.000431,0.001880
77385000,0.0324,0.013523,0.002678,0.000431,0.001410
77386000,0.0324,0.013523,0.002678,0.000431,0.001293
77387000,0.0324,0.013523,0.002678,0.000431,0.001293
77388000,0.0324,0.013523,0.002678,0.000431,0.001058
77389000,0.0324,0.013523,0.002678,0.000431,0.001058
77390000,0.0324,0.013523,0.002678,0.000431,0.000940
77391000,0.0324,0.013523,0.002678,0.000431,0.072632
77392000,0.0324,0.013523,0.002678,0.000431,0.842912
77393000,0.0324,0.013523,0.002678,0.000431,0.538514
77394000,0.0324,0.013523,0.002678,0.000431,0.137743
77395000,0.0324,0.013523,0.002678,0.000431,0.417930
77396000,0.0324,0.013523,0.002678,0.000431,0.300402
77397000,0.0324,0.013523,0.002678,0.000431,0.342477
77398000,0.0324,0.013523,0.002678,0.000431,0.229415
77399000,0.0324,0.013523,0.002678,0.000431,0.166185
77400000,0.0324,0.013523,0.002678,0.000431,0.149496
77401000,0.0324,0.013523,0.002678,0.000431,0.586231
77402000,0.0324,0.013523,0.002678,0.000431,0.231766
77403000,0.0324,0.013523,0.002678,0.000431,0.198035
77404000,0.0324,0.013523,0.002678,0.000431,0.167948
77405000,0.0324,0.013523,0.002678,0.000431,0.146088
77406000,0.0324,0.013523,0.002678,0.000431,0.122934
77407000,0.0324,0.013523,0.002678,0.000431,0.079449
77408000,0.0324,0.013523,0.002678,0.000431,0.060880
77409000,0.0324,0.013523,0.002678,0.000431,0.050185
77410000,0.0324,0.013523,0.002678,0.000431,0.041723
77411000,0.0324,0.013523,0.002678,0.000431,0.030322
77412000,0.0324,0.013523,0.002678,0.000431,0.025386
77413000,0.0324,0.013523,0.002678,0.000431,0.020097
77414000,0.0324,0.013523,0.002678,0.000431,0.011048
77415000,0.0324,0.013523,0.002678,0.000431,0.003056
77416000,0.0324,0.013523,0.002678,0.000431,0.003526
77417000,0.0324,0.013523,0.002678,0.000431,0.003173
77418000,0.0324,0.013523,0.002678,0.000431,0.003878
77419000,0.0324,0.013523,0.002678,0.000431,0.002586
77420000,0.0324,0.013523,0.002678,0.000431,0.003291
77421000,0.0324,0.013523,0.002678,0.000431,0.003056
77422000,0.0324,0.013523,0.002678,0.000431,0.002821
77423000,0.0324,0.013523,0.002678,0.000431,0.003056
77424000,0.0324,0.013523,0.002678,0.000431,0.003643
77425000,0.0324,0.013523,0.002678,0.000431,0.002468
77426000,0.0324,0.013523,0.002678,0.000431,0.004936
77427000,0.0324,0.013523,0.002678,0.000431,0.001175
77428000,0.0324,0.013523,0.002678,0.000431,0.001410
77429000,0.0324,0.013523,0.002678,0.000431,0.073573
77430000,0.0324,0.013523,0.002678,0.000431,0.841032
77431000,0.0324,0.013523,0.002678,0.000431,0.517594
77432000,0.0324,0.013523,0.002678,0.000431,0.141739
77433000,0.0324,0.013523,0.002678,0.000431,0.422984
77434000,0.0324,0.013523,0.002678,0.000431,0.306043
77435000,0.0324,0.013523,0.002678,0.000431,0.287474
77436000,0.0324,0.013523,0.002678,0.000431,0.211903
77437000,0.0324,0.013523,0.002678,0.000431,0.194862
77438000,0.0324,0.013523,0.002678,0.000431,0.095433
77439000,0.0324,0.013523,0.002678,0.000431,0.584703
77440000,0.0324,0.013523,0.002678,0.000431,0.267142
77441000,0.0324,0.013523,0.002678,0.000431,0.198505
77442000,0.0324,0.013523,0.002678,0.000431,0.167948
77443000,0.0324,0.013523,0.002678,0.000431,0.141504
77444000,0.0324,0.013523,0.002678,0.000431,0.100134
77445000,0.0324,0.013523,0.002678,0.000431,0.068989
77446000,0.0324,0.013523,0.002678,0.000431,0.046189
77447000,0.0324,0.013523,0.002678,0.000431,0.047599
77448000,0.0324,0.013523,0.002678,0.000431,0.039725
77449000,0.0324,0.013523,0.002678,0.000431,0.028677
77450000,0.0324,0.013523,0.002678,0.000431,0.023153
77451000,0.0324,0.013523,0.002678,0.000431,0.023388
77452000,0.0324,0.013523,0.002678,0.000431,0.020215
77453000,0.0324,0.013523,0.002678,0.000431,0.016924
77454000,0.0324,0.013523,0.002678,0.000431,0.011165
77455000,0.0324,0.013523,0.002678,0.000431,0.016807
77456000,0.0324,0.013523,0.002678,0.000431,0.009285
77457000,0.0324,0.013523,0.002678,0.000431,0.009050
77458000,0.0324,0.013523,0.002678,0.000431,0.009520
77459000,0.0324,0.013523,0.002678,0.000431,0.012458
77460000,0.0324,0.013523,0.002678,0.000431,0.005876
77461000,0.0324,0.013523,0.002678,0.000431,0.006111
77462000,0.0324,0.013523,0.002678,0.000431,0.006582
77463000,0.0324,0.013523,0.002678,0.000431,0.008697
77464000,0.0324,0.013523,0.002678,0.000431,0.009637
77465000,0.0324,0.013523,0.002678,0.000431,0.005641
77466000,0.0324,0.013523,0.002678,0.000431,0.009520
77467000,0.0324,0.013523,0.002678,0.000431,0.718802
77468000,0.0324,0.013523,0.002678,0.000431,0.698588
77469000,0.0324,0.013523,0.002678,0.000431,0.139859
77470000,0.0324,0.013523,0.002678,0.000431,0.144560
77471000,0.0324,0.013523,0.002678,0.000431,0.524411
77472000,0.0324,0.013523,0.002678,0.000431,0.289472
77473000,0.0324,0.013523,0.002678,0.000431,0.301577
77474000,0.0324,0.013523,0.002678,0.000431,0.163599
77475000,0.0324,0.013523,0.002678,0.000431,0.110124
77476000,0.0324,0.013523,0.002678,0.000431,0.467997
77477000,0.0324,0.013523,0.002678,0.000431,0.375385
77478000,0.0324,0.013523,0.002678,0.000431,0.211316
77479000,0.0324,0.013523,0.002678,0.000431,0.184402
77480000,0.0324,0.013523,0.002678,0.000431,0.155137
77481000,0.0324,0.013523,0.002678,0.000431,0.112945
77482000,0.0324,0.013523,0.002678,0.000431,0.092847
77483000,0.0324,0.013523,0.002678,0.000431,0.080389
77484000,0.0324,0.013523,0.002678,0.000431,0.059352
77485000,0.0324,0.013523,0.002678,0.000431,0.041252
77486000,0.0324,0.013523,0.002678,0.000431,0.025269
77487000,0.0324,0.013523,0.002678,0.000431,0.026091
77488000,0.0324,0.013523,0.002678,0.000431,0.018099
77489000,0.0324,0.013523,0.002678,0.000431,0.016101
77490000,0.0324,0.013523,0.002678,0.000431,0.017042
77491000,0.0324,0.013523,0.002678,0.000431,0.008345
77492000,0.0324,0.013523,0.002678,0.000431,0.007639
77493000,0.0324,0.013523,0.002678,0.000431,0.008227
77494000,0.0324,0.013523,0.002678,0.000431,0.007287
77495000,0.0324,0.013523,0.002678,0.000431,0.009285
77496000,0.0324,0.013523,0.002678,0.000431,0.008815
77497000,0.0324,0.013523,0.002678,0.000431,0.009520
77498000,0.0324,0.013523,0.002678,0.000431,0.010342
77499000,0.0324,0.013523,0.002678,0.000431,0.008815
77500000,0.0324,0.013523,0.002678,0.000431,0.007522
77501000,0.0324,0.013523,0.002678,0.000431,0.001645
77502000,0.0324,0.013523,0.002678,0.000431,0.001645
77503000,0.0324,0.013523,0.002678,0.000431,0.001058
77504000,0.0324,0.013523,0.002678,0.000431,0.001293
77505000,0.0324,0.013523,0.002678,0.000431,0.001410
77506000,0.0324,0.013523,0.002678,0.000431,0.001645
77507000,0.0324,0.013523,0.002678,0.000431,0.149731
77508000,0.0324,0.013523,0.002678,0.000431,0.841149
77509000,0.0324,0.013523,0.002678,0.000431,0.490093
77510000,0.0324,0.013523,0.002678,0.000431,0.141739
77511000,0.0324,0.013523,0.002678,0.000431,0.472816
77512000,0.0324,0.013523,0.002678,0.000431,0.264438
77513000,0.0324,0.013523,0.002678,0.000431,0.308982
77514000,0.0324,0.013523,0.002678,0.000431,0.215077
77515000,0.0324,0.013523,0.002678,0.000431,0.187222
77516000,0.0324,0.013523,0.002678,0.000431,0.095550
77517000,0.0324,0.013523,0.002678,0.000431,0.584350
77518000,0.0324,0.013523,0.002678,0.000431,0.246574
77519000,0.0324,0.013523,0.002678,0.000431,0.191571
77520000,0.0324,0.013523,0.002678,0.000431,0.163599
77521000,0.0324,0.013523,0.002678,0.000431,0.132689
77522000,0.0324,0.013523,0.002678,0.000431,0.113415
77523000,0.0324,0.013523,0.002678,0.000431,0.074983
77524000,0.0324,0.013523,0.002678,0.000431,0.050655
77525000,0.0324,0.013523,0.002678,0.000431,0.046424
77526000,0.0324,0.013523,0.002678,0.000431,0.047951
77527000,0.0324,0.013523,0.002678,0.000431,0.030792
77528000,0.0324,0.013523,0.002678,0.000431,0.020685
77529000,0.0324,0.013523,0.002678,0.000431,0.023741
77530000,0.0324,0.013523,0.002678,0.000431,0.017394
77531000,0.0324,0.013523,0.002678,0.000431,0.016807
77532000,0.0324,0.013523,0.002678,0.000431,0.013398
77533000,0.0324,0.013523,0.002678,0.000431,0.017512
77534000,0.0324,0.013523,0.002678,0.000431,0.011753
77535000,0.0324,0.013523,0.002678,0.000431,0.013868
77536000,0.0324,0.013523,0.002678,0.000431,0.018217
77537000,0.0324,0.013523,0.002678,0.000431,0.010813
77538000,0.0324,0.013523,0.002678,0.000431,0.009520
77539000,0.0324,0.013523,0.002678,0.000431,0.009050
77540000,0.0324,0.013523,0.002678,0.000431,0.007287
77541000,0.0324,0.013523,0.002678,0.000431,0.005524
77542000,0.0324,0.013523,0.002678,0.000431,0.005524
77543000,0.0324,0.013523,0.002678,0.000431,0.001645
77544000,0.0324,0.013523,0.002678,0.000431,0.001763
77545000,0.0324,0.013523,0.002678,0.000431,0.001528
77546000,0.0324,0.013523,0.002678,0.000431,0.001645
77547000,0.0324,0.013523,0.002678,0.000431,0.005759
77548000,0.0324,0.013523,0.002678,0.000431,0.000823
77549000,0.0324,0.013523,0.002678,0.000431,0.017159
77550000,0.0324,0.013523,0.002678,0.000431,0.856428
77551000,0.0324,0.013523,0.002678,0.000431,0.542745
77552000,0.0324,0.013523,0.002678,0.000431,0.141269
77553000,0.0324,0.013523,0.002678,0.000431,0.205792
77554000,0.0324,0.013523,0.002678,0.000431,0.473286
77555000,0.0324,0.013523,0.002678,0.000431,0.290412
77556000,0.0324,0.013523,0.002678,0.000431,0.268787
77557000,0.0324,0.013523,0.002678,0.000431,0.160779
77558000,0.0324,0.013523,0.002678,0.000431,0.115765
77559000,0.0324,0.013523,0.002678,0.000431,0.488565
77560000,0.0324,0.013523,0.002678,0.000431,0.318971
77561000,0.0324,0.013523,0.002678,0.000431,0.195449
77562000,0.0324,0.013523,0.002678,0.000431,0.176527
77563000,0.0324,0.013523,0.002678,0.000431,0.144560
77564000,0.0324,0.013523,0.002678,0.000431,0.115060
77565000,0.0324,0.013523,0.002678,0.000431,0.082857
77566000,0.0324,0.013523,0.002678,0.000431,0.064993
77567000,0.0324,0.013523,0.002678,0.000431,0.047599
77568000,0.0324,0.013523,0.002678,0.000431,0.047481
77569000,0.0324,0.013523,0.002678,0.000431,0.030557
77570000,0.0324,0.013523,0.002678,0.000431,0.028207
77571000,0.0324,0.013523,0.002678,0.000431,0.015749
77572000,0.0324,0.013523,0.002678,0.000431,0.012105
77573000,0.0324,0.013523,0.002678,0.000431,0.017864
77574000,0.0324,0.013523,0.002678,0.000431,0.007874
77575000,0.0324,0.013523,0.002678,0.000431,0.005289
77576000,0.0324,0.013523,0.002678,0.000431,0.002586
77577000,0.0324,0.013523,0.002678,0.000431,0.001998
77578000,0.0324,0.013523,0.002678,0.000431,0.002233
77579000,0.0324,0.013523,0.002678,0.000431,0.002351
77580000,0.0324,0.013523,0.002678,0.000431,0.002233
77581000,0.0324,0.013523,0.002678,0.000431,0.001880
77582000,0.0324,0.013523,0.002678,0.000431,0.003173
77583000,0.0324,0.013523,0.002678,0.000431,0.000823
77584000,0.0324,0.013523,0.002678,0.000431,0.000823
77585000,0.0324,0.013523,0.002678,0.000431,0.000823
77586000,0.0324,0.013523,0.002678,0.000431,0.000823
77587000,0.0324,0.013523,0.002678,0.000431,0.000823
77588000,0.0324,0.013523,0.002678,0.000431,0.000823
77589000,0.0324,0.013523,0.002678,0.000431,0.000823
77590000,0.0324,0.013523,0.002678,0.000431,0.000823
77591000,0.0324,0.013523,0.002678,0.000431,0.000940
77592000,0.0324,0.013523,0.002678,0.000431,0.069812
77593000,0.0324,0.013523,0.002678,0.000431,0.789789
77594000,0.0324,0.013523,0.002678,0.000431,0.547446
77595000,0.0324,0.013523,0.002678,0.000431,0.142209
77596000,0.0324,0.013523,0.002678,0.000431,0.264673
77597000,0.0324,0.013523,0.002678,0.000431,0.506782
77598000,0.0324,0.013523,0.002678,0.000431,0.306631
77599000,0.0324,0.013523,0.002678,0.000431,0.257269
77600000,0.0324,0.013523,0.002678,0.000431,0.168535
77601000,0.0324,0.013523,0.002678,0.000431,0.135628
77602000,0.0324,0.013523,0.002678,0.000431,0.577063
77603000,0.0324,0.013523,0.002678,0.000431,0.260207
77604000,0.0324,0.013523,0.002678,0.000431,0.206732
77605000,0.0324,0.013523,0.002678,0.000431,0.180288
77606000,0.0324,0.013523,0.002678,0.000431,0.145147
77607000,0.0324,0.013523,0.002678,0.000431,0.125520
77608000,0.0324,0.013523,0.002678,0.000431,0.103777
77609000,0.0324,0.013523,0.002678,0.000431,0.093435
77610000,0.0324,0.013523,0.002678,0.000431,0.055708
77611000,0.0324,0.013523,0.002678,0.000431,0.050302
77612000,0.0324,0.013523,0.002678,0.000431,0.038197
77613000,0.0324,0.013523,0.002678,0.000431,0.034318
77614000,0.0324,0.013523,0.002678,0.000431,0.023741
77615000,0.0324,0.013523,0.002678,0.000431,0.030205
77616000,0.0324,0.013523,0.002678,0.000431,0.018334
77617000,0.0324,0.013523,0.002678,0.000431,0.007052
77618000,0.0324,0.013523,0.002678,0.000431,0.007757
77619000,0.0324,0.013523,0.002678,0.000431,0.002468
77620000,0.0324,0.013523,0.002678,0.000431,0.004584
77621000,0.0324,0.013523,0.002678,0.000431,0.001763
77622000,0.0324,0.013523,0.002678,0.000431,0.001763
77623000,0.0324,0.013523,0.002678,0.000431,0.001645
77624000,0.0324,0.013523,0.002678,0.000431,0.003291
77625000,0.0324,0.013523,0.002678,0.000431,0.000940
77626000,0.0324,0.013523,0.002678,0.000431,0.000940
77627000,0.0324,0.013523,0.002678,0.000431,0.000940
77628000,0.0324,0.013523,0.002678,0.000431,0.000705
77629000,0.0324,0.013523,0.002678,0.000431,0.003996
77630000,0.0324,0.013523,0.002678,0.000431,0.689538
77631000,0.0324,0.013523,0.002678,0.000431,0.692711
77632000,0.0324,0.013523,0.002678,0.000431,0.150789
77633000,0.0324,0.013523,0.002678,0.000431,0.147028
77634000,0.0324,0.013523,0.002678,0.000431,0.513951
77635000,0.0324,0.013523,0.002678,0.000431,0.235762
77636000,0.0324,0.013523,0.002678,0.000431,0.327434
77637000,0.0324,0.013523,0.002678,0.000431,0.153022
77638000,0.0324,0.013523,0.002678,0.000431,0.155607
77639000,0.0324,0.013523,0.002678,0.000431,0.223774
77640000,0.0324,0.013523,0.002678,0.000431,0.543098
77641000,0.0324,0.013523,0.002678,0.000431,0.286299
77642000,0.0324,0.013523,0.002678,0.000431,0.242696
77643000,0.0324,0.013523,0.002678,0.000431,0.198858
77644000,0.0324,0.013523,0.002678,0.000431,0.178173
77645000,0.0324,0.013523,0.002678,0.000431,0.160896
77646000,0.0324,0.013523,0.002678,0.000431,0.144560
77647000,0.0324,0.013523,0.002678,0.000431,0.110124
77648000,0.0324,0.013523,0.002678,0.000431,0.079332
77649000,0.0324,0.013523,0.002678,0.000431,0.063348
77650000,0.0324,0.013523,0.002678,0.000431,0.060645
77651000,0.0324,0.013523,0.002678,0.000431,0.044661
77652000,0.0324,0.013523,0.002678,0.000431,0.039725
77653000,0.0324,0.013523,0.002678,0.000431,0.030440
77654000,0.0324,0.013523,0.002678,0.000431,0.020802
77655000,0.0324,0.013523,0.002678,0.000431,0.020802
77656000,0.0324,0.013523,0.002678,0.000431,0.023623
77657000,0.0324,0.013523,0.002678,0.000431,0.022918
77658000,0.0324,0.013523,0.002678,0.000431,0.014456
77659000,0.0324,0.013523,0.002678,0.000431,0.014221
77660000,0.0324,0.013523,0.002678,0.000431,0.009520
77661000,0.0324,0.013523,0.002678,0.000431,0.009285
77662000,0.0324,0.013523,0.002678,0.000431,0.007287
77663000,0.0324,0.013523,0.002678,0.000431,0.006699
77664000,0.0324,0.013523,0.002678,0.000431,0.007639
77665000,0.0324,0.013523,0.002678,0.000431,0.006347
77666000,0.0324,0.013523,0.002678,0.000431,0.002468
77667000,0.0324,0.013523,0.002678,0.000431,0.005759
77668000,0.0324,0.013523,0.002678,0.000431,0.005641
77669000,0.0324,0.013523,0.002678,0.000431,0.000940
77670000,0.0324,0.013523,0.002678,0.000431,0.000823
77671000,0.0324,0.013523,0.002678,0.000431,0.000940
77672000,0.0324,0.013523,0.002678,0.000431,0.000940
77673000,0.0324,0.013523,0.002678,0.000431,0.000823
77674000,0.0324,0.013523,0.002678,0.000431,0.000940
77675000,0.0324,0.013523,0.002678,0.000431,0.000823
77676000,0.0324,0.013523,0.002678,0.000431,0.000940
77677000,0.0324,0.013523,0.002678,0.000431,0.000940
77678000,0.0324,0.013523,0.002678,0.000431,0.000940
77679000,0.0324,0.013523,0.002678,0.000431,0.000940
77680000,0.0324,0.013523,0.002678,0.000431,0.000940
77681000,0.0324,0.013523,0.002678,0.000431,0.223539
77682000,0.0324,0.013523,0.002678,0.000431,0.811532
77683000,0.0324,0.013523,0.002678,0.000431,0.476577
77684000,0.0324,0.013523,0.002678,0.000431,0.142444
77685000,0.0324,0.013523,0.002678,0.000431,0.514068
77686000,0.0324,0.013523,0.002678,0.000431,0.287474
77687000,0.0324,0.013523,0.002678,0.000431,0.277719
77688000,0.0324,0.013523,0.002678,0.000431,0.151846
77689000,0.0324,0.013523,0.002678,0.000431,0.186752
77690000,0.0324,0.013523,0.002678,0.000431,0.118821
77691000,0.0324,0.013523,0.002678,0.000431,0.582235
77692000,0.0324,0.013523,0.002678,0.000431,0.251510
77693000,0.0324,0.013523,0.002678,0.000431,0.189455
77694000,0.0324,0.013523,0.002678,0.000431,0.171591
77695000,0.0324,0.013523,0.002678,0.000431,0.127518
77696000,0.0324,0.013523,0.002678,0.000431,0.111417
77697000,0.0324,0.013523,0.002678,0.000431,0.087911
77698000,0.0324,0.013523,0.002678,0.000431,0.071927
77699000,0.0324,0.013523,0.002678,0.000431,0.058294
77700000,0.0324,0.013523,0.002678,0.000431,0.049832
77701000,0.0324,0.013523,0.002678,0.000431,0.042075
77702000,0.0324,0.013523,0.002678,0.000431,0.041840
77703000,0.0324,0.013523,0.002678,0.000431,0.030792
77704000,0.0324,0.013523,0.002678,0.000431,0.027737
77705000,0.0324,0.013523,0.002678,0.000431,0.018099
77706000,0.0324,0.013523,0.002678,0.000431,0.009050
77707000,0.0324,0.013523,0.002678,0.000431,0.009402
77708000,0.0324,0.013523,0.002678,0.000431,0.009402
77709000,0.0324,0.013523,0.002678,0.000431,0.004936
77710000,0.0324,0.013523,0.002678,0.000431,0.003056
77711000,0.0324,0.013523,0.002678,0.000431,0.005994
77712000,0.0324,0.013523,0.002678,0.000431,0.002351
77713000,0.0324,0.013523,0.002678,0.000431,0.000705
77714000,0.0324,0.013523,0.002678,0.000431,0.000940
77715000,0.0324,0.013523,0.002678,0.000431,0.000940
77716000,0.0324,0.013523,0.002678,0.000431,0.000705
77717000,0.0324,0.013523,0.002678,0.000431,0.000940
77718000,0.0324,0.013523,0.002678,0.000431,0.000705
77719000,0.0324,0.013523,0.002678,0.000431,0.000940
77720000,0.0324,0.013523,0.002678,0.000431,0.000705
77721000,0.0324,0.013523,0.002678,0.000431,0.000940
77722000,0.0324,0.013523,0.002678,0.000431,0.000823
77723000,0.0324,0.013523,0.002678,0.000431,0.280775
77724000,0.0324,0.013523,0.002678,0.000431,0.820347
77725000,0.0324,0.013523,0.002678,0.000431,0.381496
77726000,0.0324,0.013523,0.002678,0.000431,0.136803
77727000,0.0324,0.013523,0.002678,0.000431,0.475754
77728000,0.0324,0.013523,0.002678,0.000431,0.243636
77729000,0.0324,0.013523,0.002678,0.000431,0.322262
77730000,0.0324,0.013523,0.002678,0.000431,0.186282
77731000,0.0324,0.013523,0.002678,0.000431,0.191453
77732000,0.0324,0.013523,0.002678,0.000431,0.084620
77733000,0.0324,0.013523,0.002678,0.000431,0.591872
77734000,0.0324,0.013523,0.002678,0.000431,0.322732
77735000,0.0324,0.013523,0.002678,0.000431,0.235291
77736000,0.0324,0.013523,0.002678,0.000431,0.216134
77737000,0.0324,0.013523,0.002678,0.000431,0.167713
77738000,0.0324,0.013523,0.002678,0.000431,0.129399
77739000,0.0324,0.013523,0.002678,0.000431,0.121289
77740000,0.0324,0.013523,0.002678,0.000431,0.083680
77741000,0.0324,0.013523,0.002678,0.000431,0.090849
77742000,0.0324,0.013523,0.002678,0.000431,0.057941
77743000,0.0324,0.013523,0.002678,0.000431,0.039489
77744000,0.0324,0.013523,0.002678,0.000431,0.033966
77745000,0.0324,0.013523,0.002678,0.000431,0.032555
77746000,0.0324,0.013523,0.002678,0.000431,0.032673
77747000,0.0324,0.013523,0.002678,0.000431,0.021390
77748000,0.0324,0.013523,0.002678,0.000431,0.020097
77749000,0.0324,0.013523,0.002678,0.000431,0.009285
77750000,0.0324,0.013523,0.002678,0.000431,0.005994
77751000,0.0324,0.013523,0.002678,0.000431,0.010460
77752000,0.0324,0.013523,0.002678,0.000431,0.010342
77753000,0.0324,0.013523,0.002678,0.000431,0.001763
77754000,0.0324,0.013523,0.002678,0.000431,0.001528
77755000,0.0324,0.013523,0.002678,0.000431,0.005171
77756000,0.0324,0.013523,0.002678,0.000431,0.000940
77757000,0.0324,0.013523,0.002678,0.000431,0.000705
77758000,0.0324,0.013523,0.002678,0.000431,0.000940
77759000,0.0324,0.013523,0.002678,0.000431,0.000823
77760000,0.0324,0.013523,0.002678,0.000431,0.000823
77761000,0.0324,0.013523,0.002678,0.000431,0.000823
77762000,0.0324,0.013523,0.002678,0.000431,0.000823
77763000,0.0324,0.013523,0.002678,0.000431,0.000823
77764000,0.0324,0.013523,0.002678,0.000431,0.000823
77765000,0.0324,0.013523,0.002678,0.000431,0.000823
77766000,0.0324,0.013523,0.002678,0.000431,0.014103
77767000,0.0324,0.013523,0.002678,0.000431,0.906965
77768000,0.0324,0.013523,0.002678,0.000431,0.558259
77769000,0.0324,0.013523,0.002678,0.000431,0.164422
77770000,0.0324,0.013523,0.002678,0.000431,0.206732
77771000,0.0324,0.013523,0.002678,0.000431,0.564370
77772000,0.0324,0.013523,0.002678,0.000431,0.278189
77773000,0.0324,0.013523,0.002678,0.000431,0.275133
77774000,0.0324,0.013523,0.002678,0.000431,0.184754
77775000,0.0324,0.013523,0.002678,0.000431,0.087794
77776000,0.0324,0.013523,0.002678,0.000431,0.587993
77777000,0.0324,0.013523,0.002678,0.000431,0.298992
77778000,0.0324,0.013523,0.002678,0.000431,0.201796
77779000,0.0324,0.013523,0.002678,0.000431,0.176997
77780000,0.0324,0.013523,0.002678,0.000431,0.154550
77781000,0.0324,0.013523,0.002678,0.000431,0.125050
77782000,0.0324,0.013523,0.002678,0.000431,0.090262
77783000,0.0324,0.013523,0.002678,0.000431,0.065698
77784000,0.0324,0.013523,0.002678,0.000431,0.064053
77785000,0.0324,0.013523,0.002678,0.000431,0.038902
77786000,0.0324,0.013523,0.002678,0.000431,0.038314
77787000,0.0324,0.013523,0.002678,0.000431,0.031850
77788000,0.0324,0.013523,0.002678,0.000431,0.018334
77789000,0.0324,0.013523,0.002678,0.000431,0.015984
77790000,0.0324,0.013523,0.002678,0.000431,0.015514
77791000,0.0324,0.013523,0.002678,0.000431,0.013868
77792000,0.0324,0.013523,0.002678,0.000431,0.012105
77793000,0.0324,0.013523,0.002678,0.000431,0.008815
77794000,0.0324,0.013523,0.002678,0.000431,0.006464
77795000,0.0324,0.013523,0.002678,0.000431,0.007404
77796000,0.0324,0.013523,0.002678,0.000431,0.019980
77797000,0.0324,0.013523,0.002678,0.000431,0.004349
77798000,0.0324,0.013523,0.002678,0.000431,0.000823
77799000,0.0324,0.013523,0.002678,0.000431,0.000705
77800000,0.0324,0.013523,0.002678,0.000431,0.277131
77801000,0.0324,0.013523,0.002678,0.000431,0.792140
77802000,0.0324,0.013523,0.002678,0.000431,0.436147
77803000,0.0324,0.013523,0.002678,0.000431,0.156077
77804000,0.0324,0.013523,0.002678,0.000431,0.505019
77805000,0.0324,0.013523,0.002678,0.000431,0.257504
77806000,0.0324,0.013523,0.002678,0.000431,0.361399
77807000,0.0324,0.013523,0.002678,0.000431,0.182169
77808000,0.0324,0.013523,0.002678,0.000431,0.142679
77809000,0.0324,0.013523,0.002678,0.000431,0.234821
77810000,0.0324,0.013523,0.002678,0.000431,0.576476
77811000,0.0324,0.013523,0.002678,0.000431,0.247514
77812000,0.0324,0.013523,0.002678,0.000431,0.206615
77813000,0.0324,0.013523,0.002678,0.000431,0.155607
77814000,0.0324,0.013523,0.002678,0.000431,0.145147
77815000,0.0324,0.013523,0.002678,0.000431,0.098489
77816000,0.0324,0.013523,0.002678,0.000431,0.079449
77817000,0.0324,0.013523,0.002678,0.000431,0.075218
77818000,0.0324,0.013523,0.002678,0.000431,0.055356
77819000,0.0324,0.013523,0.002678,0.000431,0.043015
77820000,0.0324,0.013523,0.002678,0.000431,0.032085
77821000,0.0324,0.013523,0.002678,0.000431,0.027031
77822000,0.0324,0.013523,0.002678,0.000431,0.018922
77823000,0.0324,0.013523,0.002678,0.000431,0.015044
77824000,0.0324,0.013523,0.002678,0.000431,0.017042
77825000,0.0324,0.013523,0.002678,0.000431,0.010695
77826000,0.0324,0.013523,0.002678,0.000431,0.019040
77827000,0.0324,0.013523,0.002678,0.000431,0.011518
77828000,0.0324,0.013523,0.002678,0.000431,0.007052
77829000,0.0324,0.013523,0.002678,0.000431,0.005759
77830000,0.0324,0.013523,0.002678,0.000431,0.000705
77831000,0.0324,0.013523,0.002678,0.000431,0.000940
77832000,0.0324,0.013523,0.002678,0.000431,0.000823
77833000,0.0324,0.013523,0.002678,0.000431,0.000823
77834000,0.0324,0.013523,0.002678,0.000431,0.000823
77835000,0.0324,0.013523,0.002678,0.000431,0.000823
77836000,0.0324,0.013523,0.002678,0.000431,0.000823
77837000,0.0324,0.013523,0.002678,0.000431,0.000823
77838000,0.0324,0.013523,0.002678,0.000431,0.000940
77839000,0.0324,0.013523,0.002678,0.000431,0.000940
77840000,0.0324,0.013523,0.002678,0.000431,0.131279
77841000,0.0324,0.013523,0.002678,0.000431,0.903322
77842000,0.0324,0.013523,0.002678,0.000431,0.494324
77843000,0.0324,0.013523,0.002678,0.000431,0.139741
77844000,0.0324,0.013523,0.002678,0.000431,0.495969
77845000,0.0324,0.013523,0.002678,0.000431,0.281362
77846000,0.0324,0.013523,0.002678,0.000431,0.348001
77847000,0.0324,0.013523,0.002678,0.000431,0.181581
77848000,0.0324,0.013523,0.002678,0.000431,0.138213
77849000,0.0324,0.013523,0.002678,0.000431,0.237054
77850000,0.0324,0.013523,0.002678,0.000431,0.553910
77851000,0.0324,0.013523,0.002678,0.000431,0.197095
77852000,0.0324,0.013523,0.002678,0.000431,0.169358
77853000,0.0324,0.013523,0.002678,0.000431,0.172531
77854000,0.0324,0.013523,0.002678,0.000431,0.129281
77855000,0.0324,0.013523,0.002678,0.000431,0.107538
77856000,0.0324,0.013523,0.002678,0.000431,0.094845
77857000,0.0324,0.013523,0.002678,0.000431,0.061232
77858000,0.0324,0.013523,0.002678,0.000431,0.057354
77859000,0.0324,0.013523,0.002678,0.000431,0.039607
77860000,0.0324,0.013523,0.002678,0.000431,0.037727
77861000,0.0324,0.013523,0.002678,0.000431,0.031615
77862000,0.0324,0.013523,0.002678,0.000431,0.029147
77863000,0.0324,0.013523,0.002678,0.000431,0.026561
77864000,0.0324,0.013523,0.002678,0.000431,0.020097
77865000,0.0324,0.013523,0.002678,0.000431,0.014221
77866000,0.0324,0.013523,0.002678,0.000431,0.022095
77867000,0.0324,0.013523,0.002678,0.000431,0.011400
77868000,0.0324,0.013523,0.002678,0.000431,0.012105
77869000,0.0324,0.013523,0.002678,0.000431,0.010342
77870000,0.0324,0.013523,0.002678,0.000431,0.012693
77871000,0.0324,0.013523,0.002678,0.000431,0.018099
77872000,0.0324,0.013523,0.002678,0.000431,0.002821
77873000,0.0324,0.013523,0.002678,0.000431,0.004584
77874000,0.0324,0.013523,0.002678,0.000431,0.001645
77875000,0.0324,0.013523,0.002678,0.000431,0.001880
77876000,0.0324,0.013523,0.002678,0.000431,0.001880
77877000,0.0324,0.013523,0.002678,0.000431,0.001880
77878000,0.0324,0.013523,0.002678,0.000431,0.001880
77879000,0.0324,0.013523,0.002678,0.000431,0.001880
77880000,0.0324,0.013523,0.002678,0.000431,0.001528
77881000,0.0324,0.013523,0.002678,0.000431,0.002233
77882000,0.0324,0.013523,0.002678,0.000431,0.001528
77883000,0.0324,0.013523,0.002678,0.000431,0.001880
77884000,0.0324,0.013523,0.002678,0.000431,0.001528
77885000,0.0324,0.013523,0.002678,0.000431,0.001998
77886000,0.0324,0.013523,0.002678,0.000431,0.004466
77887000,0.0324,0.013523,0.002678,0.000431,0.000940
77888000,0.0324,0.013523,0.002678,0.000431,0.234939
77889000,0.0324,0.013523,0.002678,0.000431,0.805303
77890000,0.0324,0.013523,0.002678,0.000431,0.455657
77891000,0.0324,0.013523,0.002678,0.000431,0.138331
77892000,0.0324,0.013523,0.002678,0.000431,0.486802
77893000,0.0324,0.013523,0.002678,0.000431,0.273371
77894000,0.0324,0.013523,0.002678,0.000431,0.317561
77895000,0.0324,0.013523,0.002678,0.000431,0.151611
77896000,0.0324,0.013523,0.002678,0.000431,0.165010
77897000,0.0324,0.013523,0.002678,0.000431,0.195097
77898000,0.0324,0.013523,0.002678,0.000431,0.571775
77899000,0.0324,0.013523,0.002678,0.000431,0.208965
77900000,0.0324,0.013523,0.002678,0.000431,0.182404
77901000,0.0324,0.013523,0.002678,0.000431,0.162777
77902000,0.0324,0.013523,0.002678,0.000431,0.142679
77903000,0.0324,0.013523,0.002678,0.000431,0.104835
77904000,0.0324,0.013523,0.002678,0.000431,0.081447
77905000,0.0324,0.013523,0.002678,0.000431,0.076863
77906000,0.0324,0.013523,0.002678,0.000431,0.069929
77907000,0.0324,0.013523,0.002678,0.000431,0.043368
77908000,0.0324,0.013523,0.002678,0.000431,0.037256
77909000,0.0324,0.013523,0.002678,0.000431,0.024681
77910000,0.0324,0.013523,0.002678,0.000431,0.014456
77911000,0.0324,0.013523,0.002678,0.000431,0.016101
77912000,0.0324,0.013523,0.002678,0.000431,0.010460
77913000,0.0324,0.013523,0.002678,0.000431,0.013281
77914000,0.0324,0.013523,0.002678,0.000431,0.011753
77915000,0.0324,0.013523,0.002678,0.000431,0.011635
77916000,0.0324,0.013523,0.002678,0.000431,0.007757
77917000,0.0324,0.013523,0.002678,0.000431,0.004349
77918000,0.0324,0.013523,0.002678,0.000431,0.007874
77919000,0.0324,0.013523,0.002678,0.000431,0.003408
77920000,0.0324,0.013523,0.002678,0.000431,0.002938
77921000,0.0324,0.013523,0.002678,0.000431,0.003291
77922000,0.0324,0.013523,0.002678,0.000431,0.002468
77923000,0.0324,0.013523,0.002678,0.000431,0.002821
77924000,0.0324,0.013523,0.002678,0.000431,0.005289
77925000,0.0324,0.013523,0.002678,0.000431,0.001410
77926000,0.0324,0.013523,0.002678,0.000431,0.000705
77927000,0.0324,0.013523,0.002678,0.000431,0.000940
77928000,0.0324,0.013523,0.002678,0.000431,0.196037
77929000,0.0324,0.013523,0.002678,0.000431,0.831982
77930000,0.0324,0.013523,0.002678,0.000431,0.457185
77931000,0.0324,0.013523,0.002678,0.000431,0.138213
77932000,0.0324,0.013523,0.002678,0.000431,0.530640
77933000,0.0324,0.013523,0.002678,0.000431,0.258444
77934000,0.0324,0.013523,0.002678,0.000431,0.305456
77935000,0.0324,0.013523,0.002678,0.000431,0.148438
77936000,0.0324,0.013523,0.002678,0.000431,0.153609
77937000,0.0324,0.013523,0.002678,0.000431,0.238465
77938000,0.0324,0.013523,0.002678,0.000431,0.541335
77939000,0.0324,0.013523,0.002678,0.000431,0.189926
77940000,0.0324,0.013523,0.002678,0.000431,0.160308
77941000,0.0324,0.013523,0.002678,0.000431,0.146088
77942000,0.0324,0.013523,0.002678,0.000431,0.100134
77943000,0.0324,0.013523,0.002678,0.000431,0.092142
77944000,0.0324,0.013523,0.002678,0.000431,0.064170
77945000,0.0324,0.013523,0.002678,0.000431,0.040312
77946000,0.0324,0.013523,0.002678,0.000431,0.027502
77947000,0.0324,0.013523,0.002678,0.000431,0.024328
77948000,0.0324,0.013523,0.002678,0.000431,0.021625
77949000,0.0324,0.013523,0.002678,0.000431,0.020685
77950000,0.0324,0.013523,0.002678,0.000431,0.015866
77951000,0.0324,0.013523,0.002678,0.000431,0.010930
77952000,0.0324,0.013523,0.002678,0.000431,0.011165
77953000,0.0324,0.013523,0.002678,0.000431,0.002703
77954000,0.0324,0.013523,0.002678,0.000431,0.002821
77955000,0.0324,0.013523,0.002678,0.000431,0.003056
77956000,0.0324,0.013523,0.002678,0.000431,0.003643
77957000,0.0324,0.013523,0.002678,0.000431,0.003996
77958000,0.0324,0.013523,0.002678,0.000431,0.000823
77959000,0.0324,0.013523,0.002678,0.000431,0.000940
77960000,0.0324,0.013523,0.002678,0.000431,0.000823
77961000,0.0324,0.013523,0.002678,0.000431,0.000823
77962000,0.0324,0.013523,0.002678,0.000431,0.000823
77963000,0.0324,0.013523,0.002678,0.000431,0.000823
77964000,0.0324,0.013523,0.002678,0.000431,0.000823
77965000,0.0324,0.013523,0.002678,0.000431,0.000823
77966000,0.0324,0.013523,0.002678,0.000431,0.000940
77967000,0.0324,0.013523,0.002678,0.000431,0.000823
77968000,0.0324,0.013523,0.002678,0.000431,0.000940
77969000,0.0324,0.013523,0.002678,0.000431,0.000823
77970000,0.0324,0.013523,0.002678,0.000431,0.000940
77971000,0.0324,0.013523,0.002678,0.000431,0.000940
77972000,0.0324,0.013523,0.002678,0.000431,0.000823
77973000,0.0324,0.013523,0.002678,0.000431,0.000823
77974000,0.0324,0.013523,0.002678,0.000431,0.000940
77975000,0.0324,0.013523,0.002678,0.000431,0.000823
77976000,0.0324,0.013523,0.002678,0.000431,0.000940
77977000,0.0324,0.013523,0.002678,0.000431,0.071927
77978000,0.0324,0.013523,0.002678,0.000431,0.847613
77979000,0.0324,0.013523,0.002678,0.000431,0.507369
77980000,0.0324,0.013523,0.002678,0.000431,0.140446
77981000,0.0324,0.013523,0.002678,0.000431,0.399713
77982000,0.0324,0.013523,0.002678,0.000431,0.343770
77983000,0.0324,0.013523,0.002678,0.000431,0.278072
77984000,0.0324,0.013523,0.002678,0.000431,0.238112
77985000,0.0324,0.013523,0.002678,0.000431,0.183226
77986000,0.0324,0.013523,0.002678,0.000431,0.104365
77987000,0.0324,0.013523,0.002678,0.000431,0.572715
77988000,0.0324,0.013523,0.002678,0.000431,0.273253
77989000,0.0324,0.013523,0.002678,0.000431,0.202031
77990000,0.0324,0.013523,0.002678,0.000431,0.172296
77991000,0.0324,0.013523,0.002678,0.000431,0.146440
77992000,0.0324,0.013523,0.002678,0.000431,0.141151
77993000,0.0324,0.013523,0.002678,0.000431,0.115178
77994000,0.0324,0.013523,0.002678,0.000431,0.101897
77995000,0.0324,0.013523,0.002678,0.000431,0.051830
77996000,0.0324,0.013523,0.002678,0.000431,0.052653
77997000,0.0324,0.013523,0.002678,0.000431,0.028794
77998000,0.0324,0.013523,0.002678,0.000431,0.028324
77999000,0.0324,0.013523,0.002678,0.000431,0.025739
