Cycle,Area(mm^2),PeakDynamic(W),SubthresholdLeakage(W),GateLeakage(W),RunTimeDynamic(W)
85000000,0.0324,0.013523,0.002678,0.000431,0.010342
85001000,0.0324,0.013523,0.002678,0.000431,0.009755
85002000,0.0324,0.013523,0.002678,0.000431,0.009402
85003000,0.0324,0.013523,0.002678,0.000431,0.009402
85004000,0.0324,0.013523,0.002678,0.000431,0.007052
85005000,0.0324,0.013523,0.002678,0.000431,0.007287
85006000,0.0324,0.013523,0.002678,0.000431,0.009637
85007000,0.0324,0.013523,0.002678,0.000431,0.006464
85008000,0.0324,0.013523,0.002678,0.000431,0.007169
85009000,0.0324,0.013523,0.002678,0.000431,0.008580
85010000,0.0324,0.013523,0.002678,0.000431,0.004466
85011000,0.0324,0.013523,0.002678,0.000431,0.004231
85012000,0.0324,0.013523,0.002678,0.000431,0.004113
85013000,0.0324,0.013523,0.002678,0.000431,0.004231
85014000,0.0324,0.013523,0.002678,0.000431,0.004466
85015000,0.0324,0.013523,0.002678,0.000431,0.004936
85016000,0.0324,0.013523,0.002678,0.000431,0.003173
85017000,0.0324,0.013523,0.002678,0.000431,0.002703
85018000,0.0324,0.013523,0.002678,0.000431,0.003408
85019000,0.0324,0.013523,0.002678,0.000431,0.002938
85020000,0.0324,0.013523,0.002678,0.000431,0.002468
85021000,0.0324,0.013523,0.002678,0.000431,0.002116
85022000,0.0324,0.013523,0.002678,0.000431,0.000823
85023000,0.0324,0.013523,0.002678,0.000431,0.000823
85024000,0.0324,0.013523,0.002678,0.000431,0.000940
85025000,0.0324,0.013523,0.002678,0.000431,0.000705
85026000,0.0324,0.013523,0.002678,0.000431,0.000940
85027000,0.0324,0.013523,0.002678,0.000431,0.000705
85028000,0.0324,0.013523,0.002678,0.000431,0.000940
85029000,0.0324,0.013523,0.002678,0.000431,0.000705
85030000,0.0324,0.013523,0.002678,0.000431,0.000940
85031000,0.0324,0.013523,0.002678,0.000431,0.000705
85032000,0.0324,0.013523,0.002678,0.000431,0.071810
85033000,0.0324,0.013523,0.002678,0.000431,0.636180
85034000,0.0324,0.013523,0.002678,0.000431,0.575418
85035000,0.0324,0.013523,0.002678,0.000431,0.159721
85036000,0.0324,0.013523,0.002678,0.000431,0.159016
85037000,0.0324,0.013523,0.002678,0.000431,0.634417
85038000,0.0324,0.013523,0.002678,0.000431,0.264321
85039000,0.0324,0.013523,0.002678,0.000431,0.309804
85040000,0.0324,0.013523,0.002678,0.000431,0.209435
85041000,0.0324,0.013523,0.002678,0.000431,0.165362
85042000,0.0324,0.013523,0.002678,0.000431,0.099076
85043000,0.0324,0.013523,0.002678,0.000431,0.460240
85044000,0.0324,0.013523,0.002678,0.000431,0.365278
85045000,0.0324,0.013523,0.002678,0.000431,0.232001
85046000,0.0324,0.013523,0.002678,0.000431,0.191336
85047000,0.0324,0.013523,0.002678,0.000431,0.152669
85048000,0.0324,0.013523,0.002678,0.000431,0.119409
85049000,0.0324,0.013523,0.002678,0.000431,0.112357
85050000,0.0324,0.013523,0.002678,0.000431,0.080859
85051000,0.0324,0.013523,0.002678,0.000431,0.077569
85052000,0.0324,0.013523,0.002678,0.000431,0.060174
85053000,0.0324,0.013523,0.002678,0.000431,0.050655
85054000,0.0324,0.013523,0.002678,0.000431,0.040547
85055000,0.0324,0.013523,0.002678,0.000431,0.032673
85056000,0.0324,0.013523,0.002678,0.000431,0.023858
85057000,0.0324,0.013523,0.002678,0.000431,0.017394
85058000,0.0324,0.013523,0.002678,0.000431,0.016454
85059000,0.0324,0.013523,0.002678,0.000431,0.015396
85060000,0.0324,0.013523,0.002678,0.000431,0.020215
85061000,0.0324,0.013523,0.002678,0.000431,0.022213
85062000,0.0324,0.013523,0.002678,0.000431,0.009520
85063000,0.0324,0.013523,0.002678,0.000431,0.008345
85064000,0.0324,0.013523,0.002678,0.000431,0.008462
85065000,0.0324,0.013523,0.002678,0.000431,0.012576
85066000,0.0324,0.013523,0.002678,0.000431,0.005759
85067000,0.0324,0.013523,0.002678,0.000431,0.004349
85068000,0.0324,0.013523,0.002678,0.000431,0.002821
85069000,0.0324,0.013523,0.002678,0.000431,0.005641
85070000,0.0324,0.013523,0.002678,0.000431,0.004701
85071000,0.0324,0.013523,0.002678,0.000431,0.000705
85072000,0.0324,0.013523,0.002678,0.000431,0.000940
85073000,0.0324,0.013523,0.002678,0.000431,0.000705
85074000,0.0324,0.013523,0.002678,0.000431,0.000940
85075000,0.0324,0.013523,0.002678,0.000431,0.000705
85076000,0.0324,0.013523,0.002678,0.000431,0.003291
85077000,0.0324,0.013523,0.002678,0.000431,0.580707
85078000,0.0324,0.013523,0.002678,0.000431,0.730908
85079000,0.0324,0.013523,0.002678,0.000431,0.185930
85080000,0.0324,0.013523,0.002678,0.000431,0.145147
85081000,0.0324,0.013523,0.002678,0.000431,0.553205
85082000,0.0324,0.013523,0.002678,0.000431,0.306984
85083000,0.0324,0.013523,0.002678,0.000431,0.295818
85084000,0.0324,0.013523,0.002678,0.000431,0.275486
85085000,0.0324,0.013523,0.002678,0.000431,0.149496
85086000,0.0324,0.013523,0.002678,0.000431,0.112357
85087000,0.0324,0.013523,0.002678,0.000431,0.365513
85088000,0.0324,0.013523,0.002678,0.000431,0.405942
85089000,0.0324,0.013523,0.002678,0.000431,0.194509
85090000,0.0324,0.013523,0.002678,0.000431,0.171474
85091000,0.0324,0.013523,0.002678,0.000431,0.150671
85092000,0.0324,0.013523,0.002678,0.000431,0.123522
85093000,0.0324,0.013523,0.002678,0.000431,0.109889
85094000,0.0324,0.013523,0.002678,0.000431,0.089556
85095000,0.0324,0.013523,0.002678,0.000431,0.062643
85096000,0.0324,0.013523,0.002678,0.000431,0.048539
85097000,0.0324,0.013523,0.002678,0.000431,0.038784
85098000,0.0324,0.013523,0.002678,0.000431,0.042663
85099000,0.0324,0.013523,0.002678,0.000431,0.022683
85100000,0.0324,0.013523,0.002678,0.000431,0.028324
85101000,0.0324,0.013523,0.002678,0.000431,0.023153
85102000,0.0324,0.013523,0.002678,0.000431,0.019627
85103000,0.0324,0.013523,0.002678,0.000431,0.018687
85104000,0.0324,0.013523,0.002678,0.000431,0.015749
85105000,0.0324,0.013523,0.002678,0.000431,0.011753
85106000,0.0324,0.013523,0.002678,0.000431,0.013633
85107000,0.0324,0.013523,0.002678,0.000431,0.010813
85108000,0.0324,0.013523,0.002678,0.000431,0.009755
85109000,0.0324,0.013523,0.002678,0.000431,0.009402
85110000,0.0324,0.013523,0.002678,0.000431,0.010460
85111000,0.0324,0.013523,0.002678,0.000431,0.009285
85112000,0.0324,0.013523,0.002678,0.000431,0.006464
85113000,0.0324,0.013523,0.002678,0.000431,0.008932
85114000,0.0324,0.013523,0.002678,0.000431,0.004819
85115000,0.0324,0.013523,0.002678,0.000431,0.005054
85116000,0.0324,0.013523,0.002678,0.000431,0.004936
85117000,0.0324,0.013523,0.002678,0.000431,0.005289
85118000,0.0324,0.013523,0.002678,0.000431,0.004819
85119000,0.0324,0.013523,0.002678,0.000431,0.006582
85120000,0.0324,0.013523,0.002678,0.000431,0.003996
85121000,0.0324,0.013523,0.002678,0.000431,0.003526
85122000,0.0324,0.013523,0.002678,0.000431,0.003526
85123000,0.0324,0.013523,0.002678,0.000431,0.003056
85124000,0.0324,0.013523,0.002678,0.000431,0.005054
85125000,0.0324,0.013523,0.002678,0.000431,0.001763
85126000,0.0324,0.013523,0.002678,0.000431,0.001645
85127000,0.0324,0.013523,0.002678,0.000431,0.001763
85128000,0.0324,0.013523,0.002678,0.000431,0.001880
85129000,0.0324,0.013523,0.002678,0.000431,0.001763
85130000,0.0324,0.013523,0.002678,0.000431,0.001763
85131000,0.0324,0.013523,0.002678,0.000431,0.001645
85132000,0.0324,0.013523,0.002678,0.000431,0.001763
85133000,0.0324,0.013523,0.002678,0.000431,0.003291
85134000,0.0324,0.013523,0.002678,0.000431,0.002821
85135000,0.0324,0.013523,0.002678,0.000431,0.000823
85136000,0.0324,0.013523,0.002678,0.000431,0.000940
85137000,0.0324,0.013523,0.002678,0.000431,0.000940
85138000,0.0324,0.013523,0.002678,0.000431,0.000940
85139000,0.0324,0.013523,0.002678,0.000431,0.000705
85140000,0.0324,0.013523,0.002678,0.000431,0.000940
85141000,0.0324,0.013523,0.002678,0.000431,0.000940
85142000,0.0324,0.013523,0.002678,0.000431,0.000940
85143000,0.0324,0.013523,0.002678,0.000431,0.000940
85144000,0.0324,0.013523,0.002678,0.000431,0.000940
85145000,0.0324,0.013523,0.002678,0.000431,0.000823
85146000,0.0324,0.013523,0.002678,0.000431,0.000823
85147000,0.0324,0.013523,0.002678,0.000431,0.000940
85148000,0.0324,0.013523,0.002678,0.000431,0.000940
85149000,0.0324,0.013523,0.002678,0.000431,0.000940
85150000,0.0324,0.013523,0.002678,0.000431,0.100016
85151000,0.0324,0.013523,0.002678,0.000431,0.745129
85152000,0.0324,0.013523,0.002678,0.000431,0.537456
85153000,0.0324,0.013523,0.002678,0.000431,0.146205
85154000,0.0324,0.013523,0.002678,0.000431,0.141151
85155000,0.0324,0.013523,0.002678,0.000431,0.601274
85156000,0.0324,0.013523,0.002678,0.000431,0.247397
85157000,0.0324,0.013523,0.002678,0.000431,0.308276
85158000,0.0324,0.013523,0.002678,0.000431,0.181816
85159000,0.0324,0.013523,0.002678,0.000431,0.158310
85160000,0.0324,0.013523,0.002678,0.000431,0.119409
85161000,0.0324,0.013523,0.002678,0.000431,0.359871
85162000,0.0324,0.013523,0.002678,0.000431,0.409586
85163000,0.0324,0.013523,0.002678,0.000431,0.190631
85164000,0.0324,0.013523,0.002678,0.000431,0.173119
85165000,0.0324,0.013523,0.002678,0.000431,0.150671
85166000,0.0324,0.013523,0.002678,0.000431,0.131867
85167000,0.0324,0.013523,0.002678,0.000431,0.090849
85168000,0.0324,0.013523,0.002678,0.000431,0.079567
85169000,0.0324,0.013523,0.002678,0.000431,0.059939
85170000,0.0324,0.013523,0.002678,0.000431,0.053710
85171000,0.0324,0.013523,0.002678,0.000431,0.056884
85172000,0.0324,0.013523,0.002678,0.000431,0.042075
85173000,0.0324,0.013523,0.002678,0.000431,0.030322
85174000,0.0324,0.013523,0.002678,0.000431,0.024798
85175000,0.0324,0.013523,0.002678,0.000431,0.019862
85176000,0.0324,0.013523,0.002678,0.000431,0.014926
85177000,0.0324,0.013523,0.002678,0.000431,0.014926
85178000,0.0324,0.013523,0.002678,0.000431,0.014103
85179000,0.0324,0.013523,0.002678,0.000431,0.009872
85180000,0.0324,0.013523,0.002678,0.000431,0.004349
85181000,0.0324,0.013523,0.002678,0.000431,0.003526
85182000,0.0324,0.013523,0.002678,0.000431,0.003761
85183000,0.0324,0.013523,0.002678,0.000431,0.003056
85184000,0.0324,0.013523,0.002678,0.000431,0.004349
85185000,0.0324,0.013523,0.002678,0.000431,0.002586
85186000,0.0324,0.013523,0.002678,0.000431,0.002586
85187000,0.0324,0.013523,0.002678,0.000431,0.005524
85188000,0.0324,0.013523,0.002678,0.000431,0.001645
85189000,0.0324,0.013523,0.002678,0.000431,0.001645
85190000,0.0324,0.013523,0.002678,0.000431,0.001763
85191000,0.0324,0.013523,0.002678,0.000431,0.001528
85192000,0.0324,0.013523,0.002678,0.000431,0.001645
85193000,0.0324,0.013523,0.002678,0.000431,0.001645
85194000,0.0324,0.013523,0.002678,0.000431,0.001880
85195000,0.0324,0.013523,0.002678,0.000431,0.001293
85196000,0.0324,0.013523,0.002678,0.000431,0.002351
85197000,0.0324,0.013523,0.002678,0.000431,0.515831
85198000,0.0324,0.013523,0.002678,0.000431,0.741133
85199000,0.0324,0.013523,0.002678,0.000431,0.184402
85200000,0.0324,0.013523,0.002678,0.000431,0.137978
85201000,0.0324,0.013523,0.002678,0.000431,0.483158
85202000,0.0324,0.013523,0.002678,0.000431,0.275486
85203000,0.0324,0.013523,0.002678,0.000431,0.297934
85204000,0.0324,0.013523,0.002678,0.000431,0.274311
85205000,0.0324,0.013523,0.002678,0.000431,0.145382
85206000,0.0324,0.013523,0.002678,0.000431,0.176762
85207000,0.0324,0.013523,0.002678,0.000431,0.148791
85208000,0.0324,0.013523,0.002678,0.000431,0.522413
85209000,0.0324,0.013523,0.002678,0.000431,0.271255
85210000,0.0324,0.013523,0.002678,0.000431,0.200386
85211000,0.0324,0.013523,0.002678,0.000431,0.159486
85212000,0.0324,0.013523,0.002678,0.000431,0.127401
85213000,0.0324,0.013523,0.002678,0.000431,0.111064
85214000,0.0324,0.013523,0.002678,0.000431,0.100604
85215000,0.0324,0.013523,0.002678,0.000431,0.081565
85216000,0.0324,0.013523,0.002678,0.000431,0.075571
85217000,0.0324,0.013523,0.002678,0.000431,0.059939
85218000,0.0324,0.013523,0.002678,0.000431,0.046071
85219000,0.0324,0.013523,0.002678,0.000431,0.031498
85220000,0.0324,0.013523,0.002678,0.000431,0.035611
85221000,0.0324,0.013523,0.002678,0.000431,0.025269
85222000,0.0324,0.013523,0.002678,0.000431,0.013868
85223000,0.0324,0.013523,0.002678,0.000431,0.019980
85224000,0.0324,0.013523,0.002678,0.000431,0.009990
85225000,0.0324,0.013523,0.002678,0.000431,0.014691
85226000,0.0324,0.013523,0.002678,0.000431,0.017512
85227000,0.0324,0.013523,0.002678,0.000431,0.008815
85228000,0.0324,0.013523,0.002678,0.000431,0.006111
85229000,0.0324,0.013523,0.002678,0.000431,0.003878
85230000,0.0324,0.013523,0.002678,0.000431,0.003291
85231000,0.0324,0.013523,0.002678,0.000431,0.003291
85232000,0.0324,0.013523,0.002678,0.000431,0.003056
85233000,0.0324,0.013523,0.002678,0.000431,0.003056
85234000,0.0324,0.013523,0.002678,0.000431,0.003526
85235000,0.0324,0.013523,0.002678,0.000431,0.003173
85236000,0.0324,0.013523,0.002678,0.000431,0.002938
85237000,0.0324,0.013523,0.002678,0.000431,0.003526
85238000,0.0324,0.013523,0.002678,0.000431,0.004349
85239000,0.0324,0.013523,0.002678,0.000431,0.003291
85240000,0.0324,0.013523,0.002678,0.000431,0.003291
85241000,0.0324,0.013523,0.002678,0.000431,0.073455
85242000,0.0324,0.013523,0.002678,0.000431,0.756999
85243000,0.0324,0.013523,0.002678,0.000431,0.582235
85244000,0.0324,0.013523,0.002678,0.000431,0.134452
85245000,0.0324,0.013523,0.002678,0.000431,0.191336
85246000,0.0324,0.013523,0.002678,0.000431,0.605270
85247000,0.0324,0.013523,0.002678,0.000431,0.259502
85248000,0.0324,0.013523,0.002678,0.000431,0.296759
85249000,0.0324,0.013523,0.002678,0.000431,0.180758
85250000,0.0324,0.013523,0.002678,0.000431,0.158193
85251000,0.0324,0.013523,0.002678,0.000431,0.114825
85252000,0.0324,0.013523,0.002678,0.000431,0.432269
85253000,0.0324,0.013523,0.002678,0.000431,0.308629
85254000,0.0324,0.013523,0.002678,0.000431,0.186870
85255000,0.0324,0.013523,0.002678,0.000431,0.143972
85256000,0.0324,0.013523,0.002678,0.000431,0.126578
85257000,0.0324,0.013523,0.002678,0.000431,0.117646
85258000,0.0324,0.013523,0.002678,0.000431,0.100134
85259000,0.0324,0.013523,0.002678,0.000431,0.091084
85260000,0.0324,0.013523,0.002678,0.000431,0.078861
85261000,0.0324,0.013523,0.002678,0.000431,0.060880
85262000,0.0324,0.013523,0.002678,0.000431,0.068872
85263000,0.0324,0.013523,0.002678,0.000431,0.053710
85264000,0.0324,0.013523,0.002678,0.000431,0.049244
85265000,0.0324,0.013523,0.002678,0.000431,0.043015
85266000,0.0324,0.013523,0.002678,0.000431,0.048422
85267000,0.0324,0.013523,0.002678,0.000431,0.030792
85268000,0.0324,0.013523,0.002678,0.000431,0.028677
85269000,0.0324,0.013523,0.002678,0.000431,0.026679
85270000,0.0324,0.013523,0.002678,0.000431,0.022330
85271000,0.0324,0.013523,0.002678,0.000431,0.025034
85272000,0.0324,0.013523,0.002678,0.000431,0.024093
85273000,0.0324,0.013523,0.002678,0.000431,0.018687
85274000,0.0324,0.013523,0.002678,0.000431,0.016571
85275000,0.0324,0.013523,0.002678,0.000431,0.013868
85276000,0.0324,0.013523,0.002678,0.000431,0.008932
85277000,0.0324,0.013523,0.002678,0.000431,0.008932
85278000,0.0324,0.013523,0.002678,0.000431,0.012693
85279000,0.0324,0.013523,0.002678,0.000431,0.009755
85280000,0.0324,0.013523,0.002678,0.000431,0.006817
85281000,0.0324,0.013523,0.002678,0.000431,0.006582
85282000,0.0324,0.013523,0.002678,0.000431,0.006699
85283000,0.0324,0.013523,0.002678,0.000431,0.006582
85284000,0.0324,0.013523,0.002678,0.000431,0.006347
85285000,0.0324,0.013523,0.002678,0.000431,0.006699
85286000,0.0324,0.013523,0.002678,0.000431,0.006817
85287000,0.0324,0.013523,0.002678,0.000431,0.009520
85288000,0.0324,0.013523,0.002678,0.000431,0.009402
85289000,0.0324,0.013523,0.002678,0.000431,0.004584
85290000,0.0324,0.013523,0.002678,0.000431,0.004819
85291000,0.0324,0.013523,0.002678,0.000431,0.007874
85292000,0.0324,0.013523,0.002678,0.000431,0.003526
85293000,0.0324,0.013523,0.002678,0.000431,0.004349
85294000,0.0324,0.013523,0.002678,0.000431,0.003761
85295000,0.0324,0.013523,0.002678,0.000431,0.004231
85296000,0.0324,0.013523,0.002678,0.000431,0.004113
85297000,0.0324,0.013523,0.002678,0.000431,0.003643
85298000,0.0324,0.013523,0.002678,0.000431,0.003996
85299000,0.0324,0.013523,0.002678,0.000431,0.004349
85300000,0.0324,0.013523,0.002678,0.000431,0.003643
85301000,0.0324,0.013523,0.002678,0.000431,0.004113
85302000,0.0324,0.013523,0.002678,0.000431,0.004113
85303000,0.0324,0.013523,0.002678,0.000431,0.005289
85304000,0.0324,0.013523,0.002678,0.000431,0.003291
85305000,0.0324,0.013523,0.002678,0.000431,0.002938
85306000,0.0324,0.013523,0.002678,0.000431,0.003173
85307000,0.0324,0.013523,0.002678,0.000431,0.003408
85308000,0.0324,0.013523,0.002678,0.000431,0.002821
85309000,0.0324,0.013523,0.002678,0.000431,0.003643
85310000,0.0324,0.013523,0.002678,0.000431,0.002586
85311000,0.0324,0.013523,0.002678,0.000431,0.003643
85312000,0.0324,0.013523,0.002678,0.000431,0.003173
85313000,0.0324,0.013523,0.002678,0.000431,0.002938
85314000,0.0324,0.013523,0.002678,0.000431,0.003291
85315000,0.0324,0.013523,0.002678,0.000431,0.002938
85316000,0.0324,0.013523,0.002678,0.000431,0.003291
85317000,0.0324,0.013523,0.002678,0.000431,0.003291
85318000,0.0324,0.013523,0.002678,0.000431,0.003291
85319000,0.0324,0.013523,0.002678,0.000431,0.002938
85320000,0.0324,0.013523,0.002678,0.000431,0.003173
85321000,0.0324,0.013523,0.002678,0.000431,0.002938
85322000,0.0324,0.013523,0.002678,0.000431,0.003643
85323000,0.0324,0.013523,0.002678,0.000431,0.002938
85324000,0.0324,0.013523,0.002678,0.000431,0.003291
85325000,0.0324,0.013523,0.002678,0.000431,0.002703
85326000,0.0324,0.013523,0.002678,0.000431,0.003056
85327000,0.0324,0.013523,0.002678,0.000431,0.002703
85328000,0.0324,0.013523,0.002678,0.000431,0.003408
85329000,0.0324,0.013523,0.002678,0.000431,0.003173
85330000,0.0324,0.013523,0.002678,0.000431,0.002938
85331000,0.0324,0.013523,0.002678,0.000431,0.003408
85332000,0.0324,0.013523,0.002678,0.000431,0.002821
85333000,0.0324,0.013523,0.002678,0.000431,0.003291
85334000,0.0324,0.013523,0.002678,0.000431,0.003408
85335000,0.0324,0.013523,0.002678,0.000431,0.003056
85336000,0.0324,0.013523,0.002678,0.000431,0.002821
85337000,0.0324,0.013523,0.002678,0.000431,0.003056
85338000,0.0324,0.013523,0.002678,0.000431,0.002821
85339000,0.0324,0.013523,0.002678,0.000431,0.003761
85340000,0.0324,0.013523,0.002678,0.000431,0.002586
85341000,0.0324,0.013523,0.002678,0.000431,0.003291
85342000,0.0324,0.013523,0.002678,0.000431,0.002468
85343000,0.0324,0.013523,0.002678,0.000431,0.003408
85344000,0.0324,0.013523,0.002678,0.000431,0.003291
85345000,0.0324,0.013523,0.002678,0.000431,0.002586
85346000,0.0324,0.013523,0.002678,0.000431,0.003291
85347000,0.0324,0.013523,0.002678,0.000431,0.002938
85348000,0.0324,0.013523,0.002678,0.000431,0.003408
85349000,0.0324,0.013523,0.002678,0.000431,0.002821
85350000,0.0324,0.013523,0.002678,0.000431,0.003056
85351000,0.0324,0.013523,0.002678,0.000431,0.003056
85352000,0.0324,0.013523,0.002678,0.000431,0.003056
85353000,0.0324,0.013523,0.002678,0.000431,0.003056
85354000,0.0324,0.013523,0.002678,0.000431,0.003291
85355000,0.0324,0.013523,0.002678,0.000431,0.001763
85356000,0.0324,0.013523,0.002678,0.000431,0.003408
85357000,0.0324,0.013523,0.002678,0.000431,0.003291
85358000,0.0324,0.013523,0.002678,0.000431,0.002586
85359000,0.0324,0.013523,0.002678,0.000431,0.003291
85360000,0.0324,0.013523,0.002678,0.000431,0.002821
85361000,0.0324,0.013523,0.002678,0.000431,0.003056
85362000,0.0324,0.013523,0.002678,0.000431,0.003291
85363000,0.0324,0.013523,0.002678,0.000431,0.002351
85364000,0.0324,0.013523,0.002678,0.000431,0.002351
85365000,0.0324,0.013523,0.002678,0.000431,0.001880
85366000,0.0324,0.013523,0.002678,0.000431,0.003056
85367000,0.0324,0.013523,0.002678,0.000431,0.001645
85368000,0.0324,0.013523,0.002678,0.000431,0.001528
85369000,0.0324,0.013523,0.002678,0.000431,0.001645
85370000,0.0324,0.013523,0.002678,0.000431,0.001528
85371000,0.0324,0.013523,0.002678,0.000431,0.001645
85372000,0.0324,0.013523,0.002678,0.000431,0.001528
85373000,0.0324,0.013523,0.002678,0.000431,0.001410
85374000,0.0324,0.013523,0.002678,0.000431,0.000940
85375000,0.0324,0.013523,0.002678,0.000431,0.000705
85376000,0.0324,0.013523,0.002678,0.000431,0.000940
85377000,0.0324,0.013523,0.002678,0.000431,0.000823
85378000,0.0324,0.013523,0.002678,0.000431,0.000823
85379000,0.0324,0.013523,0.002678,0.000431,0.072045
85380000,0.0324,0.013523,0.002678,0.000431,0.642879
85381000,0.0324,0.013523,0.002678,0.000431,0.599159
85382000,0.0324,0.013523,0.002678,0.000431,0.145030
85383000,0.0324,0.013523,0.002678,0.000431,0.139036
85384000,0.0324,0.013523,0.002678,0.000431,0.652752
85385000,0.0324,0.013523,0.002678,0.000431,0.279482
85386000,0.0324,0.013523,0.002678,0.000431,0.281245
85387000,0.0324,0.013523,0.002678,0.000431,0.229062
85388000,0.0324,0.013523,0.002678,0.000431,0.142562
85389000,0.0324,0.013523,0.002678,0.000431,0.119291
85390000,0.0324,0.013523,0.002678,0.000431,0.355405
85391000,0.0324,0.013523,0.002678,0.000431,0.410291
85392000,0.0324,0.013523,0.002678,0.000431,0.207202
85393000,0.0324,0.013523,0.002678,0.000431,0.175587
85394000,0.0324,0.013523,0.002678,0.000431,0.148321
85395000,0.0324,0.013523,0.002678,0.000431,0.122817
85396000,0.0324,0.013523,0.002678,0.000431,0.116705
85397000,0.0324,0.013523,0.002678,0.000431,0.095785
85398000,0.0324,0.013523,0.002678,0.000431,0.082387
85399000,0.0324,0.013523,0.002678,0.000431,0.073220
85400000,0.0324,0.013523,0.002678,0.000431,0.063230
85401000,0.0324,0.013523,0.002678,0.000431,0.055943
85402000,0.0324,0.013523,0.002678,0.000431,0.036904
85403000,0.0324,0.013523,0.002678,0.000431,0.040547
85404000,0.0324,0.013523,0.002678,0.000431,0.026326
85405000,0.0324,0.013523,0.002678,0.000431,0.026796
85406000,0.0324,0.013523,0.002678,0.000431,0.023271
85407000,0.0324,0.013523,0.002678,0.000431,0.014926
85408000,0.0324,0.013523,0.002678,0.000431,0.013281
85409000,0.0324,0.013523,0.002678,0.000431,0.023388
85410000,0.0324,0.013523,0.002678,0.000431,0.009990
85411000,0.0324,0.013523,0.002678,0.000431,0.005994
85412000,0.0324,0.013523,0.002678,0.000431,0.005876
85413000,0.0324,0.013523,0.002678,0.000431,0.005641
85414000,0.0324,0.013523,0.002678,0.000431,0.006699
85415000,0.0324,0.013523,0.002678,0.000431,0.004349
85416000,0.0324,0.013523,0.002678,0.000431,0.003878
85417000,0.0324,0.013523,0.002678,0.000431,0.003996
85418000,0.0324,0.013523,0.002678,0.000431,0.004349
85419000,0.0324,0.013523,0.002678,0.000431,0.003643
85420000,0.0324,0.013523,0.002678,0.000431,0.004349
85421000,0.0324,0.013523,0.002678,0.000431,0.003643
85422000,0.0324,0.013523,0.002678,0.000431,0.004231
85423000,0.0324,0.013523,0.002678,0.000431,0.003526
85424000,0.0324,0.013523,0.002678,0.000431,0.004819
85425000,0.0324,0.013523,0.002678,0.000431,0.005641
85426000,0.0324,0.013523,0.002678,0.000431,0.002821
85427000,0.0324,0.013523,0.002678,0.000431,0.002586
85428000,0.0324,0.013523,0.002678,0.000431,0.002703
85429000,0.0324,0.013523,0.002678,0.000431,0.002703
85430000,0.0324,0.013523,0.002678,0.000431,0.002938
85431000,0.0324,0.013523,0.002678,0.000431,0.002703
85432000,0.0324,0.013523,0.002678,0.000431,0.002586
85433000,0.0324,0.013523,0.002678,0.000431,0.001410
85434000,0.0324,0.013523,0.002678,0.000431,0.002351
85435000,0.0324,0.013523,0.002678,0.000431,0.004936
85436000,0.0324,0.013523,0.002678,0.000431,0.000823
85437000,0.0324,0.013523,0.002678,0.000431,0.000940
85438000,0.0324,0.013523,0.002678,0.000431,0.000823
85439000,0.0324,0.013523,0.002678,0.000431,0.000823
85440000,0.0324,0.013523,0.002678,0.000431,0.000940
85441000,0.0324,0.013523,0.002678,0.000431,0.000705
85442000,0.0324,0.013523,0.002678,0.000431,0.000940
85443000,0.0324,0.013523,0.002678,0.000431,0.000823
85444000,0.0324,0.013523,0.002678,0.000431,0.000823
85445000,0.0324,0.013523,0.002678,0.000431,0.000940
85446000,0.0324,0.013523,0.002678,0.000431,0.019862
85447000,0.0324,0.013523,0.002678,0.000431,0.717627
85448000,0.0324,0.013523,0.002678,0.000431,0.567779
85449000,0.0324,0.013523,0.002678,0.000431,0.163247
85450000,0.0324,0.013523,0.002678,0.000431,0.155137
85451000,0.0324,0.013523,0.002678,0.000431,0.587641
85452000,0.0324,0.013523,0.002678,0.000431,0.243518
85453000,0.0324,0.013523,0.002678,0.000431,0.301930
85454000,0.0324,0.013523,0.002678,0.000431,0.250688
85455000,0.0324,0.013523,0.002678,0.000431,0.163834
85456000,0.0324,0.013523,0.002678,0.000431,0.122934
85457000,0.0324,0.013523,0.002678,0.000431,0.290882
85458000,0.0324,0.013523,0.002678,0.000431,0.426157
85459000,0.0324,0.013523,0.002678,0.000431,0.189926
85460000,0.0324,0.013523,0.002678,0.000431,0.152081
85461000,0.0324,0.013523,0.002678,0.000431,0.128811
85462000,0.0324,0.013523,0.002678,0.000431,0.105658
85463000,0.0324,0.013523,0.002678,0.000431,0.096726
85464000,0.0324,0.013523,0.002678,0.000431,0.084268
85465000,0.0324,0.013523,0.002678,0.000431,0.078156
85466000,0.0324,0.013523,0.002678,0.000431,0.068166
85467000,0.0324,0.013523,0.002678,0.000431,0.064641
85468000,0.0324,0.013523,0.002678,0.000431,0.049949
85469000,0.0324,0.013523,0.002678,0.000431,0.042075
85470000,0.0324,0.013523,0.002678,0.000431,0.037962
85471000,0.0324,0.013523,0.002678,0.000431,0.035141
85472000,0.0324,0.013523,0.002678,0.000431,0.024211
85473000,0.0324,0.013523,0.002678,0.000431,0.025034
85474000,0.0324,0.013523,0.002678,0.000431,0.021390
85475000,0.0324,0.013523,0.002678,0.000431,0.026326
85476000,0.0324,0.013523,0.002678,0.000431,0.016336
85477000,0.0324,0.013523,0.002678,0.000431,0.015749
85478000,0.0324,0.013523,0.002678,0.000431,0.017394
85479000,0.0324,0.013523,0.002678,0.000431,0.014338
85480000,0.0324,0.013523,0.002678,0.000431,0.012458
85481000,0.0324,0.013523,0.002678,0.000431,0.011753
85482000,0.0324,0.013523,0.002678,0.000431,0.011165
85483000,0.0324,0.013523,0.002678,0.000431,0.013163
85484000,0.0324,0.013523,0.002678,0.000431,0.012105
85485000,0.0324,0.013523,0.002678,0.000431,0.012105
85486000,0.0324,0.013523,0.002678,0.000431,0.007287
85487000,0.0324,0.013523,0.002678,0.000431,0.007287
85488000,0.0324,0.013523,0.002678,0.000431,0.011753
85489000,0.0324,0.013523,0.002678,0.000431,0.003878
85490000,0.0324,0.013523,0.002678,0.000431,0.006347
85491000,0.0324,0.013523,0.002678,0.000431,0.003761
85492000,0.0324,0.013523,0.002678,0.000431,0.003408
85493000,0.0324,0.013523,0.002678,0.000431,0.007287
85494000,0.0324,0.013523,0.002678,0.000431,0.014103
85495000,0.0324,0.013523,0.002678,0.000431,0.631479
85496000,0.0324,0.013523,0.002678,0.000431,0.610089
85497000,0.0324,0.013523,0.002678,0.000431,0.176880
85498000,0.0324,0.013523,0.002678,0.000431,0.140681
85499000,0.0324,0.013523,0.002678,0.000431,0.503373
85500000,0.0324,0.013523,0.002678,0.000431,0.319912
85501000,0.0324,0.013523,0.002678,0.000431,0.260207
85502000,0.0324,0.013523,0.002678,0.000431,0.329902
85503000,0.0324,0.013523,0.002678,0.000431,0.150789
85504000,0.0324,0.013523,0.002678,0.000431,0.161601
85505000,0.0324,0.013523,0.002678,0.000431,0.157488
85506000,0.0324,0.013523,0.002678,0.000431,0.513833
85507000,0.0324,0.013523,0.002678,0.000431,0.241403
85508000,0.0324,0.013523,0.002678,0.000431,0.194274
85509000,0.0324,0.013523,0.002678,0.000431,0.142914
85510000,0.0324,0.013523,0.002678,0.000431,0.142444
85511000,0.0324,0.013523,0.002678,0.000431,0.117176
85512000,0.0324,0.013523,0.002678,0.000431,0.094493
85513000,0.0324,0.013523,0.002678,0.000431,0.077569
85514000,0.0324,0.013523,0.002678,0.000431,0.070752
85515000,0.0324,0.013523,0.002678,0.000431,0.055238
85516000,0.0324,0.013523,0.002678,0.000431,0.048187
85517000,0.0324,0.013523,0.002678,0.000431,0.033966
85518000,0.0324,0.013523,0.002678,0.000431,0.034083
85519000,0.0324,0.013523,0.002678,0.000431,0.037139
85520000,0.0324,0.013523,0.002678,0.000431,0.017512
85521000,0.0324,0.013523,0.002678,0.000431,0.018217
85522000,0.0324,0.013523,0.002678,0.000431,0.018922
85523000,0.0324,0.013523,0.002678,0.000431,0.022213
85524000,0.0324,0.013523,0.002678,0.000431,0.012458
85525000,0.0324,0.013523,0.002678,0.000431,0.012105
85526000,0.0324,0.013523,0.002678,0.000431,0.007757
85527000,0.0324,0.013523,0.002678,0.000431,0.010695
85528000,0.0324,0.013523,0.002678,0.000431,0.012576
85529000,0.0324,0.013523,0.002678,0.000431,0.004231
85530000,0.0324,0.013523,0.002678,0.000431,0.004113
85531000,0.0324,0.013523,0.002678,0.000431,0.003878
85532000,0.0324,0.013523,0.002678,0.000431,0.004231
85533000,0.0324,0.013523,0.002678,0.000431,0.004231
85534000,0.0324,0.013523,0.002678,0.000431,0.003996
85535000,0.0324,0.013523,0.002678,0.000431,0.003996
85536000,0.0324,0.013523,0.002678,0.000431,0.004466
85537000,0.0324,0.013523,0.002678,0.000431,0.005406
85538000,0.0324,0.013523,0.002678,0.000431,0.003173
85539000,0.0324,0.013523,0.002678,0.000431,0.009402
85540000,0.0324,0.013523,0.002678,0.000431,0.000823
85541000,0.0324,0.013523,0.002678,0.000431,0.000940
85542000,0.0324,0.013523,0.002678,0.000431,0.000705
85543000,0.0324,0.013523,0.002678,0.000431,0.000940
85544000,0.0324,0.013523,0.002678,0.000431,0.000823
85545000,0.0324,0.013523,0.002678,0.000431,0.000823
85546000,0.0324,0.013523,0.002678,0.000431,0.000823
85547000,0.0324,0.013523,0.002678,0.000431,0.000823
85548000,0.0324,0.013523,0.002678,0.000431,0.000823
85549000,0.0324,0.013523,0.002678,0.000431,0.000823
85550000,0.0324,0.013523,0.002678,0.000431,0.018687
85551000,0.0324,0.013523,0.002678,0.000431,0.722446
85552000,0.0324,0.013523,0.002678,0.000431,0.581765
85553000,0.0324,0.013523,0.002678,0.000431,0.156900
85554000,0.0324,0.013523,0.002678,0.000431,0.151024
85555000,0.0324,0.013523,0.002678,0.000431,0.606680
85556000,0.0324,0.013523,0.002678,0.000431,0.239640
85557000,0.0324,0.013523,0.002678,0.000431,0.271373
85558000,0.0324,0.013523,0.002678,0.000431,0.237172
85559000,0.0324,0.013523,0.002678,0.000431,0.145970
85560000,0.0324,0.013523,0.002678,0.000431,0.168653
85561000,0.0324,0.013523,0.002678,0.000431,0.148438
85562000,0.0324,0.013523,0.002678,0.000431,0.487977
85563000,0.0324,0.013523,0.002678,0.000431,0.141504
85564000,0.0324,0.013523,0.002678,0.000431,0.119291
85565000,0.0324,0.013523,0.002678,0.000431,0.097548
85566000,0.0324,0.013523,0.002678,0.000431,0.094610
85567000,0.0324,0.013523,0.002678,0.000431,0.074278
85568000,0.0324,0.013523,0.002678,0.000431,0.065111
85569000,0.0324,0.013523,0.002678,0.000431,0.069459
85570000,0.0324,0.013523,0.002678,0.000431,0.053358
85571000,0.0324,0.013523,0.002678,0.000431,0.047716
85572000,0.0324,0.013523,0.002678,0.000431,0.043015
85573000,0.0324,0.013523,0.002678,0.000431,0.044191
85574000,0.0324,0.013523,0.002678,0.000431,0.040312
85575000,0.0324,0.013523,0.002678,0.000431,0.034083
85576000,0.0324,0.013523,0.002678,0.000431,0.024916
85577000,0.0324,0.013523,0.002678,0.000431,0.026444
85578000,0.0324,0.013523,0.002678,0.000431,0.023036
85579000,0.0324,0.013523,0.002678,0.000431,0.022330
85580000,0.0324,0.013523,0.002678,0.000431,0.024798
85581000,0.0324,0.013523,0.002678,0.000431,0.024093
85582000,0.0324,0.013523,0.002678,0.000431,0.017159
85583000,0.0324,0.013523,0.002678,0.000431,0.015984
85584000,0.0324,0.013523,0.002678,0.000431,0.015514
85585000,0.0324,0.013523,0.002678,0.000431,0.018922
85586000,0.0324,0.013523,0.002678,0.000431,0.014926
85587000,0.0324,0.013523,0.002678,0.000431,0.011165
85588000,0.0324,0.013523,0.002678,0.000431,0.011988
85589000,0.0324,0.013523,0.002678,0.000431,0.013163
85590000,0.0324,0.013523,0.002678,0.000431,0.011870
85591000,0.0324,0.013523,0.002678,0.000431,0.008580
85592000,0.0324,0.013523,0.002678,0.000431,0.008580
85593000,0.0324,0.013523,0.002678,0.000431,0.012458
85594000,0.0324,0.013523,0.002678,0.000431,0.007052
85595000,0.0324,0.013523,0.002678,0.000431,0.006817
85596000,0.0324,0.013523,0.002678,0.000431,0.006464
85597000,0.0324,0.013523,0.002678,0.000431,0.008697
85598000,0.0324,0.013523,0.002678,0.000431,0.005876
85599000,0.0324,0.013523,0.002678,0.000431,0.011165
85600000,0.0324,0.013523,0.002678,0.000431,0.005054
85601000,0.0324,0.013523,0.002678,0.000431,0.005054
85602000,0.0324,0.013523,0.002678,0.000431,0.003173
85603000,0.0324,0.013523,0.002678,0.000431,0.003643
85604000,0.0324,0.013523,0.002678,0.000431,0.003173
85605000,0.0324,0.013523,0.002678,0.000431,0.005641
85606000,0.0324,0.013523,0.002678,0.000431,0.002703
85607000,0.0324,0.013523,0.002678,0.000431,0.002703
85608000,0.0324,0.013523,0.002678,0.000431,0.002351
85609000,0.0324,0.013523,0.002678,0.000431,0.002703
85610000,0.0324,0.013523,0.002678,0.000431,0.003761
85611000,0.0324,0.013523,0.002678,0.000431,0.003291
85612000,0.0324,0.013523,0.002678,0.000431,0.003643
85613000,0.0324,0.013523,0.002678,0.000431,0.000823
85614000,0.0324,0.013523,0.002678,0.000431,0.000823
85615000,0.0324,0.013523,0.002678,0.000431,0.000705
85616000,0.0324,0.013523,0.002678,0.000431,0.000940
85617000,0.0324,0.013523,0.002678,0.000431,0.000940
85618000,0.0324,0.013523,0.002678,0.000431,0.000705
85619000,0.0324,0.013523,0.002678,0.000431,0.000940
85620000,0.0324,0.013523,0.002678,0.000431,0.000705
85621000,0.0324,0.013523,0.002678,0.000431,0.000940
85622000,0.0324,0.013523,0.002678,0.000431,0.000823
85623000,0.0324,0.013523,0.002678,0.000431,0.000823
85624000,0.0324,0.013523,0.002678,0.000431,0.000823
85625000,0.0324,0.013523,0.002678,0.000431,0.000823
85626000,0.0324,0.013523,0.002678,0.000431,0.171709
85627000,0.0324,0.013523,0.002678,0.000431,0.564370
85628000,0.0324,0.013523,0.002678,0.000431,0.534636
85629000,0.0324,0.013523,0.002678,0.000431,0.137626
85630000,0.0324,0.013523,0.002678,0.000431,0.136803
85631000,0.0324,0.013523,0.002678,0.000431,0.575653
85632000,0.0324,0.013523,0.002678,0.000431,0.246104
85633000,0.0324,0.013523,0.002678,0.000431,0.281950
85634000,0.0324,0.013523,0.002678,0.000431,0.287356
85635000,0.0324,0.013523,0.002678,0.000431,0.138683
85636000,0.0324,0.013523,0.002678,0.000431,0.177585
85637000,0.0324,0.013523,0.002678,0.000431,0.091319
85638000,0.0324,0.013523,0.002678,0.000431,0.506546
85639000,0.0324,0.013523,0.002678,0.000431,0.228240
85640000,0.0324,0.013523,0.002678,0.000431,0.160073
85641000,0.0324,0.013523,0.002678,0.000431,0.134805
85642000,0.0324,0.013523,0.002678,0.000431,0.114355
85643000,0.0324,0.013523,0.002678,0.000431,0.099076
85644000,0.0324,0.013523,0.002678,0.000431,0.091790
85645000,0.0324,0.013523,0.002678,0.000431,0.079684
85646000,0.0324,0.013523,0.002678,0.000431,0.078039
85647000,0.0324,0.013523,0.002678,0.000431,0.067344
85648000,0.0324,0.013523,0.002678,0.000431,0.058882
85649000,0.0324,0.013523,0.002678,0.000431,0.045131
85650000,0.0324,0.013523,0.002678,0.000431,0.047834
85651000,0.0324,0.013523,0.002678,0.000431,0.040547
85652000,0.0324,0.013523,0.002678,0.000431,0.033260
85653000,0.0324,0.013523,0.002678,0.000431,0.031498
85654000,0.0324,0.013523,0.002678,0.000431,0.019275
85655000,0.0324,0.013523,0.002678,0.000431,0.023271
85656000,0.0324,0.013523,0.002678,0.000431,0.019275
85657000,0.0324,0.013523,0.002678,0.000431,0.022800
85658000,0.0324,0.013523,0.002678,0.000431,0.019392
85659000,0.0324,0.013523,0.002678,0.000431,0.017042
85660000,0.0324,0.013523,0.002678,0.000431,0.018217
85661000,0.0324,0.013523,0.002678,0.000431,0.017864
85662000,0.0324,0.013523,0.002678,0.000431,0.013868
85663000,0.0324,0.013523,0.002678,0.000431,0.009990
85664000,0.0324,0.013523,0.002678,0.000431,0.007874
85665000,0.0324,0.013523,0.002678,0.000431,0.008345
85666000,0.0324,0.013523,0.002678,0.000431,0.006699
85667000,0.0324,0.013523,0.002678,0.000431,0.006699
85668000,0.0324,0.013523,0.002678,0.000431,0.003173
85669000,0.0324,0.013523,0.002678,0.000431,0.003408
85670000,0.0324,0.013523,0.002678,0.000431,0.003408
85671000,0.0324,0.013523,0.002678,0.000431,0.003526
85672000,0.0324,0.013523,0.002678,0.000431,0.003056
85673000,0.0324,0.013523,0.002678,0.000431,0.005759
85674000,0.0324,0.013523,0.002678,0.000431,0.001763
85675000,0.0324,0.013523,0.002678,0.000431,0.001645
85676000,0.0324,0.013523,0.002678,0.000431,0.001880
85677000,0.0324,0.013523,0.002678,0.000431,0.002938
85678000,0.0324,0.013523,0.002678,0.000431,0.002586
85679000,0.0324,0.013523,0.002678,0.000431,0.000823
85680000,0.0324,0.013523,0.002678,0.000431,0.000823
85681000,0.0324,0.013523,0.002678,0.000431,0.000823
85682000,0.0324,0.013523,0.002678,0.000431,0.000823
85683000,0.0324,0.013523,0.002678,0.000431,0.000705
85684000,0.0324,0.013523,0.002678,0.000431,0.000940
85685000,0.0324,0.013523,0.002678,0.000431,0.000823
85686000,0.0324,0.013523,0.002678,0.000431,0.000823
85687000,0.0324,0.013523,0.002678,0.000431,0.000823
85688000,0.0324,0.013523,0.002678,0.000431,0.014809
85689000,0.0324,0.013523,0.002678,0.000431,0.643467
85690000,0.0324,0.013523,0.002678,0.000431,0.580237
85691000,0.0324,0.013523,0.002678,0.000431,0.149143
85692000,0.0324,0.013523,0.002678,0.000431,0.145617
85693000,0.0324,0.013523,0.002678,0.000431,0.583645
85694000,0.0324,0.013523,0.002678,0.000431,0.277131
85695000,0.0324,0.013523,0.002678,0.000431,0.330254
85696000,0.0324,0.013523,0.002678,0.000431,0.298874
85697000,0.0324,0.013523,0.002678,0.000431,0.139036
85698000,0.0324,0.013523,0.002678,0.000431,0.125520
85699000,0.0324,0.013523,0.002678,0.000431,0.274311
85700000,0.0324,0.013523,0.002678,0.000431,0.448488
85701000,0.0324,0.013523,0.002678,0.000431,0.204617
85702000,0.0324,0.013523,0.002678,0.000431,0.181346
85703000,0.0324,0.013523,0.002678,0.000431,0.146323
85704000,0.0324,0.013523,0.002678,0.000431,0.122699
85705000,0.0324,0.013523,0.002678,0.000431,0.117646
85706000,0.0324,0.013523,0.002678,0.000431,0.087794
85707000,0.0324,0.013523,0.002678,0.000431,0.075336
85708000,0.0324,0.013523,0.002678,0.000431,0.062290
85709000,0.0324,0.013523,0.002678,0.000431,0.050772
85710000,0.0324,0.013523,0.002678,0.000431,0.033966
85711000,0.0324,0.013523,0.002678,0.000431,0.041723
85712000,0.0324,0.013523,0.002678,0.000431,0.031968
85713000,0.0324,0.013523,0.002678,0.000431,0.027619
85714000,0.0324,0.013523,0.002678,0.000431,0.026326
85715000,0.0324,0.013523,0.002678,0.000431,0.023623
85716000,0.0324,0.013523,0.002678,0.000431,0.017159
85717000,0.0324,0.013523,0.002678,0.000431,0.015514
85718000,0.0324,0.013523,0.002678,0.000431,0.010695
85719000,0.0324,0.013523,0.002678,0.000431,0.010107
85720000,0.0324,0.013523,0.002678,0.000431,0.008697
85721000,0.0324,0.013523,0.002678,0.000431,0.007639
85722000,0.0324,0.013523,0.002678,0.000431,0.007052
85723000,0.0324,0.013523,0.002678,0.000431,0.006229
85724000,0.0324,0.013523,0.002678,0.000431,0.008462
85725000,0.0324,0.013523,0.002678,0.000431,0.011048
85726000,0.0324,0.013523,0.002678,0.000431,0.008109
85727000,0.0324,0.013523,0.002678,0.000431,0.003408
85728000,0.0324,0.013523,0.002678,0.000431,0.003408
85729000,0.0324,0.013523,0.002678,0.000431,0.003526
85730000,0.0324,0.013523,0.002678,0.000431,0.003291
85731000,0.0324,0.013523,0.002678,0.000431,0.003408
85732000,0.0324,0.013523,0.002678,0.000431,0.003291
85733000,0.0324,0.013523,0.002678,0.000431,0.003526
85734000,0.0324,0.013523,0.002678,0.000431,0.006229
85735000,0.0324,0.013523,0.002678,0.000431,0.004113
85736000,0.0324,0.013523,0.002678,0.000431,0.001645
85737000,0.0324,0.013523,0.002678,0.000431,0.001763
85738000,0.0324,0.013523,0.002678,0.000431,0.001763
85739000,0.0324,0.013523,0.002678,0.000431,0.001763
85740000,0.0324,0.013523,0.002678,0.000431,0.001645
85741000,0.0324,0.013523,0.002678,0.000431,0.001880
85742000,0.0324,0.013523,0.002678,0.000431,0.001645
85743000,0.0324,0.013523,0.002678,0.000431,0.001645
85744000,0.0324,0.013523,0.002678,0.000431,0.001763
85745000,0.0324,0.013523,0.002678,0.000431,0.001763
85746000,0.0324,0.013523,0.002678,0.000431,0.001880
85747000,0.0324,0.013523,0.002678,0.000431,0.001528
85748000,0.0324,0.013523,0.002678,0.000431,0.001763
85749000,0.0324,0.013523,0.002678,0.000431,0.001880
85750000,0.0324,0.013523,0.002678,0.000431,0.001528
85751000,0.0324,0.013523,0.002678,0.000431,0.001763
85752000,0.0324,0.013523,0.002678,0.000431,0.001763
85753000,0.0324,0.013523,0.002678,0.000431,0.001763
85754000,0.0324,0.013523,0.002678,0.000431,0.001763
85755000,0.0324,0.013523,0.002678,0.000431,0.001645
85756000,0.0324,0.013523,0.002678,0.000431,0.001763
85757000,0.0324,0.013523,0.002678,0.000431,0.001763
85758000,0.0324,0.013523,0.002678,0.000431,0.001645
85759000,0.0324,0.013523,0.002678,0.000431,0.001763
85760000,0.0324,0.013523,0.002678,0.000431,0.001763
85761000,0.0324,0.013523,0.002678,0.000431,0.002586
85762000,0.0324,0.013523,0.002678,0.000431,0.001880
85763000,0.0324,0.013523,0.002678,0.000431,0.000940
85764000,0.0324,0.013523,0.002678,0.000431,0.000823
85765000,0.0324,0.013523,0.002678,0.000431,0.000823
85766000,0.0324,0.013523,0.002678,0.000431,0.000940
85767000,0.0324,0.013523,0.002678,0.000431,0.000940
85768000,0.0324,0.013523,0.002678,0.000431,0.000823
85769000,0.0324,0.013523,0.002678,0.000431,0.000823
85770000,0.0324,0.013523,0.002678,0.000431,0.000940
85771000,0.0324,0.013523,0.002678,0.000431,0.000940
85772000,0.0324,0.013523,0.002678,0.000431,0.000823
85773000,0.0324,0.013523,0.002678,0.000431,0.000823
85774000,0.0324,0.013523,0.002678,0.000431,0.000940
85775000,0.0324,0.013523,0.002678,0.000431,0.000940
85776000,0.0324,0.013523,0.002678,0.000431,0.023741
85777000,0.0324,0.013523,0.002678,0.000431,0.698000
85778000,0.0324,0.013523,0.002678,0.000431,0.568014
85779000,0.0324,0.013523,0.002678,0.000431,0.173824
85780000,0.0324,0.013523,0.002678,0.000431,0.157253
85781000,0.0324,0.013523,0.002678,0.000431,0.595750
85782000,0.0324,0.013523,0.002678,0.000431,0.234704
85783000,0.0324,0.013523,0.002678,0.000431,0.332957
85784000,0.0324,0.013523,0.002678,0.000431,0.287709
85785000,0.0324,0.013523,0.002678,0.000431,0.146205
85786000,0.0324,0.013523,0.002678,0.000431,0.119761
85787000,0.0324,0.013523,0.002678,0.000431,0.347413
85788000,0.0324,0.013523,0.002678,0.000431,0.419693
85789000,0.0324,0.013523,0.002678,0.000431,0.211551
85790000,0.0324,0.013523,0.002678,0.000431,0.174882
85791000,0.0324,0.013523,0.002678,0.000431,0.148086
85792000,0.0324,0.013523,0.002678,0.000431,0.118703
85793000,0.0324,0.013523,0.002678,0.000431,0.100252
85794000,0.0324,0.013523,0.002678,0.000431,0.091790
85795000,0.0324,0.013523,0.002678,0.000431,0.085913
85796000,0.0324,0.013523,0.002678,0.000431,0.061467
85797000,0.0324,0.013523,0.002678,0.000431,0.057471
85798000,0.0324,0.013523,0.002678,0.000431,0.041723
85799000,0.0324,0.013523,0.002678,0.000431,0.036669
85800000,0.0324,0.013523,0.002678,0.000431,0.030792
85801000,0.0324,0.013523,0.002678,0.000431,0.024093
85802000,0.0324,0.013523,0.002678,0.000431,0.025974
85803000,0.0324,0.013523,0.002678,0.000431,0.020920
85804000,0.0324,0.013523,0.002678,0.000431,0.025621
85805000,0.0324,0.013523,0.002678,0.000431,0.015631
85806000,0.0324,0.013523,0.002678,0.000431,0.007874
85807000,0.0324,0.013523,0.002678,0.000431,0.006229
85808000,0.0324,0.013523,0.002678,0.000431,0.005876
85809000,0.0324,0.013523,0.002678,0.000431,0.006817
85810000,0.0324,0.013523,0.002678,0.000431,0.006347
85811000,0.0324,0.013523,0.002678,0.000431,0.005054
85812000,0.0324,0.013523,0.002678,0.000431,0.005994
85813000,0.0324,0.013523,0.002678,0.000431,0.004936
85814000,0.0324,0.013523,0.002678,0.000431,0.004466
85815000,0.0324,0.013523,0.002678,0.000431,0.004113
85816000,0.0324,0.013523,0.002678,0.000431,0.004584
85817000,0.0324,0.013523,0.002678,0.000431,0.004349
85818000,0.0324,0.013523,0.002678,0.000431,0.004349
85819000,0.0324,0.013523,0.002678,0.000431,0.003996
85820000,0.0324,0.013523,0.002678,0.000431,0.004466
85821000,0.0324,0.013523,0.002678,0.000431,0.004231
85822000,0.0324,0.013523,0.002678,0.000431,0.009167
85823000,0.0324,0.013523,0.002678,0.000431,0.006111
85824000,0.0324,0.013523,0.002678,0.000431,0.001880
85825000,0.0324,0.013523,0.002678,0.000431,0.004113
85826000,0.0324,0.013523,0.002678,0.000431,0.000705
85827000,0.0324,0.013523,0.002678,0.000431,0.000940
85828000,0.0324,0.013523,0.002678,0.000431,0.000940
85829000,0.0324,0.013523,0.002678,0.000431,0.000940
85830000,0.0324,0.013523,0.002678,0.000431,0.000705
85831000,0.0324,0.013523,0.002678,0.000431,0.000940
85832000,0.0324,0.013523,0.002678,0.000431,0.000940
85833000,0.0324,0.013523,0.002678,0.000431,0.000940
85834000,0.0324,0.013523,0.002678,0.000431,0.000940
85835000,0.0324,0.013523,0.002678,0.000431,0.000705
85836000,0.0324,0.013523,0.002678,0.000431,0.000940
85837000,0.0324,0.013523,0.002678,0.000431,0.000940
85838000,0.0324,0.013523,0.002678,0.000431,0.000823
85839000,0.0324,0.013523,0.002678,0.000431,0.013868
85840000,0.0324,0.013523,0.002678,0.000431,0.708460
85841000,0.0324,0.013523,0.002678,0.000431,0.597631
85842000,0.0324,0.013523,0.002678,0.000431,0.168770
85843000,0.0324,0.013523,0.002678,0.000431,0.133512
85844000,0.0324,0.013523,0.002678,0.000431,0.560492
85845000,0.0324,0.013523,0.002678,0.000431,0.247749
85846000,0.0324,0.013523,0.002678,0.000431,0.286651
85847000,0.0324,0.013523,0.002678,0.000431,0.325671
85848000,0.0324,0.013523,0.002678,0.000431,0.142092
85849000,0.0324,0.013523,0.002678,0.000431,0.158428
85850000,0.0324,0.013523,0.002678,0.000431,0.164892
85851000,0.0324,0.013523,0.002678,0.000431,0.514068
85852000,0.0324,0.013523,0.002678,0.000431,0.185577
85853000,0.0324,0.013523,0.002678,0.000431,0.159956
85854000,0.0324,0.013523,0.002678,0.000431,0.139859
85855000,0.0324,0.013523,0.002678,0.000431,0.114237
85856000,0.0324,0.013523,0.002678,0.000431,0.110359
85857000,0.0324,0.013523,0.002678,0.000431,0.084855
85858000,0.0324,0.013523,0.002678,0.000431,0.062878
85859000,0.0324,0.013523,0.002678,0.000431,0.063583
85860000,0.0324,0.013523,0.002678,0.000431,0.047951
85861000,0.0324,0.013523,0.002678,0.000431,0.053945
85862000,0.0324,0.013523,0.002678,0.000431,0.029147
85863000,0.0324,0.013523,0.002678,0.000431,0.028677
85864000,0.0324,0.013523,0.002678,0.000431,0.032790
85865000,0.0324,0.013523,0.002678,0.000431,0.019510
85866000,0.0324,0.013523,0.002678,0.000431,0.016219
85867000,0.0324,0.013523,0.002678,0.000431,0.013868
85868000,0.0324,0.013523,0.002678,0.000431,0.018452
85869000,0.0324,0.013523,0.002678,0.000431,0.012811
85870000,0.0324,0.013523,0.002678,0.000431,0.015866
85871000,0.0324,0.013523,0.002678,0.000431,0.012105
85872000,0.0324,0.013523,0.002678,0.000431,0.008580
85873000,0.0324,0.013523,0.002678,0.000431,0.013281
85874000,0.0324,0.013523,0.002678,0.000431,0.006934
85875000,0.0324,0.013523,0.002678,0.000431,0.010578
85876000,0.0324,0.013523,0.002678,0.000431,0.005994
85877000,0.0324,0.013523,0.002678,0.000431,0.009872
85878000,0.0324,0.013523,0.002678,0.000431,0.004466
85879000,0.0324,0.013523,0.002678,0.000431,0.001763
85880000,0.0324,0.013523,0.002678,0.000431,0.001528
85881000,0.0324,0.013523,0.002678,0.000431,0.001880
85882000,0.0324,0.013523,0.002678,0.000431,0.001645
85883000,0.0324,0.013523,0.002678,0.000431,0.001528
85884000,0.0324,0.013523,0.002678,0.000431,0.003996
85885000,0.0324,0.013523,0.002678,0.000431,0.000823
85886000,0.0324,0.013523,0.002678,0.000431,0.000823
85887000,0.0324,0.013523,0.002678,0.000431,0.000823
85888000,0.0324,0.013523,0.002678,0.000431,0.000823
85889000,0.0324,0.013523,0.002678,0.000431,0.000823
85890000,0.0324,0.013523,0.002678,0.000431,0.000940
85891000,0.0324,0.013523,0.002678,0.000431,0.000705
85892000,0.0324,0.013523,0.002678,0.000431,0.000940
85893000,0.0324,0.013523,0.002678,0.000431,0.000705
85894000,0.0324,0.013523,0.002678,0.000431,0.000940
85895000,0.0324,0.013523,0.002678,0.000431,0.000940
85896000,0.0324,0.013523,0.002678,0.000431,0.000705
85897000,0.0324,0.013523,0.002678,0.000431,0.000940
85898000,0.0324,0.013523,0.002678,0.000431,0.000705
85899000,0.0324,0.013523,0.002678,0.000431,0.000940
85900000,0.0324,0.013523,0.002678,0.000431,0.000823
85901000,0.0324,0.013523,0.002678,0.000431,0.000823
85902000,0.0324,0.013523,0.002678,0.000431,0.000823
85903000,0.0324,0.013523,0.002678,0.000431,0.000823
85904000,0.0324,0.013523,0.002678,0.000431,0.000940
85905000,0.0324,0.013523,0.002678,0.000431,0.000705
85906000,0.0324,0.013523,0.002678,0.000431,0.000940
85907000,0.0324,0.013523,0.002678,0.000431,0.000823
85908000,0.0324,0.013523,0.002678,0.000431,0.000823
85909000,0.0324,0.013523,0.002678,0.000431,0.000940
85910000,0.0324,0.013523,0.002678,0.000431,0.000705
85911000,0.0324,0.013523,0.002678,0.000431,0.175940
85912000,0.0324,0.013523,0.002678,0.000431,0.635357
85913000,0.0324,0.013523,0.002678,0.000431,0.548739
85914000,0.0324,0.013523,0.002678,0.000431,0.134687
85915000,0.0324,0.013523,0.002678,0.000431,0.137155
85916000,0.0324,0.013523,0.002678,0.000431,0.559552
85917000,0.0324,0.013523,0.002678,0.000431,0.238112
85918000,0.0324,0.013523,0.002678,0.000431,0.234116
85919000,0.0324,0.013523,0.002678,0.000431,0.293703
85920000,0.0324,0.013523,0.002678,0.000431,0.140681
85921000,0.0324,0.013523,0.002678,0.000431,0.159133
85922000,0.0324,0.013523,0.002678,0.000431,0.106010
85923000,0.0324,0.013523,0.002678,0.000431,0.456715
85924000,0.0324,0.013523,0.002678,0.000431,0.288884
85925000,0.0324,0.013523,0.002678,0.000431,0.186165
85926000,0.0324,0.013523,0.002678,0.000431,0.155255
85927000,0.0324,0.013523,0.002678,0.000431,0.123522
85928000,0.0324,0.013523,0.002678,0.000431,0.104600
85929000,0.0324,0.013523,0.002678,0.000431,0.100604
85930000,0.0324,0.013523,0.002678,0.000431,0.084150
85931000,0.0324,0.013523,0.002678,0.000431,0.076511
85932000,0.0324,0.013523,0.002678,0.000431,0.054063
85933000,0.0324,0.013523,0.002678,0.000431,0.054768
85934000,0.0324,0.013523,0.002678,0.000431,0.048657
85935000,0.0324,0.013523,0.002678,0.000431,0.039019
85936000,0.0324,0.013523,0.002678,0.000431,0.042663
85937000,0.0324,0.013523,0.002678,0.000431,0.034318
85938000,0.0324,0.013523,0.002678,0.000431,0.025034
85939000,0.0324,0.013523,0.002678,0.000431,0.028207
85940000,0.0324,0.013523,0.002678,0.000431,0.026209
85941000,0.0324,0.013523,0.002678,0.000431,0.020215
85942000,0.0324,0.013523,0.002678,0.000431,0.016219
85943000,0.0324,0.013523,0.002678,0.000431,0.015161
85944000,0.0324,0.013523,0.002678,0.000431,0.014456
85945000,0.0324,0.013523,0.002678,0.000431,0.018922
85946000,0.0324,0.013523,0.002678,0.000431,0.012223
85947000,0.0324,0.013523,0.002678,0.000431,0.015514
85948000,0.0324,0.013523,0.002678,0.000431,0.005406
85949000,0.0324,0.013523,0.002678,0.000431,0.009050
85950000,0.0324,0.013523,0.002678,0.000431,0.002468
85951000,0.0324,0.013523,0.002678,0.000431,0.003761
85952000,0.0324,0.013523,0.002678,0.000431,0.001645
85953000,0.0324,0.013523,0.002678,0.000431,0.001763
85954000,0.0324,0.013523,0.002678,0.000431,0.001645
85955000,0.0324,0.013523,0.002678,0.000431,0.001763
85956000,0.0324,0.013523,0.002678,0.000431,0.001645
85957000,0.0324,0.013523,0.002678,0.000431,0.001645
85958000,0.0324,0.013523,0.002678,0.000431,0.001880
85959000,0.0324,0.013523,0.002678,0.000431,0.001763
85960000,0.0324,0.013523,0.002678,0.000431,0.001645
85961000,0.0324,0.013523,0.002678,0.000431,0.001528
85962000,0.0324,0.013523,0.002678,0.000431,0.001880
85963000,0.0324,0.013523,0.002678,0.000431,0.001880
85964000,0.0324,0.013523,0.002678,0.000431,0.001528
85965000,0.0324,0.013523,0.002678,0.000431,0.001763
85966000,0.0324,0.013523,0.002678,0.000431,0.001645
85967000,0.0324,0.013523,0.002678,0.000431,0.001880
85968000,0.0324,0.013523,0.002678,0.000431,0.001645
85969000,0.0324,0.013523,0.002678,0.000431,0.001645
85970000,0.0324,0.013523,0.002678,0.000431,0.001880
85971000,0.0324,0.013523,0.002678,0.000431,0.001528
85972000,0.0324,0.013523,0.002678,0.000431,0.001880
85973000,0.0324,0.013523,0.002678,0.000431,0.001645
85974000,0.0324,0.013523,0.002678,0.000431,0.001763
85975000,0.0324,0.013523,0.002678,0.000431,0.001645
85976000,0.0324,0.013523,0.002678,0.000431,0.001645
85977000,0.0324,0.013523,0.002678,0.000431,0.001763
85978000,0.0324,0.013523,0.002678,0.000431,0.001763
85979000,0.0324,0.013523,0.002678,0.000431,0.001645
85980000,0.0324,0.013523,0.002678,0.000431,0.001645
85981000,0.0324,0.013523,0.002678,0.000431,0.001880
85982000,0.0324,0.013523,0.002678,0.000431,0.001763
85983000,0.0324,0.013523,0.002678,0.000431,0.001528
85984000,0.0324,0.013523,0.002678,0.000431,0.001645
85985000,0.0324,0.013523,0.002678,0.000431,0.001880
85986000,0.0324,0.013523,0.002678,0.000431,0.001763
85987000,0.0324,0.013523,0.002678,0.000431,0.001528
85988000,0.0324,0.013523,0.002678,0.000431,0.003408
85989000,0.0324,0.013523,0.002678,0.000431,0.000705
85990000,0.0324,0.013523,0.002678,0.000431,0.000940
85991000,0.0324,0.013523,0.002678,0.000431,0.000823
85992000,0.0324,0.013523,0.002678,0.000431,0.000823
85993000,0.0324,0.013523,0.002678,0.000431,0.000940
85994000,0.0324,0.013523,0.002678,0.000431,0.000705
85995000,0.0324,0.013523,0.002678,0.000431,0.000940
85996000,0.0324,0.013523,0.002678,0.000431,0.000823
85997000,0.0324,0.013523,0.002678,0.000431,0.000823
85998000,0.0324,0.013523,0.002678,0.000431,0.000823
85999000,0.0324,0.013523,0.002678,0.000431,0.000823
