Cycle,Area(mm^2),PeakDynamic(W),SubthresholdLeakage(W),GateLeakage(W),RunTimeDynamic(W)
44000000,0.0324,0.013523,0.002678,0.000431,0.107656
44001000,0.0324,0.013523,0.002678,0.000431,0.090027
44002000,0.0324,0.013523,0.002678,0.000431,0.052183
44003000,0.0324,0.013523,0.002678,0.000431,0.034201
44004000,0.0324,0.013523,0.002678,0.000431,0.034906
44005000,0.0324,0.013523,0.002678,0.000431,0.025386
44006000,0.0324,0.013523,0.002678,0.000431,0.021390
44007000,0.0324,0.013523,0.002678,0.000431,0.016219
44008000,0.0324,0.013523,0.002678,0.000431,0.015279
44009000,0.0324,0.013523,0.002678,0.000431,0.007992
44010000,0.0324,0.013523,0.002678,0.000431,0.003526
44011000,0.0324,0.013523,0.002678,0.000431,0.006229
44012000,0.0324,0.013523,0.002678,0.000431,0.002468
44013000,0.0324,0.013523,0.002678,0.000431,0.005406
44014000,0.0324,0.013523,0.002678,0.000431,0.002938
44015000,0.0324,0.013523,0.002678,0.000431,0.015396
44016000,0.0324,0.013523,0.002678,0.000431,0.774628
44017000,0.0324,0.013523,0.002678,0.000431,0.551912
44018000,0.0324,0.013523,0.002678,0.000431,0.137273
44019000,0.0324,0.013523,0.002678,0.000431,0.137273
44020000,0.0324,0.013523,0.002678,0.000431,0.547916
44021000,0.0324,0.013523,0.002678,0.000431,0.284888
44022000,0.0324,0.013523,0.002678,0.000431,0.326023
44023000,0.0324,0.013523,0.002678,0.000431,0.151024
44024000,0.0324,0.013523,0.002678,0.000431,0.141386
44025000,0.0324,0.013523,0.002678,0.000431,0.229885
44026000,0.0324,0.013523,0.002678,0.000431,0.489270
44027000,0.0324,0.013523,0.002678,0.000431,0.188280
44028000,0.0324,0.013523,0.002678,0.000431,0.166537
44029000,0.0324,0.013523,0.002678,0.000431,0.141386
44030000,0.0324,0.013523,0.002678,0.000431,0.101897
44031000,0.0324,0.013523,0.002678,0.000431,0.080389
44032000,0.0324,0.013523,0.002678,0.000431,0.061115
44033000,0.0324,0.013523,0.002678,0.000431,0.051712
44034000,0.0324,0.013523,0.002678,0.000431,0.040430
44035000,0.0324,0.013523,0.002678,0.000431,0.025856
44036000,0.0324,0.013523,0.002678,0.000431,0.022800
44037000,0.0324,0.013523,0.002678,0.000431,0.016689
44038000,0.0324,0.013523,0.002678,0.000431,0.015279
44039000,0.0324,0.013523,0.002678,0.000431,0.013398
44040000,0.0324,0.013523,0.002678,0.000431,0.009402
44041000,0.0324,0.013523,0.002678,0.000431,0.009755
44042000,0.0324,0.013523,0.002678,0.000431,0.007052
44043000,0.0324,0.013523,0.002678,0.000431,0.002351
44044000,0.0324,0.013523,0.002678,0.000431,0.001763
44045000,0.0324,0.013523,0.002678,0.000431,0.001645
44046000,0.0324,0.013523,0.002678,0.000431,0.001645
44047000,0.0324,0.013523,0.002678,0.000431,0.001763
44048000,0.0324,0.013523,0.002678,0.000431,0.001880
44049000,0.0324,0.013523,0.002678,0.000431,0.004936
44050000,0.0324,0.013523,0.002678,0.000431,0.000940
44051000,0.0324,0.013523,0.002678,0.000431,0.256446
44052000,0.0324,0.013523,0.002678,0.000431,0.727970
44053000,0.0324,0.013523,0.002678,0.000431,0.379028
44054000,0.0324,0.013523,0.002678,0.000431,0.136803
44055000,0.0324,0.013523,0.002678,0.000431,0.551090
44056000,0.0324,0.013523,0.002678,0.000431,0.266436
44057000,0.0324,0.013523,0.002678,0.000431,0.294761
44058000,0.0324,0.013523,0.002678,0.000431,0.200033
44059000,0.0324,0.013523,0.002678,0.000431,0.188515
44060000,0.0324,0.013523,0.002678,0.000431,0.092965
44061000,0.0324,0.013523,0.002678,0.000431,0.554851
44062000,0.0324,0.013523,0.002678,0.000431,0.216604
44063000,0.0324,0.013523,0.002678,0.000431,0.178408
44064000,0.0324,0.013523,0.002678,0.000431,0.151611
44065000,0.0324,0.013523,0.002678,0.000431,0.140916
44066000,0.0324,0.013523,0.002678,0.000431,0.104953
44067000,0.0324,0.013523,0.002678,0.000431,0.075688
44068000,0.0324,0.013523,0.002678,0.000431,0.063230
44069000,0.0324,0.013523,0.002678,0.000431,0.041723
44070000,0.0324,0.013523,0.002678,0.000431,0.043956
44071000,0.0324,0.013523,0.002678,0.000431,0.034201
44072000,0.0324,0.013523,0.002678,0.000431,0.025504
44073000,0.0324,0.013523,0.002678,0.000431,0.015749
44074000,0.0324,0.013523,0.002678,0.000431,0.015514
44075000,0.0324,0.013523,0.002678,0.000431,0.014221
44076000,0.0324,0.013523,0.002678,0.000431,0.010930
44077000,0.0324,0.013523,0.002678,0.000431,0.008815
44078000,0.0324,0.013523,0.002678,0.000431,0.007052
44079000,0.0324,0.013523,0.002678,0.000431,0.012458
44080000,0.0324,0.013523,0.002678,0.000431,0.002703
44081000,0.0324,0.013523,0.002678,0.000431,0.004819
44082000,0.0324,0.013523,0.002678,0.000431,0.001645
44083000,0.0324,0.013523,0.002678,0.000431,0.001645
44084000,0.0324,0.013523,0.002678,0.000431,0.001410
44085000,0.0324,0.013523,0.002678,0.000431,0.001880
44086000,0.0324,0.013523,0.002678,0.000431,0.001528
44087000,0.0324,0.013523,0.002678,0.000431,0.001528
44088000,0.0324,0.013523,0.002678,0.000431,0.001528
44089000,0.0324,0.013523,0.002678,0.000431,0.071810
44090000,0.0324,0.013523,0.002678,0.000431,0.731613
44091000,0.0324,0.013523,0.002678,0.000431,0.548034
44092000,0.0324,0.013523,0.002678,0.000431,0.136450
44093000,0.0324,0.013523,0.002678,0.000431,0.167948
44094000,0.0324,0.013523,0.002678,0.000431,0.506546
44095000,0.0324,0.013523,0.002678,0.000431,0.237289
44096000,0.0324,0.013523,0.002678,0.000431,0.321792
44097000,0.0324,0.013523,0.002678,0.000431,0.159368
44098000,0.0324,0.013523,0.002678,0.000431,0.172531
44099000,0.0324,0.013523,0.002678,0.000431,0.145265
44100000,0.0324,0.013523,0.002678,0.000431,0.535223
44101000,0.0324,0.013523,0.002678,0.000431,0.215664
44102000,0.0324,0.013523,0.002678,0.000431,0.190043
44103000,0.0324,0.013523,0.002678,0.000431,0.154079
44104000,0.0324,0.013523,0.002678,0.000431,0.137978
44105000,0.0324,0.013523,0.002678,0.000431,0.094258
44106000,0.0324,0.013523,0.002678,0.000431,0.075336
44107000,0.0324,0.013523,0.002678,0.000431,0.067696
44108000,0.0324,0.013523,0.002678,0.000431,0.041252
44109000,0.0324,0.013523,0.002678,0.000431,0.042193
44110000,0.0324,0.013523,0.002678,0.000431,0.029382
44111000,0.0324,0.013523,0.002678,0.000431,0.014456
44112000,0.0324,0.013523,0.002678,0.000431,0.011283
44113000,0.0324,0.013523,0.002678,0.000431,0.011518
44114000,0.0324,0.013523,0.002678,0.000431,0.011870
44115000,0.0324,0.013523,0.002678,0.000431,0.002821
44116000,0.0324,0.013523,0.002678,0.000431,0.001763
44117000,0.0324,0.013523,0.002678,0.000431,0.001528
44118000,0.0324,0.013523,0.002678,0.000431,0.001763
44119000,0.0324,0.013523,0.002678,0.000431,0.001645
44120000,0.0324,0.013523,0.002678,0.000431,0.001645
44121000,0.0324,0.013523,0.002678,0.000431,0.001645
44122000,0.0324,0.013523,0.002678,0.000431,0.001645
44123000,0.0324,0.013523,0.002678,0.000431,0.001645
44124000,0.0324,0.013523,0.002678,0.000431,0.002938
44125000,0.0324,0.013523,0.002678,0.000431,0.002351
44126000,0.0324,0.013523,0.002678,0.000431,0.000705
44127000,0.0324,0.013523,0.002678,0.000431,0.000940
44128000,0.0324,0.013523,0.002678,0.000431,0.000940
44129000,0.0324,0.013523,0.002678,0.000431,0.000705
44130000,0.0324,0.013523,0.002678,0.000431,0.000940
44131000,0.0324,0.013523,0.002678,0.000431,0.000705
44132000,0.0324,0.013523,0.002678,0.000431,0.000940
44133000,0.0324,0.013523,0.002678,0.000431,0.000823
44134000,0.0324,0.013523,0.002678,0.000431,0.000823
44135000,0.0324,0.013523,0.002678,0.000431,0.000705
44136000,0.0324,0.013523,0.002678,0.000431,0.000940
44137000,0.0324,0.013523,0.002678,0.000431,0.000823
44138000,0.0324,0.013523,0.002678,0.000431,0.000823
44139000,0.0324,0.013523,0.002678,0.000431,0.000705
44140000,0.0324,0.013523,0.002678,0.000431,0.000940
44141000,0.0324,0.013523,0.002678,0.000431,0.000940
44142000,0.0324,0.013523,0.002678,0.000431,0.000705
44143000,0.0324,0.013523,0.002678,0.000431,0.000940
44144000,0.0324,0.013523,0.002678,0.000431,0.000705
44145000,0.0324,0.013523,0.002678,0.000431,0.000940
44146000,0.0324,0.013523,0.002678,0.000431,0.000940
44147000,0.0324,0.013523,0.002678,0.000431,0.000705
44148000,0.0324,0.013523,0.002678,0.000431,0.000940
44149000,0.0324,0.013523,0.002678,0.000431,0.000705
44150000,0.0324,0.013523,0.002678,0.000431,0.000940
44151000,0.0324,0.013523,0.002678,0.000431,0.000823
44152000,0.0324,0.013523,0.002678,0.000431,0.000823
44153000,0.0324,0.013523,0.002678,0.000431,0.000823
44154000,0.0324,0.013523,0.002678,0.000431,0.000823
44155000,0.0324,0.013523,0.002678,0.000431,0.000940
44156000,0.0324,0.013523,0.002678,0.000431,0.000705
44157000,0.0324,0.013523,0.002678,0.000431,0.000940
44158000,0.0324,0.013523,0.002678,0.000431,0.000705
44159000,0.0324,0.013523,0.002678,0.000431,0.000823
44160000,0.0324,0.013523,0.002678,0.000431,0.000823
44161000,0.0324,0.013523,0.002678,0.000431,0.000940
44162000,0.0324,0.013523,0.002678,0.000431,0.016101
44163000,0.0324,0.013523,0.002678,0.000431,0.771573
44164000,0.0324,0.013523,0.002678,0.000431,0.544508
44165000,0.0324,0.013523,0.002678,0.000431,0.137743
44166000,0.0324,0.013523,0.002678,0.000431,0.199563
44167000,0.0324,0.013523,0.002678,0.000431,0.597513
44168000,0.0324,0.013523,0.002678,0.000431,0.251040
44169000,0.0324,0.013523,0.002678,0.000431,0.314153
44170000,0.0324,0.013523,0.002678,0.000431,0.156665
44171000,0.0324,0.013523,0.002678,0.000431,0.105775
44172000,0.0324,0.013523,0.002678,0.000431,0.540747
44173000,0.0324,0.013523,0.002678,0.000431,0.432504
44174000,0.0324,0.013523,0.002678,0.000431,0.262675
44175000,0.0324,0.013523,0.002678,0.000431,0.200621
44176000,0.0324,0.013523,0.002678,0.000431,0.190748
44177000,0.0324,0.013523,0.002678,0.000431,0.152904
44178000,0.0324,0.013523,0.002678,0.000431,0.115178
44179000,0.0324,0.013523,0.002678,0.000431,0.093082
44180000,0.0324,0.013523,0.002678,0.000431,0.071222
44181000,0.0324,0.013523,0.002678,0.000431,0.072867
44182000,0.0324,0.013523,0.002678,0.000431,0.054180
44183000,0.0324,0.013523,0.002678,0.000431,0.039842
44184000,0.0324,0.013523,0.002678,0.000431,0.020215
44185000,0.0324,0.013523,0.002678,0.000431,0.017629
44186000,0.0324,0.013523,0.002678,0.000431,0.014573
44187000,0.0324,0.013523,0.002678,0.000431,0.014691
44188000,0.0324,0.013523,0.002678,0.000431,0.007404
44189000,0.0324,0.013523,0.002678,0.000431,0.008815
44190000,0.0324,0.013523,0.002678,0.000431,0.004466
44191000,0.0324,0.013523,0.002678,0.000431,0.004113
44192000,0.0324,0.013523,0.002678,0.000431,0.003291
44193000,0.0324,0.013523,0.002678,0.000431,0.007169
44194000,0.0324,0.013523,0.002678,0.000431,0.003291
44195000,0.0324,0.013523,0.002678,0.000431,0.002821
44196000,0.0324,0.013523,0.002678,0.000431,0.002938
44197000,0.0324,0.013523,0.002678,0.000431,0.003291
44198000,0.0324,0.013523,0.002678,0.000431,0.002821
44199000,0.0324,0.013523,0.002678,0.000431,0.003056
44200000,0.0324,0.013523,0.002678,0.000431,0.003291
44201000,0.0324,0.013523,0.002678,0.000431,0.002586
44202000,0.0324,0.013523,0.002678,0.000431,0.003996
44203000,0.0324,0.013523,0.002678,0.000431,0.003526
44204000,0.0324,0.013523,0.002678,0.000431,0.001763
44205000,0.0324,0.013523,0.002678,0.000431,0.001645
44206000,0.0324,0.013523,0.002678,0.000431,0.001880
44207000,0.0324,0.013523,0.002678,0.000431,0.001528
44208000,0.0324,0.013523,0.002678,0.000431,0.001763
44209000,0.0324,0.013523,0.002678,0.000431,0.003643
44210000,0.0324,0.013523,0.002678,0.000431,0.000823
44211000,0.0324,0.013523,0.002678,0.000431,0.000823
44212000,0.0324,0.013523,0.002678,0.000431,0.000940
44213000,0.0324,0.013523,0.002678,0.000431,0.000705
44214000,0.0324,0.013523,0.002678,0.000431,0.000940
44215000,0.0324,0.013523,0.002678,0.000431,0.000823
44216000,0.0324,0.013523,0.002678,0.000431,0.000823
44217000,0.0324,0.013523,0.002678,0.000431,0.000823
44218000,0.0324,0.013523,0.002678,0.000431,0.000823
44219000,0.0324,0.013523,0.002678,0.000431,0.000823
44220000,0.0324,0.013523,0.002678,0.000431,0.000823
44221000,0.0324,0.013523,0.002678,0.000431,0.002233
44222000,0.0324,0.013523,0.002678,0.000431,0.429918
44223000,0.0324,0.013523,0.002678,0.000431,0.898738
44224000,0.0324,0.013523,0.002678,0.000431,0.315916
44225000,0.0324,0.013523,0.002678,0.000431,0.145500
44226000,0.0324,0.013523,0.002678,0.000431,0.568954
44227000,0.0324,0.013523,0.002678,0.000431,0.287709
44228000,0.0324,0.013523,0.002678,0.000431,0.357991
44229000,0.0324,0.013523,0.002678,0.000431,0.165832
44230000,0.0324,0.013523,0.002678,0.000431,0.108479
44231000,0.0324,0.013523,0.002678,0.000431,0.381379
44232000,0.0324,0.013523,0.002678,0.000431,0.430506
44233000,0.0324,0.013523,0.002678,0.000431,0.230825
44234000,0.0324,0.013523,0.002678,0.000431,0.211198
44235000,0.0324,0.013523,0.002678,0.000431,0.159838
44236000,0.0324,0.013523,0.002678,0.000431,0.153727
44237000,0.0324,0.013523,0.002678,0.000431,0.128576
44238000,0.0324,0.013523,0.002678,0.000431,0.082740
44239000,0.0324,0.013523,0.002678,0.000431,0.090379
44240000,0.0324,0.013523,0.002678,0.000431,0.070047
44241000,0.0324,0.013523,0.002678,0.000431,0.061350
44242000,0.0324,0.013523,0.002678,0.000431,0.039137
44243000,0.0324,0.013523,0.002678,0.000431,0.038902
44244000,0.0324,0.013523,0.002678,0.000431,0.026091
44245000,0.0324,0.013523,0.002678,0.000431,0.018922
44246000,0.0324,0.013523,0.002678,0.000431,0.030322
44247000,0.0324,0.013523,0.002678,0.000431,0.011283
44248000,0.0324,0.013523,0.002678,0.000431,0.013751
44249000,0.0324,0.013523,0.002678,0.000431,0.005524
44250000,0.0324,0.013523,0.002678,0.000431,0.006934
44251000,0.0324,0.013523,0.002678,0.000431,0.004113
44252000,0.0324,0.013523,0.002678,0.000431,0.006934
44253000,0.0324,0.013523,0.002678,0.000431,0.002586
44254000,0.0324,0.013523,0.002678,0.000431,0.004819
44255000,0.0324,0.013523,0.002678,0.000431,0.002233
44256000,0.0324,0.013523,0.002678,0.000431,0.001528
44257000,0.0324,0.013523,0.002678,0.000431,0.002233
44258000,0.0324,0.013523,0.002678,0.000431,0.001880
44259000,0.0324,0.013523,0.002678,0.000431,0.001998
44260000,0.0324,0.013523,0.002678,0.000431,0.002233
44261000,0.0324,0.013523,0.002678,0.000431,0.002351
44262000,0.0324,0.013523,0.002678,0.000431,0.002233
44263000,0.0324,0.013523,0.002678,0.000431,0.003643
44264000,0.0324,0.013523,0.002678,0.000431,0.000823
44265000,0.0324,0.013523,0.002678,0.000431,0.015396
44266000,0.0324,0.013523,0.002678,0.000431,0.804128
44267000,0.0324,0.013523,0.002678,0.000431,0.563900
44268000,0.0324,0.013523,0.002678,0.000431,0.136803
44269000,0.0324,0.013523,0.002678,0.000431,0.149966
44270000,0.0324,0.013523,0.002678,0.000431,0.577298
44271000,0.0324,0.013523,0.002678,0.000431,0.265614
44272000,0.0324,0.013523,0.002678,0.000431,0.315093
44273000,0.0324,0.013523,0.002678,0.000431,0.153022
44274000,0.0324,0.013523,0.002678,0.000431,0.119996
44275000,0.0324,0.013523,0.002678,0.000431,0.341889
44276000,0.0324,0.013523,0.002678,0.000431,0.386550
44277000,0.0324,0.013523,0.002678,0.000431,0.149143
44278000,0.0324,0.013523,0.002678,0.000431,0.142562
44279000,0.0324,0.013523,0.002678,0.000431,0.131279
44280000,0.0324,0.013523,0.002678,0.000431,0.103660
44281000,0.0324,0.013523,0.002678,0.000431,0.082505
44282000,0.0324,0.013523,0.002678,0.000431,0.077686
44283000,0.0324,0.013523,0.002678,0.000431,0.058176
44284000,0.0324,0.013523,0.002678,0.000431,0.045718
44285000,0.0324,0.013523,0.002678,0.000431,0.039489
44286000,0.0324,0.013523,0.002678,0.000431,0.035141
44287000,0.0324,0.013523,0.002678,0.000431,0.031027
44288000,0.0324,0.013523,0.002678,0.000431,0.027149
44289000,0.0324,0.013523,0.002678,0.000431,0.020332
44290000,0.0324,0.013523,0.002678,0.000431,0.013281
44291000,0.0324,0.013523,0.002678,0.000431,0.004466
44292000,0.0324,0.013523,0.002678,0.000431,0.002703
44293000,0.0324,0.013523,0.002678,0.000431,0.002586
44294000,0.0324,0.013523,0.002678,0.000431,0.002586
44295000,0.0324,0.013523,0.002678,0.000431,0.002821
44296000,0.0324,0.013523,0.002678,0.000431,0.003878
44297000,0.0324,0.013523,0.002678,0.000431,0.003291
44298000,0.0324,0.013523,0.002678,0.000431,0.005289
44299000,0.0324,0.013523,0.002678,0.000431,0.000823
44300000,0.0324,0.013523,0.002678,0.000431,0.000940
44301000,0.0324,0.013523,0.002678,0.000431,0.071927
44302000,0.0324,0.013523,0.002678,0.000431,0.712103
44303000,0.0324,0.013523,0.002678,0.000431,0.534636
44304000,0.0324,0.013523,0.002678,0.000431,0.135863
44305000,0.0324,0.013523,0.002678,0.000431,0.153962
44306000,0.0324,0.013523,0.002678,0.000431,0.521120
44307000,0.0324,0.013523,0.002678,0.000431,0.233646
44308000,0.0324,0.013523,0.002678,0.000431,0.315211
44309000,0.0324,0.013523,0.002678,0.000431,0.161014
44310000,0.0324,0.013523,0.002678,0.000431,0.167830
44311000,0.0324,0.013523,0.002678,0.000431,0.106481
44312000,0.0324,0.013523,0.002678,0.000431,0.545448
44313000,0.0324,0.013523,0.002678,0.000431,0.243166
44314000,0.0324,0.013523,0.002678,0.000431,0.172061
44315000,0.0324,0.013523,0.002678,0.000431,0.150201
44316000,0.0324,0.013523,0.002678,0.000431,0.133747
44317000,0.0324,0.013523,0.002678,0.000431,0.106716
44318000,0.0324,0.013523,0.002678,0.000431,0.091907
44319000,0.0324,0.013523,0.002678,0.000431,0.066991
44320000,0.0324,0.013523,0.002678,0.000431,0.060057
44321000,0.0324,0.013523,0.002678,0.000431,0.043838
44322000,0.0324,0.013523,0.002678,0.000431,0.040077
44323000,0.0324,0.013523,0.002678,0.000431,0.029617
44324000,0.0324,0.013523,0.002678,0.000431,0.029617
44325000,0.0324,0.013523,0.002678,0.000431,0.020097
44326000,0.0324,0.013523,0.002678,0.000431,0.018569
44327000,0.0324,0.013523,0.002678,0.000431,0.011635
44328000,0.0324,0.013523,0.002678,0.000431,0.014809
44329000,0.0324,0.013523,0.002678,0.000431,0.012223
44330000,0.0324,0.013523,0.002678,0.000431,0.014809
44331000,0.0324,0.013523,0.002678,0.000431,0.004113
44332000,0.0324,0.013523,0.002678,0.000431,0.001880
44333000,0.0324,0.013523,0.002678,0.000431,0.005406
44334000,0.0324,0.013523,0.002678,0.000431,0.571304
44335000,0.0324,0.013523,0.002678,0.000431,0.733611
44336000,0.0324,0.013523,0.002678,0.000431,0.142092
44337000,0.0324,0.013523,0.002678,0.000431,0.143149
44338000,0.0324,0.013523,0.002678,0.000431,0.577769
44339000,0.0324,0.013523,0.002678,0.000431,0.273958
44340000,0.0324,0.013523,0.002678,0.000431,0.285123
44341000,0.0324,0.013523,0.002678,0.000431,0.148086
44342000,0.0324,0.013523,0.002678,0.000431,0.178643
44343000,0.0324,0.013523,0.002678,0.000431,0.149143
44344000,0.0324,0.013523,0.002678,0.000431,0.539807
44345000,0.0324,0.013523,0.002678,0.000431,0.221893
44346000,0.0324,0.013523,0.002678,0.000431,0.196155
44347000,0.0324,0.013523,0.002678,0.000431,0.180171
44348000,0.0324,0.013523,0.002678,0.000431,0.151494
44349000,0.0324,0.013523,0.002678,0.000431,0.116235
44350000,0.0324,0.013523,0.002678,0.000431,0.108008
44351000,0.0324,0.013523,0.002678,0.000431,0.089792
44352000,0.0324,0.013523,0.002678,0.000431,0.076276
44353000,0.0324,0.013523,0.002678,0.000431,0.060057
44354000,0.0324,0.013523,0.002678,0.000431,0.046189
44355000,0.0324,0.013523,0.002678,0.000431,0.040547
44356000,0.0324,0.013523,0.002678,0.000431,0.030910
44357000,0.0324,0.013523,0.002678,0.000431,0.017982
44358000,0.0324,0.013523,0.002678,0.000431,0.016571
44359000,0.0324,0.013523,0.002678,0.000431,0.015161
44360000,0.0324,0.013523,0.002678,0.000431,0.011635
44361000,0.0324,0.013523,0.002678,0.000431,0.016336
44362000,0.0324,0.013523,0.002678,0.000431,0.007404
44363000,0.0324,0.013523,0.002678,0.000431,0.007522
44364000,0.0324,0.013523,0.002678,0.000431,0.001293
44365000,0.0324,0.013523,0.002678,0.000431,0.001058
44366000,0.0324,0.013523,0.002678,0.000431,0.261030
44367000,0.0324,0.013523,0.002678,0.000431,0.771808
44368000,0.0324,0.013523,0.002678,0.000431,0.374445
44369000,0.0324,0.013523,0.002678,0.000431,0.139976
44370000,0.0324,0.013523,0.002678,0.000431,0.484334
44371000,0.0324,0.013523,0.002678,0.000431,0.306984
44372000,0.0324,0.013523,0.002678,0.000431,0.297346
44373000,0.0324,0.013523,0.002678,0.000431,0.247514
44374000,0.0324,0.013523,0.002678,0.000431,0.166067
44375000,0.0324,0.013523,0.002678,0.000431,0.097901
44376000,0.0324,0.013523,0.002678,0.000431,0.524411
44377000,0.0324,0.013523,0.002678,0.000431,0.224831
44378000,0.0324,0.013523,0.002678,0.000431,0.155842
44379000,0.0324,0.013523,0.002678,0.000431,0.130456
44380000,0.0324,0.013523,0.002678,0.000431,0.102955
44381000,0.0324,0.013523,0.002678,0.000431,0.093787
44382000,0.0324,0.013523,0.002678,0.000431,0.084385
44383000,0.0324,0.013523,0.002678,0.000431,0.055708
44384000,0.0324,0.013523,0.002678,0.000431,0.049009
44385000,0.0324,0.013523,0.002678,0.000431,0.032320
44386000,0.0324,0.013523,0.002678,0.000431,0.024446
44387000,0.0324,0.013523,0.002678,0.000431,0.018569
44388000,0.0324,0.013523,0.002678,0.000431,0.018334
44389000,0.0324,0.013523,0.002678,0.000431,0.022565
44390000,0.0324,0.013523,0.002678,0.000431,0.015631
44391000,0.0324,0.013523,0.002678,0.000431,0.008580
44392000,0.0324,0.013523,0.002678,0.000431,0.011870
44393000,0.0324,0.013523,0.002678,0.000431,0.011283
44394000,0.0324,0.013523,0.002678,0.000431,0.009520
44395000,0.0324,0.013523,0.002678,0.000431,0.005641
44396000,0.0324,0.013523,0.002678,0.000431,0.005994
44397000,0.0324,0.013523,0.002678,0.000431,0.004466
44398000,0.0324,0.013523,0.002678,0.000431,0.003761
44399000,0.0324,0.013523,0.002678,0.000431,0.005524
44400000,0.0324,0.013523,0.002678,0.000431,0.003408
44401000,0.0324,0.013523,0.002678,0.000431,0.003056
44402000,0.0324,0.013523,0.002678,0.000431,0.003056
44403000,0.0324,0.013523,0.002678,0.000431,0.003173
44404000,0.0324,0.013523,0.002678,0.000431,0.002938
44405000,0.0324,0.013523,0.002678,0.000431,0.003408
44406000,0.0324,0.013523,0.002678,0.000431,0.003056
44407000,0.0324,0.013523,0.002678,0.000431,0.002703
44408000,0.0324,0.013523,0.002678,0.000431,0.002351
44409000,0.0324,0.013523,0.002678,0.000431,0.002586
44410000,0.0324,0.013523,0.002678,0.000431,0.002703
44411000,0.0324,0.013523,0.002678,0.000431,0.004819
44412000,0.0324,0.013523,0.002678,0.000431,0.001998
44413000,0.0324,0.013523,0.002678,0.000431,0.000940
44414000,0.0324,0.013523,0.002678,0.000431,0.000823
44415000,0.0324,0.013523,0.002678,0.000431,0.000940
44416000,0.0324,0.013523,0.002678,0.000431,0.132102
44417000,0.0324,0.013523,0.002678,0.000431,0.735139
44418000,0.0324,0.013523,0.002678,0.000431,0.484686
44419000,0.0324,0.013523,0.002678,0.000431,0.136333
44420000,0.0324,0.013523,0.002678,0.000431,0.368568
44421000,0.0324,0.013523,0.002678,0.000431,0.372682
44422000,0.0324,0.013523,0.002678,0.000431,0.236937
44423000,0.0324,0.013523,0.002678,0.000431,0.257504
44424000,0.0324,0.013523,0.002678,0.000431,0.162424
44425000,0.0324,0.013523,0.002678,0.000431,0.133747
44426000,0.0324,0.013523,0.002678,0.000431,0.297464
44427000,0.0324,0.013523,0.002678,0.000431,0.451308
44428000,0.0324,0.013523,0.002678,0.000431,0.183109
44429000,0.0324,0.013523,0.002678,0.000431,0.160073
44430000,0.0324,0.013523,0.002678,0.000431,0.139976
44431000,0.0324,0.013523,0.002678,0.000431,0.117646
44432000,0.0324,0.013523,0.002678,0.000431,0.090967
44433000,0.0324,0.013523,0.002678,0.000431,0.072397
44434000,0.0324,0.013523,0.002678,0.000431,0.042310
44435000,0.0324,0.013523,0.002678,0.000431,0.050890
44436000,0.0324,0.013523,0.002678,0.000431,0.029735
44437000,0.0324,0.013523,0.002678,0.000431,0.018805
44438000,0.0324,0.013523,0.002678,0.000431,0.018569
44439000,0.0324,0.013523,0.002678,0.000431,0.011048
44440000,0.0324,0.013523,0.002678,0.000431,0.016924
44441000,0.0324,0.013523,0.002678,0.000431,0.009167
44442000,0.0324,0.013523,0.002678,0.000431,0.009402
44443000,0.0324,0.013523,0.002678,0.000431,0.005876
44444000,0.0324,0.013523,0.002678,0.000431,0.001528
44445000,0.0324,0.013523,0.002678,0.000431,0.001528
44446000,0.0324,0.013523,0.002678,0.000431,0.001175
44447000,0.0324,0.013523,0.002678,0.000431,0.000940
44448000,0.0324,0.013523,0.002678,0.000431,0.000940
44449000,0.0324,0.013523,0.002678,0.000431,0.000823
44450000,0.0324,0.013523,0.002678,0.000431,0.014221
44451000,0.0324,0.013523,0.002678,0.000431,0.748772
44452000,0.0324,0.013523,0.002678,0.000431,0.562020
44453000,0.0324,0.013523,0.002678,0.000431,0.136333
44454000,0.0324,0.013523,0.002678,0.000431,0.137626
44455000,0.0324,0.013523,0.002678,0.000431,0.538867
44456000,0.0324,0.013523,0.002678,0.000431,0.263028
44457000,0.0324,0.013523,0.002678,0.000431,0.324378
44458000,0.0324,0.013523,0.002678,0.000431,0.145970
44459000,0.0324,0.013523,0.002678,0.000431,0.163599
44460000,0.0324,0.013523,0.002678,0.000431,0.174177
44461000,0.0324,0.013523,0.002678,0.000431,0.536516
44462000,0.0324,0.013523,0.002678,0.000431,0.203676
44463000,0.0324,0.013523,0.002678,0.000431,0.183579
44464000,0.0324,0.013523,0.002678,0.000431,0.145147
44465000,0.0324,0.013523,0.002678,0.000431,0.120584
44466000,0.0324,0.013523,0.002678,0.000431,0.109654
44467000,0.0324,0.013523,0.002678,0.000431,0.081682
44468000,0.0324,0.013523,0.002678,0.000431,0.065816
44469000,0.0324,0.013523,0.002678,0.000431,0.057941
44470000,0.0324,0.013523,0.002678,0.000431,0.036316
44471000,0.0324,0.013523,0.002678,0.000431,0.030557
44472000,0.0324,0.013523,0.002678,0.000431,0.028207
44473000,0.0324,0.013523,0.002678,0.000431,0.017277
44474000,0.0324,0.013523,0.002678,0.000431,0.017864
44475000,0.0324,0.013523,0.002678,0.000431,0.014691
44476000,0.0324,0.013523,0.002678,0.000431,0.011753
44477000,0.0324,0.013523,0.002678,0.000431,0.009637
44478000,0.0324,0.013523,0.002678,0.000431,0.011518
44479000,0.0324,0.013523,0.002678,0.000431,0.004701
44480000,0.0324,0.013523,0.002678,0.000431,0.005171
44481000,0.0324,0.013523,0.002678,0.000431,0.004936
44482000,0.0324,0.013523,0.002678,0.000431,0.004936
44483000,0.0324,0.013523,0.002678,0.000431,0.004819
44484000,0.0324,0.013523,0.002678,0.000431,0.008932
44485000,0.0324,0.013523,0.002678,0.000431,0.003408
44486000,0.0324,0.013523,0.002678,0.000431,0.003408
44487000,0.0324,0.013523,0.002678,0.000431,0.003291
44488000,0.0324,0.013523,0.002678,0.000431,0.005171
44489000,0.0324,0.013523,0.002678,0.000431,0.002468
44490000,0.0324,0.013523,0.002678,0.000431,0.002586
44491000,0.0324,0.013523,0.002678,0.000431,0.002586
44492000,0.0324,0.013523,0.002678,0.000431,0.002586
44493000,0.0324,0.013523,0.002678,0.000431,0.002351
44494000,0.0324,0.013523,0.002678,0.000431,0.002351
44495000,0.0324,0.013523,0.002678,0.000431,0.002703
44496000,0.0324,0.013523,0.002678,0.000431,0.002586
44497000,0.0324,0.013523,0.002678,0.000431,0.002233
44498000,0.0324,0.013523,0.002678,0.000431,0.004584
44499000,0.0324,0.013523,0.002678,0.000431,0.003173
44500000,0.0324,0.013523,0.002678,0.000431,0.000940
44501000,0.0324,0.013523,0.002678,0.000431,0.000705
44502000,0.0324,0.013523,0.002678,0.000431,0.000940
44503000,0.0324,0.013523,0.002678,0.000431,0.000823
44504000,0.0324,0.013523,0.002678,0.000431,0.000823
44505000,0.0324,0.013523,0.002678,0.000431,0.000823
44506000,0.0324,0.013523,0.002678,0.000431,0.000823
44507000,0.0324,0.013523,0.002678,0.000431,0.018452
44508000,0.0324,0.013523,0.002678,0.000431,0.792140
44509000,0.0324,0.013523,0.002678,0.000431,0.546741
44510000,0.0324,0.013523,0.002678,0.000431,0.135392
44511000,0.0324,0.013523,0.002678,0.000431,0.145030
44512000,0.0324,0.013523,0.002678,0.000431,0.537574
44513000,0.0324,0.013523,0.002678,0.000431,0.269140
44514000,0.0324,0.013523,0.002678,0.000431,0.314153
44515000,0.0324,0.013523,0.002678,0.000431,0.159133
44516000,0.0324,0.013523,0.002678,0.000431,0.149143
44517000,0.0324,0.013523,0.002678,0.000431,0.223068
44518000,0.0324,0.013523,0.002678,0.000431,0.487624
44519000,0.0324,0.013523,0.002678,0.000431,0.169358
44520000,0.0324,0.013523,0.002678,0.000431,0.147968
44521000,0.0324,0.013523,0.002678,0.000431,0.136215
44522000,0.0324,0.013523,0.002678,0.000431,0.120114
44523000,0.0324,0.013523,0.002678,0.000431,0.096373
44524000,0.0324,0.013523,0.002678,0.000431,0.068166
44525000,0.0324,0.013523,0.002678,0.000431,0.057001
44526000,0.0324,0.013523,0.002678,0.000431,0.043015
44527000,0.0324,0.013523,0.002678,0.000431,0.047364
44528000,0.0324,0.013523,0.002678,0.000431,0.035376
44529000,0.0324,0.013523,0.002678,0.000431,0.021743
44530000,0.0324,0.013523,0.002678,0.000431,0.022095
44531000,0.0324,0.013523,0.002678,0.000431,0.014926
44532000,0.0324,0.013523,0.002678,0.000431,0.010578
44533000,0.0324,0.013523,0.002678,0.000431,0.004936
44534000,0.0324,0.013523,0.002678,0.000431,0.005876
44535000,0.0324,0.013523,0.002678,0.000431,0.005641
44536000,0.0324,0.013523,0.002678,0.000431,0.008345
44537000,0.0324,0.013523,0.002678,0.000431,0.002703
44538000,0.0324,0.013523,0.002678,0.000431,0.001998
44539000,0.0324,0.013523,0.002678,0.000431,0.001880
44540000,0.0324,0.013523,0.002678,0.000431,0.002351
44541000,0.0324,0.013523,0.002678,0.000431,0.003173
44542000,0.0324,0.013523,0.002678,0.000431,0.003408
44543000,0.0324,0.013523,0.002678,0.000431,0.000940
44544000,0.0324,0.013523,0.002678,0.000431,0.001410
44545000,0.0324,0.013523,0.002678,0.000431,0.001410
44546000,0.0324,0.013523,0.002678,0.000431,0.001058
44547000,0.0324,0.013523,0.002678,0.000431,0.001528
44548000,0.0324,0.013523,0.002678,0.000431,0.001058
44549000,0.0324,0.013523,0.002678,0.000431,0.001528
44550000,0.0324,0.013523,0.002678,0.000431,0.001293
44551000,0.0324,0.013523,0.002678,0.000431,0.001058
44552000,0.0324,0.013523,0.002678,0.000431,0.001645
44553000,0.0324,0.013523,0.002678,0.000431,0.001058
44554000,0.0324,0.013523,0.002678,0.000431,0.001293
44555000,0.0324,0.013523,0.002678,0.000431,0.001528
44556000,0.0324,0.013523,0.002678,0.000431,0.000940
44557000,0.0324,0.013523,0.002678,0.000431,0.001528
44558000,0.0324,0.013523,0.002678,0.000431,0.001293
44559000,0.0324,0.013523,0.002678,0.000431,0.001058
44560000,0.0324,0.013523,0.002678,0.000431,0.001763
44561000,0.0324,0.013523,0.002678,0.000431,0.000940
44562000,0.0324,0.013523,0.002678,0.000431,0.001528
44563000,0.0324,0.013523,0.002678,0.000431,0.001293
44564000,0.0324,0.013523,0.002678,0.000431,0.001058
44565000,0.0324,0.013523,0.002678,0.000431,0.001763
44566000,0.0324,0.013523,0.002678,0.000431,0.000823
44567000,0.0324,0.013523,0.002678,0.000431,0.001645
44568000,0.0324,0.013523,0.002678,0.000431,0.001175
44569000,0.0324,0.013523,0.002678,0.000431,0.001175
44570000,0.0324,0.013523,0.002678,0.000431,0.001645
44571000,0.0324,0.013523,0.002678,0.000431,0.000940
44572000,0.0324,0.013523,0.002678,0.000431,0.001410
44573000,0.0324,0.013523,0.002678,0.000431,0.001293
44574000,0.0324,0.013523,0.002678,0.000431,0.001293
44575000,0.0324,0.013523,0.002678,0.000431,0.001410
44576000,0.0324,0.013523,0.002678,0.000431,0.001175
44577000,0.0324,0.013523,0.002678,0.000431,0.001410
44578000,0.0324,0.013523,0.002678,0.000431,0.001293
44579000,0.0324,0.013523,0.002678,0.000431,0.000940
44580000,0.0324,0.013523,0.002678,0.000431,0.001763
44581000,0.0324,0.013523,0.002678,0.000431,0.001175
44582000,0.0324,0.013523,0.002678,0.000431,0.001175
44583000,0.0324,0.013523,0.002678,0.000431,0.001528
44584000,0.0324,0.013523,0.002678,0.000431,0.000940
44585000,0.0324,0.013523,0.002678,0.000431,0.001763
44586000,0.0324,0.013523,0.002678,0.000431,0.000940
44587000,0.0324,0.013523,0.002678,0.000431,0.001410
44588000,0.0324,0.013523,0.002678,0.000431,0.001410
44589000,0.0324,0.013523,0.002678,0.000431,0.001058
44590000,0.0324,0.013523,0.002678,0.000431,0.001763
44591000,0.0324,0.013523,0.002678,0.000431,0.000823
44592000,0.0324,0.013523,0.002678,0.000431,0.001528
44593000,0.0324,0.013523,0.002678,0.000431,0.001410
44594000,0.0324,0.013523,0.002678,0.000431,0.000940
44595000,0.0324,0.013523,0.002678,0.000431,0.001645
44596000,0.0324,0.013523,0.002678,0.000431,0.001058
44597000,0.0324,0.013523,0.002678,0.000431,0.001293
44598000,0.0324,0.013523,0.002678,0.000431,0.001528
44599000,0.0324,0.013523,0.002678,0.000431,0.001058
44600000,0.0324,0.013523,0.002678,0.000431,0.001410
44601000,0.0324,0.013523,0.002678,0.000431,0.001293
44602000,0.0324,0.013523,0.002678,0.000431,0.001293
44603000,0.0324,0.013523,0.002678,0.000431,0.001528
44604000,0.0324,0.013523,0.002678,0.000431,0.000940
44605000,0.0324,0.013523,0.002678,0.000431,0.001528
44606000,0.0324,0.013523,0.002678,0.000431,0.001293
44607000,0.0324,0.013523,0.002678,0.000431,0.001058
44608000,0.0324,0.013523,0.002678,0.000431,0.001763
44609000,0.0324,0.013523,0.002678,0.000431,0.000940
44610000,0.0324,0.013523,0.002678,0.000431,0.001528
44611000,0.0324,0.013523,0.002678,0.000431,0.001175
44612000,0.0324,0.013523,0.002678,0.000431,0.001175
44613000,0.0324,0.013523,0.002678,0.000431,0.001645
44614000,0.0324,0.013523,0.002678,0.000431,0.000940
44615000,0.0324,0.013523,0.002678,0.000431,0.001410
44616000,0.0324,0.013523,0.002678,0.000431,0.001528
44617000,0.0324,0.013523,0.002678,0.000431,0.000823
44618000,0.0324,0.013523,0.002678,0.000431,0.071810
44619000,0.0324,0.013523,0.002678,0.000431,0.746539
44620000,0.0324,0.013523,0.002678,0.000431,0.508074
44621000,0.0324,0.013523,0.002678,0.000431,0.138683
44622000,0.0324,0.013523,0.002678,0.000431,0.468702
44623000,0.0324,0.013523,0.002678,0.000431,0.306866
44624000,0.0324,0.013523,0.002678,0.000431,0.333427
44625000,0.0324,0.013523,0.002678,0.000431,0.195684
44626000,0.0324,0.013523,0.002678,0.000431,0.161836
44627000,0.0324,0.013523,0.002678,0.000431,0.177115
44628000,0.0324,0.013523,0.002678,0.000431,0.524058
44629000,0.0324,0.013523,0.002678,0.000431,0.203794
44630000,0.0324,0.013523,0.002678,0.000431,0.161131
44631000,0.0324,0.013523,0.002678,0.000431,0.133512
44632000,0.0324,0.013523,0.002678,0.000431,0.110829
44633000,0.0324,0.013523,0.002678,0.000431,0.097078
44634000,0.0324,0.013523,0.002678,0.000431,0.068401
44635000,0.0324,0.013523,0.002678,0.000431,0.053240
44636000,0.0324,0.013523,0.002678,0.000431,0.050655
44637000,0.0324,0.013523,0.002678,0.000431,0.035846
44638000,0.0324,0.013523,0.002678,0.000431,0.031027
44639000,0.0324,0.013523,0.002678,0.000431,0.024798
44640000,0.0324,0.013523,0.002678,0.000431,0.015984
44641000,0.0324,0.013523,0.002678,0.000431,0.011753
44642000,0.0324,0.013523,0.002678,0.000431,0.009755
44643000,0.0324,0.013523,0.002678,0.000431,0.010342
44644000,0.0324,0.013523,0.002678,0.000431,0.010342
44645000,0.0324,0.013523,0.002678,0.000431,0.005994
44646000,0.0324,0.013523,0.002678,0.000431,0.007639
44647000,0.0324,0.013523,0.002678,0.000431,0.004113
44648000,0.0324,0.013523,0.002678,0.000431,0.005524
44649000,0.0324,0.013523,0.002678,0.000431,0.002468
44650000,0.0324,0.013523,0.002678,0.000431,0.002468
44651000,0.0324,0.013523,0.002678,0.000431,0.007522
44652000,0.0324,0.013523,0.002678,0.000431,0.000705
44653000,0.0324,0.013523,0.002678,0.000431,0.000940
44654000,0.0324,0.013523,0.002678,0.000431,0.000823
44655000,0.0324,0.013523,0.002678,0.000431,0.000823
44656000,0.0324,0.013523,0.002678,0.000431,0.000940
44657000,0.0324,0.013523,0.002678,0.000431,0.000705
44658000,0.0324,0.013523,0.002678,0.000431,0.000940
44659000,0.0324,0.013523,0.002678,0.000431,0.000823
44660000,0.0324,0.013523,0.002678,0.000431,0.000823
44661000,0.0324,0.013523,0.002678,0.000431,0.000823
44662000,0.0324,0.013523,0.002678,0.000431,0.000823
44663000,0.0324,0.013523,0.002678,0.000431,0.114825
44664000,0.0324,0.013523,0.002678,0.000431,0.748067
44665000,0.0324,0.013523,0.002678,0.000431,0.523118
44666000,0.0324,0.013523,0.002678,0.000431,0.141151
44667000,0.0324,0.013523,0.002678,0.000431,0.233411
44668000,0.0324,0.013523,0.002678,0.000431,0.581294
44669000,0.0324,0.013523,0.002678,0.000431,0.280892
44670000,0.0324,0.013523,0.002678,0.000431,0.277719
44671000,0.0324,0.013523,0.002678,0.000431,0.150083
44672000,0.0324,0.013523,0.002678,0.000431,0.120231
44673000,0.0324,0.013523,0.002678,0.000431,0.346591
44674000,0.0324,0.013523,0.002678,0.000431,0.400183
44675000,0.0324,0.013523,0.002678,0.000431,0.167713
44676000,0.0324,0.013523,0.002678,0.000431,0.136333
44677000,0.0324,0.013523,0.002678,0.000431,0.128458
44678000,0.0324,0.013523,0.002678,0.000431,0.107773
44679000,0.0324,0.013523,0.002678,0.000431,0.095668
44680000,0.0324,0.013523,0.002678,0.000431,0.075688
44681000,0.0324,0.013523,0.002678,0.000431,0.055238
44682000,0.0324,0.013523,0.002678,0.000431,0.049127
44683000,0.0324,0.013523,0.002678,0.000431,0.033731
44684000,0.0324,0.013523,0.002678,0.000431,0.037256
44685000,0.0324,0.013523,0.002678,0.000431,0.031027
44686000,0.0324,0.013523,0.002678,0.000431,0.018805
44687000,0.0324,0.013523,0.002678,0.000431,0.010695
44688000,0.0324,0.013523,0.002678,0.000431,0.009520
44689000,0.0324,0.013523,0.002678,0.000431,0.005171
44690000,0.0324,0.013523,0.002678,0.000431,0.006347
44691000,0.0324,0.013523,0.002678,0.000431,0.008697
44692000,0.0324,0.013523,0.002678,0.000431,0.004936
44693000,0.0324,0.013523,0.002678,0.000431,0.000940
44694000,0.0324,0.013523,0.002678,0.000431,0.014573
44695000,0.0324,0.013523,0.002678,0.000431,0.698352
44696000,0.0324,0.013523,0.002678,0.000431,0.588346
44697000,0.0324,0.013523,0.002678,0.000431,0.141151
44698000,0.0324,0.013523,0.002678,0.000431,0.135863
44699000,0.0324,0.013523,0.002678,0.000431,0.514656
44700000,0.0324,0.013523,0.002678,0.000431,0.240228
44701000,0.0324,0.013523,0.002678,0.000431,0.299227
44702000,0.0324,0.013523,0.002678,0.000431,0.179583
44703000,0.0324,0.013523,0.002678,0.000431,0.172414
44704000,0.0324,0.013523,0.002678,0.000431,0.116705
44705000,0.0324,0.013523,0.002678,0.000431,0.469408
44706000,0.0324,0.013523,0.002678,0.000431,0.314153
44707000,0.0324,0.013523,0.002678,0.000431,0.191571
44708000,0.0324,0.013523,0.002678,0.000431,0.166302
44709000,0.0324,0.013523,0.002678,0.000431,0.135392
44710000,0.0324,0.013523,0.002678,0.000431,0.115765
44711000,0.0324,0.013523,0.002678,0.000431,0.088969
44712000,0.0324,0.013523,0.002678,0.000431,0.072985
44713000,0.0324,0.013523,0.002678,0.000431,0.062407
44714000,0.0324,0.013523,0.002678,0.000431,0.048187
44715000,0.0324,0.013523,0.002678,0.000431,0.039725
44716000,0.0324,0.013523,0.002678,0.000431,0.044191
44717000,0.0324,0.013523,0.002678,0.000431,0.028442
44718000,0.0324,0.013523,0.002678,0.000431,0.025034
44719000,0.0324,0.013523,0.002678,0.000431,0.022918
44720000,0.0324,0.013523,0.002678,0.000431,0.017982
44721000,0.0324,0.013523,0.002678,0.000431,0.017629
44722000,0.0324,0.013523,0.002678,0.000431,0.010342
44723000,0.0324,0.013523,0.002678,0.000431,0.012105
44724000,0.0324,0.013523,0.002678,0.000431,0.008345
44725000,0.0324,0.013523,0.002678,0.000431,0.008109
44726000,0.0324,0.013523,0.002678,0.000431,0.008345
44727000,0.0324,0.013523,0.002678,0.000431,0.006934
44728000,0.0324,0.013523,0.002678,0.000431,0.005759
44729000,0.0324,0.013523,0.002678,0.000431,0.005994
44730000,0.0324,0.013523,0.002678,0.000431,0.004701
44731000,0.0324,0.013523,0.002678,0.000431,0.005171
44732000,0.0324,0.013523,0.002678,0.000431,0.595163
44733000,0.0324,0.013523,0.002678,0.000431,0.721270
44734000,0.0324,0.013523,0.002678,0.000431,0.151024
44735000,0.0324,0.013523,0.002678,0.000431,0.158898
44736000,0.0324,0.013523,0.002678,0.000431,0.631244
44737000,0.0324,0.013523,0.002678,0.000431,0.246104
44738000,0.0324,0.013523,0.002678,0.000431,0.283831
44739000,0.0324,0.013523,0.002678,0.000431,0.154902
44740000,0.0324,0.013523,0.002678,0.000431,0.156195
44741000,0.0324,0.013523,0.002678,0.000431,0.194862
44742000,0.0324,0.013523,0.002678,0.000431,0.513716
44743000,0.0324,0.013523,0.002678,0.000431,0.156195
44744000,0.0324,0.013523,0.002678,0.000431,0.139506
44745000,0.0324,0.013523,0.002678,0.000431,0.116353
44746000,0.0324,0.013523,0.002678,0.000431,0.092612
44747000,0.0324,0.013523,0.002678,0.000431,0.078039
44748000,0.0324,0.013523,0.002678,0.000431,0.076746
44749000,0.0324,0.013523,0.002678,0.000431,0.052065
44750000,0.0324,0.013523,0.002678,0.000431,0.047246
44751000,0.0324,0.013523,0.002678,0.000431,0.033848
44752000,0.0324,0.013523,0.002678,0.000431,0.028559
44753000,0.0324,0.013523,0.002678,0.000431,0.022095
44754000,0.0324,0.013523,0.002678,0.000431,0.024093
44755000,0.0324,0.013523,0.002678,0.000431,0.021625
44756000,0.0324,0.013523,0.002678,0.000431,0.025269
44757000,0.0324,0.013523,0.002678,0.000431,0.015161
44758000,0.0324,0.013523,0.002678,0.000431,0.009990
44759000,0.0324,0.013523,0.002678,0.000431,0.014809
44760000,0.0324,0.013523,0.002678,0.000431,0.007052
44761000,0.0324,0.013523,0.002678,0.000431,0.007169
44762000,0.0324,0.013523,0.002678,0.000431,0.005759
44763000,0.0324,0.013523,0.002678,0.000431,0.004584
44764000,0.0324,0.013523,0.002678,0.000431,0.004349
44765000,0.0324,0.013523,0.002678,0.000431,0.004701
44766000,0.0324,0.013523,0.002678,0.000431,0.004819
44767000,0.0324,0.013523,0.002678,0.000431,0.005524
44768000,0.0324,0.013523,0.002678,0.000431,0.005289
44769000,0.0324,0.013523,0.002678,0.000431,0.003761
44770000,0.0324,0.013523,0.002678,0.000431,0.006111
44771000,0.0324,0.013523,0.002678,0.000431,0.002468
44772000,0.0324,0.013523,0.002678,0.000431,0.002703
44773000,0.0324,0.013523,0.002678,0.000431,0.002586
44774000,0.0324,0.013523,0.002678,0.000431,0.003878
44775000,0.0324,0.013523,0.002678,0.000431,0.004231
44776000,0.0324,0.013523,0.002678,0.000431,0.000823
44777000,0.0324,0.013523,0.002678,0.000431,0.000940
44778000,0.0324,0.013523,0.002678,0.000431,0.000705
44779000,0.0324,0.013523,0.002678,0.000431,0.014103
44780000,0.0324,0.013523,0.002678,0.000431,0.720095
44781000,0.0324,0.013523,0.002678,0.000431,0.556261
44782000,0.0324,0.013523,0.002678,0.000431,0.145382
44783000,0.0324,0.013523,0.002678,0.000431,0.143149
44784000,0.0324,0.013523,0.002678,0.000431,0.605270
44785000,0.0324,0.013523,0.002678,0.000431,0.263616
44786000,0.0324,0.013523,0.002678,0.000431,0.270902
44787000,0.0324,0.013523,0.002678,0.000431,0.153492
44788000,0.0324,0.013523,0.002678,0.000431,0.173589
44789000,0.0324,0.013523,0.002678,0.000431,0.127753
44790000,0.0324,0.013523,0.002678,0.000431,0.540160
44791000,0.0324,0.013523,0.002678,0.000431,0.200033
44792000,0.0324,0.013523,0.002678,0.000431,0.173589
44793000,0.0324,0.013523,0.002678,0.000431,0.131867
44794000,0.0324,0.013523,0.002678,0.000431,0.103777
44795000,0.0324,0.013523,0.002678,0.000431,0.083445
44796000,0.0324,0.013523,0.002678,0.000431,0.075688
44797000,0.0324,0.013523,0.002678,0.000431,0.070752
44798000,0.0324,0.013523,0.002678,0.000431,0.042193
44799000,0.0324,0.013523,0.002678,0.000431,0.041723
44800000,0.0324,0.013523,0.002678,0.000431,0.035376
44801000,0.0324,0.013523,0.002678,0.000431,0.020685
44802000,0.0324,0.013523,0.002678,0.000431,0.024211
44803000,0.0324,0.013523,0.002678,0.000431,0.020097
44804000,0.0324,0.013523,0.002678,0.000431,0.013868
44805000,0.0324,0.013523,0.002678,0.000431,0.015631
44806000,0.0324,0.013523,0.002678,0.000431,0.012576
44807000,0.0324,0.013523,0.002678,0.000431,0.017042
44808000,0.0324,0.013523,0.002678,0.000431,0.010225
44809000,0.0324,0.013523,0.002678,0.000431,0.009402
44810000,0.0324,0.013523,0.002678,0.000431,0.010930
44811000,0.0324,0.013523,0.002678,0.000431,0.015396
44812000,0.0324,0.013523,0.002678,0.000431,0.007757
44813000,0.0324,0.013523,0.002678,0.000431,0.005759
44814000,0.0324,0.013523,0.002678,0.000431,0.005289
44815000,0.0324,0.013523,0.002678,0.000431,0.005524
44816000,0.0324,0.013523,0.002678,0.000431,0.003878
44817000,0.0324,0.013523,0.002678,0.000431,0.000940
44818000,0.0324,0.013523,0.002678,0.000431,0.262323
44819000,0.0324,0.013523,0.002678,0.000431,0.748655
44820000,0.0324,0.013523,0.002678,0.000431,0.378088
44821000,0.0324,0.013523,0.002678,0.000431,0.136450
44822000,0.0324,0.013523,0.002678,0.000431,0.447077
44823000,0.0324,0.013523,0.002678,0.000431,0.291235
44824000,0.0324,0.013523,0.002678,0.000431,0.293115
44825000,0.0324,0.013523,0.002678,0.000431,0.283948
44826000,0.0324,0.013523,0.002678,0.000431,0.153022
44827000,0.0324,0.013523,0.002678,0.000431,0.109536
44828000,0.0324,0.013523,0.002678,0.000431,0.403827
44829000,0.0324,0.013523,0.002678,0.000431,0.444374
44830000,0.0324,0.013523,0.002678,0.000431,0.257034
44831000,0.0324,0.013523,0.002678,0.000431,0.213431
44832000,0.0324,0.013523,0.002678,0.000431,0.184872
44833000,0.0324,0.013523,0.002678,0.000431,0.160779
44834000,0.0324,0.013523,0.002678,0.000431,0.145500
44835000,0.0324,0.013523,0.002678,0.000431,0.119644
44836000,0.0324,0.013523,0.002678,0.000431,0.095315
44837000,0.0324,0.013523,0.002678,0.000431,0.065346
44838000,0.0324,0.013523,0.002678,0.000431,0.072397
44839000,0.0324,0.013523,0.002678,0.000431,0.051947
44840000,0.0324,0.013523,0.002678,0.000431,0.060527
44841000,0.0324,0.013523,0.002678,0.000431,0.030087
44842000,0.0324,0.013523,0.002678,0.000431,0.024211
44843000,0.0324,0.013523,0.002678,0.000431,0.021625
44844000,0.0324,0.013523,0.002678,0.000431,0.018922
44845000,0.0324,0.013523,0.002678,0.000431,0.015984
44846000,0.0324,0.013523,0.002678,0.000431,0.016807
44847000,0.0324,0.013523,0.002678,0.000431,0.014338
44848000,0.0324,0.013523,0.002678,0.000431,0.010930
44849000,0.0324,0.013523,0.002678,0.000431,0.003643
44850000,0.0324,0.013523,0.002678,0.000431,0.003408
44851000,0.0324,0.013523,0.002678,0.000431,0.003526
44852000,0.0324,0.013523,0.002678,0.000431,0.008227
44853000,0.0324,0.013523,0.002678,0.000431,0.001880
44854000,0.0324,0.013523,0.002678,0.000431,0.003408
44855000,0.0324,0.013523,0.002678,0.000431,0.002586
44856000,0.0324,0.013523,0.002678,0.000431,0.377736
44857000,0.0324,0.013523,0.002678,0.000431,0.847143
44858000,0.0324,0.013523,0.002678,0.000431,0.261618
44859000,0.0324,0.013523,0.002678,0.000431,0.137273
44860000,0.0324,0.013523,0.002678,0.000431,0.517594
44861000,0.0324,0.013523,0.002678,0.000431,0.260795
44862000,0.0324,0.013523,0.002678,0.000431,0.323555
44863000,0.0324,0.013523,0.002678,0.000431,0.201091
44864000,0.0324,0.013523,0.002678,0.000431,0.174529
44865000,0.0324,0.013523,0.002678,0.000431,0.109771
44866000,0.0324,0.013523,0.002678,0.000431,0.558494
44867000,0.0324,0.013523,0.002678,0.000431,0.236937
44868000,0.0324,0.013523,0.002678,0.000431,0.176057
44869000,0.0324,0.013523,0.002678,0.000431,0.152904
44870000,0.0324,0.013523,0.002678,0.000431,0.130104
44871000,0.0324,0.013523,0.002678,0.000431,0.102720
44872000,0.0324,0.013523,0.002678,0.000431,0.084973
44873000,0.0324,0.013523,0.002678,0.000431,0.072867
44874000,0.0324,0.013523,0.002678,0.000431,0.047951
44875000,0.0324,0.013523,0.002678,0.000431,0.041723
44876000,0.0324,0.013523,0.002678,0.000431,0.040665
44877000,0.0324,0.013523,0.002678,0.000431,0.039254
44878000,0.0324,0.013523,0.002678,0.000431,0.029852
44879000,0.0324,0.013523,0.002678,0.000431,0.028794
44880000,0.0324,0.013523,0.002678,0.000431,0.022213
44881000,0.0324,0.013523,0.002678,0.000431,0.013516
44882000,0.0324,0.013523,0.002678,0.000431,0.004466
44883000,0.0324,0.013523,0.002678,0.000431,0.004466
44884000,0.0324,0.013523,0.002678,0.000431,0.003878
44885000,0.0324,0.013523,0.002678,0.000431,0.004231
44886000,0.0324,0.013523,0.002678,0.000431,0.001763
44887000,0.0324,0.013523,0.002678,0.000431,0.003878
44888000,0.0324,0.013523,0.002678,0.000431,0.016219
44889000,0.0324,0.013523,0.002678,0.000431,0.748655
44890000,0.0324,0.013523,0.002678,0.000431,0.561315
44891000,0.0324,0.013523,0.002678,0.000431,0.158546
44892000,0.0324,0.013523,0.002678,0.000431,0.145970
44893000,0.0324,0.013523,0.002678,0.000431,0.552500
44894000,0.0324,0.013523,0.002678,0.000431,0.245634
44895000,0.0324,0.013523,0.002678,0.000431,0.337188
44896000,0.0324,0.013523,0.002678,0.000431,0.168183
44897000,0.0324,0.013523,0.002678,0.000431,0.156783
44898000,0.0324,0.013523,0.002678,0.000431,0.172531
44899000,0.0324,0.013523,0.002678,0.000431,0.703524
44900000,0.0324,0.013523,0.002678,0.000431,0.473639
44901000,0.0324,0.013523,0.002678,0.000431,0.301812
44902000,0.0324,0.013523,0.002678,0.000431,0.244341
44903000,0.0324,0.013523,0.002678,0.000431,0.193922
44904000,0.0324,0.013523,0.002678,0.000431,0.165245
44905000,0.0324,0.013523,0.002678,0.000431,0.118233
44906000,0.0324,0.013523,0.002678,0.000431,0.098489
44907000,0.0324,0.013523,0.002678,0.000431,0.076746
44908000,0.0324,0.013523,0.002678,0.000431,0.035376
44909000,0.0324,0.013523,0.002678,0.000431,0.015161
44910000,0.0324,0.013523,0.002678,0.000431,0.023388
44911000,0.0324,0.013523,0.002678,0.000431,0.017394
44912000,0.0324,0.013523,0.002678,0.000431,0.010813
44913000,0.0324,0.013523,0.002678,0.000431,0.009402
44914000,0.0324,0.013523,0.002678,0.000431,0.005994
44915000,0.0324,0.013523,0.002678,0.000431,0.005641
44916000,0.0324,0.013523,0.002678,0.000431,0.010813
44917000,0.0324,0.013523,0.002678,0.000431,0.007757
44918000,0.0324,0.013523,0.002678,0.000431,0.014103
44919000,0.0324,0.013523,0.002678,0.000431,0.002586
44920000,0.0324,0.013523,0.002678,0.000431,0.752180
44921000,0.0324,0.013523,0.002678,0.000431,0.803423
44922000,0.0324,0.013523,0.002678,0.000431,0.292645
44923000,0.0324,0.013523,0.002678,0.000431,0.172296
44924000,0.0324,0.013523,0.002678,0.000431,0.598101
44925000,0.0324,0.013523,0.002678,0.000431,0.274546
44926000,0.0324,0.013523,0.002678,0.000431,0.305338
44927000,0.0324,0.013523,0.002678,0.000431,0.164187
44928000,0.0324,0.013523,0.002678,0.000431,0.105188
44929000,0.0324,0.013523,0.002678,0.000431,0.432386
44930000,0.0324,0.013523,0.002678,0.000431,0.726677
44931000,0.0324,0.013523,0.002678,0.000431,0.339656
44932000,0.0324,0.013523,0.002678,0.000431,0.279364
44933000,0.0324,0.013523,0.002678,0.000431,0.215194
44934000,0.0324,0.013523,0.002678,0.000431,0.151846
44935000,0.0324,0.013523,0.002678,0.000431,0.121994
44936000,0.0324,0.013523,0.002678,0.000431,0.108596
44937000,0.0324,0.013523,0.002678,0.000431,0.068872
44938000,0.0324,0.013523,0.002678,0.000431,0.058764
44939000,0.0324,0.013523,0.002678,0.000431,0.024211
44940000,0.0324,0.013523,0.002678,0.000431,0.027737
44941000,0.0324,0.013523,0.002678,0.000431,0.008580
44942000,0.0324,0.013523,0.002678,0.000431,0.011518
44943000,0.0324,0.013523,0.002678,0.000431,0.011518
44944000,0.0324,0.013523,0.002678,0.000431,0.002821
44945000,0.0324,0.013523,0.002678,0.000431,0.006817
44946000,0.0324,0.013523,0.002678,0.000431,0.003526
44947000,0.0324,0.013523,0.002678,0.000431,0.003056
44948000,0.0324,0.013523,0.002678,0.000431,0.000823
44949000,0.0324,0.013523,0.002678,0.000431,0.000823
44950000,0.0324,0.013523,0.002678,0.000431,0.000940
44951000,0.0324,0.013523,0.002678,0.000431,0.000940
44952000,0.0324,0.013523,0.002678,0.000431,0.072280
44953000,0.0324,0.013523,0.002678,0.000431,1.149073
44954000,0.0324,0.013523,0.002678,0.000431,0.551090
44955000,0.0324,0.013523,0.002678,0.000431,0.223656
44956000,0.0324,0.013523,0.002678,0.000431,0.255506
44957000,0.0324,0.013523,0.002678,0.000431,0.501610
44958000,0.0324,0.013523,0.002678,0.000431,0.310745
44959000,0.0324,0.013523,0.002678,0.000431,0.313213
44960000,0.0324,0.013523,0.002678,0.000431,0.188515
44961000,0.0324,0.013523,0.002678,0.000431,0.108361
44962000,0.0324,0.013523,0.002678,0.000431,0.538749
44963000,0.0324,0.013523,0.002678,0.000431,0.653692
44964000,0.0324,0.013523,0.002678,0.000431,0.348824
44965000,0.0324,0.013523,0.002678,0.000431,0.238230
44966000,0.0324,0.013523,0.002678,0.000431,0.189220
44967000,0.0324,0.013523,0.002678,0.000431,0.152199
44968000,0.0324,0.013523,0.002678,0.000431,0.125403
44969000,0.0324,0.013523,0.002678,0.000431,0.069812
44970000,0.0324,0.013523,0.002678,0.000431,0.062055
44971000,0.0324,0.013523,0.002678,0.000431,0.060645
44972000,0.0324,0.013523,0.002678,0.000431,0.032908
44973000,0.0324,0.013523,0.002678,0.000431,0.039607
44974000,0.0324,0.013523,0.002678,0.000431,0.023858
44975000,0.0324,0.013523,0.002678,0.000431,0.007639
44976000,0.0324,0.013523,0.002678,0.000431,0.012223
44977000,0.0324,0.013523,0.002678,0.000431,0.012928
44978000,0.0324,0.013523,0.002678,0.000431,0.016219
44979000,0.0324,0.013523,0.002678,0.000431,0.005054
44980000,0.0324,0.013523,0.002678,0.000431,0.000940
44981000,0.0324,0.013523,0.002678,0.000431,0.000940
44982000,0.0324,0.013523,0.002678,0.000431,0.000823
44983000,0.0324,0.013523,0.002678,0.000431,0.000823
44984000,0.0324,0.013523,0.002678,0.000431,0.000940
44985000,0.0324,0.013523,0.002678,0.000431,0.000823
44986000,0.0324,0.013523,0.002678,0.000431,0.001058
44987000,0.0324,0.013523,0.002678,0.000431,0.000823
44988000,0.0324,0.013523,0.002678,0.000431,0.001058
44989000,0.0324,0.013523,0.002678,0.000431,0.000940
44990000,0.0324,0.013523,0.002678,0.000431,0.000940
44991000,0.0324,0.013523,0.002678,0.000431,0.062055
44992000,0.0324,0.013523,0.002678,0.000431,1.150953
44993000,0.0324,0.013523,0.002678,0.000431,0.548504
44994000,0.0324,0.013523,0.002678,0.000431,0.272078
44995000,0.0324,0.013523,0.002678,0.000431,0.253861
44996000,0.0324,0.013523,0.002678,0.000431,0.588346
44997000,0.0324,0.013523,0.002678,0.000431,0.276426
44998000,0.0324,0.013523,0.002678,0.000431,0.286886
44999000,0.0324,0.013523,0.002678,0.000431,0.166185
