Cycle,Area(mm^2),PeakDynamic(W),SubthresholdLeakage(W),GateLeakage(W),RunTimeDynamic(W)
125000000,0.0324,0.013523,0.002678,0.000431,0.289472
125001000,0.0324,0.013523,0.002678,0.000431,0.259855
125002000,0.0324,0.013523,0.002678,0.000431,0.219073
125003000,0.0324,0.013523,0.002678,0.000431,0.184872
125004000,0.0324,0.013523,0.002678,0.000431,0.148556
125005000,0.0324,0.013523,0.002678,0.000431,0.139271
125006000,0.0324,0.013523,0.002678,0.000431,0.118116
125007000,0.0324,0.013523,0.002678,0.000431,0.087323
125008000,0.0324,0.013523,0.002678,0.000431,0.062878
125009000,0.0324,0.013523,0.002678,0.000431,0.069107
125010000,0.0324,0.013523,0.002678,0.000431,0.067579
125011000,0.0324,0.013523,0.002678,0.000431,0.057236
125012000,0.0324,0.013523,0.002678,0.000431,0.035964
125013000,0.0324,0.013523,0.002678,0.000431,0.033496
125014000,0.0324,0.013523,0.002678,0.000431,0.035258
125015000,0.0324,0.013523,0.002678,0.000431,0.026326
125016000,0.0324,0.013523,0.002678,0.000431,0.024446
125017000,0.0324,0.013523,0.002678,0.000431,0.020567
125018000,0.0324,0.013523,0.002678,0.000431,0.021743
125019000,0.0324,0.013523,0.002678,0.000431,0.018805
125020000,0.0324,0.013523,0.002678,0.000431,0.012458
125021000,0.0324,0.013523,0.002678,0.000431,0.011753
125022000,0.0324,0.013523,0.002678,0.000431,0.021743
125023000,0.0324,0.013523,0.002678,0.000431,0.010460
125024000,0.0324,0.013523,0.002678,0.000431,0.011988
125025000,0.0324,0.013523,0.002678,0.000431,0.008815
125026000,0.0324,0.013523,0.002678,0.000431,0.010813
125027000,0.0324,0.013523,0.002678,0.000431,0.006582
125028000,0.0324,0.013523,0.002678,0.000431,0.004819
125029000,0.0324,0.013523,0.002678,0.000431,0.004936
125030000,0.0324,0.013523,0.002678,0.000431,0.005054
125031000,0.0324,0.013523,0.002678,0.000431,0.005054
125032000,0.0324,0.013523,0.002678,0.000431,0.005054
125033000,0.0324,0.013523,0.002678,0.000431,0.004701
125034000,0.0324,0.013523,0.002678,0.000431,0.008580
125035000,0.0324,0.013523,0.002678,0.000431,0.003761
125036000,0.0324,0.013523,0.002678,0.000431,0.007404
125037000,0.0324,0.013523,0.002678,0.000431,0.011988
125038000,0.0324,0.013523,0.002678,0.000431,0.002233
125039000,0.0324,0.013523,0.002678,0.000431,0.068989
125040000,0.0324,0.013523,0.002678,0.000431,0.923301
125041000,0.0324,0.013523,0.002678,0.000431,0.560727
125042000,0.0324,0.013523,0.002678,0.000431,0.208848
125043000,0.0324,0.013523,0.002678,0.000431,0.224244
125044000,0.0324,0.013523,0.002678,0.000431,0.566486
125045000,0.0324,0.013523,0.002678,0.000431,0.309334
125046000,0.0324,0.013523,0.002678,0.000431,0.300167
125047000,0.0324,0.013523,0.002678,0.000431,0.171239
125048000,0.0324,0.013523,0.002678,0.000431,0.115060
125049000,0.0324,0.013523,0.002678,0.000431,0.367393
125050000,0.0324,0.013523,0.002678,0.000431,0.509837
125051000,0.0324,0.013523,0.002678,0.000431,0.286416
125052000,0.0324,0.013523,0.002678,0.000431,0.261970
125053000,0.0324,0.013523,0.002678,0.000431,0.228827
125054000,0.0324,0.013523,0.002678,0.000431,0.181934
125055000,0.0324,0.013523,0.002678,0.000431,0.153962
125056000,0.0324,0.013523,0.002678,0.000431,0.137038
125057000,0.0324,0.013523,0.002678,0.000431,0.108243
125058000,0.0324,0.013523,0.002678,0.000431,0.096843
125059000,0.0324,0.013523,0.002678,0.000431,0.075688
125060000,0.0324,0.013523,0.002678,0.000431,0.060880
125061000,0.0324,0.013523,0.002678,0.000431,0.057236
125062000,0.0324,0.013523,0.002678,0.000431,0.044778
125063000,0.0324,0.013523,0.002678,0.000431,0.033966
125064000,0.0324,0.013523,0.002678,0.000431,0.029029
125065000,0.0324,0.013523,0.002678,0.000431,0.031498
125066000,0.0324,0.013523,0.002678,0.000431,0.025386
125067000,0.0324,0.013523,0.002678,0.000431,0.025151
125068000,0.0324,0.013523,0.002678,0.000431,0.013633
125069000,0.0324,0.013523,0.002678,0.000431,0.012693
125070000,0.0324,0.013523,0.002678,0.000431,0.011048
125071000,0.0324,0.013523,0.002678,0.000431,0.009050
125072000,0.0324,0.013523,0.002678,0.000431,0.008697
125073000,0.0324,0.013523,0.002678,0.000431,0.006582
125074000,0.0324,0.013523,0.002678,0.000431,0.005759
125075000,0.0324,0.013523,0.002678,0.000431,0.007287
125076000,0.0324,0.013523,0.002678,0.000431,0.006817
125077000,0.0324,0.013523,0.002678,0.000431,0.007522
125078000,0.0324,0.013523,0.002678,0.000431,0.004113
125079000,0.0324,0.013523,0.002678,0.000431,0.006464
125080000,0.0324,0.013523,0.002678,0.000431,0.007169
125081000,0.0324,0.013523,0.002678,0.000431,0.001998
125082000,0.0324,0.013523,0.002678,0.000431,0.001998
125083000,0.0324,0.013523,0.002678,0.000431,0.003878
125084000,0.0324,0.013523,0.002678,0.000431,0.003408
125085000,0.0324,0.013523,0.002678,0.000431,0.000940
125086000,0.0324,0.013523,0.002678,0.000431,0.001293
125087000,0.0324,0.013523,0.002678,0.000431,0.000940
125088000,0.0324,0.013523,0.002678,0.000431,0.001293
125089000,0.0324,0.013523,0.002678,0.000431,0.000705
125090000,0.0324,0.013523,0.002678,0.000431,0.014809
125091000,0.0324,0.013523,0.002678,0.000431,0.821522
125092000,0.0324,0.013523,0.002678,0.000431,0.592460
125093000,0.0324,0.013523,0.002678,0.000431,0.221188
125094000,0.0324,0.013523,0.002678,0.000431,0.178878
125095000,0.0324,0.013523,0.002678,0.000431,0.599041
125096000,0.0324,0.013523,0.002678,0.000431,0.302282
125097000,0.0324,0.013523,0.002678,0.000431,0.323438
125098000,0.0324,0.013523,0.002678,0.000431,0.180523
125099000,0.0324,0.013523,0.002678,0.000431,0.173472
125100000,0.0324,0.013523,0.002678,0.000431,0.142679
125101000,0.0324,0.013523,0.002678,0.000431,0.580589
125102000,0.0324,0.013523,0.002678,0.000431,0.389959
125103000,0.0324,0.013523,0.002678,0.000431,0.269727
125104000,0.0324,0.013523,0.002678,0.000431,0.249042
125105000,0.0324,0.013523,0.002678,0.000431,0.209553
125106000,0.0324,0.013523,0.002678,0.000431,0.158075
125107000,0.0324,0.013523,0.002678,0.000431,0.154315
125108000,0.0324,0.013523,0.002678,0.000431,0.124462
125109000,0.0324,0.013523,0.002678,0.000431,0.103895
125110000,0.0324,0.013523,0.002678,0.000431,0.097196
125111000,0.0324,0.013523,0.002678,0.000431,0.090849
125112000,0.0324,0.013523,0.002678,0.000431,0.058176
125113000,0.0324,0.013523,0.002678,0.000431,0.043485
125114000,0.0324,0.013523,0.002678,0.000431,0.037021
125115000,0.0324,0.013523,0.002678,0.000431,0.031733
125116000,0.0324,0.013523,0.002678,0.000431,0.032673
125117000,0.0324,0.013523,0.002678,0.000431,0.023623
125118000,0.0324,0.013523,0.002678,0.000431,0.033025
125119000,0.0324,0.013523,0.002678,0.000431,0.021038
125120000,0.0324,0.013523,0.002678,0.000431,0.023271
125121000,0.0324,0.013523,0.002678,0.000431,0.018217
125122000,0.0324,0.013523,0.002678,0.000431,0.015161
125123000,0.0324,0.013523,0.002678,0.000431,0.014338
125124000,0.0324,0.013523,0.002678,0.000431,0.012693
125125000,0.0324,0.013523,0.002678,0.000431,0.016336
125126000,0.0324,0.013523,0.002678,0.000431,0.012693
125127000,0.0324,0.013523,0.002678,0.000431,0.012105
125128000,0.0324,0.013523,0.002678,0.000431,0.011753
125129000,0.0324,0.013523,0.002678,0.000431,0.017747
125130000,0.0324,0.013523,0.002678,0.000431,0.015749
125131000,0.0324,0.013523,0.002678,0.000431,0.008462
125132000,0.0324,0.013523,0.002678,0.000431,0.010813
125133000,0.0324,0.013523,0.002678,0.000431,0.008109
125134000,0.0324,0.013523,0.002678,0.000431,0.007639
125135000,0.0324,0.013523,0.002678,0.000431,0.007287
125136000,0.0324,0.013523,0.002678,0.000431,0.007639
125137000,0.0324,0.013523,0.002678,0.000431,0.007287
125138000,0.0324,0.013523,0.002678,0.000431,0.008697
125139000,0.0324,0.013523,0.002678,0.000431,0.007522
125140000,0.0324,0.013523,0.002678,0.000431,0.008462
125141000,0.0324,0.013523,0.002678,0.000431,0.005406
125142000,0.0324,0.013523,0.002678,0.000431,0.005994
125143000,0.0324,0.013523,0.002678,0.000431,0.004936
125144000,0.0324,0.013523,0.002678,0.000431,0.005759
125145000,0.0324,0.013523,0.002678,0.000431,0.005876
125146000,0.0324,0.013523,0.002678,0.000431,0.005641
125147000,0.0324,0.013523,0.002678,0.000431,0.007169
125148000,0.0324,0.013523,0.002678,0.000431,0.005759
125149000,0.0324,0.013523,0.002678,0.000431,0.004231
125150000,0.0324,0.013523,0.002678,0.000431,0.004349
125151000,0.0324,0.013523,0.002678,0.000431,0.004231
125152000,0.0324,0.013523,0.002678,0.000431,0.003996
125153000,0.0324,0.013523,0.002678,0.000431,0.004349
125154000,0.0324,0.013523,0.002678,0.000431,0.005759
125155000,0.0324,0.013523,0.002678,0.000431,0.005289
125156000,0.0324,0.013523,0.002678,0.000431,0.003526
125157000,0.0324,0.013523,0.002678,0.000431,0.003291
125158000,0.0324,0.013523,0.002678,0.000431,0.003408
125159000,0.0324,0.013523,0.002678,0.000431,0.003408
125160000,0.0324,0.013523,0.002678,0.000431,0.003408
125161000,0.0324,0.013523,0.002678,0.000431,0.004231
125162000,0.0324,0.013523,0.002678,0.000431,0.002468
125163000,0.0324,0.013523,0.002678,0.000431,0.005289
125164000,0.0324,0.013523,0.002678,0.000431,0.001763
125165000,0.0324,0.013523,0.002678,0.000431,0.001763
125166000,0.0324,0.013523,0.002678,0.000431,0.001763
125167000,0.0324,0.013523,0.002678,0.000431,0.001763
125168000,0.0324,0.013523,0.002678,0.000431,0.001528
125169000,0.0324,0.013523,0.002678,0.000431,0.001880
125170000,0.0324,0.013523,0.002678,0.000431,0.001763
125171000,0.0324,0.013523,0.002678,0.000431,0.001645
125172000,0.0324,0.013523,0.002678,0.000431,0.001528
125173000,0.0324,0.013523,0.002678,0.000431,0.001880
125174000,0.0324,0.013523,0.002678,0.000431,0.004113
125175000,0.0324,0.013523,0.002678,0.000431,0.000705
125176000,0.0324,0.013523,0.002678,0.000431,0.000705
125177000,0.0324,0.013523,0.002678,0.000431,0.271020
125178000,0.0324,0.013523,0.002678,0.000431,0.835743
125179000,0.0324,0.013523,0.002678,0.000431,0.490328
125180000,0.0324,0.013523,0.002678,0.000431,0.187222
125181000,0.0324,0.013523,0.002678,0.000431,0.359989
125182000,0.0324,0.013523,0.002678,0.000431,0.509955
125183000,0.0324,0.013523,0.002678,0.000431,0.290295
125184000,0.0324,0.013523,0.002678,0.000431,0.278542
125185000,0.0324,0.013523,0.002678,0.000431,0.160308
125186000,0.0324,0.013523,0.002678,0.000431,0.103072
125187000,0.0324,0.013523,0.002678,0.000431,0.507957
125188000,0.0324,0.013523,0.002678,0.000431,0.383612
125189000,0.0324,0.013523,0.002678,0.000431,0.269610
125190000,0.0324,0.013523,0.002678,0.000431,0.229650
125191000,0.0324,0.013523,0.002678,0.000431,0.199445
125192000,0.0324,0.013523,0.002678,0.000431,0.170768
125193000,0.0324,0.013523,0.002678,0.000431,0.144442
125194000,0.0324,0.013523,0.002678,0.000431,0.117646
125195000,0.0324,0.013523,0.002678,0.000431,0.096256
125196000,0.0324,0.013523,0.002678,0.000431,0.074748
125197000,0.0324,0.013523,0.002678,0.000431,0.057941
125198000,0.0324,0.013523,0.002678,0.000431,0.045954
125199000,0.0324,0.013523,0.002678,0.000431,0.055238
125200000,0.0324,0.013523,0.002678,0.000431,0.035611
125201000,0.0324,0.013523,0.002678,0.000431,0.035023
125202000,0.0324,0.013523,0.002678,0.000431,0.034083
125203000,0.0324,0.013523,0.002678,0.000431,0.013516
125204000,0.0324,0.013523,0.002678,0.000431,0.014573
125205000,0.0324,0.013523,0.002678,0.000431,0.012928
125206000,0.0324,0.013523,0.002678,0.000431,0.010342
125207000,0.0324,0.013523,0.002678,0.000431,0.010930
125208000,0.0324,0.013523,0.002678,0.000431,0.002468
125209000,0.0324,0.013523,0.002678,0.000431,0.005054
125210000,0.0324,0.013523,0.002678,0.000431,0.001645
125211000,0.0324,0.013523,0.002678,0.000431,0.001528
125212000,0.0324,0.013523,0.002678,0.000431,0.001645
125213000,0.0324,0.013523,0.002678,0.000431,0.001880
125214000,0.0324,0.013523,0.002678,0.000431,0.001528
125215000,0.0324,0.013523,0.002678,0.000431,0.001645
125216000,0.0324,0.013523,0.002678,0.000431,0.001645
125217000,0.0324,0.013523,0.002678,0.000431,0.001528
125218000,0.0324,0.013523,0.002678,0.000431,0.001763
125219000,0.0324,0.013523,0.002678,0.000431,0.001645
125220000,0.0324,0.013523,0.002678,0.000431,0.001645
125221000,0.0324,0.013523,0.002678,0.000431,0.001880
125222000,0.0324,0.013523,0.002678,0.000431,0.001410
125223000,0.0324,0.013523,0.002678,0.000431,0.001880
125224000,0.0324,0.013523,0.002678,0.000431,0.001410
125225000,0.0324,0.013523,0.002678,0.000431,0.001880
125226000,0.0324,0.013523,0.002678,0.000431,0.001410
125227000,0.0324,0.013523,0.002678,0.000431,0.001880
125228000,0.0324,0.013523,0.002678,0.000431,0.001645
125229000,0.0324,0.013523,0.002678,0.000431,0.001645
125230000,0.0324,0.013523,0.002678,0.000431,0.001645
125231000,0.0324,0.013523,0.002678,0.000431,0.001528
125232000,0.0324,0.013523,0.002678,0.000431,0.001763
125233000,0.0324,0.013523,0.002678,0.000431,0.001645
125234000,0.0324,0.013523,0.002678,0.000431,0.001645
125235000,0.0324,0.013523,0.002678,0.000431,0.001528
125236000,0.0324,0.013523,0.002678,0.000431,0.001763
125237000,0.0324,0.013523,0.002678,0.000431,0.001880
125238000,0.0324,0.013523,0.002678,0.000431,0.001410
125239000,0.0324,0.013523,0.002678,0.000431,0.001880
125240000,0.0324,0.013523,0.002678,0.000431,0.002821
125241000,0.0324,0.013523,0.002678,0.000431,0.002468
125242000,0.0324,0.013523,0.002678,0.000431,0.000823
125243000,0.0324,0.013523,0.002678,0.000431,0.000823
125244000,0.0324,0.013523,0.002678,0.000431,0.000823
125245000,0.0324,0.013523,0.002678,0.000431,0.000823
125246000,0.0324,0.013523,0.002678,0.000431,0.000823
125247000,0.0324,0.013523,0.002678,0.000431,0.000823
125248000,0.0324,0.013523,0.002678,0.000431,0.000940
125249000,0.0324,0.013523,0.002678,0.000431,0.000823
125250000,0.0324,0.013523,0.002678,0.000431,0.073573
125251000,0.0324,0.013523,0.002678,0.000431,0.855488
125252000,0.0324,0.013523,0.002678,0.000431,0.559904
125253000,0.0324,0.013523,0.002678,0.000431,0.174999
125254000,0.0324,0.013523,0.002678,0.000431,0.228122
125255000,0.0324,0.013523,0.002678,0.000431,0.579649
125256000,0.0324,0.013523,0.002678,0.000431,0.321675
125257000,0.0324,0.013523,0.002678,0.000431,0.272195
125258000,0.0324,0.013523,0.002678,0.000431,0.150554
125259000,0.0324,0.013523,0.002678,0.000431,0.147733
125260000,0.0324,0.013523,0.002678,0.000431,0.216957
125261000,0.0324,0.013523,0.002678,0.000431,0.589756
125262000,0.0324,0.013523,0.002678,0.000431,0.318971
125263000,0.0324,0.013523,0.002678,0.000431,0.263381
125264000,0.0324,0.013523,0.002678,0.000431,0.211316
125265000,0.0324,0.013523,0.002678,0.000431,0.201326
125266000,0.0324,0.013523,0.002678,0.000431,0.163599
125267000,0.0324,0.013523,0.002678,0.000431,0.150319
125268000,0.0324,0.013523,0.002678,0.000431,0.128341
125269000,0.0324,0.013523,0.002678,0.000431,0.145030
125270000,0.0324,0.013523,0.002678,0.000431,0.100604
125271000,0.0324,0.013523,0.002678,0.000431,0.089674
125272000,0.0324,0.013523,0.002678,0.000431,0.066051
125273000,0.0324,0.013523,0.002678,0.000431,0.056414
125274000,0.0324,0.013523,0.002678,0.000431,0.041958
125275000,0.0324,0.013523,0.002678,0.000431,0.036551
125276000,0.0324,0.013523,0.002678,0.000431,0.033848
125277000,0.0324,0.013523,0.002678,0.000431,0.035964
125278000,0.0324,0.013523,0.002678,0.000431,0.030205
125279000,0.0324,0.013523,0.002678,0.000431,0.017512
125280000,0.0324,0.013523,0.002678,0.000431,0.018569
125281000,0.0324,0.013523,0.002678,0.000431,0.016336
125282000,0.0324,0.013523,0.002678,0.000431,0.022213
125283000,0.0324,0.013523,0.002678,0.000431,0.013516
125284000,0.0324,0.013523,0.002678,0.000431,0.015514
125285000,0.0324,0.013523,0.002678,0.000431,0.015044
125286000,0.0324,0.013523,0.002678,0.000431,0.007992
125287000,0.0324,0.013523,0.002678,0.000431,0.011400
125288000,0.0324,0.013523,0.002678,0.000431,0.009990
125289000,0.0324,0.013523,0.002678,0.000431,0.007757
125290000,0.0324,0.013523,0.002678,0.000431,0.006347
125291000,0.0324,0.013523,0.002678,0.000431,0.005406
125292000,0.0324,0.013523,0.002678,0.000431,0.006464
125293000,0.0324,0.013523,0.002678,0.000431,0.016101
125294000,0.0324,0.013523,0.002678,0.000431,0.003173
125295000,0.0324,0.013523,0.002678,0.000431,0.003408
125296000,0.0324,0.013523,0.002678,0.000431,0.007287
125297000,0.0324,0.013523,0.002678,0.000431,0.002586
125298000,0.0324,0.013523,0.002678,0.000431,0.002703
125299000,0.0324,0.013523,0.002678,0.000431,0.002351
125300000,0.0324,0.013523,0.002678,0.000431,0.002703
125301000,0.0324,0.013523,0.002678,0.000431,0.002351
125302000,0.0324,0.013523,0.002678,0.000431,0.002703
125303000,0.0324,0.013523,0.002678,0.000431,0.002468
125304000,0.0324,0.013523,0.002678,0.000431,0.002586
125305000,0.0324,0.013523,0.002678,0.000431,0.002468
125306000,0.0324,0.013523,0.002678,0.000431,0.004231
125307000,0.0324,0.013523,0.002678,0.000431,0.004936
125308000,0.0324,0.013523,0.002678,0.000431,0.002703
125309000,0.0324,0.013523,0.002678,0.000431,0.000705
125310000,0.0324,0.013523,0.002678,0.000431,0.000940
125311000,0.0324,0.013523,0.002678,0.000431,0.000823
125312000,0.0324,0.013523,0.002678,0.000431,0.000823
125313000,0.0324,0.013523,0.002678,0.000431,0.000940
125314000,0.0324,0.013523,0.002678,0.000431,0.004701
125315000,0.0324,0.013523,0.002678,0.000431,0.615378
125316000,0.0324,0.013523,0.002678,0.000431,0.756881
125317000,0.0324,0.013523,0.002678,0.000431,0.248807
125318000,0.0324,0.013523,0.002678,0.000431,0.136568
125319000,0.0324,0.013523,0.002678,0.000431,0.566838
125320000,0.0324,0.013523,0.002678,0.000431,0.284301
125321000,0.0324,0.013523,0.002678,0.000431,0.277367
125322000,0.0324,0.013523,0.002678,0.000431,0.262323
125323000,0.0324,0.013523,0.002678,0.000431,0.154785
125324000,0.0324,0.013523,0.002678,0.000431,0.110359
125325000,0.0324,0.013523,0.002678,0.000431,0.435089
125326000,0.0324,0.013523,0.002678,0.000431,0.492796
125327000,0.0324,0.013523,0.002678,0.000431,0.269727
125328000,0.0324,0.013523,0.002678,0.000431,0.241403
125329000,0.0324,0.013523,0.002678,0.000431,0.206379
125330000,0.0324,0.013523,0.002678,0.000431,0.153962
125331000,0.0324,0.013523,0.002678,0.000431,0.149848
125332000,0.0324,0.013523,0.002678,0.000431,0.127401
125333000,0.0324,0.013523,0.002678,0.000431,0.114590
125334000,0.0324,0.013523,0.002678,0.000431,0.088616
125335000,0.0324,0.013523,0.002678,0.000431,0.088264
125336000,0.0324,0.013523,0.002678,0.000431,0.044661
125337000,0.0324,0.013523,0.002678,0.000431,0.043603
125338000,0.0324,0.013523,0.002678,0.000431,0.043015
125339000,0.0324,0.013523,0.002678,0.000431,0.035964
125340000,0.0324,0.013523,0.002678,0.000431,0.029265
125341000,0.0324,0.013523,0.002678,0.000431,0.021273
125342000,0.0324,0.013523,0.002678,0.000431,0.016454
125343000,0.0324,0.013523,0.002678,0.000431,0.022565
125344000,0.0324,0.013523,0.002678,0.000431,0.014338
125345000,0.0324,0.013523,0.002678,0.000431,0.014338
125346000,0.0324,0.013523,0.002678,0.000431,0.012693
125347000,0.0324,0.013523,0.002678,0.000431,0.011753
125348000,0.0324,0.013523,0.002678,0.000431,0.009990
125349000,0.0324,0.013523,0.002678,0.000431,0.010930
125350000,0.0324,0.013523,0.002678,0.000431,0.014221
125351000,0.0324,0.013523,0.002678,0.000431,0.012223
125352000,0.0324,0.013523,0.002678,0.000431,0.003996
125353000,0.0324,0.013523,0.002678,0.000431,0.003408
125354000,0.0324,0.013523,0.002678,0.000431,0.006347
125355000,0.0324,0.013523,0.002678,0.000431,0.002821
125356000,0.0324,0.013523,0.002678,0.000431,0.002821
125357000,0.0324,0.013523,0.002678,0.000431,0.003408
125358000,0.0324,0.013523,0.002678,0.000431,0.002821
125359000,0.0324,0.013523,0.002678,0.000431,0.003761
125360000,0.0324,0.013523,0.002678,0.000431,0.003408
125361000,0.0324,0.013523,0.002678,0.000431,0.001763
125362000,0.0324,0.013523,0.002678,0.000431,0.001998
125363000,0.0324,0.013523,0.002678,0.000431,0.002116
125364000,0.0324,0.013523,0.002678,0.000431,0.001880
125365000,0.0324,0.013523,0.002678,0.000431,0.002116
125366000,0.0324,0.013523,0.002678,0.000431,0.002233
125367000,0.0324,0.013523,0.002678,0.000431,0.001998
125368000,0.0324,0.013523,0.002678,0.000431,0.003761
125369000,0.0324,0.013523,0.002678,0.000431,0.002821
125370000,0.0324,0.013523,0.002678,0.000431,0.000823
125371000,0.0324,0.013523,0.002678,0.000431,0.000823
125372000,0.0324,0.013523,0.002678,0.000431,0.000823
125373000,0.0324,0.013523,0.002678,0.000431,0.000940
125374000,0.0324,0.013523,0.002678,0.000431,0.000705
125375000,0.0324,0.013523,0.002678,0.000431,0.000705
125376000,0.0324,0.013523,0.002678,0.000431,0.000940
125377000,0.0324,0.013523,0.002678,0.000431,0.000940
125378000,0.0324,0.013523,0.002678,0.000431,0.000705
125379000,0.0324,0.013523,0.002678,0.000431,0.000940
125380000,0.0324,0.013523,0.002678,0.000431,0.000705
125381000,0.0324,0.013523,0.002678,0.000431,0.000940
125382000,0.0324,0.013523,0.002678,0.000431,0.000823
125383000,0.0324,0.013523,0.002678,0.000431,0.013751
125384000,0.0324,0.013523,0.002678,0.000431,0.774981
125385000,0.0324,0.013523,0.002678,0.000431,0.627013
125386000,0.0324,0.013523,0.002678,0.000431,0.262793
125387000,0.0324,0.013523,0.002678,0.000431,0.169476
125388000,0.0324,0.013523,0.002678,0.000431,0.581412
125389000,0.0324,0.013523,0.002678,0.000431,0.275839
125390000,0.0324,0.013523,0.002678,0.000431,0.330137
125391000,0.0324,0.013523,0.002678,0.000431,0.152669
125392000,0.0324,0.013523,0.002678,0.000431,0.182874
125393000,0.0324,0.013523,0.002678,0.000431,0.127871
125394000,0.0324,0.013523,0.002678,0.000431,0.595633
125395000,0.0324,0.013523,0.002678,0.000431,0.388783
125396000,0.0324,0.013523,0.002678,0.000431,0.265379
125397000,0.0324,0.013523,0.002678,0.000431,0.252333
125398000,0.0324,0.013523,0.002678,0.000431,0.211316
125399000,0.0324,0.013523,0.002678,0.000431,0.171356
125400000,0.0324,0.013523,0.002678,0.000431,0.139859
125401000,0.0324,0.013523,0.002678,0.000431,0.108596
125402000,0.0324,0.013523,0.002678,0.000431,0.096608
125403000,0.0324,0.013523,0.002678,0.000431,0.081800
125404000,0.0324,0.013523,0.002678,0.000431,0.070987
125405000,0.0324,0.013523,0.002678,0.000431,0.058764
125406000,0.0324,0.013523,0.002678,0.000431,0.050185
125407000,0.0324,0.013523,0.002678,0.000431,0.037727
125408000,0.0324,0.013523,0.002678,0.000431,0.046894
125409000,0.0324,0.013523,0.002678,0.000431,0.029852
125410000,0.0324,0.013523,0.002678,0.000431,0.021038
125411000,0.0324,0.013523,0.002678,0.000431,0.022918
125412000,0.0324,0.013523,0.002678,0.000431,0.019627
125413000,0.0324,0.013523,0.002678,0.000431,0.013046
125414000,0.0324,0.013523,0.002678,0.000431,0.013163
125415000,0.0324,0.013523,0.002678,0.000431,0.014573
125416000,0.0324,0.013523,0.002678,0.000431,0.012105
125417000,0.0324,0.013523,0.002678,0.000431,0.011283
125418000,0.0324,0.013523,0.002678,0.000431,0.016571
125419000,0.0324,0.013523,0.002678,0.000431,0.009402
125420000,0.0324,0.013523,0.002678,0.000431,0.004936
125421000,0.0324,0.013523,0.002678,0.000431,0.006464
125422000,0.0324,0.013523,0.002678,0.000431,0.008815
125423000,0.0324,0.013523,0.002678,0.000431,0.002233
125424000,0.0324,0.013523,0.002678,0.000431,0.002586
125425000,0.0324,0.013523,0.002678,0.000431,0.004819
125426000,0.0324,0.013523,0.002678,0.000431,0.001410
125427000,0.0324,0.013523,0.002678,0.000431,0.001410
125428000,0.0324,0.013523,0.002678,0.000431,0.001410
125429000,0.0324,0.013523,0.002678,0.000431,0.001645
125430000,0.0324,0.013523,0.002678,0.000431,0.001528
125431000,0.0324,0.013523,0.002678,0.000431,0.001058
125432000,0.0324,0.013523,0.002678,0.000431,0.001645
125433000,0.0324,0.013523,0.002678,0.000431,0.001175
125434000,0.0324,0.013523,0.002678,0.000431,0.001880
125435000,0.0324,0.013523,0.002678,0.000431,0.165480
125436000,0.0324,0.013523,0.002678,0.000431,0.873940
125437000,0.0324,0.013523,0.002678,0.000431,0.521355
125438000,0.0324,0.013523,0.002678,0.000431,0.194274
125439000,0.0324,0.013523,0.002678,0.000431,0.346473
125440000,0.0324,0.013523,0.002678,0.000431,0.513011
125441000,0.0324,0.013523,0.002678,0.000431,0.320852
125442000,0.0324,0.013523,0.002678,0.000431,0.287591
125443000,0.0324,0.013523,0.002678,0.000431,0.160191
125444000,0.0324,0.013523,0.002678,0.000431,0.099429
125445000,0.0324,0.013523,0.002678,0.000431,0.534401
125446000,0.0324,0.013523,0.002678,0.000431,0.413112
125447000,0.0324,0.013523,0.002678,0.000431,0.285829
125448000,0.0324,0.013523,0.002678,0.000431,0.245986
125449000,0.0324,0.013523,0.002678,0.000431,0.198740
125450000,0.0324,0.013523,0.002678,0.000431,0.169241
125451000,0.0324,0.013523,0.002678,0.000431,0.142092
125452000,0.0324,0.013523,0.002678,0.000431,0.121524
125453000,0.0324,0.013523,0.002678,0.000431,0.097196
125454000,0.0324,0.013523,0.002678,0.000431,0.091319
125455000,0.0324,0.013523,0.002678,0.000431,0.073690
125456000,0.0324,0.013523,0.002678,0.000431,0.065698
125457000,0.0324,0.013523,0.002678,0.000431,0.043603
125458000,0.0324,0.013523,0.002678,0.000431,0.039489
125459000,0.0324,0.013523,0.002678,0.000431,0.037962
125460000,0.0324,0.013523,0.002678,0.000431,0.030910
125461000,0.0324,0.013523,0.002678,0.000431,0.019392
125462000,0.0324,0.013523,0.002678,0.000431,0.023271
125463000,0.0324,0.013523,0.002678,0.000431,0.022565
125464000,0.0324,0.013523,0.002678,0.000431,0.024446
125465000,0.0324,0.013523,0.002678,0.000431,0.013868
125466000,0.0324,0.013523,0.002678,0.000431,0.014573
125467000,0.0324,0.013523,0.002678,0.000431,0.011165
125468000,0.0324,0.013523,0.002678,0.000431,0.007992
125469000,0.0324,0.013523,0.002678,0.000431,0.010578
125470000,0.0324,0.013523,0.002678,0.000431,0.005406
125471000,0.0324,0.013523,0.002678,0.000431,0.006699
125472000,0.0324,0.013523,0.002678,0.000431,0.004466
125473000,0.0324,0.013523,0.002678,0.000431,0.007874
125474000,0.0324,0.013523,0.002678,0.000431,0.005171
125475000,0.0324,0.013523,0.002678,0.000431,0.009520
125476000,0.0324,0.013523,0.002678,0.000431,0.189338
125477000,0.0324,0.013523,0.002678,0.000431,0.851492
125478000,0.0324,0.013523,0.002678,0.000431,0.514891
125479000,0.0324,0.013523,0.002678,0.000431,0.211786
125480000,0.0324,0.013523,0.002678,0.000431,0.326846
125481000,0.0324,0.013523,0.002678,0.000431,0.512305
125482000,0.0324,0.013523,0.002678,0.000431,0.299814
125483000,0.0324,0.013523,0.002678,0.000431,0.282655
125484000,0.0324,0.013523,0.002678,0.000431,0.171826
125485000,0.0324,0.013523,0.002678,0.000431,0.100369
125486000,0.0324,0.013523,0.002678,0.000431,0.517124
125487000,0.0324,0.013523,0.002678,0.000431,0.433679
125488000,0.0324,0.013523,0.002678,0.000431,0.267847
125489000,0.0324,0.013523,0.002678,0.000431,0.225066
125490000,0.0324,0.013523,0.002678,0.000431,0.208965
125491000,0.0324,0.013523,0.002678,0.000431,0.170533
125492000,0.0324,0.013523,0.002678,0.000431,0.161014
125493000,0.0324,0.013523,0.002678,0.000431,0.119644
125494000,0.0324,0.013523,0.002678,0.000431,0.097548
125495000,0.0324,0.013523,0.002678,0.000431,0.072045
125496000,0.0324,0.013523,0.002678,0.000431,0.061467
125497000,0.0324,0.013523,0.002678,0.000431,0.039019
125498000,0.0324,0.013523,0.002678,0.000431,0.049479
125499000,0.0324,0.013523,0.002678,0.000431,0.036551
125500000,0.0324,0.013523,0.002678,0.000431,0.027854
125501000,0.0324,0.013523,0.002678,0.000431,0.017512
125502000,0.0324,0.013523,0.002678,0.000431,0.022330
125503000,0.0324,0.013523,0.002678,0.000431,0.014338
125504000,0.0324,0.013523,0.002678,0.000431,0.010578
125505000,0.0324,0.013523,0.002678,0.000431,0.008109
125506000,0.0324,0.013523,0.002678,0.000431,0.009637
125507000,0.0324,0.013523,0.002678,0.000431,0.013398
125508000,0.0324,0.013523,0.002678,0.000431,0.005641
125509000,0.0324,0.013523,0.002678,0.000431,0.003408
125510000,0.0324,0.013523,0.002678,0.000431,0.003408
125511000,0.0324,0.013523,0.002678,0.000431,0.006229
125512000,0.0324,0.013523,0.002678,0.000431,0.002351
125513000,0.0324,0.013523,0.002678,0.000431,0.002703
125514000,0.0324,0.013523,0.002678,0.000431,0.002233
125515000,0.0324,0.013523,0.002678,0.000431,0.002586
125516000,0.0324,0.013523,0.002678,0.000431,0.002351
125517000,0.0324,0.013523,0.002678,0.000431,0.002468
125518000,0.0324,0.013523,0.002678,0.000431,0.002468
125519000,0.0324,0.013523,0.002678,0.000431,0.006582
125520000,0.0324,0.013523,0.002678,0.000431,0.004936
125521000,0.0324,0.013523,0.002678,0.000431,0.000705
125522000,0.0324,0.013523,0.002678,0.000431,0.274193
125523000,0.0324,0.013523,0.002678,0.000431,0.819171
125524000,0.0324,0.013523,0.002678,0.000431,0.512070
125525000,0.0324,0.013523,0.002678,0.000431,0.142797
125526000,0.0324,0.013523,0.002678,0.000431,0.321322
125527000,0.0324,0.013523,0.002678,0.000431,0.472816
125528000,0.0324,0.013523,0.002678,0.000431,0.300637
125529000,0.0324,0.013523,0.002678,0.000431,0.288649
125530000,0.0324,0.013523,0.002678,0.000431,0.161366
125531000,0.0324,0.013523,0.002678,0.000431,0.103425
125532000,0.0324,0.013523,0.002678,0.000431,0.418048
125533000,0.0324,0.013523,0.002678,0.000431,0.567073
125534000,0.0324,0.013523,0.002678,0.000431,0.314153
125535000,0.0324,0.013523,0.002678,0.000431,0.245164
125536000,0.0324,0.013523,0.002678,0.000431,0.208260
125537000,0.0324,0.013523,0.002678,0.000431,0.163012
125538000,0.0324,0.013523,0.002678,0.000431,0.123757
125539000,0.0324,0.013523,0.002678,0.000431,0.118233
125540000,0.0324,0.013523,0.002678,0.000431,0.073925
125541000,0.0324,0.013523,0.002678,0.000431,0.083798
125542000,0.0324,0.013523,0.002678,0.000431,0.060292
125543000,0.0324,0.013523,0.002678,0.000431,0.052888
125544000,0.0324,0.013523,0.002678,0.000431,0.039842
125545000,0.0324,0.013523,0.002678,0.000431,0.045366
125546000,0.0324,0.013523,0.002678,0.000431,0.040195
125547000,0.0324,0.013523,0.002678,0.000431,0.019862
125548000,0.0324,0.013523,0.002678,0.000431,0.021978
125549000,0.0324,0.013523,0.002678,0.000431,0.015866
125550000,0.0324,0.013523,0.002678,0.000431,0.010342
125551000,0.0324,0.013523,0.002678,0.000431,0.010107
125552000,0.0324,0.013523,0.002678,0.000431,0.009990
125553000,0.0324,0.013523,0.002678,0.000431,0.010342
125554000,0.0324,0.013523,0.002678,0.000431,0.013163
125555000,0.0324,0.013523,0.002678,0.000431,0.016219
125556000,0.0324,0.013523,0.002678,0.000431,0.014809
125557000,0.0324,0.013523,0.002678,0.000431,0.006229
125558000,0.0324,0.013523,0.002678,0.000431,0.006934
125559000,0.0324,0.013523,0.002678,0.000431,0.006229
125560000,0.0324,0.013523,0.002678,0.000431,0.004349
125561000,0.0324,0.013523,0.002678,0.000431,0.009990
125562000,0.0324,0.013523,0.002678,0.000431,0.002703
125563000,0.0324,0.013523,0.002678,0.000431,0.003878
125564000,0.0324,0.013523,0.002678,0.000431,0.003291
125565000,0.0324,0.013523,0.002678,0.000431,0.003408
125566000,0.0324,0.013523,0.002678,0.000431,0.004231
125567000,0.0324,0.013523,0.002678,0.000431,0.388783
125568000,0.0324,0.013523,0.002678,0.000431,0.901324
125569000,0.0324,0.013523,0.002678,0.000431,0.407705
125570000,0.0324,0.013523,0.002678,0.000431,0.152669
125571000,0.0324,0.013523,0.002678,0.000431,0.397833
125572000,0.0324,0.013523,0.002678,0.000431,0.448252
125573000,0.0324,0.013523,0.002678,0.000431,0.322497
125574000,0.0324,0.013523,0.002678,0.000431,0.276191
125575000,0.0324,0.013523,0.002678,0.000431,0.171004
125576000,0.0324,0.013523,0.002678,0.000431,0.099546
125577000,0.0324,0.013523,0.002678,0.000431,0.558141
125578000,0.0324,0.013523,0.002678,0.000431,0.409351
125579000,0.0324,0.013523,0.002678,0.000431,0.288767
125580000,0.0324,0.013523,0.002678,0.000431,0.248102
125581000,0.0324,0.013523,0.002678,0.000431,0.211668
125582000,0.0324,0.013523,0.002678,0.000431,0.180053
125583000,0.0324,0.013523,0.002678,0.000431,0.169241
125584000,0.0324,0.013523,0.002678,0.000431,0.146675
125585000,0.0324,0.013523,0.002678,0.000431,0.099781
125586000,0.0324,0.013523,0.002678,0.000431,0.095433
125587000,0.0324,0.013523,0.002678,0.000431,0.086853
125588000,0.0324,0.013523,0.002678,0.000431,0.068401
125589000,0.0324,0.013523,0.002678,0.000431,0.069929
125590000,0.0324,0.013523,0.002678,0.000431,0.054298
125591000,0.0324,0.013523,0.002678,0.000431,0.044073
125592000,0.0324,0.013523,0.002678,0.000431,0.048892
125593000,0.0324,0.013523,0.002678,0.000431,0.034318
125594000,0.0324,0.013523,0.002678,0.000431,0.035258
125595000,0.0324,0.013523,0.002678,0.000431,0.037374
125596000,0.0324,0.013523,0.002678,0.000431,0.030087
125597000,0.0324,0.013523,0.002678,0.000431,0.029617
125598000,0.0324,0.013523,0.002678,0.000431,0.019275
125599000,0.0324,0.013523,0.002678,0.000431,0.018687
125600000,0.0324,0.013523,0.002678,0.000431,0.020332
125601000,0.0324,0.013523,0.002678,0.000431,0.011988
125602000,0.0324,0.013523,0.002678,0.000431,0.012458
125603000,0.0324,0.013523,0.002678,0.000431,0.011400
125604000,0.0324,0.013523,0.002678,0.000431,0.007639
125605000,0.0324,0.013523,0.002678,0.000431,0.004231
125606000,0.0324,0.013523,0.002678,0.000431,0.004584
125607000,0.0324,0.013523,0.002678,0.000431,0.004349
125608000,0.0324,0.013523,0.002678,0.000431,0.004466
125609000,0.0324,0.013523,0.002678,0.000431,0.004349
125610000,0.0324,0.013523,0.002678,0.000431,0.008345
125611000,0.0324,0.013523,0.002678,0.000431,0.006817
125612000,0.0324,0.013523,0.002678,0.000431,0.002468
125613000,0.0324,0.013523,0.002678,0.000431,0.002586
125614000,0.0324,0.013523,0.002678,0.000431,0.002586
125615000,0.0324,0.013523,0.002678,0.000431,0.002703
125616000,0.0324,0.013523,0.002678,0.000431,0.002233
125617000,0.0324,0.013523,0.002678,0.000431,0.002821
125618000,0.0324,0.013523,0.002678,0.000431,0.002351
125619000,0.0324,0.013523,0.002678,0.000431,0.002703
125620000,0.0324,0.013523,0.002678,0.000431,0.002703
125621000,0.0324,0.013523,0.002678,0.000431,0.002703
125622000,0.0324,0.013523,0.002678,0.000431,0.006347
125623000,0.0324,0.013523,0.002678,0.000431,0.003878
125624000,0.0324,0.013523,0.002678,0.000431,0.003643
125625000,0.0324,0.013523,0.002678,0.000431,0.003878
125626000,0.0324,0.013523,0.002678,0.000431,0.004231
125627000,0.0324,0.013523,0.002678,0.000431,0.002938
125628000,0.0324,0.013523,0.002678,0.000431,0.002703
125629000,0.0324,0.013523,0.002678,0.000431,0.601274
125630000,0.0324,0.013523,0.002678,0.000431,0.695414
125631000,0.0324,0.013523,0.002678,0.000431,0.360106
125632000,0.0324,0.013523,0.002678,0.000431,0.154785
125633000,0.0324,0.013523,0.002678,0.000431,0.586231
125634000,0.0324,0.013523,0.002678,0.000431,0.322262
125635000,0.0324,0.013523,0.002678,0.000431,0.315211
125636000,0.0324,0.013523,0.002678,0.000431,0.214489
125637000,0.0324,0.013523,0.002678,0.000431,0.172649
125638000,0.0324,0.013523,0.002678,0.000431,0.085561
125639000,0.0324,0.013523,0.002678,0.000431,0.567426
125640000,0.0324,0.013523,0.002678,0.000431,0.358461
125641000,0.0324,0.013523,0.002678,0.000431,0.258209
125642000,0.0324,0.013523,0.002678,0.000431,0.241873
125643000,0.0324,0.013523,0.002678,0.000431,0.199093
125644000,0.0324,0.013523,0.002678,0.000431,0.144912
125645000,0.0324,0.013523,0.002678,0.000431,0.143737
125646000,0.0324,0.013523,0.002678,0.000431,0.128576
125647000,0.0324,0.013523,0.002678,0.000431,0.094728
125648000,0.0324,0.013523,0.002678,0.000431,0.094728
125649000,0.0324,0.013523,0.002678,0.000431,0.085913
125650000,0.0324,0.013523,0.002678,0.000431,0.058647
125651000,0.0324,0.013523,0.002678,0.000431,0.043250
125652000,0.0324,0.013523,0.002678,0.000431,0.047364
125653000,0.0324,0.013523,0.002678,0.000431,0.032673
125654000,0.0324,0.013523,0.002678,0.000431,0.027149
125655000,0.0324,0.013523,0.002678,0.000431,0.031027
125656000,0.0324,0.013523,0.002678,0.000431,0.022095
125657000,0.0324,0.013523,0.002678,0.000431,0.027149
125658000,0.0324,0.013523,0.002678,0.000431,0.019510
125659000,0.0324,0.013523,0.002678,0.000431,0.020215
125660000,0.0324,0.013523,0.002678,0.000431,0.016571
125661000,0.0324,0.013523,0.002678,0.000431,0.009050
125662000,0.0324,0.013523,0.002678,0.000431,0.011518
125663000,0.0324,0.013523,0.002678,0.000431,0.009990
125664000,0.0324,0.013523,0.002678,0.000431,0.012576
125665000,0.0324,0.013523,0.002678,0.000431,0.005876
125666000,0.0324,0.013523,0.002678,0.000431,0.005994
125667000,0.0324,0.013523,0.002678,0.000431,0.005641
125668000,0.0324,0.013523,0.002678,0.000431,0.005876
125669000,0.0324,0.013523,0.002678,0.000431,0.007404
125670000,0.0324,0.013523,0.002678,0.000431,0.004819
125671000,0.0324,0.013523,0.002678,0.000431,0.005171
125672000,0.0324,0.013523,0.002678,0.000431,0.008227
125673000,0.0324,0.013523,0.002678,0.000431,0.004349
125674000,0.0324,0.013523,0.002678,0.000431,0.004113
125675000,0.0324,0.013523,0.002678,0.000431,0.003878
125676000,0.0324,0.013523,0.002678,0.000431,0.005171
125677000,0.0324,0.013523,0.002678,0.000431,0.004466
125678000,0.0324,0.013523,0.002678,0.000431,0.003173
125679000,0.0324,0.013523,0.002678,0.000431,0.003643
125680000,0.0324,0.013523,0.002678,0.000431,0.002821
125681000,0.0324,0.013523,0.002678,0.000431,0.003056
125682000,0.0324,0.013523,0.002678,0.000431,0.002586
125683000,0.0324,0.013523,0.002678,0.000431,0.004113
125684000,0.0324,0.013523,0.002678,0.000431,0.001410
125685000,0.0324,0.013523,0.002678,0.000431,0.004349
125686000,0.0324,0.013523,0.002678,0.000431,0.000823
125687000,0.0324,0.013523,0.002678,0.000431,0.000823
125688000,0.0324,0.013523,0.002678,0.000431,0.000823
125689000,0.0324,0.013523,0.002678,0.000431,0.001998
125690000,0.0324,0.013523,0.002678,0.000431,0.382672
125691000,0.0324,0.013523,0.002678,0.000431,0.796488
125692000,0.0324,0.013523,0.002678,0.000431,0.394660
125693000,0.0324,0.013523,0.002678,0.000431,0.182051
125694000,0.0324,0.013523,0.002678,0.000431,0.497144
125695000,0.0324,0.013523,0.002678,0.000431,0.366570
125696000,0.0324,0.013523,0.002678,0.000431,0.317209
125697000,0.0324,0.013523,0.002678,0.000431,0.237995
125698000,0.0324,0.013523,0.002678,0.000431,0.185224
125699000,0.0324,0.013523,0.002678,0.000431,0.094728
125700000,0.0324,0.013523,0.002678,0.000431,0.558024
125701000,0.0324,0.013523,0.002678,0.000431,0.400301
125702000,0.0324,0.013523,0.002678,0.000431,0.299579
125703000,0.0324,0.013523,0.002678,0.000431,0.250335
125704000,0.0324,0.013523,0.002678,0.000431,0.206497
125705000,0.0324,0.013523,0.002678,0.000431,0.185930
125706000,0.0324,0.013523,0.002678,0.000431,0.147733
125707000,0.0324,0.013523,0.002678,0.000431,0.126930
125708000,0.0324,0.013523,0.002678,0.000431,0.096843
125709000,0.0324,0.013523,0.002678,0.000431,0.102955
125710000,0.0324,0.013523,0.002678,0.000431,0.090732
125711000,0.0324,0.013523,0.002678,0.000431,0.071105
125712000,0.0324,0.013523,0.002678,0.000431,0.063113
125713000,0.0324,0.013523,0.002678,0.000431,0.059352
125714000,0.0324,0.013523,0.002678,0.000431,0.042428
125715000,0.0324,0.013523,0.002678,0.000431,0.039489
125716000,0.0324,0.013523,0.002678,0.000431,0.033966
125717000,0.0324,0.013523,0.002678,0.000431,0.029852
125718000,0.0324,0.013523,0.002678,0.000431,0.034436
125719000,0.0324,0.013523,0.002678,0.000431,0.018687
125720000,0.0324,0.013523,0.002678,0.000431,0.016924
125721000,0.0324,0.013523,0.002678,0.000431,0.017864
125722000,0.0324,0.013523,0.002678,0.000431,0.010930
125723000,0.0324,0.013523,0.002678,0.000431,0.010813
125724000,0.0324,0.013523,0.002678,0.000431,0.010578
125725000,0.0324,0.013523,0.002678,0.000431,0.014103
125726000,0.0324,0.013523,0.002678,0.000431,0.007287
125727000,0.0324,0.013523,0.002678,0.000431,0.009285
125728000,0.0324,0.013523,0.002678,0.000431,0.007404
125729000,0.0324,0.013523,0.002678,0.000431,0.006582
125730000,0.0324,0.013523,0.002678,0.000431,0.002821
125731000,0.0324,0.013523,0.002678,0.000431,0.004466
125732000,0.0324,0.013523,0.002678,0.000431,0.001763
125733000,0.0324,0.013523,0.002678,0.000431,0.001880
125734000,0.0324,0.013523,0.002678,0.000431,0.001410
125735000,0.0324,0.013523,0.002678,0.000431,0.001880
125736000,0.0324,0.013523,0.002678,0.000431,0.001528
125737000,0.0324,0.013523,0.002678,0.000431,0.001763
125738000,0.0324,0.013523,0.002678,0.000431,0.001763
125739000,0.0324,0.013523,0.002678,0.000431,0.001528
125740000,0.0324,0.013523,0.002678,0.000431,0.001763
125741000,0.0324,0.013523,0.002678,0.000431,0.001528
125742000,0.0324,0.013523,0.002678,0.000431,0.001880
125743000,0.0324,0.013523,0.002678,0.000431,0.001528
125744000,0.0324,0.013523,0.002678,0.000431,0.001528
125745000,0.0324,0.013523,0.002678,0.000431,0.001645
125746000,0.0324,0.013523,0.002678,0.000431,0.001880
125747000,0.0324,0.013523,0.002678,0.000431,0.001645
125748000,0.0324,0.013523,0.002678,0.000431,0.001880
125749000,0.0324,0.013523,0.002678,0.000431,0.001528
125750000,0.0324,0.013523,0.002678,0.000431,0.001880
125751000,0.0324,0.013523,0.002678,0.000431,0.001645
125752000,0.0324,0.013523,0.002678,0.000431,0.004701
125753000,0.0324,0.013523,0.002678,0.000431,0.000823
125754000,0.0324,0.013523,0.002678,0.000431,0.000823
125755000,0.0324,0.013523,0.002678,0.000431,0.000940
125756000,0.0324,0.013523,0.002678,0.000431,0.000705
125757000,0.0324,0.013523,0.002678,0.000431,0.000940
125758000,0.0324,0.013523,0.002678,0.000431,0.000705
125759000,0.0324,0.013523,0.002678,0.000431,0.000705
125760000,0.0324,0.013523,0.002678,0.000431,0.000940
125761000,0.0324,0.013523,0.002678,0.000431,0.003526
125762000,0.0324,0.013523,0.002678,0.000431,0.648521
125763000,0.0324,0.013523,0.002678,0.000431,0.712456
125764000,0.0324,0.013523,0.002678,0.000431,0.317326
125765000,0.0324,0.013523,0.002678,0.000431,0.199328
125766000,0.0324,0.013523,0.002678,0.000431,0.517124
125767000,0.0324,0.013523,0.002678,0.000431,0.312742
125768000,0.0324,0.013523,0.002678,0.000431,0.349411
125769000,0.0324,0.013523,0.002678,0.000431,0.213784
125770000,0.0324,0.013523,0.002678,0.000431,0.157135
125771000,0.0324,0.013523,0.002678,0.000431,0.182286
125772000,0.0324,0.013523,0.002678,0.000431,0.570247
125773000,0.0324,0.013523,0.002678,0.000431,0.333075
125774000,0.0324,0.013523,0.002678,0.000431,0.275956
125775000,0.0324,0.013523,0.002678,0.000431,0.226712
125776000,0.0324,0.013523,0.002678,0.000431,0.195214
125777000,0.0324,0.013523,0.002678,0.000431,0.155372
125778000,0.0324,0.013523,0.002678,0.000431,0.146675
125779000,0.0324,0.013523,0.002678,0.000431,0.133747
125780000,0.0324,0.013523,0.002678,0.000431,0.108949
125781000,0.0324,0.013523,0.002678,0.000431,0.074748
125782000,0.0324,0.013523,0.002678,0.000431,0.070634
125783000,0.0324,0.013523,0.002678,0.000431,0.048069
125784000,0.0324,0.013523,0.002678,0.000431,0.043133
125785000,0.0324,0.013523,0.002678,0.000431,0.040665
125786000,0.0324,0.013523,0.002678,0.000431,0.031733
125787000,0.0324,0.013523,0.002678,0.000431,0.024798
125788000,0.0324,0.013523,0.002678,0.000431,0.027267
125789000,0.0324,0.013523,0.002678,0.000431,0.022213
125790000,0.0324,0.013523,0.002678,0.000431,0.020215
125791000,0.0324,0.013523,0.002678,0.000431,0.017747
125792000,0.0324,0.013523,0.002678,0.000431,0.019510
125793000,0.0324,0.013523,0.002678,0.000431,0.009167
125794000,0.0324,0.013523,0.002678,0.000431,0.010813
125795000,0.0324,0.013523,0.002678,0.000431,0.007639
125796000,0.0324,0.013523,0.002678,0.000431,0.011165
125797000,0.0324,0.013523,0.002678,0.000431,0.006934
125798000,0.0324,0.013523,0.002678,0.000431,0.008109
125799000,0.0324,0.013523,0.002678,0.000431,0.009990
125800000,0.0324,0.013523,0.002678,0.000431,0.004584
125801000,0.0324,0.013523,0.002678,0.000431,0.005289
125802000,0.0324,0.013523,0.002678,0.000431,0.007992
125803000,0.0324,0.013523,0.002678,0.000431,0.004349
125804000,0.0324,0.013523,0.002678,0.000431,0.004349
125805000,0.0324,0.013523,0.002678,0.000431,0.004113
125806000,0.0324,0.013523,0.002678,0.000431,0.004349
125807000,0.0324,0.013523,0.002678,0.000431,0.003996
125808000,0.0324,0.013523,0.002678,0.000431,0.004936
125809000,0.0324,0.013523,0.002678,0.000431,0.004113
125810000,0.0324,0.013523,0.002678,0.000431,0.003408
125811000,0.0324,0.013523,0.002678,0.000431,0.003643
125812000,0.0324,0.013523,0.002678,0.000431,0.005524
125813000,0.0324,0.013523,0.002678,0.000431,0.002351
125814000,0.0324,0.013523,0.002678,0.000431,0.002703
125815000,0.0324,0.013523,0.002678,0.000431,0.002586
125816000,0.0324,0.013523,0.002678,0.000431,0.002821
125817000,0.0324,0.013523,0.002678,0.000431,0.002468
125818000,0.0324,0.013523,0.002678,0.000431,0.006347
125819000,0.0324,0.013523,0.002678,0.000431,0.001998
125820000,0.0324,0.013523,0.002678,0.000431,0.001645
125821000,0.0324,0.013523,0.002678,0.000431,0.001528
125822000,0.0324,0.013523,0.002678,0.000431,0.001880
125823000,0.0324,0.013523,0.002678,0.000431,0.001645
125824000,0.0324,0.013523,0.002678,0.000431,0.001880
125825000,0.0324,0.013523,0.002678,0.000431,0.001763
125826000,0.0324,0.013523,0.002678,0.000431,0.001645
125827000,0.0324,0.013523,0.002678,0.000431,0.005289
125828000,0.0324,0.013523,0.002678,0.000431,0.000823
125829000,0.0324,0.013523,0.002678,0.000431,0.000940
125830000,0.0324,0.013523,0.002678,0.000431,0.002821
125831000,0.0324,0.013523,0.002678,0.000431,0.628306
125832000,0.0324,0.013523,0.002678,0.000431,0.686365
125833000,0.0324,0.013523,0.002678,0.000431,0.308394
125834000,0.0324,0.013523,0.002678,0.000431,0.182051
125835000,0.0324,0.013523,0.002678,0.000431,0.560257
125836000,0.0324,0.013523,0.002678,0.000431,0.306984
125837000,0.0324,0.013523,0.002678,0.000431,0.339304
125838000,0.0324,0.013523,0.002678,0.000431,0.197682
125839000,0.0324,0.013523,0.002678,0.000431,0.159133
125840000,0.0324,0.013523,0.002678,0.000431,0.180288
125841000,0.0324,0.013523,0.002678,0.000431,0.552147
125842000,0.0324,0.013523,0.002678,0.000431,0.336718
125843000,0.0324,0.013523,0.002678,0.000431,0.262911
125844000,0.0324,0.013523,0.002678,0.000431,0.226477
125845000,0.0324,0.013523,0.002678,0.000431,0.190043
125846000,0.0324,0.013523,0.002678,0.000431,0.162306
125847000,0.0324,0.013523,0.002678,0.000431,0.148556
125848000,0.0324,0.013523,0.002678,0.000431,0.113415
125849000,0.0324,0.013523,0.002678,0.000431,0.109654
125850000,0.0324,0.013523,0.002678,0.000431,0.093670
125851000,0.0324,0.013523,0.002678,0.000431,0.062525
125852000,0.0324,0.013523,0.002678,0.000431,0.060762
125853000,0.0324,0.013523,0.002678,0.000431,0.042193
125854000,0.0324,0.013523,0.002678,0.000431,0.037256
125855000,0.0324,0.013523,0.002678,0.000431,0.032673
125856000,0.0324,0.013523,0.002678,0.000431,0.038432
125857000,0.0324,0.013523,0.002678,0.000431,0.030910
125858000,0.0324,0.013523,0.002678,0.000431,0.023153
125859000,0.0324,0.013523,0.002678,0.000431,0.012811
125860000,0.0324,0.013523,0.002678,0.000431,0.008580
125861000,0.0324,0.013523,0.002678,0.000431,0.008345
125862000,0.0324,0.013523,0.002678,0.000431,0.009872
125863000,0.0324,0.013523,0.002678,0.000431,0.008345
125864000,0.0324,0.013523,0.002678,0.000431,0.005171
125865000,0.0324,0.013523,0.002678,0.000431,0.005876
125866000,0.0324,0.013523,0.002678,0.000431,0.009285
125867000,0.0324,0.013523,0.002678,0.000431,0.003761
125868000,0.0324,0.013523,0.002678,0.000431,0.005406
125869000,0.0324,0.013523,0.002678,0.000431,0.002586
125870000,0.0324,0.013523,0.002678,0.000431,0.002116
125871000,0.0324,0.013523,0.002678,0.000431,0.002586
125872000,0.0324,0.013523,0.002678,0.000431,0.002351
125873000,0.0324,0.013523,0.002678,0.000431,0.002586
125874000,0.0324,0.013523,0.002678,0.000431,0.001998
125875000,0.0324,0.013523,0.002678,0.000431,0.002703
125876000,0.0324,0.013523,0.002678,0.000431,0.002703
125877000,0.0324,0.013523,0.002678,0.000431,0.001998
125878000,0.0324,0.013523,0.002678,0.000431,0.002821
125879000,0.0324,0.013523,0.002678,0.000431,0.001998
125880000,0.0324,0.013523,0.002678,0.000431,0.002468
125881000,0.0324,0.013523,0.002678,0.000431,0.002233
125882000,0.0324,0.013523,0.002678,0.000431,0.002468
125883000,0.0324,0.013523,0.002678,0.000431,0.004584
125884000,0.0324,0.013523,0.002678,0.000431,0.070869
125885000,0.0324,0.013523,0.002678,0.000431,0.835390
125886000,0.0324,0.013523,0.002678,0.000431,0.548622
125887000,0.0324,0.013523,0.002678,0.000431,0.200621
125888000,0.0324,0.013523,0.002678,0.000431,0.242226
125889000,0.0324,0.013523,0.002678,0.000431,0.624662
125890000,0.0324,0.013523,0.002678,0.000431,0.273253
125891000,0.0324,0.013523,0.002678,0.000431,0.330842
125892000,0.0324,0.013523,0.002678,0.000431,0.155490
125893000,0.0324,0.013523,0.002678,0.000431,0.097313
125894000,0.0324,0.013523,0.002678,0.000431,0.453541
125895000,0.0324,0.013523,0.002678,0.000431,0.431328
125896000,0.0324,0.013523,0.002678,0.000431,0.271490
125897000,0.0324,0.013523,0.002678,0.000431,0.222833
125898000,0.0324,0.013523,0.002678,0.000431,0.182286
125899000,0.0324,0.013523,0.002678,0.000431,0.184872
125900000,0.0324,0.013523,0.002678,0.000431,0.149378
125901000,0.0324,0.013523,0.002678,0.000431,0.117998
125902000,0.0324,0.013523,0.002678,0.000431,0.091672
125903000,0.0324,0.013523,0.002678,0.000431,0.099076
125904000,0.0324,0.013523,0.002678,0.000431,0.072515
125905000,0.0324,0.013523,0.002678,0.000431,0.067931
125906000,0.0324,0.013523,0.002678,0.000431,0.057706
125907000,0.0324,0.013523,0.002678,0.000431,0.050772
125908000,0.0324,0.013523,0.002678,0.000431,0.051360
125909000,0.0324,0.013523,0.002678,0.000431,0.050067
125910000,0.0324,0.013523,0.002678,0.000431,0.033260
125911000,0.0324,0.013523,0.002678,0.000431,0.040782
125912000,0.0324,0.013523,0.002678,0.000431,0.029265
125913000,0.0324,0.013523,0.002678,0.000431,0.029029
125914000,0.0324,0.013523,0.002678,0.000431,0.029617
125915000,0.0324,0.013523,0.002678,0.000431,0.019040
125916000,0.0324,0.013523,0.002678,0.000431,0.010342
125917000,0.0324,0.013523,0.002678,0.000431,0.009050
125918000,0.0324,0.013523,0.002678,0.000431,0.005524
125919000,0.0324,0.013523,0.002678,0.000431,0.008697
125920000,0.0324,0.013523,0.002678,0.000431,0.008580
125921000,0.0324,0.013523,0.002678,0.000431,0.003526
125922000,0.0324,0.013523,0.002678,0.000431,0.004466
125923000,0.0324,0.013523,0.002678,0.000431,0.005406
125924000,0.0324,0.013523,0.002678,0.000431,0.005406
125925000,0.0324,0.013523,0.002678,0.000431,0.002938
125926000,0.0324,0.013523,0.002678,0.000431,0.003173
125927000,0.0324,0.013523,0.002678,0.000431,0.002821
125928000,0.0324,0.013523,0.002678,0.000431,0.005289
125929000,0.0324,0.013523,0.002678,0.000431,0.001645
125930000,0.0324,0.013523,0.002678,0.000431,0.002116
125931000,0.0324,0.013523,0.002678,0.000431,0.001645
125932000,0.0324,0.013523,0.002678,0.000431,0.001410
125933000,0.0324,0.013523,0.002678,0.000431,0.003408
125934000,0.0324,0.013523,0.002678,0.000431,0.002116
125935000,0.0324,0.013523,0.002678,0.000431,0.003643
125936000,0.0324,0.013523,0.002678,0.000431,0.002233
125937000,0.0324,0.013523,0.002678,0.000431,0.002938
125938000,0.0324,0.013523,0.002678,0.000431,0.002116
125939000,0.0324,0.013523,0.002678,0.000431,0.002351
125940000,0.0324,0.013523,0.002678,0.000431,0.001998
125941000,0.0324,0.013523,0.002678,0.000431,0.002233
125942000,0.0324,0.013523,0.002678,0.000431,0.001293
125943000,0.0324,0.013523,0.002678,0.000431,0.001058
125944000,0.0324,0.013523,0.002678,0.000431,0.002586
125945000,0.0324,0.013523,0.002678,0.000431,0.501375
125946000,0.0324,0.013523,0.002678,0.000431,0.729497
125947000,0.0324,0.013523,0.002678,0.000431,0.310980
125948000,0.0324,0.013523,0.002678,0.000431,0.188163
125949000,0.0324,0.013523,0.002678,0.000431,0.450133
125950000,0.0324,0.013523,0.002678,0.000431,0.369038
125951000,0.0324,0.013523,0.002678,0.000431,0.319912
125952000,0.0324,0.013523,0.002678,0.000431,0.276074
125953000,0.0324,0.013523,0.002678,0.000431,0.167008
125954000,0.0324,0.013523,0.002678,0.000431,0.101192
125955000,0.0324,0.013523,0.002678,0.000431,0.525351
125956000,0.0324,0.013523,0.002678,0.000431,0.434502
125957000,0.0324,0.013523,0.002678,0.000431,0.297816
125958000,0.0324,0.013523,0.002678,0.000431,0.248220
125959000,0.0324,0.013523,0.002678,0.000431,0.219660
125960000,0.0324,0.013523,0.002678,0.000431,0.179583
125961000,0.0324,0.013523,0.002678,0.000431,0.144325
125962000,0.0324,0.013523,0.002678,0.000431,0.117763
125963000,0.0324,0.013523,0.002678,0.000431,0.088969
125964000,0.0324,0.013523,0.002678,0.000431,0.085208
125965000,0.0324,0.013523,0.002678,0.000431,0.061585
125966000,0.0324,0.013523,0.002678,0.000431,0.043250
125967000,0.0324,0.013523,0.002678,0.000431,0.041840
125968000,0.0324,0.013523,0.002678,0.000431,0.036199
125969000,0.0324,0.013523,0.002678,0.000431,0.038314
125970000,0.0324,0.013523,0.002678,0.000431,0.019275
125971000,0.0324,0.013523,0.002678,0.000431,0.018099
125972000,0.0324,0.013523,0.002678,0.000431,0.018099
125973000,0.0324,0.013523,0.002678,0.000431,0.010578
125974000,0.0324,0.013523,0.002678,0.000431,0.004819
125975000,0.0324,0.013523,0.002678,0.000431,0.006699
125976000,0.0324,0.013523,0.002678,0.000431,0.008815
125977000,0.0324,0.013523,0.002678,0.000431,0.006464
125978000,0.0324,0.013523,0.002678,0.000431,0.006464
125979000,0.0324,0.013523,0.002678,0.000431,0.004113
125980000,0.0324,0.013523,0.002678,0.000431,0.001058
125981000,0.0324,0.013523,0.002678,0.000431,0.000823
125982000,0.0324,0.013523,0.002678,0.000431,0.000823
125983000,0.0324,0.013523,0.002678,0.000431,0.000823
125984000,0.0324,0.013523,0.002678,0.000431,0.000823
125985000,0.0324,0.013523,0.002678,0.000431,0.000940
125986000,0.0324,0.013523,0.002678,0.000431,0.000823
125987000,0.0324,0.013523,0.002678,0.000431,0.000823
125988000,0.0324,0.013523,0.002678,0.000431,0.000823
125989000,0.0324,0.013523,0.002678,0.000431,0.000823
125990000,0.0324,0.013523,0.002678,0.000431,0.000823
125991000,0.0324,0.013523,0.002678,0.000431,0.000823
125992000,0.0324,0.013523,0.002678,0.000431,0.000940
125993000,0.0324,0.013523,0.002678,0.000431,0.000705
125994000,0.0324,0.013523,0.002678,0.000431,0.000705
125995000,0.0324,0.013523,0.002678,0.000431,0.000940
125996000,0.0324,0.013523,0.002678,0.000431,0.000705
125997000,0.0324,0.013523,0.002678,0.000431,0.000705
125998000,0.0324,0.013523,0.002678,0.000431,0.285241
125999000,0.0324,0.013523,0.002678,0.000431,0.849376
