Cycle,Area(mm^2),PeakDynamic(W),SubthresholdLeakage(W),GateLeakage(W),RunTimeDynamic(W)
67000000,0.0324,0.013523,0.002678,0.000431,0.242461
67001000,0.0324,0.013523,0.002678,0.000431,0.194274
67002000,0.0324,0.013523,0.002678,0.000431,0.156077
67003000,0.0324,0.013523,0.002678,0.000431,0.122699
67004000,0.0324,0.013523,0.002678,0.000431,0.119526
67005000,0.0324,0.013523,0.002678,0.000431,0.071810
67006000,0.0324,0.013523,0.002678,0.000431,0.065111
67007000,0.0324,0.013523,0.002678,0.000431,0.051947
67008000,0.0324,0.013523,0.002678,0.000431,0.047011
67009000,0.0324,0.013523,0.002678,0.000431,0.029265
67010000,0.0324,0.013523,0.002678,0.000431,0.018922
67011000,0.0324,0.013523,0.002678,0.000431,0.014926
67012000,0.0324,0.013523,0.002678,0.000431,0.015396
67013000,0.0324,0.013523,0.002678,0.000431,0.012811
67014000,0.0324,0.013523,0.002678,0.000431,0.011048
67015000,0.0324,0.013523,0.002678,0.000431,0.009050
67016000,0.0324,0.013523,0.002678,0.000431,0.011988
67017000,0.0324,0.013523,0.002678,0.000431,0.006229
67018000,0.0324,0.013523,0.002678,0.000431,0.008345
67019000,0.0324,0.013523,0.002678,0.000431,0.005524
67020000,0.0324,0.013523,0.002678,0.000431,0.005406
67021000,0.0324,0.013523,0.002678,0.000431,0.006582
67022000,0.0324,0.013523,0.002678,0.000431,0.006347
67023000,0.0324,0.013523,0.002678,0.000431,0.004466
67024000,0.0324,0.013523,0.002678,0.000431,0.004701
67025000,0.0324,0.013523,0.002678,0.000431,0.005171
67026000,0.0324,0.013523,0.002678,0.000431,0.004231
67027000,0.0324,0.013523,0.002678,0.000431,0.003878
67028000,0.0324,0.013523,0.002678,0.000431,0.004231
67029000,0.0324,0.013523,0.002678,0.000431,0.003643
67030000,0.0324,0.013523,0.002678,0.000431,0.006347
67031000,0.0324,0.013523,0.002678,0.000431,0.003291
67032000,0.0324,0.013523,0.002678,0.000431,0.003056
67033000,0.0324,0.013523,0.002678,0.000431,0.003173
67034000,0.0324,0.013523,0.002678,0.000431,0.002351
67035000,0.0324,0.013523,0.002678,0.000431,0.003173
67036000,0.0324,0.013523,0.002678,0.000431,0.007287
67037000,0.0324,0.013523,0.002678,0.000431,0.001410
67038000,0.0324,0.013523,0.002678,0.000431,0.001645
67039000,0.0324,0.013523,0.002678,0.000431,0.001528
67040000,0.0324,0.013523,0.002678,0.000431,0.001763
67041000,0.0324,0.013523,0.002678,0.000431,0.001528
67042000,0.0324,0.013523,0.002678,0.000431,0.001528
67043000,0.0324,0.013523,0.002678,0.000431,0.001645
67044000,0.0324,0.013523,0.002678,0.000431,0.001528
67045000,0.0324,0.013523,0.002678,0.000431,0.001528
67046000,0.0324,0.013523,0.002678,0.000431,0.001645
67047000,0.0324,0.013523,0.002678,0.000431,0.001645
67048000,0.0324,0.013523,0.002678,0.000431,0.001410
67049000,0.0324,0.013523,0.002678,0.000431,0.001645
67050000,0.0324,0.013523,0.002678,0.000431,0.001645
67051000,0.0324,0.013523,0.002678,0.000431,0.001645
67052000,0.0324,0.013523,0.002678,0.000431,0.001410
67053000,0.0324,0.013523,0.002678,0.000431,0.001645
67054000,0.0324,0.013523,0.002678,0.000431,0.001410
67055000,0.0324,0.013523,0.002678,0.000431,0.001645
67056000,0.0324,0.013523,0.002678,0.000431,0.001880
67057000,0.0324,0.013523,0.002678,0.000431,0.001175
67058000,0.0324,0.013523,0.002678,0.000431,0.001880
67059000,0.0324,0.013523,0.002678,0.000431,0.001410
67060000,0.0324,0.013523,0.002678,0.000431,0.002821
67061000,0.0324,0.013523,0.002678,0.000431,0.333427
67062000,0.0324,0.013523,0.002678,0.000431,0.788967
67063000,0.0324,0.013523,0.002678,0.000431,0.358578
67064000,0.0324,0.013523,0.002678,0.000431,0.152552
67065000,0.0324,0.013523,0.002678,0.000431,0.520062
67066000,0.0324,0.013523,0.002678,0.000431,0.260913
67067000,0.0324,0.013523,0.002678,0.000431,0.336718
67068000,0.0324,0.013523,0.002678,0.000431,0.224009
67069000,0.0324,0.013523,0.002678,0.000431,0.189455
67070000,0.0324,0.013523,0.002678,0.000431,0.088029
67071000,0.0324,0.013523,0.002678,0.000431,0.570952
67072000,0.0324,0.013523,0.002678,0.000431,0.253861
67073000,0.0324,0.013523,0.002678,0.000431,0.180406
67074000,0.0324,0.013523,0.002678,0.000431,0.165832
67075000,0.0324,0.013523,0.002678,0.000431,0.136098
67076000,0.0324,0.013523,0.002678,0.000431,0.119174
67077000,0.0324,0.013523,0.002678,0.000431,0.093670
67078000,0.0324,0.013523,0.002678,0.000431,0.082270
67079000,0.0324,0.013523,0.002678,0.000431,0.065463
67080000,0.0324,0.013523,0.002678,0.000431,0.047834
67081000,0.0324,0.013523,0.002678,0.000431,0.031733
67082000,0.0324,0.013523,0.002678,0.000431,0.038432
67083000,0.0324,0.013523,0.002678,0.000431,0.025504
67084000,0.0324,0.013523,0.002678,0.000431,0.020215
67085000,0.0324,0.013523,0.002678,0.000431,0.020567
67086000,0.0324,0.013523,0.002678,0.000431,0.015866
67087000,0.0324,0.013523,0.002678,0.000431,0.010695
67088000,0.0324,0.013523,0.002678,0.000431,0.013398
67089000,0.0324,0.013523,0.002678,0.000431,0.016219
67090000,0.0324,0.013523,0.002678,0.000431,0.004584
67091000,0.0324,0.013523,0.002678,0.000431,0.005171
67092000,0.0324,0.013523,0.002678,0.000431,0.004701
67093000,0.0324,0.013523,0.002678,0.000431,0.004936
67094000,0.0324,0.013523,0.002678,0.000431,0.006934
67095000,0.0324,0.013523,0.002678,0.000431,0.004113
67096000,0.0324,0.013523,0.002678,0.000431,0.004349
67097000,0.0324,0.013523,0.002678,0.000431,0.003761
67098000,0.0324,0.013523,0.002678,0.000431,0.004231
67099000,0.0324,0.013523,0.002678,0.000431,0.003643
67100000,0.0324,0.013523,0.002678,0.000431,0.004466
67101000,0.0324,0.013523,0.002678,0.000431,0.005406
67102000,0.0324,0.013523,0.002678,0.000431,0.003408
67103000,0.0324,0.013523,0.002678,0.000431,0.008109
67104000,0.0324,0.013523,0.002678,0.000431,0.001763
67105000,0.0324,0.013523,0.002678,0.000431,0.001763
67106000,0.0324,0.013523,0.002678,0.000431,0.004231
67107000,0.0324,0.013523,0.002678,0.000431,0.000940
67108000,0.0324,0.013523,0.002678,0.000431,0.000705
67109000,0.0324,0.013523,0.002678,0.000431,0.003996
67110000,0.0324,0.013523,0.002678,0.000431,0.586231
67111000,0.0324,0.013523,0.002678,0.000431,0.757352
67112000,0.0324,0.013523,0.002678,0.000431,0.142679
67113000,0.0324,0.013523,0.002678,0.000431,0.137743
67114000,0.0324,0.013523,0.002678,0.000431,0.635592
67115000,0.0324,0.013523,0.002678,0.000431,0.246809
67116000,0.0324,0.013523,0.002678,0.000431,0.337658
67117000,0.0324,0.013523,0.002678,0.000431,0.150671
67118000,0.0324,0.013523,0.002678,0.000431,0.137038
67119000,0.0324,0.013523,0.002678,0.000431,0.243048
67120000,0.0324,0.013523,0.002678,0.000431,0.544038
67121000,0.0324,0.013523,0.002678,0.000431,0.221893
67122000,0.0324,0.013523,0.002678,0.000431,0.212491
67123000,0.0324,0.013523,0.002678,0.000431,0.171004
67124000,0.0324,0.013523,0.002678,0.000431,0.132219
67125000,0.0324,0.013523,0.002678,0.000431,0.111534
67126000,0.0324,0.013523,0.002678,0.000431,0.098136
67127000,0.0324,0.013523,0.002678,0.000431,0.081917
67128000,0.0324,0.013523,0.002678,0.000431,0.059587
67129000,0.0324,0.013523,0.002678,0.000431,0.050655
67130000,0.0324,0.013523,0.002678,0.000431,0.043485
67131000,0.0324,0.013523,0.002678,0.000431,0.039489
67132000,0.0324,0.013523,0.002678,0.000431,0.029029
67133000,0.0324,0.013523,0.002678,0.000431,0.030675
67134000,0.0324,0.013523,0.002678,0.000431,0.029029
67135000,0.0324,0.013523,0.002678,0.000431,0.015866
67136000,0.0324,0.013523,0.002678,0.000431,0.015866
67137000,0.0324,0.013523,0.002678,0.000431,0.019392
67138000,0.0324,0.013523,0.002678,0.000431,0.011518
67139000,0.0324,0.013523,0.002678,0.000431,0.012576
67140000,0.0324,0.013523,0.002678,0.000431,0.007052
67141000,0.0324,0.013523,0.002678,0.000431,0.006347
67142000,0.0324,0.013523,0.002678,0.000431,0.005641
67143000,0.0324,0.013523,0.002678,0.000431,0.009050
67144000,0.0324,0.013523,0.002678,0.000431,0.004466
67145000,0.0324,0.013523,0.002678,0.000431,0.007404
67146000,0.0324,0.013523,0.002678,0.000431,0.006111
67147000,0.0324,0.013523,0.002678,0.000431,0.003526
67148000,0.0324,0.013523,0.002678,0.000431,0.006347
67149000,0.0324,0.013523,0.002678,0.000431,0.000940
67150000,0.0324,0.013523,0.002678,0.000431,0.000940
67151000,0.0324,0.013523,0.002678,0.000431,0.000705
67152000,0.0324,0.013523,0.002678,0.000431,0.000940
67153000,0.0324,0.013523,0.002678,0.000431,0.000705
67154000,0.0324,0.013523,0.002678,0.000431,0.000940
67155000,0.0324,0.013523,0.002678,0.000431,0.000823
67156000,0.0324,0.013523,0.002678,0.000431,0.000823
67157000,0.0324,0.013523,0.002678,0.000431,0.000940
67158000,0.0324,0.013523,0.002678,0.000431,0.000705
67159000,0.0324,0.013523,0.002678,0.000431,0.000940
67160000,0.0324,0.013523,0.002678,0.000431,0.000705
67161000,0.0324,0.013523,0.002678,0.000431,0.000940
67162000,0.0324,0.013523,0.002678,0.000431,0.000823
67163000,0.0324,0.013523,0.002678,0.000431,0.000823
67164000,0.0324,0.013523,0.002678,0.000431,0.000823
67165000,0.0324,0.013523,0.002678,0.000431,0.000823
67166000,0.0324,0.013523,0.002678,0.000431,0.081330
67167000,0.0324,0.013523,0.002678,0.000431,0.840209
67168000,0.0324,0.013523,0.002678,0.000431,0.528642
67169000,0.0324,0.013523,0.002678,0.000431,0.139271
67170000,0.0324,0.013523,0.002678,0.000431,0.240345
67171000,0.0324,0.013523,0.002678,0.000431,0.477987
67172000,0.0324,0.013523,0.002678,0.000431,0.252803
67173000,0.0324,0.013523,0.002678,0.000431,0.270667
67174000,0.0324,0.013523,0.002678,0.000431,0.152317
67175000,0.0324,0.013523,0.002678,0.000431,0.162777
67176000,0.0324,0.013523,0.002678,0.000431,0.217545
67177000,0.0324,0.013523,0.002678,0.000431,0.507252
67178000,0.0324,0.013523,0.002678,0.000431,0.157840
67179000,0.0324,0.013523,0.002678,0.000431,0.140916
67180000,0.0324,0.013523,0.002678,0.000431,0.115530
67181000,0.0324,0.013523,0.002678,0.000431,0.107186
67182000,0.0324,0.013523,0.002678,0.000431,0.092847
67183000,0.0324,0.013523,0.002678,0.000431,0.054651
67184000,0.0324,0.013523,0.002678,0.000431,0.052653
67185000,0.0324,0.013523,0.002678,0.000431,0.050655
67186000,0.0324,0.013523,0.002678,0.000431,0.037727
67187000,0.0324,0.013523,0.002678,0.000431,0.033966
67188000,0.0324,0.013523,0.002678,0.000431,0.028559
67189000,0.0324,0.013523,0.002678,0.000431,0.024446
67190000,0.0324,0.013523,0.002678,0.000431,0.023153
67191000,0.0324,0.013523,0.002678,0.000431,0.016689
67192000,0.0324,0.013523,0.002678,0.000431,0.017394
67193000,0.0324,0.013523,0.002678,0.000431,0.008932
67194000,0.0324,0.013523,0.002678,0.000431,0.014691
67195000,0.0324,0.013523,0.002678,0.000431,0.007169
67196000,0.0324,0.013523,0.002678,0.000431,0.006934
67197000,0.0324,0.013523,0.002678,0.000431,0.002938
67198000,0.0324,0.013523,0.002678,0.000431,0.004701
67199000,0.0324,0.013523,0.002678,0.000431,0.004819
67200000,0.0324,0.013523,0.002678,0.000431,0.000940
67201000,0.0324,0.013523,0.002678,0.000431,0.000940
67202000,0.0324,0.013523,0.002678,0.000431,0.000940
67203000,0.0324,0.013523,0.002678,0.000431,0.253391
67204000,0.0324,0.013523,0.002678,0.000431,0.728087
67205000,0.0324,0.013523,0.002678,0.000431,0.419576
67206000,0.0324,0.013523,0.002678,0.000431,0.134922
67207000,0.0324,0.013523,0.002678,0.000431,0.324848
67208000,0.0324,0.013523,0.002678,0.000431,0.386433
67209000,0.0324,0.013523,0.002678,0.000431,0.242931
67210000,0.0324,0.013523,0.002678,0.000431,0.306513
67211000,0.0324,0.013523,0.002678,0.000431,0.157958
67212000,0.0324,0.013523,0.002678,0.000431,0.173707
67213000,0.0324,0.013523,0.002678,0.000431,0.143267
67214000,0.0324,0.013523,0.002678,0.000431,0.548857
67215000,0.0324,0.013523,0.002678,0.000431,0.202501
67216000,0.0324,0.013523,0.002678,0.000431,0.159603
67217000,0.0324,0.013523,0.002678,0.000431,0.129281
67218000,0.0324,0.013523,0.002678,0.000431,0.109301
67219000,0.0324,0.013523,0.002678,0.000431,0.092847
67220000,0.0324,0.013523,0.002678,0.000431,0.078156
67221000,0.0324,0.013523,0.002678,0.000431,0.058529
67222000,0.0324,0.013523,0.002678,0.000431,0.046424
67223000,0.0324,0.013523,0.002678,0.000431,0.037844
67224000,0.0324,0.013523,0.002678,0.000431,0.029852
67225000,0.0324,0.013523,0.002678,0.000431,0.025856
67226000,0.0324,0.013523,0.002678,0.000431,0.019510
67227000,0.0324,0.013523,0.002678,0.000431,0.012458
67228000,0.0324,0.013523,0.002678,0.000431,0.009872
67229000,0.0324,0.013523,0.002678,0.000431,0.011165
67230000,0.0324,0.013523,0.002678,0.000431,0.009285
67231000,0.0324,0.013523,0.002678,0.000431,0.013281
67232000,0.0324,0.013523,0.002678,0.000431,0.009637
67233000,0.0324,0.013523,0.002678,0.000431,0.002233
67234000,0.0324,0.013523,0.002678,0.000431,0.002821
67235000,0.0324,0.013523,0.002678,0.000431,0.002116
67236000,0.0324,0.013523,0.002678,0.000431,0.002703
67237000,0.0324,0.013523,0.002678,0.000431,0.002116
67238000,0.0324,0.013523,0.002678,0.000431,0.002703
67239000,0.0324,0.013523,0.002678,0.000431,0.001998
67240000,0.0324,0.013523,0.002678,0.000431,0.001880
67241000,0.0324,0.013523,0.002678,0.000431,0.001645
67242000,0.0324,0.013523,0.002678,0.000431,0.004466
67243000,0.0324,0.013523,0.002678,0.000431,0.000940
67244000,0.0324,0.013523,0.002678,0.000431,0.000823
67245000,0.0324,0.013523,0.002678,0.000431,0.000940
67246000,0.0324,0.013523,0.002678,0.000431,0.000940
67247000,0.0324,0.013523,0.002678,0.000431,0.000940
67248000,0.0324,0.013523,0.002678,0.000431,0.000705
67249000,0.0324,0.013523,0.002678,0.000431,0.001058
67250000,0.0324,0.013523,0.002678,0.000431,0.001763
67251000,0.0324,0.013523,0.002678,0.000431,0.535341
67252000,0.0324,0.013523,0.002678,0.000431,0.726559
67253000,0.0324,0.013523,0.002678,0.000431,0.174764
67254000,0.0324,0.013523,0.002678,0.000431,0.136803
67255000,0.0324,0.013523,0.002678,0.000431,0.494441
67256000,0.0324,0.013523,0.002678,0.000431,0.246927
67257000,0.0324,0.013523,0.002678,0.000431,0.294291
67258000,0.0324,0.013523,0.002678,0.000431,0.214019
67259000,0.0324,0.013523,0.002678,0.000431,0.177115
67260000,0.0324,0.013523,0.002678,0.000431,0.114120
67261000,0.0324,0.013523,0.002678,0.000431,0.484921
67262000,0.0324,0.013523,0.002678,0.000431,0.362222
67263000,0.0324,0.013523,0.002678,0.000431,0.224714
67264000,0.0324,0.013523,0.002678,0.000431,0.198623
67265000,0.0324,0.013523,0.002678,0.000431,0.161366
67266000,0.0324,0.013523,0.002678,0.000431,0.142327
67267000,0.0324,0.013523,0.002678,0.000431,0.111417
67268000,0.0324,0.013523,0.002678,0.000431,0.096608
67269000,0.0324,0.013523,0.002678,0.000431,0.084855
67270000,0.0324,0.013523,0.002678,0.000431,0.061467
67271000,0.0324,0.013523,0.002678,0.000431,0.056296
67272000,0.0324,0.013523,0.002678,0.000431,0.048539
67273000,0.0324,0.013523,0.002678,0.000431,0.038902
67274000,0.0324,0.013523,0.002678,0.000431,0.034083
67275000,0.0324,0.013523,0.002678,0.000431,0.029970
67276000,0.0324,0.013523,0.002678,0.000431,0.026209
67277000,0.0324,0.013523,0.002678,0.000431,0.016924
67278000,0.0324,0.013523,0.002678,0.000431,0.014691
67279000,0.0324,0.013523,0.002678,0.000431,0.019040
67280000,0.0324,0.013523,0.002678,0.000431,0.009755
67281000,0.0324,0.013523,0.002678,0.000431,0.009402
67282000,0.0324,0.013523,0.002678,0.000431,0.007287
67283000,0.0324,0.013523,0.002678,0.000431,0.010578
67284000,0.0324,0.013523,0.002678,0.000431,0.007874
67285000,0.0324,0.013523,0.002678,0.000431,0.006699
67286000,0.0324,0.013523,0.002678,0.000431,0.005759
67287000,0.0324,0.013523,0.002678,0.000431,0.002351
67288000,0.0324,0.013523,0.002678,0.000431,0.002351
67289000,0.0324,0.013523,0.002678,0.000431,0.002586
67290000,0.0324,0.013523,0.002678,0.000431,0.002233
67291000,0.0324,0.013523,0.002678,0.000431,0.004936
67292000,0.0324,0.013523,0.002678,0.000431,0.001058
67293000,0.0324,0.013523,0.002678,0.000431,0.001058
67294000,0.0324,0.013523,0.002678,0.000431,0.001410
67295000,0.0324,0.013523,0.002678,0.000431,0.001410
67296000,0.0324,0.013523,0.002678,0.000431,0.016454
67297000,0.0324,0.013523,0.002678,0.000431,0.794961
67298000,0.0324,0.013523,0.002678,0.000431,0.574713
67299000,0.0324,0.013523,0.002678,0.000431,0.174529
67300000,0.0324,0.013523,0.002678,0.000431,0.143854
67301000,0.0324,0.013523,0.002678,0.000431,0.586818
67302000,0.0324,0.013523,0.002678,0.000431,0.241403
67303000,0.0324,0.013523,0.002678,0.000431,0.315916
67304000,0.0324,0.013523,0.002678,0.000431,0.198388
67305000,0.0324,0.013523,0.002678,0.000431,0.152317
67306000,0.0324,0.013523,0.002678,0.000431,0.103190
67307000,0.0324,0.013523,0.002678,0.000431,0.505959
67308000,0.0324,0.013523,0.002678,0.000431,0.295936
67309000,0.0324,0.013523,0.002678,0.000431,0.195802
67310000,0.0324,0.013523,0.002678,0.000431,0.188045
67311000,0.0324,0.013523,0.002678,0.000431,0.146793
67312000,0.0324,0.013523,0.002678,0.000431,0.134922
67313000,0.0324,0.013523,0.002678,0.000431,0.112592
67314000,0.0324,0.013523,0.002678,0.000431,0.089674
67315000,0.0324,0.013523,0.002678,0.000431,0.062995
67316000,0.0324,0.013523,0.002678,0.000431,0.054180
67317000,0.0324,0.013523,0.002678,0.000431,0.038784
67318000,0.0324,0.013523,0.002678,0.000431,0.033731
67319000,0.0324,0.013523,0.002678,0.000431,0.027149
67320000,0.0324,0.013523,0.002678,0.000431,0.020097
67321000,0.0324,0.013523,0.002678,0.000431,0.019862
67322000,0.0324,0.013523,0.002678,0.000431,0.007404
67323000,0.0324,0.013523,0.002678,0.000431,0.007639
67324000,0.0324,0.013523,0.002678,0.000431,0.006817
67325000,0.0324,0.013523,0.002678,0.000431,0.003643
67326000,0.0324,0.013523,0.002678,0.000431,0.001880
67327000,0.0324,0.013523,0.002678,0.000431,0.002351
67328000,0.0324,0.013523,0.002678,0.000431,0.001763
67329000,0.0324,0.013523,0.002678,0.000431,0.002116
67330000,0.0324,0.013523,0.002678,0.000431,0.002116
67331000,0.0324,0.013523,0.002678,0.000431,0.002233
67332000,0.0324,0.013523,0.002678,0.000431,0.002351
67333000,0.0324,0.013523,0.002678,0.000431,0.002233
67334000,0.0324,0.013523,0.002678,0.000431,0.002116
67335000,0.0324,0.013523,0.002678,0.000431,0.002351
67336000,0.0324,0.013523,0.002678,0.000431,0.002116
67337000,0.0324,0.013523,0.002678,0.000431,0.002468
67338000,0.0324,0.013523,0.002678,0.000431,0.002351
67339000,0.0324,0.013523,0.002678,0.000431,0.002233
67340000,0.0324,0.013523,0.002678,0.000431,0.004466
67341000,0.0324,0.013523,0.002678,0.000431,0.422044
67342000,0.0324,0.013523,0.002678,0.000431,0.752533
67343000,0.0324,0.013523,0.002678,0.000431,0.275486
67344000,0.0324,0.013523,0.002678,0.000431,0.134922
67345000,0.0324,0.013523,0.002678,0.000431,0.530992
67346000,0.0324,0.013523,0.002678,0.000431,0.262558
67347000,0.0324,0.013523,0.002678,0.000431,0.274898
67348000,0.0324,0.013523,0.002678,0.000431,0.232001
67349000,0.0324,0.013523,0.002678,0.000431,0.160426
67350000,0.0324,0.013523,0.002678,0.000431,0.111182
67351000,0.0324,0.013523,0.002678,0.000431,0.462003
67352000,0.0324,0.013523,0.002678,0.000431,0.350939
67353000,0.0324,0.013523,0.002678,0.000431,0.194744
67354000,0.0324,0.013523,0.002678,0.000431,0.168183
67355000,0.0324,0.013523,0.002678,0.000431,0.136685
67356000,0.0324,0.013523,0.002678,0.000431,0.133630
67357000,0.0324,0.013523,0.002678,0.000431,0.090379
67358000,0.0324,0.013523,0.002678,0.000431,0.086501
67359000,0.0324,0.013523,0.002678,0.000431,0.052065
67360000,0.0324,0.013523,0.002678,0.000431,0.040312
67361000,0.0324,0.013523,0.002678,0.000431,0.033496
67362000,0.0324,0.013523,0.002678,0.000431,0.025504
67363000,0.0324,0.013523,0.002678,0.000431,0.021155
67364000,0.0324,0.013523,0.002678,0.000431,0.021978
67365000,0.0324,0.013523,0.002678,0.000431,0.021743
67366000,0.0324,0.013523,0.002678,0.000431,0.009402
67367000,0.0324,0.013523,0.002678,0.000431,0.016571
67368000,0.0324,0.013523,0.002678,0.000431,0.011988
67369000,0.0324,0.013523,0.002678,0.000431,0.008580
67370000,0.0324,0.013523,0.002678,0.000431,0.005759
67371000,0.0324,0.013523,0.002678,0.000431,0.007169
67372000,0.0324,0.013523,0.002678,0.000431,0.004819
67373000,0.0324,0.013523,0.002678,0.000431,0.009050
67374000,0.0324,0.013523,0.002678,0.000431,0.004701
67375000,0.0324,0.013523,0.002678,0.000431,0.004113
67376000,0.0324,0.013523,0.002678,0.000431,0.004584
67377000,0.0324,0.013523,0.002678,0.000431,0.004819
67378000,0.0324,0.013523,0.002678,0.000431,0.007052
67379000,0.0324,0.013523,0.002678,0.000431,0.000705
67380000,0.0324,0.013523,0.002678,0.000431,0.000940
67381000,0.0324,0.013523,0.002678,0.000431,0.000705
67382000,0.0324,0.013523,0.002678,0.000431,0.000940
67383000,0.0324,0.013523,0.002678,0.000431,0.003056
67384000,0.0324,0.013523,0.002678,0.000431,0.601039
67385000,0.0324,0.013523,0.002678,0.000431,0.749360
67386000,0.0324,0.013523,0.002678,0.000431,0.147615
67387000,0.0324,0.013523,0.002678,0.000431,0.135863
67388000,0.0324,0.013523,0.002678,0.000431,0.506076
67389000,0.0324,0.013523,0.002678,0.000431,0.236114
67390000,0.0324,0.013523,0.002678,0.000431,0.298874
67391000,0.0324,0.013523,0.002678,0.000431,0.234821
67392000,0.0324,0.013523,0.002678,0.000431,0.151611
67393000,0.0324,0.013523,0.002678,0.000431,0.112474
67394000,0.0324,0.013523,0.002678,0.000431,0.452601
67395000,0.0324,0.013523,0.002678,0.000431,0.391486
67396000,0.0324,0.013523,0.002678,0.000431,0.200386
67397000,0.0324,0.013523,0.002678,0.000431,0.174999
67398000,0.0324,0.013523,0.002678,0.000431,0.167243
67399000,0.0324,0.013523,0.002678,0.000431,0.143854
67400000,0.0324,0.013523,0.002678,0.000431,0.108479
67401000,0.0324,0.013523,0.002678,0.000431,0.085561
67402000,0.0324,0.013523,0.002678,0.000431,0.068519
67403000,0.0324,0.013523,0.002678,0.000431,0.073455
67404000,0.0324,0.013523,0.002678,0.000431,0.038667
67405000,0.0324,0.013523,0.002678,0.000431,0.032203
67406000,0.0324,0.013523,0.002678,0.000431,0.023506
67407000,0.0324,0.013523,0.002678,0.000431,0.024798
67408000,0.0324,0.013523,0.002678,0.000431,0.024798
67409000,0.0324,0.013523,0.002678,0.000431,0.012576
67410000,0.0324,0.013523,0.002678,0.000431,0.009167
67411000,0.0324,0.013523,0.002678,0.000431,0.009990
67412000,0.0324,0.013523,0.002678,0.000431,0.008815
67413000,0.0324,0.013523,0.002678,0.000431,0.005759
67414000,0.0324,0.013523,0.002678,0.000431,0.006464
67415000,0.0324,0.013523,0.002678,0.000431,0.005641
67416000,0.0324,0.013523,0.002678,0.000431,0.004231
67417000,0.0324,0.013523,0.002678,0.000431,0.003291
67418000,0.0324,0.013523,0.002678,0.000431,0.005524
67419000,0.0324,0.013523,0.002678,0.000431,0.005171
67420000,0.0324,0.013523,0.002678,0.000431,0.004231
67421000,0.0324,0.013523,0.002678,0.000431,0.000940
67422000,0.0324,0.013523,0.002678,0.000431,0.000705
67423000,0.0324,0.013523,0.002678,0.000431,0.000940
67424000,0.0324,0.013523,0.002678,0.000431,0.000823
67425000,0.0324,0.013523,0.002678,0.000431,0.000823
67426000,0.0324,0.013523,0.002678,0.000431,0.000823
67427000,0.0324,0.013523,0.002678,0.000431,0.000823
67428000,0.0324,0.013523,0.002678,0.000431,0.000940
67429000,0.0324,0.013523,0.002678,0.000431,0.000705
67430000,0.0324,0.013523,0.002678,0.000431,0.000940
67431000,0.0324,0.013523,0.002678,0.000431,0.000705
67432000,0.0324,0.013523,0.002678,0.000431,0.000940
67433000,0.0324,0.013523,0.002678,0.000431,0.000940
67434000,0.0324,0.013523,0.002678,0.000431,0.028207
67435000,0.0324,0.013523,0.002678,0.000431,0.833980
67436000,0.0324,0.013523,0.002678,0.000431,0.554851
67437000,0.0324,0.013523,0.002678,0.000431,0.146440
67438000,0.0324,0.013523,0.002678,0.000431,0.195449
67439000,0.0324,0.013523,0.002678,0.000431,0.506664
67440000,0.0324,0.013523,0.002678,0.000431,0.247397
67441000,0.0324,0.013523,0.002678,0.000431,0.338481
67442000,0.0324,0.013523,0.002678,0.000431,0.159956
67443000,0.0324,0.013523,0.002678,0.000431,0.128576
67444000,0.0324,0.013523,0.002678,0.000431,0.277484
67445000,0.0324,0.013523,0.002678,0.000431,0.531697
67446000,0.0324,0.013523,0.002678,0.000431,0.229650
67447000,0.0324,0.013523,0.002678,0.000431,0.214606
67448000,0.0324,0.013523,0.002678,0.000431,0.168770
67449000,0.0324,0.013523,0.002678,0.000431,0.153022
67450000,0.0324,0.013523,0.002678,0.000431,0.120701
67451000,0.0324,0.013523,0.002678,0.000431,0.097666
67452000,0.0324,0.013523,0.002678,0.000431,0.078626
67453000,0.0324,0.013523,0.002678,0.000431,0.062760
67454000,0.0324,0.013523,0.002678,0.000431,0.043838
67455000,0.0324,0.013523,0.002678,0.000431,0.042780
67456000,0.0324,0.013523,0.002678,0.000431,0.029147
67457000,0.0324,0.013523,0.002678,0.000431,0.028089
67458000,0.0324,0.013523,0.002678,0.000431,0.015396
67459000,0.0324,0.013523,0.002678,0.000431,0.013163
67460000,0.0324,0.013523,0.002678,0.000431,0.009402
67461000,0.0324,0.013523,0.002678,0.000431,0.006111
67462000,0.0324,0.013523,0.002678,0.000431,0.006111
67463000,0.0324,0.013523,0.002678,0.000431,0.004819
67464000,0.0324,0.013523,0.002678,0.000431,0.003643
67465000,0.0324,0.013523,0.002678,0.000431,0.005054
67466000,0.0324,0.013523,0.002678,0.000431,0.003291
67467000,0.0324,0.013523,0.002678,0.000431,0.002586
67468000,0.0324,0.013523,0.002678,0.000431,0.001293
67469000,0.0324,0.013523,0.002678,0.000431,0.001293
67470000,0.0324,0.013523,0.002678,0.000431,0.001058
67471000,0.0324,0.013523,0.002678,0.000431,0.000705
67472000,0.0324,0.013523,0.002678,0.000431,0.000940
67473000,0.0324,0.013523,0.002678,0.000431,0.039960
67474000,0.0324,0.013523,0.002678,0.000431,0.835273
67475000,0.0324,0.013523,0.002678,0.000431,0.568601
67476000,0.0324,0.013523,0.002678,0.000431,0.154197
67477000,0.0324,0.013523,0.002678,0.000431,0.157253
67478000,0.0324,0.013523,0.002678,0.000431,0.599981
67479000,0.0324,0.013523,0.002678,0.000431,0.251628
67480000,0.0324,0.013523,0.002678,0.000431,0.363867
67481000,0.0324,0.013523,0.002678,0.000431,0.153257
67482000,0.0324,0.013523,0.002678,0.000431,0.127871
67483000,0.0324,0.013523,0.002678,0.000431,0.263263
67484000,0.0324,0.013523,0.002678,0.000431,0.533931
67485000,0.0324,0.013523,0.002678,0.000431,0.217545
67486000,0.0324,0.013523,0.002678,0.000431,0.203794
67487000,0.0324,0.013523,0.002678,0.000431,0.173824
67488000,0.0324,0.013523,0.002678,0.000431,0.143619
67489000,0.0324,0.013523,0.002678,0.000431,0.105305
67490000,0.0324,0.013523,0.002678,0.000431,0.093082
67491000,0.0324,0.013523,0.002678,0.000431,0.078979
67492000,0.0324,0.013523,0.002678,0.000431,0.059822
67493000,0.0324,0.013523,0.002678,0.000431,0.057471
67494000,0.0324,0.013523,0.002678,0.000431,0.044426
67495000,0.0324,0.013523,0.002678,0.000431,0.034788
67496000,0.0324,0.013523,0.002678,0.000431,0.028089
67497000,0.0324,0.013523,0.002678,0.000431,0.025151
67498000,0.0324,0.013523,0.002678,0.000431,0.015044
67499000,0.0324,0.013523,0.002678,0.000431,0.020567
67500000,0.0324,0.013523,0.002678,0.000431,0.006582
67501000,0.0324,0.013523,0.002678,0.000431,0.005759
67502000,0.0324,0.013523,0.002678,0.000431,0.005994
67503000,0.0324,0.013523,0.002678,0.000431,0.005406
67504000,0.0324,0.013523,0.002678,0.000431,0.005524
67505000,0.0324,0.013523,0.002678,0.000431,0.006582
67506000,0.0324,0.013523,0.002678,0.000431,0.005876
67507000,0.0324,0.013523,0.002678,0.000431,0.006111
67508000,0.0324,0.013523,0.002678,0.000431,0.005759
67509000,0.0324,0.013523,0.002678,0.000431,0.003643
67510000,0.0324,0.013523,0.002678,0.000431,0.003996
67511000,0.0324,0.013523,0.002678,0.000431,0.003761
67512000,0.0324,0.013523,0.002678,0.000431,0.005406
67513000,0.0324,0.013523,0.002678,0.000431,0.002821
67514000,0.0324,0.013523,0.002678,0.000431,0.002938
67515000,0.0324,0.013523,0.002678,0.000431,0.002351
67516000,0.0324,0.013523,0.002678,0.000431,0.003526
67517000,0.0324,0.013523,0.002678,0.000431,0.002938
67518000,0.0324,0.013523,0.002678,0.000431,0.002586
67519000,0.0324,0.013523,0.002678,0.000431,0.003173
67520000,0.0324,0.013523,0.002678,0.000431,0.002351
67521000,0.0324,0.013523,0.002678,0.000431,0.003526
67522000,0.0324,0.013523,0.002678,0.000431,0.002468
67523000,0.0324,0.013523,0.002678,0.000431,0.003056
67524000,0.0324,0.013523,0.002678,0.000431,0.002586
67525000,0.0324,0.013523,0.002678,0.000431,0.001880
67526000,0.0324,0.013523,0.002678,0.000431,0.002116
67527000,0.0324,0.013523,0.002678,0.000431,0.003643
67528000,0.0324,0.013523,0.002678,0.000431,0.001058
67529000,0.0324,0.013523,0.002678,0.000431,0.000823
67530000,0.0324,0.013523,0.002678,0.000431,0.000940
67531000,0.0324,0.013523,0.002678,0.000431,0.001058
67532000,0.0324,0.013523,0.002678,0.000431,0.000823
67533000,0.0324,0.013523,0.002678,0.000431,0.000940
67534000,0.0324,0.013523,0.002678,0.000431,0.000940
67535000,0.0324,0.013523,0.002678,0.000431,0.000940
67536000,0.0324,0.013523,0.002678,0.000431,0.000940
67537000,0.0324,0.013523,0.002678,0.000431,0.000940
67538000,0.0324,0.013523,0.002678,0.000431,0.000940
67539000,0.0324,0.013523,0.002678,0.000431,0.000940
67540000,0.0324,0.013523,0.002678,0.000431,0.000823
67541000,0.0324,0.013523,0.002678,0.000431,0.001058
67542000,0.0324,0.013523,0.002678,0.000431,0.000940
67543000,0.0324,0.013523,0.002678,0.000431,0.000823
67544000,0.0324,0.013523,0.002678,0.000431,0.001058
67545000,0.0324,0.013523,0.002678,0.000431,0.000823
67546000,0.0324,0.013523,0.002678,0.000431,0.001175
67547000,0.0324,0.013523,0.002678,0.000431,0.001058
67548000,0.0324,0.013523,0.002678,0.000431,0.000940
67549000,0.0324,0.013523,0.002678,0.000431,0.000940
67550000,0.0324,0.013523,0.002678,0.000431,0.000940
67551000,0.0324,0.013523,0.002678,0.000431,0.001058
67552000,0.0324,0.013523,0.002678,0.000431,0.001058
67553000,0.0324,0.013523,0.002678,0.000431,0.110476
67554000,0.0324,0.013523,0.002678,0.000431,0.840797
67555000,0.0324,0.013523,0.002678,0.000431,0.527466
67556000,0.0324,0.013523,0.002678,0.000431,0.135863
67557000,0.0324,0.013523,0.002678,0.000431,0.335660
67558000,0.0324,0.013523,0.002678,0.000431,0.412406
67559000,0.0324,0.013523,0.002678,0.000431,0.272078
67560000,0.0324,0.013523,0.002678,0.000431,0.265966
67561000,0.0324,0.013523,0.002678,0.000431,0.153844
67562000,0.0324,0.013523,0.002678,0.000431,0.118939
67563000,0.0324,0.013523,0.002678,0.000431,0.481043
67564000,0.0324,0.013523,0.002678,0.000431,0.369626
67565000,0.0324,0.013523,0.002678,0.000431,0.218485
67566000,0.0324,0.013523,0.002678,0.000431,0.187575
67567000,0.0324,0.013523,0.002678,0.000431,0.164657
67568000,0.0324,0.013523,0.002678,0.000431,0.129046
67569000,0.0324,0.013523,0.002678,0.000431,0.111887
67570000,0.0324,0.013523,0.002678,0.000431,0.104012
67571000,0.0324,0.013523,0.002678,0.000431,0.075453
67572000,0.0324,0.013523,0.002678,0.000431,0.073690
67573000,0.0324,0.013523,0.002678,0.000431,0.059822
67574000,0.0324,0.013523,0.002678,0.000431,0.050302
67575000,0.0324,0.013523,0.002678,0.000431,0.034788
67576000,0.0324,0.013523,0.002678,0.000431,0.031733
67577000,0.0324,0.013523,0.002678,0.000431,0.030205
67578000,0.0324,0.013523,0.002678,0.000431,0.029970
67579000,0.0324,0.013523,0.002678,0.000431,0.025739
67580000,0.0324,0.013523,0.002678,0.000431,0.017159
67581000,0.0324,0.013523,0.002678,0.000431,0.017159
67582000,0.0324,0.013523,0.002678,0.000431,0.019157
67583000,0.0324,0.013523,0.002678,0.000431,0.014691
67584000,0.0324,0.013523,0.002678,0.000431,0.012458
67585000,0.0324,0.013523,0.002678,0.000431,0.005289
67586000,0.0324,0.013523,0.002678,0.000431,0.007757
67587000,0.0324,0.013523,0.002678,0.000431,0.006347
67588000,0.0324,0.013523,0.002678,0.000431,0.002468
67589000,0.0324,0.013523,0.002678,0.000431,0.003173
67590000,0.0324,0.013523,0.002678,0.000431,0.002233
67591000,0.0324,0.013523,0.002678,0.000431,0.006229
67592000,0.0324,0.013523,0.002678,0.000431,0.004701
67593000,0.0324,0.013523,0.002678,0.000431,0.343065
67594000,0.0324,0.013523,0.002678,0.000431,0.782268
67595000,0.0324,0.013523,0.002678,0.000431,0.392897
67596000,0.0324,0.013523,0.002678,0.000431,0.139623
67597000,0.0324,0.013523,0.002678,0.000431,0.568954
67598000,0.0324,0.013523,0.002678,0.000431,0.293938
67599000,0.0324,0.013523,0.002678,0.000431,0.298051
67600000,0.0324,0.013523,0.002678,0.000431,0.178290
67601000,0.0324,0.013523,0.002678,0.000431,0.180288
67602000,0.0324,0.013523,0.002678,0.000431,0.127871
67603000,0.0324,0.013523,0.002678,0.000431,0.553323
67604000,0.0324,0.013523,0.002678,0.000431,0.270432
67605000,0.0324,0.013523,0.002678,0.000431,0.210493
67606000,0.0324,0.013523,0.002678,0.000431,0.190513
67607000,0.0324,0.013523,0.002678,0.000431,0.147615
67608000,0.0324,0.013523,0.002678,0.000431,0.119174
67609000,0.0324,0.013523,0.002678,0.000431,0.105423
67610000,0.0324,0.013523,0.002678,0.000431,0.088499
67611000,0.0324,0.013523,0.002678,0.000431,0.065581
67612000,0.0324,0.013523,0.002678,0.000431,0.058176
67613000,0.0324,0.013523,0.002678,0.000431,0.046894
67614000,0.0324,0.013523,0.002678,0.000431,0.048304
67615000,0.0324,0.013523,0.002678,0.000431,0.029265
67616000,0.0324,0.013523,0.002678,0.000431,0.027149
67617000,0.0324,0.013523,0.002678,0.000431,0.033496
67618000,0.0324,0.013523,0.002678,0.000431,0.019627
67619000,0.0324,0.013523,0.002678,0.000431,0.017394
67620000,0.0324,0.013523,0.002678,0.000431,0.010813
67621000,0.0324,0.013523,0.002678,0.000431,0.007522
67622000,0.0324,0.013523,0.002678,0.000431,0.011753
67623000,0.0324,0.013523,0.002678,0.000431,0.010225
67624000,0.0324,0.013523,0.002678,0.000431,0.003996
67625000,0.0324,0.013523,0.002678,0.000431,0.005524
67626000,0.0324,0.013523,0.002678,0.000431,0.008580
67627000,0.0324,0.013523,0.002678,0.000431,0.001763
67628000,0.0324,0.013523,0.002678,0.000431,0.002351
67629000,0.0324,0.013523,0.002678,0.000431,0.002116
67630000,0.0324,0.013523,0.002678,0.000431,0.002351
67631000,0.0324,0.013523,0.002678,0.000431,0.002233
67632000,0.0324,0.013523,0.002678,0.000431,0.002468
67633000,0.0324,0.013523,0.002678,0.000431,0.002821
67634000,0.0324,0.013523,0.002678,0.000431,0.001528
67635000,0.0324,0.013523,0.002678,0.000431,0.001880
67636000,0.0324,0.013523,0.002678,0.000431,0.001528
67637000,0.0324,0.013523,0.002678,0.000431,0.001763
67638000,0.0324,0.013523,0.002678,0.000431,0.001763
67639000,0.0324,0.013523,0.002678,0.000431,0.001645
67640000,0.0324,0.013523,0.002678,0.000431,0.001763
67641000,0.0324,0.013523,0.002678,0.000431,0.001645
67642000,0.0324,0.013523,0.002678,0.000431,0.001880
67643000,0.0324,0.013523,0.002678,0.000431,0.001763
67644000,0.0324,0.013523,0.002678,0.000431,0.001528
67645000,0.0324,0.013523,0.002678,0.000431,0.001880
67646000,0.0324,0.013523,0.002678,0.000431,0.001880
67647000,0.0324,0.013523,0.002678,0.000431,0.001880
67648000,0.0324,0.013523,0.002678,0.000431,0.001880
67649000,0.0324,0.013523,0.002678,0.000431,0.003291
67650000,0.0324,0.013523,0.002678,0.000431,0.002703
67651000,0.0324,0.013523,0.002678,0.000431,0.074748
67652000,0.0324,0.013523,0.002678,0.000431,0.802835
67653000,0.0324,0.013523,0.002678,0.000431,0.556731
67654000,0.0324,0.013523,0.002678,0.000431,0.141739
67655000,0.0324,0.013523,0.002678,0.000431,0.224596
67656000,0.0324,0.013523,0.002678,0.000431,0.576828
67657000,0.0324,0.013523,0.002678,0.000431,0.283478
67658000,0.0324,0.013523,0.002678,0.000431,0.267847
67659000,0.0324,0.013523,0.002678,0.000431,0.148556
67660000,0.0324,0.013523,0.002678,0.000431,0.138331
67661000,0.0324,0.013523,0.002678,0.000431,0.245516
67662000,0.0324,0.013523,0.002678,0.000431,0.590697
67663000,0.0324,0.013523,0.002678,0.000431,0.236232
67664000,0.0324,0.013523,0.002678,0.000431,0.205909
67665000,0.0324,0.013523,0.002678,0.000431,0.169241
67666000,0.0324,0.013523,0.002678,0.000431,0.169123
67667000,0.0324,0.013523,0.002678,0.000431,0.104953
67668000,0.0324,0.013523,0.002678,0.000431,0.089909
67669000,0.0324,0.013523,0.002678,0.000431,0.077921
67670000,0.0324,0.013523,0.002678,0.000431,0.069812
67671000,0.0324,0.013523,0.002678,0.000431,0.044426
67672000,0.0324,0.013523,0.002678,0.000431,0.027972
67673000,0.0324,0.013523,0.002678,0.000431,0.025856
67674000,0.0324,0.013523,0.002678,0.000431,0.025856
67675000,0.0324,0.013523,0.002678,0.000431,0.010460
67676000,0.0324,0.013523,0.002678,0.000431,0.011870
67677000,0.0324,0.013523,0.002678,0.000431,0.009402
67678000,0.0324,0.013523,0.002678,0.000431,0.006582
67679000,0.0324,0.013523,0.002678,0.000431,0.004819
67680000,0.0324,0.013523,0.002678,0.000431,0.003643
67681000,0.0324,0.013523,0.002678,0.000431,0.003291
67682000,0.0324,0.013523,0.002678,0.000431,0.003526
67683000,0.0324,0.013523,0.002678,0.000431,0.005876
67684000,0.0324,0.013523,0.002678,0.000431,0.002468
67685000,0.0324,0.013523,0.002678,0.000431,0.002703
67686000,0.0324,0.013523,0.002678,0.000431,0.002468
67687000,0.0324,0.013523,0.002678,0.000431,0.002586
67688000,0.0324,0.013523,0.002678,0.000431,0.002586
67689000,0.0324,0.013523,0.002678,0.000431,0.002468
67690000,0.0324,0.013523,0.002678,0.000431,0.002586
67691000,0.0324,0.013523,0.002678,0.000431,0.002586
67692000,0.0324,0.013523,0.002678,0.000431,0.002703
67693000,0.0324,0.013523,0.002678,0.000431,0.003408
67694000,0.0324,0.013523,0.002678,0.000431,0.002703
67695000,0.0324,0.013523,0.002678,0.000431,0.001998
67696000,0.0324,0.013523,0.002678,0.000431,0.003761
67697000,0.0324,0.013523,0.002678,0.000431,0.000940
67698000,0.0324,0.013523,0.002678,0.000431,0.000823
67699000,0.0324,0.013523,0.002678,0.000431,0.000940
67700000,0.0324,0.013523,0.002678,0.000431,0.000823
67701000,0.0324,0.013523,0.002678,0.000431,0.000940
67702000,0.0324,0.013523,0.002678,0.000431,0.000823
67703000,0.0324,0.013523,0.002678,0.000431,0.000940
67704000,0.0324,0.013523,0.002678,0.000431,0.001058
67705000,0.0324,0.013523,0.002678,0.000431,0.000940
67706000,0.0324,0.013523,0.002678,0.000431,0.000823
67707000,0.0324,0.013523,0.002678,0.000431,0.000823
67708000,0.0324,0.013523,0.002678,0.000431,0.243989
67709000,0.0324,0.013523,0.002678,0.000431,0.774628
67710000,0.0324,0.013523,0.002678,0.000431,0.456597
67711000,0.0324,0.013523,0.002678,0.000431,0.197682
67712000,0.0324,0.013523,0.002678,0.000431,0.470818
67713000,0.0324,0.013523,0.002678,0.000431,0.315798
67714000,0.0324,0.013523,0.002678,0.000431,0.367981
67715000,0.0324,0.013523,0.002678,0.000431,0.207907
67716000,0.0324,0.013523,0.002678,0.000431,0.140211
67717000,0.0324,0.013523,0.002678,0.000431,0.242813
67718000,0.0324,0.013523,0.002678,0.000431,0.516771
67719000,0.0324,0.013523,0.002678,0.000431,0.201796
67720000,0.0324,0.013523,0.002678,0.000431,0.200856
67721000,0.0324,0.013523,0.002678,0.000431,0.163717
67722000,0.0324,0.013523,0.002678,0.000431,0.135040
67723000,0.0324,0.013523,0.002678,0.000431,0.127283
67724000,0.0324,0.013523,0.002678,0.000431,0.088381
67725000,0.0324,0.013523,0.002678,0.000431,0.065816
67726000,0.0324,0.013523,0.002678,0.000431,0.067344
67727000,0.0324,0.013523,0.002678,0.000431,0.061350
67728000,0.0324,0.013523,0.002678,0.000431,0.037727
67729000,0.0324,0.013523,0.002678,0.000431,0.032203
67730000,0.0324,0.013523,0.002678,0.000431,0.029500
67731000,0.0324,0.013523,0.002678,0.000431,0.033496
67732000,0.0324,0.013523,0.002678,0.000431,0.026091
67733000,0.0324,0.013523,0.002678,0.000431,0.016101
67734000,0.0324,0.013523,0.002678,0.000431,0.013633
67735000,0.0324,0.013523,0.002678,0.000431,0.008227
67736000,0.0324,0.013523,0.002678,0.000431,0.005289
67737000,0.0324,0.013523,0.002678,0.000431,0.005289
67738000,0.0324,0.013523,0.002678,0.000431,0.004819
67739000,0.0324,0.013523,0.002678,0.000431,0.005406
67740000,0.0324,0.013523,0.002678,0.000431,0.006934
67741000,0.0324,0.013523,0.002678,0.000431,0.004349
67742000,0.0324,0.013523,0.002678,0.000431,0.004113
67743000,0.0324,0.013523,0.002678,0.000431,0.004113
67744000,0.0324,0.013523,0.002678,0.000431,0.004466
67745000,0.0324,0.013523,0.002678,0.000431,0.003996
67746000,0.0324,0.013523,0.002678,0.000431,0.003878
67747000,0.0324,0.013523,0.002678,0.000431,0.004349
67748000,0.0324,0.013523,0.002678,0.000431,0.004113
67749000,0.0324,0.013523,0.002678,0.000431,0.006582
67750000,0.0324,0.013523,0.002678,0.000431,0.003526
67751000,0.0324,0.013523,0.002678,0.000431,0.007169
67752000,0.0324,0.013523,0.002678,0.000431,0.001763
67753000,0.0324,0.013523,0.002678,0.000431,0.001645
67754000,0.0324,0.013523,0.002678,0.000431,0.001410
67755000,0.0324,0.013523,0.002678,0.000431,0.001880
67756000,0.0324,0.013523,0.002678,0.000431,0.001410
67757000,0.0324,0.013523,0.002678,0.000431,0.001645
67758000,0.0324,0.013523,0.002678,0.000431,0.001293
67759000,0.0324,0.013523,0.002678,0.000431,0.001763
67760000,0.0324,0.013523,0.002678,0.000431,0.001880
67761000,0.0324,0.013523,0.002678,0.000431,0.001175
67762000,0.0324,0.013523,0.002678,0.000431,0.001880
67763000,0.0324,0.013523,0.002678,0.000431,0.001293
67764000,0.0324,0.013523,0.002678,0.000431,0.001763
67765000,0.0324,0.013523,0.002678,0.000431,0.001645
67766000,0.0324,0.013523,0.002678,0.000431,0.001410
67767000,0.0324,0.013523,0.002678,0.000431,0.001880
67768000,0.0324,0.013523,0.002678,0.000431,0.001293
67769000,0.0324,0.013523,0.002678,0.000431,0.001763
67770000,0.0324,0.013523,0.002678,0.000431,0.001645
67771000,0.0324,0.013523,0.002678,0.000431,0.001410
67772000,0.0324,0.013523,0.002678,0.000431,0.001645
67773000,0.0324,0.013523,0.002678,0.000431,0.001528
67774000,0.0324,0.013523,0.002678,0.000431,0.001528
67775000,0.0324,0.013523,0.002678,0.000431,0.001645
67776000,0.0324,0.013523,0.002678,0.000431,0.001645
67777000,0.0324,0.013523,0.002678,0.000431,0.001410
67778000,0.0324,0.013523,0.002678,0.000431,0.001645
67779000,0.0324,0.013523,0.002678,0.000431,0.001645
67780000,0.0324,0.013523,0.002678,0.000431,0.001645
67781000,0.0324,0.013523,0.002678,0.000431,0.001410
67782000,0.0324,0.013523,0.002678,0.000431,0.001645
67783000,0.0324,0.013523,0.002678,0.000431,0.001410
67784000,0.0324,0.013523,0.002678,0.000431,0.001645
67785000,0.0324,0.013523,0.002678,0.000431,0.001880
67786000,0.0324,0.013523,0.002678,0.000431,0.001175
67787000,0.0324,0.013523,0.002678,0.000431,0.001880
67788000,0.0324,0.013523,0.002678,0.000431,0.001763
67789000,0.0324,0.013523,0.002678,0.000431,0.001528
67790000,0.0324,0.013523,0.002678,0.000431,0.001528
67791000,0.0324,0.013523,0.002678,0.000431,0.001528
67792000,0.0324,0.013523,0.002678,0.000431,0.001645
67793000,0.0324,0.013523,0.002678,0.000431,0.272665
67794000,0.0324,0.013523,0.002678,0.000431,0.766284
67795000,0.0324,0.013523,0.002678,0.000431,0.403474
67796000,0.0324,0.013523,0.002678,0.000431,0.141974
67797000,0.0324,0.013523,0.002678,0.000431,0.501493
67798000,0.0324,0.013523,0.002678,0.000431,0.332605
67799000,0.0324,0.013523,0.002678,0.000431,0.267377
67800000,0.0324,0.013523,0.002678,0.000431,0.234469
67801000,0.0324,0.013523,0.002678,0.000431,0.164539
67802000,0.0324,0.013523,0.002678,0.000431,0.109066
67803000,0.0324,0.013523,0.002678,0.000431,0.534166
67804000,0.0324,0.013523,0.002678,0.000431,0.289119
67805000,0.0324,0.013523,0.002678,0.000431,0.207320
67806000,0.0324,0.013523,0.002678,0.000431,0.177350
67807000,0.0324,0.013523,0.002678,0.000431,0.173472
67808000,0.0324,0.013523,0.002678,0.000431,0.122699
67809000,0.0324,0.013523,0.002678,0.000431,0.095903
67810000,0.0324,0.013523,0.002678,0.000431,0.082270
67811000,0.0324,0.013523,0.002678,0.000431,0.070987
67812000,0.0324,0.013523,0.002678,0.000431,0.048422
67813000,0.0324,0.013523,0.002678,0.000431,0.031498
67814000,0.0324,0.013523,0.002678,0.000431,0.042898
67815000,0.0324,0.013523,0.002678,0.000431,0.018099
67816000,0.0324,0.013523,0.002678,0.000431,0.011165
67817000,0.0324,0.013523,0.002678,0.000431,0.009755
67818000,0.0324,0.013523,0.002678,0.000431,0.015396
67819000,0.0324,0.013523,0.002678,0.000431,0.008580
67820000,0.0324,0.013523,0.002678,0.000431,0.011518
67821000,0.0324,0.013523,0.002678,0.000431,0.003761
67822000,0.0324,0.013523,0.002678,0.000431,0.004231
67823000,0.0324,0.013523,0.002678,0.000431,0.003996
67824000,0.0324,0.013523,0.002678,0.000431,0.006934
67825000,0.0324,0.013523,0.002678,0.000431,0.003408
67826000,0.0324,0.013523,0.002678,0.000431,0.003056
67827000,0.0324,0.013523,0.002678,0.000431,0.005171
67828000,0.0324,0.013523,0.002678,0.000431,0.002233
67829000,0.0324,0.013523,0.002678,0.000431,0.002468
67830000,0.0324,0.013523,0.002678,0.000431,0.002116
67831000,0.0324,0.013523,0.002678,0.000431,0.002586
67832000,0.0324,0.013523,0.002678,0.000431,0.002586
67833000,0.0324,0.013523,0.002678,0.000431,0.002116
67834000,0.0324,0.013523,0.002678,0.000431,0.002586
67835000,0.0324,0.013523,0.002678,0.000431,0.002351
67836000,0.0324,0.013523,0.002678,0.000431,0.002468
67837000,0.0324,0.013523,0.002678,0.000431,0.002351
67838000,0.0324,0.013523,0.002678,0.000431,0.002233
67839000,0.0324,0.013523,0.002678,0.000431,0.002821
67840000,0.0324,0.013523,0.002678,0.000431,0.002351
67841000,0.0324,0.013523,0.002678,0.000431,0.002586
67842000,0.0324,0.013523,0.002678,0.000431,0.002468
67843000,0.0324,0.013523,0.002678,0.000431,0.002703
67844000,0.0324,0.013523,0.002678,0.000431,0.002233
67845000,0.0324,0.013523,0.002678,0.000431,0.002703
67846000,0.0324,0.013523,0.002678,0.000431,0.002586
67847000,0.0324,0.013523,0.002678,0.000431,0.002351
67848000,0.0324,0.013523,0.002678,0.000431,0.002821
67849000,0.0324,0.013523,0.002678,0.000431,0.002116
67850000,0.0324,0.013523,0.002678,0.000431,0.002821
67851000,0.0324,0.013523,0.002678,0.000431,0.001998
67852000,0.0324,0.013523,0.002678,0.000431,0.002468
67853000,0.0324,0.013523,0.002678,0.000431,0.001880
67854000,0.0324,0.013523,0.002678,0.000431,0.002586
67855000,0.0324,0.013523,0.002678,0.000431,0.002821
67856000,0.0324,0.013523,0.002678,0.000431,0.001645
67857000,0.0324,0.013523,0.002678,0.000431,0.002821
67858000,0.0324,0.013523,0.002678,0.000431,0.001880
67859000,0.0324,0.013523,0.002678,0.000431,0.002586
67860000,0.0324,0.013523,0.002678,0.000431,0.002468
67861000,0.0324,0.013523,0.002678,0.000431,0.001998
67862000,0.0324,0.013523,0.002678,0.000431,0.002821
67863000,0.0324,0.013523,0.002678,0.000431,0.001880
67864000,0.0324,0.013523,0.002678,0.000431,0.002586
67865000,0.0324,0.013523,0.002678,0.000431,0.002233
67866000,0.0324,0.013523,0.002678,0.000431,0.005054
67867000,0.0324,0.013523,0.002678,0.000431,0.000940
67868000,0.0324,0.013523,0.002678,0.000431,0.000823
67869000,0.0324,0.013523,0.002678,0.000431,0.000823
67870000,0.0324,0.013523,0.002678,0.000431,0.000940
67871000,0.0324,0.013523,0.002678,0.000431,0.000940
67872000,0.0324,0.013523,0.002678,0.000431,0.000823
67873000,0.0324,0.013523,0.002678,0.000431,0.000823
67874000,0.0324,0.013523,0.002678,0.000431,0.000940
67875000,0.0324,0.013523,0.002678,0.000431,0.000823
67876000,0.0324,0.013523,0.002678,0.000431,0.000940
67877000,0.0324,0.013523,0.002678,0.000431,0.000823
67878000,0.0324,0.013523,0.002678,0.000431,0.000940
67879000,0.0324,0.013523,0.002678,0.000431,0.000823
67880000,0.0324,0.013523,0.002678,0.000431,0.000823
67881000,0.0324,0.013523,0.002678,0.000431,0.000940
67882000,0.0324,0.013523,0.002678,0.000431,0.000940
67883000,0.0324,0.013523,0.002678,0.000431,0.000823
67884000,0.0324,0.013523,0.002678,0.000431,0.000823
67885000,0.0324,0.013523,0.002678,0.000431,0.000940
67886000,0.0324,0.013523,0.002678,0.000431,0.000940
67887000,0.0324,0.013523,0.002678,0.000431,0.000705
67888000,0.0324,0.013523,0.002678,0.000431,0.000940
67889000,0.0324,0.013523,0.002678,0.000431,0.000940
67890000,0.0324,0.013523,0.002678,0.000431,0.000823
67891000,0.0324,0.013523,0.002678,0.000431,0.000823
67892000,0.0324,0.013523,0.002678,0.000431,0.000940
67893000,0.0324,0.013523,0.002678,0.000431,0.218955
67894000,0.0324,0.013523,0.002678,0.000431,0.756646
67895000,0.0324,0.013523,0.002678,0.000431,0.478810
67896000,0.0324,0.013523,0.002678,0.000431,0.149026
67897000,0.0324,0.013523,0.002678,0.000431,0.414169
67898000,0.0324,0.013523,0.002678,0.000431,0.345768
67899000,0.0324,0.013523,0.002678,0.000431,0.291705
67900000,0.0324,0.013523,0.002678,0.000431,0.267494
67901000,0.0324,0.013523,0.002678,0.000431,0.168183
67902000,0.0324,0.013523,0.002678,0.000431,0.108008
67903000,0.0324,0.013523,0.002678,0.000431,0.501845
67904000,0.0324,0.013523,0.002678,0.000431,0.297816
67905000,0.0324,0.013523,0.002678,0.000431,0.184637
67906000,0.0324,0.013523,0.002678,0.000431,0.168183
67907000,0.0324,0.013523,0.002678,0.000431,0.145735
67908000,0.0324,0.013523,0.002678,0.000431,0.120114
67909000,0.0324,0.013523,0.002678,0.000431,0.093200
67910000,0.0324,0.013523,0.002678,0.000431,0.087558
67911000,0.0324,0.013523,0.002678,0.000431,0.076393
67912000,0.0324,0.013523,0.002678,0.000431,0.056531
67913000,0.0324,0.013523,0.002678,0.000431,0.064405
67914000,0.0324,0.013523,0.002678,0.000431,0.038432
67915000,0.0324,0.013523,0.002678,0.000431,0.039607
67916000,0.0324,0.013523,0.002678,0.000431,0.026914
67917000,0.0324,0.013523,0.002678,0.000431,0.019862
67918000,0.0324,0.013523,0.002678,0.000431,0.021625
67919000,0.0324,0.013523,0.002678,0.000431,0.015279
67920000,0.0324,0.013523,0.002678,0.000431,0.007169
67921000,0.0324,0.013523,0.002678,0.000431,0.004584
67922000,0.0324,0.013523,0.002678,0.000431,0.002233
67923000,0.0324,0.013523,0.002678,0.000431,0.001763
67924000,0.0324,0.013523,0.002678,0.000431,0.002938
67925000,0.0324,0.013523,0.002678,0.000431,0.002233
67926000,0.0324,0.013523,0.002678,0.000431,0.258915
67927000,0.0324,0.013523,0.002678,0.000431,0.721858
67928000,0.0324,0.013523,0.002678,0.000431,0.438380
67929000,0.0324,0.013523,0.002678,0.000431,0.139388
67930000,0.0324,0.013523,0.002678,0.000431,0.469173
67931000,0.0324,0.013523,0.002678,0.000431,0.294291
67932000,0.0324,0.013523,0.002678,0.000431,0.261618
67933000,0.0324,0.013523,0.002678,0.000431,0.243989
67934000,0.0324,0.013523,0.002678,0.000431,0.157488
67935000,0.0324,0.013523,0.002678,0.000431,0.121524
67936000,0.0324,0.013523,0.002678,0.000431,0.475637
67937000,0.0324,0.013523,0.002678,0.000431,0.327904
67938000,0.0324,0.013523,0.002678,0.000431,0.207202
67939000,0.0324,0.013523,0.002678,0.000431,0.183461
67940000,0.0324,0.013523,0.002678,0.000431,0.161131
67941000,0.0324,0.013523,0.002678,0.000431,0.125050
67942000,0.0324,0.013523,0.002678,0.000431,0.117176
67943000,0.0324,0.013523,0.002678,0.000431,0.087676
67944000,0.0324,0.013523,0.002678,0.000431,0.081212
67945000,0.0324,0.013523,0.002678,0.000431,0.053123
67946000,0.0324,0.013523,0.002678,0.000431,0.038197
67947000,0.0324,0.013523,0.002678,0.000431,0.029735
67948000,0.0324,0.013523,0.002678,0.000431,0.024211
67949000,0.0324,0.013523,0.002678,0.000431,0.022330
67950000,0.0324,0.013523,0.002678,0.000431,0.014103
67951000,0.0324,0.013523,0.002678,0.000431,0.018569
67952000,0.0324,0.013523,0.002678,0.000431,0.021743
67953000,0.0324,0.013523,0.002678,0.000431,0.013986
67954000,0.0324,0.013523,0.002678,0.000431,0.007287
67955000,0.0324,0.013523,0.002678,0.000431,0.007404
67956000,0.0324,0.013523,0.002678,0.000431,0.007757
67957000,0.0324,0.013523,0.002678,0.000431,0.007639
67958000,0.0324,0.013523,0.002678,0.000431,0.007522
67959000,0.0324,0.013523,0.002678,0.000431,0.010578
67960000,0.0324,0.013523,0.002678,0.000431,0.008697
67961000,0.0324,0.013523,0.002678,0.000431,0.004936
67962000,0.0324,0.013523,0.002678,0.000431,0.004113
67963000,0.0324,0.013523,0.002678,0.000431,0.006934
67964000,0.0324,0.013523,0.002678,0.000431,0.003761
67965000,0.0324,0.013523,0.002678,0.000431,0.002938
67966000,0.0324,0.013523,0.002678,0.000431,0.001763
67967000,0.0324,0.013523,0.002678,0.000431,0.001880
67968000,0.0324,0.013523,0.002678,0.000431,0.005054
67969000,0.0324,0.013523,0.002678,0.000431,0.000705
67970000,0.0324,0.013523,0.002678,0.000431,0.000940
67971000,0.0324,0.013523,0.002678,0.000431,0.000940
67972000,0.0324,0.013523,0.002678,0.000431,0.000823
67973000,0.0324,0.013523,0.002678,0.000431,0.000823
67974000,0.0324,0.013523,0.002678,0.000431,0.000940
67975000,0.0324,0.013523,0.002678,0.000431,0.000940
67976000,0.0324,0.013523,0.002678,0.000431,0.000940
67977000,0.0324,0.013523,0.002678,0.000431,0.000823
67978000,0.0324,0.013523,0.002678,0.000431,0.000823
67979000,0.0324,0.013523,0.002678,0.000431,0.000940
67980000,0.0324,0.013523,0.002678,0.000431,0.002116
67981000,0.0324,0.013523,0.002678,0.000431,0.430153
67982000,0.0324,0.013523,0.002678,0.000431,0.786616
67983000,0.0324,0.013523,0.002678,0.000431,0.243636
67984000,0.0324,0.013523,0.002678,0.000431,0.136333
67985000,0.0324,0.013523,0.002678,0.000431,0.493618
67986000,0.0324,0.013523,0.002678,0.000431,0.241991
67987000,0.0324,0.013523,0.002678,0.000431,0.329079
67988000,0.0324,0.013523,0.002678,0.000431,0.237995
67989000,0.0324,0.013523,0.002678,0.000431,0.157723
67990000,0.0324,0.013523,0.002678,0.000431,0.112004
67991000,0.0324,0.013523,0.002678,0.000431,0.490563
67992000,0.0324,0.013523,0.002678,0.000431,0.332605
67993000,0.0324,0.013523,0.002678,0.000431,0.207437
67994000,0.0324,0.013523,0.002678,0.000431,0.157958
67995000,0.0324,0.013523,0.002678,0.000431,0.144325
67996000,0.0324,0.013523,0.002678,0.000431,0.119291
67997000,0.0324,0.013523,0.002678,0.000431,0.098959
67998000,0.0324,0.013523,0.002678,0.000431,0.078509
67999000,0.0324,0.013523,0.002678,0.000431,0.069342
