Cycle,Area(mm^2),PeakDynamic(W),SubthresholdLeakage(W),GateLeakage(W),RunTimeDynamic(W)
112000000,0.0324,0.013523,0.002678,0.000431,0.001645
112001000,0.0324,0.013523,0.002678,0.000431,0.001880
112002000,0.0324,0.013523,0.002678,0.000431,0.001528
112003000,0.0324,0.013523,0.002678,0.000431,0.001880
112004000,0.0324,0.013523,0.002678,0.000431,0.001645
112005000,0.0324,0.013523,0.002678,0.000431,0.001410
112006000,0.0324,0.013523,0.002678,0.000431,0.001880
112007000,0.0324,0.013523,0.002678,0.000431,0.001645
112008000,0.0324,0.013523,0.002678,0.000431,0.001645
112009000,0.0324,0.013523,0.002678,0.000431,0.001645
112010000,0.0324,0.013523,0.002678,0.000431,0.017629
112011000,0.0324,0.013523,0.002678,0.000431,0.621724
112012000,0.0324,0.013523,0.002678,0.000431,0.619256
112013000,0.0324,0.013523,0.002678,0.000431,0.178408
112014000,0.0324,0.013523,0.002678,0.000431,0.137743
112015000,0.0324,0.013523,0.002678,0.000431,0.543920
112016000,0.0324,0.013523,0.002678,0.000431,0.265026
112017000,0.0324,0.013523,0.002678,0.000431,0.243401
112018000,0.0324,0.013523,0.002678,0.000431,0.326023
112019000,0.0324,0.013523,0.002678,0.000431,0.151024
112020000,0.0324,0.013523,0.002678,0.000431,0.186400
112021000,0.0324,0.013523,0.002678,0.000431,0.083563
112022000,0.0324,0.013523,0.002678,0.000431,0.532285
112023000,0.0324,0.013523,0.002678,0.000431,0.274546
112024000,0.0324,0.013523,0.002678,0.000431,0.203911
112025000,0.0324,0.013523,0.002678,0.000431,0.172296
112026000,0.0324,0.013523,0.002678,0.000431,0.161131
112027000,0.0324,0.013523,0.002678,0.000431,0.142209
112028000,0.0324,0.013523,0.002678,0.000431,0.119526
112029000,0.0324,0.013523,0.002678,0.000431,0.098371
112030000,0.0324,0.013523,0.002678,0.000431,0.084973
112031000,0.0324,0.013523,0.002678,0.000431,0.083915
112032000,0.0324,0.013523,0.002678,0.000431,0.091437
112033000,0.0324,0.013523,0.002678,0.000431,0.078156
112034000,0.0324,0.013523,0.002678,0.000431,0.072867
112035000,0.0324,0.013523,0.002678,0.000431,0.047951
112036000,0.0324,0.013523,0.002678,0.000431,0.047129
112037000,0.0324,0.013523,0.002678,0.000431,0.042193
112038000,0.0324,0.013523,0.002678,0.000431,0.035611
112039000,0.0324,0.013523,0.002678,0.000431,0.032673
112040000,0.0324,0.013523,0.002678,0.000431,0.031968
112041000,0.0324,0.013523,0.002678,0.000431,0.028794
112042000,0.0324,0.013523,0.002678,0.000431,0.025974
112043000,0.0324,0.013523,0.002678,0.000431,0.023623
112044000,0.0324,0.013523,0.002678,0.000431,0.020215
112045000,0.0324,0.013523,0.002678,0.000431,0.018452
112046000,0.0324,0.013523,0.002678,0.000431,0.016454
112047000,0.0324,0.013523,0.002678,0.000431,0.009520
112048000,0.0324,0.013523,0.002678,0.000431,0.012223
112049000,0.0324,0.013523,0.002678,0.000431,0.010695
112050000,0.0324,0.013523,0.002678,0.000431,0.006229
112051000,0.0324,0.013523,0.002678,0.000431,0.009402
112052000,0.0324,0.013523,0.002678,0.000431,0.005759
112053000,0.0324,0.013523,0.002678,0.000431,0.006699
112054000,0.0324,0.013523,0.002678,0.000431,0.007052
112055000,0.0324,0.013523,0.002678,0.000431,0.007169
112056000,0.0324,0.013523,0.002678,0.000431,0.002821
112057000,0.0324,0.013523,0.002678,0.000431,0.005994
112058000,0.0324,0.013523,0.002678,0.000431,0.003643
112059000,0.0324,0.013523,0.002678,0.000431,0.239405
112060000,0.0324,0.013523,0.002678,0.000431,0.655807
112061000,0.0324,0.013523,0.002678,0.000431,0.515126
112062000,0.0324,0.013523,0.002678,0.000431,0.140564
112063000,0.0324,0.013523,0.002678,0.000431,0.190513
112064000,0.0324,0.013523,0.002678,0.000431,0.624897
112065000,0.0324,0.013523,0.002678,0.000431,0.275839
112066000,0.0324,0.013523,0.002678,0.000431,0.278189
112067000,0.0324,0.013523,0.002678,0.000431,0.185342
112068000,0.0324,0.013523,0.002678,0.000431,0.149026
112069000,0.0324,0.013523,0.002678,0.000431,0.105893
112070000,0.0324,0.013523,0.002678,0.000431,0.401946
112071000,0.0324,0.013523,0.002678,0.000431,0.357873
112072000,0.0324,0.013523,0.002678,0.000431,0.196977
112073000,0.0324,0.013523,0.002678,0.000431,0.160896
112074000,0.0324,0.013523,0.002678,0.000431,0.153727
112075000,0.0324,0.013523,0.002678,0.000431,0.132689
112076000,0.0324,0.013523,0.002678,0.000431,0.102132
112077000,0.0324,0.013523,0.002678,0.000431,0.102132
112078000,0.0324,0.013523,0.002678,0.000431,0.088029
112079000,0.0324,0.013523,0.002678,0.000431,0.073925
112080000,0.0324,0.013523,0.002678,0.000431,0.061585
112081000,0.0324,0.013523,0.002678,0.000431,0.062172
112082000,0.0324,0.013523,0.002678,0.000431,0.058647
112083000,0.0324,0.013523,0.002678,0.000431,0.053358
112084000,0.0324,0.013523,0.002678,0.000431,0.036199
112085000,0.0324,0.013523,0.002678,0.000431,0.033260
112086000,0.0324,0.013523,0.002678,0.000431,0.034906
112087000,0.0324,0.013523,0.002678,0.000431,0.029500
112088000,0.0324,0.013523,0.002678,0.000431,0.020685
112089000,0.0324,0.013523,0.002678,0.000431,0.027972
112090000,0.0324,0.013523,0.002678,0.000431,0.024446
112091000,0.0324,0.013523,0.002678,0.000431,0.020215
112092000,0.0324,0.013523,0.002678,0.000431,0.015161
112093000,0.0324,0.013523,0.002678,0.000431,0.013516
112094000,0.0324,0.013523,0.002678,0.000431,0.016454
112095000,0.0324,0.013523,0.002678,0.000431,0.012223
112096000,0.0324,0.013523,0.002678,0.000431,0.010460
112097000,0.0324,0.013523,0.002678,0.000431,0.010225
112098000,0.0324,0.013523,0.002678,0.000431,0.011518
112099000,0.0324,0.013523,0.002678,0.000431,0.010107
112100000,0.0324,0.013523,0.002678,0.000431,0.009872
112101000,0.0324,0.013523,0.002678,0.000431,0.007404
112102000,0.0324,0.013523,0.002678,0.000431,0.012105
112103000,0.0324,0.013523,0.002678,0.000431,0.005289
112104000,0.0324,0.013523,0.002678,0.000431,0.005054
112105000,0.0324,0.013523,0.002678,0.000431,0.007287
112106000,0.0324,0.013523,0.002678,0.000431,0.004113
112107000,0.0324,0.013523,0.002678,0.000431,0.006582
112108000,0.0324,0.013523,0.002678,0.000431,0.006111
112109000,0.0324,0.013523,0.002678,0.000431,0.002468
112110000,0.0324,0.013523,0.002678,0.000431,0.002468
112111000,0.0324,0.013523,0.002678,0.000431,0.002233
112112000,0.0324,0.013523,0.002678,0.000431,0.002821
112113000,0.0324,0.013523,0.002678,0.000431,0.001998
112114000,0.0324,0.013523,0.002678,0.000431,0.002703
112115000,0.0324,0.013523,0.002678,0.000431,0.002233
112116000,0.0324,0.013523,0.002678,0.000431,0.002468
112117000,0.0324,0.013523,0.002678,0.000431,0.002586
112118000,0.0324,0.013523,0.002678,0.000431,0.002233
112119000,0.0324,0.013523,0.002678,0.000431,0.002703
112120000,0.0324,0.013523,0.002678,0.000431,0.002233
112121000,0.0324,0.013523,0.002678,0.000431,0.002233
112122000,0.0324,0.013523,0.002678,0.000431,0.001645
112123000,0.0324,0.013523,0.002678,0.000431,0.001763
112124000,0.0324,0.013523,0.002678,0.000431,0.001645
112125000,0.0324,0.013523,0.002678,0.000431,0.001645
112126000,0.0324,0.013523,0.002678,0.000431,0.001763
112127000,0.0324,0.013523,0.002678,0.000431,0.001645
112128000,0.0324,0.013523,0.002678,0.000431,0.001763
112129000,0.0324,0.013523,0.002678,0.000431,0.004819
112130000,0.0324,0.013523,0.002678,0.000431,0.000940
112131000,0.0324,0.013523,0.002678,0.000431,0.000823
112132000,0.0324,0.013523,0.002678,0.000431,0.000823
112133000,0.0324,0.013523,0.002678,0.000431,0.000940
112134000,0.0324,0.013523,0.002678,0.000431,0.231295
112135000,0.0324,0.013523,0.002678,0.000431,0.631714
112136000,0.0324,0.013523,0.002678,0.000431,0.509015
112137000,0.0324,0.013523,0.002678,0.000431,0.145735
112138000,0.0324,0.013523,0.002678,0.000431,0.162659
112139000,0.0324,0.013523,0.002678,0.000431,0.630421
112140000,0.0324,0.013523,0.002678,0.000431,0.252568
112141000,0.0324,0.013523,0.002678,0.000431,0.298287
112142000,0.0324,0.013523,0.002678,0.000431,0.203089
112143000,0.0324,0.013523,0.002678,0.000431,0.153609
112144000,0.0324,0.013523,0.002678,0.000431,0.110124
112145000,0.0324,0.013523,0.002678,0.000431,0.361987
112146000,0.0324,0.013523,0.002678,0.000431,0.393954
112147000,0.0324,0.013523,0.002678,0.000431,0.192746
112148000,0.0324,0.013523,0.002678,0.000431,0.168300
112149000,0.0324,0.013523,0.002678,0.000431,0.134805
112150000,0.0324,0.013523,0.002678,0.000431,0.124815
112151000,0.0324,0.013523,0.002678,0.000431,0.103190
112152000,0.0324,0.013523,0.002678,0.000431,0.095433
112153000,0.0324,0.013523,0.002678,0.000431,0.083445
112154000,0.0324,0.013523,0.002678,0.000431,0.078039
112155000,0.0324,0.013523,0.002678,0.000431,0.070399
112156000,0.0324,0.013523,0.002678,0.000431,0.058176
112157000,0.0324,0.013523,0.002678,0.000431,0.055826
112158000,0.0324,0.013523,0.002678,0.000431,0.043603
112159000,0.0324,0.013523,0.002678,0.000431,0.042545
112160000,0.0324,0.013523,0.002678,0.000431,0.034436
112161000,0.0324,0.013523,0.002678,0.000431,0.047246
112162000,0.0324,0.013523,0.002678,0.000431,0.038079
112163000,0.0324,0.013523,0.002678,0.000431,0.036434
112164000,0.0324,0.013523,0.002678,0.000431,0.024681
112165000,0.0324,0.013523,0.002678,0.000431,0.022918
112166000,0.0324,0.013523,0.002678,0.000431,0.023388
112167000,0.0324,0.013523,0.002678,0.000431,0.015749
112168000,0.0324,0.013523,0.002678,0.000431,0.013163
112169000,0.0324,0.013523,0.002678,0.000431,0.012928
112170000,0.0324,0.013523,0.002678,0.000431,0.013986
112171000,0.0324,0.013523,0.002678,0.000431,0.012458
112172000,0.0324,0.013523,0.002678,0.000431,0.012928
112173000,0.0324,0.013523,0.002678,0.000431,0.013398
112174000,0.0324,0.013523,0.002678,0.000431,0.012223
112175000,0.0324,0.013523,0.002678,0.000431,0.007169
112176000,0.0324,0.013523,0.002678,0.000431,0.011048
112177000,0.0324,0.013523,0.002678,0.000431,0.006699
112178000,0.0324,0.013523,0.002678,0.000431,0.004819
112179000,0.0324,0.013523,0.002678,0.000431,0.004819
112180000,0.0324,0.013523,0.002678,0.000431,0.003291
112181000,0.0324,0.013523,0.002678,0.000431,0.003408
112182000,0.0324,0.013523,0.002678,0.000431,0.003643
112183000,0.0324,0.013523,0.002678,0.000431,0.003408
112184000,0.0324,0.013523,0.002678,0.000431,0.005876
112185000,0.0324,0.013523,0.002678,0.000431,0.007639
112186000,0.0324,0.013523,0.002678,0.000431,0.000940
112187000,0.0324,0.013523,0.002678,0.000431,0.002821
112188000,0.0324,0.013523,0.002678,0.000431,0.531462
112189000,0.0324,0.013523,0.002678,0.000431,0.728792
112190000,0.0324,0.013523,0.002678,0.000431,0.178878
112191000,0.0324,0.013523,0.002678,0.000431,0.138683
112192000,0.0324,0.013523,0.002678,0.000431,0.345533
112193000,0.0324,0.013523,0.002678,0.000431,0.432151
112194000,0.0324,0.013523,0.002678,0.000431,0.248572
112195000,0.0324,0.013523,0.002678,0.000431,0.350587
112196000,0.0324,0.013523,0.002678,0.000431,0.143502
112197000,0.0324,0.013523,0.002678,0.000431,0.163129
112198000,0.0324,0.013523,0.002678,0.000431,0.106716
112199000,0.0324,0.013523,0.002678,0.000431,0.514421
112200000,0.0324,0.013523,0.002678,0.000431,0.341302
112201000,0.0324,0.013523,0.002678,0.000431,0.243048
112202000,0.0324,0.013523,0.002678,0.000431,0.206497
112203000,0.0324,0.013523,0.002678,0.000431,0.172414
112204000,0.0324,0.013523,0.002678,0.000431,0.165597
112205000,0.0324,0.013523,0.002678,0.000431,0.135275
112206000,0.0324,0.013523,0.002678,0.000431,0.130456
112207000,0.0324,0.013523,0.002678,0.000431,0.105658
112208000,0.0324,0.013523,0.002678,0.000431,0.100957
112209000,0.0324,0.013523,0.002678,0.000431,0.091437
112210000,0.0324,0.013523,0.002678,0.000431,0.074983
112211000,0.0324,0.013523,0.002678,0.000431,0.081565
112212000,0.0324,0.013523,0.002678,0.000431,0.065228
112213000,0.0324,0.013523,0.002678,0.000431,0.058882
112214000,0.0324,0.013523,0.002678,0.000431,0.060057
112215000,0.0324,0.013523,0.002678,0.000431,0.061350
112216000,0.0324,0.013523,0.002678,0.000431,0.055003
112217000,0.0324,0.013523,0.002678,0.000431,0.055356
112218000,0.0324,0.013523,0.002678,0.000431,0.046189
112219000,0.0324,0.013523,0.002678,0.000431,0.035611
112220000,0.0324,0.013523,0.002678,0.000431,0.036669
112221000,0.0324,0.013523,0.002678,0.000431,0.032438
112222000,0.0324,0.013523,0.002678,0.000431,0.040430
112223000,0.0324,0.013523,0.002678,0.000431,0.025974
112224000,0.0324,0.013523,0.002678,0.000431,0.030792
112225000,0.0324,0.013523,0.002678,0.000431,0.026091
112226000,0.0324,0.013523,0.002678,0.000431,0.021743
112227000,0.0324,0.013523,0.002678,0.000431,0.021978
112228000,0.0324,0.013523,0.002678,0.000431,0.017629
112229000,0.0324,0.013523,0.002678,0.000431,0.015984
112230000,0.0324,0.013523,0.002678,0.000431,0.018452
112231000,0.0324,0.013523,0.002678,0.000431,0.016454
112232000,0.0324,0.013523,0.002678,0.000431,0.014221
112233000,0.0324,0.013523,0.002678,0.000431,0.020567
112234000,0.0324,0.013523,0.002678,0.000431,0.011518
112235000,0.0324,0.013523,0.002678,0.000431,0.017629
112236000,0.0324,0.013523,0.002678,0.000431,0.010107
112237000,0.0324,0.013523,0.002678,0.000431,0.008815
112238000,0.0324,0.013523,0.002678,0.000431,0.008815
112239000,0.0324,0.013523,0.002678,0.000431,0.007874
112240000,0.0324,0.013523,0.002678,0.000431,0.008697
112241000,0.0324,0.013523,0.002678,0.000431,0.008815
112242000,0.0324,0.013523,0.002678,0.000431,0.007874
112243000,0.0324,0.013523,0.002678,0.000431,0.007287
112244000,0.0324,0.013523,0.002678,0.000431,0.007757
112245000,0.0324,0.013523,0.002678,0.000431,0.008109
112246000,0.0324,0.013523,0.002678,0.000431,0.007757
112247000,0.0324,0.013523,0.002678,0.000431,0.014573
112248000,0.0324,0.013523,0.002678,0.000431,0.006347
112249000,0.0324,0.013523,0.002678,0.000431,0.004231
112250000,0.0324,0.013523,0.002678,0.000431,0.003996
112251000,0.0324,0.013523,0.002678,0.000431,0.003643
112252000,0.0324,0.013523,0.002678,0.000431,0.003526
112253000,0.0324,0.013523,0.002678,0.000431,0.003526
112254000,0.0324,0.013523,0.002678,0.000431,0.002468
112255000,0.0324,0.013523,0.002678,0.000431,0.002703
112256000,0.0324,0.013523,0.002678,0.000431,0.002351
112257000,0.0324,0.013523,0.002678,0.000431,0.002703
112258000,0.0324,0.013523,0.002678,0.000431,0.002703
112259000,0.0324,0.013523,0.002678,0.000431,0.002351
112260000,0.0324,0.013523,0.002678,0.000431,0.002703
112261000,0.0324,0.013523,0.002678,0.000431,0.002468
112262000,0.0324,0.013523,0.002678,0.000431,0.002703
112263000,0.0324,0.013523,0.002678,0.000431,0.002468
112264000,0.0324,0.013523,0.002678,0.000431,0.002468
112265000,0.0324,0.013523,0.002678,0.000431,0.002703
112266000,0.0324,0.013523,0.002678,0.000431,0.002586
112267000,0.0324,0.013523,0.002678,0.000431,0.002468
112268000,0.0324,0.013523,0.002678,0.000431,0.002586
112269000,0.0324,0.013523,0.002678,0.000431,0.003878
112270000,0.0324,0.013523,0.002678,0.000431,0.001645
112271000,0.0324,0.013523,0.002678,0.000431,0.001880
112272000,0.0324,0.013523,0.002678,0.000431,0.001763
112273000,0.0324,0.013523,0.002678,0.000431,0.001763
112274000,0.0324,0.013523,0.002678,0.000431,0.001528
112275000,0.0324,0.013523,0.002678,0.000431,0.001763
112276000,0.0324,0.013523,0.002678,0.000431,0.001763
112277000,0.0324,0.013523,0.002678,0.000431,0.001763
112278000,0.0324,0.013523,0.002678,0.000431,0.001645
112279000,0.0324,0.013523,0.002678,0.000431,0.001763
112280000,0.0324,0.013523,0.002678,0.000431,0.001763
112281000,0.0324,0.013523,0.002678,0.000431,0.003408
112282000,0.0324,0.013523,0.002678,0.000431,0.000940
112283000,0.0324,0.013523,0.002678,0.000431,0.000940
112284000,0.0324,0.013523,0.002678,0.000431,0.000705
112285000,0.0324,0.013523,0.002678,0.000431,0.000940
112286000,0.0324,0.013523,0.002678,0.000431,0.000705
112287000,0.0324,0.013523,0.002678,0.000431,0.000940
112288000,0.0324,0.013523,0.002678,0.000431,0.000823
112289000,0.0324,0.013523,0.002678,0.000431,0.000823
112290000,0.0324,0.013523,0.002678,0.000431,0.000823
112291000,0.0324,0.013523,0.002678,0.000431,0.000823
112292000,0.0324,0.013523,0.002678,0.000431,0.000823
112293000,0.0324,0.013523,0.002678,0.000431,0.000823
112294000,0.0324,0.013523,0.002678,0.000431,0.000823
112295000,0.0324,0.013523,0.002678,0.000431,0.000823
112296000,0.0324,0.013523,0.002678,0.000431,0.000823
112297000,0.0324,0.013523,0.002678,0.000431,0.000940
112298000,0.0324,0.013523,0.002678,0.000431,0.000823
112299000,0.0324,0.013523,0.002678,0.000431,0.000823
112300000,0.0324,0.013523,0.002678,0.000431,0.000823
112301000,0.0324,0.013523,0.002678,0.000431,0.000705
112302000,0.0324,0.013523,0.002678,0.000431,0.000940
112303000,0.0324,0.013523,0.002678,0.000431,0.000940
112304000,0.0324,0.013523,0.002678,0.000431,0.000705
112305000,0.0324,0.013523,0.002678,0.000431,0.000940
112306000,0.0324,0.013523,0.002678,0.000431,0.000705
112307000,0.0324,0.013523,0.002678,0.000431,0.000940
112308000,0.0324,0.013523,0.002678,0.000431,0.000823
112309000,0.0324,0.013523,0.002678,0.000431,0.073103
112310000,0.0324,0.013523,0.002678,0.000431,0.768517
112311000,0.0324,0.013523,0.002678,0.000431,0.552147
112312000,0.0324,0.013523,0.002678,0.000431,0.196155
112313000,0.0324,0.013523,0.002678,0.000431,0.181699
112314000,0.0324,0.013523,0.002678,0.000431,0.597278
112315000,0.0324,0.013523,0.002678,0.000431,0.251863
112316000,0.0324,0.013523,0.002678,0.000431,0.373387
112317000,0.0324,0.013523,0.002678,0.000431,0.198858
112318000,0.0324,0.013523,0.002678,0.000431,0.176292
112319000,0.0324,0.013523,0.002678,0.000431,0.089792
112320000,0.0324,0.013523,0.002678,0.000431,0.515244
112321000,0.0324,0.013523,0.002678,0.000431,0.254449
112322000,0.0324,0.013523,0.002678,0.000431,0.187457
112323000,0.0324,0.013523,0.002678,0.000431,0.186517
112324000,0.0324,0.013523,0.002678,0.000431,0.151259
112325000,0.0324,0.013523,0.002678,0.000431,0.139271
112326000,0.0324,0.013523,0.002678,0.000431,0.127753
112327000,0.0324,0.013523,0.002678,0.000431,0.111534
112328000,0.0324,0.013523,0.002678,0.000431,0.105305
112329000,0.0324,0.013523,0.002678,0.000431,0.090379
112330000,0.0324,0.013523,0.002678,0.000431,0.096491
112331000,0.0324,0.013523,0.002678,0.000431,0.084150
112332000,0.0324,0.013523,0.002678,0.000431,0.064288
112333000,0.0324,0.013523,0.002678,0.000431,0.063230
112334000,0.0324,0.013523,0.002678,0.000431,0.063818
112335000,0.0324,0.013523,0.002678,0.000431,0.047481
112336000,0.0324,0.013523,0.002678,0.000431,0.041723
112337000,0.0324,0.013523,0.002678,0.000431,0.037256
112338000,0.0324,0.013523,0.002678,0.000431,0.042075
112339000,0.0324,0.013523,0.002678,0.000431,0.033966
112340000,0.0324,0.013523,0.002678,0.000431,0.039254
112341000,0.0324,0.013523,0.002678,0.000431,0.034318
112342000,0.0324,0.013523,0.002678,0.000431,0.025739
112343000,0.0324,0.013523,0.002678,0.000431,0.022448
112344000,0.0324,0.013523,0.002678,0.000431,0.021038
112345000,0.0324,0.013523,0.002678,0.000431,0.015866
112346000,0.0324,0.013523,0.002678,0.000431,0.011283
112347000,0.0324,0.013523,0.002678,0.000431,0.010578
112348000,0.0324,0.013523,0.002678,0.000431,0.013046
112349000,0.0324,0.013523,0.002678,0.000431,0.010578
112350000,0.0324,0.013523,0.002678,0.000431,0.010107
112351000,0.0324,0.013523,0.002678,0.000431,0.010578
112352000,0.0324,0.013523,0.002678,0.000431,0.009872
112353000,0.0324,0.013523,0.002678,0.000431,0.012576
112354000,0.0324,0.013523,0.002678,0.000431,0.009050
112355000,0.0324,0.013523,0.002678,0.000431,0.008227
112356000,0.0324,0.013523,0.002678,0.000431,0.010930
112357000,0.0324,0.013523,0.002678,0.000431,0.007404
112358000,0.0324,0.013523,0.002678,0.000431,0.007639
112359000,0.0324,0.013523,0.002678,0.000431,0.008109
112360000,0.0324,0.013523,0.002678,0.000431,0.004584
112361000,0.0324,0.013523,0.002678,0.000431,0.006699
112362000,0.0324,0.013523,0.002678,0.000431,0.006582
112363000,0.0324,0.013523,0.002678,0.000431,0.003056
112364000,0.0324,0.013523,0.002678,0.000431,0.002938
112365000,0.0324,0.013523,0.002678,0.000431,0.003408
112366000,0.0324,0.013523,0.002678,0.000431,0.002938
112367000,0.0324,0.013523,0.002678,0.000431,0.002468
112368000,0.0324,0.013523,0.002678,0.000431,0.002586
112369000,0.0324,0.013523,0.002678,0.000431,0.002586
112370000,0.0324,0.013523,0.002678,0.000431,0.002703
112371000,0.0324,0.013523,0.002678,0.000431,0.002351
112372000,0.0324,0.013523,0.002678,0.000431,0.002468
112373000,0.0324,0.013523,0.002678,0.000431,0.002821
112374000,0.0324,0.013523,0.002678,0.000431,0.002351
112375000,0.0324,0.013523,0.002678,0.000431,0.002703
112376000,0.0324,0.013523,0.002678,0.000431,0.004584
112377000,0.0324,0.013523,0.002678,0.000431,0.001763
112378000,0.0324,0.013523,0.002678,0.000431,0.001645
112379000,0.0324,0.013523,0.002678,0.000431,0.001645
112380000,0.0324,0.013523,0.002678,0.000431,0.003996
112381000,0.0324,0.013523,0.002678,0.000431,0.002468
112382000,0.0324,0.013523,0.002678,0.000431,0.390311
112383000,0.0324,0.013523,0.002678,0.000431,0.706697
112384000,0.0324,0.013523,0.002678,0.000431,0.311685
112385000,0.0324,0.013523,0.002678,0.000431,0.136568
112386000,0.0324,0.013523,0.002678,0.000431,0.192746
112387000,0.0324,0.013523,0.002678,0.000431,0.547681
112388000,0.0324,0.013523,0.002678,0.000431,0.245634
112389000,0.0324,0.013523,0.002678,0.000431,0.310509
112390000,0.0324,0.013523,0.002678,0.000431,0.189220
112391000,0.0324,0.013523,0.002678,0.000431,0.151611
112392000,0.0324,0.013523,0.002678,0.000431,0.138566
112393000,0.0324,0.013523,0.002678,0.000431,0.238935
112394000,0.0324,0.013523,0.002678,0.000431,0.483864
112395000,0.0324,0.013523,0.002678,0.000431,0.215077
112396000,0.0324,0.013523,0.002678,0.000431,0.178878
112397000,0.0324,0.013523,0.002678,0.000431,0.148908
112398000,0.0324,0.013523,0.002678,0.000431,0.131279
112399000,0.0324,0.013523,0.002678,0.000431,0.121994
112400000,0.0324,0.013523,0.002678,0.000431,0.114002
112401000,0.0324,0.013523,0.002678,0.000431,0.107773
112402000,0.0324,0.013523,0.002678,0.000431,0.090027
112403000,0.0324,0.013523,0.002678,0.000431,0.073690
112404000,0.0324,0.013523,0.002678,0.000431,0.057589
112405000,0.0324,0.013523,0.002678,0.000431,0.056766
112406000,0.0324,0.013523,0.002678,0.000431,0.058412
112407000,0.0324,0.013523,0.002678,0.000431,0.050420
112408000,0.0324,0.013523,0.002678,0.000431,0.052065
112409000,0.0324,0.013523,0.002678,0.000431,0.043956
112410000,0.0324,0.013523,0.002678,0.000431,0.036669
112411000,0.0324,0.013523,0.002678,0.000431,0.030205
112412000,0.0324,0.013523,0.002678,0.000431,0.036081
112413000,0.0324,0.013523,0.002678,0.000431,0.033143
112414000,0.0324,0.013523,0.002678,0.000431,0.023858
112415000,0.0324,0.013523,0.002678,0.000431,0.025151
112416000,0.0324,0.013523,0.002678,0.000431,0.023388
112417000,0.0324,0.013523,0.002678,0.000431,0.016689
112418000,0.0324,0.013523,0.002678,0.000431,0.021978
112419000,0.0324,0.013523,0.002678,0.000431,0.015044
112420000,0.0324,0.013523,0.002678,0.000431,0.019040
112421000,0.0324,0.013523,0.002678,0.000431,0.012693
112422000,0.0324,0.013523,0.002678,0.000431,0.009050
112423000,0.0324,0.013523,0.002678,0.000431,0.012458
112424000,0.0324,0.013523,0.002678,0.000431,0.012105
112425000,0.0324,0.013523,0.002678,0.000431,0.008227
112426000,0.0324,0.013523,0.002678,0.000431,0.007169
112427000,0.0324,0.013523,0.002678,0.000431,0.007522
112428000,0.0324,0.013523,0.002678,0.000431,0.005171
112429000,0.0324,0.013523,0.002678,0.000431,0.005289
112430000,0.0324,0.013523,0.002678,0.000431,0.004584
112431000,0.0324,0.013523,0.002678,0.000431,0.007169
112432000,0.0324,0.013523,0.002678,0.000431,0.006111
112433000,0.0324,0.013523,0.002678,0.000431,0.004819
112434000,0.0324,0.013523,0.002678,0.000431,0.004113
112435000,0.0324,0.013523,0.002678,0.000431,0.002116
112436000,0.0324,0.013523,0.002678,0.000431,0.002821
112437000,0.0324,0.013523,0.002678,0.000431,0.002351
112438000,0.0324,0.013523,0.002678,0.000431,0.002468
112439000,0.0324,0.013523,0.002678,0.000431,0.002703
112440000,0.0324,0.013523,0.002678,0.000431,0.003408
112441000,0.0324,0.013523,0.002678,0.000431,0.001880
112442000,0.0324,0.013523,0.002678,0.000431,0.001410
112443000,0.0324,0.013523,0.002678,0.000431,0.001645
112444000,0.0324,0.013523,0.002678,0.000431,0.001645
112445000,0.0324,0.013523,0.002678,0.000431,0.001410
112446000,0.0324,0.013523,0.002678,0.000431,0.001645
112447000,0.0324,0.013523,0.002678,0.000431,0.001645
112448000,0.0324,0.013523,0.002678,0.000431,0.001645
112449000,0.0324,0.013523,0.002678,0.000431,0.001410
112450000,0.0324,0.013523,0.002678,0.000431,0.001645
112451000,0.0324,0.013523,0.002678,0.000431,0.001645
112452000,0.0324,0.013523,0.002678,0.000431,0.001645
112453000,0.0324,0.013523,0.002678,0.000431,0.001410
112454000,0.0324,0.013523,0.002678,0.000431,0.003291
112455000,0.0324,0.013523,0.002678,0.000431,0.344945
112456000,0.0324,0.013523,0.002678,0.000431,0.688480
112457000,0.0324,0.013523,0.002678,0.000431,0.391016
112458000,0.0324,0.013523,0.002678,0.000431,0.144560
112459000,0.0324,0.013523,0.002678,0.000431,0.270315
112460000,0.0324,0.013523,0.002678,0.000431,0.576593
112461000,0.0324,0.013523,0.002678,0.000431,0.260678
112462000,0.0324,0.013523,0.002678,0.000431,0.338246
112463000,0.0324,0.013523,0.002678,0.000431,0.141739
112464000,0.0324,0.013523,0.002678,0.000431,0.162777
112465000,0.0324,0.013523,0.002678,0.000431,0.139153
112466000,0.0324,0.013523,0.002678,0.000431,0.508427
112467000,0.0324,0.013523,0.002678,0.000431,0.265849
112468000,0.0324,0.013523,0.002678,0.000431,0.194157
112469000,0.0324,0.013523,0.002678,0.000431,0.179583
112470000,0.0324,0.013523,0.002678,0.000431,0.151964
112471000,0.0324,0.013523,0.002678,0.000431,0.150671
112472000,0.0324,0.013523,0.002678,0.000431,0.139036
112473000,0.0324,0.013523,0.002678,0.000431,0.106951
112474000,0.0324,0.013523,0.002678,0.000431,0.111887
112475000,0.0324,0.013523,0.002678,0.000431,0.087088
112476000,0.0324,0.013523,0.002678,0.000431,0.078274
112477000,0.0324,0.013523,0.002678,0.000431,0.068872
112478000,0.0324,0.013523,0.002678,0.000431,0.052653
112479000,0.0324,0.013523,0.002678,0.000431,0.044543
112480000,0.0324,0.013523,0.002678,0.000431,0.039137
112481000,0.0324,0.013523,0.002678,0.000431,0.038902
112482000,0.0324,0.013523,0.002678,0.000431,0.035611
112483000,0.0324,0.013523,0.002678,0.000431,0.032438
112484000,0.0324,0.013523,0.002678,0.000431,0.034436
112485000,0.0324,0.013523,0.002678,0.000431,0.022800
112486000,0.0324,0.013523,0.002678,0.000431,0.021273
112487000,0.0324,0.013523,0.002678,0.000431,0.024563
112488000,0.0324,0.013523,0.002678,0.000431,0.023036
112489000,0.0324,0.013523,0.002678,0.000431,0.023741
112490000,0.0324,0.013523,0.002678,0.000431,0.016571
112491000,0.0324,0.013523,0.002678,0.000431,0.013516
112492000,0.0324,0.013523,0.002678,0.000431,0.014456
112493000,0.0324,0.013523,0.002678,0.000431,0.009050
112494000,0.0324,0.013523,0.002678,0.000431,0.009872
112495000,0.0324,0.013523,0.002678,0.000431,0.006229
112496000,0.0324,0.013523,0.002678,0.000431,0.005994
112497000,0.0324,0.013523,0.002678,0.000431,0.007992
112498000,0.0324,0.013523,0.002678,0.000431,0.007287
112499000,0.0324,0.013523,0.002678,0.000431,0.007757
112500000,0.0324,0.013523,0.002678,0.000431,0.004231
112501000,0.0324,0.013523,0.002678,0.000431,0.007404
112502000,0.0324,0.013523,0.002678,0.000431,0.005289
112503000,0.0324,0.013523,0.002678,0.000431,0.001763
112504000,0.0324,0.013523,0.002678,0.000431,0.001528
112505000,0.0324,0.013523,0.002678,0.000431,0.001763
112506000,0.0324,0.013523,0.002678,0.000431,0.001528
112507000,0.0324,0.013523,0.002678,0.000431,0.001763
112508000,0.0324,0.013523,0.002678,0.000431,0.001880
112509000,0.0324,0.013523,0.002678,0.000431,0.001410
112510000,0.0324,0.013523,0.002678,0.000431,0.001880
112511000,0.0324,0.013523,0.002678,0.000431,0.003408
112512000,0.0324,0.013523,0.002678,0.000431,0.000940
112513000,0.0324,0.013523,0.002678,0.000431,0.000823
112514000,0.0324,0.013523,0.002678,0.000431,0.000823
112515000,0.0324,0.013523,0.002678,0.000431,0.001645
112516000,0.0324,0.013523,0.002678,0.000431,0.508074
112517000,0.0324,0.013523,0.002678,0.000431,0.714454
112518000,0.0324,0.013523,0.002678,0.000431,0.229062
112519000,0.0324,0.013523,0.002678,0.000431,0.140564
112520000,0.0324,0.013523,0.002678,0.000431,0.327669
112521000,0.0324,0.013523,0.002678,0.000431,0.522883
112522000,0.0324,0.013523,0.002678,0.000431,0.295818
112523000,0.0324,0.013523,0.002678,0.000431,0.320852
112524000,0.0324,0.013523,0.002678,0.000431,0.147850
112525000,0.0324,0.013523,0.002678,0.000431,0.145970
112526000,0.0324,0.013523,0.002678,0.000431,0.202384
112527000,0.0324,0.013523,0.002678,0.000431,0.477517
112528000,0.0324,0.013523,0.002678,0.000431,0.207085
112529000,0.0324,0.013523,0.002678,0.000431,0.163482
112530000,0.0324,0.013523,0.002678,0.000431,0.126343
112531000,0.0324,0.013523,0.002678,0.000431,0.125168
112532000,0.0324,0.013523,0.002678,0.000431,0.099311
112533000,0.0324,0.013523,0.002678,0.000431,0.101779
112534000,0.0324,0.013523,0.002678,0.000431,0.082857
112535000,0.0324,0.013523,0.002678,0.000431,0.078274
112536000,0.0324,0.013523,0.002678,0.000431,0.059822
112537000,0.0324,0.013523,0.002678,0.000431,0.056531
112538000,0.0324,0.013523,0.002678,0.000431,0.050420
112539000,0.0324,0.013523,0.002678,0.000431,0.047599
112540000,0.0324,0.013523,0.002678,0.000431,0.043720
112541000,0.0324,0.013523,0.002678,0.000431,0.044308
112542000,0.0324,0.013523,0.002678,0.000431,0.030557
112543000,0.0324,0.013523,0.002678,0.000431,0.032438
112544000,0.0324,0.013523,0.002678,0.000431,0.031968
112545000,0.0324,0.013523,0.002678,0.000431,0.023271
112546000,0.0324,0.013523,0.002678,0.000431,0.023036
112547000,0.0324,0.013523,0.002678,0.000431,0.019862
112548000,0.0324,0.013523,0.002678,0.000431,0.020450
112549000,0.0324,0.013523,0.002678,0.000431,0.021273
112550000,0.0324,0.013523,0.002678,0.000431,0.022330
112551000,0.0324,0.013523,0.002678,0.000431,0.017277
112552000,0.0324,0.013523,0.002678,0.000431,0.016219
112553000,0.0324,0.013523,0.002678,0.000431,0.018217
112554000,0.0324,0.013523,0.002678,0.000431,0.013633
112555000,0.0324,0.013523,0.002678,0.000431,0.011283
112556000,0.0324,0.013523,0.002678,0.000431,0.011048
112557000,0.0324,0.013523,0.002678,0.000431,0.013398
112558000,0.0324,0.013523,0.002678,0.000431,0.011400
112559000,0.0324,0.013523,0.002678,0.000431,0.007874
112560000,0.0324,0.013523,0.002678,0.000431,0.013281
112561000,0.0324,0.013523,0.002678,0.000431,0.006582
112562000,0.0324,0.013523,0.002678,0.000431,0.006347
112563000,0.0324,0.013523,0.002678,0.000431,0.007992
112564000,0.0324,0.013523,0.002678,0.000431,0.006464
112565000,0.0324,0.013523,0.002678,0.000431,0.006229
112566000,0.0324,0.013523,0.002678,0.000431,0.009402
112567000,0.0324,0.013523,0.002678,0.000431,0.004936
112568000,0.0324,0.013523,0.002678,0.000431,0.005524
112569000,0.0324,0.013523,0.002678,0.000431,0.005289
112570000,0.0324,0.013523,0.002678,0.000431,0.003996
112571000,0.0324,0.013523,0.002678,0.000431,0.004113
112572000,0.0324,0.013523,0.002678,0.000431,0.003526
112573000,0.0324,0.013523,0.002678,0.000431,0.003526
112574000,0.0324,0.013523,0.002678,0.000431,0.003291
112575000,0.0324,0.013523,0.002678,0.000431,0.006111
112576000,0.0324,0.013523,0.002678,0.000431,0.002586
112577000,0.0324,0.013523,0.002678,0.000431,0.004113
112578000,0.0324,0.013523,0.002678,0.000431,0.003291
112579000,0.0324,0.013523,0.002678,0.000431,0.000823
112580000,0.0324,0.013523,0.002678,0.000431,0.000940
112581000,0.0324,0.013523,0.002678,0.000431,0.000823
112582000,0.0324,0.013523,0.002678,0.000431,0.000823
112583000,0.0324,0.013523,0.002678,0.000431,0.000940
112584000,0.0324,0.013523,0.002678,0.000431,0.000823
112585000,0.0324,0.013523,0.002678,0.000431,0.000823
112586000,0.0324,0.013523,0.002678,0.000431,0.000823
112587000,0.0324,0.013523,0.002678,0.000431,0.000823
112588000,0.0324,0.013523,0.002678,0.000431,0.000940
112589000,0.0324,0.013523,0.002678,0.000431,0.000940
112590000,0.0324,0.013523,0.002678,0.000431,0.261383
112591000,0.0324,0.013523,0.002678,0.000431,0.734081
112592000,0.0324,0.013523,0.002678,0.000431,0.359989
112593000,0.0324,0.013523,0.002678,0.000431,0.139388
112594000,0.0324,0.013523,0.002678,0.000431,0.164422
112595000,0.0324,0.013523,0.002678,0.000431,0.631949
112596000,0.0324,0.013523,0.002678,0.000431,0.265849
112597000,0.0324,0.013523,0.002678,0.000431,0.328961
112598000,0.0324,0.013523,0.002678,0.000431,0.201091
112599000,0.0324,0.013523,0.002678,0.000431,0.146088
112600000,0.0324,0.013523,0.002678,0.000431,0.112945
112601000,0.0324,0.013523,0.002678,0.000431,0.462826
112602000,0.0324,0.013523,0.002678,0.000431,0.360341
112603000,0.0324,0.013523,0.002678,0.000431,0.249160
112604000,0.0324,0.013523,0.002678,0.000431,0.204264
112605000,0.0324,0.013523,0.002678,0.000431,0.158428
112606000,0.0324,0.013523,0.002678,0.000431,0.157605
112607000,0.0324,0.013523,0.002678,0.000431,0.133512
112608000,0.0324,0.013523,0.002678,0.000431,0.134335
112609000,0.0324,0.013523,0.002678,0.000431,0.092847
112610000,0.0324,0.013523,0.002678,0.000431,0.093435
112611000,0.0324,0.013523,0.002678,0.000431,0.087323
112612000,0.0324,0.013523,0.002678,0.000431,0.073338
112613000,0.0324,0.013523,0.002678,0.000431,0.059587
112614000,0.0324,0.013523,0.002678,0.000431,0.065463
112615000,0.0324,0.013523,0.002678,0.000431,0.063230
112616000,0.0324,0.013523,0.002678,0.000431,0.044191
112617000,0.0324,0.013523,0.002678,0.000431,0.039372
112618000,0.0324,0.013523,0.002678,0.000431,0.043603
112619000,0.0324,0.013523,0.002678,0.000431,0.043603
112620000,0.0324,0.013523,0.002678,0.000431,0.039607
112621000,0.0324,0.013523,0.002678,0.000431,0.031850
112622000,0.0324,0.013523,0.002678,0.000431,0.031145
112623000,0.0324,0.013523,0.002678,0.000431,0.020215
112624000,0.0324,0.013523,0.002678,0.000431,0.021625
112625000,0.0324,0.013523,0.002678,0.000431,0.016689
112626000,0.0324,0.013523,0.002678,0.000431,0.015514
112627000,0.0324,0.013523,0.002678,0.000431,0.013633
112628000,0.0324,0.013523,0.002678,0.000431,0.017159
112629000,0.0324,0.013523,0.002678,0.000431,0.015396
112630000,0.0324,0.013523,0.002678,0.000431,0.013046
112631000,0.0324,0.013523,0.002678,0.000431,0.010813
112632000,0.0324,0.013523,0.002678,0.000431,0.013163
112633000,0.0324,0.013523,0.002678,0.000431,0.010930
112634000,0.0324,0.013523,0.002678,0.000431,0.008815
112635000,0.0324,0.013523,0.002678,0.000431,0.008227
112636000,0.0324,0.013523,0.002678,0.000431,0.003408
112637000,0.0324,0.013523,0.002678,0.000431,0.003408
112638000,0.0324,0.013523,0.002678,0.000431,0.005641
112639000,0.0324,0.013523,0.002678,0.000431,0.002703
112640000,0.0324,0.013523,0.002678,0.000431,0.007757
112641000,0.0324,0.013523,0.002678,0.000431,0.000940
112642000,0.0324,0.013523,0.002678,0.000431,0.000823
112643000,0.0324,0.013523,0.002678,0.000431,0.000823
112644000,0.0324,0.013523,0.002678,0.000431,0.000940
112645000,0.0324,0.013523,0.002678,0.000431,0.000823
112646000,0.0324,0.013523,0.002678,0.000431,0.000823
112647000,0.0324,0.013523,0.002678,0.000431,0.000705
112648000,0.0324,0.013523,0.002678,0.000431,0.000940
112649000,0.0324,0.013523,0.002678,0.000431,0.000940
112650000,0.0324,0.013523,0.002678,0.000431,0.000705
112651000,0.0324,0.013523,0.002678,0.000431,0.000940
112652000,0.0324,0.013523,0.002678,0.000431,0.000705
112653000,0.0324,0.013523,0.002678,0.000431,0.000940
112654000,0.0324,0.013523,0.002678,0.000431,0.000823
112655000,0.0324,0.013523,0.002678,0.000431,0.000823
112656000,0.0324,0.013523,0.002678,0.000431,0.000940
112657000,0.0324,0.013523,0.002678,0.000431,0.000705
112658000,0.0324,0.013523,0.002678,0.000431,0.000940
112659000,0.0324,0.013523,0.002678,0.000431,0.000705
112660000,0.0324,0.013523,0.002678,0.000431,0.000940
112661000,0.0324,0.013523,0.002678,0.000431,0.000823
112662000,0.0324,0.013523,0.002678,0.000431,0.000823
112663000,0.0324,0.013523,0.002678,0.000431,0.000823
112664000,0.0324,0.013523,0.002678,0.000431,0.000823
112665000,0.0324,0.013523,0.002678,0.000431,0.000823
112666000,0.0324,0.013523,0.002678,0.000431,0.000823
112667000,0.0324,0.013523,0.002678,0.000431,0.000940
112668000,0.0324,0.013523,0.002678,0.000431,0.127283
112669000,0.0324,0.013523,0.002678,0.000431,0.780270
112670000,0.0324,0.013523,0.002678,0.000431,0.524998
112671000,0.0324,0.013523,0.002678,0.000431,0.172766
112672000,0.0324,0.013523,0.002678,0.000431,0.185224
112673000,0.0324,0.013523,0.002678,0.000431,0.632772
112674000,0.0324,0.013523,0.002678,0.000431,0.258915
112675000,0.0324,0.013523,0.002678,0.000431,0.336953
112676000,0.0324,0.013523,0.002678,0.000431,0.164304
112677000,0.0324,0.013523,0.002678,0.000431,0.168535
112678000,0.0324,0.013523,0.002678,0.000431,0.103425
112679000,0.0324,0.013523,0.002678,0.000431,0.486332
112680000,0.0324,0.013523,0.002678,0.000431,0.276309
112681000,0.0324,0.013523,0.002678,0.000431,0.178760
112682000,0.0324,0.013523,0.002678,0.000431,0.156783
112683000,0.0324,0.013523,0.002678,0.000431,0.143619
112684000,0.0324,0.013523,0.002678,0.000431,0.130574
112685000,0.0324,0.013523,0.002678,0.000431,0.105305
112686000,0.0324,0.013523,0.002678,0.000431,0.098371
112687000,0.0324,0.013523,0.002678,0.000431,0.101074
112688000,0.0324,0.013523,0.002678,0.000431,0.078274
112689000,0.0324,0.013523,0.002678,0.000431,0.076276
112690000,0.0324,0.013523,0.002678,0.000431,0.067226
112691000,0.0324,0.013523,0.002678,0.000431,0.065581
112692000,0.0324,0.013523,0.002678,0.000431,0.063465
112693000,0.0324,0.013523,0.002678,0.000431,0.058764
112694000,0.0324,0.013523,0.002678,0.000431,0.053358
112695000,0.0324,0.013523,0.002678,0.000431,0.048539
112696000,0.0324,0.013523,0.002678,0.000431,0.038314
112697000,0.0324,0.013523,0.002678,0.000431,0.029147
112698000,0.0324,0.013523,0.002678,0.000431,0.026914
112699000,0.0324,0.013523,0.002678,0.000431,0.025621
112700000,0.0324,0.013523,0.002678,0.000431,0.023153
112701000,0.0324,0.013523,0.002678,0.000431,0.024563
112702000,0.0324,0.013523,0.002678,0.000431,0.022330
112703000,0.0324,0.013523,0.002678,0.000431,0.017864
112704000,0.0324,0.013523,0.002678,0.000431,0.020097
112705000,0.0324,0.013523,0.002678,0.000431,0.018569
112706000,0.0324,0.013523,0.002678,0.000431,0.016689
112707000,0.0324,0.013523,0.002678,0.000431,0.011283
112708000,0.0324,0.013523,0.002678,0.000431,0.009285
112709000,0.0324,0.013523,0.002678,0.000431,0.011283
112710000,0.0324,0.013523,0.002678,0.000431,0.007874
112711000,0.0324,0.013523,0.002678,0.000431,0.007169
112712000,0.0324,0.013523,0.002678,0.000431,0.007874
112713000,0.0324,0.013523,0.002678,0.000431,0.008932
112714000,0.0324,0.013523,0.002678,0.000431,0.006347
112715000,0.0324,0.013523,0.002678,0.000431,0.006934
112716000,0.0324,0.013523,0.002678,0.000431,0.006347
112717000,0.0324,0.013523,0.002678,0.000431,0.008697
112718000,0.0324,0.013523,0.002678,0.000431,0.005994
112719000,0.0324,0.013523,0.002678,0.000431,0.005289
112720000,0.0324,0.013523,0.002678,0.000431,0.006111
112721000,0.0324,0.013523,0.002678,0.000431,0.005641
112722000,0.0324,0.013523,0.002678,0.000431,0.005406
112723000,0.0324,0.013523,0.002678,0.000431,0.008697
112724000,0.0324,0.013523,0.002678,0.000431,0.004584
112725000,0.0324,0.013523,0.002678,0.000431,0.004819
112726000,0.0324,0.013523,0.002678,0.000431,0.007404
112727000,0.0324,0.013523,0.002678,0.000431,0.003878
112728000,0.0324,0.013523,0.002678,0.000431,0.004466
112729000,0.0324,0.013523,0.002678,0.000431,0.003761
112730000,0.0324,0.013523,0.002678,0.000431,0.004349
112731000,0.0324,0.013523,0.002678,0.000431,0.003996
112732000,0.0324,0.013523,0.002678,0.000431,0.003878
112733000,0.0324,0.013523,0.002678,0.000431,0.004231
112734000,0.0324,0.013523,0.002678,0.000431,0.003643
112735000,0.0324,0.013523,0.002678,0.000431,0.005406
112736000,0.0324,0.013523,0.002678,0.000431,0.004936
112737000,0.0324,0.013523,0.002678,0.000431,0.002586
112738000,0.0324,0.013523,0.002678,0.000431,0.003526
112739000,0.0324,0.013523,0.002678,0.000431,0.002938
112740000,0.0324,0.013523,0.002678,0.000431,0.003173
112741000,0.0324,0.013523,0.002678,0.000431,0.003526
112742000,0.0324,0.013523,0.002678,0.000431,0.002821
112743000,0.0324,0.013523,0.002678,0.000431,0.003526
112744000,0.0324,0.013523,0.002678,0.000431,0.002468
112745000,0.0324,0.013523,0.002678,0.000431,0.003173
112746000,0.0324,0.013523,0.002678,0.000431,0.003173
112747000,0.0324,0.013523,0.002678,0.000431,0.002703
112748000,0.0324,0.013523,0.002678,0.000431,0.003761
112749000,0.0324,0.013523,0.002678,0.000431,0.002703
112750000,0.0324,0.013523,0.002678,0.000431,0.005054
112751000,0.0324,0.013523,0.002678,0.000431,0.001645
112752000,0.0324,0.013523,0.002678,0.000431,0.001410
112753000,0.0324,0.013523,0.002678,0.000431,0.001645
112754000,0.0324,0.013523,0.002678,0.000431,0.001528
112755000,0.0324,0.013523,0.002678,0.000431,0.001528
112756000,0.0324,0.013523,0.002678,0.000431,0.001645
112757000,0.0324,0.013523,0.002678,0.000431,0.001645
112758000,0.0324,0.013523,0.002678,0.000431,0.001410
112759000,0.0324,0.013523,0.002678,0.000431,0.001645
112760000,0.0324,0.013523,0.002678,0.000431,0.001528
112761000,0.0324,0.013523,0.002678,0.000431,0.001763
112762000,0.0324,0.013523,0.002678,0.000431,0.001410
112763000,0.0324,0.013523,0.002678,0.000431,0.001645
112764000,0.0324,0.013523,0.002678,0.000431,0.001528
112765000,0.0324,0.013523,0.002678,0.000431,0.001528
112766000,0.0324,0.013523,0.002678,0.000431,0.001880
112767000,0.0324,0.013523,0.002678,0.000431,0.001175
112768000,0.0324,0.013523,0.002678,0.000431,0.001880
112769000,0.0324,0.013523,0.002678,0.000431,0.001528
112770000,0.0324,0.013523,0.002678,0.000431,0.001528
112771000,0.0324,0.013523,0.002678,0.000431,0.001645
112772000,0.0324,0.013523,0.002678,0.000431,0.001410
112773000,0.0324,0.013523,0.002678,0.000431,0.001645
112774000,0.0324,0.013523,0.002678,0.000431,0.001645
112775000,0.0324,0.013523,0.002678,0.000431,0.001645
112776000,0.0324,0.013523,0.002678,0.000431,0.001410
112777000,0.0324,0.013523,0.002678,0.000431,0.001645
112778000,0.0324,0.013523,0.002678,0.000431,0.001645
112779000,0.0324,0.013523,0.002678,0.000431,0.001645
112780000,0.0324,0.013523,0.002678,0.000431,0.001410
112781000,0.0324,0.013523,0.002678,0.000431,0.001645
112782000,0.0324,0.013523,0.002678,0.000431,0.001293
112783000,0.0324,0.013523,0.002678,0.000431,0.001763
112784000,0.0324,0.013523,0.002678,0.000431,0.001880
112785000,0.0324,0.013523,0.002678,0.000431,0.001175
112786000,0.0324,0.013523,0.002678,0.000431,0.001880
112787000,0.0324,0.013523,0.002678,0.000431,0.001293
112788000,0.0324,0.013523,0.002678,0.000431,0.001763
112789000,0.0324,0.013523,0.002678,0.000431,0.001645
112790000,0.0324,0.013523,0.002678,0.000431,0.001410
112791000,0.0324,0.013523,0.002678,0.000431,0.001645
112792000,0.0324,0.013523,0.002678,0.000431,0.001528
112793000,0.0324,0.013523,0.002678,0.000431,0.001763
112794000,0.0324,0.013523,0.002678,0.000431,0.001410
112795000,0.0324,0.013523,0.002678,0.000431,0.001645
112796000,0.0324,0.013523,0.002678,0.000431,0.001645
112797000,0.0324,0.013523,0.002678,0.000431,0.001528
112798000,0.0324,0.013523,0.002678,0.000431,0.001528
112799000,0.0324,0.013523,0.002678,0.000431,0.001645
112800000,0.0324,0.013523,0.002678,0.000431,0.001410
112801000,0.0324,0.013523,0.002678,0.000431,0.001645
112802000,0.0324,0.013523,0.002678,0.000431,0.001645
112803000,0.0324,0.013523,0.002678,0.000431,0.001410
112804000,0.0324,0.013523,0.002678,0.000431,0.001880
112805000,0.0324,0.013523,0.002678,0.000431,0.001175
112806000,0.0324,0.013523,0.002678,0.000431,0.001880
112807000,0.0324,0.013523,0.002678,0.000431,0.001528
112808000,0.0324,0.013523,0.002678,0.000431,0.001528
112809000,0.0324,0.013523,0.002678,0.000431,0.001880
112810000,0.0324,0.013523,0.002678,0.000431,0.001175
112811000,0.0324,0.013523,0.002678,0.000431,0.001880
112812000,0.0324,0.013523,0.002678,0.000431,0.001410
112813000,0.0324,0.013523,0.002678,0.000431,0.001645
112814000,0.0324,0.013523,0.002678,0.000431,0.001645
112815000,0.0324,0.013523,0.002678,0.000431,0.001410
112816000,0.0324,0.013523,0.002678,0.000431,0.001645
112817000,0.0324,0.013523,0.002678,0.000431,0.001645
112818000,0.0324,0.013523,0.002678,0.000431,0.001410
112819000,0.0324,0.013523,0.002678,0.000431,0.001645
112820000,0.0324,0.013523,0.002678,0.000431,0.001410
112821000,0.0324,0.013523,0.002678,0.000431,0.001645
112822000,0.0324,0.013523,0.002678,0.000431,0.001880
112823000,0.0324,0.013523,0.002678,0.000431,0.001175
112824000,0.0324,0.013523,0.002678,0.000431,0.001880
112825000,0.0324,0.013523,0.002678,0.000431,0.001293
112826000,0.0324,0.013523,0.002678,0.000431,0.001763
112827000,0.0324,0.013523,0.002678,0.000431,0.001880
112828000,0.0324,0.013523,0.002678,0.000431,0.001175
112829000,0.0324,0.013523,0.002678,0.000431,0.001880
112830000,0.0324,0.013523,0.002678,0.000431,0.001293
112831000,0.0324,0.013523,0.002678,0.000431,0.001763
112832000,0.0324,0.013523,0.002678,0.000431,0.001645
112833000,0.0324,0.013523,0.002678,0.000431,0.001410
112834000,0.0324,0.013523,0.002678,0.000431,0.001645
112835000,0.0324,0.013523,0.002678,0.000431,0.001528
112836000,0.0324,0.013523,0.002678,0.000431,0.001528
112837000,0.0324,0.013523,0.002678,0.000431,0.001645
112838000,0.0324,0.013523,0.002678,0.000431,0.001645
112839000,0.0324,0.013523,0.002678,0.000431,0.001410
112840000,0.0324,0.013523,0.002678,0.000431,0.001645
112841000,0.0324,0.013523,0.002678,0.000431,0.001410
112842000,0.0324,0.013523,0.002678,0.000431,0.001880
112843000,0.0324,0.013523,0.002678,0.000431,0.001410
112844000,0.0324,0.013523,0.002678,0.000431,0.001645
112845000,0.0324,0.013523,0.002678,0.000431,0.001528
112846000,0.0324,0.013523,0.002678,0.000431,0.001528
112847000,0.0324,0.013523,0.002678,0.000431,0.001880
112848000,0.0324,0.013523,0.002678,0.000431,0.001175
112849000,0.0324,0.013523,0.002678,0.000431,0.001880
112850000,0.0324,0.013523,0.002678,0.000431,0.001528
112851000,0.0324,0.013523,0.002678,0.000431,0.001528
112852000,0.0324,0.013523,0.002678,0.000431,0.001645
112853000,0.0324,0.013523,0.002678,0.000431,0.001410
112854000,0.0324,0.013523,0.002678,0.000431,0.001645
112855000,0.0324,0.013523,0.002678,0.000431,0.001645
112856000,0.0324,0.013523,0.002678,0.000431,0.001410
112857000,0.0324,0.013523,0.002678,0.000431,0.001645
112858000,0.0324,0.013523,0.002678,0.000431,0.001645
112859000,0.0324,0.013523,0.002678,0.000431,0.001410
112860000,0.0324,0.013523,0.002678,0.000431,0.001880
112861000,0.0324,0.013523,0.002678,0.000431,0.001175
112862000,0.0324,0.013523,0.002678,0.000431,0.001880
112863000,0.0324,0.013523,0.002678,0.000431,0.001293
112864000,0.0324,0.013523,0.002678,0.000431,0.001763
112865000,0.0324,0.013523,0.002678,0.000431,0.001880
112866000,0.0324,0.013523,0.002678,0.000431,0.001175
112867000,0.0324,0.013523,0.002678,0.000431,0.001880
112868000,0.0324,0.013523,0.002678,0.000431,0.001293
112869000,0.0324,0.013523,0.002678,0.000431,0.001763
112870000,0.0324,0.013523,0.002678,0.000431,0.001645
112871000,0.0324,0.013523,0.002678,0.000431,0.001410
112872000,0.0324,0.013523,0.002678,0.000431,0.001645
112873000,0.0324,0.013523,0.002678,0.000431,0.001528
112874000,0.0324,0.013523,0.002678,0.000431,0.001528
112875000,0.0324,0.013523,0.002678,0.000431,0.001645
112876000,0.0324,0.013523,0.002678,0.000431,0.001645
112877000,0.0324,0.013523,0.002678,0.000431,0.001410
112878000,0.0324,0.013523,0.002678,0.000431,0.001645
112879000,0.0324,0.013523,0.002678,0.000431,0.001645
112880000,0.0324,0.013523,0.002678,0.000431,0.001645
112881000,0.0324,0.013523,0.002678,0.000431,0.001410
112882000,0.0324,0.013523,0.002678,0.000431,0.001645
112883000,0.0324,0.013523,0.002678,0.000431,0.001528
112884000,0.0324,0.013523,0.002678,0.000431,0.001528
112885000,0.0324,0.013523,0.002678,0.000431,0.001880
112886000,0.0324,0.013523,0.002678,0.000431,0.001175
112887000,0.0324,0.013523,0.002678,0.000431,0.001880
112888000,0.0324,0.013523,0.002678,0.000431,0.001528
112889000,0.0324,0.013523,0.002678,0.000431,0.001528
112890000,0.0324,0.013523,0.002678,0.000431,0.001645
112891000,0.0324,0.013523,0.002678,0.000431,0.001410
112892000,0.0324,0.013523,0.002678,0.000431,0.001645
112893000,0.0324,0.013523,0.002678,0.000431,0.001645
112894000,0.0324,0.013523,0.002678,0.000431,0.001645
112895000,0.0324,0.013523,0.002678,0.000431,0.001410
112896000,0.0324,0.013523,0.002678,0.000431,0.001645
112897000,0.0324,0.013523,0.002678,0.000431,0.001645
112898000,0.0324,0.013523,0.002678,0.000431,0.001645
112899000,0.0324,0.013523,0.002678,0.000431,0.001410
112900000,0.0324,0.013523,0.002678,0.000431,0.001645
112901000,0.0324,0.013523,0.002678,0.000431,0.001293
112902000,0.0324,0.013523,0.002678,0.000431,0.001763
112903000,0.0324,0.013523,0.002678,0.000431,0.001880
112904000,0.0324,0.013523,0.002678,0.000431,0.001175
112905000,0.0324,0.013523,0.002678,0.000431,0.001880
112906000,0.0324,0.013523,0.002678,0.000431,0.001293
112907000,0.0324,0.013523,0.002678,0.000431,0.001763
112908000,0.0324,0.013523,0.002678,0.000431,0.001645
112909000,0.0324,0.013523,0.002678,0.000431,0.001410
112910000,0.0324,0.013523,0.002678,0.000431,0.001645
112911000,0.0324,0.013523,0.002678,0.000431,0.001528
112912000,0.0324,0.013523,0.002678,0.000431,0.001763
112913000,0.0324,0.013523,0.002678,0.000431,0.001410
112914000,0.0324,0.013523,0.002678,0.000431,0.001645
112915000,0.0324,0.013523,0.002678,0.000431,0.001645
112916000,0.0324,0.013523,0.002678,0.000431,0.001528
112917000,0.0324,0.013523,0.002678,0.000431,0.001528
112918000,0.0324,0.013523,0.002678,0.000431,0.001645
112919000,0.0324,0.013523,0.002678,0.000431,0.001410
112920000,0.0324,0.013523,0.002678,0.000431,0.001645
112921000,0.0324,0.013523,0.002678,0.000431,0.001645
112922000,0.0324,0.013523,0.002678,0.000431,0.001410
112923000,0.0324,0.013523,0.002678,0.000431,0.001880
112924000,0.0324,0.013523,0.002678,0.000431,0.001410
112925000,0.0324,0.013523,0.002678,0.000431,0.001645
112926000,0.0324,0.013523,0.002678,0.000431,0.001528
112927000,0.0324,0.013523,0.002678,0.000431,0.001528
112928000,0.0324,0.013523,0.002678,0.000431,0.001880
112929000,0.0324,0.013523,0.002678,0.000431,0.001175
112930000,0.0324,0.013523,0.002678,0.000431,0.001880
112931000,0.0324,0.013523,0.002678,0.000431,0.001528
112932000,0.0324,0.013523,0.002678,0.000431,0.001528
112933000,0.0324,0.013523,0.002678,0.000431,0.001645
112934000,0.0324,0.013523,0.002678,0.000431,0.001410
112935000,0.0324,0.013523,0.002678,0.000431,0.001880
112936000,0.0324,0.013523,0.002678,0.000431,0.001410
112937000,0.0324,0.013523,0.002678,0.000431,0.001645
112938000,0.0324,0.013523,0.002678,0.000431,0.001645
112939000,0.0324,0.013523,0.002678,0.000431,0.001410
112940000,0.0324,0.013523,0.002678,0.000431,0.001645
112941000,0.0324,0.013523,0.002678,0.000431,0.001645
112942000,0.0324,0.013523,0.002678,0.000431,0.001410
112943000,0.0324,0.013523,0.002678,0.000431,0.001645
112944000,0.0324,0.013523,0.002678,0.000431,0.001645
112945000,0.0324,0.013523,0.002678,0.000431,0.001410
112946000,0.0324,0.013523,0.002678,0.000431,0.001880
112947000,0.0324,0.013523,0.002678,0.000431,0.001410
112948000,0.0324,0.013523,0.002678,0.000431,0.001645
112949000,0.0324,0.013523,0.002678,0.000431,0.001293
112950000,0.0324,0.013523,0.002678,0.000431,0.001763
112951000,0.0324,0.013523,0.002678,0.000431,0.001763
112952000,0.0324,0.013523,0.002678,0.000431,0.000705
112953000,0.0324,0.013523,0.002678,0.000431,0.000940
112954000,0.0324,0.013523,0.002678,0.000431,0.002938
112955000,0.0324,0.013523,0.002678,0.000431,0.570717
112956000,0.0324,0.013523,0.002678,0.000431,0.720918
112957000,0.0324,0.013523,0.002678,0.000431,0.148438
112958000,0.0324,0.013523,0.002678,0.000431,0.134217
112959000,0.0324,0.013523,0.002678,0.000431,0.412171
112960000,0.0324,0.013523,0.002678,0.000431,0.361752
112961000,0.0324,0.013523,0.002678,0.000431,0.268552
112962000,0.0324,0.013523,0.002678,0.000431,0.348706
112963000,0.0324,0.013523,0.002678,0.000431,0.138918
112964000,0.0324,0.013523,0.002678,0.000431,0.160073
112965000,0.0324,0.013523,0.002678,0.000431,0.104365
112966000,0.0324,0.013523,0.002678,0.000431,0.470818
112967000,0.0324,0.013523,0.002678,0.000431,0.253156
112968000,0.0324,0.013523,0.002678,0.000431,0.166890
112969000,0.0324,0.013523,0.002678,0.000431,0.134452
112970000,0.0324,0.013523,0.002678,0.000431,0.123287
112971000,0.0324,0.013523,0.002678,0.000431,0.114472
112972000,0.0324,0.013523,0.002678,0.000431,0.101427
112973000,0.0324,0.013523,0.002678,0.000431,0.092847
112974000,0.0324,0.013523,0.002678,0.000431,0.070517
112975000,0.0324,0.013523,0.002678,0.000431,0.060174
112976000,0.0324,0.013523,0.002678,0.000431,0.057354
112977000,0.0324,0.013523,0.002678,0.000431,0.050185
112978000,0.0324,0.013523,0.002678,0.000431,0.051242
112979000,0.0324,0.013523,0.002678,0.000431,0.046776
112980000,0.0324,0.013523,0.002678,0.000431,0.036551
112981000,0.0324,0.013523,0.002678,0.000431,0.034788
112982000,0.0324,0.013523,0.002678,0.000431,0.032908
112983000,0.0324,0.013523,0.002678,0.000431,0.027854
112984000,0.0324,0.013523,0.002678,0.000431,0.029500
112985000,0.0324,0.013523,0.002678,0.000431,0.027384
112986000,0.0324,0.013523,0.002678,0.000431,0.029147
112987000,0.0324,0.013523,0.002678,0.000431,0.017864
112988000,0.0324,0.013523,0.002678,0.000431,0.018334
112989000,0.0324,0.013523,0.002678,0.000431,0.020332
112990000,0.0324,0.013523,0.002678,0.000431,0.018099
112991000,0.0324,0.013523,0.002678,0.000431,0.016454
112992000,0.0324,0.013523,0.002678,0.000431,0.015044
112993000,0.0324,0.013523,0.002678,0.000431,0.017277
112994000,0.0324,0.013523,0.002678,0.000431,0.014809
112995000,0.0324,0.013523,0.002678,0.000431,0.017982
112996000,0.0324,0.013523,0.002678,0.000431,0.009167
112997000,0.0324,0.013523,0.002678,0.000431,0.008227
112998000,0.0324,0.013523,0.002678,0.000431,0.008227
112999000,0.0324,0.013523,0.002678,0.000431,0.009050
