Cycle,Area(mm^2),PeakDynamic(W),SubthresholdLeakage(W),GateLeakage(W),RunTimeDynamic(W)
119000000,0.0324,0.013523,0.002678,0.000431,0.684837
119001000,0.0324,0.013523,0.002678,0.000431,0.551560
119002000,0.0324,0.013523,0.002678,0.000431,0.137390
119003000,0.0324,0.013523,0.002678,0.000431,0.182639
119004000,0.0324,0.013523,0.002678,0.000431,0.637590
119005000,0.0324,0.013523,0.002678,0.000431,0.246222
119006000,0.0324,0.013523,0.002678,0.000431,0.295231
119007000,0.0324,0.013523,0.002678,0.000431,0.174882
119008000,0.0324,0.013523,0.002678,0.000431,0.156665
119009000,0.0324,0.013523,0.002678,0.000431,0.108831
119010000,0.0324,0.013523,0.002678,0.000431,0.430741
119011000,0.0324,0.013523,0.002678,0.000431,0.300755
119012000,0.0324,0.013523,0.002678,0.000431,0.168183
119013000,0.0324,0.013523,0.002678,0.000431,0.155255
119014000,0.0324,0.013523,0.002678,0.000431,0.129281
119015000,0.0324,0.013523,0.002678,0.000431,0.115295
119016000,0.0324,0.013523,0.002678,0.000431,0.110124
119017000,0.0324,0.013523,0.002678,0.000431,0.090027
119018000,0.0324,0.013523,0.002678,0.000431,0.088851
119019000,0.0324,0.013523,0.002678,0.000431,0.084620
119020000,0.0324,0.013523,0.002678,0.000431,0.067696
119021000,0.0324,0.013523,0.002678,0.000431,0.062525
119022000,0.0324,0.013523,0.002678,0.000431,0.055708
119023000,0.0324,0.013523,0.002678,0.000431,0.050772
119024000,0.0324,0.013523,0.002678,0.000431,0.044191
119025000,0.0324,0.013523,0.002678,0.000431,0.041840
119026000,0.0324,0.013523,0.002678,0.000431,0.039019
119027000,0.0324,0.013523,0.002678,0.000431,0.039960
119028000,0.0324,0.013523,0.002678,0.000431,0.039842
119029000,0.0324,0.013523,0.002678,0.000431,0.031850
119030000,0.0324,0.013523,0.002678,0.000431,0.023741
119031000,0.0324,0.013523,0.002678,0.000431,0.028677
119032000,0.0324,0.013523,0.002678,0.000431,0.018334
119033000,0.0324,0.013523,0.002678,0.000431,0.020920
119034000,0.0324,0.013523,0.002678,0.000431,0.011283
119035000,0.0324,0.013523,0.002678,0.000431,0.012576
119036000,0.0324,0.013523,0.002678,0.000431,0.013281
119037000,0.0324,0.013523,0.002678,0.000431,0.010930
119038000,0.0324,0.013523,0.002678,0.000431,0.015161
119039000,0.0324,0.013523,0.002678,0.000431,0.010578
119040000,0.0324,0.013523,0.002678,0.000431,0.005289
119041000,0.0324,0.013523,0.002678,0.000431,0.005876
119042000,0.0324,0.013523,0.002678,0.000431,0.005641
119043000,0.0324,0.013523,0.002678,0.000431,0.004231
119044000,0.0324,0.013523,0.002678,0.000431,0.004466
119045000,0.0324,0.013523,0.002678,0.000431,0.008462
119046000,0.0324,0.013523,0.002678,0.000431,0.002703
119047000,0.0324,0.013523,0.002678,0.000431,0.002351
119048000,0.0324,0.013523,0.002678,0.000431,0.002586
119049000,0.0324,0.013523,0.002678,0.000431,0.002703
119050000,0.0324,0.013523,0.002678,0.000431,0.006229
119051000,0.0324,0.013523,0.002678,0.000431,0.001880
119052000,0.0324,0.013523,0.002678,0.000431,0.001528
119053000,0.0324,0.013523,0.002678,0.000431,0.003408
119054000,0.0324,0.013523,0.002678,0.000431,0.000940
119055000,0.0324,0.013523,0.002678,0.000431,0.000823
119056000,0.0324,0.013523,0.002678,0.000431,0.001880
119057000,0.0324,0.013523,0.002678,0.000431,0.477870
119058000,0.0324,0.013523,0.002678,0.000431,0.693886
119059000,0.0324,0.013523,0.002678,0.000431,0.212373
119060000,0.0324,0.013523,0.002678,0.000431,0.145382
119061000,0.0324,0.013523,0.002678,0.000431,0.322145
119062000,0.0324,0.013523,0.002678,0.000431,0.461533
119063000,0.0324,0.013523,0.002678,0.000431,0.264673
119064000,0.0324,0.013523,0.002678,0.000431,0.345885
119065000,0.0324,0.013523,0.002678,0.000431,0.159368
119066000,0.0324,0.013523,0.002678,0.000431,0.148086
119067000,0.0324,0.013523,0.002678,0.000431,0.184284
119068000,0.0324,0.013523,0.002678,0.000431,0.536869
119069000,0.0324,0.013523,0.002678,0.000431,0.259032
119070000,0.0324,0.013523,0.002678,0.000431,0.218015
119071000,0.0324,0.013523,0.002678,0.000431,0.175470
119072000,0.0324,0.013523,0.002678,0.000431,0.161601
119073000,0.0324,0.013523,0.002678,0.000431,0.126108
119074000,0.0324,0.013523,0.002678,0.000431,0.133277
119075000,0.0324,0.013523,0.002678,0.000431,0.088146
119076000,0.0324,0.013523,0.002678,0.000431,0.080272
119077000,0.0324,0.013523,0.002678,0.000431,0.076276
119078000,0.0324,0.013523,0.002678,0.000431,0.057471
119079000,0.0324,0.013523,0.002678,0.000431,0.049244
119080000,0.0324,0.013523,0.002678,0.000431,0.038432
119081000,0.0324,0.013523,0.002678,0.000431,0.035376
119082000,0.0324,0.013523,0.002678,0.000431,0.027854
119083000,0.0324,0.013523,0.002678,0.000431,0.029617
119084000,0.0324,0.013523,0.002678,0.000431,0.019627
119085000,0.0324,0.013523,0.002678,0.000431,0.013516
119086000,0.0324,0.013523,0.002678,0.000431,0.012340
119087000,0.0324,0.013523,0.002678,0.000431,0.012340
119088000,0.0324,0.013523,0.002678,0.000431,0.013398
119089000,0.0324,0.013523,0.002678,0.000431,0.010225
119090000,0.0324,0.013523,0.002678,0.000431,0.006464
119091000,0.0324,0.013523,0.002678,0.000431,0.009167
119092000,0.0324,0.013523,0.002678,0.000431,0.007522
119093000,0.0324,0.013523,0.002678,0.000431,0.005054
119094000,0.0324,0.013523,0.002678,0.000431,0.005289
119095000,0.0324,0.013523,0.002678,0.000431,0.004584
119096000,0.0324,0.013523,0.002678,0.000431,0.009167
119097000,0.0324,0.013523,0.002678,0.000431,0.003878
119098000,0.0324,0.013523,0.002678,0.000431,0.006229
119099000,0.0324,0.013523,0.002678,0.000431,0.003056
119100000,0.0324,0.013523,0.002678,0.000431,0.003526
119101000,0.0324,0.013523,0.002678,0.000431,0.003526
119102000,0.0324,0.013523,0.002678,0.000431,0.003056
119103000,0.0324,0.013523,0.002678,0.000431,0.003173
119104000,0.0324,0.013523,0.002678,0.000431,0.005876
119105000,0.0324,0.013523,0.002678,0.000431,0.005994
119106000,0.0324,0.013523,0.002678,0.000431,0.001763
119107000,0.0324,0.013523,0.002678,0.000431,0.001645
119108000,0.0324,0.013523,0.002678,0.000431,0.001645
119109000,0.0324,0.013523,0.002678,0.000431,0.001645
119110000,0.0324,0.013523,0.002678,0.000431,0.001645
119111000,0.0324,0.013523,0.002678,0.000431,0.001763
119112000,0.0324,0.013523,0.002678,0.000431,0.001645
119113000,0.0324,0.013523,0.002678,0.000431,0.001763
119114000,0.0324,0.013523,0.002678,0.000431,0.001528
119115000,0.0324,0.013523,0.002678,0.000431,0.001645
119116000,0.0324,0.013523,0.002678,0.000431,0.001880
119117000,0.0324,0.013523,0.002678,0.000431,0.001645
119118000,0.0324,0.013523,0.002678,0.000431,0.001645
119119000,0.0324,0.013523,0.002678,0.000431,0.001645
119120000,0.0324,0.013523,0.002678,0.000431,0.001645
119121000,0.0324,0.013523,0.002678,0.000431,0.001763
119122000,0.0324,0.013523,0.002678,0.000431,0.001645
119123000,0.0324,0.013523,0.002678,0.000431,0.001645
119124000,0.0324,0.013523,0.002678,0.000431,0.001645
119125000,0.0324,0.013523,0.002678,0.000431,0.001763
119126000,0.0324,0.013523,0.002678,0.000431,0.001645
119127000,0.0324,0.013523,0.002678,0.000431,0.001645
119128000,0.0324,0.013523,0.002678,0.000431,0.001645
119129000,0.0324,0.013523,0.002678,0.000431,0.001763
119130000,0.0324,0.013523,0.002678,0.000431,0.003526
119131000,0.0324,0.013523,0.002678,0.000431,0.000823
119132000,0.0324,0.013523,0.002678,0.000431,0.000823
119133000,0.0324,0.013523,0.002678,0.000431,0.000823
119134000,0.0324,0.013523,0.002678,0.000431,0.000823
119135000,0.0324,0.013523,0.002678,0.000431,0.000940
119136000,0.0324,0.013523,0.002678,0.000431,0.000705
119137000,0.0324,0.013523,0.002678,0.000431,0.000940
119138000,0.0324,0.013523,0.002678,0.000431,0.000705
119139000,0.0324,0.013523,0.002678,0.000431,0.000940
119140000,0.0324,0.013523,0.002678,0.000431,0.000940
119141000,0.0324,0.013523,0.002678,0.000431,0.000705
119142000,0.0324,0.013523,0.002678,0.000431,0.071457
119143000,0.0324,0.013523,0.002678,0.000431,0.761583
119144000,0.0324,0.013523,0.002678,0.000431,0.595633
119145000,0.0324,0.013523,0.002678,0.000431,0.142444
119146000,0.0324,0.013523,0.002678,0.000431,0.143149
119147000,0.0324,0.013523,0.002678,0.000431,0.630186
119148000,0.0324,0.013523,0.002678,0.000431,0.224596
119149000,0.0324,0.013523,0.002678,0.000431,0.334603
119150000,0.0324,0.013523,0.002678,0.000431,0.176057
119151000,0.0324,0.013523,0.002678,0.000431,0.163717
119152000,0.0324,0.013523,0.002678,0.000431,0.101662
119153000,0.0324,0.013523,0.002678,0.000431,0.499495
119154000,0.0324,0.013523,0.002678,0.000431,0.300872
119155000,0.0324,0.013523,0.002678,0.000431,0.203089
119156000,0.0324,0.013523,0.002678,0.000431,0.178055
119157000,0.0324,0.013523,0.002678,0.000431,0.173707
119158000,0.0324,0.013523,0.002678,0.000431,0.127518
119159000,0.0324,0.013523,0.002678,0.000431,0.121877
119160000,0.0324,0.013523,0.002678,0.000431,0.105775
119161000,0.0324,0.013523,0.002678,0.000431,0.092612
119162000,0.0324,0.013523,0.002678,0.000431,0.089321
119163000,0.0324,0.013523,0.002678,0.000431,0.072397
119164000,0.0324,0.013523,0.002678,0.000431,0.069694
119165000,0.0324,0.013523,0.002678,0.000431,0.055826
119166000,0.0324,0.013523,0.002678,0.000431,0.055473
119167000,0.0324,0.013523,0.002678,0.000431,0.041487
119168000,0.0324,0.013523,0.002678,0.000431,0.047129
119169000,0.0324,0.013523,0.002678,0.000431,0.030322
119170000,0.0324,0.013523,0.002678,0.000431,0.026091
119171000,0.0324,0.013523,0.002678,0.000431,0.017042
119172000,0.0324,0.013523,0.002678,0.000431,0.021860
119173000,0.0324,0.013523,0.002678,0.000431,0.017747
119174000,0.0324,0.013523,0.002678,0.000431,0.016336
119175000,0.0324,0.013523,0.002678,0.000431,0.026091
119176000,0.0324,0.013523,0.002678,0.000431,0.011048
119177000,0.0324,0.013523,0.002678,0.000431,0.015044
119178000,0.0324,0.013523,0.002678,0.000431,0.009520
119179000,0.0324,0.013523,0.002678,0.000431,0.005994
119180000,0.0324,0.013523,0.002678,0.000431,0.008227
119181000,0.0324,0.013523,0.002678,0.000431,0.008815
119182000,0.0324,0.013523,0.002678,0.000431,0.007169
119183000,0.0324,0.013523,0.002678,0.000431,0.002351
119184000,0.0324,0.013523,0.002678,0.000431,0.002586
119185000,0.0324,0.013523,0.002678,0.000431,0.002351
119186000,0.0324,0.013523,0.002678,0.000431,0.002586
119187000,0.0324,0.013523,0.002678,0.000431,0.002821
119188000,0.0324,0.013523,0.002678,0.000431,0.030087
119189000,0.0324,0.013523,0.002678,0.000431,0.766049
119190000,0.0324,0.013523,0.002678,0.000431,0.598101
119191000,0.0324,0.013523,0.002678,0.000431,0.134452
119192000,0.0324,0.013523,0.002678,0.000431,0.135157
119193000,0.0324,0.013523,0.002678,0.000431,0.560609
119194000,0.0324,0.013523,0.002678,0.000431,0.247044
119195000,0.0324,0.013523,0.002678,0.000431,0.325788
119196000,0.0324,0.013523,0.002678,0.000431,0.238465
119197000,0.0324,0.013523,0.002678,0.000431,0.153609
119198000,0.0324,0.013523,0.002678,0.000431,0.105305
119199000,0.0324,0.013523,0.002678,0.000431,0.399361
119200000,0.0324,0.013523,0.002678,0.000431,0.363867
119201000,0.0324,0.013523,0.002678,0.000431,0.210846
119202000,0.0324,0.013523,0.002678,0.000431,0.167595
119203000,0.0324,0.013523,0.002678,0.000431,0.177820
119204000,0.0324,0.013523,0.002678,0.000431,0.143854
119205000,0.0324,0.013523,0.002678,0.000431,0.127636
119206000,0.0324,0.013523,0.002678,0.000431,0.123052
119207000,0.0324,0.013523,0.002678,0.000431,0.118821
119208000,0.0324,0.013523,0.002678,0.000431,0.100134
119209000,0.0324,0.013523,0.002678,0.000431,0.081212
119210000,0.0324,0.013523,0.002678,0.000431,0.066756
119211000,0.0324,0.013523,0.002678,0.000431,0.072280
119212000,0.0324,0.013523,0.002678,0.000431,0.055708
119213000,0.0324,0.013523,0.002678,0.000431,0.048892
119214000,0.0324,0.013523,0.002678,0.000431,0.045601
119215000,0.0324,0.013523,0.002678,0.000431,0.047011
119216000,0.0324,0.013523,0.002678,0.000431,0.049949
119217000,0.0324,0.013523,0.002678,0.000431,0.037491
119218000,0.0324,0.013523,0.002678,0.000431,0.029735
119219000,0.0324,0.013523,0.002678,0.000431,0.038197
119220000,0.0324,0.013523,0.002678,0.000431,0.024916
119221000,0.0324,0.013523,0.002678,0.000431,0.022448
119222000,0.0324,0.013523,0.002678,0.000431,0.022213
119223000,0.0324,0.013523,0.002678,0.000431,0.019862
119224000,0.0324,0.013523,0.002678,0.000431,0.019040
119225000,0.0324,0.013523,0.002678,0.000431,0.022918
119226000,0.0324,0.013523,0.002678,0.000431,0.008815
119227000,0.0324,0.013523,0.002678,0.000431,0.007992
119228000,0.0324,0.013523,0.002678,0.000431,0.009520
119229000,0.0324,0.013523,0.002678,0.000431,0.007404
119230000,0.0324,0.013523,0.002678,0.000431,0.007404
119231000,0.0324,0.013523,0.002678,0.000431,0.007639
119232000,0.0324,0.013523,0.002678,0.000431,0.009755
119233000,0.0324,0.013523,0.002678,0.000431,0.010578
119234000,0.0324,0.013523,0.002678,0.000431,0.005524
119235000,0.0324,0.013523,0.002678,0.000431,0.005171
119236000,0.0324,0.013523,0.002678,0.000431,0.004936
119237000,0.0324,0.013523,0.002678,0.000431,0.004466
119238000,0.0324,0.013523,0.002678,0.000431,0.004231
119239000,0.0324,0.013523,0.002678,0.000431,0.006817
119240000,0.0324,0.013523,0.002678,0.000431,0.003526
119241000,0.0324,0.013523,0.002678,0.000431,0.007639
119242000,0.0324,0.013523,0.002678,0.000431,0.000940
119243000,0.0324,0.013523,0.002678,0.000431,0.000940
119244000,0.0324,0.013523,0.002678,0.000431,0.000705
119245000,0.0324,0.013523,0.002678,0.000431,0.000940
119246000,0.0324,0.013523,0.002678,0.000431,0.000705
119247000,0.0324,0.013523,0.002678,0.000431,0.000940
119248000,0.0324,0.013523,0.002678,0.000431,0.000823
119249000,0.0324,0.013523,0.002678,0.000431,0.000823
119250000,0.0324,0.013523,0.002678,0.000431,0.000823
119251000,0.0324,0.013523,0.002678,0.000431,0.000823
119252000,0.0324,0.013523,0.002678,0.000431,0.000940
119253000,0.0324,0.013523,0.002678,0.000431,0.000705
119254000,0.0324,0.013523,0.002678,0.000431,0.000940
119255000,0.0324,0.013523,0.002678,0.000431,0.000705
119256000,0.0324,0.013523,0.002678,0.000431,0.000940
119257000,0.0324,0.013523,0.002678,0.000431,0.000823
119258000,0.0324,0.013523,0.002678,0.000431,0.000823
119259000,0.0324,0.013523,0.002678,0.000431,0.000705
119260000,0.0324,0.013523,0.002678,0.000431,0.000940
119261000,0.0324,0.013523,0.002678,0.000431,0.000940
119262000,0.0324,0.013523,0.002678,0.000431,0.000705
119263000,0.0324,0.013523,0.002678,0.000431,0.000940
119264000,0.0324,0.013523,0.002678,0.000431,0.000705
119265000,0.0324,0.013523,0.002678,0.000431,0.000940
119266000,0.0324,0.013523,0.002678,0.000431,0.000823
119267000,0.0324,0.013523,0.002678,0.000431,0.000823
119268000,0.0324,0.013523,0.002678,0.000431,0.000940
119269000,0.0324,0.013523,0.002678,0.000431,0.000705
119270000,0.0324,0.013523,0.002678,0.000431,0.000940
119271000,0.0324,0.013523,0.002678,0.000431,0.000823
119272000,0.0324,0.013523,0.002678,0.000431,0.000823
119273000,0.0324,0.013523,0.002678,0.000431,0.000823
119274000,0.0324,0.013523,0.002678,0.000431,0.000823
119275000,0.0324,0.013523,0.002678,0.000431,0.000705
119276000,0.0324,0.013523,0.002678,0.000431,0.052770
119277000,0.0324,0.013523,0.002678,0.000431,0.684484
119278000,0.0324,0.013523,0.002678,0.000431,0.580354
119279000,0.0324,0.013523,0.002678,0.000431,0.177585
119280000,0.0324,0.013523,0.002678,0.000431,0.143972
119281000,0.0324,0.013523,0.002678,0.000431,0.598218
119282000,0.0324,0.013523,0.002678,0.000431,0.232588
119283000,0.0324,0.013523,0.002678,0.000431,0.283360
119284000,0.0324,0.013523,0.002678,0.000431,0.291587
119285000,0.0324,0.013523,0.002678,0.000431,0.149143
119286000,0.0324,0.013523,0.002678,0.000431,0.150319
119287000,0.0324,0.013523,0.002678,0.000431,0.195919
119288000,0.0324,0.013523,0.002678,0.000431,0.503373
119289000,0.0324,0.013523,0.002678,0.000431,0.246809
119290000,0.0324,0.013523,0.002678,0.000431,0.181581
119291000,0.0324,0.013523,0.002678,0.000431,0.159016
119292000,0.0324,0.013523,0.002678,0.000431,0.144677
119293000,0.0324,0.013523,0.002678,0.000431,0.113650
119294000,0.0324,0.013523,0.002678,0.000431,0.092730
119295000,0.0324,0.013523,0.002678,0.000431,0.102720
119296000,0.0324,0.013523,0.002678,0.000431,0.083092
119297000,0.0324,0.013523,0.002678,0.000431,0.073455
119298000,0.0324,0.013523,0.002678,0.000431,0.076511
119299000,0.0324,0.013523,0.002678,0.000431,0.061115
119300000,0.0324,0.013523,0.002678,0.000431,0.066051
119301000,0.0324,0.013523,0.002678,0.000431,0.059704
119302000,0.0324,0.013523,0.002678,0.000431,0.037374
119303000,0.0324,0.013523,0.002678,0.000431,0.040077
119304000,0.0324,0.013523,0.002678,0.000431,0.032085
119305000,0.0324,0.013523,0.002678,0.000431,0.037609
119306000,0.0324,0.013523,0.002678,0.000431,0.018687
119307000,0.0324,0.013523,0.002678,0.000431,0.020332
119308000,0.0324,0.013523,0.002678,0.000431,0.020332
119309000,0.0324,0.013523,0.002678,0.000431,0.016571
119310000,0.0324,0.013523,0.002678,0.000431,0.018805
119311000,0.0324,0.013523,0.002678,0.000431,0.018452
119312000,0.0324,0.013523,0.002678,0.000431,0.016336
119313000,0.0324,0.013523,0.002678,0.000431,0.016101
119314000,0.0324,0.013523,0.002678,0.000431,0.011400
119315000,0.0324,0.013523,0.002678,0.000431,0.017512
119316000,0.0324,0.013523,0.002678,0.000431,0.009402
119317000,0.0324,0.013523,0.002678,0.000431,0.006817
119318000,0.0324,0.013523,0.002678,0.000431,0.005994
119319000,0.0324,0.013523,0.002678,0.000431,0.006699
119320000,0.0324,0.013523,0.002678,0.000431,0.004584
119321000,0.0324,0.013523,0.002678,0.000431,0.004349
119322000,0.0324,0.013523,0.002678,0.000431,0.004113
119323000,0.0324,0.013523,0.002678,0.000431,0.003761
119324000,0.0324,0.013523,0.002678,0.000431,0.003173
119325000,0.0324,0.013523,0.002678,0.000431,0.003761
119326000,0.0324,0.013523,0.002678,0.000431,0.003643
119327000,0.0324,0.013523,0.002678,0.000431,0.003761
119328000,0.0324,0.013523,0.002678,0.000431,0.003526
119329000,0.0324,0.013523,0.002678,0.000431,0.003878
119330000,0.0324,0.013523,0.002678,0.000431,0.003408
119331000,0.0324,0.013523,0.002678,0.000431,0.006347
119332000,0.0324,0.013523,0.002678,0.000431,0.002821
119333000,0.0324,0.013523,0.002678,0.000431,0.002703
119334000,0.0324,0.013523,0.002678,0.000431,0.002821
119335000,0.0324,0.013523,0.002678,0.000431,0.002821
119336000,0.0324,0.013523,0.002678,0.000431,0.002468
119337000,0.0324,0.013523,0.002678,0.000431,0.002821
119338000,0.0324,0.013523,0.002678,0.000431,0.004231
119339000,0.0324,0.013523,0.002678,0.000431,0.005759
119340000,0.0324,0.013523,0.002678,0.000431,0.001058
119341000,0.0324,0.013523,0.002678,0.000431,0.002233
119342000,0.0324,0.013523,0.002678,0.000431,0.411584
119343000,0.0324,0.013523,0.002678,0.000431,0.727147
119344000,0.0324,0.013523,0.002678,0.000431,0.299932
119345000,0.0324,0.013523,0.002678,0.000431,0.138683
119346000,0.0324,0.013523,0.002678,0.000431,0.440731
119347000,0.0324,0.013523,0.002678,0.000431,0.408881
119348000,0.0324,0.013523,0.002678,0.000431,0.299462
119349000,0.0324,0.013523,0.002678,0.000431,0.269140
119350000,0.0324,0.013523,0.002678,0.000431,0.148438
119351000,0.0324,0.013523,0.002678,0.000431,0.108949
119352000,0.0324,0.013523,0.002678,0.000431,0.365630
119353000,0.0324,0.013523,0.002678,0.000431,0.362809
119354000,0.0324,0.013523,0.002678,0.000431,0.195097
119355000,0.0324,0.013523,0.002678,0.000431,0.169593
119356000,0.0324,0.013523,0.002678,0.000431,0.156077
119357000,0.0324,0.013523,0.002678,0.000431,0.123287
119358000,0.0324,0.013523,0.002678,0.000431,0.120466
119359000,0.0324,0.013523,0.002678,0.000431,0.109771
119360000,0.0324,0.013523,0.002678,0.000431,0.083915
119361000,0.0324,0.013523,0.002678,0.000431,0.071457
119362000,0.0324,0.013523,0.002678,0.000431,0.066286
119363000,0.0324,0.013523,0.002678,0.000431,0.059939
119364000,0.0324,0.013523,0.002678,0.000431,0.046659
119365000,0.0324,0.013523,0.002678,0.000431,0.047481
119366000,0.0324,0.013523,0.002678,0.000431,0.040665
119367000,0.0324,0.013523,0.002678,0.000431,0.039842
119368000,0.0324,0.013523,0.002678,0.000431,0.042898
119369000,0.0324,0.013523,0.002678,0.000431,0.033260
119370000,0.0324,0.013523,0.002678,0.000431,0.034906
119371000,0.0324,0.013523,0.002678,0.000431,0.030557
119372000,0.0324,0.013523,0.002678,0.000431,0.029382
119373000,0.0324,0.013523,0.002678,0.000431,0.031498
119374000,0.0324,0.013523,0.002678,0.000431,0.029147
119375000,0.0324,0.013523,0.002678,0.000431,0.023506
119376000,0.0324,0.013523,0.002678,0.000431,0.019040
119377000,0.0324,0.013523,0.002678,0.000431,0.019040
119378000,0.0324,0.013523,0.002678,0.000431,0.009285
119379000,0.0324,0.013523,0.002678,0.000431,0.007522
119380000,0.0324,0.013523,0.002678,0.000431,0.005759
119381000,0.0324,0.013523,0.002678,0.000431,0.007404
119382000,0.0324,0.013523,0.002678,0.000431,0.006582
119383000,0.0324,0.013523,0.002678,0.000431,0.004936
119384000,0.0324,0.013523,0.002678,0.000431,0.006229
119385000,0.0324,0.013523,0.002678,0.000431,0.005289
119386000,0.0324,0.013523,0.002678,0.000431,0.005054
119387000,0.0324,0.013523,0.002678,0.000431,0.004466
119388000,0.0324,0.013523,0.002678,0.000431,0.005406
119389000,0.0324,0.013523,0.002678,0.000431,0.004701
119390000,0.0324,0.013523,0.002678,0.000431,0.001880
119391000,0.0324,0.013523,0.002678,0.000431,0.001528
119392000,0.0324,0.013523,0.002678,0.000431,0.001880
119393000,0.0324,0.013523,0.002678,0.000431,0.003056
119394000,0.0324,0.013523,0.002678,0.000431,0.000823
119395000,0.0324,0.013523,0.002678,0.000431,0.000823
119396000,0.0324,0.013523,0.002678,0.000431,0.000705
119397000,0.0324,0.013523,0.002678,0.000431,0.000940
119398000,0.0324,0.013523,0.002678,0.000431,0.000705
119399000,0.0324,0.013523,0.002678,0.000431,0.000940
119400000,0.0324,0.013523,0.002678,0.000431,0.000823
119401000,0.0324,0.013523,0.002678,0.000431,0.000823
119402000,0.0324,0.013523,0.002678,0.000431,0.001763
119403000,0.0324,0.013523,0.002678,0.000431,0.320499
119404000,0.0324,0.013523,0.002678,0.000431,0.717039
119405000,0.0324,0.013523,0.002678,0.000431,0.311685
119406000,0.0324,0.013523,0.002678,0.000431,0.136920
119407000,0.0324,0.013523,0.002678,0.000431,0.203206
119408000,0.0324,0.013523,0.002678,0.000431,0.577181
119409000,0.0324,0.013523,0.002678,0.000431,0.275133
119410000,0.0324,0.013523,0.002678,0.000431,0.314388
119411000,0.0324,0.013523,0.002678,0.000431,0.146088
119412000,0.0324,0.013523,0.002678,0.000431,0.162424
119413000,0.0324,0.013523,0.002678,0.000431,0.105070
119414000,0.0324,0.013523,0.002678,0.000431,0.477752
119415000,0.0324,0.013523,0.002678,0.000431,0.311097
119416000,0.0324,0.013523,0.002678,0.000431,0.188868
119417000,0.0324,0.013523,0.002678,0.000431,0.163834
119418000,0.0324,0.013523,0.002678,0.000431,0.140211
119419000,0.0324,0.013523,0.002678,0.000431,0.130456
119420000,0.0324,0.013523,0.002678,0.000431,0.122582
119421000,0.0324,0.013523,0.002678,0.000431,0.109419
119422000,0.0324,0.013523,0.002678,0.000431,0.090614
119423000,0.0324,0.013523,0.002678,0.000431,0.087323
119424000,0.0324,0.013523,0.002678,0.000431,0.082622
119425000,0.0324,0.013523,0.002678,0.000431,0.060527
119426000,0.0324,0.013523,0.002678,0.000431,0.064170
119427000,0.0324,0.013523,0.002678,0.000431,0.050655
119428000,0.0324,0.013523,0.002678,0.000431,0.047129
119429000,0.0324,0.013523,0.002678,0.000431,0.046894
119430000,0.0324,0.013523,0.002678,0.000431,0.036081
119431000,0.0324,0.013523,0.002678,0.000431,0.031027
119432000,0.0324,0.013523,0.002678,0.000431,0.027384
119433000,0.0324,0.013523,0.002678,0.000431,0.018334
119434000,0.0324,0.013523,0.002678,0.000431,0.022683
119435000,0.0324,0.013523,0.002678,0.000431,0.018452
119436000,0.0324,0.013523,0.002678,0.000431,0.016336
119437000,0.0324,0.013523,0.002678,0.000431,0.012576
119438000,0.0324,0.013523,0.002678,0.000431,0.013046
119439000,0.0324,0.013523,0.002678,0.000431,0.006817
119440000,0.0324,0.013523,0.002678,0.000431,0.006699
119441000,0.0324,0.013523,0.002678,0.000431,0.006699
119442000,0.0324,0.013523,0.002678,0.000431,0.006111
119443000,0.0324,0.013523,0.002678,0.000431,0.006817
119444000,0.0324,0.013523,0.002678,0.000431,0.007992
119445000,0.0324,0.013523,0.002678,0.000431,0.005406
119446000,0.0324,0.013523,0.002678,0.000431,0.004701
119447000,0.0324,0.013523,0.002678,0.000431,0.005289
119448000,0.0324,0.013523,0.002678,0.000431,0.005289
119449000,0.0324,0.013523,0.002678,0.000431,0.012223
119450000,0.0324,0.013523,0.002678,0.000431,0.003526
119451000,0.0324,0.013523,0.002678,0.000431,0.004466
119452000,0.0324,0.013523,0.002678,0.000431,0.002468
119453000,0.0324,0.013523,0.002678,0.000431,0.002703
119454000,0.0324,0.013523,0.002678,0.000431,0.004349
119455000,0.0324,0.013523,0.002678,0.000431,0.001763
119456000,0.0324,0.013523,0.002678,0.000431,0.001645
119457000,0.0324,0.013523,0.002678,0.000431,0.001763
119458000,0.0324,0.013523,0.002678,0.000431,0.001645
119459000,0.0324,0.013523,0.002678,0.000431,0.001763
119460000,0.0324,0.013523,0.002678,0.000431,0.001763
119461000,0.0324,0.013523,0.002678,0.000431,0.003408
119462000,0.0324,0.013523,0.002678,0.000431,0.002821
119463000,0.0324,0.013523,0.002678,0.000431,0.000823
119464000,0.0324,0.013523,0.002678,0.000431,0.000705
119465000,0.0324,0.013523,0.002678,0.000431,0.000940
119466000,0.0324,0.013523,0.002678,0.000431,0.000940
119467000,0.0324,0.013523,0.002678,0.000431,0.000705
119468000,0.0324,0.013523,0.002678,0.000431,0.000940
119469000,0.0324,0.013523,0.002678,0.000431,0.000705
119470000,0.0324,0.013523,0.002678,0.000431,0.000940
119471000,0.0324,0.013523,0.002678,0.000431,0.000705
119472000,0.0324,0.013523,0.002678,0.000431,0.000940
119473000,0.0324,0.013523,0.002678,0.000431,0.000823
119474000,0.0324,0.013523,0.002678,0.000431,0.000940
119475000,0.0324,0.013523,0.002678,0.000431,0.249630
119476000,0.0324,0.013523,0.002678,0.000431,0.747244
119477000,0.0324,0.013523,0.002678,0.000431,0.410879
119478000,0.0324,0.013523,0.002678,0.000431,0.156665
119479000,0.0324,0.013523,0.002678,0.000431,0.213431
119480000,0.0324,0.013523,0.002678,0.000431,0.568366
119481000,0.0324,0.013523,0.002678,0.000431,0.276779
119482000,0.0324,0.013523,0.002678,0.000431,0.328139
119483000,0.0324,0.013523,0.002678,0.000431,0.145500
119484000,0.0324,0.013523,0.002678,0.000431,0.174882
119485000,0.0324,0.013523,0.002678,0.000431,0.099899
119486000,0.0324,0.013523,0.002678,0.000431,0.488212
119487000,0.0324,0.013523,0.002678,0.000431,0.294996
119488000,0.0324,0.013523,0.002678,0.000431,0.204146
119489000,0.0324,0.013523,0.002678,0.000431,0.173589
119490000,0.0324,0.013523,0.002678,0.000431,0.159721
119491000,0.0324,0.013523,0.002678,0.000431,0.140211
119492000,0.0324,0.013523,0.002678,0.000431,0.117881
119493000,0.0324,0.013523,0.002678,0.000431,0.105188
119494000,0.0324,0.013523,0.002678,0.000431,0.100252
119495000,0.0324,0.013523,0.002678,0.000431,0.090262
119496000,0.0324,0.013523,0.002678,0.000431,0.086501
119497000,0.0324,0.013523,0.002678,0.000431,0.066051
119498000,0.0324,0.013523,0.002678,0.000431,0.055473
119499000,0.0324,0.013523,0.002678,0.000431,0.063818
119500000,0.0324,0.013523,0.002678,0.000431,0.045366
119501000,0.0324,0.013523,0.002678,0.000431,0.043720
119502000,0.0324,0.013523,0.002678,0.000431,0.036904
119503000,0.0324,0.013523,0.002678,0.000431,0.028089
119504000,0.0324,0.013523,0.002678,0.000431,0.025386
119505000,0.0324,0.013523,0.002678,0.000431,0.021390
119506000,0.0324,0.013523,0.002678,0.000431,0.017042
119507000,0.0324,0.013523,0.002678,0.000431,0.018922
119508000,0.0324,0.013523,0.002678,0.000431,0.018569
119509000,0.0324,0.013523,0.002678,0.000431,0.016219
119510000,0.0324,0.013523,0.002678,0.000431,0.009050
119511000,0.0324,0.013523,0.002678,0.000431,0.014809
119512000,0.0324,0.013523,0.002678,0.000431,0.004466
119513000,0.0324,0.013523,0.002678,0.000431,0.004466
119514000,0.0324,0.013523,0.002678,0.000431,0.004113
119515000,0.0324,0.013523,0.002678,0.000431,0.004113
119516000,0.0324,0.013523,0.002678,0.000431,0.006582
119517000,0.0324,0.013523,0.002678,0.000431,0.005994
119518000,0.0324,0.013523,0.002678,0.000431,0.002351
119519000,0.0324,0.013523,0.002678,0.000431,0.005289
119520000,0.0324,0.013523,0.002678,0.000431,0.001880
119521000,0.0324,0.013523,0.002678,0.000431,0.004113
119522000,0.0324,0.013523,0.002678,0.000431,0.000940
119523000,0.0324,0.013523,0.002678,0.000431,0.000823
119524000,0.0324,0.013523,0.002678,0.000431,0.000940
119525000,0.0324,0.013523,0.002678,0.000431,0.000823
119526000,0.0324,0.013523,0.002678,0.000431,0.000940
119527000,0.0324,0.013523,0.002678,0.000431,0.037727
119528000,0.0324,0.013523,0.002678,0.000431,0.701878
119529000,0.0324,0.013523,0.002678,0.000431,0.597866
119530000,0.0324,0.013523,0.002678,0.000431,0.148438
119531000,0.0324,0.013523,0.002678,0.000431,0.142797
119532000,0.0324,0.013523,0.002678,0.000431,0.592342
119533000,0.0324,0.013523,0.002678,0.000431,0.268787
119534000,0.0324,0.013523,0.002678,0.000431,0.271020
119535000,0.0324,0.013523,0.002678,0.000431,0.254919
119536000,0.0324,0.013523,0.002678,0.000431,0.146088
119537000,0.0324,0.013523,0.002678,0.000431,0.166772
119538000,0.0324,0.013523,0.002678,0.000431,0.157135
119539000,0.0324,0.013523,0.002678,0.000431,0.514186
119540000,0.0324,0.013523,0.002678,0.000431,0.214254
119541000,0.0324,0.013523,0.002678,0.000431,0.173707
119542000,0.0324,0.013523,0.002678,0.000431,0.154902
119543000,0.0324,0.013523,0.002678,0.000431,0.140329
119544000,0.0324,0.013523,0.002678,0.000431,0.120701
119545000,0.0324,0.013523,0.002678,0.000431,0.116118
119546000,0.0324,0.013523,0.002678,0.000431,0.105070
119547000,0.0324,0.013523,0.002678,0.000431,0.092495
119548000,0.0324,0.013523,0.002678,0.000431,0.084150
119549000,0.0324,0.013523,0.002678,0.000431,0.078861
119550000,0.0324,0.013523,0.002678,0.000431,0.076276
119551000,0.0324,0.013523,0.002678,0.000431,0.072985
119552000,0.0324,0.013523,0.002678,0.000431,0.055708
119553000,0.0324,0.013523,0.002678,0.000431,0.052065
119554000,0.0324,0.013523,0.002678,0.000431,0.046541
119555000,0.0324,0.013523,0.002678,0.000431,0.054651
119556000,0.0324,0.013523,0.002678,0.000431,0.044073
119557000,0.0324,0.013523,0.002678,0.000431,0.039960
119558000,0.0324,0.013523,0.002678,0.000431,0.029382
119559000,0.0324,0.013523,0.002678,0.000431,0.026914
119560000,0.0324,0.013523,0.002678,0.000431,0.028089
119561000,0.0324,0.013523,0.002678,0.000431,0.025856
119562000,0.0324,0.013523,0.002678,0.000431,0.020215
119563000,0.0324,0.013523,0.002678,0.000431,0.019510
119564000,0.0324,0.013523,0.002678,0.000431,0.011048
119565000,0.0324,0.013523,0.002678,0.000431,0.018569
119566000,0.0324,0.013523,0.002678,0.000431,0.009285
119567000,0.0324,0.013523,0.002678,0.000431,0.011048
119568000,0.0324,0.013523,0.002678,0.000431,0.010107
119569000,0.0324,0.013523,0.002678,0.000431,0.007287
119570000,0.0324,0.013523,0.002678,0.000431,0.007169
119571000,0.0324,0.013523,0.002678,0.000431,0.004113
119572000,0.0324,0.013523,0.002678,0.000431,0.004349
119573000,0.0324,0.013523,0.002678,0.000431,0.004349
119574000,0.0324,0.013523,0.002678,0.000431,0.004113
119575000,0.0324,0.013523,0.002678,0.000431,0.003643
119576000,0.0324,0.013523,0.002678,0.000431,0.005289
119577000,0.0324,0.013523,0.002678,0.000431,0.003996
119578000,0.0324,0.013523,0.002678,0.000431,0.001763
119579000,0.0324,0.013523,0.002678,0.000431,0.003996
119580000,0.0324,0.013523,0.002678,0.000431,0.014691
119581000,0.0324,0.013523,0.002678,0.000431,0.700115
119582000,0.0324,0.013523,0.002678,0.000431,0.611617
119583000,0.0324,0.013523,0.002678,0.000431,0.145852
119584000,0.0324,0.013523,0.002678,0.000431,0.137626
119585000,0.0324,0.013523,0.002678,0.000431,0.639236
119586000,0.0324,0.013523,0.002678,0.000431,0.256329
119587000,0.0324,0.013523,0.002678,0.000431,0.253273
119588000,0.0324,0.013523,0.002678,0.000431,0.252098
119589000,0.0324,0.013523,0.002678,0.000431,0.157135
119590000,0.0324,0.013523,0.002678,0.000431,0.136215
119591000,0.0324,0.013523,0.002678,0.000431,0.237524
119592000,0.0324,0.013523,0.002678,0.000431,0.465764
119593000,0.0324,0.013523,0.002678,0.000431,0.231883
119594000,0.0324,0.013523,0.002678,0.000431,0.198035
119595000,0.0324,0.013523,0.002678,0.000431,0.158310
119596000,0.0324,0.013523,0.002678,0.000431,0.151964
119597000,0.0324,0.013523,0.002678,0.000431,0.129986
119598000,0.0324,0.013523,0.002678,0.000431,0.115883
119599000,0.0324,0.013523,0.002678,0.000431,0.099899
119600000,0.0324,0.013523,0.002678,0.000431,0.094140
119601000,0.0324,0.013523,0.002678,0.000431,0.089909
119602000,0.0324,0.013523,0.002678,0.000431,0.080037
119603000,0.0324,0.013523,0.002678,0.000431,0.071105
119604000,0.0324,0.013523,0.002678,0.000431,0.067109
119605000,0.0324,0.013523,0.002678,0.000431,0.057354
119606000,0.0324,0.013523,0.002678,0.000431,0.054063
119607000,0.0324,0.013523,0.002678,0.000431,0.051007
119608000,0.0324,0.013523,0.002678,0.000431,0.047834
119609000,0.0324,0.013523,0.002678,0.000431,0.043485
119610000,0.0324,0.013523,0.002678,0.000431,0.035846
119611000,0.0324,0.013523,0.002678,0.000431,0.038314
119612000,0.0324,0.013523,0.002678,0.000431,0.025269
119613000,0.0324,0.013523,0.002678,0.000431,0.030205
119614000,0.0324,0.013523,0.002678,0.000431,0.025504
119615000,0.0324,0.013523,0.002678,0.000431,0.020802
119616000,0.0324,0.013523,0.002678,0.000431,0.018569
119617000,0.0324,0.013523,0.002678,0.000431,0.021978
119618000,0.0324,0.013523,0.002678,0.000431,0.017277
119619000,0.0324,0.013523,0.002678,0.000431,0.019392
119620000,0.0324,0.013523,0.002678,0.000431,0.015866
119621000,0.0324,0.013523,0.002678,0.000431,0.012223
119622000,0.0324,0.013523,0.002678,0.000431,0.013633
119623000,0.0324,0.013523,0.002678,0.000431,0.012105
119624000,0.0324,0.013523,0.002678,0.000431,0.014456
119625000,0.0324,0.013523,0.002678,0.000431,0.009402
119626000,0.0324,0.013523,0.002678,0.000431,0.010813
119627000,0.0324,0.013523,0.002678,0.000431,0.008462
119628000,0.0324,0.013523,0.002678,0.000431,0.010342
119629000,0.0324,0.013523,0.002678,0.000431,0.009755
119630000,0.0324,0.013523,0.002678,0.000431,0.005524
119631000,0.0324,0.013523,0.002678,0.000431,0.006347
119632000,0.0324,0.013523,0.002678,0.000431,0.007992
119633000,0.0324,0.013523,0.002678,0.000431,0.001880
119634000,0.0324,0.013523,0.002678,0.000431,0.001763
119635000,0.0324,0.013523,0.002678,0.000431,0.001763
119636000,0.0324,0.013523,0.002678,0.000431,0.001645
119637000,0.0324,0.013523,0.002678,0.000431,0.001645
119638000,0.0324,0.013523,0.002678,0.000431,0.001880
119639000,0.0324,0.013523,0.002678,0.000431,0.001645
119640000,0.0324,0.013523,0.002678,0.000431,0.001763
119641000,0.0324,0.013523,0.002678,0.000431,0.003408
119642000,0.0324,0.013523,0.002678,0.000431,0.000823
119643000,0.0324,0.013523,0.002678,0.000431,0.000940
119644000,0.0324,0.013523,0.002678,0.000431,0.000705
119645000,0.0324,0.013523,0.002678,0.000431,0.000940
119646000,0.0324,0.013523,0.002678,0.000431,0.000823
119647000,0.0324,0.013523,0.002678,0.000431,0.000823
119648000,0.0324,0.013523,0.002678,0.000431,0.000823
119649000,0.0324,0.013523,0.002678,0.000431,0.000823
119650000,0.0324,0.013523,0.002678,0.000431,0.000823
119651000,0.0324,0.013523,0.002678,0.000431,0.000823
119652000,0.0324,0.013523,0.002678,0.000431,0.000940
119653000,0.0324,0.013523,0.002678,0.000431,0.000823
119654000,0.0324,0.013523,0.002678,0.000431,0.000823
119655000,0.0324,0.013523,0.002678,0.000431,0.000823
119656000,0.0324,0.013523,0.002678,0.000431,0.000823
119657000,0.0324,0.013523,0.002678,0.000431,0.000705
119658000,0.0324,0.013523,0.002678,0.000431,0.003056
119659000,0.0324,0.013523,0.002678,0.000431,0.573538
119660000,0.0324,0.013523,0.002678,0.000431,0.679430
119661000,0.0324,0.013523,0.002678,0.000431,0.223539
119662000,0.0324,0.013523,0.002678,0.000431,0.160896
119663000,0.0324,0.013523,0.002678,0.000431,0.435677
119664000,0.0324,0.013523,0.002678,0.000431,0.394425
119665000,0.0324,0.013523,0.002678,0.000431,0.270902
119666000,0.0324,0.013523,0.002678,0.000431,0.304986
119667000,0.0324,0.013523,0.002678,0.000431,0.154550
119668000,0.0324,0.013523,0.002678,0.000431,0.157018
119669000,0.0324,0.013523,0.002678,0.000431,0.188750
119670000,0.0324,0.013523,0.002678,0.000431,0.514068
119671000,0.0324,0.013523,0.002678,0.000431,0.269140
119672000,0.0324,0.013523,0.002678,0.000431,0.221658
119673000,0.0324,0.013523,0.002678,0.000431,0.188750
119674000,0.0324,0.013523,0.002678,0.000431,0.177468
119675000,0.0324,0.013523,0.002678,0.000431,0.148673
119676000,0.0324,0.013523,0.002678,0.000431,0.140564
119677000,0.0324,0.013523,0.002678,0.000431,0.130104
119678000,0.0324,0.013523,0.002678,0.000431,0.110476
119679000,0.0324,0.013523,0.002678,0.000431,0.105540
119680000,0.0324,0.013523,0.002678,0.000431,0.091790
119681000,0.0324,0.013523,0.002678,0.000431,0.085208
119682000,0.0324,0.013523,0.002678,0.000431,0.077569
119683000,0.0324,0.013523,0.002678,0.000431,0.068636
119684000,0.0324,0.013523,0.002678,0.000431,0.064405
119685000,0.0324,0.013523,0.002678,0.000431,0.057001
119686000,0.0324,0.013523,0.002678,0.000431,0.047246
119687000,0.0324,0.013523,0.002678,0.000431,0.039489
119688000,0.0324,0.013523,0.002678,0.000431,0.034201
119689000,0.0324,0.013523,0.002678,0.000431,0.029617
119690000,0.0324,0.013523,0.002678,0.000431,0.024681
119691000,0.0324,0.013523,0.002678,0.000431,0.030322
119692000,0.0324,0.013523,0.002678,0.000431,0.020215
119693000,0.0324,0.013523,0.002678,0.000431,0.020567
119694000,0.0324,0.013523,0.002678,0.000431,0.021155
119695000,0.0324,0.013523,0.002678,0.000431,0.013163
119696000,0.0324,0.013523,0.002678,0.000431,0.014221
119697000,0.0324,0.013523,0.002678,0.000431,0.018569
119698000,0.0324,0.013523,0.002678,0.000431,0.005171
119699000,0.0324,0.013523,0.002678,0.000431,0.005524
119700000,0.0324,0.013523,0.002678,0.000431,0.004936
119701000,0.0324,0.013523,0.002678,0.000431,0.004936
119702000,0.0324,0.013523,0.002678,0.000431,0.005406
119703000,0.0324,0.013523,0.002678,0.000431,0.007404
119704000,0.0324,0.013523,0.002678,0.000431,0.003643
119705000,0.0324,0.013523,0.002678,0.000431,0.002586
119706000,0.0324,0.013523,0.002678,0.000431,0.003996
119707000,0.0324,0.013523,0.002678,0.000431,0.001645
119708000,0.0324,0.013523,0.002678,0.000431,0.001763
119709000,0.0324,0.013523,0.002678,0.000431,0.001528
119710000,0.0324,0.013523,0.002678,0.000431,0.001645
119711000,0.0324,0.013523,0.002678,0.000431,0.001645
119712000,0.0324,0.013523,0.002678,0.000431,0.001763
119713000,0.0324,0.013523,0.002678,0.000431,0.001645
119714000,0.0324,0.013523,0.002678,0.000431,0.001763
119715000,0.0324,0.013523,0.002678,0.000431,0.001645
119716000,0.0324,0.013523,0.002678,0.000431,0.003526
119717000,0.0324,0.013523,0.002678,0.000431,0.001058
119718000,0.0324,0.013523,0.002678,0.000431,0.000705
119719000,0.0324,0.013523,0.002678,0.000431,0.000940
119720000,0.0324,0.013523,0.002678,0.000431,0.000705
119721000,0.0324,0.013523,0.002678,0.000431,0.000940
119722000,0.0324,0.013523,0.002678,0.000431,0.000823
119723000,0.0324,0.013523,0.002678,0.000431,0.000823
119724000,0.0324,0.013523,0.002678,0.000431,0.000940
119725000,0.0324,0.013523,0.002678,0.000431,0.000705
119726000,0.0324,0.013523,0.002678,0.000431,0.000940
119727000,0.0324,0.013523,0.002678,0.000431,0.000823
119728000,0.0324,0.013523,0.002678,0.000431,0.000823
119729000,0.0324,0.013523,0.002678,0.000431,0.000823
119730000,0.0324,0.013523,0.002678,0.000431,0.000823
119731000,0.0324,0.013523,0.002678,0.000431,0.000823
119732000,0.0324,0.013523,0.002678,0.000431,0.000823
119733000,0.0324,0.013523,0.002678,0.000431,0.000940
119734000,0.0324,0.013523,0.002678,0.000431,0.000705
119735000,0.0324,0.013523,0.002678,0.000431,0.000940
119736000,0.0324,0.013523,0.002678,0.000431,0.000823
119737000,0.0324,0.013523,0.002678,0.000431,0.000823
119738000,0.0324,0.013523,0.002678,0.000431,0.000705
119739000,0.0324,0.013523,0.002678,0.000431,0.000940
119740000,0.0324,0.013523,0.002678,0.000431,0.000940
119741000,0.0324,0.013523,0.002678,0.000431,0.000705
119742000,0.0324,0.013523,0.002678,0.000431,0.000940
119743000,0.0324,0.013523,0.002678,0.000431,0.000705
119744000,0.0324,0.013523,0.002678,0.000431,0.000940
119745000,0.0324,0.013523,0.002678,0.000431,0.000823
119746000,0.0324,0.013523,0.002678,0.000431,0.000823
119747000,0.0324,0.013523,0.002678,0.000431,0.000940
119748000,0.0324,0.013523,0.002678,0.000431,0.000705
119749000,0.0324,0.013523,0.002678,0.000431,0.000940
119750000,0.0324,0.013523,0.002678,0.000431,0.000823
119751000,0.0324,0.013523,0.002678,0.000431,0.000823
119752000,0.0324,0.013523,0.002678,0.000431,0.000823
119753000,0.0324,0.013523,0.002678,0.000431,0.000823
119754000,0.0324,0.013523,0.002678,0.000431,0.000823
119755000,0.0324,0.013523,0.002678,0.000431,0.000823
119756000,0.0324,0.013523,0.002678,0.000431,0.000940
119757000,0.0324,0.013523,0.002678,0.000431,0.000705
119758000,0.0324,0.013523,0.002678,0.000431,0.000823
119759000,0.0324,0.013523,0.002678,0.000431,0.000940
119760000,0.0324,0.013523,0.002678,0.000431,0.000823
119761000,0.0324,0.013523,0.002678,0.000431,0.000823
119762000,0.0324,0.013523,0.002678,0.000431,0.000823
119763000,0.0324,0.013523,0.002678,0.000431,0.000705
119764000,0.0324,0.013523,0.002678,0.000431,0.000940
119765000,0.0324,0.013523,0.002678,0.000431,0.000940
119766000,0.0324,0.013523,0.002678,0.000431,0.000823
119767000,0.0324,0.013523,0.002678,0.000431,0.000823
119768000,0.0324,0.013523,0.002678,0.000431,0.000705
119769000,0.0324,0.013523,0.002678,0.000431,0.000940
119770000,0.0324,0.013523,0.002678,0.000431,0.000940
119771000,0.0324,0.013523,0.002678,0.000431,0.000705
119772000,0.0324,0.013523,0.002678,0.000431,0.000940
119773000,0.0324,0.013523,0.002678,0.000431,0.000705
119774000,0.0324,0.013523,0.002678,0.000431,0.000940
119775000,0.0324,0.013523,0.002678,0.000431,0.000705
119776000,0.0324,0.013523,0.002678,0.000431,0.000940
119777000,0.0324,0.013523,0.002678,0.000431,0.000705
119778000,0.0324,0.013523,0.002678,0.000431,0.000940
119779000,0.0324,0.013523,0.002678,0.000431,0.179818
119780000,0.0324,0.013523,0.002678,0.000431,0.686130
119781000,0.0324,0.013523,0.002678,0.000431,0.555321
119782000,0.0324,0.013523,0.002678,0.000431,0.149378
119783000,0.0324,0.013523,0.002678,0.000431,0.175470
119784000,0.0324,0.013523,0.002678,0.000431,0.619961
119785000,0.0324,0.013523,0.002678,0.000431,0.272548
119786000,0.0324,0.013523,0.002678,0.000431,0.353995
119787000,0.0324,0.013523,0.002678,0.000431,0.178760
119788000,0.0324,0.013523,0.002678,0.000431,0.168418
119789000,0.0324,0.013523,0.002678,0.000431,0.109419
119790000,0.0324,0.013523,0.002678,0.000431,0.506664
119791000,0.0324,0.013523,0.002678,0.000431,0.201678
119792000,0.0324,0.013523,0.002678,0.000431,0.158663
119793000,0.0324,0.013523,0.002678,0.000431,0.145970
119794000,0.0324,0.013523,0.002678,0.000431,0.131279
119795000,0.0324,0.013523,0.002678,0.000431,0.124815
119796000,0.0324,0.013523,0.002678,0.000431,0.115530
119797000,0.0324,0.013523,0.002678,0.000431,0.102602
119798000,0.0324,0.013523,0.002678,0.000431,0.104130
119799000,0.0324,0.013523,0.002678,0.000431,0.091554
119800000,0.0324,0.013523,0.002678,0.000431,0.082505
119801000,0.0324,0.013523,0.002678,0.000431,0.077569
119802000,0.0324,0.013523,0.002678,0.000431,0.062525
119803000,0.0324,0.013523,0.002678,0.000431,0.062290
119804000,0.0324,0.013523,0.002678,0.000431,0.062995
119805000,0.0324,0.013523,0.002678,0.000431,0.048774
119806000,0.0324,0.013523,0.002678,0.000431,0.039607
119807000,0.0324,0.013523,0.002678,0.000431,0.043720
119808000,0.0324,0.013523,0.002678,0.000431,0.044778
119809000,0.0324,0.013523,0.002678,0.000431,0.042428
119810000,0.0324,0.013523,0.002678,0.000431,0.036081
119811000,0.0324,0.013523,0.002678,0.000431,0.034788
119812000,0.0324,0.013523,0.002678,0.000431,0.030910
119813000,0.0324,0.013523,0.002678,0.000431,0.024446
119814000,0.0324,0.013523,0.002678,0.000431,0.027267
119815000,0.0324,0.013523,0.002678,0.000431,0.029147
119816000,0.0324,0.013523,0.002678,0.000431,0.019980
119817000,0.0324,0.013523,0.002678,0.000431,0.016689
119818000,0.0324,0.013523,0.002678,0.000431,0.013398
119819000,0.0324,0.013523,0.002678,0.000431,0.018099
119820000,0.0324,0.013523,0.002678,0.000431,0.012693
119821000,0.0324,0.013523,0.002678,0.000431,0.008580
119822000,0.0324,0.013523,0.002678,0.000431,0.009520
119823000,0.0324,0.013523,0.002678,0.000431,0.009285
119824000,0.0324,0.013523,0.002678,0.000431,0.009637
119825000,0.0324,0.013523,0.002678,0.000431,0.009167
119826000,0.0324,0.013523,0.002678,0.000431,0.009285
119827000,0.0324,0.013523,0.002678,0.000431,0.009285
119828000,0.0324,0.013523,0.002678,0.000431,0.011870
119829000,0.0324,0.013523,0.002678,0.000431,0.012105
119830000,0.0324,0.013523,0.002678,0.000431,0.009402
119831000,0.0324,0.013523,0.002678,0.000431,0.006111
119832000,0.0324,0.013523,0.002678,0.000431,0.005641
119833000,0.0324,0.013523,0.002678,0.000431,0.006229
119834000,0.0324,0.013523,0.002678,0.000431,0.009402
119835000,0.0324,0.013523,0.002678,0.000431,0.004936
119836000,0.0324,0.013523,0.002678,0.000431,0.005289
119837000,0.0324,0.013523,0.002678,0.000431,0.005054
119838000,0.0324,0.013523,0.002678,0.000431,0.006582
119839000,0.0324,0.013523,0.002678,0.000431,0.004231
119840000,0.0324,0.013523,0.002678,0.000431,0.004349
119841000,0.0324,0.013523,0.002678,0.000431,0.005524
119842000,0.0324,0.013523,0.002678,0.000431,0.003291
119843000,0.0324,0.013523,0.002678,0.000431,0.003526
119844000,0.0324,0.013523,0.002678,0.000431,0.003173
119845000,0.0324,0.013523,0.002678,0.000431,0.003526
119846000,0.0324,0.013523,0.002678,0.000431,0.007287
119847000,0.0324,0.013523,0.002678,0.000431,0.002821
119848000,0.0324,0.013523,0.002678,0.000431,0.002233
119849000,0.0324,0.013523,0.002678,0.000431,0.000823
119850000,0.0324,0.013523,0.002678,0.000431,0.000823
119851000,0.0324,0.013523,0.002678,0.000431,0.000823
119852000,0.0324,0.013523,0.002678,0.000431,0.000823
119853000,0.0324,0.013523,0.002678,0.000431,0.000823
119854000,0.0324,0.013523,0.002678,0.000431,0.000940
119855000,0.0324,0.013523,0.002678,0.000431,0.000823
119856000,0.0324,0.013523,0.002678,0.000431,0.000823
119857000,0.0324,0.013523,0.002678,0.000431,0.000705
119858000,0.0324,0.013523,0.002678,0.000431,0.000940
119859000,0.0324,0.013523,0.002678,0.000431,0.000940
119860000,0.0324,0.013523,0.002678,0.000431,0.000705
119861000,0.0324,0.013523,0.002678,0.000431,0.000940
119862000,0.0324,0.013523,0.002678,0.000431,0.000705
119863000,0.0324,0.013523,0.002678,0.000431,0.000940
119864000,0.0324,0.013523,0.002678,0.000431,0.000823
119865000,0.0324,0.013523,0.002678,0.000431,0.000823
119866000,0.0324,0.013523,0.002678,0.000431,0.000940
119867000,0.0324,0.013523,0.002678,0.000431,0.000705
119868000,0.0324,0.013523,0.002678,0.000431,0.000940
119869000,0.0324,0.013523,0.002678,0.000431,0.000823
119870000,0.0324,0.013523,0.002678,0.000431,0.000823
119871000,0.0324,0.013523,0.002678,0.000431,0.000823
119872000,0.0324,0.013523,0.002678,0.000431,0.000823
119873000,0.0324,0.013523,0.002678,0.000431,0.000940
119874000,0.0324,0.013523,0.002678,0.000431,0.000823
119875000,0.0324,0.013523,0.002678,0.000431,0.000823
119876000,0.0324,0.013523,0.002678,0.000431,0.000823
119877000,0.0324,0.013523,0.002678,0.000431,0.000823
119878000,0.0324,0.013523,0.002678,0.000431,0.000823
119879000,0.0324,0.013523,0.002678,0.000431,0.000823
119880000,0.0324,0.013523,0.002678,0.000431,0.000940
119881000,0.0324,0.013523,0.002678,0.000431,0.000705
119882000,0.0324,0.013523,0.002678,0.000431,0.000940
119883000,0.0324,0.013523,0.002678,0.000431,0.000705
119884000,0.0324,0.013523,0.002678,0.000431,0.000940
119885000,0.0324,0.013523,0.002678,0.000431,0.000940
119886000,0.0324,0.013523,0.002678,0.000431,0.000705
119887000,0.0324,0.013523,0.002678,0.000431,0.000940
119888000,0.0324,0.013523,0.002678,0.000431,0.000705
119889000,0.0324,0.013523,0.002678,0.000431,0.000940
119890000,0.0324,0.013523,0.002678,0.000431,0.002586
119891000,0.0324,0.013523,0.002678,0.000431,0.528289
119892000,0.0324,0.013523,0.002678,0.000431,0.706814
119893000,0.0324,0.013523,0.002678,0.000431,0.146910
119894000,0.0324,0.013523,0.002678,0.000431,0.133512
119895000,0.0324,0.013523,0.002678,0.000431,0.404885
119896000,0.0324,0.013523,0.002678,0.000431,0.364807
119897000,0.0324,0.013523,0.002678,0.000431,0.263028
119898000,0.0324,0.013523,0.002678,0.000431,0.324730
119899000,0.0324,0.013523,0.002678,0.000431,0.141151
119900000,0.0324,0.013523,0.002678,0.000431,0.155607
119901000,0.0324,0.013523,0.002678,0.000431,0.117646
119902000,0.0324,0.013523,0.002678,0.000431,0.440026
119903000,0.0324,0.013523,0.002678,0.000431,0.247162
119904000,0.0324,0.013523,0.002678,0.000431,0.149143
119905000,0.0324,0.013523,0.002678,0.000431,0.129046
119906000,0.0324,0.013523,0.002678,0.000431,0.124697
119907000,0.0324,0.013523,0.002678,0.000431,0.109771
119908000,0.0324,0.013523,0.002678,0.000431,0.096961
119909000,0.0324,0.013523,0.002678,0.000431,0.086736
119910000,0.0324,0.013523,0.002678,0.000431,0.079214
119911000,0.0324,0.013523,0.002678,0.000431,0.067344
119912000,0.0324,0.013523,0.002678,0.000431,0.064993
119913000,0.0324,0.013523,0.002678,0.000431,0.054533
119914000,0.0324,0.013523,0.002678,0.000431,0.052418
119915000,0.0324,0.013523,0.002678,0.000431,0.048304
119916000,0.0324,0.013523,0.002678,0.000431,0.048892
119917000,0.0324,0.013523,0.002678,0.000431,0.041135
119918000,0.0324,0.013523,0.002678,0.000431,0.041252
119919000,0.0324,0.013523,0.002678,0.000431,0.033260
119920000,0.0324,0.013523,0.002678,0.000431,0.032673
119921000,0.0324,0.013523,0.002678,0.000431,0.035023
119922000,0.0324,0.013523,0.002678,0.000431,0.028324
119923000,0.0324,0.013523,0.002678,0.000431,0.021508
119924000,0.0324,0.013523,0.002678,0.000431,0.020450
119925000,0.0324,0.013523,0.002678,0.000431,0.015984
119926000,0.0324,0.013523,0.002678,0.000431,0.010930
119927000,0.0324,0.013523,0.002678,0.000431,0.010930
119928000,0.0324,0.013523,0.002678,0.000431,0.010225
119929000,0.0324,0.013523,0.002678,0.000431,0.006111
119930000,0.0324,0.013523,0.002678,0.000431,0.005641
119931000,0.0324,0.013523,0.002678,0.000431,0.005994
119932000,0.0324,0.013523,0.002678,0.000431,0.005876
119933000,0.0324,0.013523,0.002678,0.000431,0.005406
119934000,0.0324,0.013523,0.002678,0.000431,0.005994
119935000,0.0324,0.013523,0.002678,0.000431,0.005876
119936000,0.0324,0.013523,0.002678,0.000431,0.005759
119937000,0.0324,0.013523,0.002678,0.000431,0.009402
119938000,0.0324,0.013523,0.002678,0.000431,0.005406
119939000,0.0324,0.013523,0.002678,0.000431,0.003996
119940000,0.0324,0.013523,0.002678,0.000431,0.004231
119941000,0.0324,0.013523,0.002678,0.000431,0.003761
119942000,0.0324,0.013523,0.002678,0.000431,0.004584
119943000,0.0324,0.013523,0.002678,0.000431,0.004349
119944000,0.0324,0.013523,0.002678,0.000431,0.002703
119945000,0.0324,0.013523,0.002678,0.000431,0.002586
119946000,0.0324,0.013523,0.002678,0.000431,0.002468
119947000,0.0324,0.013523,0.002678,0.000431,0.002703
119948000,0.0324,0.013523,0.002678,0.000431,0.004349
119949000,0.0324,0.013523,0.002678,0.000431,0.018805
119950000,0.0324,0.013523,0.002678,0.000431,0.606680
119951000,0.0324,0.013523,0.002678,0.000431,0.603742
119952000,0.0324,0.013523,0.002678,0.000431,0.145852
119953000,0.0324,0.013523,0.002678,0.000431,0.137273
119954000,0.0324,0.013523,0.002678,0.000431,0.534988
119955000,0.0324,0.013523,0.002678,0.000431,0.239640
119956000,0.0324,0.013523,0.002678,0.000431,0.307454
119957000,0.0324,0.013523,0.002678,0.000431,0.284888
119958000,0.0324,0.013523,0.002678,0.000431,0.143854
119959000,0.0324,0.013523,0.002678,0.000431,0.180641
119960000,0.0324,0.013523,0.002678,0.000431,0.092847
119961000,0.0324,0.013523,0.002678,0.000431,0.499730
119962000,0.0324,0.013523,0.002678,0.000431,0.214371
119963000,0.0324,0.013523,0.002678,0.000431,0.163012
119964000,0.0324,0.013523,0.002678,0.000431,0.147968
119965000,0.0324,0.013523,0.002678,0.000431,0.136803
119966000,0.0324,0.013523,0.002678,0.000431,0.116235
119967000,0.0324,0.013523,0.002678,0.000431,0.121054
119968000,0.0324,0.013523,0.002678,0.000431,0.094023
119969000,0.0324,0.013523,0.002678,0.000431,0.090027
119970000,0.0324,0.013523,0.002678,0.000431,0.082505
119971000,0.0324,0.013523,0.002678,0.000431,0.066756
119972000,0.0324,0.013523,0.002678,0.000431,0.060292
119973000,0.0324,0.013523,0.002678,0.000431,0.051947
119974000,0.0324,0.013523,0.002678,0.000431,0.045248
119975000,0.0324,0.013523,0.002678,0.000431,0.043485
119976000,0.0324,0.013523,0.002678,0.000431,0.032908
119977000,0.0324,0.013523,0.002678,0.000431,0.032555
119978000,0.0324,0.013523,0.002678,0.000431,0.034671
119979000,0.0324,0.013523,0.002678,0.000431,0.024798
119980000,0.0324,0.013523,0.002678,0.000431,0.023271
119981000,0.0324,0.013523,0.002678,0.000431,0.032085
119982000,0.0324,0.013523,0.002678,0.000431,0.021038
119983000,0.0324,0.013523,0.002678,0.000431,0.017864
119984000,0.0324,0.013523,0.002678,0.000431,0.010107
119985000,0.0324,0.013523,0.002678,0.000431,0.006817
119986000,0.0324,0.013523,0.002678,0.000431,0.007874
119987000,0.0324,0.013523,0.002678,0.000431,0.009285
119988000,0.0324,0.013523,0.002678,0.000431,0.006817
119989000,0.0324,0.013523,0.002678,0.000431,0.006111
119990000,0.0324,0.013523,0.002678,0.000431,0.006464
119991000,0.0324,0.013523,0.002678,0.000431,0.005054
119992000,0.0324,0.013523,0.002678,0.000431,0.006229
119993000,0.0324,0.013523,0.002678,0.000431,0.005994
119994000,0.0324,0.013523,0.002678,0.000431,0.005406
119995000,0.0324,0.013523,0.002678,0.000431,0.002703
119996000,0.0324,0.013523,0.002678,0.000431,0.002703
119997000,0.0324,0.013523,0.002678,0.000431,0.002468
119998000,0.0324,0.013523,0.002678,0.000431,0.002703
119999000,0.0324,0.013523,0.002678,0.000431,0.002586
