Cycle,Area(mm^2),PeakDynamic(W),SubthresholdLeakage(W),GateLeakage(W),RunTimeDynamic(W)
61000000,0.0324,0.013523,0.002678,0.000431,0.485626
61001000,0.0324,0.013523,0.002678,0.000431,0.184402
61002000,0.0324,0.013523,0.002678,0.000431,0.157488
61003000,0.0324,0.013523,0.002678,0.000431,0.154902
61004000,0.0324,0.013523,0.002678,0.000431,0.116941
61005000,0.0324,0.013523,0.002678,0.000431,0.092847
61006000,0.0324,0.013523,0.002678,0.000431,0.078979
61007000,0.0324,0.013523,0.002678,0.000431,0.067579
61008000,0.0324,0.013523,0.002678,0.000431,0.035141
61009000,0.0324,0.013523,0.002678,0.000431,0.038667
61010000,0.0324,0.013523,0.002678,0.000431,0.035611
61011000,0.0324,0.013523,0.002678,0.000431,0.037256
61012000,0.0324,0.013523,0.002678,0.000431,0.022683
61013000,0.0324,0.013523,0.002678,0.000431,0.013516
61014000,0.0324,0.013523,0.002678,0.000431,0.011048
61015000,0.0324,0.013523,0.002678,0.000431,0.012340
61016000,0.0324,0.013523,0.002678,0.000431,0.009990
61017000,0.0324,0.013523,0.002678,0.000431,0.008462
61018000,0.0324,0.013523,0.002678,0.000431,0.008815
61019000,0.0324,0.013523,0.002678,0.000431,0.012223
61020000,0.0324,0.013523,0.002678,0.000431,0.007874
61021000,0.0324,0.013523,0.002678,0.000431,0.007404
61022000,0.0324,0.013523,0.002678,0.000431,0.007287
61023000,0.0324,0.013523,0.002678,0.000431,0.008697
61024000,0.0324,0.013523,0.002678,0.000431,0.007757
61025000,0.0324,0.013523,0.002678,0.000431,0.006582
61026000,0.0324,0.013523,0.002678,0.000431,0.005406
61027000,0.0324,0.013523,0.002678,0.000431,0.005524
61028000,0.0324,0.013523,0.002678,0.000431,0.004936
61029000,0.0324,0.013523,0.002678,0.000431,0.006111
61030000,0.0324,0.013523,0.002678,0.000431,0.005171
61031000,0.0324,0.013523,0.002678,0.000431,0.005759
61032000,0.0324,0.013523,0.002678,0.000431,0.007757
61033000,0.0324,0.013523,0.002678,0.000431,0.006229
61034000,0.0324,0.013523,0.002678,0.000431,0.003761
61035000,0.0324,0.013523,0.002678,0.000431,0.003408
61036000,0.0324,0.013523,0.002678,0.000431,0.003056
61037000,0.0324,0.013523,0.002678,0.000431,0.003761
61038000,0.0324,0.013523,0.002678,0.000431,0.003408
61039000,0.0324,0.013523,0.002678,0.000431,0.003643
61040000,0.0324,0.013523,0.002678,0.000431,0.003173
61041000,0.0324,0.013523,0.002678,0.000431,0.004231
61042000,0.0324,0.013523,0.002678,0.000431,0.002468
61043000,0.0324,0.013523,0.002678,0.000431,0.002351
61044000,0.0324,0.013523,0.002678,0.000431,0.002351
61045000,0.0324,0.013523,0.002678,0.000431,0.002468
61046000,0.0324,0.013523,0.002678,0.000431,0.002351
61047000,0.0324,0.013523,0.002678,0.000431,0.002468
61048000,0.0324,0.013523,0.002678,0.000431,0.002468
61049000,0.0324,0.013523,0.002678,0.000431,0.002116
61050000,0.0324,0.013523,0.002678,0.000431,0.002821
61051000,0.0324,0.013523,0.002678,0.000431,0.002351
61052000,0.0324,0.013523,0.002678,0.000431,0.005406
61053000,0.0324,0.013523,0.002678,0.000431,0.000940
61054000,0.0324,0.013523,0.002678,0.000431,0.000705
61055000,0.0324,0.013523,0.002678,0.000431,0.000940
61056000,0.0324,0.013523,0.002678,0.000431,0.000823
61057000,0.0324,0.013523,0.002678,0.000431,0.000823
61058000,0.0324,0.013523,0.002678,0.000431,0.000940
61059000,0.0324,0.013523,0.002678,0.000431,0.000705
61060000,0.0324,0.013523,0.002678,0.000431,0.000940
61061000,0.0324,0.013523,0.002678,0.000431,0.000823
61062000,0.0324,0.013523,0.002678,0.000431,0.000823
61063000,0.0324,0.013523,0.002678,0.000431,0.000823
61064000,0.0324,0.013523,0.002678,0.000431,0.000823
61065000,0.0324,0.013523,0.002678,0.000431,0.000823
61066000,0.0324,0.013523,0.002678,0.000431,0.000823
61067000,0.0324,0.013523,0.002678,0.000431,0.000823
61068000,0.0324,0.013523,0.002678,0.000431,0.000823
61069000,0.0324,0.013523,0.002678,0.000431,0.000940
61070000,0.0324,0.013523,0.002678,0.000431,0.000823
61071000,0.0324,0.013523,0.002678,0.000431,0.000823
61072000,0.0324,0.013523,0.002678,0.000431,0.000705
61073000,0.0324,0.013523,0.002678,0.000431,0.000940
61074000,0.0324,0.013523,0.002678,0.000431,0.000823
61075000,0.0324,0.013523,0.002678,0.000431,0.000823
61076000,0.0324,0.013523,0.002678,0.000431,0.000940
61077000,0.0324,0.013523,0.002678,0.000431,0.000705
61078000,0.0324,0.013523,0.002678,0.000431,0.000940
61079000,0.0324,0.013523,0.002678,0.000431,0.000705
61080000,0.0324,0.013523,0.002678,0.000431,0.000823
61081000,0.0324,0.013523,0.002678,0.000431,0.000940
61082000,0.0324,0.013523,0.002678,0.000431,0.000823
61083000,0.0324,0.013523,0.002678,0.000431,0.000823
61084000,0.0324,0.013523,0.002678,0.000431,0.000823
61085000,0.0324,0.013523,0.002678,0.000431,0.000823
61086000,0.0324,0.013523,0.002678,0.000431,0.000823
61087000,0.0324,0.013523,0.002678,0.000431,0.000940
61088000,0.0324,0.013523,0.002678,0.000431,0.000705
61089000,0.0324,0.013523,0.002678,0.000431,0.000823
61090000,0.0324,0.013523,0.002678,0.000431,0.000823
61091000,0.0324,0.013523,0.002678,0.000431,0.000940
61092000,0.0324,0.013523,0.002678,0.000431,0.000705
61093000,0.0324,0.013523,0.002678,0.000431,0.000940
61094000,0.0324,0.013523,0.002678,0.000431,0.000705
61095000,0.0324,0.013523,0.002678,0.000431,0.000940
61096000,0.0324,0.013523,0.002678,0.000431,0.000823
61097000,0.0324,0.013523,0.002678,0.000431,0.000823
61098000,0.0324,0.013523,0.002678,0.000431,0.000823
61099000,0.0324,0.013523,0.002678,0.000431,0.000823
61100000,0.0324,0.013523,0.002678,0.000431,0.000940
61101000,0.0324,0.013523,0.002678,0.000431,0.000705
61102000,0.0324,0.013523,0.002678,0.000431,0.000940
61103000,0.0324,0.013523,0.002678,0.000431,0.000705
61104000,0.0324,0.013523,0.002678,0.000431,0.000940
61105000,0.0324,0.013523,0.002678,0.000431,0.000823
61106000,0.0324,0.013523,0.002678,0.000431,0.000823
61107000,0.0324,0.013523,0.002678,0.000431,0.000940
61108000,0.0324,0.013523,0.002678,0.000431,0.000705
61109000,0.0324,0.013523,0.002678,0.000431,0.000940
61110000,0.0324,0.013523,0.002678,0.000431,0.030087
61111000,0.0324,0.013523,0.002678,0.000431,0.751240
61112000,0.0324,0.013523,0.002678,0.000431,0.559669
61113000,0.0324,0.013523,0.002678,0.000431,0.134922
61114000,0.0324,0.013523,0.002678,0.000431,0.145382
61115000,0.0324,0.013523,0.002678,0.000431,0.584820
61116000,0.0324,0.013523,0.002678,0.000431,0.237289
61117000,0.0324,0.013523,0.002678,0.000431,0.335660
61118000,0.0324,0.013523,0.002678,0.000431,0.143619
61119000,0.0324,0.013523,0.002678,0.000431,0.175587
61120000,0.0324,0.013523,0.002678,0.000431,0.137038
61121000,0.0324,0.013523,0.002678,0.000431,0.531227
61122000,0.0324,0.013523,0.002678,0.000431,0.202619
61123000,0.0324,0.013523,0.002678,0.000431,0.159956
61124000,0.0324,0.013523,0.002678,0.000431,0.143032
61125000,0.0324,0.013523,0.002678,0.000431,0.110359
61126000,0.0324,0.013523,0.002678,0.000431,0.090614
61127000,0.0324,0.013523,0.002678,0.000431,0.076276
61128000,0.0324,0.013523,0.002678,0.000431,0.055708
61129000,0.0324,0.013523,0.002678,0.000431,0.067931
61130000,0.0324,0.013523,0.002678,0.000431,0.038549
61131000,0.0324,0.013523,0.002678,0.000431,0.043250
61132000,0.0324,0.013523,0.002678,0.000431,0.029500
61133000,0.0324,0.013523,0.002678,0.000431,0.015749
61134000,0.0324,0.013523,0.002678,0.000431,0.014103
61135000,0.0324,0.013523,0.002678,0.000431,0.012458
61136000,0.0324,0.013523,0.002678,0.000431,0.013281
61137000,0.0324,0.013523,0.002678,0.000431,0.017159
61138000,0.0324,0.013523,0.002678,0.000431,0.004819
61139000,0.0324,0.013523,0.002678,0.000431,0.007404
61140000,0.0324,0.013523,0.002678,0.000431,0.006229
61141000,0.0324,0.013523,0.002678,0.000431,0.003408
61142000,0.0324,0.013523,0.002678,0.000431,0.003526
61143000,0.0324,0.013523,0.002678,0.000431,0.003526
61144000,0.0324,0.013523,0.002678,0.000431,0.005289
61145000,0.0324,0.013523,0.002678,0.000431,0.004584
61146000,0.0324,0.013523,0.002678,0.000431,0.006817
61147000,0.0324,0.013523,0.002678,0.000431,0.576123
61148000,0.0324,0.013523,0.002678,0.000431,0.713749
61149000,0.0324,0.013523,0.002678,0.000431,0.141034
61150000,0.0324,0.013523,0.002678,0.000431,0.135392
61151000,0.0324,0.013523,0.002678,0.000431,0.554263
61152000,0.0324,0.013523,0.002678,0.000431,0.253508
61153000,0.0324,0.013523,0.002678,0.000431,0.281245
61154000,0.0324,0.013523,0.002678,0.000431,0.192864
61155000,0.0324,0.013523,0.002678,0.000431,0.156195
61156000,0.0324,0.013523,0.002678,0.000431,0.117646
61157000,0.0324,0.013523,0.002678,0.000431,0.465294
61158000,0.0324,0.013523,0.002678,0.000431,0.301107
61159000,0.0324,0.013523,0.002678,0.000431,0.156195
61160000,0.0324,0.013523,0.002678,0.000431,0.134452
61161000,0.0324,0.013523,0.002678,0.000431,0.117293
61162000,0.0324,0.013523,0.002678,0.000431,0.091554
61163000,0.0324,0.013523,0.002678,0.000431,0.087911
61164000,0.0324,0.013523,0.002678,0.000431,0.068401
61165000,0.0324,0.013523,0.002678,0.000431,0.055708
61166000,0.0324,0.013523,0.002678,0.000431,0.056178
61167000,0.0324,0.013523,0.002678,0.000431,0.041017
61168000,0.0324,0.013523,0.002678,0.000431,0.038079
61169000,0.0324,0.013523,0.002678,0.000431,0.034906
61170000,0.0324,0.013523,0.002678,0.000431,0.032203
61171000,0.0324,0.013523,0.002678,0.000431,0.029265
61172000,0.0324,0.013523,0.002678,0.000431,0.035494
61173000,0.0324,0.013523,0.002678,0.000431,0.019510
61174000,0.0324,0.013523,0.002678,0.000431,0.023976
61175000,0.0324,0.013523,0.002678,0.000431,0.016924
61176000,0.0324,0.013523,0.002678,0.000431,0.022448
61177000,0.0324,0.013523,0.002678,0.000431,0.006464
61178000,0.0324,0.013523,0.002678,0.000431,0.006111
61179000,0.0324,0.013523,0.002678,0.000431,0.011870
61180000,0.0324,0.013523,0.002678,0.000431,0.002586
61181000,0.0324,0.013523,0.002678,0.000431,0.002468
61182000,0.0324,0.013523,0.002678,0.000431,0.001645
61183000,0.0324,0.013523,0.002678,0.000431,0.002351
61184000,0.0324,0.013523,0.002678,0.000431,0.001763
61185000,0.0324,0.013523,0.002678,0.000431,0.000705
61186000,0.0324,0.013523,0.002678,0.000431,0.072280
61187000,0.0324,0.013523,0.002678,0.000431,0.715629
61188000,0.0324,0.013523,0.002678,0.000431,0.539454
61189000,0.0324,0.013523,0.002678,0.000431,0.147263
61190000,0.0324,0.013523,0.002678,0.000431,0.157840
61191000,0.0324,0.013523,0.002678,0.000431,0.553088
61192000,0.0324,0.013523,0.002678,0.000431,0.244224
61193000,0.0324,0.013523,0.002678,0.000431,0.345415
61194000,0.0324,0.013523,0.002678,0.000431,0.154785
61195000,0.0324,0.013523,0.002678,0.000431,0.152081
61196000,0.0324,0.013523,0.002678,0.000431,0.207437
61197000,0.0324,0.013523,0.002678,0.000431,0.486567
61198000,0.0324,0.013523,0.002678,0.000431,0.139153
61199000,0.0324,0.013523,0.002678,0.000431,0.122347
61200000,0.0324,0.013523,0.002678,0.000431,0.108243
61201000,0.0324,0.013523,0.002678,0.000431,0.086148
61202000,0.0324,0.013523,0.002678,0.000431,0.068166
61203000,0.0324,0.013523,0.002678,0.000431,0.061585
61204000,0.0324,0.013523,0.002678,0.000431,0.046071
61205000,0.0324,0.013523,0.002678,0.000431,0.033966
61206000,0.0324,0.013523,0.002678,0.000431,0.029970
61207000,0.0324,0.013523,0.002678,0.000431,0.022683
61208000,0.0324,0.013523,0.002678,0.000431,0.015396
61209000,0.0324,0.013523,0.002678,0.000431,0.017394
61210000,0.0324,0.013523,0.002678,0.000431,0.012576
61211000,0.0324,0.013523,0.002678,0.000431,0.007287
61212000,0.0324,0.013523,0.002678,0.000431,0.005054
61213000,0.0324,0.013523,0.002678,0.000431,0.010342
61214000,0.0324,0.013523,0.002678,0.000431,0.003643
61215000,0.0324,0.013523,0.002678,0.000431,0.004466
61216000,0.0324,0.013523,0.002678,0.000431,0.002351
61217000,0.0324,0.013523,0.002678,0.000431,0.002703
61218000,0.0324,0.013523,0.002678,0.000431,0.002351
61219000,0.0324,0.013523,0.002678,0.000431,0.002586
61220000,0.0324,0.013523,0.002678,0.000431,0.004349
61221000,0.0324,0.013523,0.002678,0.000431,0.005994
61222000,0.0324,0.013523,0.002678,0.000431,0.000940
61223000,0.0324,0.013523,0.002678,0.000431,0.000705
61224000,0.0324,0.013523,0.002678,0.000431,0.000940
61225000,0.0324,0.013523,0.002678,0.000431,0.021625
61226000,0.0324,0.013523,0.002678,0.000431,0.737842
61227000,0.0324,0.013523,0.002678,0.000431,0.540865
61228000,0.0324,0.013523,0.002678,0.000431,0.135392
61229000,0.0324,0.013523,0.002678,0.000431,0.186047
61230000,0.0324,0.013523,0.002678,0.000431,0.556261
61231000,0.0324,0.013523,0.002678,0.000431,0.268082
61232000,0.0324,0.013523,0.002678,0.000431,0.305456
61233000,0.0324,0.013523,0.002678,0.000431,0.161366
61234000,0.0324,0.013523,0.002678,0.000431,0.108361
61235000,0.0324,0.013523,0.002678,0.000431,0.380674
61236000,0.0324,0.013523,0.002678,0.000431,0.337423
61237000,0.0324,0.013523,0.002678,0.000431,0.086031
61238000,0.0324,0.013523,0.002678,0.000431,0.079449
61239000,0.0324,0.013523,0.002678,0.000431,0.055003
61240000,0.0324,0.013523,0.002678,0.000431,0.051125
61241000,0.0324,0.013523,0.002678,0.000431,0.029382
61242000,0.0324,0.013523,0.002678,0.000431,0.025386
61243000,0.0324,0.013523,0.002678,0.000431,0.020097
61244000,0.0324,0.013523,0.002678,0.000431,0.023858
61245000,0.0324,0.013523,0.002678,0.000431,0.013751
61246000,0.0324,0.013523,0.002678,0.000431,0.009167
61247000,0.0324,0.013523,0.002678,0.000431,0.008345
61248000,0.0324,0.013523,0.002678,0.000431,0.006817
61249000,0.0324,0.013523,0.002678,0.000431,0.001763
61250000,0.0324,0.013523,0.002678,0.000431,0.004113
61251000,0.0324,0.013523,0.002678,0.000431,0.000705
61252000,0.0324,0.013523,0.002678,0.000431,0.000940
61253000,0.0324,0.013523,0.002678,0.000431,0.000823
61254000,0.0324,0.013523,0.002678,0.000431,0.000823
61255000,0.0324,0.013523,0.002678,0.000431,0.000823
61256000,0.0324,0.013523,0.002678,0.000431,0.000823
61257000,0.0324,0.013523,0.002678,0.000431,0.000823
61258000,0.0324,0.013523,0.002678,0.000431,0.000823
61259000,0.0324,0.013523,0.002678,0.000431,0.002233
61260000,0.0324,0.013523,0.002678,0.000431,0.497967
61261000,0.0324,0.013523,0.002678,0.000431,0.708930
61262000,0.0324,0.013523,0.002678,0.000431,0.147498
61263000,0.0324,0.013523,0.002678,0.000431,0.136803
61264000,0.0324,0.013523,0.002678,0.000431,0.583175
61265000,0.0324,0.013523,0.002678,0.000431,0.240345
61266000,0.0324,0.013523,0.002678,0.000431,0.337541
61267000,0.0324,0.013523,0.002678,0.000431,0.172061
61268000,0.0324,0.013523,0.002678,0.000431,0.173707
61269000,0.0324,0.013523,0.002678,0.000431,0.121289
61270000,0.0324,0.013523,0.002678,0.000431,0.542275
61271000,0.0324,0.013523,0.002678,0.000431,0.153727
61272000,0.0324,0.013523,0.002678,0.000431,0.119056
61273000,0.0324,0.013523,0.002678,0.000431,0.101309
61274000,0.0324,0.013523,0.002678,0.000431,0.090614
61275000,0.0324,0.013523,0.002678,0.000431,0.068166
61276000,0.0324,0.013523,0.002678,0.000431,0.059822
61277000,0.0324,0.013523,0.002678,0.000431,0.044308
61278000,0.0324,0.013523,0.002678,0.000431,0.037374
61279000,0.0324,0.013523,0.002678,0.000431,0.027737
61280000,0.0324,0.013523,0.002678,0.000431,0.024446
61281000,0.0324,0.013523,0.002678,0.000431,0.020685
61282000,0.0324,0.013523,0.002678,0.000431,0.016689
61283000,0.0324,0.013523,0.002678,0.000431,0.008227
61284000,0.0324,0.013523,0.002678,0.000431,0.008109
61285000,0.0324,0.013523,0.002678,0.000431,0.007639
61286000,0.0324,0.013523,0.002678,0.000431,0.008815
61287000,0.0324,0.013523,0.002678,0.000431,0.010813
61288000,0.0324,0.013523,0.002678,0.000431,0.009285
61289000,0.0324,0.013523,0.002678,0.000431,0.005406
61290000,0.0324,0.013523,0.002678,0.000431,0.003173
61291000,0.0324,0.013523,0.002678,0.000431,0.003291
61292000,0.0324,0.013523,0.002678,0.000431,0.003173
61293000,0.0324,0.013523,0.002678,0.000431,0.003408
61294000,0.0324,0.013523,0.002678,0.000431,0.003056
61295000,0.0324,0.013523,0.002678,0.000431,0.003291
61296000,0.0324,0.013523,0.002678,0.000431,0.003761
61297000,0.0324,0.013523,0.002678,0.000431,0.003291
61298000,0.0324,0.013523,0.002678,0.000431,0.104835
61299000,0.0324,0.013523,0.002678,0.000431,0.722681
61300000,0.0324,0.013523,0.002678,0.000431,0.494324
61301000,0.0324,0.013523,0.002678,0.000431,0.136333
61302000,0.0324,0.013523,0.002678,0.000431,0.304751
61303000,0.0324,0.013523,0.002678,0.000431,0.405002
61304000,0.0324,0.013523,0.002678,0.000431,0.322732
61305000,0.0324,0.013523,0.002678,0.000431,0.261735
61306000,0.0324,0.013523,0.002678,0.000431,0.153257
61307000,0.0324,0.013523,0.002678,0.000431,0.119526
61308000,0.0324,0.013523,0.002678,0.000431,0.447782
61309000,0.0324,0.013523,0.002678,0.000431,0.272665
61310000,0.0324,0.013523,0.002678,0.000431,0.127753
61311000,0.0324,0.013523,0.002678,0.000431,0.100722
61312000,0.0324,0.013523,0.002678,0.000431,0.091790
61313000,0.0324,0.013523,0.002678,0.000431,0.073338
61314000,0.0324,0.013523,0.002678,0.000431,0.061702
61315000,0.0324,0.013523,0.002678,0.000431,0.041135
61316000,0.0324,0.013523,0.002678,0.000431,0.038079
61317000,0.0324,0.013523,0.002678,0.000431,0.031262
61318000,0.0324,0.013523,0.002678,0.000431,0.027972
61319000,0.0324,0.013523,0.002678,0.000431,0.016336
61320000,0.0324,0.013523,0.002678,0.000431,0.014573
61321000,0.0324,0.013523,0.002678,0.000431,0.012576
61322000,0.0324,0.013523,0.002678,0.000431,0.009755
61323000,0.0324,0.013523,0.002678,0.000431,0.005171
61324000,0.0324,0.013523,0.002678,0.000431,0.004466
61325000,0.0324,0.013523,0.002678,0.000431,0.007522
61326000,0.0324,0.013523,0.002678,0.000431,0.003173
61327000,0.0324,0.013523,0.002678,0.000431,0.006699
61328000,0.0324,0.013523,0.002678,0.000431,0.003761
61329000,0.0324,0.013523,0.002678,0.000431,0.001410
61330000,0.0324,0.013523,0.002678,0.000431,0.010460
61331000,0.0324,0.013523,0.002678,0.000431,0.654750
61332000,0.0324,0.013523,0.002678,0.000431,0.593635
61333000,0.0324,0.013523,0.002678,0.000431,0.136803
61334000,0.0324,0.013523,0.002678,0.000431,0.136450
61335000,0.0324,0.013523,0.002678,0.000431,0.531227
61336000,0.0324,0.013523,0.002678,0.000431,0.264438
61337000,0.0324,0.013523,0.002678,0.000431,0.356581
61338000,0.0324,0.013523,0.002678,0.000431,0.151259
61339000,0.0324,0.013523,0.002678,0.000431,0.147968
61340000,0.0324,0.013523,0.002678,0.000431,0.232353
61341000,0.0324,0.013523,0.002678,0.000431,0.499495
61342000,0.0324,0.013523,0.002678,0.000431,0.169006
61343000,0.0324,0.013523,0.002678,0.000431,0.142209
61344000,0.0324,0.013523,0.002678,0.000431,0.132572
61345000,0.0324,0.013523,0.002678,0.000431,0.104130
61346000,0.0324,0.013523,0.002678,0.000431,0.098841
61347000,0.0324,0.013523,0.002678,0.000431,0.081682
61348000,0.0324,0.013523,0.002678,0.000431,0.058999
61349000,0.0324,0.013523,0.002678,0.000431,0.069577
61350000,0.0324,0.013523,0.002678,0.000431,0.037374
61351000,0.0324,0.013523,0.002678,0.000431,0.028089
61352000,0.0324,0.013523,0.002678,0.000431,0.021978
61353000,0.0324,0.013523,0.002678,0.000431,0.025974
61354000,0.0324,0.013523,0.002678,0.000431,0.011165
61355000,0.0324,0.013523,0.002678,0.000431,0.014338
61356000,0.0324,0.013523,0.002678,0.000431,0.010813
61357000,0.0324,0.013523,0.002678,0.000431,0.015044
61358000,0.0324,0.013523,0.002678,0.000431,0.009990
61359000,0.0324,0.013523,0.002678,0.000431,0.011870
61360000,0.0324,0.013523,0.002678,0.000431,0.009637
61361000,0.0324,0.013523,0.002678,0.000431,0.006934
61362000,0.0324,0.013523,0.002678,0.000431,0.006347
61363000,0.0324,0.013523,0.002678,0.000431,0.008109
61364000,0.0324,0.013523,0.002678,0.000431,0.006582
61365000,0.0324,0.013523,0.002678,0.000431,0.004231
61366000,0.0324,0.013523,0.002678,0.000431,0.003056
61367000,0.0324,0.013523,0.002678,0.000431,0.003291
61368000,0.0324,0.013523,0.002678,0.000431,0.003643
61369000,0.0324,0.013523,0.002678,0.000431,0.001763
61370000,0.0324,0.013523,0.002678,0.000431,0.001410
61371000,0.0324,0.013523,0.002678,0.000431,0.080624
61372000,0.0324,0.013523,0.002678,0.000431,0.753591
61373000,0.0324,0.013523,0.002678,0.000431,0.518887
61374000,0.0324,0.013523,0.002678,0.000431,0.136803
61375000,0.0324,0.013523,0.002678,0.000431,0.351879
61376000,0.0324,0.013523,0.002678,0.000431,0.433797
61377000,0.0324,0.013523,0.002678,0.000431,0.308394
61378000,0.0324,0.013523,0.002678,0.000431,0.249160
61379000,0.0324,0.013523,0.002678,0.000431,0.185224
61380000,0.0324,0.013523,0.002678,0.000431,0.088616
61381000,0.0324,0.013523,0.002678,0.000431,0.559904
61382000,0.0324,0.013523,0.002678,0.000431,0.230943
61383000,0.0324,0.013523,0.002678,0.000431,0.169476
61384000,0.0324,0.013523,0.002678,0.000431,0.141034
61385000,0.0324,0.013523,0.002678,0.000431,0.123757
61386000,0.0324,0.013523,0.002678,0.000431,0.105070
61387000,0.0324,0.013523,0.002678,0.000431,0.089556
61388000,0.0324,0.013523,0.002678,0.000431,0.084385
61389000,0.0324,0.013523,0.002678,0.000431,0.070634
61390000,0.0324,0.013523,0.002678,0.000431,0.059234
61391000,0.0324,0.013523,0.002678,0.000431,0.042898
61392000,0.0324,0.013523,0.002678,0.000431,0.029735
61393000,0.0324,0.013523,0.002678,0.000431,0.033143
61394000,0.0324,0.013523,0.002678,0.000431,0.017512
61395000,0.0324,0.013523,0.002678,0.000431,0.018099
61396000,0.0324,0.013523,0.002678,0.000431,0.020567
61397000,0.0324,0.013523,0.002678,0.000431,0.010930
61398000,0.0324,0.013523,0.002678,0.000431,0.004936
61399000,0.0324,0.013523,0.002678,0.000431,0.008109
61400000,0.0324,0.013523,0.002678,0.000431,0.004231
61401000,0.0324,0.013523,0.002678,0.000431,0.006934
61402000,0.0324,0.013523,0.002678,0.000431,0.003408
61403000,0.0324,0.013523,0.002678,0.000431,0.003291
61404000,0.0324,0.013523,0.002678,0.000431,0.004113
61405000,0.0324,0.013523,0.002678,0.000431,0.003878
61406000,0.0324,0.013523,0.002678,0.000431,0.007992
61407000,0.0324,0.013523,0.002678,0.000431,0.001645
61408000,0.0324,0.013523,0.002678,0.000431,0.001763
61409000,0.0324,0.013523,0.002678,0.000431,0.003408
61410000,0.0324,0.013523,0.002678,0.000431,0.000940
61411000,0.0324,0.013523,0.002678,0.000431,0.002116
61412000,0.0324,0.013523,0.002678,0.000431,0.489270
61413000,0.0324,0.013523,0.002678,0.000431,0.780505
61414000,0.0324,0.013523,0.002678,0.000431,0.164069
61415000,0.0324,0.013523,0.002678,0.000431,0.136215
61416000,0.0324,0.013523,0.002678,0.000431,0.528642
61417000,0.0324,0.013523,0.002678,0.000431,0.260560
61418000,0.0324,0.013523,0.002678,0.000431,0.264673
61419000,0.0324,0.013523,0.002678,0.000431,0.223186
61420000,0.0324,0.013523,0.002678,0.000431,0.158310
61421000,0.0324,0.013523,0.002678,0.000431,0.116470
61422000,0.0324,0.013523,0.002678,0.000431,0.467997
61423000,0.0324,0.013523,0.002678,0.000431,0.281833
61424000,0.0324,0.013523,0.002678,0.000431,0.149613
61425000,0.0324,0.013523,0.002678,0.000431,0.126108
61426000,0.0324,0.013523,0.002678,0.000431,0.111887
61427000,0.0324,0.013523,0.002678,0.000431,0.089439
61428000,0.0324,0.013523,0.002678,0.000431,0.076628
61429000,0.0324,0.013523,0.002678,0.000431,0.074748
61430000,0.0324,0.013523,0.002678,0.000431,0.045836
61431000,0.0324,0.013523,0.002678,0.000431,0.035376
61432000,0.0324,0.013523,0.002678,0.000431,0.025269
61433000,0.0324,0.013523,0.002678,0.000431,0.018687
61434000,0.0324,0.013523,0.002678,0.000431,0.012340
61435000,0.0324,0.013523,0.002678,0.000431,0.017747
61436000,0.0324,0.013523,0.002678,0.000431,0.015514
61437000,0.0324,0.013523,0.002678,0.000431,0.004231
61438000,0.0324,0.013523,0.002678,0.000431,0.003878
61439000,0.0324,0.013523,0.002678,0.000431,0.004349
61440000,0.0324,0.013523,0.002678,0.000431,0.004231
61441000,0.0324,0.013523,0.002678,0.000431,0.008697
61442000,0.0324,0.013523,0.002678,0.000431,0.005524
61443000,0.0324,0.013523,0.002678,0.000431,0.428155
61444000,0.0324,0.013523,0.002678,0.000431,0.784031
61445000,0.0324,0.013523,0.002678,0.000431,0.180171
61446000,0.0324,0.013523,0.002678,0.000431,0.137626
61447000,0.0324,0.013523,0.002678,0.000431,0.520650
61448000,0.0324,0.013523,0.002678,0.000431,0.271608
61449000,0.0324,0.013523,0.002678,0.000431,0.325671
61450000,0.0324,0.013523,0.002678,0.000431,0.158898
61451000,0.0324,0.013523,0.002678,0.000431,0.180758
61452000,0.0324,0.013523,0.002678,0.000431,0.148321
61453000,0.0324,0.013523,0.002678,0.000431,0.567779
61454000,0.0324,0.013523,0.002678,0.000431,0.232588
61455000,0.0324,0.013523,0.002678,0.000431,0.173119
61456000,0.0324,0.013523,0.002678,0.000431,0.143854
61457000,0.0324,0.013523,0.002678,0.000431,0.116588
61458000,0.0324,0.013523,0.002678,0.000431,0.100252
61459000,0.0324,0.013523,0.002678,0.000431,0.086618
61460000,0.0324,0.013523,0.002678,0.000431,0.070164
61461000,0.0324,0.013523,0.002678,0.000431,0.042663
61462000,0.0324,0.013523,0.002678,0.000431,0.036434
61463000,0.0324,0.013523,0.002678,0.000431,0.024093
61464000,0.0324,0.013523,0.002678,0.000431,0.027854
61465000,0.0324,0.013523,0.002678,0.000431,0.018334
61466000,0.0324,0.013523,0.002678,0.000431,0.014338
61467000,0.0324,0.013523,0.002678,0.000431,0.014691
61468000,0.0324,0.013523,0.002678,0.000431,0.010342
61469000,0.0324,0.013523,0.002678,0.000431,0.003878
61470000,0.0324,0.013523,0.002678,0.000431,0.003408
61471000,0.0324,0.013523,0.002678,0.000431,0.003526
61472000,0.0324,0.013523,0.002678,0.000431,0.003173
61473000,0.0324,0.013523,0.002678,0.000431,0.003408
61474000,0.0324,0.013523,0.002678,0.000431,0.003173
61475000,0.0324,0.013523,0.002678,0.000431,0.003291
61476000,0.0324,0.013523,0.002678,0.000431,0.003761
61477000,0.0324,0.013523,0.002678,0.000431,0.002468
61478000,0.0324,0.013523,0.002678,0.000431,0.004701
61479000,0.0324,0.013523,0.002678,0.000431,0.001763
61480000,0.0324,0.013523,0.002678,0.000431,0.001763
61481000,0.0324,0.013523,0.002678,0.000431,0.002233
61482000,0.0324,0.013523,0.002678,0.000431,0.001645
61483000,0.0324,0.013523,0.002678,0.000431,0.002351
61484000,0.0324,0.013523,0.002678,0.000431,0.001645
61485000,0.0324,0.013523,0.002678,0.000431,0.001998
61486000,0.0324,0.013523,0.002678,0.000431,0.001998
61487000,0.0324,0.013523,0.002678,0.000431,0.001763
61488000,0.0324,0.013523,0.002678,0.000431,0.002233
61489000,0.0324,0.013523,0.002678,0.000431,0.001880
61490000,0.0324,0.013523,0.002678,0.000431,0.001880
61491000,0.0324,0.013523,0.002678,0.000431,0.001880
61492000,0.0324,0.013523,0.002678,0.000431,0.001998
61493000,0.0324,0.013523,0.002678,0.000431,0.001998
61494000,0.0324,0.013523,0.002678,0.000431,0.001645
61495000,0.0324,0.013523,0.002678,0.000431,0.002233
61496000,0.0324,0.013523,0.002678,0.000431,0.001998
61497000,0.0324,0.013523,0.002678,0.000431,0.001528
61498000,0.0324,0.013523,0.002678,0.000431,0.002233
61499000,0.0324,0.013523,0.002678,0.000431,0.001998
61500000,0.0324,0.013523,0.002678,0.000431,0.002351
61501000,0.0324,0.013523,0.002678,0.000431,0.001998
61502000,0.0324,0.013523,0.002678,0.000431,0.001880
61503000,0.0324,0.013523,0.002678,0.000431,0.014338
61504000,0.0324,0.013523,0.002678,0.000431,0.801895
61505000,0.0324,0.013523,0.002678,0.000431,0.560374
61506000,0.0324,0.013523,0.002678,0.000431,0.138213
61507000,0.0324,0.013523,0.002678,0.000431,0.136333
61508000,0.0324,0.013523,0.002678,0.000431,0.552500
61509000,0.0324,0.013523,0.002678,0.000431,0.250688
61510000,0.0324,0.013523,0.002678,0.000431,0.326846
61511000,0.0324,0.013523,0.002678,0.000431,0.151141
61512000,0.0324,0.013523,0.002678,0.000431,0.151141
61513000,0.0324,0.013523,0.002678,0.000431,0.223656
61514000,0.0324,0.013523,0.002678,0.000431,0.523471
61515000,0.0324,0.013523,0.002678,0.000431,0.223421
61516000,0.0324,0.013523,0.002678,0.000431,0.197800
61517000,0.0324,0.013523,0.002678,0.000431,0.169946
61518000,0.0324,0.013523,0.002678,0.000431,0.128106
61519000,0.0324,0.013523,0.002678,0.000431,0.115295
61520000,0.0324,0.013523,0.002678,0.000431,0.100604
61521000,0.0324,0.013523,0.002678,0.000431,0.084973
61522000,0.0324,0.013523,0.002678,0.000431,0.069577
61523000,0.0324,0.013523,0.002678,0.000431,0.047599
61524000,0.0324,0.013523,0.002678,0.000431,0.036316
61525000,0.0324,0.013523,0.002678,0.000431,0.028559
61526000,0.0324,0.013523,0.002678,0.000431,0.030792
61527000,0.0324,0.013523,0.002678,0.000431,0.031380
61528000,0.0324,0.013523,0.002678,0.000431,0.018452
61529000,0.0324,0.013523,0.002678,0.000431,0.014809
61530000,0.0324,0.013523,0.002678,0.000431,0.011870
61531000,0.0324,0.013523,0.002678,0.000431,0.007287
61532000,0.0324,0.013523,0.002678,0.000431,0.007052
61533000,0.0324,0.013523,0.002678,0.000431,0.010342
61534000,0.0324,0.013523,0.002678,0.000431,0.006111
61535000,0.0324,0.013523,0.002678,0.000431,0.011518
61536000,0.0324,0.013523,0.002678,0.000431,0.004113
61537000,0.0324,0.013523,0.002678,0.000431,0.007522
61538000,0.0324,0.013523,0.002678,0.000431,0.001645
61539000,0.0324,0.013523,0.002678,0.000431,0.003996
61540000,0.0324,0.013523,0.002678,0.000431,0.571892
61541000,0.0324,0.013523,0.002678,0.000431,0.768517
61542000,0.0324,0.013523,0.002678,0.000431,0.146558
61543000,0.0324,0.013523,0.002678,0.000431,0.136333
61544000,0.0324,0.013523,0.002678,0.000431,0.470818
61545000,0.0324,0.013523,0.002678,0.000431,0.239640
61546000,0.0324,0.013523,0.002678,0.000431,0.280540
61547000,0.0324,0.013523,0.002678,0.000431,0.184872
61548000,0.0324,0.013523,0.002678,0.000431,0.159721
61549000,0.0324,0.013523,0.002678,0.000431,0.119644
61550000,0.0324,0.013523,0.002678,0.000431,0.446842
61551000,0.0324,0.013523,0.002678,0.000431,0.345885
61552000,0.0324,0.013523,0.002678,0.000431,0.184167
61553000,0.0324,0.013523,0.002678,0.000431,0.171121
61554000,0.0324,0.013523,0.002678,0.000431,0.149378
61555000,0.0324,0.013523,0.002678,0.000431,0.118703
61556000,0.0324,0.013523,0.002678,0.000431,0.103542
61557000,0.0324,0.013523,0.002678,0.000431,0.076628
61558000,0.0324,0.013523,0.002678,0.000431,0.059704
61559000,0.0324,0.013523,0.002678,0.000431,0.043485
61560000,0.0324,0.013523,0.002678,0.000431,0.045836
61561000,0.0324,0.013523,0.002678,0.000431,0.029382
61562000,0.0324,0.013523,0.002678,0.000431,0.025151
61563000,0.0324,0.013523,0.002678,0.000431,0.024563
61564000,0.0324,0.013523,0.002678,0.000431,0.012340
61565000,0.0324,0.013523,0.002678,0.000431,0.014691
61566000,0.0324,0.013523,0.002678,0.000431,0.005054
61567000,0.0324,0.013523,0.002678,0.000431,0.006582
61568000,0.0324,0.013523,0.002678,0.000431,0.004349
61569000,0.0324,0.013523,0.002678,0.000431,0.003996
61570000,0.0324,0.013523,0.002678,0.000431,0.004466
61571000,0.0324,0.013523,0.002678,0.000431,0.003996
61572000,0.0324,0.013523,0.002678,0.000431,0.009990
61573000,0.0324,0.013523,0.002678,0.000431,0.002116
61574000,0.0324,0.013523,0.002678,0.000431,0.001645
61575000,0.0324,0.013523,0.002678,0.000431,0.001645
61576000,0.0324,0.013523,0.002678,0.000431,0.001645
61577000,0.0324,0.013523,0.002678,0.000431,0.003291
61578000,0.0324,0.013523,0.002678,0.000431,0.000823
61579000,0.0324,0.013523,0.002678,0.000431,0.264909
61580000,0.0324,0.013523,0.002678,0.000431,0.737372
61581000,0.0324,0.013523,0.002678,0.000431,0.424277
61582000,0.0324,0.013523,0.002678,0.000431,0.135392
61583000,0.0324,0.013523,0.002678,0.000431,0.487859
61584000,0.0324,0.013523,0.002678,0.000431,0.304280
61585000,0.0324,0.013523,0.002678,0.000431,0.266554
61586000,0.0324,0.013523,0.002678,0.000431,0.233293
61587000,0.0324,0.013523,0.002678,0.000431,0.168770
61588000,0.0324,0.013523,0.002678,0.000431,0.104718
61589000,0.0324,0.013523,0.002678,0.000431,0.460240
61590000,0.0324,0.013523,0.002678,0.000431,0.340714
61591000,0.0324,0.013523,0.002678,0.000431,0.197447
61592000,0.0324,0.013523,0.002678,0.000431,0.170886
61593000,0.0324,0.013523,0.002678,0.000431,0.130574
61594000,0.0324,0.013523,0.002678,0.000431,0.122229
61595000,0.0324,0.013523,0.002678,0.000431,0.089321
61596000,0.0324,0.013523,0.002678,0.000431,0.073573
61597000,0.0324,0.013523,0.002678,0.000431,0.065816
61598000,0.0324,0.013523,0.002678,0.000431,0.037609
61599000,0.0324,0.013523,0.002678,0.000431,0.030440
61600000,0.0324,0.013523,0.002678,0.000431,0.029970
61601000,0.0324,0.013523,0.002678,0.000431,0.021273
61602000,0.0324,0.013523,0.002678,0.000431,0.014926
61603000,0.0324,0.013523,0.002678,0.000431,0.011400
61604000,0.0324,0.013523,0.002678,0.000431,0.012340
61605000,0.0324,0.013523,0.002678,0.000431,0.011870
61606000,0.0324,0.013523,0.002678,0.000431,0.017864
61607000,0.0324,0.013523,0.002678,0.000431,0.011518
61608000,0.0324,0.013523,0.002678,0.000431,0.009520
61609000,0.0324,0.013523,0.002678,0.000431,0.009402
61610000,0.0324,0.013523,0.002678,0.000431,0.009402
61611000,0.0324,0.013523,0.002678,0.000431,0.008697
61612000,0.0324,0.013523,0.002678,0.000431,0.009637
61613000,0.0324,0.013523,0.002678,0.000431,0.009285
61614000,0.0324,0.013523,0.002678,0.000431,0.010930
61615000,0.0324,0.013523,0.002678,0.000431,0.010342
61616000,0.0324,0.013523,0.002678,0.000431,0.009167
61617000,0.0324,0.013523,0.002678,0.000431,0.007052
61618000,0.0324,0.013523,0.002678,0.000431,0.003056
61619000,0.0324,0.013523,0.002678,0.000431,0.006699
61620000,0.0324,0.013523,0.002678,0.000431,0.000823
61621000,0.0324,0.013523,0.002678,0.000431,0.000940
61622000,0.0324,0.013523,0.002678,0.000431,0.016101
61623000,0.0324,0.013523,0.002678,0.000431,0.796724
61624000,0.0324,0.013523,0.002678,0.000431,0.549327
61625000,0.0324,0.013523,0.002678,0.000431,0.143972
61626000,0.0324,0.013523,0.002678,0.000431,0.145030
61627000,0.0324,0.013523,0.002678,0.000431,0.552382
61628000,0.0324,0.013523,0.002678,0.000431,0.270080
61629000,0.0324,0.013523,0.002678,0.000431,0.321792
61630000,0.0324,0.013523,0.002678,0.000431,0.155960
61631000,0.0324,0.013523,0.002678,0.000431,0.151729
61632000,0.0324,0.013523,0.002678,0.000431,0.234234
61633000,0.0324,0.013523,0.002678,0.000431,0.500553
61634000,0.0324,0.013523,0.002678,0.000431,0.202148
61635000,0.0324,0.013523,0.002678,0.000431,0.187693
61636000,0.0324,0.013523,0.002678,0.000431,0.140211
61637000,0.0324,0.013523,0.002678,0.000431,0.132807
61638000,0.0324,0.013523,0.002678,0.000431,0.103072
61639000,0.0324,0.013523,0.002678,0.000431,0.093200
61640000,0.0324,0.013523,0.002678,0.000431,0.070752
61641000,0.0324,0.013523,0.002678,0.000431,0.069812
61642000,0.0324,0.013523,0.002678,0.000431,0.055003
61643000,0.0324,0.013523,0.002678,0.000431,0.051125
61644000,0.0324,0.013523,0.002678,0.000431,0.038314
61645000,0.0324,0.013523,0.002678,0.000431,0.036081
61646000,0.0324,0.013523,0.002678,0.000431,0.022683
61647000,0.0324,0.013523,0.002678,0.000431,0.013751
61648000,0.0324,0.013523,0.002678,0.000431,0.015161
61649000,0.0324,0.013523,0.002678,0.000431,0.017042
61650000,0.0324,0.013523,0.002678,0.000431,0.011283
61651000,0.0324,0.013523,0.002678,0.000431,0.007052
61652000,0.0324,0.013523,0.002678,0.000431,0.006229
61653000,0.0324,0.013523,0.002678,0.000431,0.004231
61654000,0.0324,0.013523,0.002678,0.000431,0.007169
61655000,0.0324,0.013523,0.002678,0.000431,0.008932
61656000,0.0324,0.013523,0.002678,0.000431,0.003996
61657000,0.0324,0.013523,0.002678,0.000431,0.002351
61658000,0.0324,0.013523,0.002678,0.000431,0.005289
61659000,0.0324,0.013523,0.002678,0.000431,0.521237
61660000,0.0324,0.013523,0.002678,0.000431,0.753591
61661000,0.0324,0.013523,0.002678,0.000431,0.174529
61662000,0.0324,0.013523,0.002678,0.000431,0.137743
61663000,0.0324,0.013523,0.002678,0.000431,0.512540
61664000,0.0324,0.013523,0.002678,0.000431,0.263968
61665000,0.0324,0.013523,0.002678,0.000431,0.314270
61666000,0.0324,0.013523,0.002678,0.000431,0.171826
61667000,0.0324,0.013523,0.002678,0.000431,0.190983
61668000,0.0324,0.013523,0.002678,0.000431,0.089909
61669000,0.0324,0.013523,0.002678,0.000431,0.559669
61670000,0.0324,0.013523,0.002678,0.000431,0.285476
61671000,0.0324,0.013523,0.002678,0.000431,0.202971
61672000,0.0324,0.013523,0.002678,0.000431,0.174999
61673000,0.0324,0.013523,0.002678,0.000431,0.151611
61674000,0.0324,0.013523,0.002678,0.000431,0.126930
61675000,0.0324,0.013523,0.002678,0.000431,0.102602
61676000,0.0324,0.013523,0.002678,0.000431,0.076276
61677000,0.0324,0.013523,0.002678,0.000431,0.074043
61678000,0.0324,0.013523,0.002678,0.000431,0.051947
61679000,0.0324,0.013523,0.002678,0.000431,0.039254
61680000,0.0324,0.013523,0.002678,0.000431,0.041252
61681000,0.0324,0.013523,0.002678,0.000431,0.015866
61682000,0.0324,0.013523,0.002678,0.000431,0.019745
61683000,0.0324,0.013523,0.002678,0.000431,0.008580
61684000,0.0324,0.013523,0.002678,0.000431,0.010578
61685000,0.0324,0.013523,0.002678,0.000431,0.008227
61686000,0.0324,0.013523,0.002678,0.000431,0.008932
61687000,0.0324,0.013523,0.002678,0.000431,0.008462
61688000,0.0324,0.013523,0.002678,0.000431,0.005406
61689000,0.0324,0.013523,0.002678,0.000431,0.007052
61690000,0.0324,0.013523,0.002678,0.000431,0.005171
61691000,0.0324,0.013523,0.002678,0.000431,0.004231
61692000,0.0324,0.013523,0.002678,0.000431,0.008345
61693000,0.0324,0.013523,0.002678,0.000431,0.001998
61694000,0.0324,0.013523,0.002678,0.000431,0.001763
61695000,0.0324,0.013523,0.002678,0.000431,0.002703
61696000,0.0324,0.013523,0.002678,0.000431,0.001058
61697000,0.0324,0.013523,0.002678,0.000431,0.001175
61698000,0.0324,0.013523,0.002678,0.000431,0.191571
61699000,0.0324,0.013523,0.002678,0.000431,0.765461
61700000,0.0324,0.013523,0.002678,0.000431,0.496204
61701000,0.0324,0.013523,0.002678,0.000431,0.139036
61702000,0.0324,0.013523,0.002678,0.000431,0.404532
61703000,0.0324,0.013523,0.002678,0.000431,0.402887
61704000,0.0324,0.013523,0.002678,0.000431,0.289824
61705000,0.0324,0.013523,0.002678,0.000431,0.235644
61706000,0.0324,0.013523,0.002678,0.000431,0.162894
61707000,0.0324,0.013523,0.002678,0.000431,0.103307
61708000,0.0324,0.013523,0.002678,0.000431,0.529582
61709000,0.0324,0.013523,0.002678,0.000431,0.257504
61710000,0.0324,0.013523,0.002678,0.000431,0.176645
61711000,0.0324,0.013523,0.002678,0.000431,0.150083
61712000,0.0324,0.013523,0.002678,0.000431,0.131984
61713000,0.0324,0.013523,0.002678,0.000431,0.121407
61714000,0.0324,0.013523,0.002678,0.000431,0.085678
61715000,0.0324,0.013523,0.002678,0.000431,0.072162
61716000,0.0324,0.013523,0.002678,0.000431,0.064053
61717000,0.0324,0.013523,0.002678,0.000431,0.060762
61718000,0.0324,0.013523,0.002678,0.000431,0.043133
61719000,0.0324,0.013523,0.002678,0.000431,0.050185
61720000,0.0324,0.013523,0.002678,0.000431,0.027267
61721000,0.0324,0.013523,0.002678,0.000431,0.025269
61722000,0.0324,0.013523,0.002678,0.000431,0.020450
61723000,0.0324,0.013523,0.002678,0.000431,0.022918
61724000,0.0324,0.013523,0.002678,0.000431,0.014338
61725000,0.0324,0.013523,0.002678,0.000431,0.007522
61726000,0.0324,0.013523,0.002678,0.000431,0.008697
61727000,0.0324,0.013523,0.002678,0.000431,0.007757
61728000,0.0324,0.013523,0.002678,0.000431,0.010813
61729000,0.0324,0.013523,0.002678,0.000431,0.005994
61730000,0.0324,0.013523,0.002678,0.000431,0.005406
61731000,0.0324,0.013523,0.002678,0.000431,0.006934
61732000,0.0324,0.013523,0.002678,0.000431,0.007404
61733000,0.0324,0.013523,0.002678,0.000431,0.007052
61734000,0.0324,0.013523,0.002678,0.000431,0.004936
61735000,0.0324,0.013523,0.002678,0.000431,0.004113
61736000,0.0324,0.013523,0.002678,0.000431,0.005876
61737000,0.0324,0.013523,0.002678,0.000431,0.003761
61738000,0.0324,0.013523,0.002678,0.000431,0.003643
61739000,0.0324,0.013523,0.002678,0.000431,0.003761
61740000,0.0324,0.013523,0.002678,0.000431,0.003408
61741000,0.0324,0.013523,0.002678,0.000431,0.003878
61742000,0.0324,0.013523,0.002678,0.000431,0.003526
61743000,0.0324,0.013523,0.002678,0.000431,0.004819
61744000,0.0324,0.013523,0.002678,0.000431,0.004113
61745000,0.0324,0.013523,0.002678,0.000431,0.001880
61746000,0.0324,0.013523,0.002678,0.000431,0.001293
61747000,0.0324,0.013523,0.002678,0.000431,0.001528
61748000,0.0324,0.013523,0.002678,0.000431,0.001645
61749000,0.0324,0.013523,0.002678,0.000431,0.001293
61750000,0.0324,0.013523,0.002678,0.000431,0.000940
61751000,0.0324,0.013523,0.002678,0.000431,0.000705
61752000,0.0324,0.013523,0.002678,0.000431,0.000940
61753000,0.0324,0.013523,0.002678,0.000431,0.000823
61754000,0.0324,0.013523,0.002678,0.000431,0.000823
61755000,0.0324,0.013523,0.002678,0.000431,0.000940
61756000,0.0324,0.013523,0.002678,0.000431,0.000823
61757000,0.0324,0.013523,0.002678,0.000431,0.000823
61758000,0.0324,0.013523,0.002678,0.000431,0.000940
61759000,0.0324,0.013523,0.002678,0.000431,0.000705
61760000,0.0324,0.013523,0.002678,0.000431,0.000940
61761000,0.0324,0.013523,0.002678,0.000431,0.000823
61762000,0.0324,0.013523,0.002678,0.000431,0.000823
61763000,0.0324,0.013523,0.002678,0.000431,0.000940
61764000,0.0324,0.013523,0.002678,0.000431,0.000823
61765000,0.0324,0.013523,0.002678,0.000431,0.000823
61766000,0.0324,0.013523,0.002678,0.000431,0.000940
61767000,0.0324,0.013523,0.002678,0.000431,0.000705
61768000,0.0324,0.013523,0.002678,0.000431,0.072280
61769000,0.0324,0.013523,0.002678,0.000431,0.735139
61770000,0.0324,0.013523,0.002678,0.000431,0.561315
61771000,0.0324,0.013523,0.002678,0.000431,0.140211
61772000,0.0324,0.013523,0.002678,0.000431,0.196272
61773000,0.0324,0.013523,0.002678,0.000431,0.611969
61774000,0.0324,0.013523,0.002678,0.000431,0.271020
61775000,0.0324,0.013523,0.002678,0.000431,0.251040
61776000,0.0324,0.013523,0.002678,0.000431,0.151729
61777000,0.0324,0.013523,0.002678,0.000431,0.137743
61778000,0.0324,0.013523,0.002678,0.000431,0.249042
61779000,0.0324,0.013523,0.002678,0.000431,0.493266
61780000,0.0324,0.013523,0.002678,0.000431,0.182521
61781000,0.0324,0.013523,0.002678,0.000431,0.165010
61782000,0.0324,0.013523,0.002678,0.000431,0.142209
61783000,0.0324,0.013523,0.002678,0.000431,0.112004
61784000,0.0324,0.013523,0.002678,0.000431,0.084033
61785000,0.0324,0.013523,0.002678,0.000431,0.073220
61786000,0.0324,0.013523,0.002678,0.000431,0.052183
61787000,0.0324,0.013523,0.002678,0.000431,0.039725
61788000,0.0324,0.013523,0.002678,0.000431,0.037139
61789000,0.0324,0.013523,0.002678,0.000431,0.030205
61790000,0.0324,0.013523,0.002678,0.000431,0.020685
61791000,0.0324,0.013523,0.002678,0.000431,0.018217
61792000,0.0324,0.013523,0.002678,0.000431,0.016924
61793000,0.0324,0.013523,0.002678,0.000431,0.019275
61794000,0.0324,0.013523,0.002678,0.000431,0.015631
61795000,0.0324,0.013523,0.002678,0.000431,0.009285
61796000,0.0324,0.013523,0.002678,0.000431,0.007757
61797000,0.0324,0.013523,0.002678,0.000431,0.005524
61798000,0.0324,0.013523,0.002678,0.000431,0.001763
61799000,0.0324,0.013523,0.002678,0.000431,0.004466
61800000,0.0324,0.013523,0.002678,0.000431,0.000823
61801000,0.0324,0.013523,0.002678,0.000431,0.000823
61802000,0.0324,0.013523,0.002678,0.000431,0.000823
61803000,0.0324,0.013523,0.002678,0.000431,0.000940
61804000,0.0324,0.013523,0.002678,0.000431,0.000705
61805000,0.0324,0.013523,0.002678,0.000431,0.000940
61806000,0.0324,0.013523,0.002678,0.000431,0.000823
61807000,0.0324,0.013523,0.002678,0.000431,0.000823
61808000,0.0324,0.013523,0.002678,0.000431,0.000823
61809000,0.0324,0.013523,0.002678,0.000431,0.000823
61810000,0.0324,0.013523,0.002678,0.000431,0.000823
61811000,0.0324,0.013523,0.002678,0.000431,0.000823
61812000,0.0324,0.013523,0.002678,0.000431,0.000705
61813000,0.0324,0.013523,0.002678,0.000431,0.000940
61814000,0.0324,0.013523,0.002678,0.000431,0.254331
61815000,0.0324,0.013523,0.002678,0.000431,0.698470
61816000,0.0324,0.013523,0.002678,0.000431,0.462003
61817000,0.0324,0.013523,0.002678,0.000431,0.134922
61818000,0.0324,0.013523,0.002678,0.000431,0.434149
61819000,0.0324,0.013523,0.002678,0.000431,0.359401
61820000,0.0324,0.013523,0.002678,0.000431,0.259620
61821000,0.0324,0.013523,0.002678,0.000431,0.255389
61822000,0.0324,0.013523,0.002678,0.000431,0.164069
61823000,0.0324,0.013523,0.002678,0.000431,0.108479
61824000,0.0324,0.013523,0.002678,0.000431,0.431093
61825000,0.0324,0.013523,0.002678,0.000431,0.370331
61826000,0.0324,0.013523,0.002678,0.000431,0.191924
61827000,0.0324,0.013523,0.002678,0.000431,0.158193
61828000,0.0324,0.013523,0.002678,0.000431,0.149966
61829000,0.0324,0.013523,0.002678,0.000431,0.124697
61830000,0.0324,0.013523,0.002678,0.000431,0.111182
61831000,0.0324,0.013523,0.002678,0.000431,0.087676
61832000,0.0324,0.013523,0.002678,0.000431,0.079096
61833000,0.0324,0.013523,0.002678,0.000431,0.050067
61834000,0.0324,0.013523,0.002678,0.000431,0.029617
61835000,0.0324,0.013523,0.002678,0.000431,0.032320
61836000,0.0324,0.013523,0.002678,0.000431,0.028912
61837000,0.0324,0.013523,0.002678,0.000431,0.024916
61838000,0.0324,0.013523,0.002678,0.000431,0.013281
61839000,0.0324,0.013523,0.002678,0.000431,0.015749
61840000,0.0324,0.013523,0.002678,0.000431,0.012576
61841000,0.0324,0.013523,0.002678,0.000431,0.009167
61842000,0.0324,0.013523,0.002678,0.000431,0.006699
61843000,0.0324,0.013523,0.002678,0.000431,0.002821
61844000,0.0324,0.013523,0.002678,0.000431,0.002703
61845000,0.0324,0.013523,0.002678,0.000431,0.004349
61846000,0.0324,0.013523,0.002678,0.000431,0.001763
61847000,0.0324,0.013523,0.002678,0.000431,0.001763
61848000,0.0324,0.013523,0.002678,0.000431,0.004584
61849000,0.0324,0.013523,0.002678,0.000431,0.000940
61850000,0.0324,0.013523,0.002678,0.000431,0.000940
61851000,0.0324,0.013523,0.002678,0.000431,0.000705
61852000,0.0324,0.013523,0.002678,0.000431,0.262911
61853000,0.0324,0.013523,0.002678,0.000431,0.743366
61854000,0.0324,0.013523,0.002678,0.000431,0.409586
61855000,0.0324,0.013523,0.002678,0.000431,0.139388
61856000,0.0324,0.013523,0.002678,0.000431,0.439320
61857000,0.0324,0.013523,0.002678,0.000431,0.351879
61858000,0.0324,0.013523,0.002678,0.000431,0.266436
61859000,0.0324,0.013523,0.002678,0.000431,0.265966
61860000,0.0324,0.013523,0.002678,0.000431,0.157958
61861000,0.0324,0.013523,0.002678,0.000431,0.112239
61862000,0.0324,0.013523,0.002678,0.000431,0.452484
61863000,0.0324,0.013523,0.002678,0.000431,0.295231
61864000,0.0324,0.013523,0.002678,0.000431,0.162894
61865000,0.0324,0.013523,0.002678,0.000431,0.154432
61866000,0.0324,0.013523,0.002678,0.000431,0.123287
61867000,0.0324,0.013523,0.002678,0.000431,0.115295
61868000,0.0324,0.013523,0.002678,0.000431,0.076511
61869000,0.0324,0.013523,0.002678,0.000431,0.074513
61870000,0.0324,0.013523,0.002678,0.000431,0.057589
61871000,0.0324,0.013523,0.002678,0.000431,0.044896
61872000,0.0324,0.013523,0.002678,0.000431,0.034083
61873000,0.0324,0.013523,0.002678,0.000431,0.029735
61874000,0.0324,0.013523,0.002678,0.000431,0.022565
61875000,0.0324,0.013523,0.002678,0.000431,0.019980
61876000,0.0324,0.013523,0.002678,0.000431,0.013046
61877000,0.0324,0.013523,0.002678,0.000431,0.005171
61878000,0.0324,0.013523,0.002678,0.000431,0.007639
61879000,0.0324,0.013523,0.002678,0.000431,0.004819
61880000,0.0324,0.013523,0.002678,0.000431,0.003173
61881000,0.0324,0.013523,0.002678,0.000431,0.003643
61882000,0.0324,0.013523,0.002678,0.000431,0.005054
61883000,0.0324,0.013523,0.002678,0.000431,0.004936
61884000,0.0324,0.013523,0.002678,0.000431,0.001528
61885000,0.0324,0.013523,0.002678,0.000431,0.001645
61886000,0.0324,0.013523,0.002678,0.000431,0.001763
61887000,0.0324,0.013523,0.002678,0.000431,0.001763
61888000,0.0324,0.013523,0.002678,0.000431,0.001528
61889000,0.0324,0.013523,0.002678,0.000431,0.001763
61890000,0.0324,0.013523,0.002678,0.000431,0.001880
61891000,0.0324,0.013523,0.002678,0.000431,0.001645
61892000,0.0324,0.013523,0.002678,0.000431,0.004349
61893000,0.0324,0.013523,0.002678,0.000431,0.000823
61894000,0.0324,0.013523,0.002678,0.000431,0.000940
61895000,0.0324,0.013523,0.002678,0.000431,0.000823
61896000,0.0324,0.013523,0.002678,0.000431,0.000940
61897000,0.0324,0.013523,0.002678,0.000431,0.010460
61898000,0.0324,0.013523,0.002678,0.000431,0.668853
61899000,0.0324,0.013523,0.002678,0.000431,0.615378
61900000,0.0324,0.013523,0.002678,0.000431,0.135980
61901000,0.0324,0.013523,0.002678,0.000431,0.136803
61902000,0.0324,0.013523,0.002678,0.000431,0.523706
61903000,0.0324,0.013523,0.002678,0.000431,0.232236
61904000,0.0324,0.013523,0.002678,0.000431,0.353407
61905000,0.0324,0.013523,0.002678,0.000431,0.179230
61906000,0.0324,0.013523,0.002678,0.000431,0.186987
61907000,0.0324,0.013523,0.002678,0.000431,0.088029
61908000,0.0324,0.013523,0.002678,0.000431,0.566838
61909000,0.0324,0.013523,0.002678,0.000431,0.222833
61910000,0.0324,0.013523,0.002678,0.000431,0.176645
61911000,0.0324,0.013523,0.002678,0.000431,0.158898
61912000,0.0324,0.013523,0.002678,0.000431,0.129516
61913000,0.0324,0.013523,0.002678,0.000431,0.108714
61914000,0.0324,0.013523,0.002678,0.000431,0.090849
61915000,0.0324,0.013523,0.002678,0.000431,0.080272
61916000,0.0324,0.013523,0.002678,0.000431,0.055591
61917000,0.0324,0.013523,0.002678,0.000431,0.055473
61918000,0.0324,0.013523,0.002678,0.000431,0.045954
61919000,0.0324,0.013523,0.002678,0.000431,0.043015
61920000,0.0324,0.013523,0.002678,0.000431,0.026209
61921000,0.0324,0.013523,0.002678,0.000431,0.017629
61922000,0.0324,0.013523,0.002678,0.000431,0.024446
61923000,0.0324,0.013523,0.002678,0.000431,0.010930
61924000,0.0324,0.013523,0.002678,0.000431,0.013868
61925000,0.0324,0.013523,0.002678,0.000431,0.008227
61926000,0.0324,0.013523,0.002678,0.000431,0.008932
61927000,0.0324,0.013523,0.002678,0.000431,0.008345
61928000,0.0324,0.013523,0.002678,0.000431,0.006817
61929000,0.0324,0.013523,0.002678,0.000431,0.005524
61930000,0.0324,0.013523,0.002678,0.000431,0.005406
61931000,0.0324,0.013523,0.002678,0.000431,0.005171
61932000,0.0324,0.013523,0.002678,0.000431,0.011753
61933000,0.0324,0.013523,0.002678,0.000431,0.003291
61934000,0.0324,0.013523,0.002678,0.000431,0.003291
61935000,0.0324,0.013523,0.002678,0.000431,0.003408
61936000,0.0324,0.013523,0.002678,0.000431,0.003761
61937000,0.0324,0.013523,0.002678,0.000431,0.003173
61938000,0.0324,0.013523,0.002678,0.000431,0.003056
61939000,0.0324,0.013523,0.002678,0.000431,0.002351
61940000,0.0324,0.013523,0.002678,0.000431,0.005171
61941000,0.0324,0.013523,0.002678,0.000431,0.001880
61942000,0.0324,0.013523,0.002678,0.000431,0.002351
61943000,0.0324,0.013523,0.002678,0.000431,0.002233
61944000,0.0324,0.013523,0.002678,0.000431,0.000823
61945000,0.0324,0.013523,0.002678,0.000431,0.000940
61946000,0.0324,0.013523,0.002678,0.000431,0.001175
61947000,0.0324,0.013523,0.002678,0.000431,0.001058
61948000,0.0324,0.013523,0.002678,0.000431,0.001058
61949000,0.0324,0.013523,0.002678,0.000431,0.000940
61950000,0.0324,0.013523,0.002678,0.000431,0.000940
61951000,0.0324,0.013523,0.002678,0.000431,0.001175
61952000,0.0324,0.013523,0.002678,0.000431,0.001058
61953000,0.0324,0.013523,0.002678,0.000431,0.001058
61954000,0.0324,0.013523,0.002678,0.000431,0.000940
61955000,0.0324,0.013523,0.002678,0.000431,0.000940
61956000,0.0324,0.013523,0.002678,0.000431,0.001175
61957000,0.0324,0.013523,0.002678,0.000431,0.000823
61958000,0.0324,0.013523,0.002678,0.000431,0.001293
61959000,0.0324,0.013523,0.002678,0.000431,0.000823
61960000,0.0324,0.013523,0.002678,0.000431,0.014338
61961000,0.0324,0.013523,0.002678,0.000431,0.777684
61962000,0.0324,0.013523,0.002678,0.000431,0.555321
61963000,0.0324,0.013523,0.002678,0.000431,0.138683
61964000,0.0324,0.013523,0.002678,0.000431,0.141739
61965000,0.0324,0.013523,0.002678,0.000431,0.554145
61966000,0.0324,0.013523,0.002678,0.000431,0.260678
61967000,0.0324,0.013523,0.002678,0.000431,0.317209
61968000,0.0324,0.013523,0.002678,0.000431,0.151611
61969000,0.0324,0.013523,0.002678,0.000431,0.153257
61970000,0.0324,0.013523,0.002678,0.000431,0.211433
61971000,0.0324,0.013523,0.002678,0.000431,0.543450
61972000,0.0324,0.013523,0.002678,0.000431,0.248690
61973000,0.0324,0.013523,0.002678,0.000431,0.216134
61974000,0.0324,0.013523,0.002678,0.000431,0.164539
61975000,0.0324,0.013523,0.002678,0.000431,0.138918
61976000,0.0324,0.013523,0.002678,0.000431,0.115883
61977000,0.0324,0.013523,0.002678,0.000431,0.098606
61978000,0.0324,0.013523,0.002678,0.000431,0.073220
61979000,0.0324,0.013523,0.002678,0.000431,0.047481
61980000,0.0324,0.013523,0.002678,0.000431,0.053593
61981000,0.0324,0.013523,0.002678,0.000431,0.040665
61982000,0.0324,0.013523,0.002678,0.000431,0.037609
61983000,0.0324,0.013523,0.002678,0.000431,0.030910
61984000,0.0324,0.013523,0.002678,0.000431,0.014926
61985000,0.0324,0.013523,0.002678,0.000431,0.013751
61986000,0.0324,0.013523,0.002678,0.000431,0.009520
61987000,0.0324,0.013523,0.002678,0.000431,0.006347
61988000,0.0324,0.013523,0.002678,0.000431,0.009402
61989000,0.0324,0.013523,0.002678,0.000431,0.003643
61990000,0.0324,0.013523,0.002678,0.000431,0.575888
61991000,0.0324,0.013523,0.002678,0.000431,0.748067
61992000,0.0324,0.013523,0.002678,0.000431,0.169828
61993000,0.0324,0.013523,0.002678,0.000431,0.136803
61994000,0.0324,0.013523,0.002678,0.000431,0.573773
61995000,0.0324,0.013523,0.002678,0.000431,0.243283
61996000,0.0324,0.013523,0.002678,0.000431,0.316974
61997000,0.0324,0.013523,0.002678,0.000431,0.182639
61998000,0.0324,0.013523,0.002678,0.000431,0.177350
61999000,0.0324,0.013523,0.002678,0.000431,0.101779
