Cycle,Area(mm^2),PeakDynamic(W),SubthresholdLeakage(W),GateLeakage(W),RunTimeDynamic(W)
27000000,0.0324,0.013523,0.002678,0.000431,0.133512
27001000,0.0324,0.013523,0.002678,0.000431,0.566133
27002000,0.0324,0.013523,0.002678,0.000431,0.252215
27003000,0.0324,0.013523,0.002678,0.000431,0.303810
27004000,0.0324,0.013523,0.002678,0.000431,0.266554
27005000,0.0324,0.013523,0.002678,0.000431,0.140446
27006000,0.0324,0.013523,0.002678,0.000431,0.179583
27007000,0.0324,0.013523,0.002678,0.000431,0.093787
27008000,0.0324,0.013523,0.002678,0.000431,0.479515
27009000,0.0324,0.013523,0.002678,0.000431,0.135157
27010000,0.0324,0.013523,0.002678,0.000431,0.102250
27011000,0.0324,0.013523,0.002678,0.000431,0.077686
27012000,0.0324,0.013523,0.002678,0.000431,0.062760
27013000,0.0324,0.013523,0.002678,0.000431,0.050302
27014000,0.0324,0.013523,0.002678,0.000431,0.047951
27015000,0.0324,0.013523,0.002678,0.000431,0.038549
27016000,0.0324,0.013523,0.002678,0.000431,0.038197
27017000,0.0324,0.013523,0.002678,0.000431,0.035023
27018000,0.0324,0.013523,0.002678,0.000431,0.016571
27019000,0.0324,0.013523,0.002678,0.000431,0.014691
27020000,0.0324,0.013523,0.002678,0.000431,0.016689
27021000,0.0324,0.013523,0.002678,0.000431,0.018099
27022000,0.0324,0.013523,0.002678,0.000431,0.007874
27023000,0.0324,0.013523,0.002678,0.000431,0.007404
27024000,0.0324,0.013523,0.002678,0.000431,0.005289
27025000,0.0324,0.013523,0.002678,0.000431,0.006347
27026000,0.0324,0.013523,0.002678,0.000431,0.004466
27027000,0.0324,0.013523,0.002678,0.000431,0.005524
27028000,0.0324,0.013523,0.002678,0.000431,0.005054
27029000,0.0324,0.013523,0.002678,0.000431,0.003173
27030000,0.0324,0.013523,0.002678,0.000431,0.001763
27031000,0.0324,0.013523,0.002678,0.000431,0.001763
27032000,0.0324,0.013523,0.002678,0.000431,0.001645
27033000,0.0324,0.013523,0.002678,0.000431,0.003173
27034000,0.0324,0.013523,0.002678,0.000431,0.000940
27035000,0.0324,0.013523,0.002678,0.000431,0.000940
27036000,0.0324,0.013523,0.002678,0.000431,0.000940
27037000,0.0324,0.013523,0.002678,0.000431,0.000823
27038000,0.0324,0.013523,0.002678,0.000431,0.078744
27039000,0.0324,0.013523,0.002678,0.000431,0.603742
27040000,0.0324,0.013523,0.002678,0.000431,0.542510
27041000,0.0324,0.013523,0.002678,0.000431,0.138448
27042000,0.0324,0.013523,0.002678,0.000431,0.133042
27043000,0.0324,0.013523,0.002678,0.000431,0.572715
27044000,0.0324,0.013523,0.002678,0.000431,0.283478
27045000,0.0324,0.013523,0.002678,0.000431,0.268552
27046000,0.0324,0.013523,0.002678,0.000431,0.250805
27047000,0.0324,0.013523,0.002678,0.000431,0.146088
27048000,0.0324,0.013523,0.002678,0.000431,0.176997
27049000,0.0324,0.013523,0.002678,0.000431,0.108243
27050000,0.0324,0.013523,0.002678,0.000431,0.482923
27051000,0.0324,0.013523,0.002678,0.000431,0.154197
27052000,0.0324,0.013523,0.002678,0.000431,0.129634
27053000,0.0324,0.013523,0.002678,0.000431,0.104483
27054000,0.0324,0.013523,0.002678,0.000431,0.086383
27055000,0.0324,0.013523,0.002678,0.000431,0.074160
27056000,0.0324,0.013523,0.002678,0.000431,0.067696
27057000,0.0324,0.013523,0.002678,0.000431,0.053828
27058000,0.0324,0.013523,0.002678,0.000431,0.045483
27059000,0.0324,0.013523,0.002678,0.000431,0.040312
27060000,0.0324,0.013523,0.002678,0.000431,0.040430
27061000,0.0324,0.013523,0.002678,0.000431,0.039372
27062000,0.0324,0.013523,0.002678,0.000431,0.030205
27063000,0.0324,0.013523,0.002678,0.000431,0.024798
27064000,0.0324,0.013523,0.002678,0.000431,0.018922
27065000,0.0324,0.013523,0.002678,0.000431,0.020215
27066000,0.0324,0.013523,0.002678,0.000431,0.018805
27067000,0.0324,0.013523,0.002678,0.000431,0.017394
27068000,0.0324,0.013523,0.002678,0.000431,0.015514
27069000,0.0324,0.013523,0.002678,0.000431,0.013633
27070000,0.0324,0.013523,0.002678,0.000431,0.011283
27071000,0.0324,0.013523,0.002678,0.000431,0.011283
27072000,0.0324,0.013523,0.002678,0.000431,0.010930
27073000,0.0324,0.013523,0.002678,0.000431,0.011753
27074000,0.0324,0.013523,0.002678,0.000431,0.011635
27075000,0.0324,0.013523,0.002678,0.000431,0.011753
27076000,0.0324,0.013523,0.002678,0.000431,0.011988
27077000,0.0324,0.013523,0.002678,0.000431,0.011283
27078000,0.0324,0.013523,0.002678,0.000431,0.009402
27079000,0.0324,0.013523,0.002678,0.000431,0.009285
27080000,0.0324,0.013523,0.002678,0.000431,0.008932
27081000,0.0324,0.013523,0.002678,0.000431,0.007052
27082000,0.0324,0.013523,0.002678,0.000431,0.007052
27083000,0.0324,0.013523,0.002678,0.000431,0.007052
27084000,0.0324,0.013523,0.002678,0.000431,0.008815
27085000,0.0324,0.013523,0.002678,0.000431,0.006111
27086000,0.0324,0.013523,0.002678,0.000431,0.013516
27087000,0.0324,0.013523,0.002678,0.000431,0.004584
27088000,0.0324,0.013523,0.002678,0.000431,0.003643
27089000,0.0324,0.013523,0.002678,0.000431,0.006464
27090000,0.0324,0.013523,0.002678,0.000431,0.001880
27091000,0.0324,0.013523,0.002678,0.000431,0.001645
27092000,0.0324,0.013523,0.002678,0.000431,0.001645
27093000,0.0324,0.013523,0.002678,0.000431,0.001880
27094000,0.0324,0.013523,0.002678,0.000431,0.001880
27095000,0.0324,0.013523,0.002678,0.000431,0.001763
27096000,0.0324,0.013523,0.002678,0.000431,0.001528
27097000,0.0324,0.013523,0.002678,0.000431,0.001880
27098000,0.0324,0.013523,0.002678,0.000431,0.001880
27099000,0.0324,0.013523,0.002678,0.000431,0.001763
27100000,0.0324,0.013523,0.002678,0.000431,0.001645
27101000,0.0324,0.013523,0.002678,0.000431,0.001880
27102000,0.0324,0.013523,0.002678,0.000431,0.001763
27103000,0.0324,0.013523,0.002678,0.000431,0.001763
27104000,0.0324,0.013523,0.002678,0.000431,0.003408
27105000,0.0324,0.013523,0.002678,0.000431,0.000823
27106000,0.0324,0.013523,0.002678,0.000431,0.000940
27107000,0.0324,0.013523,0.002678,0.000431,0.000940
27108000,0.0324,0.013523,0.002678,0.000431,0.000705
27109000,0.0324,0.013523,0.002678,0.000431,0.000940
27110000,0.0324,0.013523,0.002678,0.000431,0.000940
27111000,0.0324,0.013523,0.002678,0.000431,0.144207
27112000,0.0324,0.013523,0.002678,0.000431,0.592225
27113000,0.0324,0.013523,0.002678,0.000431,0.526174
27114000,0.0324,0.013523,0.002678,0.000431,0.137978
27115000,0.0324,0.013523,0.002678,0.000431,0.148556
27116000,0.0324,0.013523,0.002678,0.000431,0.617023
27117000,0.0324,0.013523,0.002678,0.000431,0.280657
27118000,0.0324,0.013523,0.002678,0.000431,0.287827
27119000,0.0324,0.013523,0.002678,0.000431,0.215077
27120000,0.0324,0.013523,0.002678,0.000431,0.142209
27121000,0.0324,0.013523,0.002678,0.000431,0.163834
27122000,0.0324,0.013523,0.002678,0.000431,0.136098
27123000,0.0324,0.013523,0.002678,0.000431,0.539689
27124000,0.0324,0.013523,0.002678,0.000431,0.247279
27125000,0.0324,0.013523,0.002678,0.000431,0.190396
27126000,0.0324,0.013523,0.002678,0.000431,0.156195
27127000,0.0324,0.013523,0.002678,0.000431,0.136803
27128000,0.0324,0.013523,0.002678,0.000431,0.134100
27129000,0.0324,0.013523,0.002678,0.000431,0.104835
27130000,0.0324,0.013523,0.002678,0.000431,0.083798
27131000,0.0324,0.013523,0.002678,0.000431,0.071810
27132000,0.0324,0.013523,0.002678,0.000431,0.061350
27133000,0.0324,0.013523,0.002678,0.000431,0.042663
27134000,0.0324,0.013523,0.002678,0.000431,0.035141
27135000,0.0324,0.013523,0.002678,0.000431,0.030087
27136000,0.0324,0.013523,0.002678,0.000431,0.022095
27137000,0.0324,0.013523,0.002678,0.000431,0.030792
27138000,0.0324,0.013523,0.002678,0.000431,0.012693
27139000,0.0324,0.013523,0.002678,0.000431,0.011048
27140000,0.0324,0.013523,0.002678,0.000431,0.016924
27141000,0.0324,0.013523,0.002678,0.000431,0.008227
27142000,0.0324,0.013523,0.002678,0.000431,0.009520
27143000,0.0324,0.013523,0.002678,0.000431,0.008815
27144000,0.0324,0.013523,0.002678,0.000431,0.010930
27145000,0.0324,0.013523,0.002678,0.000431,0.007992
27146000,0.0324,0.013523,0.002678,0.000431,0.004231
27147000,0.0324,0.013523,0.002678,0.000431,0.006111
27148000,0.0324,0.013523,0.002678,0.000431,0.005171
27149000,0.0324,0.013523,0.002678,0.000431,0.002586
27150000,0.0324,0.013523,0.002678,0.000431,0.002703
27151000,0.0324,0.013523,0.002678,0.000431,0.002468
27152000,0.0324,0.013523,0.002678,0.000431,0.004819
27153000,0.0324,0.013523,0.002678,0.000431,0.001645
27154000,0.0324,0.013523,0.002678,0.000431,0.001763
27155000,0.0324,0.013523,0.002678,0.000431,0.003643
27156000,0.0324,0.013523,0.002678,0.000431,0.000823
27157000,0.0324,0.013523,0.002678,0.000431,0.000823
27158000,0.0324,0.013523,0.002678,0.000431,0.000705
27159000,0.0324,0.013523,0.002678,0.000431,0.000940
27160000,0.0324,0.013523,0.002678,0.000431,0.000940
27161000,0.0324,0.013523,0.002678,0.000431,0.000705
27162000,0.0324,0.013523,0.002678,0.000431,0.000940
27163000,0.0324,0.013523,0.002678,0.000431,0.143032
27164000,0.0324,0.013523,0.002678,0.000431,0.709988
27165000,0.0324,0.013523,0.002678,0.000431,0.547564
27166000,0.0324,0.013523,0.002678,0.000431,0.141504
27167000,0.0324,0.013523,0.002678,0.000431,0.172414
27168000,0.0324,0.013523,0.002678,0.000431,0.585760
27169000,0.0324,0.013523,0.002678,0.000431,0.271843
27170000,0.0324,0.013523,0.002678,0.000431,0.298992
27171000,0.0324,0.013523,0.002678,0.000431,0.241873
27172000,0.0324,0.013523,0.002678,0.000431,0.140916
27173000,0.0324,0.013523,0.002678,0.000431,0.135980
27174000,0.0324,0.013523,0.002678,0.000431,0.242696
27175000,0.0324,0.013523,0.002678,0.000431,0.401711
27176000,0.0324,0.013523,0.002678,0.000431,0.144677
27177000,0.0324,0.013523,0.002678,0.000431,0.123170
27178000,0.0324,0.013523,0.002678,0.000431,0.106010
27179000,0.0324,0.013523,0.002678,0.000431,0.106598
27180000,0.0324,0.013523,0.002678,0.000431,0.088851
27181000,0.0324,0.013523,0.002678,0.000431,0.067109
27182000,0.0324,0.013523,0.002678,0.000431,0.058999
27183000,0.0324,0.013523,0.002678,0.000431,0.048187
27184000,0.0324,0.013523,0.002678,0.000431,0.050185
27185000,0.0324,0.013523,0.002678,0.000431,0.044426
27186000,0.0324,0.013523,0.002678,0.000431,0.039607
27187000,0.0324,0.013523,0.002678,0.000431,0.033966
27188000,0.0324,0.013523,0.002678,0.000431,0.029382
27189000,0.0324,0.013523,0.002678,0.000431,0.031380
27190000,0.0324,0.013523,0.002678,0.000431,0.024798
27191000,0.0324,0.013523,0.002678,0.000431,0.027149
27192000,0.0324,0.013523,0.002678,0.000431,0.024328
27193000,0.0324,0.013523,0.002678,0.000431,0.025739
27194000,0.0324,0.013523,0.002678,0.000431,0.015396
27195000,0.0324,0.013523,0.002678,0.000431,0.014103
27196000,0.0324,0.013523,0.002678,0.000431,0.014926
27197000,0.0324,0.013523,0.002678,0.000431,0.015866
27198000,0.0324,0.013523,0.002678,0.000431,0.011635
27199000,0.0324,0.013523,0.002678,0.000431,0.012928
27200000,0.0324,0.013523,0.002678,0.000431,0.008697
27201000,0.0324,0.013523,0.002678,0.000431,0.007992
27202000,0.0324,0.013523,0.002678,0.000431,0.007169
27203000,0.0324,0.013523,0.002678,0.000431,0.007874
27204000,0.0324,0.013523,0.002678,0.000431,0.007522
27205000,0.0324,0.013523,0.002678,0.000431,0.007287
27206000,0.0324,0.013523,0.002678,0.000431,0.007639
27207000,0.0324,0.013523,0.002678,0.000431,0.006934
27208000,0.0324,0.013523,0.002678,0.000431,0.007052
27209000,0.0324,0.013523,0.002678,0.000431,0.007052
27210000,0.0324,0.013523,0.002678,0.000431,0.006347
27211000,0.0324,0.013523,0.002678,0.000431,0.009285
27212000,0.0324,0.013523,0.002678,0.000431,0.005994
27213000,0.0324,0.013523,0.002678,0.000431,0.005994
27214000,0.0324,0.013523,0.002678,0.000431,0.005641
27215000,0.0324,0.013523,0.002678,0.000431,0.005994
27216000,0.0324,0.013523,0.002678,0.000431,0.008580
27217000,0.0324,0.013523,0.002678,0.000431,0.004466
27218000,0.0324,0.013523,0.002678,0.000431,0.004936
27219000,0.0324,0.013523,0.002678,0.000431,0.007052
27220000,0.0324,0.013523,0.002678,0.000431,0.002586
27221000,0.0324,0.013523,0.002678,0.000431,0.003761
27222000,0.0324,0.013523,0.002678,0.000431,0.001763
27223000,0.0324,0.013523,0.002678,0.000431,0.001645
27224000,0.0324,0.013523,0.002678,0.000431,0.001763
27225000,0.0324,0.013523,0.002678,0.000431,0.001763
27226000,0.0324,0.013523,0.002678,0.000431,0.001645
27227000,0.0324,0.013523,0.002678,0.000431,0.001763
27228000,0.0324,0.013523,0.002678,0.000431,0.001763
27229000,0.0324,0.013523,0.002678,0.000431,0.001645
27230000,0.0324,0.013523,0.002678,0.000431,0.001645
27231000,0.0324,0.013523,0.002678,0.000431,0.001880
27232000,0.0324,0.013523,0.002678,0.000431,0.001763
27233000,0.0324,0.013523,0.002678,0.000431,0.001410
27234000,0.0324,0.013523,0.002678,0.000431,0.001880
27235000,0.0324,0.013523,0.002678,0.000431,0.001763
27236000,0.0324,0.013523,0.002678,0.000431,0.001645
27237000,0.0324,0.013523,0.002678,0.000431,0.001645
27238000,0.0324,0.013523,0.002678,0.000431,0.001645
27239000,0.0324,0.013523,0.002678,0.000431,0.001880
27240000,0.0324,0.013523,0.002678,0.000431,0.001763
27241000,0.0324,0.013523,0.002678,0.000431,0.001528
27242000,0.0324,0.013523,0.002678,0.000431,0.001880
27243000,0.0324,0.013523,0.002678,0.000431,0.001528
27244000,0.0324,0.013523,0.002678,0.000431,0.001880
27245000,0.0324,0.013523,0.002678,0.000431,0.001763
27246000,0.0324,0.013523,0.002678,0.000431,0.001645
27247000,0.0324,0.013523,0.002678,0.000431,0.001763
27248000,0.0324,0.013523,0.002678,0.000431,0.001528
27249000,0.0324,0.013523,0.002678,0.000431,0.001880
27250000,0.0324,0.013523,0.002678,0.000431,0.001763
27251000,0.0324,0.013523,0.002678,0.000431,0.001645
27252000,0.0324,0.013523,0.002678,0.000431,0.001645
27253000,0.0324,0.013523,0.002678,0.000431,0.001763
27254000,0.0324,0.013523,0.002678,0.000431,0.001880
27255000,0.0324,0.013523,0.002678,0.000431,0.001528
27256000,0.0324,0.013523,0.002678,0.000431,0.001763
27257000,0.0324,0.013523,0.002678,0.000431,0.001763
27258000,0.0324,0.013523,0.002678,0.000431,0.001645
27259000,0.0324,0.013523,0.002678,0.000431,0.001763
27260000,0.0324,0.013523,0.002678,0.000431,0.001645
27261000,0.0324,0.013523,0.002678,0.000431,0.001763
27262000,0.0324,0.013523,0.002678,0.000431,0.001645
27263000,0.0324,0.013523,0.002678,0.000431,0.001763
27264000,0.0324,0.013523,0.002678,0.000431,0.001645
27265000,0.0324,0.013523,0.002678,0.000431,0.001880
27266000,0.0324,0.013523,0.002678,0.000431,0.001528
27267000,0.0324,0.013523,0.002678,0.000431,0.001763
27268000,0.0324,0.013523,0.002678,0.000431,0.001880
27269000,0.0324,0.013523,0.002678,0.000431,0.001645
27270000,0.0324,0.013523,0.002678,0.000431,0.001645
27271000,0.0324,0.013523,0.002678,0.000431,0.001645
27272000,0.0324,0.013523,0.002678,0.000431,0.001880
27273000,0.0324,0.013523,0.002678,0.000431,0.001645
27274000,0.0324,0.013523,0.002678,0.000431,0.001645
27275000,0.0324,0.013523,0.002678,0.000431,0.001763
27276000,0.0324,0.013523,0.002678,0.000431,0.002586
27277000,0.0324,0.013523,0.002678,0.000431,0.000940
27278000,0.0324,0.013523,0.002678,0.000431,0.000940
27279000,0.0324,0.013523,0.002678,0.000431,0.000823
27280000,0.0324,0.013523,0.002678,0.000431,0.000823
27281000,0.0324,0.013523,0.002678,0.000431,0.000940
27282000,0.0324,0.013523,0.002678,0.000431,0.000940
27283000,0.0324,0.013523,0.002678,0.000431,0.000823
27284000,0.0324,0.013523,0.002678,0.000431,0.000823
27285000,0.0324,0.013523,0.002678,0.000431,0.000940
27286000,0.0324,0.013523,0.002678,0.000431,0.000940
27287000,0.0324,0.013523,0.002678,0.000431,0.000705
27288000,0.0324,0.013523,0.002678,0.000431,0.000940
27289000,0.0324,0.013523,0.002678,0.000431,0.000940
27290000,0.0324,0.013523,0.002678,0.000431,0.000940
27291000,0.0324,0.013523,0.002678,0.000431,0.000705
27292000,0.0324,0.013523,0.002678,0.000431,0.000940
27293000,0.0324,0.013523,0.002678,0.000431,0.000940
27294000,0.0324,0.013523,0.002678,0.000431,0.000823
27295000,0.0324,0.013523,0.002678,0.000431,0.000823
27296000,0.0324,0.013523,0.002678,0.000431,0.000940
27297000,0.0324,0.013523,0.002678,0.000431,0.000940
27298000,0.0324,0.013523,0.002678,0.000431,0.000823
27299000,0.0324,0.013523,0.002678,0.000431,0.000823
27300000,0.0324,0.013523,0.002678,0.000431,0.000940
27301000,0.0324,0.013523,0.002678,0.000431,0.000823
27302000,0.0324,0.013523,0.002678,0.000431,0.000940
27303000,0.0324,0.013523,0.002678,0.000431,0.000823
27304000,0.0324,0.013523,0.002678,0.000431,0.000940
27305000,0.0324,0.013523,0.002678,0.000431,0.000823
27306000,0.0324,0.013523,0.002678,0.000431,0.000823
27307000,0.0324,0.013523,0.002678,0.000431,0.000940
27308000,0.0324,0.013523,0.002678,0.000431,0.000940
27309000,0.0324,0.013523,0.002678,0.000431,0.000940
27310000,0.0324,0.013523,0.002678,0.000431,0.000705
27311000,0.0324,0.013523,0.002678,0.000431,0.000940
27312000,0.0324,0.013523,0.002678,0.000431,0.000940
27313000,0.0324,0.013523,0.002678,0.000431,0.000823
27314000,0.0324,0.013523,0.002678,0.000431,0.000823
27315000,0.0324,0.013523,0.002678,0.000431,0.000940
27316000,0.0324,0.013523,0.002678,0.000431,0.000823
27317000,0.0324,0.013523,0.002678,0.000431,0.000940
27318000,0.0324,0.013523,0.002678,0.000431,0.000823
27319000,0.0324,0.013523,0.002678,0.000431,0.000940
27320000,0.0324,0.013523,0.002678,0.000431,0.000823
27321000,0.0324,0.013523,0.002678,0.000431,0.000823
27322000,0.0324,0.013523,0.002678,0.000431,0.000940
27323000,0.0324,0.013523,0.002678,0.000431,0.000940
27324000,0.0324,0.013523,0.002678,0.000431,0.000823
27325000,0.0324,0.013523,0.002678,0.000431,0.000823
27326000,0.0324,0.013523,0.002678,0.000431,0.000940
27327000,0.0324,0.013523,0.002678,0.000431,0.000940
27328000,0.0324,0.013523,0.002678,0.000431,0.000705
27329000,0.0324,0.013523,0.002678,0.000431,0.000940
27330000,0.0324,0.013523,0.002678,0.000431,0.000940
27331000,0.0324,0.013523,0.002678,0.000431,0.000940
27332000,0.0324,0.013523,0.002678,0.000431,0.000823
27333000,0.0324,0.013523,0.002678,0.000431,0.000823
27334000,0.0324,0.013523,0.002678,0.000431,0.000940
27335000,0.0324,0.013523,0.002678,0.000431,0.000823
27336000,0.0324,0.013523,0.002678,0.000431,0.000940
27337000,0.0324,0.013523,0.002678,0.000431,0.000823
27338000,0.0324,0.013523,0.002678,0.000431,0.000940
27339000,0.0324,0.013523,0.002678,0.000431,0.000823
27340000,0.0324,0.013523,0.002678,0.000431,0.000823
27341000,0.0324,0.013523,0.002678,0.000431,0.000940
27342000,0.0324,0.013523,0.002678,0.000431,0.000940
27343000,0.0324,0.013523,0.002678,0.000431,0.000823
27344000,0.0324,0.013523,0.002678,0.000431,0.000823
27345000,0.0324,0.013523,0.002678,0.000431,0.000940
27346000,0.0324,0.013523,0.002678,0.000431,0.000940
27347000,0.0324,0.013523,0.002678,0.000431,0.000705
27348000,0.0324,0.013523,0.002678,0.000431,0.000940
27349000,0.0324,0.013523,0.002678,0.000431,0.000940
27350000,0.0324,0.013523,0.002678,0.000431,0.000940
27351000,0.0324,0.013523,0.002678,0.000431,0.000705
27352000,0.0324,0.013523,0.002678,0.000431,0.000940
27353000,0.0324,0.013523,0.002678,0.000431,0.000940
27354000,0.0324,0.013523,0.002678,0.000431,0.000823
27355000,0.0324,0.013523,0.002678,0.000431,0.000823
27356000,0.0324,0.013523,0.002678,0.000431,0.000940
27357000,0.0324,0.013523,0.002678,0.000431,0.000940
27358000,0.0324,0.013523,0.002678,0.000431,0.000823
27359000,0.0324,0.013523,0.002678,0.000431,0.000823
27360000,0.0324,0.013523,0.002678,0.000431,0.000940
27361000,0.0324,0.013523,0.002678,0.000431,0.000823
27362000,0.0324,0.013523,0.002678,0.000431,0.000940
27363000,0.0324,0.013523,0.002678,0.000431,0.000823
27364000,0.0324,0.013523,0.002678,0.000431,0.000940
27365000,0.0324,0.013523,0.002678,0.000431,0.000823
27366000,0.0324,0.013523,0.002678,0.000431,0.000823
27367000,0.0324,0.013523,0.002678,0.000431,0.000940
27368000,0.0324,0.013523,0.002678,0.000431,0.000940
27369000,0.0324,0.013523,0.002678,0.000431,0.000940
27370000,0.0324,0.013523,0.002678,0.000431,0.000940
27371000,0.0324,0.013523,0.002678,0.000431,0.000823
27372000,0.0324,0.013523,0.002678,0.000431,0.000823
27373000,0.0324,0.013523,0.002678,0.000431,0.000940
27374000,0.0324,0.013523,0.002678,0.000431,0.043603
27375000,0.0324,0.013523,0.002678,0.000431,0.595280
27376000,0.0324,0.013523,0.002678,0.000431,0.609384
27377000,0.0324,0.013523,0.002678,0.000431,0.132102
27378000,0.0324,0.013523,0.002678,0.000431,0.133747
27379000,0.0324,0.013523,0.002678,0.000431,0.527702
27380000,0.0324,0.013523,0.002678,0.000431,0.243989
27381000,0.0324,0.013523,0.002678,0.000431,0.237524
27382000,0.0324,0.013523,0.002678,0.000431,0.357051
27383000,0.0324,0.013523,0.002678,0.000431,0.140211
27384000,0.0324,0.013523,0.002678,0.000431,0.150789
27385000,0.0324,0.013523,0.002678,0.000431,0.115765
27386000,0.0324,0.013523,0.002678,0.000431,0.331077
27387000,0.0324,0.013523,0.002678,0.000431,0.345533
27388000,0.0324,0.013523,0.002678,0.000431,0.147850
27389000,0.0324,0.013523,0.002678,0.000431,0.138331
27390000,0.0324,0.013523,0.002678,0.000431,0.108126
27391000,0.0324,0.013523,0.002678,0.000431,0.100016
27392000,0.0324,0.013523,0.002678,0.000431,0.079802
27393000,0.0324,0.013523,0.002678,0.000431,0.064405
27394000,0.0324,0.013523,0.002678,0.000431,0.059352
27395000,0.0324,0.013523,0.002678,0.000431,0.050537
27396000,0.0324,0.013523,0.002678,0.000431,0.042428
27397000,0.0324,0.013523,0.002678,0.000431,0.036081
27398000,0.0324,0.013523,0.002678,0.000431,0.030792
27399000,0.0324,0.013523,0.002678,0.000431,0.033025
27400000,0.0324,0.013523,0.002678,0.000431,0.021625
27401000,0.0324,0.013523,0.002678,0.000431,0.024446
27402000,0.0324,0.013523,0.002678,0.000431,0.021155
27403000,0.0324,0.013523,0.002678,0.000431,0.011753
27404000,0.0324,0.013523,0.002678,0.000431,0.012105
27405000,0.0324,0.013523,0.002678,0.000431,0.011635
27406000,0.0324,0.013523,0.002678,0.000431,0.009872
27407000,0.0324,0.013523,0.002678,0.000431,0.008697
27408000,0.0324,0.013523,0.002678,0.000431,0.008580
27409000,0.0324,0.013523,0.002678,0.000431,0.007757
27410000,0.0324,0.013523,0.002678,0.000431,0.010460
27411000,0.0324,0.013523,0.002678,0.000431,0.008580
27412000,0.0324,0.013523,0.002678,0.000431,0.006229
27413000,0.0324,0.013523,0.002678,0.000431,0.006229
27414000,0.0324,0.013523,0.002678,0.000431,0.007639
27415000,0.0324,0.013523,0.002678,0.000431,0.005289
27416000,0.0324,0.013523,0.002678,0.000431,0.005289
27417000,0.0324,0.013523,0.002678,0.000431,0.005171
27418000,0.0324,0.013523,0.002678,0.000431,0.004936
27419000,0.0324,0.013523,0.002678,0.000431,0.007404
27420000,0.0324,0.013523,0.002678,0.000431,0.007639
27421000,0.0324,0.013523,0.002678,0.000431,0.002703
27422000,0.0324,0.013523,0.002678,0.000431,0.002586
27423000,0.0324,0.013523,0.002678,0.000431,0.002351
27424000,0.0324,0.013523,0.002678,0.000431,0.002586
27425000,0.0324,0.013523,0.002678,0.000431,0.002351
27426000,0.0324,0.013523,0.002678,0.000431,0.002703
27427000,0.0324,0.013523,0.002678,0.000431,0.002586
27428000,0.0324,0.013523,0.002678,0.000431,0.002233
27429000,0.0324,0.013523,0.002678,0.000431,0.002703
27430000,0.0324,0.013523,0.002678,0.000431,0.002233
27431000,0.0324,0.013523,0.002678,0.000431,0.002821
27432000,0.0324,0.013523,0.002678,0.000431,0.002468
27433000,0.0324,0.013523,0.002678,0.000431,0.003291
27434000,0.0324,0.013523,0.002678,0.000431,0.001763
27435000,0.0324,0.013523,0.002678,0.000431,0.001528
27436000,0.0324,0.013523,0.002678,0.000431,0.001763
27437000,0.0324,0.013523,0.002678,0.000431,0.001645
27438000,0.0324,0.013523,0.002678,0.000431,0.001763
27439000,0.0324,0.013523,0.002678,0.000431,0.001528
27440000,0.0324,0.013523,0.002678,0.000431,0.004113
27441000,0.0324,0.013523,0.002678,0.000431,0.001058
27442000,0.0324,0.013523,0.002678,0.000431,0.000705
27443000,0.0324,0.013523,0.002678,0.000431,0.000940
27444000,0.0324,0.013523,0.002678,0.000431,0.000705
27445000,0.0324,0.013523,0.002678,0.000431,0.000940
27446000,0.0324,0.013523,0.002678,0.000431,0.000823
27447000,0.0324,0.013523,0.002678,0.000431,0.000823
27448000,0.0324,0.013523,0.002678,0.000431,0.000705
27449000,0.0324,0.013523,0.002678,0.000431,0.000940
27450000,0.0324,0.013523,0.002678,0.000431,0.000705
27451000,0.0324,0.013523,0.002678,0.000431,0.000940
27452000,0.0324,0.013523,0.002678,0.000431,0.000705
27453000,0.0324,0.013523,0.002678,0.000431,0.000940
27454000,0.0324,0.013523,0.002678,0.000431,0.000940
27455000,0.0324,0.013523,0.002678,0.000431,0.000705
27456000,0.0324,0.013523,0.002678,0.000431,0.223186
27457000,0.0324,0.013523,0.002678,0.000431,0.611147
27458000,0.0324,0.013523,0.002678,0.000431,0.476694
27459000,0.0324,0.013523,0.002678,0.000431,0.133982
27460000,0.0324,0.013523,0.002678,0.000431,0.140681
27461000,0.0324,0.013523,0.002678,0.000431,0.584350
27462000,0.0324,0.013523,0.002678,0.000431,0.228592
27463000,0.0324,0.013523,0.002678,0.000431,0.262558
27464000,0.0324,0.013523,0.002678,0.000431,0.262675
27465000,0.0324,0.013523,0.002678,0.000431,0.151259
27466000,0.0324,0.013523,0.002678,0.000431,0.177820
27467000,0.0324,0.013523,0.002678,0.000431,0.099664
27468000,0.0324,0.013523,0.002678,0.000431,0.495499
27469000,0.0324,0.013523,0.002678,0.000431,0.149731
27470000,0.0324,0.013523,0.002678,0.000431,0.117881
27471000,0.0324,0.013523,0.002678,0.000431,0.097548
27472000,0.0324,0.013523,0.002678,0.000431,0.077921
27473000,0.0324,0.013523,0.002678,0.000431,0.054416
27474000,0.0324,0.013523,0.002678,0.000431,0.050772
27475000,0.0324,0.013523,0.002678,0.000431,0.040430
27476000,0.0324,0.013523,0.002678,0.000431,0.041487
27477000,0.0324,0.013523,0.002678,0.000431,0.036904
27478000,0.0324,0.013523,0.002678,0.000431,0.030087
27479000,0.0324,0.013523,0.002678,0.000431,0.034318
27480000,0.0324,0.013523,0.002678,0.000431,0.022095
27481000,0.0324,0.013523,0.002678,0.000431,0.017159
27482000,0.0324,0.013523,0.002678,0.000431,0.019275
27483000,0.0324,0.013523,0.002678,0.000431,0.011753
27484000,0.0324,0.013523,0.002678,0.000431,0.011048
27485000,0.0324,0.013523,0.002678,0.000431,0.013046
27486000,0.0324,0.013523,0.002678,0.000431,0.011048
27487000,0.0324,0.013523,0.002678,0.000431,0.009167
27488000,0.0324,0.013523,0.002678,0.000431,0.009402
27489000,0.0324,0.013523,0.002678,0.000431,0.009050
27490000,0.0324,0.013523,0.002678,0.000431,0.008580
27491000,0.0324,0.013523,0.002678,0.000431,0.007639
27492000,0.0324,0.013523,0.002678,0.000431,0.009520
27493000,0.0324,0.013523,0.002678,0.000431,0.007757
27494000,0.0324,0.013523,0.002678,0.000431,0.005641
27495000,0.0324,0.013523,0.002678,0.000431,0.005876
27496000,0.0324,0.013523,0.002678,0.000431,0.005759
27497000,0.0324,0.013523,0.002678,0.000431,0.007639
27498000,0.0324,0.013523,0.002678,0.000431,0.005406
27499000,0.0324,0.013523,0.002678,0.000431,0.005289
27500000,0.0324,0.013523,0.002678,0.000431,0.004701
27501000,0.0324,0.013523,0.002678,0.000431,0.004936
27502000,0.0324,0.013523,0.002678,0.000431,0.006347
27503000,0.0324,0.013523,0.002678,0.000431,0.005641
27504000,0.0324,0.013523,0.002678,0.000431,0.004231
27505000,0.0324,0.013523,0.002678,0.000431,0.003878
27506000,0.0324,0.013523,0.002678,0.000431,0.006934
27507000,0.0324,0.013523,0.002678,0.000431,0.004584
27508000,0.0324,0.013523,0.002678,0.000431,0.001645
27509000,0.0324,0.013523,0.002678,0.000431,0.001528
27510000,0.0324,0.013523,0.002678,0.000431,0.001763
27511000,0.0324,0.013523,0.002678,0.000431,0.001880
27512000,0.0324,0.013523,0.002678,0.000431,0.001410
27513000,0.0324,0.013523,0.002678,0.000431,0.001880
27514000,0.0324,0.013523,0.002678,0.000431,0.001410
27515000,0.0324,0.013523,0.002678,0.000431,0.001880
27516000,0.0324,0.013523,0.002678,0.000431,0.001528
27517000,0.0324,0.013523,0.002678,0.000431,0.003526
27518000,0.0324,0.013523,0.002678,0.000431,0.000705
27519000,0.0324,0.013523,0.002678,0.000431,0.000940
27520000,0.0324,0.013523,0.002678,0.000431,0.000940
27521000,0.0324,0.013523,0.002678,0.000431,0.000705
27522000,0.0324,0.013523,0.002678,0.000431,0.000940
27523000,0.0324,0.013523,0.002678,0.000431,0.000705
27524000,0.0324,0.013523,0.002678,0.000431,0.000940
27525000,0.0324,0.013523,0.002678,0.000431,0.000823
27526000,0.0324,0.013523,0.002678,0.000431,0.000823
27527000,0.0324,0.013523,0.002678,0.000431,0.000940
27528000,0.0324,0.013523,0.002678,0.000431,0.000705
27529000,0.0324,0.013523,0.002678,0.000431,0.000940
27530000,0.0324,0.013523,0.002678,0.000431,0.000823
27531000,0.0324,0.013523,0.002678,0.000431,0.000823
27532000,0.0324,0.013523,0.002678,0.000431,0.000823
27533000,0.0324,0.013523,0.002678,0.000431,0.000823
27534000,0.0324,0.013523,0.002678,0.000431,0.000823
27535000,0.0324,0.013523,0.002678,0.000431,0.000823
27536000,0.0324,0.013523,0.002678,0.000431,0.000940
27537000,0.0324,0.013523,0.002678,0.000431,0.000705
27538000,0.0324,0.013523,0.002678,0.000431,0.000823
27539000,0.0324,0.013523,0.002678,0.000431,0.001058
27540000,0.0324,0.013523,0.002678,0.000431,0.000705
27541000,0.0324,0.013523,0.002678,0.000431,0.000940
27542000,0.0324,0.013523,0.002678,0.000431,0.000940
27543000,0.0324,0.013523,0.002678,0.000431,0.000940
27544000,0.0324,0.013523,0.002678,0.000431,0.000823
27545000,0.0324,0.013523,0.002678,0.000431,0.000823
27546000,0.0324,0.013523,0.002678,0.000431,0.000823
27547000,0.0324,0.013523,0.002678,0.000431,0.000823
27548000,0.0324,0.013523,0.002678,0.000431,0.000705
27549000,0.0324,0.013523,0.002678,0.000431,0.000940
27550000,0.0324,0.013523,0.002678,0.000431,0.000940
27551000,0.0324,0.013523,0.002678,0.000431,0.000705
27552000,0.0324,0.013523,0.002678,0.000431,0.000940
27553000,0.0324,0.013523,0.002678,0.000431,0.000705
27554000,0.0324,0.013523,0.002678,0.000431,0.000940
27555000,0.0324,0.013523,0.002678,0.000431,0.000940
27556000,0.0324,0.013523,0.002678,0.000431,0.000705
27557000,0.0324,0.013523,0.002678,0.000431,0.000940
27558000,0.0324,0.013523,0.002678,0.000431,0.000705
27559000,0.0324,0.013523,0.002678,0.000431,0.000940
27560000,0.0324,0.013523,0.002678,0.000431,0.000823
27561000,0.0324,0.013523,0.002678,0.000431,0.000823
27562000,0.0324,0.013523,0.002678,0.000431,0.000823
27563000,0.0324,0.013523,0.002678,0.000431,0.000823
27564000,0.0324,0.013523,0.002678,0.000431,0.000823
27565000,0.0324,0.013523,0.002678,0.000431,0.000823
27566000,0.0324,0.013523,0.002678,0.000431,0.000940
27567000,0.0324,0.013523,0.002678,0.000431,0.000705
27568000,0.0324,0.013523,0.002678,0.000431,0.000823
27569000,0.0324,0.013523,0.002678,0.000431,0.000823
27570000,0.0324,0.013523,0.002678,0.000431,0.000940
27571000,0.0324,0.013523,0.002678,0.000431,0.000823
27572000,0.0324,0.013523,0.002678,0.000431,0.000823
27573000,0.0324,0.013523,0.002678,0.000431,0.000705
27574000,0.0324,0.013523,0.002678,0.000431,0.000940
27575000,0.0324,0.013523,0.002678,0.000431,0.000940
27576000,0.0324,0.013523,0.002678,0.000431,0.000705
27577000,0.0324,0.013523,0.002678,0.000431,0.000940
27578000,0.0324,0.013523,0.002678,0.000431,0.000705
27579000,0.0324,0.013523,0.002678,0.000431,0.000940
27580000,0.0324,0.013523,0.002678,0.000431,0.000823
27581000,0.0324,0.013523,0.002678,0.000431,0.000823
27582000,0.0324,0.013523,0.002678,0.000431,0.000940
27583000,0.0324,0.013523,0.002678,0.000431,0.000705
27584000,0.0324,0.013523,0.002678,0.000431,0.000940
27585000,0.0324,0.013523,0.002678,0.000431,0.000823
27586000,0.0324,0.013523,0.002678,0.000431,0.000823
27587000,0.0324,0.013523,0.002678,0.000431,0.000823
27588000,0.0324,0.013523,0.002678,0.000431,0.000823
27589000,0.0324,0.013523,0.002678,0.000431,0.000823
27590000,0.0324,0.013523,0.002678,0.000431,0.000823
27591000,0.0324,0.013523,0.002678,0.000431,0.002468
27592000,0.0324,0.013523,0.002678,0.000431,0.327198
27593000,0.0324,0.013523,0.002678,0.000431,0.685542
27594000,0.0324,0.013523,0.002678,0.000431,0.271138
27595000,0.0324,0.013523,0.002678,0.000431,0.137978
27596000,0.0324,0.013523,0.002678,0.000431,0.160426
27597000,0.0324,0.013523,0.002678,0.000431,0.578826
27598000,0.0324,0.013523,0.002678,0.000431,0.272548
27599000,0.0324,0.013523,0.002678,0.000431,0.270667
27600000,0.0324,0.013523,0.002678,0.000431,0.213784
27601000,0.0324,0.013523,0.002678,0.000431,0.140094
27602000,0.0324,0.013523,0.002678,0.000431,0.150319
27603000,0.0324,0.013523,0.002678,0.000431,0.222128
27604000,0.0324,0.013523,0.002678,0.000431,0.411466
27605000,0.0324,0.013523,0.002678,0.000431,0.123287
27606000,0.0324,0.013523,0.002678,0.000431,0.110241
27607000,0.0324,0.013523,0.002678,0.000431,0.092495
27608000,0.0324,0.013523,0.002678,0.000431,0.071105
27609000,0.0324,0.013523,0.002678,0.000431,0.064170
27610000,0.0324,0.013523,0.002678,0.000431,0.060057
27611000,0.0324,0.013523,0.002678,0.000431,0.043956
27612000,0.0324,0.013523,0.002678,0.000431,0.037021
27613000,0.0324,0.013523,0.002678,0.000431,0.022565
27614000,0.0324,0.013523,0.002678,0.000431,0.028794
27615000,0.0324,0.013523,0.002678,0.000431,0.023858
27616000,0.0324,0.013523,0.002678,0.000431,0.019627
27617000,0.0324,0.013523,0.002678,0.000431,0.014691
27618000,0.0324,0.013523,0.002678,0.000431,0.005876
27619000,0.0324,0.013523,0.002678,0.000431,0.007169
27620000,0.0324,0.013523,0.002678,0.000431,0.001763
27621000,0.0324,0.013523,0.002678,0.000431,0.001528
27622000,0.0324,0.013523,0.002678,0.000431,0.001528
27623000,0.0324,0.013523,0.002678,0.000431,0.001880
27624000,0.0324,0.013523,0.002678,0.000431,0.007404
27625000,0.0324,0.013523,0.002678,0.000431,0.429683
27626000,0.0324,0.013523,0.002678,0.000431,0.731260
27627000,0.0324,0.013523,0.002678,0.000431,0.157253
27628000,0.0324,0.013523,0.002678,0.000431,0.133982
27629000,0.0324,0.013523,0.002678,0.000431,0.185459
27630000,0.0324,0.013523,0.002678,0.000431,0.552970
27631000,0.0324,0.013523,0.002678,0.000431,0.256799
27632000,0.0324,0.013523,0.002678,0.000431,0.291822
27633000,0.0324,0.013523,0.002678,0.000431,0.194509
27634000,0.0324,0.013523,0.002678,0.000431,0.146793
27635000,0.0324,0.013523,0.002678,0.000431,0.150201
27636000,0.0324,0.013523,0.002678,0.000431,0.216957
27637000,0.0324,0.013523,0.002678,0.000431,0.416990
27638000,0.0324,0.013523,0.002678,0.000431,0.120349
27639000,0.0324,0.013523,0.002678,0.000431,0.105540
27640000,0.0324,0.013523,0.002678,0.000431,0.098254
27641000,0.0324,0.013523,0.002678,0.000431,0.081917
27642000,0.0324,0.013523,0.002678,0.000431,0.064523
27643000,0.0324,0.013523,0.002678,0.000431,0.059587
27644000,0.0324,0.013523,0.002678,0.000431,0.051830
27645000,0.0324,0.013523,0.002678,0.000431,0.044191
27646000,0.0324,0.013523,0.002678,0.000431,0.034318
27647000,0.0324,0.013523,0.002678,0.000431,0.032085
27648000,0.0324,0.013523,0.002678,0.000431,0.030087
27649000,0.0324,0.013523,0.002678,0.000431,0.016336
27650000,0.0324,0.013523,0.002678,0.000431,0.018099
27651000,0.0324,0.013523,0.002678,0.000431,0.019862
27652000,0.0324,0.013523,0.002678,0.000431,0.015984
27653000,0.0324,0.013523,0.002678,0.000431,0.018334
27654000,0.0324,0.013523,0.002678,0.000431,0.011518
27655000,0.0324,0.013523,0.002678,0.000431,0.007874
27656000,0.0324,0.013523,0.002678,0.000431,0.009637
27657000,0.0324,0.013523,0.002678,0.000431,0.007404
27658000,0.0324,0.013523,0.002678,0.000431,0.007404
27659000,0.0324,0.013523,0.002678,0.000431,0.006934
27660000,0.0324,0.013523,0.002678,0.000431,0.006817
27661000,0.0324,0.013523,0.002678,0.000431,0.006464
27662000,0.0324,0.013523,0.002678,0.000431,0.006699
27663000,0.0324,0.013523,0.002678,0.000431,0.006934
27664000,0.0324,0.013523,0.002678,0.000431,0.006229
27665000,0.0324,0.013523,0.002678,0.000431,0.006699
27666000,0.0324,0.013523,0.002678,0.000431,0.005876
27667000,0.0324,0.013523,0.002678,0.000431,0.006111
27668000,0.0324,0.013523,0.002678,0.000431,0.006582
27669000,0.0324,0.013523,0.002678,0.000431,0.005289
27670000,0.0324,0.013523,0.002678,0.000431,0.007757
27671000,0.0324,0.013523,0.002678,0.000431,0.004936
27672000,0.0324,0.013523,0.002678,0.000431,0.003408
27673000,0.0324,0.013523,0.002678,0.000431,0.003291
27674000,0.0324,0.013523,0.002678,0.000431,0.003408
27675000,0.0324,0.013523,0.002678,0.000431,0.005289
27676000,0.0324,0.013523,0.002678,0.000431,0.002468
27677000,0.0324,0.013523,0.002678,0.000431,0.002468
27678000,0.0324,0.013523,0.002678,0.000431,0.002703
27679000,0.0324,0.013523,0.002678,0.000431,0.002703
27680000,0.0324,0.013523,0.002678,0.000431,0.002351
27681000,0.0324,0.013523,0.002678,0.000431,0.002586
27682000,0.0324,0.013523,0.002678,0.000431,0.002586
27683000,0.0324,0.013523,0.002678,0.000431,0.002586
27684000,0.0324,0.013523,0.002678,0.000431,0.002468
27685000,0.0324,0.013523,0.002678,0.000431,0.002586
27686000,0.0324,0.013523,0.002678,0.000431,0.002703
27687000,0.0324,0.013523,0.002678,0.000431,0.002586
27688000,0.0324,0.013523,0.002678,0.000431,0.002586
27689000,0.0324,0.013523,0.002678,0.000431,0.003643
27690000,0.0324,0.013523,0.002678,0.000431,0.002703
27691000,0.0324,0.013523,0.002678,0.000431,0.001880
27692000,0.0324,0.013523,0.002678,0.000431,0.001645
27693000,0.0324,0.013523,0.002678,0.000431,0.001645
27694000,0.0324,0.013523,0.002678,0.000431,0.001880
27695000,0.0324,0.013523,0.002678,0.000431,0.001528
27696000,0.0324,0.013523,0.002678,0.000431,0.001880
27697000,0.0324,0.013523,0.002678,0.000431,0.001645
27698000,0.0324,0.013523,0.002678,0.000431,0.001763
27699000,0.0324,0.013523,0.002678,0.000431,0.001763
27700000,0.0324,0.013523,0.002678,0.000431,0.003056
27701000,0.0324,0.013523,0.002678,0.000431,0.000823
27702000,0.0324,0.013523,0.002678,0.000431,0.000823
27703000,0.0324,0.013523,0.002678,0.000431,0.000940
27704000,0.0324,0.013523,0.002678,0.000431,0.000705
27705000,0.0324,0.013523,0.002678,0.000431,0.000940
27706000,0.0324,0.013523,0.002678,0.000431,0.000940
27707000,0.0324,0.013523,0.002678,0.000431,0.000940
27708000,0.0324,0.013523,0.002678,0.000431,0.016924
27709000,0.0324,0.013523,0.002678,0.000431,0.605740
27710000,0.0324,0.013523,0.002678,0.000431,0.587641
27711000,0.0324,0.013523,0.002678,0.000431,0.136333
27712000,0.0324,0.013523,0.002678,0.000431,0.133512
27713000,0.0324,0.013523,0.002678,0.000431,0.562490
27714000,0.0324,0.013523,0.002678,0.000431,0.232236
27715000,0.0324,0.013523,0.002678,0.000431,0.272900
27716000,0.0324,0.013523,0.002678,0.000431,0.281362
27717000,0.0324,0.013523,0.002678,0.000431,0.153257
27718000,0.0324,0.013523,0.002678,0.000431,0.167360
27719000,0.0324,0.013523,0.002678,0.000431,0.102955
27720000,0.0324,0.013523,0.002678,0.000431,0.463884
27721000,0.0324,0.013523,0.002678,0.000431,0.181934
27722000,0.0324,0.013523,0.002678,0.000431,0.116118
27723000,0.0324,0.013523,0.002678,0.000431,0.096961
27724000,0.0324,0.013523,0.002678,0.000431,0.085208
27725000,0.0324,0.013523,0.002678,0.000431,0.070399
27726000,0.0324,0.013523,0.002678,0.000431,0.059117
27727000,0.0324,0.013523,0.002678,0.000431,0.055356
27728000,0.0324,0.013523,0.002678,0.000431,0.049479
27729000,0.0324,0.013523,0.002678,0.000431,0.035141
27730000,0.0324,0.013523,0.002678,0.000431,0.032673
27731000,0.0324,0.013523,0.002678,0.000431,0.028677
27732000,0.0324,0.013523,0.002678,0.000431,0.029147
27733000,0.0324,0.013523,0.002678,0.000431,0.025269
27734000,0.0324,0.013523,0.002678,0.000431,0.017864
27735000,0.0324,0.013523,0.002678,0.000431,0.011988
27736000,0.0324,0.013523,0.002678,0.000431,0.013986
27737000,0.0324,0.013523,0.002678,0.000431,0.016101
27738000,0.0324,0.013523,0.002678,0.000431,0.010107
27739000,0.0324,0.013523,0.002678,0.000431,0.012458
27740000,0.0324,0.013523,0.002678,0.000431,0.008109
27741000,0.0324,0.013523,0.002678,0.000431,0.007992
27742000,0.0324,0.013523,0.002678,0.000431,0.007052
27743000,0.0324,0.013523,0.002678,0.000431,0.011635
27744000,0.0324,0.013523,0.002678,0.000431,0.006347
27745000,0.0324,0.013523,0.002678,0.000431,0.005171
27746000,0.0324,0.013523,0.002678,0.000431,0.005054
27747000,0.0324,0.013523,0.002678,0.000431,0.005406
27748000,0.0324,0.013523,0.002678,0.000431,0.007757
27749000,0.0324,0.013523,0.002678,0.000431,0.003526
27750000,0.0324,0.013523,0.002678,0.000431,0.007169
27751000,0.0324,0.013523,0.002678,0.000431,0.001763
27752000,0.0324,0.013523,0.002678,0.000431,0.001528
27753000,0.0324,0.013523,0.002678,0.000431,0.001763
27754000,0.0324,0.013523,0.002678,0.000431,0.001763
27755000,0.0324,0.013523,0.002678,0.000431,0.001645
27756000,0.0324,0.013523,0.002678,0.000431,0.001645
27757000,0.0324,0.013523,0.002678,0.000431,0.001880
27758000,0.0324,0.013523,0.002678,0.000431,0.001645
27759000,0.0324,0.013523,0.002678,0.000431,0.001763
27760000,0.0324,0.013523,0.002678,0.000431,0.002938
27761000,0.0324,0.013523,0.002678,0.000431,0.000823
27762000,0.0324,0.013523,0.002678,0.000431,0.000705
27763000,0.0324,0.013523,0.002678,0.000431,0.000940
27764000,0.0324,0.013523,0.002678,0.000431,0.000705
27765000,0.0324,0.013523,0.002678,0.000431,0.000940
27766000,0.0324,0.013523,0.002678,0.000431,0.000823
27767000,0.0324,0.013523,0.002678,0.000431,0.000823
27768000,0.0324,0.013523,0.002678,0.000431,0.000940
27769000,0.0324,0.013523,0.002678,0.000431,0.000705
27770000,0.0324,0.013523,0.002678,0.000431,0.000940
27771000,0.0324,0.013523,0.002678,0.000431,0.000823
27772000,0.0324,0.013523,0.002678,0.000431,0.000823
27773000,0.0324,0.013523,0.002678,0.000431,0.000823
27774000,0.0324,0.013523,0.002678,0.000431,0.000823
27775000,0.0324,0.013523,0.002678,0.000431,0.000823
27776000,0.0324,0.013523,0.002678,0.000431,0.000823
27777000,0.0324,0.013523,0.002678,0.000431,0.000940
27778000,0.0324,0.013523,0.002678,0.000431,0.000705
27779000,0.0324,0.013523,0.002678,0.000431,0.000940
27780000,0.0324,0.013523,0.002678,0.000431,0.000823
27781000,0.0324,0.013523,0.002678,0.000431,0.000823
27782000,0.0324,0.013523,0.002678,0.000431,0.000823
27783000,0.0324,0.013523,0.002678,0.000431,0.000823
27784000,0.0324,0.013523,0.002678,0.000431,0.000940
27785000,0.0324,0.013523,0.002678,0.000431,0.000705
27786000,0.0324,0.013523,0.002678,0.000431,0.000940
27787000,0.0324,0.013523,0.002678,0.000431,0.000705
27788000,0.0324,0.013523,0.002678,0.000431,0.000940
27789000,0.0324,0.013523,0.002678,0.000431,0.000705
27790000,0.0324,0.013523,0.002678,0.000431,0.000940
27791000,0.0324,0.013523,0.002678,0.000431,0.000823
27792000,0.0324,0.013523,0.002678,0.000431,0.000823
27793000,0.0324,0.013523,0.002678,0.000431,0.000823
27794000,0.0324,0.013523,0.002678,0.000431,0.000823
27795000,0.0324,0.013523,0.002678,0.000431,0.000940
27796000,0.0324,0.013523,0.002678,0.000431,0.000705
27797000,0.0324,0.013523,0.002678,0.000431,0.000940
27798000,0.0324,0.013523,0.002678,0.000431,0.000823
27799000,0.0324,0.013523,0.002678,0.000431,0.000705
27800000,0.0324,0.013523,0.002678,0.000431,0.225419
27801000,0.0324,0.013523,0.002678,0.000431,0.661919
27802000,0.0324,0.013523,0.002678,0.000431,0.384670
27803000,0.0324,0.013523,0.002678,0.000431,0.132572
27804000,0.0324,0.013523,0.002678,0.000431,0.133042
27805000,0.0324,0.013523,0.002678,0.000431,0.578474
27806000,0.0324,0.013523,0.002678,0.000431,0.232706
27807000,0.0324,0.013523,0.002678,0.000431,0.271608
27808000,0.0324,0.013523,0.002678,0.000431,0.245516
27809000,0.0324,0.013523,0.002678,0.000431,0.137038
27810000,0.0324,0.013523,0.002678,0.000431,0.154902
27811000,0.0324,0.013523,0.002678,0.000431,0.112357
27812000,0.0324,0.013523,0.002678,0.000431,0.378441
27813000,0.0324,0.013523,0.002678,0.000431,0.277602
27814000,0.0324,0.013523,0.002678,0.000431,0.135040
27815000,0.0324,0.013523,0.002678,0.000431,0.105305
27816000,0.0324,0.013523,0.002678,0.000431,0.090144
27817000,0.0324,0.013523,0.002678,0.000431,0.082035
27818000,0.0324,0.013523,0.002678,0.000431,0.070752
27819000,0.0324,0.013523,0.002678,0.000431,0.062055
27820000,0.0324,0.013523,0.002678,0.000431,0.055003
27821000,0.0324,0.013523,0.002678,0.000431,0.052770
27822000,0.0324,0.013523,0.002678,0.000431,0.045131
27823000,0.0324,0.013523,0.002678,0.000431,0.038079
27824000,0.0324,0.013523,0.002678,0.000431,0.029970
27825000,0.0324,0.013523,0.002678,0.000431,0.033613
27826000,0.0324,0.013523,0.002678,0.000431,0.022565
27827000,0.0324,0.013523,0.002678,0.000431,0.018099
27828000,0.0324,0.013523,0.002678,0.000431,0.010695
27829000,0.0324,0.013523,0.002678,0.000431,0.012693
27830000,0.0324,0.013523,0.002678,0.000431,0.010578
27831000,0.0324,0.013523,0.002678,0.000431,0.008109
27832000,0.0324,0.013523,0.002678,0.000431,0.006347
27833000,0.0324,0.013523,0.002678,0.000431,0.005641
27834000,0.0324,0.013523,0.002678,0.000431,0.005641
27835000,0.0324,0.013523,0.002678,0.000431,0.005641
27836000,0.0324,0.013523,0.002678,0.000431,0.005994
27837000,0.0324,0.013523,0.002678,0.000431,0.006934
27838000,0.0324,0.013523,0.002678,0.000431,0.007169
27839000,0.0324,0.013523,0.002678,0.000431,0.003291
27840000,0.0324,0.013523,0.002678,0.000431,0.003878
27841000,0.0324,0.013523,0.002678,0.000431,0.003526
27842000,0.0324,0.013523,0.002678,0.000431,0.002821
27843000,0.0324,0.013523,0.002678,0.000431,0.002586
27844000,0.0324,0.013523,0.002678,0.000431,0.002116
27845000,0.0324,0.013523,0.002678,0.000431,0.002586
27846000,0.0324,0.013523,0.002678,0.000431,0.002586
27847000,0.0324,0.013523,0.002678,0.000431,0.002586
27848000,0.0324,0.013523,0.002678,0.000431,0.002233
27849000,0.0324,0.013523,0.002678,0.000431,0.002703
27850000,0.0324,0.013523,0.002678,0.000431,0.002586
27851000,0.0324,0.013523,0.002678,0.000431,0.002351
27852000,0.0324,0.013523,0.002678,0.000431,0.002468
27853000,0.0324,0.013523,0.002678,0.000431,0.005171
27854000,0.0324,0.013523,0.002678,0.000431,0.001410
27855000,0.0324,0.013523,0.002678,0.000431,0.000823
27856000,0.0324,0.013523,0.002678,0.000431,0.000940
27857000,0.0324,0.013523,0.002678,0.000431,0.000705
27858000,0.0324,0.013523,0.002678,0.000431,0.000940
27859000,0.0324,0.013523,0.002678,0.000431,0.000823
27860000,0.0324,0.013523,0.002678,0.000431,0.000823
27861000,0.0324,0.013523,0.002678,0.000431,0.218015
27862000,0.0324,0.013523,0.002678,0.000431,0.600687
27863000,0.0324,0.013523,0.002678,0.000431,0.463531
27864000,0.0324,0.013523,0.002678,0.000431,0.133042
27865000,0.0324,0.013523,0.002678,0.000431,0.147028
27866000,0.0324,0.013523,0.002678,0.000431,0.617963
27867000,0.0324,0.013523,0.002678,0.000431,0.223774
27868000,0.0324,0.013523,0.002678,0.000431,0.334485
27869000,0.0324,0.013523,0.002678,0.000431,0.248690
27870000,0.0324,0.013523,0.002678,0.000431,0.142562
27871000,0.0324,0.013523,0.002678,0.000431,0.118586
27872000,0.0324,0.013523,0.002678,0.000431,0.317914
27873000,0.0324,0.013523,0.002678,0.000431,0.320734
27874000,0.0324,0.013523,0.002678,0.000431,0.110712
27875000,0.0324,0.013523,0.002678,0.000431,0.091202
27876000,0.0324,0.013523,0.002678,0.000431,0.077804
27877000,0.0324,0.013523,0.002678,0.000431,0.064053
27878000,0.0324,0.013523,0.002678,0.000431,0.055591
27879000,0.0324,0.013523,0.002678,0.000431,0.048304
27880000,0.0324,0.013523,0.002678,0.000431,0.041605
27881000,0.0324,0.013523,0.002678,0.000431,0.027619
27882000,0.0324,0.013523,0.002678,0.000431,0.025151
27883000,0.0324,0.013523,0.002678,0.000431,0.022800
27884000,0.0324,0.013523,0.002678,0.000431,0.019862
27885000,0.0324,0.013523,0.002678,0.000431,0.016807
27886000,0.0324,0.013523,0.002678,0.000431,0.012811
27887000,0.0324,0.013523,0.002678,0.000431,0.015044
27888000,0.0324,0.013523,0.002678,0.000431,0.010342
27889000,0.0324,0.013523,0.002678,0.000431,0.009637
27890000,0.0324,0.013523,0.002678,0.000431,0.012105
27891000,0.0324,0.013523,0.002678,0.000431,0.011988
27892000,0.0324,0.013523,0.002678,0.000431,0.006347
27893000,0.0324,0.013523,0.002678,0.000431,0.007404
27894000,0.0324,0.013523,0.002678,0.000431,0.004936
27895000,0.0324,0.013523,0.002678,0.000431,0.009050
27896000,0.0324,0.013523,0.002678,0.000431,0.005054
27897000,0.0324,0.013523,0.002678,0.000431,0.002468
27898000,0.0324,0.013523,0.002678,0.000431,0.002586
27899000,0.0324,0.013523,0.002678,0.000431,0.002586
27900000,0.0324,0.013523,0.002678,0.000431,0.002468
27901000,0.0324,0.013523,0.002678,0.000431,0.002468
27902000,0.0324,0.013523,0.002678,0.000431,0.002586
27903000,0.0324,0.013523,0.002678,0.000431,0.002351
27904000,0.0324,0.013523,0.002678,0.000431,0.002586
27905000,0.0324,0.013523,0.002678,0.000431,0.002468
27906000,0.0324,0.013523,0.002678,0.000431,0.002468
27907000,0.0324,0.013523,0.002678,0.000431,0.002703
27908000,0.0324,0.013523,0.002678,0.000431,0.002351
27909000,0.0324,0.013523,0.002678,0.000431,0.002586
27910000,0.0324,0.013523,0.002678,0.000431,0.002468
27911000,0.0324,0.013523,0.002678,0.000431,0.002586
27912000,0.0324,0.013523,0.002678,0.000431,0.002586
27913000,0.0324,0.013523,0.002678,0.000431,0.002468
27914000,0.0324,0.013523,0.002678,0.000431,0.002703
27915000,0.0324,0.013523,0.002678,0.000431,0.007287
27916000,0.0324,0.013523,0.002678,0.000431,0.001058
27917000,0.0324,0.013523,0.002678,0.000431,0.000823
27918000,0.0324,0.013523,0.002678,0.000431,0.000823
27919000,0.0324,0.013523,0.002678,0.000431,0.001763
27920000,0.0324,0.013523,0.002678,0.000431,0.372917
27921000,0.0324,0.013523,0.002678,0.000431,0.706697
27922000,0.0324,0.013523,0.002678,0.000431,0.202031
27923000,0.0324,0.013523,0.002678,0.000431,0.133512
27924000,0.0324,0.013523,0.002678,0.000431,0.176762
27925000,0.0324,0.013523,0.002678,0.000431,0.629363
27926000,0.0324,0.013523,0.002678,0.000431,0.240698
27927000,0.0324,0.013523,0.002678,0.000431,0.311802
27928000,0.0324,0.013523,0.002678,0.000431,0.173001
27929000,0.0324,0.013523,0.002678,0.000431,0.157958
27930000,0.0324,0.013523,0.002678,0.000431,0.113062
27931000,0.0324,0.013523,0.002678,0.000431,0.331194
27932000,0.0324,0.013523,0.002678,0.000431,0.318384
27933000,0.0324,0.013523,0.002678,0.000431,0.118703
27934000,0.0324,0.013523,0.002678,0.000431,0.099429
27935000,0.0324,0.013523,0.002678,0.000431,0.080977
27936000,0.0324,0.013523,0.002678,0.000431,0.069342
27937000,0.0324,0.013523,0.002678,0.000431,0.057824
27938000,0.0324,0.013523,0.002678,0.000431,0.060057
27939000,0.0324,0.013523,0.002678,0.000431,0.046541
27940000,0.0324,0.013523,0.002678,0.000431,0.040547
27941000,0.0324,0.013523,0.002678,0.000431,0.044191
27942000,0.0324,0.013523,0.002678,0.000431,0.030440
27943000,0.0324,0.013523,0.002678,0.000431,0.022213
27944000,0.0324,0.013523,0.002678,0.000431,0.021625
27945000,0.0324,0.013523,0.002678,0.000431,0.023271
27946000,0.0324,0.013523,0.002678,0.000431,0.014456
27947000,0.0324,0.013523,0.002678,0.000431,0.014103
27948000,0.0324,0.013523,0.002678,0.000431,0.010695
27949000,0.0324,0.013523,0.002678,0.000431,0.011870
27950000,0.0324,0.013523,0.002678,0.000431,0.009637
27951000,0.0324,0.013523,0.002678,0.000431,0.010342
27952000,0.0324,0.013523,0.002678,0.000431,0.011165
27953000,0.0324,0.013523,0.002678,0.000431,0.005759
27954000,0.0324,0.013523,0.002678,0.000431,0.005876
27955000,0.0324,0.013523,0.002678,0.000431,0.005876
27956000,0.0324,0.013523,0.002678,0.000431,0.005994
27957000,0.0324,0.013523,0.002678,0.000431,0.005524
27958000,0.0324,0.013523,0.002678,0.000431,0.005994
27959000,0.0324,0.013523,0.002678,0.000431,0.006699
27960000,0.0324,0.013523,0.002678,0.000431,0.006347
27961000,0.0324,0.013523,0.002678,0.000431,0.005054
27962000,0.0324,0.013523,0.002678,0.000431,0.004936
27963000,0.0324,0.013523,0.002678,0.000431,0.005406
27964000,0.0324,0.013523,0.002678,0.000431,0.004819
27965000,0.0324,0.013523,0.002678,0.000431,0.005054
27966000,0.0324,0.013523,0.002678,0.000431,0.004936
27967000,0.0324,0.013523,0.002678,0.000431,0.005289
27968000,0.0324,0.013523,0.002678,0.000431,0.006464
27969000,0.0324,0.013523,0.002678,0.000431,0.005876
27970000,0.0324,0.013523,0.002678,0.000431,0.003643
27971000,0.0324,0.013523,0.002678,0.000431,0.004231
27972000,0.0324,0.013523,0.002678,0.000431,0.005759
27973000,0.0324,0.013523,0.002678,0.000431,0.001880
27974000,0.0324,0.013523,0.002678,0.000431,0.004466
27975000,0.0324,0.013523,0.002678,0.000431,0.000823
27976000,0.0324,0.013523,0.002678,0.000431,0.000823
27977000,0.0324,0.013523,0.002678,0.000431,0.000940
27978000,0.0324,0.013523,0.002678,0.000431,0.000705
27979000,0.0324,0.013523,0.002678,0.000431,0.000823
27980000,0.0324,0.013523,0.002678,0.000431,0.000940
27981000,0.0324,0.013523,0.002678,0.000431,0.000823
27982000,0.0324,0.013523,0.002678,0.000431,0.000823
27983000,0.0324,0.013523,0.002678,0.000431,0.072632
27984000,0.0324,0.013523,0.002678,0.000431,0.611969
27985000,0.0324,0.013523,0.002678,0.000431,0.562842
27986000,0.0324,0.013523,0.002678,0.000431,0.133042
27987000,0.0324,0.013523,0.002678,0.000431,0.133512
27988000,0.0324,0.013523,0.002678,0.000431,0.565663
27989000,0.0324,0.013523,0.002678,0.000431,0.285358
27990000,0.0324,0.013523,0.002678,0.000431,0.231531
27991000,0.0324,0.013523,0.002678,0.000431,0.257739
27992000,0.0324,0.013523,0.002678,0.000431,0.138918
27993000,0.0324,0.013523,0.002678,0.000431,0.161719
27994000,0.0324,0.013523,0.002678,0.000431,0.111887
27995000,0.0324,0.013523,0.002678,0.000431,0.437440
27996000,0.0324,0.013523,0.002678,0.000431,0.215899
27997000,0.0324,0.013523,0.002678,0.000431,0.120231
27998000,0.0324,0.013523,0.002678,0.000431,0.111299
27999000,0.0324,0.013523,0.002678,0.000431,0.089909
