Cycle,Area(mm^2),PeakDynamic(W),SubthresholdLeakage(W),GateLeakage(W),RunTimeDynamic(W)
57000000,0.0324,0.013523,0.002678,0.000431,0.004231
57001000,0.0324,0.013523,0.002678,0.000431,0.006229
57002000,0.0324,0.013523,0.002678,0.000431,0.002703
57003000,0.0324,0.013523,0.002678,0.000431,0.002821
57004000,0.0324,0.013523,0.002678,0.000431,0.004231
57005000,0.0324,0.013523,0.002678,0.000431,0.002233
57006000,0.0324,0.013523,0.002678,0.000431,0.001763
57007000,0.0324,0.013523,0.002678,0.000431,0.001763
57008000,0.0324,0.013523,0.002678,0.000431,0.001880
57009000,0.0324,0.013523,0.002678,0.000431,0.001763
57010000,0.0324,0.013523,0.002678,0.000431,0.001998
57011000,0.0324,0.013523,0.002678,0.000431,0.001645
57012000,0.0324,0.013523,0.002678,0.000431,0.001880
57013000,0.0324,0.013523,0.002678,0.000431,0.003761
57014000,0.0324,0.013523,0.002678,0.000431,0.000940
57015000,0.0324,0.013523,0.002678,0.000431,0.000823
57016000,0.0324,0.013523,0.002678,0.000431,0.000823
57017000,0.0324,0.013523,0.002678,0.000431,0.000823
57018000,0.0324,0.013523,0.002678,0.000431,0.000823
57019000,0.0324,0.013523,0.002678,0.000431,0.000823
57020000,0.0324,0.013523,0.002678,0.000431,0.000823
57021000,0.0324,0.013523,0.002678,0.000431,0.000940
57022000,0.0324,0.013523,0.002678,0.000431,0.000705
57023000,0.0324,0.013523,0.002678,0.000431,0.013868
57024000,0.0324,0.013523,0.002678,0.000431,0.722328
57025000,0.0324,0.013523,0.002678,0.000431,0.569307
57026000,0.0324,0.013523,0.002678,0.000431,0.148791
57027000,0.0324,0.013523,0.002678,0.000431,0.147968
57028000,0.0324,0.013523,0.002678,0.000431,0.595280
57029000,0.0324,0.013523,0.002678,0.000431,0.265026
57030000,0.0324,0.013523,0.002678,0.000431,0.317444
57031000,0.0324,0.013523,0.002678,0.000431,0.157135
57032000,0.0324,0.013523,0.002678,0.000431,0.142092
57033000,0.0324,0.013523,0.002678,0.000431,0.234586
57034000,0.0324,0.013523,0.002678,0.000431,0.487742
57035000,0.0324,0.013523,0.002678,0.000431,0.172884
57036000,0.0324,0.013523,0.002678,0.000431,0.166067
57037000,0.0324,0.013523,0.002678,0.000431,0.138918
57038000,0.0324,0.013523,0.002678,0.000431,0.109771
57039000,0.0324,0.013523,0.002678,0.000431,0.099899
57040000,0.0324,0.013523,0.002678,0.000431,0.096608
57041000,0.0324,0.013523,0.002678,0.000431,0.069459
57042000,0.0324,0.013523,0.002678,0.000431,0.062995
57043000,0.0324,0.013523,0.002678,0.000431,0.051007
57044000,0.0324,0.013523,0.002678,0.000431,0.043838
57045000,0.0324,0.013523,0.002678,0.000431,0.041958
57046000,0.0324,0.013523,0.002678,0.000431,0.029500
57047000,0.0324,0.013523,0.002678,0.000431,0.031380
57048000,0.0324,0.013523,0.002678,0.000431,0.028912
57049000,0.0324,0.013523,0.002678,0.000431,0.018805
57050000,0.0324,0.013523,0.002678,0.000431,0.019275
57051000,0.0324,0.013523,0.002678,0.000431,0.017159
57052000,0.0324,0.013523,0.002678,0.000431,0.013751
57053000,0.0324,0.013523,0.002678,0.000431,0.011753
57054000,0.0324,0.013523,0.002678,0.000431,0.007639
57055000,0.0324,0.013523,0.002678,0.000431,0.005406
57056000,0.0324,0.013523,0.002678,0.000431,0.007992
57057000,0.0324,0.013523,0.002678,0.000431,0.006934
57058000,0.0324,0.013523,0.002678,0.000431,0.003173
57059000,0.0324,0.013523,0.002678,0.000431,0.003291
57060000,0.0324,0.013523,0.002678,0.000431,0.003291
57061000,0.0324,0.013523,0.002678,0.000431,0.003173
57062000,0.0324,0.013523,0.002678,0.000431,0.003526
57063000,0.0324,0.013523,0.002678,0.000431,0.006347
57064000,0.0324,0.013523,0.002678,0.000431,0.002468
57065000,0.0324,0.013523,0.002678,0.000431,0.002703
57066000,0.0324,0.013523,0.002678,0.000431,0.003878
57067000,0.0324,0.013523,0.002678,0.000431,0.003173
57068000,0.0324,0.013523,0.002678,0.000431,0.000940
57069000,0.0324,0.013523,0.002678,0.000431,0.000940
57070000,0.0324,0.013523,0.002678,0.000431,0.279717
57071000,0.0324,0.013523,0.002678,0.000431,0.792728
57072000,0.0324,0.013523,0.002678,0.000431,0.341419
57073000,0.0324,0.013523,0.002678,0.000431,0.136803
57074000,0.0324,0.013523,0.002678,0.000431,0.463296
57075000,0.0324,0.013523,0.002678,0.000431,0.254449
57076000,0.0324,0.013523,0.002678,0.000431,0.277954
57077000,0.0324,0.013523,0.002678,0.000431,0.270432
57078000,0.0324,0.013523,0.002678,0.000431,0.150319
57079000,0.0324,0.013523,0.002678,0.000431,0.123992
57080000,0.0324,0.013523,0.002678,0.000431,0.355053
57081000,0.0324,0.013523,0.002678,0.000431,0.441083
57082000,0.0324,0.013523,0.002678,0.000431,0.224009
57083000,0.0324,0.013523,0.002678,0.000431,0.207672
57084000,0.0324,0.013523,0.002678,0.000431,0.175822
57085000,0.0324,0.013523,0.002678,0.000431,0.148086
57086000,0.0324,0.013523,0.002678,0.000431,0.122112
57087000,0.0324,0.013523,0.002678,0.000431,0.105540
57088000,0.0324,0.013523,0.002678,0.000431,0.074043
57089000,0.0324,0.013523,0.002678,0.000431,0.066521
57090000,0.0324,0.013523,0.002678,0.000431,0.054063
57091000,0.0324,0.013523,0.002678,0.000431,0.041135
57092000,0.0324,0.013523,0.002678,0.000431,0.029265
57093000,0.0324,0.013523,0.002678,0.000431,0.031027
57094000,0.0324,0.013523,0.002678,0.000431,0.015631
57095000,0.0324,0.013523,0.002678,0.000431,0.013163
57096000,0.0324,0.013523,0.002678,0.000431,0.020802
57097000,0.0324,0.013523,0.002678,0.000431,0.014103
57098000,0.0324,0.013523,0.002678,0.000431,0.006934
57099000,0.0324,0.013523,0.002678,0.000431,0.004466
57100000,0.0324,0.013523,0.002678,0.000431,0.007169
57101000,0.0324,0.013523,0.002678,0.000431,0.008462
57102000,0.0324,0.013523,0.002678,0.000431,0.014926
57103000,0.0324,0.013523,0.002678,0.000431,0.789202
57104000,0.0324,0.013523,0.002678,0.000431,0.559552
57105000,0.0324,0.013523,0.002678,0.000431,0.145735
57106000,0.0324,0.013523,0.002678,0.000431,0.169711
57107000,0.0324,0.013523,0.002678,0.000431,0.584468
57108000,0.0324,0.013523,0.002678,0.000431,0.287239
57109000,0.0324,0.013523,0.002678,0.000431,0.304516
57110000,0.0324,0.013523,0.002678,0.000431,0.156077
57111000,0.0324,0.013523,0.002678,0.000431,0.120819
57112000,0.0324,0.013523,0.002678,0.000431,0.342595
57113000,0.0324,0.013523,0.002678,0.000431,0.422044
57114000,0.0324,0.013523,0.002678,0.000431,0.191336
57115000,0.0324,0.013523,0.002678,0.000431,0.163952
57116000,0.0324,0.013523,0.002678,0.000431,0.152552
57117000,0.0324,0.013523,0.002678,0.000431,0.107773
57118000,0.0324,0.013523,0.002678,0.000431,0.097431
57119000,0.0324,0.013523,0.002678,0.000431,0.074043
57120000,0.0324,0.013523,0.002678,0.000431,0.051712
57121000,0.0324,0.013523,0.002678,0.000431,0.058412
57122000,0.0324,0.013523,0.002678,0.000431,0.037491
57123000,0.0324,0.013523,0.002678,0.000431,0.030792
57124000,0.0324,0.013523,0.002678,0.000431,0.029970
57125000,0.0324,0.013523,0.002678,0.000431,0.020685
57126000,0.0324,0.013523,0.002678,0.000431,0.020802
57127000,0.0324,0.013523,0.002678,0.000431,0.010578
57128000,0.0324,0.013523,0.002678,0.000431,0.005994
57129000,0.0324,0.013523,0.002678,0.000431,0.010578
57130000,0.0324,0.013523,0.002678,0.000431,0.006229
57131000,0.0324,0.013523,0.002678,0.000431,0.009402
57132000,0.0324,0.013523,0.002678,0.000431,0.002351
57133000,0.0324,0.013523,0.002678,0.000431,0.002586
57134000,0.0324,0.013523,0.002678,0.000431,0.002703
57135000,0.0324,0.013523,0.002678,0.000431,0.002468
57136000,0.0324,0.013523,0.002678,0.000431,0.002233
57137000,0.0324,0.013523,0.002678,0.000431,0.002703
57138000,0.0324,0.013523,0.002678,0.000431,0.002586
57139000,0.0324,0.013523,0.002678,0.000431,0.002468
57140000,0.0324,0.013523,0.002678,0.000431,0.002351
57141000,0.0324,0.013523,0.002678,0.000431,0.002703
57142000,0.0324,0.013523,0.002678,0.000431,0.002468
57143000,0.0324,0.013523,0.002678,0.000431,0.002233
57144000,0.0324,0.013523,0.002678,0.000431,0.002586
57145000,0.0324,0.013523,0.002678,0.000431,0.001645
57146000,0.0324,0.013523,0.002678,0.000431,0.001763
57147000,0.0324,0.013523,0.002678,0.000431,0.004349
57148000,0.0324,0.013523,0.002678,0.000431,0.000940
57149000,0.0324,0.013523,0.002678,0.000431,0.117176
57150000,0.0324,0.013523,0.002678,0.000431,0.767342
57151000,0.0324,0.013523,0.002678,0.000431,0.507722
57152000,0.0324,0.013523,0.002678,0.000431,0.136333
57153000,0.0324,0.013523,0.002678,0.000431,0.260560
57154000,0.0324,0.013523,0.002678,0.000431,0.448370
57155000,0.0324,0.013523,0.002678,0.000431,0.301695
57156000,0.0324,0.013523,0.002678,0.000431,0.258444
57157000,0.0324,0.013523,0.002678,0.000431,0.144677
57158000,0.0324,0.013523,0.002678,0.000431,0.154197
57159000,0.0324,0.013523,0.002678,0.000431,0.233528
57160000,0.0324,0.013523,0.002678,0.000431,0.493501
57161000,0.0324,0.013523,0.002678,0.000431,0.185342
57162000,0.0324,0.013523,0.002678,0.000431,0.165010
57163000,0.0324,0.013523,0.002678,0.000431,0.152199
57164000,0.0324,0.013523,0.002678,0.000431,0.129516
57165000,0.0324,0.013523,0.002678,0.000431,0.128458
57166000,0.0324,0.013523,0.002678,0.000431,0.102955
57167000,0.0324,0.013523,0.002678,0.000431,0.092495
57168000,0.0324,0.013523,0.002678,0.000431,0.079332
57169000,0.0324,0.013523,0.002678,0.000431,0.059117
57170000,0.0324,0.013523,0.002678,0.000431,0.039019
57171000,0.0324,0.013523,0.002678,0.000431,0.030322
57172000,0.0324,0.013523,0.002678,0.000431,0.032438
57173000,0.0324,0.013523,0.002678,0.000431,0.025974
57174000,0.0324,0.013523,0.002678,0.000431,0.014221
57175000,0.0324,0.013523,0.002678,0.000431,0.006582
57176000,0.0324,0.013523,0.002678,0.000431,0.003173
57177000,0.0324,0.013523,0.002678,0.000431,0.005524
57178000,0.0324,0.013523,0.002678,0.000431,0.004819
57179000,0.0324,0.013523,0.002678,0.000431,0.002586
57180000,0.0324,0.013523,0.002678,0.000431,0.002586
57181000,0.0324,0.013523,0.002678,0.000431,0.002586
57182000,0.0324,0.013523,0.002678,0.000431,0.002468
57183000,0.0324,0.013523,0.002678,0.000431,0.002468
57184000,0.0324,0.013523,0.002678,0.000431,0.002468
57185000,0.0324,0.013523,0.002678,0.000431,0.004466
57186000,0.0324,0.013523,0.002678,0.000431,0.001410
57187000,0.0324,0.013523,0.002678,0.000431,0.004584
57188000,0.0324,0.013523,0.002678,0.000431,0.000940
57189000,0.0324,0.013523,0.002678,0.000431,0.014456
57190000,0.0324,0.013523,0.002678,0.000431,0.749007
57191000,0.0324,0.013523,0.002678,0.000431,0.556966
57192000,0.0324,0.013523,0.002678,0.000431,0.136803
57193000,0.0324,0.013523,0.002678,0.000431,0.135863
57194000,0.0324,0.013523,0.002678,0.000431,0.553558
57195000,0.0324,0.013523,0.002678,0.000431,0.264909
57196000,0.0324,0.013523,0.002678,0.000431,0.321675
57197000,0.0324,0.013523,0.002678,0.000431,0.148086
57198000,0.0324,0.013523,0.002678,0.000431,0.163129
57199000,0.0324,0.013523,0.002678,0.000431,0.160661
57200000,0.0324,0.013523,0.002678,0.000431,0.507134
57201000,0.0324,0.013523,0.002678,0.000431,0.135392
57202000,0.0324,0.013523,0.002678,0.000431,0.114472
57203000,0.0324,0.013523,0.002678,0.000431,0.102367
57204000,0.0324,0.013523,0.002678,0.000431,0.076393
57205000,0.0324,0.013523,0.002678,0.000431,0.065111
57206000,0.0324,0.013523,0.002678,0.000431,0.032673
57207000,0.0324,0.013523,0.002678,0.000431,0.030087
57208000,0.0324,0.013523,0.002678,0.000431,0.020450
57209000,0.0324,0.013523,0.002678,0.000431,0.016219
57210000,0.0324,0.013523,0.002678,0.000431,0.015866
57211000,0.0324,0.013523,0.002678,0.000431,0.007169
57212000,0.0324,0.013523,0.002678,0.000431,0.007169
57213000,0.0324,0.013523,0.002678,0.000431,0.005641
57214000,0.0324,0.013523,0.002678,0.000431,0.003643
57215000,0.0324,0.013523,0.002678,0.000431,0.002821
57216000,0.0324,0.013523,0.002678,0.000431,0.066991
57217000,0.0324,0.013523,0.002678,0.000431,0.651106
57218000,0.0324,0.013523,0.002678,0.000431,0.560492
57219000,0.0324,0.013523,0.002678,0.000431,0.135863
57220000,0.0324,0.013523,0.002678,0.000431,0.135863
57221000,0.0324,0.013523,0.002678,0.000431,0.538279
57222000,0.0324,0.013523,0.002678,0.000431,0.235291
57223000,0.0324,0.013523,0.002678,0.000431,0.320029
57224000,0.0324,0.013523,0.002678,0.000431,0.180406
57225000,0.0324,0.013523,0.002678,0.000431,0.160073
57226000,0.0324,0.013523,0.002678,0.000431,0.106481
57227000,0.0324,0.013523,0.002678,0.000431,0.447312
57228000,0.0324,0.013523,0.002678,0.000431,0.371742
57229000,0.0324,0.013523,0.002678,0.000431,0.216839
57230000,0.0324,0.013523,0.002678,0.000431,0.185695
57231000,0.0324,0.013523,0.002678,0.000431,0.170886
57232000,0.0324,0.013523,0.002678,0.000431,0.137978
57233000,0.0324,0.013523,0.002678,0.000431,0.120466
57234000,0.0324,0.013523,0.002678,0.000431,0.096021
57235000,0.0324,0.013523,0.002678,0.000431,0.076393
57236000,0.0324,0.013523,0.002678,0.000431,0.053945
57237000,0.0324,0.013523,0.002678,0.000431,0.046306
57238000,0.0324,0.013523,0.002678,0.000431,0.042780
57239000,0.0324,0.013523,0.002678,0.000431,0.043015
57240000,0.0324,0.013523,0.002678,0.000431,0.029029
57241000,0.0324,0.013523,0.002678,0.000431,0.026914
57242000,0.0324,0.013523,0.002678,0.000431,0.022448
57243000,0.0324,0.013523,0.002678,0.000431,0.021508
57244000,0.0324,0.013523,0.002678,0.000431,0.012576
57245000,0.0324,0.013523,0.002678,0.000431,0.015044
57246000,0.0324,0.013523,0.002678,0.000431,0.006817
57247000,0.0324,0.013523,0.002678,0.000431,0.010107
57248000,0.0324,0.013523,0.002678,0.000431,0.009167
57249000,0.0324,0.013523,0.002678,0.000431,0.007287
57250000,0.0324,0.013523,0.002678,0.000431,0.003761
57251000,0.0324,0.013523,0.002678,0.000431,0.432621
57252000,0.0324,0.013523,0.002678,0.000431,0.788144
57253000,0.0324,0.013523,0.002678,0.000431,0.236349
57254000,0.0324,0.013523,0.002678,0.000431,0.144325
57255000,0.0324,0.013523,0.002678,0.000431,0.541335
57256000,0.0324,0.013523,0.002678,0.000431,0.274311
57257000,0.0324,0.013523,0.002678,0.000431,0.296994
57258000,0.0324,0.013523,0.002678,0.000431,0.219895
57259000,0.0324,0.013523,0.002678,0.000431,0.180406
57260000,0.0324,0.013523,0.002678,0.000431,0.094728
57261000,0.0324,0.013523,0.002678,0.000431,0.536516
57262000,0.0324,0.013523,0.002678,0.000431,0.216839
57263000,0.0324,0.013523,0.002678,0.000431,0.184519
57264000,0.0324,0.013523,0.002678,0.000431,0.150906
57265000,0.0324,0.013523,0.002678,0.000431,0.127753
57266000,0.0324,0.013523,0.002678,0.000431,0.115178
57267000,0.0324,0.013523,0.002678,0.000431,0.076393
57268000,0.0324,0.013523,0.002678,0.000431,0.060645
57269000,0.0324,0.013523,0.002678,0.000431,0.057119
57270000,0.0324,0.013523,0.002678,0.000431,0.038784
57271000,0.0324,0.013523,0.002678,0.000431,0.032203
57272000,0.0324,0.013523,0.002678,0.000431,0.023506
57273000,0.0324,0.013523,0.002678,0.000431,0.017394
57274000,0.0324,0.013523,0.002678,0.000431,0.006582
57275000,0.0324,0.013523,0.002678,0.000431,0.009285
57276000,0.0324,0.013523,0.002678,0.000431,0.010225
57277000,0.0324,0.013523,0.002678,0.000431,0.011988
57278000,0.0324,0.013523,0.002678,0.000431,0.000940
57279000,0.0324,0.013523,0.002678,0.000431,0.000823
57280000,0.0324,0.013523,0.002678,0.000431,0.000823
57281000,0.0324,0.013523,0.002678,0.000431,0.000940
57282000,0.0324,0.013523,0.002678,0.000431,0.000705
57283000,0.0324,0.013523,0.002678,0.000431,0.000940
57284000,0.0324,0.013523,0.002678,0.000431,0.000705
57285000,0.0324,0.013523,0.002678,0.000431,0.073220
57286000,0.0324,0.013523,0.002678,0.000431,0.698940
57287000,0.0324,0.013523,0.002678,0.000431,0.558259
57288000,0.0324,0.013523,0.002678,0.000431,0.136333
57289000,0.0324,0.013523,0.002678,0.000431,0.146323
57290000,0.0324,0.013523,0.002678,0.000431,0.557319
57291000,0.0324,0.013523,0.002678,0.000431,0.263146
57292000,0.0324,0.013523,0.002678,0.000431,0.335190
57293000,0.0324,0.013523,0.002678,0.000431,0.149731
57294000,0.0324,0.013523,0.002678,0.000431,0.168770
57295000,0.0324,0.013523,0.002678,0.000431,0.134805
57296000,0.0324,0.013523,0.002678,0.000431,0.554145
57297000,0.0324,0.013523,0.002678,0.000431,0.209905
57298000,0.0324,0.013523,0.002678,0.000431,0.172766
57299000,0.0324,0.013523,0.002678,0.000431,0.150671
57300000,0.0324,0.013523,0.002678,0.000431,0.138331
57301000,0.0324,0.013523,0.002678,0.000431,0.118351
57302000,0.0324,0.013523,0.002678,0.000431,0.081917
57303000,0.0324,0.013523,0.002678,0.000431,0.073455
57304000,0.0324,0.013523,0.002678,0.000431,0.050890
57305000,0.0324,0.013523,0.002678,0.000431,0.048422
57306000,0.0324,0.013523,0.002678,0.000431,0.041252
57307000,0.0324,0.013523,0.002678,0.000431,0.024328
57308000,0.0324,0.013523,0.002678,0.000431,0.021625
57309000,0.0324,0.013523,0.002678,0.000431,0.016336
57310000,0.0324,0.013523,0.002678,0.000431,0.011635
57311000,0.0324,0.013523,0.002678,0.000431,0.009520
57312000,0.0324,0.013523,0.002678,0.000431,0.005759
57313000,0.0324,0.013523,0.002678,0.000431,0.007052
57314000,0.0324,0.013523,0.002678,0.000431,0.003291
57315000,0.0324,0.013523,0.002678,0.000431,0.003761
57316000,0.0324,0.013523,0.002678,0.000431,0.003408
57317000,0.0324,0.013523,0.002678,0.000431,0.003643
57318000,0.0324,0.013523,0.002678,0.000431,0.005171
57319000,0.0324,0.013523,0.002678,0.000431,0.004584
57320000,0.0324,0.013523,0.002678,0.000431,0.002351
57321000,0.0324,0.013523,0.002678,0.000431,0.002586
57322000,0.0324,0.013523,0.002678,0.000431,0.002586
57323000,0.0324,0.013523,0.002678,0.000431,0.003878
57324000,0.0324,0.013523,0.002678,0.000431,0.001880
57325000,0.0324,0.013523,0.002678,0.000431,0.001410
57326000,0.0324,0.013523,0.002678,0.000431,0.001880
57327000,0.0324,0.013523,0.002678,0.000431,0.001645
57328000,0.0324,0.013523,0.002678,0.000431,0.001645
57329000,0.0324,0.013523,0.002678,0.000431,0.001410
57330000,0.0324,0.013523,0.002678,0.000431,0.001880
57331000,0.0324,0.013523,0.002678,0.000431,0.004231
57332000,0.0324,0.013523,0.002678,0.000431,0.411819
57333000,0.0324,0.013523,0.002678,0.000431,0.778859
57334000,0.0324,0.013523,0.002678,0.000431,0.234351
57335000,0.0324,0.013523,0.002678,0.000431,0.135863
57336000,0.0324,0.013523,0.002678,0.000431,0.509015
57337000,0.0324,0.013523,0.002678,0.000431,0.281715
57338000,0.0324,0.013523,0.002678,0.000431,0.302988
57339000,0.0324,0.013523,0.002678,0.000431,0.244929
57340000,0.0324,0.013523,0.002678,0.000431,0.163834
57341000,0.0324,0.013523,0.002678,0.000431,0.107068
57342000,0.0324,0.013523,0.002678,0.000431,0.527114
57343000,0.0324,0.013523,0.002678,0.000431,0.281715
57344000,0.0324,0.013523,0.002678,0.000431,0.193569
57345000,0.0324,0.013523,0.002678,0.000431,0.162777
57346000,0.0324,0.013523,0.002678,0.000431,0.157840
57347000,0.0324,0.013523,0.002678,0.000431,0.110476
57348000,0.0324,0.013523,0.002678,0.000431,0.085561
57349000,0.0324,0.013523,0.002678,0.000431,0.079096
57350000,0.0324,0.013523,0.002678,0.000431,0.074748
57351000,0.0324,0.013523,0.002678,0.000431,0.060880
57352000,0.0324,0.013523,0.002678,0.000431,0.051242
57353000,0.0324,0.013523,0.002678,0.000431,0.034553
57354000,0.0324,0.013523,0.002678,0.000431,0.023271
57355000,0.0324,0.013523,0.002678,0.000431,0.025504
57356000,0.0324,0.013523,0.002678,0.000431,0.018334
57357000,0.0324,0.013523,0.002678,0.000431,0.015749
57358000,0.0324,0.013523,0.002678,0.000431,0.017159
57359000,0.0324,0.013523,0.002678,0.000431,0.005759
57360000,0.0324,0.013523,0.002678,0.000431,0.007757
57361000,0.0324,0.013523,0.002678,0.000431,0.007404
57362000,0.0324,0.013523,0.002678,0.000431,0.004349
57363000,0.0324,0.013523,0.002678,0.000431,0.003878
57364000,0.0324,0.013523,0.002678,0.000431,0.001528
57365000,0.0324,0.013523,0.002678,0.000431,0.001645
57366000,0.0324,0.013523,0.002678,0.000431,0.001880
57367000,0.0324,0.013523,0.002678,0.000431,0.001528
57368000,0.0324,0.013523,0.002678,0.000431,0.001528
57369000,0.0324,0.013523,0.002678,0.000431,0.003996
57370000,0.0324,0.013523,0.002678,0.000431,0.000823
57371000,0.0324,0.013523,0.002678,0.000431,0.000940
57372000,0.0324,0.013523,0.002678,0.000431,0.000823
57373000,0.0324,0.013523,0.002678,0.000431,0.000823
57374000,0.0324,0.013523,0.002678,0.000431,0.000705
57375000,0.0324,0.013523,0.002678,0.000431,0.000940
57376000,0.0324,0.013523,0.002678,0.000431,0.000940
57377000,0.0324,0.013523,0.002678,0.000431,0.000705
57378000,0.0324,0.013523,0.002678,0.000431,0.000940
57379000,0.0324,0.013523,0.002678,0.000431,0.000940
57380000,0.0324,0.013523,0.002678,0.000431,0.000705
57381000,0.0324,0.013523,0.002678,0.000431,0.071340
57382000,0.0324,0.013523,0.002678,0.000431,0.771455
57383000,0.0324,0.013523,0.002678,0.000431,0.527466
57384000,0.0324,0.013523,0.002678,0.000431,0.143149
57385000,0.0324,0.013523,0.002678,0.000431,0.238112
57386000,0.0324,0.013523,0.002678,0.000431,0.535458
57387000,0.0324,0.013523,0.002678,0.000431,0.268552
57388000,0.0324,0.013523,0.002678,0.000431,0.252451
57389000,0.0324,0.013523,0.002678,0.000431,0.162541
57390000,0.0324,0.013523,0.002678,0.000431,0.117881
57391000,0.0324,0.013523,0.002678,0.000431,0.367276
57392000,0.0324,0.013523,0.002678,0.000431,0.429448
57393000,0.0324,0.013523,0.002678,0.000431,0.216017
57394000,0.0324,0.013523,0.002678,0.000431,0.207907
57395000,0.0324,0.013523,0.002678,0.000431,0.165480
57396000,0.0324,0.013523,0.002678,0.000431,0.135275
57397000,0.0324,0.013523,0.002678,0.000431,0.123052
57398000,0.0324,0.013523,0.002678,0.000431,0.086618
57399000,0.0324,0.013523,0.002678,0.000431,0.065463
57400000,0.0324,0.013523,0.002678,0.000431,0.053123
57401000,0.0324,0.013523,0.002678,0.000431,0.041252
57402000,0.0324,0.013523,0.002678,0.000431,0.027384
57403000,0.0324,0.013523,0.002678,0.000431,0.021508
57404000,0.0324,0.013523,0.002678,0.000431,0.017747
57405000,0.0324,0.013523,0.002678,0.000431,0.011870
57406000,0.0324,0.013523,0.002678,0.000431,0.015631
57407000,0.0324,0.013523,0.002678,0.000431,0.008932
57408000,0.0324,0.013523,0.002678,0.000431,0.013398
57409000,0.0324,0.013523,0.002678,0.000431,0.011165
57410000,0.0324,0.013523,0.002678,0.000431,0.012105
57411000,0.0324,0.013523,0.002678,0.000431,0.005524
57412000,0.0324,0.013523,0.002678,0.000431,0.005641
57413000,0.0324,0.013523,0.002678,0.000431,0.005524
57414000,0.0324,0.013523,0.002678,0.000431,0.008932
57415000,0.0324,0.013523,0.002678,0.000431,0.004819
57416000,0.0324,0.013523,0.002678,0.000431,0.005054
57417000,0.0324,0.013523,0.002678,0.000431,0.008109
57418000,0.0324,0.013523,0.002678,0.000431,0.015984
57419000,0.0324,0.013523,0.002678,0.000431,0.675317
57420000,0.0324,0.013523,0.002678,0.000431,0.678725
57421000,0.0324,0.013523,0.002678,0.000431,0.134452
57422000,0.0324,0.013523,0.002678,0.000431,0.137273
57423000,0.0324,0.013523,0.002678,0.000431,0.557084
57424000,0.0324,0.013523,0.002678,0.000431,0.255624
57425000,0.0324,0.013523,0.002678,0.000431,0.302282
57426000,0.0324,0.013523,0.002678,0.000431,0.190043
57427000,0.0324,0.013523,0.002678,0.000431,0.177585
57428000,0.0324,0.013523,0.002678,0.000431,0.101544
57429000,0.0324,0.013523,0.002678,0.000431,0.540395
57430000,0.0324,0.013523,0.002678,0.000431,0.250453
57431000,0.0324,0.013523,0.002678,0.000431,0.181699
57432000,0.0324,0.013523,0.002678,0.000431,0.159016
57433000,0.0324,0.013523,0.002678,0.000431,0.153609
57434000,0.0324,0.013523,0.002678,0.000431,0.125168
57435000,0.0324,0.013523,0.002678,0.000431,0.116118
57436000,0.0324,0.013523,0.002678,0.000431,0.091554
57437000,0.0324,0.013523,0.002678,0.000431,0.072162
57438000,0.0324,0.013523,0.002678,0.000431,0.068166
57439000,0.0324,0.013523,0.002678,0.000431,0.054180
57440000,0.0324,0.013523,0.002678,0.000431,0.055826
57441000,0.0324,0.013523,0.002678,0.000431,0.048422
57442000,0.0324,0.013523,0.002678,0.000431,0.046189
57443000,0.0324,0.013523,0.002678,0.000431,0.041252
57444000,0.0324,0.013523,0.002678,0.000431,0.030440
57445000,0.0324,0.013523,0.002678,0.000431,0.023153
57446000,0.0324,0.013523,0.002678,0.000431,0.023153
57447000,0.0324,0.013523,0.002678,0.000431,0.019627
57448000,0.0324,0.013523,0.002678,0.000431,0.011870
57449000,0.0324,0.013523,0.002678,0.000431,0.014809
57450000,0.0324,0.013523,0.002678,0.000431,0.015044
57451000,0.0324,0.013523,0.002678,0.000431,0.010813
57452000,0.0324,0.013523,0.002678,0.000431,0.007522
57453000,0.0324,0.013523,0.002678,0.000431,0.008697
57454000,0.0324,0.013523,0.002678,0.000431,0.007287
57455000,0.0324,0.013523,0.002678,0.000431,0.005171
57456000,0.0324,0.013523,0.002678,0.000431,0.007639
57457000,0.0324,0.013523,0.002678,0.000431,0.001763
57458000,0.0324,0.013523,0.002678,0.000431,0.001763
57459000,0.0324,0.013523,0.002678,0.000431,0.003643
57460000,0.0324,0.013523,0.002678,0.000431,0.511130
57461000,0.0324,0.013523,0.002678,0.000431,0.744776
57462000,0.0324,0.013523,0.002678,0.000431,0.181346
57463000,0.0324,0.013523,0.002678,0.000431,0.135392
57464000,0.0324,0.013523,0.002678,0.000431,0.532168
57465000,0.0324,0.013523,0.002678,0.000431,0.272313
57466000,0.0324,0.013523,0.002678,0.000431,0.269962
57467000,0.0324,0.013523,0.002678,0.000431,0.237642
57468000,0.0324,0.013523,0.002678,0.000431,0.158193
57469000,0.0324,0.013523,0.002678,0.000431,0.107186
57470000,0.0324,0.013523,0.002678,0.000431,0.448488
57471000,0.0324,0.013523,0.002678,0.000431,0.315798
57472000,0.0324,0.013523,0.002678,0.000431,0.159838
57473000,0.0324,0.013523,0.002678,0.000431,0.137390
57474000,0.0324,0.013523,0.002678,0.000431,0.122582
57475000,0.0324,0.013523,0.002678,0.000431,0.096021
57476000,0.0324,0.013523,0.002678,0.000431,0.078744
57477000,0.0324,0.013523,0.002678,0.000431,0.061350
57478000,0.0324,0.013523,0.002678,0.000431,0.058647
57479000,0.0324,0.013523,0.002678,0.000431,0.037609
57480000,0.0324,0.013523,0.002678,0.000431,0.033378
57481000,0.0324,0.013523,0.002678,0.000431,0.028794
57482000,0.0324,0.013523,0.002678,0.000431,0.020802
57483000,0.0324,0.013523,0.002678,0.000431,0.012928
57484000,0.0324,0.013523,0.002678,0.000431,0.013046
57485000,0.0324,0.013523,0.002678,0.000431,0.011400
57486000,0.0324,0.013523,0.002678,0.000431,0.008109
57487000,0.0324,0.013523,0.002678,0.000431,0.005876
57488000,0.0324,0.013523,0.002678,0.000431,0.007522
57489000,0.0324,0.013523,0.002678,0.000431,0.004936
57490000,0.0324,0.013523,0.002678,0.000431,0.005759
57491000,0.0324,0.013523,0.002678,0.000431,0.009167
57492000,0.0324,0.013523,0.002678,0.000431,0.001528
57493000,0.0324,0.013523,0.002678,0.000431,0.003056
57494000,0.0324,0.013523,0.002678,0.000431,0.000823
57495000,0.0324,0.013523,0.002678,0.000431,0.000823
57496000,0.0324,0.013523,0.002678,0.000431,0.000823
57497000,0.0324,0.013523,0.002678,0.000431,0.000823
57498000,0.0324,0.013523,0.002678,0.000431,0.000940
57499000,0.0324,0.013523,0.002678,0.000431,0.000705
57500000,0.0324,0.013523,0.002678,0.000431,0.000940
57501000,0.0324,0.013523,0.002678,0.000431,0.000705
57502000,0.0324,0.013523,0.002678,0.000431,0.000823
57503000,0.0324,0.013523,0.002678,0.000431,0.272078
57504000,0.0324,0.013523,0.002678,0.000431,0.784266
57505000,0.0324,0.013523,0.002678,0.000431,0.355053
57506000,0.0324,0.013523,0.002678,0.000431,0.135863
57507000,0.0324,0.013523,0.002678,0.000431,0.484921
57508000,0.0324,0.013523,0.002678,0.000431,0.260090
57509000,0.0324,0.013523,0.002678,0.000431,0.302988
57510000,0.0324,0.013523,0.002678,0.000431,0.262911
57511000,0.0324,0.013523,0.002678,0.000431,0.153962
57512000,0.0324,0.013523,0.002678,0.000431,0.113650
57513000,0.0324,0.013523,0.002678,0.000431,0.457067
57514000,0.0324,0.013523,0.002678,0.000431,0.309334
57515000,0.0324,0.013523,0.002678,0.000431,0.178760
57516000,0.0324,0.013523,0.002678,0.000431,0.162306
57517000,0.0324,0.013523,0.002678,0.000431,0.126225
57518000,0.0324,0.013523,0.002678,0.000431,0.102720
57519000,0.0324,0.013523,0.002678,0.000431,0.085796
57520000,0.0324,0.013523,0.002678,0.000431,0.057941
57521000,0.0324,0.013523,0.002678,0.000431,0.048892
57522000,0.0324,0.013523,0.002678,0.000431,0.036081
57523000,0.0324,0.013523,0.002678,0.000431,0.026561
57524000,0.0324,0.013523,0.002678,0.000431,0.027972
57525000,0.0324,0.013523,0.002678,0.000431,0.027031
57526000,0.0324,0.013523,0.002678,0.000431,0.008815
57527000,0.0324,0.013523,0.002678,0.000431,0.011283
57528000,0.0324,0.013523,0.002678,0.000431,0.012223
57529000,0.0324,0.013523,0.002678,0.000431,0.010695
57530000,0.0324,0.013523,0.002678,0.000431,0.005054
57531000,0.0324,0.013523,0.002678,0.000431,0.004231
57532000,0.0324,0.013523,0.002678,0.000431,0.009402
57533000,0.0324,0.013523,0.002678,0.000431,0.003056
57534000,0.0324,0.013523,0.002678,0.000431,0.001763
57535000,0.0324,0.013523,0.002678,0.000431,0.001528
57536000,0.0324,0.013523,0.002678,0.000431,0.003526
57537000,0.0324,0.013523,0.002678,0.000431,0.000823
57538000,0.0324,0.013523,0.002678,0.000431,0.246927
57539000,0.0324,0.013523,0.002678,0.000431,0.677197
57540000,0.0324,0.013523,0.002678,0.000431,0.464589
57541000,0.0324,0.013523,0.002678,0.000431,0.135392
57542000,0.0324,0.013523,0.002678,0.000431,0.305808
57543000,0.0324,0.013523,0.002678,0.000431,0.484099
57544000,0.0324,0.013523,0.002678,0.000431,0.278777
57545000,0.0324,0.013523,0.002678,0.000431,0.264791
57546000,0.0324,0.013523,0.002678,0.000431,0.149731
57547000,0.0324,0.013523,0.002678,0.000431,0.137626
57548000,0.0324,0.013523,0.002678,0.000431,0.253038
57549000,0.0324,0.013523,0.002678,0.000431,0.518064
57550000,0.0324,0.013523,0.002678,0.000431,0.184402
57551000,0.0324,0.013523,0.002678,0.000431,0.176292
57552000,0.0324,0.013523,0.002678,0.000431,0.151024
57553000,0.0324,0.013523,0.002678,0.000431,0.127401
57554000,0.0324,0.013523,0.002678,0.000431,0.104365
57555000,0.0324,0.013523,0.002678,0.000431,0.084738
57556000,0.0324,0.013523,0.002678,0.000431,0.078744
57557000,0.0324,0.013523,0.002678,0.000431,0.043015
57558000,0.0324,0.013523,0.002678,0.000431,0.017864
57559000,0.0324,0.013523,0.002678,0.000431,0.025504
57560000,0.0324,0.013523,0.002678,0.000431,0.018452
57561000,0.0324,0.013523,0.002678,0.000431,0.011400
57562000,0.0324,0.013523,0.002678,0.000431,0.006934
57563000,0.0324,0.013523,0.002678,0.000431,0.009520
57564000,0.0324,0.013523,0.002678,0.000431,0.004936
57565000,0.0324,0.013523,0.002678,0.000431,0.008462
57566000,0.0324,0.013523,0.002678,0.000431,0.003408
57567000,0.0324,0.013523,0.002678,0.000431,0.003526
57568000,0.0324,0.013523,0.002678,0.000431,0.007287
57569000,0.0324,0.013523,0.002678,0.000431,0.001763
57570000,0.0324,0.013523,0.002678,0.000431,0.004231
57571000,0.0324,0.013523,0.002678,0.000431,0.011400
57572000,0.0324,0.013523,0.002678,0.000431,0.716922
57573000,0.0324,0.013523,0.002678,0.000431,0.642527
57574000,0.0324,0.013523,0.002678,0.000431,0.136803
57575000,0.0324,0.013523,0.002678,0.000431,0.161601
57576000,0.0324,0.013523,0.002678,0.000431,0.565898
57577000,0.0324,0.013523,0.002678,0.000431,0.268669
57578000,0.0324,0.013523,0.002678,0.000431,0.271020
57579000,0.0324,0.013523,0.002678,0.000431,0.153962
57580000,0.0324,0.013523,0.002678,0.000431,0.116705
57581000,0.0324,0.013523,0.002678,0.000431,0.391251
57582000,0.0324,0.013523,0.002678,0.000431,0.371742
57583000,0.0324,0.013523,0.002678,0.000431,0.158663
57584000,0.0324,0.013523,0.002678,0.000431,0.158898
57585000,0.0324,0.013523,0.002678,0.000431,0.131749
57586000,0.0324,0.013523,0.002678,0.000431,0.110947
57587000,0.0324,0.013523,0.002678,0.000431,0.087323
57588000,0.0324,0.013523,0.002678,0.000431,0.070282
57589000,0.0324,0.013523,0.002678,0.000431,0.057941
57590000,0.0324,0.013523,0.002678,0.000431,0.046541
57591000,0.0324,0.013523,0.002678,0.000431,0.035846
57592000,0.0324,0.013523,0.002678,0.000431,0.017394
57593000,0.0324,0.013523,0.002678,0.000431,0.020920
57594000,0.0324,0.013523,0.002678,0.000431,0.018217
57595000,0.0324,0.013523,0.002678,0.000431,0.013868
57596000,0.0324,0.013523,0.002678,0.000431,0.013751
57597000,0.0324,0.013523,0.002678,0.000431,0.013163
57598000,0.0324,0.013523,0.002678,0.000431,0.009990
57599000,0.0324,0.013523,0.002678,0.000431,0.015044
57600000,0.0324,0.013523,0.002678,0.000431,0.005641
57601000,0.0324,0.013523,0.002678,0.000431,0.005054
57602000,0.0324,0.013523,0.002678,0.000431,0.007522
57603000,0.0324,0.013523,0.002678,0.000431,0.007757
57604000,0.0324,0.013523,0.002678,0.000431,0.009402
57605000,0.0324,0.013523,0.002678,0.000431,0.006464
57606000,0.0324,0.013523,0.002678,0.000431,0.004584
57607000,0.0324,0.013523,0.002678,0.000431,0.003643
57608000,0.0324,0.013523,0.002678,0.000431,0.006229
57609000,0.0324,0.013523,0.002678,0.000431,0.000823
57610000,0.0324,0.013523,0.002678,0.000431,0.000940
57611000,0.0324,0.013523,0.002678,0.000431,0.000705
57612000,0.0324,0.013523,0.002678,0.000431,0.000940
57613000,0.0324,0.013523,0.002678,0.000431,0.000705
57614000,0.0324,0.013523,0.002678,0.000431,0.000705
57615000,0.0324,0.013523,0.002678,0.000431,0.000940
57616000,0.0324,0.013523,0.002678,0.000431,0.000940
57617000,0.0324,0.013523,0.002678,0.000431,0.000705
57618000,0.0324,0.013523,0.002678,0.000431,0.000940
57619000,0.0324,0.013523,0.002678,0.000431,0.000705
57620000,0.0324,0.013523,0.002678,0.000431,0.000705
57621000,0.0324,0.013523,0.002678,0.000431,0.000940
57622000,0.0324,0.013523,0.002678,0.000431,0.000705
57623000,0.0324,0.013523,0.002678,0.000431,0.000705
57624000,0.0324,0.013523,0.002678,0.000431,0.000940
57625000,0.0324,0.013523,0.002678,0.000431,0.000823
57626000,0.0324,0.013523,0.002678,0.000431,0.000823
57627000,0.0324,0.013523,0.002678,0.000431,0.082505
57628000,0.0324,0.013523,0.002678,0.000431,0.777566
57629000,0.0324,0.013523,0.002678,0.000431,0.504196
57630000,0.0324,0.013523,0.002678,0.000431,0.136333
57631000,0.0324,0.013523,0.002678,0.000431,0.307689
57632000,0.0324,0.013523,0.002678,0.000431,0.458242
57633000,0.0324,0.013523,0.002678,0.000431,0.269727
57634000,0.0324,0.013523,0.002678,0.000431,0.287944
57635000,0.0324,0.013523,0.002678,0.000431,0.155255
57636000,0.0324,0.013523,0.002678,0.000431,0.115883
57637000,0.0324,0.013523,0.002678,0.000431,0.470465
57638000,0.0324,0.013523,0.002678,0.000431,0.305221
57639000,0.0324,0.013523,0.002678,0.000431,0.191218
57640000,0.0324,0.013523,0.002678,0.000431,0.192864
57641000,0.0324,0.013523,0.002678,0.000431,0.155842
57642000,0.0324,0.013523,0.002678,0.000431,0.129751
57643000,0.0324,0.013523,0.002678,0.000431,0.105658
57644000,0.0324,0.013523,0.002678,0.000431,0.075806
57645000,0.0324,0.013523,0.002678,0.000431,0.057941
57646000,0.0324,0.013523,0.002678,0.000431,0.046659
57647000,0.0324,0.013523,0.002678,0.000431,0.035611
57648000,0.0324,0.013523,0.002678,0.000431,0.022800
57649000,0.0324,0.013523,0.002678,0.000431,0.024446
57650000,0.0324,0.013523,0.002678,0.000431,0.013163
57651000,0.0324,0.013523,0.002678,0.000431,0.010460
57652000,0.0324,0.013523,0.002678,0.000431,0.015749
57653000,0.0324,0.013523,0.002678,0.000431,0.008697
57654000,0.0324,0.013523,0.002678,0.000431,0.006699
57655000,0.0324,0.013523,0.002678,0.000431,0.007639
57656000,0.0324,0.013523,0.002678,0.000431,0.003526
57657000,0.0324,0.013523,0.002678,0.000431,0.012693
57658000,0.0324,0.013523,0.002678,0.000431,0.672849
57659000,0.0324,0.013523,0.002678,0.000431,0.651576
57660000,0.0324,0.013523,0.002678,0.000431,0.137626
57661000,0.0324,0.013523,0.002678,0.000431,0.134452
57662000,0.0324,0.013523,0.002678,0.000431,0.521120
57663000,0.0324,0.013523,0.002678,0.000431,0.238700
57664000,0.0324,0.013523,0.002678,0.000431,0.307689
57665000,0.0324,0.013523,0.002678,0.000431,0.221423
57666000,0.0324,0.013523,0.002678,0.000431,0.162659
57667000,0.0324,0.013523,0.002678,0.000431,0.107538
57668000,0.0324,0.013523,0.002678,0.000431,0.381732
57669000,0.0324,0.013523,0.002678,0.000431,0.375150
57670000,0.0324,0.013523,0.002678,0.000431,0.176292
57671000,0.0324,0.013523,0.002678,0.000431,0.154667
57672000,0.0324,0.013523,0.002678,0.000431,0.131749
57673000,0.0324,0.013523,0.002678,0.000431,0.103307
57674000,0.0324,0.013523,0.002678,0.000431,0.103425
57675000,0.0324,0.013523,0.002678,0.000431,0.089204
57676000,0.0324,0.013523,0.002678,0.000431,0.071222
57677000,0.0324,0.013523,0.002678,0.000431,0.053828
57678000,0.0324,0.013523,0.002678,0.000431,0.049714
57679000,0.0324,0.013523,0.002678,0.000431,0.030440
57680000,0.0324,0.013523,0.002678,0.000431,0.024093
57681000,0.0324,0.013523,0.002678,0.000431,0.024681
57682000,0.0324,0.013523,0.002678,0.000431,0.010813
57683000,0.0324,0.013523,0.002678,0.000431,0.011753
57684000,0.0324,0.013523,0.002678,0.000431,0.012458
57685000,0.0324,0.013523,0.002678,0.000431,0.009050
57686000,0.0324,0.013523,0.002678,0.000431,0.007757
57687000,0.0324,0.013523,0.002678,0.000431,0.004819
57688000,0.0324,0.013523,0.002678,0.000431,0.003291
57689000,0.0324,0.013523,0.002678,0.000431,0.007757
57690000,0.0324,0.013523,0.002678,0.000431,0.001645
57691000,0.0324,0.013523,0.002678,0.000431,0.001645
57692000,0.0324,0.013523,0.002678,0.000431,0.001880
57693000,0.0324,0.013523,0.002678,0.000431,0.002938
57694000,0.0324,0.013523,0.002678,0.000431,0.001410
57695000,0.0324,0.013523,0.002678,0.000431,0.000823
57696000,0.0324,0.013523,0.002678,0.000431,0.000823
57697000,0.0324,0.013523,0.002678,0.000431,0.000823
57698000,0.0324,0.013523,0.002678,0.000431,0.000823
57699000,0.0324,0.013523,0.002678,0.000431,0.000940
57700000,0.0324,0.013523,0.002678,0.000431,0.000705
57701000,0.0324,0.013523,0.002678,0.000431,0.000940
57702000,0.0324,0.013523,0.002678,0.000431,0.000823
57703000,0.0324,0.013523,0.002678,0.000431,0.080742
57704000,0.0324,0.013523,0.002678,0.000431,0.764756
57705000,0.0324,0.013523,0.002678,0.000431,0.528407
57706000,0.0324,0.013523,0.002678,0.000431,0.135863
57707000,0.0324,0.013523,0.002678,0.000431,0.195919
57708000,0.0324,0.013523,0.002678,0.000431,0.543920
57709000,0.0324,0.013523,0.002678,0.000431,0.240345
57710000,0.0324,0.013523,0.002678,0.000431,0.263851
57711000,0.0324,0.013523,0.002678,0.000431,0.151494
57712000,0.0324,0.013523,0.002678,0.000431,0.186047
57713000,0.0324,0.013523,0.002678,0.000431,0.102837
57714000,0.0324,0.013523,0.002678,0.000431,0.567073
57715000,0.0324,0.013523,0.002678,0.000431,0.248102
57716000,0.0324,0.013523,0.002678,0.000431,0.196037
57717000,0.0324,0.013523,0.002678,0.000431,0.186047
57718000,0.0324,0.013523,0.002678,0.000431,0.149966
57719000,0.0324,0.013523,0.002678,0.000431,0.130926
57720000,0.0324,0.013523,0.002678,0.000431,0.100957
57721000,0.0324,0.013523,0.002678,0.000431,0.094610
57722000,0.0324,0.013523,0.002678,0.000431,0.071340
57723000,0.0324,0.013523,0.002678,0.000431,0.058882
57724000,0.0324,0.013523,0.002678,0.000431,0.051007
57725000,0.0324,0.013523,0.002678,0.000431,0.041370
57726000,0.0324,0.013523,0.002678,0.000431,0.032085
57727000,0.0324,0.013523,0.002678,0.000431,0.026209
57728000,0.0324,0.013523,0.002678,0.000431,0.021860
57729000,0.0324,0.013523,0.002678,0.000431,0.024328
57730000,0.0324,0.013523,0.002678,0.000431,0.018334
57731000,0.0324,0.013523,0.002678,0.000431,0.021038
57732000,0.0324,0.013523,0.002678,0.000431,0.016807
57733000,0.0324,0.013523,0.002678,0.000431,0.010225
57734000,0.0324,0.013523,0.002678,0.000431,0.010813
57735000,0.0324,0.013523,0.002678,0.000431,0.010225
57736000,0.0324,0.013523,0.002678,0.000431,0.004936
57737000,0.0324,0.013523,0.002678,0.000431,0.007757
57738000,0.0324,0.013523,0.002678,0.000431,0.004349
57739000,0.0324,0.013523,0.002678,0.000431,0.009990
57740000,0.0324,0.013523,0.002678,0.000431,0.005171
57741000,0.0324,0.013523,0.002678,0.000431,0.001763
57742000,0.0324,0.013523,0.002678,0.000431,0.001645
57743000,0.0324,0.013523,0.002678,0.000431,0.001763
57744000,0.0324,0.013523,0.002678,0.000431,0.001645
57745000,0.0324,0.013523,0.002678,0.000431,0.001880
57746000,0.0324,0.013523,0.002678,0.000431,0.003408
57747000,0.0324,0.013523,0.002678,0.000431,0.000940
57748000,0.0324,0.013523,0.002678,0.000431,0.000705
57749000,0.0324,0.013523,0.002678,0.000431,0.000705
57750000,0.0324,0.013523,0.002678,0.000431,0.000940
57751000,0.0324,0.013523,0.002678,0.000431,0.000823
57752000,0.0324,0.013523,0.002678,0.000431,0.000823
57753000,0.0324,0.013523,0.002678,0.000431,0.001998
57754000,0.0324,0.013523,0.002678,0.000431,0.527937
57755000,0.0324,0.013523,0.002678,0.000431,0.766401
57756000,0.0324,0.013523,0.002678,0.000431,0.189926
57757000,0.0324,0.013523,0.002678,0.000431,0.136333
57758000,0.0324,0.013523,0.002678,0.000431,0.561785
57759000,0.0324,0.013523,0.002678,0.000431,0.283360
57760000,0.0324,0.013523,0.002678,0.000431,0.285476
57761000,0.0324,0.013523,0.002678,0.000431,0.169241
57762000,0.0324,0.013523,0.002678,0.000431,0.190866
57763000,0.0324,0.013523,0.002678,0.000431,0.088969
57764000,0.0324,0.013523,0.002678,0.000431,0.558964
57765000,0.0324,0.013523,0.002678,0.000431,0.213079
57766000,0.0324,0.013523,0.002678,0.000431,0.165010
57767000,0.0324,0.013523,0.002678,0.000431,0.140799
57768000,0.0324,0.013523,0.002678,0.000431,0.118116
57769000,0.0324,0.013523,0.002678,0.000431,0.096726
57770000,0.0324,0.013523,0.002678,0.000431,0.084503
57771000,0.0324,0.013523,0.002678,0.000431,0.056766
57772000,0.0324,0.013523,0.002678,0.000431,0.046659
57773000,0.0324,0.013523,0.002678,0.000431,0.042780
57774000,0.0324,0.013523,0.002678,0.000431,0.024916
57775000,0.0324,0.013523,0.002678,0.000431,0.021273
57776000,0.0324,0.013523,0.002678,0.000431,0.012693
57777000,0.0324,0.013523,0.002678,0.000431,0.014809
57778000,0.0324,0.013523,0.002678,0.000431,0.013398
57779000,0.0324,0.013523,0.002678,0.000431,0.009520
57780000,0.0324,0.013523,0.002678,0.000431,0.012458
57781000,0.0324,0.013523,0.002678,0.000431,0.006229
57782000,0.0324,0.013523,0.002678,0.000431,0.008697
57783000,0.0324,0.013523,0.002678,0.000431,0.006699
57784000,0.0324,0.013523,0.002678,0.000431,0.004819
57785000,0.0324,0.013523,0.002678,0.000431,0.004584
57786000,0.0324,0.013523,0.002678,0.000431,0.000823
57787000,0.0324,0.013523,0.002678,0.000431,0.000705
57788000,0.0324,0.013523,0.002678,0.000431,0.000940
57789000,0.0324,0.013523,0.002678,0.000431,0.072045
57790000,0.0324,0.013523,0.002678,0.000431,0.745364
57791000,0.0324,0.013523,0.002678,0.000431,0.549092
57792000,0.0324,0.013523,0.002678,0.000431,0.136568
57793000,0.0324,0.013523,0.002678,0.000431,0.230355
57794000,0.0324,0.013523,0.002678,0.000431,0.536634
57795000,0.0324,0.013523,0.002678,0.000431,0.294056
57796000,0.0324,0.013523,0.002678,0.000431,0.253508
57797000,0.0324,0.013523,0.002678,0.000431,0.163717
57798000,0.0324,0.013523,0.002678,0.000431,0.107421
57799000,0.0324,0.013523,0.002678,0.000431,0.365865
57800000,0.0324,0.013523,0.002678,0.000431,0.401359
57801000,0.0324,0.013523,0.002678,0.000431,0.170063
57802000,0.0324,0.013523,0.002678,0.000431,0.151141
57803000,0.0324,0.013523,0.002678,0.000431,0.118116
57804000,0.0324,0.013523,0.002678,0.000431,0.100016
57805000,0.0324,0.013523,0.002678,0.000431,0.065346
57806000,0.0324,0.013523,0.002678,0.000431,0.057706
57807000,0.0324,0.013523,0.002678,0.000431,0.055003
57808000,0.0324,0.013523,0.002678,0.000431,0.038079
57809000,0.0324,0.013523,0.002678,0.000431,0.024328
57810000,0.0324,0.013523,0.002678,0.000431,0.024916
57811000,0.0324,0.013523,0.002678,0.000431,0.020332
57812000,0.0324,0.013523,0.002678,0.000431,0.010225
57813000,0.0324,0.013523,0.002678,0.000431,0.009402
57814000,0.0324,0.013523,0.002678,0.000431,0.004231
57815000,0.0324,0.013523,0.002678,0.000431,0.006111
57816000,0.0324,0.013523,0.002678,0.000431,0.002586
57817000,0.0324,0.013523,0.002678,0.000431,0.006699
57818000,0.0324,0.013523,0.002678,0.000431,0.000823
57819000,0.0324,0.013523,0.002678,0.000431,0.000940
57820000,0.0324,0.013523,0.002678,0.000431,0.000940
57821000,0.0324,0.013523,0.002678,0.000431,0.000705
57822000,0.0324,0.013523,0.002678,0.000431,0.000940
57823000,0.0324,0.013523,0.002678,0.000431,0.000940
57824000,0.0324,0.013523,0.002678,0.000431,0.055943
57825000,0.0324,0.013523,0.002678,0.000431,0.726089
57826000,0.0324,0.013523,0.002678,0.000431,0.570012
57827000,0.0324,0.013523,0.002678,0.000431,0.133982
57828000,0.0324,0.013523,0.002678,0.000431,0.146558
57829000,0.0324,0.013523,0.002678,0.000431,0.553088
57830000,0.0324,0.013523,0.002678,0.000431,0.255859
57831000,0.0324,0.013523,0.002678,0.000431,0.356933
57832000,0.0324,0.013523,0.002678,0.000431,0.165362
57833000,0.0324,0.013523,0.002678,0.000431,0.176762
57834000,0.0324,0.013523,0.002678,0.000431,0.100016
57835000,0.0324,0.013523,0.002678,0.000431,0.560139
57836000,0.0324,0.013523,0.002678,0.000431,0.181581
57837000,0.0324,0.013523,0.002678,0.000431,0.140329
57838000,0.0324,0.013523,0.002678,0.000431,0.128576
57839000,0.0324,0.013523,0.002678,0.000431,0.106951
57840000,0.0324,0.013523,0.002678,0.000431,0.091084
57841000,0.0324,0.013523,0.002678,0.000431,0.083915
57842000,0.0324,0.013523,0.002678,0.000431,0.051360
57843000,0.0324,0.013523,0.002678,0.000431,0.045013
57844000,0.0324,0.013523,0.002678,0.000431,0.032438
57845000,0.0324,0.013523,0.002678,0.000431,0.025504
57846000,0.0324,0.013523,0.002678,0.000431,0.023153
57847000,0.0324,0.013523,0.002678,0.000431,0.016219
57848000,0.0324,0.013523,0.002678,0.000431,0.013046
57849000,0.0324,0.013523,0.002678,0.000431,0.014691
57850000,0.0324,0.013523,0.002678,0.000431,0.007992
57851000,0.0324,0.013523,0.002678,0.000431,0.005054
57852000,0.0324,0.013523,0.002678,0.000431,0.003526
57853000,0.0324,0.013523,0.002678,0.000431,0.000823
57854000,0.0324,0.013523,0.002678,0.000431,0.001058
57855000,0.0324,0.013523,0.002678,0.000431,0.000940
57856000,0.0324,0.013523,0.002678,0.000431,0.000940
57857000,0.0324,0.013523,0.002678,0.000431,0.000705
57858000,0.0324,0.013523,0.002678,0.000431,0.000940
57859000,0.0324,0.013523,0.002678,0.000431,0.000940
57860000,0.0324,0.013523,0.002678,0.000431,0.070634
57861000,0.0324,0.013523,0.002678,0.000431,0.742426
57862000,0.0324,0.013523,0.002678,0.000431,0.529817
57863000,0.0324,0.013523,0.002678,0.000431,0.136333
57864000,0.0324,0.013523,0.002678,0.000431,0.224361
57865000,0.0324,0.013523,0.002678,0.000431,0.529700
57866000,0.0324,0.013523,0.002678,0.000431,0.237289
57867000,0.0324,0.013523,0.002678,0.000431,0.293703
57868000,0.0324,0.013523,0.002678,0.000431,0.158781
57869000,0.0324,0.013523,0.002678,0.000431,0.117528
57870000,0.0324,0.013523,0.002678,0.000431,0.383847
57871000,0.0324,0.013523,0.002678,0.000431,0.387255
57872000,0.0324,0.013523,0.002678,0.000431,0.166302
57873000,0.0324,0.013523,0.002678,0.000431,0.144677
57874000,0.0324,0.013523,0.002678,0.000431,0.123992
57875000,0.0324,0.013523,0.002678,0.000431,0.102250
57876000,0.0324,0.013523,0.002678,0.000431,0.081917
57877000,0.0324,0.013523,0.002678,0.000431,0.059469
57878000,0.0324,0.013523,0.002678,0.000431,0.054533
57879000,0.0324,0.013523,0.002678,0.000431,0.048069
57880000,0.0324,0.013523,0.002678,0.000431,0.037844
57881000,0.0324,0.013523,0.002678,0.000431,0.026796
57882000,0.0324,0.013523,0.002678,0.000431,0.020215
57883000,0.0324,0.013523,0.002678,0.000431,0.015866
57884000,0.0324,0.013523,0.002678,0.000431,0.013163
57885000,0.0324,0.013523,0.002678,0.000431,0.009755
57886000,0.0324,0.013523,0.002678,0.000431,0.010225
57887000,0.0324,0.013523,0.002678,0.000431,0.006582
57888000,0.0324,0.013523,0.002678,0.000431,0.003408
57889000,0.0324,0.013523,0.002678,0.000431,0.005054
57890000,0.0324,0.013523,0.002678,0.000431,0.002938
57891000,0.0324,0.013523,0.002678,0.000431,0.003408
57892000,0.0324,0.013523,0.002678,0.000431,0.001880
57893000,0.0324,0.013523,0.002678,0.000431,0.003056
57894000,0.0324,0.013523,0.002678,0.000431,0.000940
57895000,0.0324,0.013523,0.002678,0.000431,0.000705
57896000,0.0324,0.013523,0.002678,0.000431,0.000940
57897000,0.0324,0.013523,0.002678,0.000431,0.000940
57898000,0.0324,0.013523,0.002678,0.000431,0.000705
57899000,0.0324,0.013523,0.002678,0.000431,0.000940
57900000,0.0324,0.013523,0.002678,0.000431,0.000823
57901000,0.0324,0.013523,0.002678,0.000431,0.000823
57902000,0.0324,0.013523,0.002678,0.000431,0.000940
57903000,0.0324,0.013523,0.002678,0.000431,0.000705
57904000,0.0324,0.013523,0.002678,0.000431,0.000823
57905000,0.0324,0.013523,0.002678,0.000431,0.000823
57906000,0.0324,0.013523,0.002678,0.000431,0.000940
57907000,0.0324,0.013523,0.002678,0.000431,0.001645
57908000,0.0324,0.013523,0.002678,0.000431,0.551912
57909000,0.0324,0.013523,0.002678,0.000431,0.736549
57910000,0.0324,0.013523,0.002678,0.000431,0.161484
57911000,0.0324,0.013523,0.002678,0.000431,0.140211
57912000,0.0324,0.013523,0.002678,0.000431,0.561080
57913000,0.0324,0.013523,0.002678,0.000431,0.277014
57914000,0.0324,0.013523,0.002678,0.000431,0.368216
57915000,0.0324,0.013523,0.002678,0.000431,0.157253
57916000,0.0324,0.013523,0.002678,0.000431,0.128458
57917000,0.0324,0.013523,0.002678,0.000431,0.257152
57918000,0.0324,0.013523,0.002678,0.000431,0.501375
57919000,0.0324,0.013523,0.002678,0.000431,0.189455
57920000,0.0324,0.013523,0.002678,0.000431,0.169593
57921000,0.0324,0.013523,0.002678,0.000431,0.136920
57922000,0.0324,0.013523,0.002678,0.000431,0.124227
57923000,0.0324,0.013523,0.002678,0.000431,0.092612
57924000,0.0324,0.013523,0.002678,0.000431,0.060645
57925000,0.0324,0.013523,0.002678,0.000431,0.060645
57926000,0.0324,0.013523,0.002678,0.000431,0.036199
57927000,0.0324,0.013523,0.002678,0.000431,0.028442
57928000,0.0324,0.013523,0.002678,0.000431,0.023858
57929000,0.0324,0.013523,0.002678,0.000431,0.017747
57930000,0.0324,0.013523,0.002678,0.000431,0.013281
57931000,0.0324,0.013523,0.002678,0.000431,0.007287
57932000,0.0324,0.013523,0.002678,0.000431,0.003526
57933000,0.0324,0.013523,0.002678,0.000431,0.007992
57934000,0.0324,0.013523,0.002678,0.000431,0.001645
57935000,0.0324,0.013523,0.002678,0.000431,0.003761
57936000,0.0324,0.013523,0.002678,0.000431,0.003643
57937000,0.0324,0.013523,0.002678,0.000431,0.000940
57938000,0.0324,0.013523,0.002678,0.000431,0.000940
57939000,0.0324,0.013523,0.002678,0.000431,0.000940
57940000,0.0324,0.013523,0.002678,0.000431,0.263263
57941000,0.0324,0.013523,0.002678,0.000431,0.710928
57942000,0.0324,0.013523,0.002678,0.000431,0.441201
57943000,0.0324,0.013523,0.002678,0.000431,0.139859
57944000,0.0324,0.013523,0.002678,0.000431,0.460593
57945000,0.0324,0.013523,0.002678,0.000431,0.299814
57946000,0.0324,0.013523,0.002678,0.000431,0.294408
57947000,0.0324,0.013523,0.002678,0.000431,0.240228
57948000,0.0324,0.013523,0.002678,0.000431,0.161366
57949000,0.0324,0.013523,0.002678,0.000431,0.108596
57950000,0.0324,0.013523,0.002678,0.000431,0.508662
57951000,0.0324,0.013523,0.002678,0.000431,0.285476
57952000,0.0324,0.013523,0.002678,0.000431,0.180523
57953000,0.0324,0.013523,0.002678,0.000431,0.147498
57954000,0.0324,0.013523,0.002678,0.000431,0.135863
57955000,0.0324,0.013523,0.002678,0.000431,0.094258
57956000,0.0324,0.013523,0.002678,0.000431,0.085443
57957000,0.0324,0.013523,0.002678,0.000431,0.076393
57958000,0.0324,0.013523,0.002678,0.000431,0.051477
57959000,0.0324,0.013523,0.002678,0.000431,0.041723
57960000,0.0324,0.013523,0.002678,0.000431,0.028207
57961000,0.0324,0.013523,0.002678,0.000431,0.030205
57962000,0.0324,0.013523,0.002678,0.000431,0.027384
57963000,0.0324,0.013523,0.002678,0.000431,0.013986
57964000,0.0324,0.013523,0.002678,0.000431,0.008815
57965000,0.0324,0.013523,0.002678,0.000431,0.006934
57966000,0.0324,0.013523,0.002678,0.000431,0.007522
57967000,0.0324,0.013523,0.002678,0.000431,0.007639
57968000,0.0324,0.013523,0.002678,0.000431,0.002703
57969000,0.0324,0.013523,0.002678,0.000431,0.002821
57970000,0.0324,0.013523,0.002678,0.000431,0.002703
57971000,0.0324,0.013523,0.002678,0.000431,0.004231
57972000,0.0324,0.013523,0.002678,0.000431,0.001880
57973000,0.0324,0.013523,0.002678,0.000431,0.004466
57974000,0.0324,0.013523,0.002678,0.000431,0.000940
57975000,0.0324,0.013523,0.002678,0.000431,0.002703
57976000,0.0324,0.013523,0.002678,0.000431,0.372564
57977000,0.0324,0.013523,0.002678,0.000431,0.808476
57978000,0.0324,0.013523,0.002678,0.000431,0.244576
57979000,0.0324,0.013523,0.002678,0.000431,0.137273
57980000,0.0324,0.013523,0.002678,0.000431,0.517594
57981000,0.0324,0.013523,0.002678,0.000431,0.260560
57982000,0.0324,0.013523,0.002678,0.000431,0.306513
57983000,0.0324,0.013523,0.002678,0.000431,0.205087
57984000,0.0324,0.013523,0.002678,0.000431,0.185577
57985000,0.0324,0.013523,0.002678,0.000431,0.086971
57986000,0.0324,0.013523,0.002678,0.000431,0.563665
57987000,0.0324,0.013523,0.002678,0.000431,0.190043
57988000,0.0324,0.013523,0.002678,0.000431,0.133512
57989000,0.0324,0.013523,0.002678,0.000431,0.117293
57990000,0.0324,0.013523,0.002678,0.000431,0.116823
57991000,0.0324,0.013523,0.002678,0.000431,0.092260
57992000,0.0324,0.013523,0.002678,0.000431,0.069694
57993000,0.0324,0.013523,0.002678,0.000431,0.053828
57994000,0.0324,0.013523,0.002678,0.000431,0.039960
57995000,0.0324,0.013523,0.002678,0.000431,0.026679
57996000,0.0324,0.013523,0.002678,0.000431,0.025386
57997000,0.0324,0.013523,0.002678,0.000431,0.020450
57998000,0.0324,0.013523,0.002678,0.000431,0.017042
57999000,0.0324,0.013523,0.002678,0.000431,0.016336
