Cycle,Area(mm^2),PeakDynamic(W),SubthresholdLeakage(W),GateLeakage(W),RunTimeDynamic(W)
55000000,0.0324,0.013523,0.002678,0.000431,0.053945
55001000,0.0324,0.013523,0.002678,0.000431,0.053358
55002000,0.0324,0.013523,0.002678,0.000431,0.037374
55003000,0.0324,0.013523,0.002678,0.000431,0.033378
55004000,0.0324,0.013523,0.002678,0.000431,0.032203
55005000,0.0324,0.013523,0.002678,0.000431,0.029617
55006000,0.0324,0.013523,0.002678,0.000431,0.019627
55007000,0.0324,0.013523,0.002678,0.000431,0.024563
55008000,0.0324,0.013523,0.002678,0.000431,0.018099
55009000,0.0324,0.013523,0.002678,0.000431,0.009872
55010000,0.0324,0.013523,0.002678,0.000431,0.009990
55011000,0.0324,0.013523,0.002678,0.000431,0.009520
55012000,0.0324,0.013523,0.002678,0.000431,0.011400
55013000,0.0324,0.013523,0.002678,0.000431,0.007639
55014000,0.0324,0.013523,0.002678,0.000431,0.007169
55015000,0.0324,0.013523,0.002678,0.000431,0.011635
55016000,0.0324,0.013523,0.002678,0.000431,0.005994
55017000,0.0324,0.013523,0.002678,0.000431,0.006699
55018000,0.0324,0.013523,0.002678,0.000431,0.005406
55019000,0.0324,0.013523,0.002678,0.000431,0.002821
55020000,0.0324,0.013523,0.002678,0.000431,0.003878
55021000,0.0324,0.013523,0.002678,0.000431,0.003526
55022000,0.0324,0.013523,0.002678,0.000431,0.001880
55023000,0.0324,0.013523,0.002678,0.000431,0.003643
55024000,0.0324,0.013523,0.002678,0.000431,0.000940
55025000,0.0324,0.013523,0.002678,0.000431,0.000705
55026000,0.0324,0.013523,0.002678,0.000431,0.000940
55027000,0.0324,0.013523,0.002678,0.000431,0.000940
55028000,0.0324,0.013523,0.002678,0.000431,0.000823
55029000,0.0324,0.013523,0.002678,0.000431,0.000940
55030000,0.0324,0.013523,0.002678,0.000431,0.000823
55031000,0.0324,0.013523,0.002678,0.000431,0.000940
55032000,0.0324,0.013523,0.002678,0.000431,0.000823
55033000,0.0324,0.013523,0.002678,0.000431,0.000823
55034000,0.0324,0.013523,0.002678,0.000431,0.000940
55035000,0.0324,0.013523,0.002678,0.000431,0.000940
55036000,0.0324,0.013523,0.002678,0.000431,0.000823
55037000,0.0324,0.013523,0.002678,0.000431,0.000823
55038000,0.0324,0.013523,0.002678,0.000431,0.000940
55039000,0.0324,0.013523,0.002678,0.000431,0.000940
55040000,0.0324,0.013523,0.002678,0.000431,0.000705
55041000,0.0324,0.013523,0.002678,0.000431,0.000940
55042000,0.0324,0.013523,0.002678,0.000431,0.000940
55043000,0.0324,0.013523,0.002678,0.000431,0.008932
55044000,0.0324,0.013523,0.002678,0.000431,0.673907
55045000,0.0324,0.013523,0.002678,0.000431,0.644760
55046000,0.0324,0.013523,0.002678,0.000431,0.138918
55047000,0.0324,0.013523,0.002678,0.000431,0.147498
55048000,0.0324,0.013523,0.002678,0.000431,0.575300
55049000,0.0324,0.013523,0.002678,0.000431,0.269962
55050000,0.0324,0.013523,0.002678,0.000431,0.337541
55051000,0.0324,0.013523,0.002678,0.000431,0.156195
55052000,0.0324,0.013523,0.002678,0.000431,0.169006
55053000,0.0324,0.013523,0.002678,0.000431,0.155960
55054000,0.0324,0.013523,0.002678,0.000431,0.535576
55055000,0.0324,0.013523,0.002678,0.000431,0.227887
55056000,0.0324,0.013523,0.002678,0.000431,0.185107
55057000,0.0324,0.013523,0.002678,0.000431,0.155372
55058000,0.0324,0.013523,0.002678,0.000431,0.139271
55059000,0.0324,0.013523,0.002678,0.000431,0.089792
55060000,0.0324,0.013523,0.002678,0.000431,0.075218
55061000,0.0324,0.013523,0.002678,0.000431,0.050772
55062000,0.0324,0.013523,0.002678,0.000431,0.032908
55063000,0.0324,0.013523,0.002678,0.000431,0.039254
55064000,0.0324,0.013523,0.002678,0.000431,0.025386
55065000,0.0324,0.013523,0.002678,0.000431,0.016454
55066000,0.0324,0.013523,0.002678,0.000431,0.019275
55067000,0.0324,0.013523,0.002678,0.000431,0.013281
55068000,0.0324,0.013523,0.002678,0.000431,0.015044
55069000,0.0324,0.013523,0.002678,0.000431,0.007052
55070000,0.0324,0.013523,0.002678,0.000431,0.007052
55071000,0.0324,0.013523,0.002678,0.000431,0.007639
55072000,0.0324,0.013523,0.002678,0.000431,0.007757
55073000,0.0324,0.013523,0.002678,0.000431,0.006111
55074000,0.0324,0.013523,0.002678,0.000431,0.013516
55075000,0.0324,0.013523,0.002678,0.000431,0.008580
55076000,0.0324,0.013523,0.002678,0.000431,0.002233
55077000,0.0324,0.013523,0.002678,0.000431,0.002586
55078000,0.0324,0.013523,0.002678,0.000431,0.002586
55079000,0.0324,0.013523,0.002678,0.000431,0.003878
55080000,0.0324,0.013523,0.002678,0.000431,0.003056
55081000,0.0324,0.013523,0.002678,0.000431,0.001058
55082000,0.0324,0.013523,0.002678,0.000431,0.000823
55083000,0.0324,0.013523,0.002678,0.000431,0.000823
55084000,0.0324,0.013523,0.002678,0.000431,0.000940
55085000,0.0324,0.013523,0.002678,0.000431,0.000823
55086000,0.0324,0.013523,0.002678,0.000431,0.014221
55087000,0.0324,0.013523,0.002678,0.000431,0.770985
55088000,0.0324,0.013523,0.002678,0.000431,0.573185
55089000,0.0324,0.013523,0.002678,0.000431,0.134922
55090000,0.0324,0.013523,0.002678,0.000431,0.138213
55091000,0.0324,0.013523,0.002678,0.000431,0.582940
55092000,0.0324,0.013523,0.002678,0.000431,0.233528
55093000,0.0324,0.013523,0.002678,0.000431,0.320382
55094000,0.0324,0.013523,0.002678,0.000431,0.155725
55095000,0.0324,0.013523,0.002678,0.000431,0.172414
55096000,0.0324,0.013523,0.002678,0.000431,0.149496
55097000,0.0324,0.013523,0.002678,0.000431,0.535106
55098000,0.0324,0.013523,0.002678,0.000431,0.194627
55099000,0.0324,0.013523,0.002678,0.000431,0.166537
55100000,0.0324,0.013523,0.002678,0.000431,0.145030
55101000,0.0324,0.013523,0.002678,0.000431,0.118116
55102000,0.0324,0.013523,0.002678,0.000431,0.093317
55103000,0.0324,0.013523,0.002678,0.000431,0.063465
55104000,0.0324,0.013523,0.002678,0.000431,0.056766
55105000,0.0324,0.013523,0.002678,0.000431,0.050420
55106000,0.0324,0.013523,0.002678,0.000431,0.035376
55107000,0.0324,0.013523,0.002678,0.000431,0.017159
55108000,0.0324,0.013523,0.002678,0.000431,0.020920
55109000,0.0324,0.013523,0.002678,0.000431,0.013046
55110000,0.0324,0.013523,0.002678,0.000431,0.015866
55111000,0.0324,0.013523,0.002678,0.000431,0.014338
55112000,0.0324,0.013523,0.002678,0.000431,0.005054
55113000,0.0324,0.013523,0.002678,0.000431,0.007404
55114000,0.0324,0.013523,0.002678,0.000431,0.005759
55115000,0.0324,0.013523,0.002678,0.000431,0.003526
55116000,0.0324,0.013523,0.002678,0.000431,0.007757
55117000,0.0324,0.013523,0.002678,0.000431,0.001528
55118000,0.0324,0.013523,0.002678,0.000431,0.001763
55119000,0.0324,0.013523,0.002678,0.000431,0.001645
55120000,0.0324,0.013523,0.002678,0.000431,0.001175
55121000,0.0324,0.013523,0.002678,0.000431,0.000823
55122000,0.0324,0.013523,0.002678,0.000431,0.071810
55123000,0.0324,0.013523,0.002678,0.000431,0.724209
55124000,0.0324,0.013523,0.002678,0.000431,0.565428
55125000,0.0324,0.013523,0.002678,0.000431,0.135392
55126000,0.0324,0.013523,0.002678,0.000431,0.136098
55127000,0.0324,0.013523,0.002678,0.000431,0.547916
55128000,0.0324,0.013523,0.002678,0.000431,0.264909
55129000,0.0324,0.013523,0.002678,0.000431,0.307101
55130000,0.0324,0.013523,0.002678,0.000431,0.145382
55131000,0.0324,0.013523,0.002678,0.000431,0.166537
55132000,0.0324,0.013523,0.002678,0.000431,0.109536
55133000,0.0324,0.013523,0.002678,0.000431,0.522178
55134000,0.0324,0.013523,0.002678,0.000431,0.242578
55135000,0.0324,0.013523,0.002678,0.000431,0.163129
55136000,0.0324,0.013523,0.002678,0.000431,0.148908
55137000,0.0324,0.013523,0.002678,0.000431,0.139859
55138000,0.0324,0.013523,0.002678,0.000431,0.096961
55139000,0.0324,0.013523,0.002678,0.000431,0.079449
55140000,0.0324,0.013523,0.002678,0.000431,0.067226
55141000,0.0324,0.013523,0.002678,0.000431,0.073220
55142000,0.0324,0.013523,0.002678,0.000431,0.041605
55143000,0.0324,0.013523,0.002678,0.000431,0.040900
55144000,0.0324,0.013523,0.002678,0.000431,0.039254
55145000,0.0324,0.013523,0.002678,0.000431,0.032203
55146000,0.0324,0.013523,0.002678,0.000431,0.029147
55147000,0.0324,0.013523,0.002678,0.000431,0.023506
55148000,0.0324,0.013523,0.002678,0.000431,0.021038
55149000,0.0324,0.013523,0.002678,0.000431,0.018922
55150000,0.0324,0.013523,0.002678,0.000431,0.013163
55151000,0.0324,0.013523,0.002678,0.000431,0.005054
55152000,0.0324,0.013523,0.002678,0.000431,0.007052
55153000,0.0324,0.013523,0.002678,0.000431,0.004231
55154000,0.0324,0.013523,0.002678,0.000431,0.004231
55155000,0.0324,0.013523,0.002678,0.000431,0.005289
55156000,0.0324,0.013523,0.002678,0.000431,0.004466
55157000,0.0324,0.013523,0.002678,0.000431,0.003408
55158000,0.0324,0.013523,0.002678,0.000431,0.003173
55159000,0.0324,0.013523,0.002678,0.000431,0.003526
55160000,0.0324,0.013523,0.002678,0.000431,0.005524
55161000,0.0324,0.013523,0.002678,0.000431,0.002586
55162000,0.0324,0.013523,0.002678,0.000431,0.004819
55163000,0.0324,0.013523,0.002678,0.000431,0.001763
55164000,0.0324,0.013523,0.002678,0.000431,0.004231
55165000,0.0324,0.013523,0.002678,0.000431,0.000705
55166000,0.0324,0.013523,0.002678,0.000431,0.000940
55167000,0.0324,0.013523,0.002678,0.000431,0.000823
55168000,0.0324,0.013523,0.002678,0.000431,0.000823
55169000,0.0324,0.013523,0.002678,0.000431,0.000940
55170000,0.0324,0.013523,0.002678,0.000431,0.000705
55171000,0.0324,0.013523,0.002678,0.000431,0.000940
55172000,0.0324,0.013523,0.002678,0.000431,0.000823
55173000,0.0324,0.013523,0.002678,0.000431,0.000823
55174000,0.0324,0.013523,0.002678,0.000431,0.000705
55175000,0.0324,0.013523,0.002678,0.000431,0.000940
55176000,0.0324,0.013523,0.002678,0.000431,0.000940
55177000,0.0324,0.013523,0.002678,0.000431,0.000705
55178000,0.0324,0.013523,0.002678,0.000431,0.000940
55179000,0.0324,0.013523,0.002678,0.000431,0.000705
55180000,0.0324,0.013523,0.002678,0.000431,0.000940
55181000,0.0324,0.013523,0.002678,0.000431,0.000823
55182000,0.0324,0.013523,0.002678,0.000431,0.000823
55183000,0.0324,0.013523,0.002678,0.000431,0.000705
55184000,0.0324,0.013523,0.002678,0.000431,0.000940
55185000,0.0324,0.013523,0.002678,0.000431,0.000705
55186000,0.0324,0.013523,0.002678,0.000431,0.244811
55187000,0.0324,0.013523,0.002678,0.000431,0.658158
55188000,0.0324,0.013523,0.002678,0.000431,0.461298
55189000,0.0324,0.013523,0.002678,0.000431,0.134922
55190000,0.0324,0.013523,0.002678,0.000431,0.233881
55191000,0.0324,0.013523,0.002678,0.000431,0.468350
55192000,0.0324,0.013523,0.002678,0.000431,0.233411
55193000,0.0324,0.013523,0.002678,0.000431,0.321322
55194000,0.0324,0.013523,0.002678,0.000431,0.144325
55195000,0.0324,0.013523,0.002678,0.000431,0.191101
55196000,0.0324,0.013523,0.002678,0.000431,0.093317
55197000,0.0324,0.013523,0.002678,0.000431,0.551090
55198000,0.0324,0.013523,0.002678,0.000431,0.261500
55199000,0.0324,0.013523,0.002678,0.000431,0.178173
55200000,0.0324,0.013523,0.002678,0.000431,0.157488
55201000,0.0324,0.013523,0.002678,0.000431,0.131161
55202000,0.0324,0.013523,0.002678,0.000431,0.108949
55203000,0.0324,0.013523,0.002678,0.000431,0.086618
55204000,0.0324,0.013523,0.002678,0.000431,0.061585
55205000,0.0324,0.013523,0.002678,0.000431,0.055826
55206000,0.0324,0.013523,0.002678,0.000431,0.047951
55207000,0.0324,0.013523,0.002678,0.000431,0.033143
55208000,0.0324,0.013523,0.002678,0.000431,0.033025
55209000,0.0324,0.013523,0.002678,0.000431,0.015514
55210000,0.0324,0.013523,0.002678,0.000431,0.019157
55211000,0.0324,0.013523,0.002678,0.000431,0.005994
55212000,0.0324,0.013523,0.002678,0.000431,0.004349
55213000,0.0324,0.013523,0.002678,0.000431,0.002703
55214000,0.0324,0.013523,0.002678,0.000431,0.004584
55215000,0.0324,0.013523,0.002678,0.000431,0.001880
55216000,0.0324,0.013523,0.002678,0.000431,0.003643
55217000,0.0324,0.013523,0.002678,0.000431,0.001058
55218000,0.0324,0.013523,0.002678,0.000431,0.072750
55219000,0.0324,0.013523,0.002678,0.000431,0.803070
55220000,0.0324,0.013523,0.002678,0.000431,0.531697
55221000,0.0324,0.013523,0.002678,0.000431,0.136803
55222000,0.0324,0.013523,0.002678,0.000431,0.204146
55223000,0.0324,0.013523,0.002678,0.000431,0.491738
55224000,0.0324,0.013523,0.002678,0.000431,0.285829
55225000,0.0324,0.013523,0.002678,0.000431,0.322262
55226000,0.0324,0.013523,0.002678,0.000431,0.143972
55227000,0.0324,0.013523,0.002678,0.000431,0.129986
55228000,0.0324,0.013523,0.002678,0.000431,0.307689
55229000,0.0324,0.013523,0.002678,0.000431,0.427450
55230000,0.0324,0.013523,0.002678,0.000431,0.176880
55231000,0.0324,0.013523,0.002678,0.000431,0.152317
55232000,0.0324,0.013523,0.002678,0.000431,0.125990
55233000,0.0324,0.013523,0.002678,0.000431,0.098606
55234000,0.0324,0.013523,0.002678,0.000431,0.086383
55235000,0.0324,0.013523,0.002678,0.000431,0.070634
55236000,0.0324,0.013523,0.002678,0.000431,0.052653
55237000,0.0324,0.013523,0.002678,0.000431,0.041135
55238000,0.0324,0.013523,0.002678,0.000431,0.025034
55239000,0.0324,0.013523,0.002678,0.000431,0.021743
55240000,0.0324,0.013523,0.002678,0.000431,0.018452
55241000,0.0324,0.013523,0.002678,0.000431,0.011400
55242000,0.0324,0.013523,0.002678,0.000431,0.013398
55243000,0.0324,0.013523,0.002678,0.000431,0.006817
55244000,0.0324,0.013523,0.002678,0.000431,0.003761
55245000,0.0324,0.013523,0.002678,0.000431,0.005171
55246000,0.0324,0.013523,0.002678,0.000431,0.004231
55247000,0.0324,0.013523,0.002678,0.000431,0.004231
55248000,0.0324,0.013523,0.002678,0.000431,0.001880
55249000,0.0324,0.013523,0.002678,0.000431,0.001528
55250000,0.0324,0.013523,0.002678,0.000431,0.001763
55251000,0.0324,0.013523,0.002678,0.000431,0.003761
55252000,0.0324,0.013523,0.002678,0.000431,0.000823
55253000,0.0324,0.013523,0.002678,0.000431,0.000823
55254000,0.0324,0.013523,0.002678,0.000431,0.000823
55255000,0.0324,0.013523,0.002678,0.000431,0.000940
55256000,0.0324,0.013523,0.002678,0.000431,0.000940
55257000,0.0324,0.013523,0.002678,0.000431,0.001880
55258000,0.0324,0.013523,0.002678,0.000431,0.446725
55259000,0.0324,0.013523,0.002678,0.000431,0.779447
55260000,0.0324,0.013523,0.002678,0.000431,0.178290
55261000,0.0324,0.013523,0.002678,0.000431,0.136803
55262000,0.0324,0.013523,0.002678,0.000431,0.515361
55263000,0.0324,0.013523,0.002678,0.000431,0.258680
55264000,0.0324,0.013523,0.002678,0.000431,0.303575
55265000,0.0324,0.013523,0.002678,0.000431,0.198858
55266000,0.0324,0.013523,0.002678,0.000431,0.186282
55267000,0.0324,0.013523,0.002678,0.000431,0.097196
55268000,0.0324,0.013523,0.002678,0.000431,0.537104
55269000,0.0324,0.013523,0.002678,0.000431,0.183461
55270000,0.0324,0.013523,0.002678,0.000431,0.127988
55271000,0.0324,0.013523,0.002678,0.000431,0.116823
55272000,0.0324,0.013523,0.002678,0.000431,0.093435
55273000,0.0324,0.013523,0.002678,0.000431,0.078979
55274000,0.0324,0.013523,0.002678,0.000431,0.061115
55275000,0.0324,0.013523,0.002678,0.000431,0.048539
55276000,0.0324,0.013523,0.002678,0.000431,0.034436
55277000,0.0324,0.013523,0.002678,0.000431,0.031498
55278000,0.0324,0.013523,0.002678,0.000431,0.030557
55279000,0.0324,0.013523,0.002678,0.000431,0.012223
55280000,0.0324,0.013523,0.002678,0.000431,0.013751
55281000,0.0324,0.013523,0.002678,0.000431,0.009402
55282000,0.0324,0.013523,0.002678,0.000431,0.009167
55283000,0.0324,0.013523,0.002678,0.000431,0.005994
55284000,0.0324,0.013523,0.002678,0.000431,0.008815
55285000,0.0324,0.013523,0.002678,0.000431,0.001763
55286000,0.0324,0.013523,0.002678,0.000431,0.003878
55287000,0.0324,0.013523,0.002678,0.000431,0.001058
55288000,0.0324,0.013523,0.002678,0.000431,0.000705
55289000,0.0324,0.013523,0.002678,0.000431,0.001998
55290000,0.0324,0.013523,0.002678,0.000431,0.483511
55291000,0.0324,0.013523,0.002678,0.000431,0.715277
55292000,0.0324,0.013523,0.002678,0.000431,0.160191
55293000,0.0324,0.013523,0.002678,0.000431,0.136803
55294000,0.0324,0.013523,0.002678,0.000431,0.539337
55295000,0.0324,0.013523,0.002678,0.000431,0.252333
55296000,0.0324,0.013523,0.002678,0.000431,0.287356
55297000,0.0324,0.013523,0.002678,0.000431,0.194862
55298000,0.0324,0.013523,0.002678,0.000431,0.169006
55299000,0.0324,0.013523,0.002678,0.000431,0.106833
55300000,0.0324,0.013523,0.002678,0.000431,0.516654
55301000,0.0324,0.013523,0.002678,0.000431,0.271960
55302000,0.0324,0.013523,0.002678,0.000431,0.180053
55303000,0.0324,0.013523,0.002678,0.000431,0.147968
55304000,0.0324,0.013523,0.002678,0.000431,0.135510
55305000,0.0324,0.013523,0.002678,0.000431,0.096726
55306000,0.0324,0.013523,0.002678,0.000431,0.085090
55307000,0.0324,0.013523,0.002678,0.000431,0.066521
55308000,0.0324,0.013523,0.002678,0.000431,0.053240
55309000,0.0324,0.013523,0.002678,0.000431,0.046894
55310000,0.0324,0.013523,0.002678,0.000431,0.031027
55311000,0.0324,0.013523,0.002678,0.000431,0.024798
55312000,0.0324,0.013523,0.002678,0.000431,0.020332
55313000,0.0324,0.013523,0.002678,0.000431,0.011753
55314000,0.0324,0.013523,0.002678,0.000431,0.007169
55315000,0.0324,0.013523,0.002678,0.000431,0.003643
55316000,0.0324,0.013523,0.002678,0.000431,0.001528
55317000,0.0324,0.013523,0.002678,0.000431,0.000940
55318000,0.0324,0.013523,0.002678,0.000431,0.001528
55319000,0.0324,0.013523,0.002678,0.000431,0.000940
55320000,0.0324,0.013523,0.002678,0.000431,0.014809
55321000,0.0324,0.013523,0.002678,0.000431,0.742308
55322000,0.0324,0.013523,0.002678,0.000431,0.554498
55323000,0.0324,0.013523,0.002678,0.000431,0.137038
55324000,0.0324,0.013523,0.002678,0.000431,0.137038
55325000,0.0324,0.013523,0.002678,0.000431,0.541570
55326000,0.0324,0.013523,0.002678,0.000431,0.264556
55327000,0.0324,0.013523,0.002678,0.000431,0.281950
55328000,0.0324,0.013523,0.002678,0.000431,0.151729
55329000,0.0324,0.013523,0.002678,0.000431,0.198035
55330000,0.0324,0.013523,0.002678,0.000431,0.088616
55331000,0.0324,0.013523,0.002678,0.000431,0.549562
55332000,0.0324,0.013523,0.002678,0.000431,0.206144
55333000,0.0324,0.013523,0.002678,0.000431,0.170063
55334000,0.0324,0.013523,0.002678,0.000431,0.141621
55335000,0.0324,0.013523,0.002678,0.000431,0.114590
55336000,0.0324,0.013523,0.002678,0.000431,0.089086
55337000,0.0324,0.013523,0.002678,0.000431,0.070047
55338000,0.0324,0.013523,0.002678,0.000431,0.058999
55339000,0.0324,0.013523,0.002678,0.000431,0.054533
55340000,0.0324,0.013523,0.002678,0.000431,0.044308
55341000,0.0324,0.013523,0.002678,0.000431,0.029500
55342000,0.0324,0.013523,0.002678,0.000431,0.023623
55343000,0.0324,0.013523,0.002678,0.000431,0.015396
55344000,0.0324,0.013523,0.002678,0.000431,0.008932
55345000,0.0324,0.013523,0.002678,0.000431,0.005054
55346000,0.0324,0.013523,0.002678,0.000431,0.004584
55347000,0.0324,0.013523,0.002678,0.000431,0.003526
55348000,0.0324,0.013523,0.002678,0.000431,0.000823
55349000,0.0324,0.013523,0.002678,0.000431,0.000823
55350000,0.0324,0.013523,0.002678,0.000431,0.254566
55351000,0.0324,0.013523,0.002678,0.000431,0.726559
55352000,0.0324,0.013523,0.002678,0.000431,0.394777
55353000,0.0324,0.013523,0.002678,0.000431,0.135275
55354000,0.0324,0.013523,0.002678,0.000431,0.428273
55355000,0.0324,0.013523,0.002678,0.000431,0.278307
55356000,0.0324,0.013523,0.002678,0.000431,0.264556
55357000,0.0324,0.013523,0.002678,0.000431,0.277837
55358000,0.0324,0.013523,0.002678,0.000431,0.154667
55359000,0.0324,0.013523,0.002678,0.000431,0.146910
55360000,0.0324,0.013523,0.002678,0.000431,0.244694
55361000,0.0324,0.013523,0.002678,0.000431,0.491503
55362000,0.0324,0.013523,0.002678,0.000431,0.179583
55363000,0.0324,0.013523,0.002678,0.000431,0.163364
55364000,0.0324,0.013523,0.002678,0.000431,0.127636
55365000,0.0324,0.013523,0.002678,0.000431,0.100252
55366000,0.0324,0.013523,0.002678,0.000431,0.083327
55367000,0.0324,0.013523,0.002678,0.000431,0.070164
55368000,0.0324,0.013523,0.002678,0.000431,0.039842
55369000,0.0324,0.013523,0.002678,0.000431,0.021038
55370000,0.0324,0.013523,0.002678,0.000431,0.012576
55371000,0.0324,0.013523,0.002678,0.000431,0.013281
55372000,0.0324,0.013523,0.002678,0.000431,0.009167
55373000,0.0324,0.013523,0.002678,0.000431,0.002351
55374000,0.0324,0.013523,0.002678,0.000431,0.007639
55375000,0.0324,0.013523,0.002678,0.000431,0.001175
55376000,0.0324,0.013523,0.002678,0.000431,0.000823
55377000,0.0324,0.013523,0.002678,0.000431,0.000940
55378000,0.0324,0.013523,0.002678,0.000431,0.001058
55379000,0.0324,0.013523,0.002678,0.000431,0.001058
55380000,0.0324,0.013523,0.002678,0.000431,0.001175
55381000,0.0324,0.013523,0.002678,0.000431,0.001058
55382000,0.0324,0.013523,0.002678,0.000431,0.267612
55383000,0.0324,0.013523,0.002678,0.000431,0.767342
55384000,0.0324,0.013523,0.002678,0.000431,0.369744
55385000,0.0324,0.013523,0.002678,0.000431,0.137155
55386000,0.0324,0.013523,0.002678,0.000431,0.525704
55387000,0.0324,0.013523,0.002678,0.000431,0.292645
55388000,0.0324,0.013523,0.002678,0.000431,0.257034
55389000,0.0324,0.013523,0.002678,0.000431,0.219073
55390000,0.0324,0.013523,0.002678,0.000431,0.155372
55391000,0.0324,0.013523,0.002678,0.000431,0.106010
55392000,0.0324,0.013523,0.002678,0.000431,0.508074
55393000,0.0324,0.013523,0.002678,0.000431,0.282185
55394000,0.0324,0.013523,0.002678,0.000431,0.174764
55395000,0.0324,0.013523,0.002678,0.000431,0.159133
55396000,0.0324,0.013523,0.002678,0.000431,0.141151
55397000,0.0324,0.013523,0.002678,0.000431,0.115648
55398000,0.0324,0.013523,0.002678,0.000431,0.106010
55399000,0.0324,0.013523,0.002678,0.000431,0.104953
55400000,0.0324,0.013523,0.002678,0.000431,0.090027
55401000,0.0324,0.013523,0.002678,0.000431,0.057706
55402000,0.0324,0.013523,0.002678,0.000431,0.049479
55403000,0.0324,0.013523,0.002678,0.000431,0.041958
55404000,0.0324,0.013523,0.002678,0.000431,0.033613
55405000,0.0324,0.013523,0.002678,0.000431,0.028677
55406000,0.0324,0.013523,0.002678,0.000431,0.020215
55407000,0.0324,0.013523,0.002678,0.000431,0.016454
55408000,0.0324,0.013523,0.002678,0.000431,0.015161
55409000,0.0324,0.013523,0.002678,0.000431,0.015984
55410000,0.0324,0.013523,0.002678,0.000431,0.015161
55411000,0.0324,0.013523,0.002678,0.000431,0.004466
55412000,0.0324,0.013523,0.002678,0.000431,0.002586
55413000,0.0324,0.013523,0.002678,0.000431,0.000705
55414000,0.0324,0.013523,0.002678,0.000431,0.000940
55415000,0.0324,0.013523,0.002678,0.000431,0.000940
55416000,0.0324,0.013523,0.002678,0.000431,0.000705
55417000,0.0324,0.013523,0.002678,0.000431,0.000940
55418000,0.0324,0.013523,0.002678,0.000431,0.000705
55419000,0.0324,0.013523,0.002678,0.000431,0.000940
55420000,0.0324,0.013523,0.002678,0.000431,0.000823
55421000,0.0324,0.013523,0.002678,0.000431,0.000823
55422000,0.0324,0.013523,0.002678,0.000431,0.000823
55423000,0.0324,0.013523,0.002678,0.000431,0.000823
55424000,0.0324,0.013523,0.002678,0.000431,0.000940
55425000,0.0324,0.013523,0.002678,0.000431,0.000705
55426000,0.0324,0.013523,0.002678,0.000431,0.000940
55427000,0.0324,0.013523,0.002678,0.000431,0.000823
55428000,0.0324,0.013523,0.002678,0.000431,0.000823
55429000,0.0324,0.013523,0.002678,0.000431,0.000705
55430000,0.0324,0.013523,0.002678,0.000431,0.000940
55431000,0.0324,0.013523,0.002678,0.000431,0.000705
55432000,0.0324,0.013523,0.002678,0.000431,0.000940
55433000,0.0324,0.013523,0.002678,0.000431,0.000705
55434000,0.0324,0.013523,0.002678,0.000431,0.000940
55435000,0.0324,0.013523,0.002678,0.000431,0.000823
55436000,0.0324,0.013523,0.002678,0.000431,0.000823
55437000,0.0324,0.013523,0.002678,0.000431,0.000705
55438000,0.0324,0.013523,0.002678,0.000431,0.254331
55439000,0.0324,0.013523,0.002678,0.000431,0.695884
55440000,0.0324,0.013523,0.002678,0.000431,0.456832
55441000,0.0324,0.013523,0.002678,0.000431,0.136803
55442000,0.0324,0.013523,0.002678,0.000431,0.398656
55443000,0.0324,0.013523,0.002678,0.000431,0.362927
55444000,0.0324,0.013523,0.002678,0.000431,0.274546
55445000,0.0324,0.013523,0.002678,0.000431,0.280305
55446000,0.0324,0.013523,0.002678,0.000431,0.161484
55447000,0.0324,0.013523,0.002678,0.000431,0.101309
55448000,0.0324,0.013523,0.002678,0.000431,0.427920
55449000,0.0324,0.013523,0.002678,0.000431,0.302870
55450000,0.0324,0.013523,0.002678,0.000431,0.161954
55451000,0.0324,0.013523,0.002678,0.000431,0.131749
55452000,0.0324,0.013523,0.002678,0.000431,0.096961
55453000,0.0324,0.013523,0.002678,0.000431,0.087558
55454000,0.0324,0.013523,0.002678,0.000431,0.079567
55455000,0.0324,0.013523,0.002678,0.000431,0.055003
55456000,0.0324,0.013523,0.002678,0.000431,0.050537
55457000,0.0324,0.013523,0.002678,0.000431,0.036551
55458000,0.0324,0.013523,0.002678,0.000431,0.038079
55459000,0.0324,0.013523,0.002678,0.000431,0.031262
55460000,0.0324,0.013523,0.002678,0.000431,0.027031
55461000,0.0324,0.013523,0.002678,0.000431,0.023388
55462000,0.0324,0.013523,0.002678,0.000431,0.024446
55463000,0.0324,0.013523,0.002678,0.000431,0.023036
55464000,0.0324,0.013523,0.002678,0.000431,0.020567
55465000,0.0324,0.013523,0.002678,0.000431,0.014573
55466000,0.0324,0.013523,0.002678,0.000431,0.019275
55467000,0.0324,0.013523,0.002678,0.000431,0.015631
55468000,0.0324,0.013523,0.002678,0.000431,0.009637
55469000,0.0324,0.013523,0.002678,0.000431,0.012340
55470000,0.0324,0.013523,0.002678,0.000431,0.005289
55471000,0.0324,0.013523,0.002678,0.000431,0.005876
55472000,0.0324,0.013523,0.002678,0.000431,0.005759
55473000,0.0324,0.013523,0.002678,0.000431,0.008345
55474000,0.0324,0.013523,0.002678,0.000431,0.004936
55475000,0.0324,0.013523,0.002678,0.000431,0.004701
55476000,0.0324,0.013523,0.002678,0.000431,0.005171
55477000,0.0324,0.013523,0.002678,0.000431,0.004819
55478000,0.0324,0.013523,0.002678,0.000431,0.005054
55479000,0.0324,0.013523,0.002678,0.000431,0.007992
55480000,0.0324,0.013523,0.002678,0.000431,0.003526
55481000,0.0324,0.013523,0.002678,0.000431,0.002938
55482000,0.0324,0.013523,0.002678,0.000431,0.005524
55483000,0.0324,0.013523,0.002678,0.000431,0.002116
55484000,0.0324,0.013523,0.002678,0.000431,0.002468
55485000,0.0324,0.013523,0.002678,0.000431,0.002586
55486000,0.0324,0.013523,0.002678,0.000431,0.001998
55487000,0.0324,0.013523,0.002678,0.000431,0.002821
55488000,0.0324,0.013523,0.002678,0.000431,0.002351
55489000,0.0324,0.013523,0.002678,0.000431,0.002351
55490000,0.0324,0.013523,0.002678,0.000431,0.003291
55491000,0.0324,0.013523,0.002678,0.000431,0.003526
55492000,0.0324,0.013523,0.002678,0.000431,0.002116
55493000,0.0324,0.013523,0.002678,0.000431,0.003408
55494000,0.0324,0.013523,0.002678,0.000431,0.000940
55495000,0.0324,0.013523,0.002678,0.000431,0.001880
55496000,0.0324,0.013523,0.002678,0.000431,0.377265
55497000,0.0324,0.013523,0.002678,0.000431,0.758997
55498000,0.0324,0.013523,0.002678,0.000431,0.214606
55499000,0.0324,0.013523,0.002678,0.000431,0.135392
55500000,0.0324,0.013523,0.002678,0.000431,0.515008
55501000,0.0324,0.013523,0.002678,0.000431,0.282185
55502000,0.0324,0.013523,0.002678,0.000431,0.250453
55503000,0.0324,0.013523,0.002678,0.000431,0.246809
55504000,0.0324,0.013523,0.002678,0.000431,0.148086
55505000,0.0324,0.013523,0.002678,0.000431,0.124227
55506000,0.0324,0.013523,0.002678,0.000431,0.343652
55507000,0.0324,0.013523,0.002678,0.000431,0.386668
55508000,0.0324,0.013523,0.002678,0.000431,0.153609
55509000,0.0324,0.013523,0.002678,0.000431,0.137273
55510000,0.0324,0.013523,0.002678,0.000431,0.125285
55511000,0.0324,0.013523,0.002678,0.000431,0.099429
55512000,0.0324,0.013523,0.002678,0.000431,0.078509
55513000,0.0324,0.013523,0.002678,0.000431,0.055121
55514000,0.0324,0.013523,0.002678,0.000431,0.046189
55515000,0.0324,0.013523,0.002678,0.000431,0.050772
55516000,0.0324,0.013523,0.002678,0.000431,0.038667
55517000,0.0324,0.013523,0.002678,0.000431,0.023976
55518000,0.0324,0.013523,0.002678,0.000431,0.019862
55519000,0.0324,0.013523,0.002678,0.000431,0.013633
55520000,0.0324,0.013523,0.002678,0.000431,0.009050
55521000,0.0324,0.013523,0.002678,0.000431,0.015514
55522000,0.0324,0.013523,0.002678,0.000431,0.008109
55523000,0.0324,0.013523,0.002678,0.000431,0.008932
55524000,0.0324,0.013523,0.002678,0.000431,0.005054
55525000,0.0324,0.013523,0.002678,0.000431,0.005171
55526000,0.0324,0.013523,0.002678,0.000431,0.006582
55527000,0.0324,0.013523,0.002678,0.000431,0.005994
55528000,0.0324,0.013523,0.002678,0.000431,0.009167
55529000,0.0324,0.013523,0.002678,0.000431,0.002586
55530000,0.0324,0.013523,0.002678,0.000431,0.002351
55531000,0.0324,0.013523,0.002678,0.000431,0.001998
55532000,0.0324,0.013523,0.002678,0.000431,0.001763
55533000,0.0324,0.013523,0.002678,0.000431,0.001528
55534000,0.0324,0.013523,0.002678,0.000431,0.001880
55535000,0.0324,0.013523,0.002678,0.000431,0.003996
55536000,0.0324,0.013523,0.002678,0.000431,0.000823
55537000,0.0324,0.013523,0.002678,0.000431,0.000940
55538000,0.0324,0.013523,0.002678,0.000431,0.000705
55539000,0.0324,0.013523,0.002678,0.000431,0.000940
55540000,0.0324,0.013523,0.002678,0.000431,0.000823
55541000,0.0324,0.013523,0.002678,0.000431,0.000823
55542000,0.0324,0.013523,0.002678,0.000431,0.000705
55543000,0.0324,0.013523,0.002678,0.000431,0.000940
55544000,0.0324,0.013523,0.002678,0.000431,0.000823
55545000,0.0324,0.013523,0.002678,0.000431,0.000823
55546000,0.0324,0.013523,0.002678,0.000431,0.000705
55547000,0.0324,0.013523,0.002678,0.000431,0.000940
55548000,0.0324,0.013523,0.002678,0.000431,0.000940
55549000,0.0324,0.013523,0.002678,0.000431,0.000705
55550000,0.0324,0.013523,0.002678,0.000431,0.000940
55551000,0.0324,0.013523,0.002678,0.000431,0.000705
55552000,0.0324,0.013523,0.002678,0.000431,0.000940
55553000,0.0324,0.013523,0.002678,0.000431,0.000823
55554000,0.0324,0.013523,0.002678,0.000431,0.000823
55555000,0.0324,0.013523,0.002678,0.000431,0.000940
55556000,0.0324,0.013523,0.002678,0.000431,0.000705
55557000,0.0324,0.013523,0.002678,0.000431,0.000940
55558000,0.0324,0.013523,0.002678,0.000431,0.000823
55559000,0.0324,0.013523,0.002678,0.000431,0.000823
55560000,0.0324,0.013523,0.002678,0.000431,0.000823
55561000,0.0324,0.013523,0.002678,0.000431,0.000823
55562000,0.0324,0.013523,0.002678,0.000431,0.000705
55563000,0.0324,0.013523,0.002678,0.000431,0.000940
55564000,0.0324,0.013523,0.002678,0.000431,0.000823
55565000,0.0324,0.013523,0.002678,0.000431,0.000823
55566000,0.0324,0.013523,0.002678,0.000431,0.000823
55567000,0.0324,0.013523,0.002678,0.000431,0.000823
55568000,0.0324,0.013523,0.002678,0.000431,0.000823
55569000,0.0324,0.013523,0.002678,0.000431,0.000823
55570000,0.0324,0.013523,0.002678,0.000431,0.000940
55571000,0.0324,0.013523,0.002678,0.000431,0.000705
55572000,0.0324,0.013523,0.002678,0.000431,0.000940
55573000,0.0324,0.013523,0.002678,0.000431,0.000823
55574000,0.0324,0.013523,0.002678,0.000431,0.000823
55575000,0.0324,0.013523,0.002678,0.000431,0.000705
55576000,0.0324,0.013523,0.002678,0.000431,0.000940
55577000,0.0324,0.013523,0.002678,0.000431,0.000940
55578000,0.0324,0.013523,0.002678,0.000431,0.000705
55579000,0.0324,0.013523,0.002678,0.000431,0.000940
55580000,0.0324,0.013523,0.002678,0.000431,0.000705
55581000,0.0324,0.013523,0.002678,0.000431,0.000940
55582000,0.0324,0.013523,0.002678,0.000431,0.000823
55583000,0.0324,0.013523,0.002678,0.000431,0.071457
55584000,0.0324,0.013523,0.002678,0.000431,0.679901
55585000,0.0324,0.013523,0.002678,0.000431,0.554145
55586000,0.0324,0.013523,0.002678,0.000431,0.135392
55587000,0.0324,0.013523,0.002678,0.000431,0.140799
55588000,0.0324,0.013523,0.002678,0.000431,0.550267
55589000,0.0324,0.013523,0.002678,0.000431,0.261383
55590000,0.0324,0.013523,0.002678,0.000431,0.295113
55591000,0.0324,0.013523,0.002678,0.000431,0.149731
55592000,0.0324,0.013523,0.002678,0.000431,0.183109
55593000,0.0324,0.013523,0.002678,0.000431,0.099664
55594000,0.0324,0.013523,0.002678,0.000431,0.532873
55595000,0.0324,0.013523,0.002678,0.000431,0.214136
55596000,0.0324,0.013523,0.002678,0.000431,0.144912
55597000,0.0324,0.013523,0.002678,0.000431,0.125638
55598000,0.0324,0.013523,0.002678,0.000431,0.095198
55599000,0.0324,0.013523,0.002678,0.000431,0.068284
55600000,0.0324,0.013523,0.002678,0.000431,0.055826
55601000,0.0324,0.013523,0.002678,0.000431,0.043720
55602000,0.0324,0.013523,0.002678,0.000431,0.041723
55603000,0.0324,0.013523,0.002678,0.000431,0.044073
55604000,0.0324,0.013523,0.002678,0.000431,0.024328
55605000,0.0324,0.013523,0.002678,0.000431,0.022683
55606000,0.0324,0.013523,0.002678,0.000431,0.012576
55607000,0.0324,0.013523,0.002678,0.000431,0.020567
55608000,0.0324,0.013523,0.002678,0.000431,0.010930
55609000,0.0324,0.013523,0.002678,0.000431,0.012811
55610000,0.0324,0.013523,0.002678,0.000431,0.011635
55611000,0.0324,0.013523,0.002678,0.000431,0.007404
55612000,0.0324,0.013523,0.002678,0.000431,0.006934
55613000,0.0324,0.013523,0.002678,0.000431,0.003643
55614000,0.0324,0.013523,0.002678,0.000431,0.002586
55615000,0.0324,0.013523,0.002678,0.000431,0.002468
55616000,0.0324,0.013523,0.002678,0.000431,0.002233
55617000,0.0324,0.013523,0.002678,0.000431,0.002586
55618000,0.0324,0.013523,0.002678,0.000431,0.002116
55619000,0.0324,0.013523,0.002678,0.000431,0.002586
55620000,0.0324,0.013523,0.002678,0.000431,0.002703
55621000,0.0324,0.013523,0.002678,0.000431,0.001998
55622000,0.0324,0.013523,0.002678,0.000431,0.002821
55623000,0.0324,0.013523,0.002678,0.000431,0.001998
55624000,0.0324,0.013523,0.002678,0.000431,0.001645
55625000,0.0324,0.013523,0.002678,0.000431,0.004349
55626000,0.0324,0.013523,0.002678,0.000431,0.000823
55627000,0.0324,0.013523,0.002678,0.000431,0.077216
55628000,0.0324,0.013523,0.002678,0.000431,0.755354
55629000,0.0324,0.013523,0.002678,0.000431,0.508780
55630000,0.0324,0.013523,0.002678,0.000431,0.139271
55631000,0.0324,0.013523,0.002678,0.000431,0.308041
55632000,0.0324,0.013523,0.002678,0.000431,0.450015
55633000,0.0324,0.013523,0.002678,0.000431,0.280422
55634000,0.0324,0.013523,0.002678,0.000431,0.266201
55635000,0.0324,0.013523,0.002678,0.000431,0.152904
55636000,0.0324,0.013523,0.002678,0.000431,0.117528
55637000,0.0324,0.013523,0.002678,0.000431,0.402064
55638000,0.0324,0.013523,0.002678,0.000431,0.382437
55639000,0.0324,0.013523,0.002678,0.000431,0.192041
55640000,0.0324,0.013523,0.002678,0.000431,0.179113
55641000,0.0324,0.013523,0.002678,0.000431,0.147968
55642000,0.0324,0.013523,0.002678,0.000431,0.133865
55643000,0.0324,0.013523,0.002678,0.000431,0.104483
55644000,0.0324,0.013523,0.002678,0.000431,0.082975
55645000,0.0324,0.013523,0.002678,0.000431,0.076628
55646000,0.0324,0.013523,0.002678,0.000431,0.047599
55647000,0.0324,0.013523,0.002678,0.000431,0.049479
55648000,0.0324,0.013523,0.002678,0.000431,0.040312
55649000,0.0324,0.013523,0.002678,0.000431,0.025974
55650000,0.0324,0.013523,0.002678,0.000431,0.029265
55651000,0.0324,0.013523,0.002678,0.000431,0.021508
55652000,0.0324,0.013523,0.002678,0.000431,0.021860
55653000,0.0324,0.013523,0.002678,0.000431,0.014338
55654000,0.0324,0.013523,0.002678,0.000431,0.016336
55655000,0.0324,0.013523,0.002678,0.000431,0.014456
55656000,0.0324,0.013523,0.002678,0.000431,0.008697
55657000,0.0324,0.013523,0.002678,0.000431,0.005641
55658000,0.0324,0.013523,0.002678,0.000431,0.004701
55659000,0.0324,0.013523,0.002678,0.000431,0.007992
55660000,0.0324,0.013523,0.002678,0.000431,0.003291
55661000,0.0324,0.013523,0.002678,0.000431,0.001763
55662000,0.0324,0.013523,0.002678,0.000431,0.003643
55663000,0.0324,0.013523,0.002678,0.000431,0.000823
55664000,0.0324,0.013523,0.002678,0.000431,0.000823
55665000,0.0324,0.013523,0.002678,0.000431,0.000823
55666000,0.0324,0.013523,0.002678,0.000431,0.000823
55667000,0.0324,0.013523,0.002678,0.000431,0.000823
55668000,0.0324,0.013523,0.002678,0.000431,0.000940
55669000,0.0324,0.013523,0.002678,0.000431,0.000705
55670000,0.0324,0.013523,0.002678,0.000431,0.000823
55671000,0.0324,0.013523,0.002678,0.000431,0.000940
55672000,0.0324,0.013523,0.002678,0.000431,0.000823
55673000,0.0324,0.013523,0.002678,0.000431,0.000823
55674000,0.0324,0.013523,0.002678,0.000431,0.000823
55675000,0.0324,0.013523,0.002678,0.000431,0.000940
55676000,0.0324,0.013523,0.002678,0.000431,0.000940
55677000,0.0324,0.013523,0.002678,0.000431,0.000823
55678000,0.0324,0.013523,0.002678,0.000431,0.000940
55679000,0.0324,0.013523,0.002678,0.000431,0.000940
55680000,0.0324,0.013523,0.002678,0.000431,0.000823
55681000,0.0324,0.013523,0.002678,0.000431,0.000940
55682000,0.0324,0.013523,0.002678,0.000431,0.000940
55683000,0.0324,0.013523,0.002678,0.000431,0.000705
55684000,0.0324,0.013523,0.002678,0.000431,0.000940
55685000,0.0324,0.013523,0.002678,0.000431,0.000940
55686000,0.0324,0.013523,0.002678,0.000431,0.000940
55687000,0.0324,0.013523,0.002678,0.000431,0.000940
55688000,0.0324,0.013523,0.002678,0.000431,0.000940
55689000,0.0324,0.013523,0.002678,0.000431,0.295231
55690000,0.0324,0.013523,0.002678,0.000431,0.790495
55691000,0.0324,0.013523,0.002678,0.000431,0.344710
55692000,0.0324,0.013523,0.002678,0.000431,0.139976
55693000,0.0324,0.013523,0.002678,0.000431,0.544861
55694000,0.0324,0.013523,0.002678,0.000431,0.268434
55695000,0.0324,0.013523,0.002678,0.000431,0.322850
55696000,0.0324,0.013523,0.002678,0.000431,0.192981
55697000,0.0324,0.013523,0.002678,0.000431,0.172884
55698000,0.0324,0.013523,0.002678,0.000431,0.147263
55699000,0.0324,0.013523,0.002678,0.000431,0.512540
55700000,0.0324,0.013523,0.002678,0.000431,0.177350
55701000,0.0324,0.013523,0.002678,0.000431,0.159721
55702000,0.0324,0.013523,0.002678,0.000431,0.145617
55703000,0.0324,0.013523,0.002678,0.000431,0.121642
55704000,0.0324,0.013523,0.002678,0.000431,0.076628
55705000,0.0324,0.013523,0.002678,0.000431,0.081330
55706000,0.0324,0.013523,0.002678,0.000431,0.058882
55707000,0.0324,0.013523,0.002678,0.000431,0.045601
55708000,0.0324,0.013523,0.002678,0.000431,0.041723
55709000,0.0324,0.013523,0.002678,0.000431,0.028677
55710000,0.0324,0.013523,0.002678,0.000431,0.027619
55711000,0.0324,0.013523,0.002678,0.000431,0.022918
55712000,0.0324,0.013523,0.002678,0.000431,0.023153
55713000,0.0324,0.013523,0.002678,0.000431,0.016101
55714000,0.0324,0.013523,0.002678,0.000431,0.015631
55715000,0.0324,0.013523,0.002678,0.000431,0.010107
55716000,0.0324,0.013523,0.002678,0.000431,0.011753
55717000,0.0324,0.013523,0.002678,0.000431,0.011048
55718000,0.0324,0.013523,0.002678,0.000431,0.005994
55719000,0.0324,0.013523,0.002678,0.000431,0.006347
55720000,0.0324,0.013523,0.002678,0.000431,0.004466
55721000,0.0324,0.013523,0.002678,0.000431,0.004113
55722000,0.0324,0.013523,0.002678,0.000431,0.004349
55723000,0.0324,0.013523,0.002678,0.000431,0.001763
55724000,0.0324,0.013523,0.002678,0.000431,0.003526
55725000,0.0324,0.013523,0.002678,0.000431,0.002938
55726000,0.0324,0.013523,0.002678,0.000431,0.000940
55727000,0.0324,0.013523,0.002678,0.000431,0.000705
55728000,0.0324,0.013523,0.002678,0.000431,0.000940
55729000,0.0324,0.013523,0.002678,0.000431,0.002116
55730000,0.0324,0.013523,0.002678,0.000431,0.453424
55731000,0.0324,0.013523,0.002678,0.000431,0.731143
55732000,0.0324,0.013523,0.002678,0.000431,0.198858
55733000,0.0324,0.013523,0.002678,0.000431,0.135863
55734000,0.0324,0.013523,0.002678,0.000431,0.487859
55735000,0.0324,0.013523,0.002678,0.000431,0.244576
55736000,0.0324,0.013523,0.002678,0.000431,0.299462
55737000,0.0324,0.013523,0.002678,0.000431,0.270432
55738000,0.0324,0.013523,0.002678,0.000431,0.157253
55739000,0.0324,0.013523,0.002678,0.000431,0.118939
55740000,0.0324,0.013523,0.002678,0.000431,0.347883
55741000,0.0324,0.013523,0.002678,0.000431,0.410761
55742000,0.0324,0.013523,0.002678,0.000431,0.190278
55743000,0.0324,0.013523,0.002678,0.000431,0.145147
55744000,0.0324,0.013523,0.002678,0.000431,0.123405
55745000,0.0324,0.013523,0.002678,0.000431,0.112239
55746000,0.0324,0.013523,0.002678,0.000431,0.101427
55747000,0.0324,0.013523,0.002678,0.000431,0.086031
55748000,0.0324,0.013523,0.002678,0.000431,0.061937
55749000,0.0324,0.013523,0.002678,0.000431,0.047364
55750000,0.0324,0.013523,0.002678,0.000431,0.047599
55751000,0.0324,0.013523,0.002678,0.000431,0.027384
55752000,0.0324,0.013523,0.002678,0.000431,0.022565
55753000,0.0324,0.013523,0.002678,0.000431,0.022095
55754000,0.0324,0.013523,0.002678,0.000431,0.019392
55755000,0.0324,0.013523,0.002678,0.000431,0.012223
55756000,0.0324,0.013523,0.002678,0.000431,0.008697
55757000,0.0324,0.013523,0.002678,0.000431,0.007757
55758000,0.0324,0.013523,0.002678,0.000431,0.004701
55759000,0.0324,0.013523,0.002678,0.000431,0.004701
55760000,0.0324,0.013523,0.002678,0.000431,0.005876
55761000,0.0324,0.013523,0.002678,0.000431,0.005171
55762000,0.0324,0.013523,0.002678,0.000431,0.002703
55763000,0.0324,0.013523,0.002678,0.000431,0.002351
55764000,0.0324,0.013523,0.002678,0.000431,0.002703
55765000,0.0324,0.013523,0.002678,0.000431,0.005054
55766000,0.0324,0.013523,0.002678,0.000431,0.003408
55767000,0.0324,0.013523,0.002678,0.000431,0.000705
55768000,0.0324,0.013523,0.002678,0.000431,0.000940
55769000,0.0324,0.013523,0.002678,0.000431,0.000705
55770000,0.0324,0.013523,0.002678,0.000431,0.000940
55771000,0.0324,0.013523,0.002678,0.000431,0.000823
55772000,0.0324,0.013523,0.002678,0.000431,0.000823
55773000,0.0324,0.013523,0.002678,0.000431,0.000705
55774000,0.0324,0.013523,0.002678,0.000431,0.000940
55775000,0.0324,0.013523,0.002678,0.000431,0.000705
55776000,0.0324,0.013523,0.002678,0.000431,0.000940
55777000,0.0324,0.013523,0.002678,0.000431,0.000940
55778000,0.0324,0.013523,0.002678,0.000431,0.000940
55779000,0.0324,0.013523,0.002678,0.000431,0.000823
55780000,0.0324,0.013523,0.002678,0.000431,0.075336
55781000,0.0324,0.013523,0.002678,0.000431,0.757352
55782000,0.0324,0.013523,0.002678,0.000431,0.515008
55783000,0.0324,0.013523,0.002678,0.000431,0.135392
55784000,0.0324,0.013523,0.002678,0.000431,0.228357
55785000,0.0324,0.013523,0.002678,0.000431,0.512423
55786000,0.0324,0.013523,0.002678,0.000431,0.250570
55787000,0.0324,0.013523,0.002678,0.000431,0.313565
55788000,0.0324,0.013523,0.002678,0.000431,0.150554
55789000,0.0324,0.013523,0.002678,0.000431,0.132337
55790000,0.0324,0.013523,0.002678,0.000431,0.268669
55791000,0.0324,0.013523,0.002678,0.000431,0.477047
55792000,0.0324,0.013523,0.002678,0.000431,0.136098
55793000,0.0324,0.013523,0.002678,0.000431,0.119996
55794000,0.0324,0.013523,0.002678,0.000431,0.100016
55795000,0.0324,0.013523,0.002678,0.000431,0.093552
55796000,0.0324,0.013523,0.002678,0.000431,0.067461
55797000,0.0324,0.013523,0.002678,0.000431,0.061585
55798000,0.0324,0.013523,0.002678,0.000431,0.051712
55799000,0.0324,0.013523,0.002678,0.000431,0.035494
55800000,0.0324,0.013523,0.002678,0.000431,0.034906
55801000,0.0324,0.013523,0.002678,0.000431,0.027149
55802000,0.0324,0.013523,0.002678,0.000431,0.021625
55803000,0.0324,0.013523,0.002678,0.000431,0.018687
55804000,0.0324,0.013523,0.002678,0.000431,0.006111
55805000,0.0324,0.013523,0.002678,0.000431,0.012576
55806000,0.0324,0.013523,0.002678,0.000431,0.004113
55807000,0.0324,0.013523,0.002678,0.000431,0.006229
55808000,0.0324,0.013523,0.002678,0.000431,0.003291
55809000,0.0324,0.013523,0.002678,0.000431,0.003173
55810000,0.0324,0.013523,0.002678,0.000431,0.005876
55811000,0.0324,0.013523,0.002678,0.000431,0.002586
55812000,0.0324,0.013523,0.002678,0.000431,0.002351
55813000,0.0324,0.013523,0.002678,0.000431,0.002586
55814000,0.0324,0.013523,0.002678,0.000431,0.004231
55815000,0.0324,0.013523,0.002678,0.000431,0.001880
55816000,0.0324,0.013523,0.002678,0.000431,0.001645
55817000,0.0324,0.013523,0.002678,0.000431,0.001528
55818000,0.0324,0.013523,0.002678,0.000431,0.001880
55819000,0.0324,0.013523,0.002678,0.000431,0.001528
55820000,0.0324,0.013523,0.002678,0.000431,0.002821
55821000,0.0324,0.013523,0.002678,0.000431,0.001880
55822000,0.0324,0.013523,0.002678,0.000431,0.095550
55823000,0.0324,0.013523,0.002678,0.000431,0.739957
55824000,0.0324,0.013523,0.002678,0.000431,0.503961
55825000,0.0324,0.013523,0.002678,0.000431,0.137155
55826000,0.0324,0.013523,0.002678,0.000431,0.212726
55827000,0.0324,0.013523,0.002678,0.000431,0.534871
55828000,0.0324,0.013523,0.002678,0.000431,0.235174
55829000,0.0324,0.013523,0.002678,0.000431,0.274898
55830000,0.0324,0.013523,0.002678,0.000431,0.145147
55831000,0.0324,0.013523,0.002678,0.000431,0.171356
55832000,0.0324,0.013523,0.002678,0.000431,0.167830
55833000,0.0324,0.013523,0.002678,0.000431,0.526879
55834000,0.0324,0.013523,0.002678,0.000431,0.177468
55835000,0.0324,0.013523,0.002678,0.000431,0.146910
55836000,0.0324,0.013523,0.002678,0.000431,0.125638
55837000,0.0324,0.013523,0.002678,0.000431,0.110712
55838000,0.0324,0.013523,0.002678,0.000431,0.085443
55839000,0.0324,0.013523,0.002678,0.000431,0.069694
55840000,0.0324,0.013523,0.002678,0.000431,0.055708
55841000,0.0324,0.013523,0.002678,0.000431,0.048422
55842000,0.0324,0.013523,0.002678,0.000431,0.041370
55843000,0.0324,0.013523,0.002678,0.000431,0.037609
55844000,0.0324,0.013523,0.002678,0.000431,0.021038
55845000,0.0324,0.013523,0.002678,0.000431,0.020567
55846000,0.0324,0.013523,0.002678,0.000431,0.013868
55847000,0.0324,0.013523,0.002678,0.000431,0.016924
55848000,0.0324,0.013523,0.002678,0.000431,0.010695
55849000,0.0324,0.013523,0.002678,0.000431,0.006582
55850000,0.0324,0.013523,0.002678,0.000431,0.006229
55851000,0.0324,0.013523,0.002678,0.000431,0.008227
55852000,0.0324,0.013523,0.002678,0.000431,0.005406
55853000,0.0324,0.013523,0.002678,0.000431,0.007052
55854000,0.0324,0.013523,0.002678,0.000431,0.004701
55855000,0.0324,0.013523,0.002678,0.000431,0.001998
55856000,0.0324,0.013523,0.002678,0.000431,0.001998
55857000,0.0324,0.013523,0.002678,0.000431,0.002468
55858000,0.0324,0.013523,0.002678,0.000431,0.001528
55859000,0.0324,0.013523,0.002678,0.000431,0.002821
55860000,0.0324,0.013523,0.002678,0.000431,0.001763
55861000,0.0324,0.013523,0.002678,0.000431,0.002233
55862000,0.0324,0.013523,0.002678,0.000431,0.002468
55863000,0.0324,0.013523,0.002678,0.000431,0.001528
55864000,0.0324,0.013523,0.002678,0.000431,0.002821
55865000,0.0324,0.013523,0.002678,0.000431,0.001763
55866000,0.0324,0.013523,0.002678,0.000431,0.002233
55867000,0.0324,0.013523,0.002678,0.000431,0.002233
55868000,0.0324,0.013523,0.002678,0.000431,0.001763
55869000,0.0324,0.013523,0.002678,0.000431,0.001645
55870000,0.0324,0.013523,0.002678,0.000431,0.002351
55871000,0.0324,0.013523,0.002678,0.000431,0.002468
55872000,0.0324,0.013523,0.002678,0.000431,0.001763
55873000,0.0324,0.013523,0.002678,0.000431,0.002233
55874000,0.0324,0.013523,0.002678,0.000431,0.002116
55875000,0.0324,0.013523,0.002678,0.000431,0.001998
55876000,0.0324,0.013523,0.002678,0.000431,0.002351
55877000,0.0324,0.013523,0.002678,0.000431,0.001998
55878000,0.0324,0.013523,0.002678,0.000431,0.001998
55879000,0.0324,0.013523,0.002678,0.000431,0.002468
55880000,0.0324,0.013523,0.002678,0.000431,0.001880
55881000,0.0324,0.013523,0.002678,0.000431,0.002468
55882000,0.0324,0.013523,0.002678,0.000431,0.001763
55883000,0.0324,0.013523,0.002678,0.000431,0.002233
55884000,0.0324,0.013523,0.002678,0.000431,0.002468
55885000,0.0324,0.013523,0.002678,0.000431,0.001528
55886000,0.0324,0.013523,0.002678,0.000431,0.002586
55887000,0.0324,0.013523,0.002678,0.000431,0.003761
55888000,0.0324,0.013523,0.002678,0.000431,0.002233
55889000,0.0324,0.013523,0.002678,0.000431,0.001058
55890000,0.0324,0.013523,0.002678,0.000431,0.272430
55891000,0.0324,0.013523,0.002678,0.000431,0.760642
55892000,0.0324,0.013523,0.002678,0.000431,0.336248
55893000,0.0324,0.013523,0.002678,0.000431,0.136333
55894000,0.0324,0.013523,0.002678,0.000431,0.446725
55895000,0.0324,0.013523,0.002678,0.000431,0.264556
55896000,0.0324,0.013523,0.002678,0.000431,0.270550
55897000,0.0324,0.013523,0.002678,0.000431,0.253508
55898000,0.0324,0.013523,0.002678,0.000431,0.152081
55899000,0.0324,0.013523,0.002678,0.000431,0.166655
55900000,0.0324,0.013523,0.002678,0.000431,0.182991
55901000,0.0324,0.013523,0.002678,0.000431,0.512423
55902000,0.0324,0.013523,0.002678,0.000431,0.177468
55903000,0.0324,0.013523,0.002678,0.000431,0.167713
55904000,0.0324,0.013523,0.002678,0.000431,0.123052
55905000,0.0324,0.013523,0.002678,0.000431,0.106010
55906000,0.0324,0.013523,0.002678,0.000431,0.079802
55907000,0.0324,0.013523,0.002678,0.000431,0.072515
55908000,0.0324,0.013523,0.002678,0.000431,0.055003
55909000,0.0324,0.013523,0.002678,0.000431,0.043368
55910000,0.0324,0.013523,0.002678,0.000431,0.045836
55911000,0.0324,0.013523,0.002678,0.000431,0.026679
55912000,0.0324,0.013523,0.002678,0.000431,0.019980
55913000,0.0324,0.013523,0.002678,0.000431,0.024093
55914000,0.0324,0.013523,0.002678,0.000431,0.013163
55915000,0.0324,0.013523,0.002678,0.000431,0.010695
55916000,0.0324,0.013523,0.002678,0.000431,0.011870
55917000,0.0324,0.013523,0.002678,0.000431,0.017159
55918000,0.0324,0.013523,0.002678,0.000431,0.010107
55919000,0.0324,0.013523,0.002678,0.000431,0.007639
55920000,0.0324,0.013523,0.002678,0.000431,0.004231
55921000,0.0324,0.013523,0.002678,0.000431,0.003996
55922000,0.0324,0.013523,0.002678,0.000431,0.003291
55923000,0.0324,0.013523,0.002678,0.000431,0.006582
55924000,0.0324,0.013523,0.002678,0.000431,0.001763
55925000,0.0324,0.013523,0.002678,0.000431,0.001528
55926000,0.0324,0.013523,0.002678,0.000431,0.003291
55927000,0.0324,0.013523,0.002678,0.000431,0.000823
55928000,0.0324,0.013523,0.002678,0.000431,0.014103
55929000,0.0324,0.013523,0.002678,0.000431,0.713984
55930000,0.0324,0.013523,0.002678,0.000431,0.594810
55931000,0.0324,0.013523,0.002678,0.000431,0.138213
55932000,0.0324,0.013523,0.002678,0.000431,0.139976
55933000,0.0324,0.013523,0.002678,0.000431,0.582352
55934000,0.0324,0.013523,0.002678,0.000431,0.256094
55935000,0.0324,0.013523,0.002678,0.000431,0.329314
55936000,0.0324,0.013523,0.002678,0.000431,0.155372
55937000,0.0324,0.013523,0.002678,0.000431,0.174999
55938000,0.0324,0.013523,0.002678,0.000431,0.130339
55939000,0.0324,0.013523,0.002678,0.000431,0.557554
55940000,0.0324,0.013523,0.002678,0.000431,0.228122
55941000,0.0324,0.013523,0.002678,0.000431,0.169241
55942000,0.0324,0.013523,0.002678,0.000431,0.139388
55943000,0.0324,0.013523,0.002678,0.000431,0.125285
55944000,0.0324,0.013523,0.002678,0.000431,0.104130
55945000,0.0324,0.013523,0.002678,0.000431,0.071105
55946000,0.0324,0.013523,0.002678,0.000431,0.058647
55947000,0.0324,0.013523,0.002678,0.000431,0.052535
55948000,0.0324,0.013523,0.002678,0.000431,0.037727
55949000,0.0324,0.013523,0.002678,0.000431,0.033143
55950000,0.0324,0.013523,0.002678,0.000431,0.022800
55951000,0.0324,0.013523,0.002678,0.000431,0.029735
55952000,0.0324,0.013523,0.002678,0.000431,0.020215
55953000,0.0324,0.013523,0.002678,0.000431,0.013163
55954000,0.0324,0.013523,0.002678,0.000431,0.010578
55955000,0.0324,0.013523,0.002678,0.000431,0.013633
55956000,0.0324,0.013523,0.002678,0.000431,0.011518
55957000,0.0324,0.013523,0.002678,0.000431,0.004819
55958000,0.0324,0.013523,0.002678,0.000431,0.004231
55959000,0.0324,0.013523,0.002678,0.000431,0.004113
55960000,0.0324,0.013523,0.002678,0.000431,0.005641
55961000,0.0324,0.013523,0.002678,0.000431,0.003408
55962000,0.0324,0.013523,0.002678,0.000431,0.007874
55963000,0.0324,0.013523,0.002678,0.000431,0.003761
55964000,0.0324,0.013523,0.002678,0.000431,0.003878
55965000,0.0324,0.013523,0.002678,0.000431,0.000705
55966000,0.0324,0.013523,0.002678,0.000431,0.000940
55967000,0.0324,0.013523,0.002678,0.000431,0.000823
55968000,0.0324,0.013523,0.002678,0.000431,0.000823
55969000,0.0324,0.013523,0.002678,0.000431,0.000823
55970000,0.0324,0.013523,0.002678,0.000431,0.000823
55971000,0.0324,0.013523,0.002678,0.000431,0.016571
55972000,0.0324,0.013523,0.002678,0.000431,0.778507
55973000,0.0324,0.013523,0.002678,0.000431,0.558376
55974000,0.0324,0.013523,0.002678,0.000431,0.138801
55975000,0.0324,0.013523,0.002678,0.000431,0.163599
55976000,0.0324,0.013523,0.002678,0.000431,0.551325
55977000,0.0324,0.013523,0.002678,0.000431,0.280657
55978000,0.0324,0.013523,0.002678,0.000431,0.316503
55979000,0.0324,0.013523,0.002678,0.000431,0.159016
55980000,0.0324,0.013523,0.002678,0.000431,0.125403
55981000,0.0324,0.013523,0.002678,0.000431,0.278072
55982000,0.0324,0.013523,0.002678,0.000431,0.400419
55983000,0.0324,0.013523,0.002678,0.000431,0.106951
55984000,0.0324,0.013523,0.002678,0.000431,0.100252
55985000,0.0324,0.013523,0.002678,0.000431,0.081094
55986000,0.0324,0.013523,0.002678,0.000431,0.068754
55987000,0.0324,0.013523,0.002678,0.000431,0.057706
55988000,0.0324,0.013523,0.002678,0.000431,0.048304
55989000,0.0324,0.013523,0.002678,0.000431,0.043603
55990000,0.0324,0.013523,0.002678,0.000431,0.029265
55991000,0.0324,0.013523,0.002678,0.000431,0.016219
55992000,0.0324,0.013523,0.002678,0.000431,0.007874
55993000,0.0324,0.013523,0.002678,0.000431,0.006934
55994000,0.0324,0.013523,0.002678,0.000431,0.011048
55995000,0.0324,0.013523,0.002678,0.000431,0.005171
55996000,0.0324,0.013523,0.002678,0.000431,0.006229
55997000,0.0324,0.013523,0.002678,0.000431,0.004231
55998000,0.0324,0.013523,0.002678,0.000431,0.003878
55999000,0.0324,0.013523,0.002678,0.000431,0.015279
