Cycle,Area(mm^2),PeakDynamic(W),SubthresholdLeakage(W),GateLeakage(W),RunTimeDynamic(W)
127000000,0.0324,0.013523,0.002678,0.000431,0.003408
127001000,0.0324,0.013523,0.002678,0.000431,0.003408
127002000,0.0324,0.013523,0.002678,0.000431,0.003408
127003000,0.0324,0.013523,0.002678,0.000431,0.003173
127004000,0.0324,0.013523,0.002678,0.000431,0.003173
127005000,0.0324,0.013523,0.002678,0.000431,0.006229
127006000,0.0324,0.013523,0.002678,0.000431,0.007874
127007000,0.0324,0.013523,0.002678,0.000431,0.032085
127008000,0.0324,0.013523,0.002678,0.000431,0.891334
127009000,0.0324,0.013523,0.002678,0.000431,0.563900
127010000,0.0324,0.013523,0.002678,0.000431,0.168770
127011000,0.0324,0.013523,0.002678,0.000431,0.204264
127012000,0.0324,0.013523,0.002678,0.000431,0.557084
127013000,0.0324,0.013523,0.002678,0.000431,0.297816
127014000,0.0324,0.013523,0.002678,0.000431,0.338951
127015000,0.0324,0.013523,0.002678,0.000431,0.156077
127016000,0.0324,0.013523,0.002678,0.000431,0.129869
127017000,0.0324,0.013523,0.002678,0.000431,0.268552
127018000,0.0324,0.013523,0.002678,0.000431,0.601039
127019000,0.0324,0.013523,0.002678,0.000431,0.327669
127020000,0.0324,0.013523,0.002678,0.000431,0.282185
127021000,0.0324,0.013523,0.002678,0.000431,0.253391
127022000,0.0324,0.013523,0.002678,0.000431,0.212138
127023000,0.0324,0.013523,0.002678,0.000431,0.180993
127024000,0.0324,0.013523,0.002678,0.000431,0.132572
127025000,0.0324,0.013523,0.002678,0.000431,0.111534
127026000,0.0324,0.013523,0.002678,0.000431,0.107303
127027000,0.0324,0.013523,0.002678,0.000431,0.094023
127028000,0.0324,0.013523,0.002678,0.000431,0.083563
127029000,0.0324,0.013523,0.002678,0.000431,0.057354
127030000,0.0324,0.013523,0.002678,0.000431,0.056531
127031000,0.0324,0.013523,0.002678,0.000431,0.054298
127032000,0.0324,0.013523,0.002678,0.000431,0.049127
127033000,0.0324,0.013523,0.002678,0.000431,0.038784
127034000,0.0324,0.013523,0.002678,0.000431,0.037139
127035000,0.0324,0.013523,0.002678,0.000431,0.028559
127036000,0.0324,0.013523,0.002678,0.000431,0.015044
127037000,0.0324,0.013523,0.002678,0.000431,0.018099
127038000,0.0324,0.013523,0.002678,0.000431,0.019275
127039000,0.0324,0.013523,0.002678,0.000431,0.012928
127040000,0.0324,0.013523,0.002678,0.000431,0.020332
127041000,0.0324,0.013523,0.002678,0.000431,0.006934
127042000,0.0324,0.013523,0.002678,0.000431,0.005054
127043000,0.0324,0.013523,0.002678,0.000431,0.006582
127044000,0.0324,0.013523,0.002678,0.000431,0.005759
127045000,0.0324,0.013523,0.002678,0.000431,0.004349
127046000,0.0324,0.013523,0.002678,0.000431,0.004584
127047000,0.0324,0.013523,0.002678,0.000431,0.007992
127048000,0.0324,0.013523,0.002678,0.000431,0.002468
127049000,0.0324,0.013523,0.002678,0.000431,0.006934
127050000,0.0324,0.013523,0.002678,0.000431,0.001763
127051000,0.0324,0.013523,0.002678,0.000431,0.001763
127052000,0.0324,0.013523,0.002678,0.000431,0.003996
127053000,0.0324,0.013523,0.002678,0.000431,0.001058
127054000,0.0324,0.013523,0.002678,0.000431,0.000705
127055000,0.0324,0.013523,0.002678,0.000431,0.000940
127056000,0.0324,0.013523,0.002678,0.000431,0.000823
127057000,0.0324,0.013523,0.002678,0.000431,0.000823
127058000,0.0324,0.013523,0.002678,0.000431,0.000823
127059000,0.0324,0.013523,0.002678,0.000431,0.000823
127060000,0.0324,0.013523,0.002678,0.000431,0.000940
127061000,0.0324,0.013523,0.002678,0.000431,0.000705
127062000,0.0324,0.013523,0.002678,0.000431,0.000940
127063000,0.0324,0.013523,0.002678,0.000431,0.000823
127064000,0.0324,0.013523,0.002678,0.000431,0.000823
127065000,0.0324,0.013523,0.002678,0.000431,0.000823
127066000,0.0324,0.013523,0.002678,0.000431,0.000823
127067000,0.0324,0.013523,0.002678,0.000431,0.000823
127068000,0.0324,0.013523,0.002678,0.000431,0.000823
127069000,0.0324,0.013523,0.002678,0.000431,0.000823
127070000,0.0324,0.013523,0.002678,0.000431,0.000823
127071000,0.0324,0.013523,0.002678,0.000431,0.000940
127072000,0.0324,0.013523,0.002678,0.000431,0.000823
127073000,0.0324,0.013523,0.002678,0.000431,0.000823
127074000,0.0324,0.013523,0.002678,0.000431,0.000705
127075000,0.0324,0.013523,0.002678,0.000431,0.000940
127076000,0.0324,0.013523,0.002678,0.000431,0.000940
127077000,0.0324,0.013523,0.002678,0.000431,0.000705
127078000,0.0324,0.013523,0.002678,0.000431,0.000940
127079000,0.0324,0.013523,0.002678,0.000431,0.000705
127080000,0.0324,0.013523,0.002678,0.000431,0.000940
127081000,0.0324,0.013523,0.002678,0.000431,0.000823
127082000,0.0324,0.013523,0.002678,0.000431,0.000823
127083000,0.0324,0.013523,0.002678,0.000431,0.000940
127084000,0.0324,0.013523,0.002678,0.000431,0.000705
127085000,0.0324,0.013523,0.002678,0.000431,0.000823
127086000,0.0324,0.013523,0.002678,0.000431,0.000823
127087000,0.0324,0.013523,0.002678,0.000431,0.000823
127088000,0.0324,0.013523,0.002678,0.000431,0.000823
127089000,0.0324,0.013523,0.002678,0.000431,0.000823
127090000,0.0324,0.013523,0.002678,0.000431,0.000940
127091000,0.0324,0.013523,0.002678,0.000431,0.000823
127092000,0.0324,0.013523,0.002678,0.000431,0.000823
127093000,0.0324,0.013523,0.002678,0.000431,0.000823
127094000,0.0324,0.013523,0.002678,0.000431,0.000705
127095000,0.0324,0.013523,0.002678,0.000431,0.000940
127096000,0.0324,0.013523,0.002678,0.000431,0.000940
127097000,0.0324,0.013523,0.002678,0.000431,0.000705
127098000,0.0324,0.013523,0.002678,0.000431,0.000940
127099000,0.0324,0.013523,0.002678,0.000431,0.000705
127100000,0.0324,0.013523,0.002678,0.000431,0.000940
127101000,0.0324,0.013523,0.002678,0.000431,0.000823
127102000,0.0324,0.013523,0.002678,0.000431,0.000823
127103000,0.0324,0.013523,0.002678,0.000431,0.000823
127104000,0.0324,0.013523,0.002678,0.000431,0.000823
127105000,0.0324,0.013523,0.002678,0.000431,0.000823
127106000,0.0324,0.013523,0.002678,0.000431,0.000823
127107000,0.0324,0.013523,0.002678,0.000431,0.000940
127108000,0.0324,0.013523,0.002678,0.000431,0.000705
127109000,0.0324,0.013523,0.002678,0.000431,0.000940
127110000,0.0324,0.013523,0.002678,0.000431,0.000705
127111000,0.0324,0.013523,0.002678,0.000431,0.002821
127112000,0.0324,0.013523,0.002678,0.000431,0.596573
127113000,0.0324,0.013523,0.002678,0.000431,0.721976
127114000,0.0324,0.013523,0.002678,0.000431,0.319442
127115000,0.0324,0.013523,0.002678,0.000431,0.169123
127116000,0.0324,0.013523,0.002678,0.000431,0.554615
127117000,0.0324,0.013523,0.002678,0.000431,0.262675
127118000,0.0324,0.013523,0.002678,0.000431,0.327786
127119000,0.0324,0.013523,0.002678,0.000431,0.205439
127120000,0.0324,0.013523,0.002678,0.000431,0.185577
127121000,0.0324,0.013523,0.002678,0.000431,0.094140
127122000,0.0324,0.013523,0.002678,0.000431,0.583645
127123000,0.0324,0.013523,0.002678,0.000431,0.402652
127124000,0.0324,0.013523,0.002678,0.000431,0.300872
127125000,0.0324,0.013523,0.002678,0.000431,0.262323
127126000,0.0324,0.013523,0.002678,0.000431,0.219895
127127000,0.0324,0.013523,0.002678,0.000431,0.193216
127128000,0.0324,0.013523,0.002678,0.000431,0.162306
127129000,0.0324,0.013523,0.002678,0.000431,0.131632
127130000,0.0324,0.013523,0.002678,0.000431,0.112239
127131000,0.0324,0.013523,0.002678,0.000431,0.105305
127132000,0.0324,0.013523,0.002678,0.000431,0.075218
127133000,0.0324,0.013523,0.002678,0.000431,0.074043
127134000,0.0324,0.013523,0.002678,0.000431,0.067109
127135000,0.0324,0.013523,0.002678,0.000431,0.056178
127136000,0.0324,0.013523,0.002678,0.000431,0.035141
127137000,0.0324,0.013523,0.002678,0.000431,0.034201
127138000,0.0324,0.013523,0.002678,0.000431,0.033378
127139000,0.0324,0.013523,0.002678,0.000431,0.024093
127140000,0.0324,0.013523,0.002678,0.000431,0.030792
127141000,0.0324,0.013523,0.002678,0.000431,0.015866
127142000,0.0324,0.013523,0.002678,0.000431,0.009167
127143000,0.0324,0.013523,0.002678,0.000431,0.010813
127144000,0.0324,0.013523,0.002678,0.000431,0.011518
127145000,0.0324,0.013523,0.002678,0.000431,0.014456
127146000,0.0324,0.013523,0.002678,0.000431,0.007757
127147000,0.0324,0.013523,0.002678,0.000431,0.005524
127148000,0.0324,0.013523,0.002678,0.000431,0.003408
127149000,0.0324,0.013523,0.002678,0.000431,0.003173
127150000,0.0324,0.013523,0.002678,0.000431,0.003291
127151000,0.0324,0.013523,0.002678,0.000431,0.003291
127152000,0.0324,0.013523,0.002678,0.000431,0.003173
127153000,0.0324,0.013523,0.002678,0.000431,0.007287
127154000,0.0324,0.013523,0.002678,0.000431,0.002468
127155000,0.0324,0.013523,0.002678,0.000431,0.002233
127156000,0.0324,0.013523,0.002678,0.000431,0.002468
127157000,0.0324,0.013523,0.002678,0.000431,0.002468
127158000,0.0324,0.013523,0.002678,0.000431,0.002351
127159000,0.0324,0.013523,0.002678,0.000431,0.002586
127160000,0.0324,0.013523,0.002678,0.000431,0.002233
127161000,0.0324,0.013523,0.002678,0.000431,0.002586
127162000,0.0324,0.013523,0.002678,0.000431,0.002116
127163000,0.0324,0.013523,0.002678,0.000431,0.002468
127164000,0.0324,0.013523,0.002678,0.000431,0.002821
127165000,0.0324,0.013523,0.002678,0.000431,0.001880
127166000,0.0324,0.013523,0.002678,0.000431,0.002821
127167000,0.0324,0.013523,0.002678,0.000431,0.002116
127168000,0.0324,0.013523,0.002678,0.000431,0.002586
127169000,0.0324,0.013523,0.002678,0.000431,0.002351
127170000,0.0324,0.013523,0.002678,0.000431,0.002233
127171000,0.0324,0.013523,0.002678,0.000431,0.005171
127172000,0.0324,0.013523,0.002678,0.000431,0.001293
127173000,0.0324,0.013523,0.002678,0.000431,0.001763
127174000,0.0324,0.013523,0.002678,0.000431,0.001645
127175000,0.0324,0.013523,0.002678,0.000431,0.001410
127176000,0.0324,0.013523,0.002678,0.000431,0.001058
127177000,0.0324,0.013523,0.002678,0.000431,0.001763
127178000,0.0324,0.013523,0.002678,0.000431,0.001645
127179000,0.0324,0.013523,0.002678,0.000431,0.001645
127180000,0.0324,0.013523,0.002678,0.000431,0.001645
127181000,0.0324,0.013523,0.002678,0.000431,0.001645
127182000,0.0324,0.013523,0.002678,0.000431,0.127871
127183000,0.0324,0.013523,0.002678,0.000431,0.914017
127184000,0.0324,0.013523,0.002678,0.000431,0.531580
127185000,0.0324,0.013523,0.002678,0.000431,0.186870
127186000,0.0324,0.013523,0.002678,0.000431,0.312155
127187000,0.0324,0.013523,0.002678,0.000431,0.483158
127188000,0.0324,0.013523,0.002678,0.000431,0.288179
127189000,0.0324,0.013523,0.002678,0.000431,0.300402
127190000,0.0324,0.013523,0.002678,0.000431,0.165127
127191000,0.0324,0.013523,0.002678,0.000431,0.110712
127192000,0.0324,0.013523,0.002678,0.000431,0.417813
127193000,0.0324,0.013523,0.002678,0.000431,0.520767
127194000,0.0324,0.013523,0.002678,0.000431,0.315328
127195000,0.0324,0.013523,0.002678,0.000431,0.303928
127196000,0.0324,0.013523,0.002678,0.000431,0.253626
127197000,0.0324,0.013523,0.002678,0.000431,0.214136
127198000,0.0324,0.013523,0.002678,0.000431,0.189455
127199000,0.0324,0.013523,0.002678,0.000431,0.147145
127200000,0.0324,0.013523,0.002678,0.000431,0.134100
127201000,0.0324,0.013523,0.002678,0.000431,0.117293
127202000,0.0324,0.013523,0.002678,0.000431,0.083092
127203000,0.0324,0.013523,0.002678,0.000431,0.078509
127204000,0.0324,0.013523,0.002678,0.000431,0.068049
127205000,0.0324,0.013523,0.002678,0.000431,0.045718
127206000,0.0324,0.013523,0.002678,0.000431,0.033260
127207000,0.0324,0.013523,0.002678,0.000431,0.028207
127208000,0.0324,0.013523,0.002678,0.000431,0.032908
127209000,0.0324,0.013523,0.002678,0.000431,0.023036
127210000,0.0324,0.013523,0.002678,0.000431,0.026209
127211000,0.0324,0.013523,0.002678,0.000431,0.026796
127212000,0.0324,0.013523,0.002678,0.000431,0.012693
127213000,0.0324,0.013523,0.002678,0.000431,0.020802
127214000,0.0324,0.013523,0.002678,0.000431,0.009285
127215000,0.0324,0.013523,0.002678,0.000431,0.011753
127216000,0.0324,0.013523,0.002678,0.000431,0.007404
127217000,0.0324,0.013523,0.002678,0.000431,0.003526
127218000,0.0324,0.013523,0.002678,0.000431,0.005054
127219000,0.0324,0.013523,0.002678,0.000431,0.002351
127220000,0.0324,0.013523,0.002678,0.000431,0.002586
127221000,0.0324,0.013523,0.002678,0.000431,0.002116
127222000,0.0324,0.013523,0.002678,0.000431,0.002821
127223000,0.0324,0.013523,0.002678,0.000431,0.002351
127224000,0.0324,0.013523,0.002678,0.000431,0.002586
127225000,0.0324,0.013523,0.002678,0.000431,0.006347
127226000,0.0324,0.013523,0.002678,0.000431,0.001763
127227000,0.0324,0.013523,0.002678,0.000431,0.001763
127228000,0.0324,0.013523,0.002678,0.000431,0.001528
127229000,0.0324,0.013523,0.002678,0.000431,0.001880
127230000,0.0324,0.013523,0.002678,0.000431,0.001528
127231000,0.0324,0.013523,0.002678,0.000431,0.004466
127232000,0.0324,0.013523,0.002678,0.000431,0.004466
127233000,0.0324,0.013523,0.002678,0.000431,0.673436
127234000,0.0324,0.013523,0.002678,0.000431,0.687657
127235000,0.0324,0.013523,0.002678,0.000431,0.308864
127236000,0.0324,0.013523,0.002678,0.000431,0.159486
127237000,0.0324,0.013523,0.002678,0.000431,0.571540
127238000,0.0324,0.013523,0.002678,0.000431,0.268434
127239000,0.0324,0.013523,0.002678,0.000431,0.327198
127240000,0.0324,0.013523,0.002678,0.000431,0.220365
127241000,0.0324,0.013523,0.002678,0.000431,0.186282
127242000,0.0324,0.013523,0.002678,0.000431,0.087911
127243000,0.0324,0.013523,0.002678,0.000431,0.556966
127244000,0.0324,0.013523,0.002678,0.000431,0.389371
127245000,0.0324,0.013523,0.002678,0.000431,0.282890
127246000,0.0324,0.013523,0.002678,0.000431,0.251393
127247000,0.0324,0.013523,0.002678,0.000431,0.215077
127248000,0.0324,0.013523,0.002678,0.000431,0.179348
127249000,0.0324,0.013523,0.002678,0.000431,0.156430
127250000,0.0324,0.013523,0.002678,0.000431,0.129281
127251000,0.0324,0.013523,0.002678,0.000431,0.128576
127252000,0.0324,0.013523,0.002678,0.000431,0.087794
127253000,0.0324,0.013523,0.002678,0.000431,0.081212
127254000,0.0324,0.013523,0.002678,0.000431,0.077098
127255000,0.0324,0.013523,0.002678,0.000431,0.055356
127256000,0.0324,0.013523,0.002678,0.000431,0.048539
127257000,0.0324,0.013523,0.002678,0.000431,0.049127
127258000,0.0324,0.013523,0.002678,0.000431,0.043720
127259000,0.0324,0.013523,0.002678,0.000431,0.033025
127260000,0.0324,0.013523,0.002678,0.000431,0.033613
127261000,0.0324,0.013523,0.002678,0.000431,0.031027
127262000,0.0324,0.013523,0.002678,0.000431,0.020920
127263000,0.0324,0.013523,0.002678,0.000431,0.016454
127264000,0.0324,0.013523,0.002678,0.000431,0.012340
127265000,0.0324,0.013523,0.002678,0.000431,0.012811
127266000,0.0324,0.013523,0.002678,0.000431,0.008227
127267000,0.0324,0.013523,0.002678,0.000431,0.008697
127268000,0.0324,0.013523,0.002678,0.000431,0.010578
127269000,0.0324,0.013523,0.002678,0.000431,0.009637
127270000,0.0324,0.013523,0.002678,0.000431,0.005994
127271000,0.0324,0.013523,0.002678,0.000431,0.006229
127272000,0.0324,0.013523,0.002678,0.000431,0.006464
127273000,0.0324,0.013523,0.002678,0.000431,0.006934
127274000,0.0324,0.013523,0.002678,0.000431,0.006111
127275000,0.0324,0.013523,0.002678,0.000431,0.006934
127276000,0.0324,0.013523,0.002678,0.000431,0.006699
127277000,0.0324,0.013523,0.002678,0.000431,0.006229
127278000,0.0324,0.013523,0.002678,0.000431,0.006699
127279000,0.0324,0.013523,0.002678,0.000431,0.006464
127280000,0.0324,0.013523,0.002678,0.000431,0.017394
127281000,0.0324,0.013523,0.002678,0.000431,0.002468
127282000,0.0324,0.013523,0.002678,0.000431,0.002468
127283000,0.0324,0.013523,0.002678,0.000431,0.004113
127284000,0.0324,0.013523,0.002678,0.000431,0.002586
127285000,0.0324,0.013523,0.002678,0.000431,0.001175
127286000,0.0324,0.013523,0.002678,0.000431,0.000823
127287000,0.0324,0.013523,0.002678,0.000431,0.000940
127288000,0.0324,0.013523,0.002678,0.000431,0.000823
127289000,0.0324,0.013523,0.002678,0.000431,0.000823
127290000,0.0324,0.013523,0.002678,0.000431,0.000940
127291000,0.0324,0.013523,0.002678,0.000431,0.000705
127292000,0.0324,0.013523,0.002678,0.000431,0.000940
127293000,0.0324,0.013523,0.002678,0.000431,0.000823
127294000,0.0324,0.013523,0.002678,0.000431,0.000823
127295000,0.0324,0.013523,0.002678,0.000431,0.000940
127296000,0.0324,0.013523,0.002678,0.000431,0.024563
127297000,0.0324,0.013523,0.002678,0.000431,0.901559
127298000,0.0324,0.013523,0.002678,0.000431,0.549327
127299000,0.0324,0.013523,0.002678,0.000431,0.203441
127300000,0.0324,0.013523,0.002678,0.000431,0.188750
127301000,0.0324,0.013523,0.002678,0.000431,0.589991
127302000,0.0324,0.013523,0.002678,0.000431,0.298169
127303000,0.0324,0.013523,0.002678,0.000431,0.318619
127304000,0.0324,0.013523,0.002678,0.000431,0.151024
127305000,0.0324,0.013523,0.002678,0.000431,0.156783
127306000,0.0324,0.013523,0.002678,0.000431,0.201091
127307000,0.0324,0.013523,0.002678,0.000431,0.595750
127308000,0.0324,0.013523,0.002678,0.000431,0.369861
127309000,0.0324,0.013523,0.002678,0.000431,0.293233
127310000,0.0324,0.013523,0.002678,0.000431,0.267729
127311000,0.0324,0.013523,0.002678,0.000431,0.225537
127312000,0.0324,0.013523,0.002678,0.000431,0.184872
127313000,0.0324,0.013523,0.002678,0.000431,0.158663
127314000,0.0324,0.013523,0.002678,0.000431,0.129986
127315000,0.0324,0.013523,0.002678,0.000431,0.105775
127316000,0.0324,0.013523,0.002678,0.000431,0.097666
127317000,0.0324,0.013523,0.002678,0.000431,0.074983
127318000,0.0324,0.013523,0.002678,0.000431,0.058294
127319000,0.0324,0.013523,0.002678,0.000431,0.074278
127320000,0.0324,0.013523,0.002678,0.000431,0.047364
127321000,0.0324,0.013523,0.002678,0.000431,0.044308
127322000,0.0324,0.013523,0.002678,0.000431,0.042780
127323000,0.0324,0.013523,0.002678,0.000431,0.037256
127324000,0.0324,0.013523,0.002678,0.000431,0.030440
127325000,0.0324,0.013523,0.002678,0.000431,0.028794
127326000,0.0324,0.013523,0.002678,0.000431,0.034318
127327000,0.0324,0.013523,0.002678,0.000431,0.017159
127328000,0.0324,0.013523,0.002678,0.000431,0.016689
127329000,0.0324,0.013523,0.002678,0.000431,0.013516
127330000,0.0324,0.013523,0.002678,0.000431,0.012105
127331000,0.0324,0.013523,0.002678,0.000431,0.013281
127332000,0.0324,0.013523,0.002678,0.000431,0.019980
127333000,0.0324,0.013523,0.002678,0.000431,0.011988
127334000,0.0324,0.013523,0.002678,0.000431,0.012928
127335000,0.0324,0.013523,0.002678,0.000431,0.007757
127336000,0.0324,0.013523,0.002678,0.000431,0.011400
127337000,0.0324,0.013523,0.002678,0.000431,0.006229
127338000,0.0324,0.013523,0.002678,0.000431,0.007404
127339000,0.0324,0.013523,0.002678,0.000431,0.006229
127340000,0.0324,0.013523,0.002678,0.000431,0.014103
127341000,0.0324,0.013523,0.002678,0.000431,0.008462
127342000,0.0324,0.013523,0.002678,0.000431,0.092847
127343000,0.0324,0.013523,0.002678,0.000431,0.955739
127344000,0.0324,0.013523,0.002678,0.000431,0.512658
127345000,0.0324,0.013523,0.002678,0.000431,0.207085
127346000,0.0324,0.013523,0.002678,0.000431,0.262323
127347000,0.0324,0.013523,0.002678,0.000431,0.526996
127348000,0.0324,0.013523,0.002678,0.000431,0.283948
127349000,0.0324,0.013523,0.002678,0.000431,0.309922
127350000,0.0324,0.013523,0.002678,0.000431,0.169476
127351000,0.0324,0.013523,0.002678,0.000431,0.116000
127352000,0.0324,0.013523,0.002678,0.000431,0.390194
127353000,0.0324,0.013523,0.002678,0.000431,0.496322
127354000,0.0324,0.013523,0.002678,0.000431,0.285711
127355000,0.0324,0.013523,0.002678,0.000431,0.272313
127356000,0.0324,0.013523,0.002678,0.000431,0.226242
127357000,0.0324,0.013523,0.002678,0.000431,0.193451
127358000,0.0324,0.013523,0.002678,0.000431,0.169123
127359000,0.0324,0.013523,0.002678,0.000431,0.146558
127360000,0.0324,0.013523,0.002678,0.000431,0.124932
127361000,0.0324,0.013523,0.002678,0.000431,0.109889
127362000,0.0324,0.013523,0.002678,0.000431,0.098489
127363000,0.0324,0.013523,0.002678,0.000431,0.092142
127364000,0.0324,0.013523,0.002678,0.000431,0.087794
127365000,0.0324,0.013523,0.002678,0.000431,0.078391
127366000,0.0324,0.013523,0.002678,0.000431,0.060292
127367000,0.0324,0.013523,0.002678,0.000431,0.054533
127368000,0.0324,0.013523,0.002678,0.000431,0.043838
127369000,0.0324,0.013523,0.002678,0.000431,0.039019
127370000,0.0324,0.013523,0.002678,0.000431,0.039372
127371000,0.0324,0.013523,0.002678,0.000431,0.046306
127372000,0.0324,0.013523,0.002678,0.000431,0.028207
127373000,0.0324,0.013523,0.002678,0.000431,0.023153
127374000,0.0324,0.013523,0.002678,0.000431,0.020332
127375000,0.0324,0.013523,0.002678,0.000431,0.015044
127376000,0.0324,0.013523,0.002678,0.000431,0.017747
127377000,0.0324,0.013523,0.002678,0.000431,0.012811
127378000,0.0324,0.013523,0.002678,0.000431,0.009285
127379000,0.0324,0.013523,0.002678,0.000431,0.009872
127380000,0.0324,0.013523,0.002678,0.000431,0.011518
127381000,0.0324,0.013523,0.002678,0.000431,0.010813
127382000,0.0324,0.013523,0.002678,0.000431,0.006347
127383000,0.0324,0.013523,0.002678,0.000431,0.008580
127384000,0.0324,0.013523,0.002678,0.000431,0.007757
127385000,0.0324,0.013523,0.002678,0.000431,0.010930
127386000,0.0324,0.013523,0.002678,0.000431,0.005759
127387000,0.0324,0.013523,0.002678,0.000431,0.004701
127388000,0.0324,0.013523,0.002678,0.000431,0.004701
127389000,0.0324,0.013523,0.002678,0.000431,0.009050
127390000,0.0324,0.013523,0.002678,0.000431,0.003878
127391000,0.0324,0.013523,0.002678,0.000431,0.006464
127392000,0.0324,0.013523,0.002678,0.000431,0.005994
127393000,0.0324,0.013523,0.002678,0.000431,0.001763
127394000,0.0324,0.013523,0.002678,0.000431,0.001528
127395000,0.0324,0.013523,0.002678,0.000431,0.001763
127396000,0.0324,0.013523,0.002678,0.000431,0.001763
127397000,0.0324,0.013523,0.002678,0.000431,0.001763
127398000,0.0324,0.013523,0.002678,0.000431,0.001880
127399000,0.0324,0.013523,0.002678,0.000431,0.001645
127400000,0.0324,0.013523,0.002678,0.000431,0.005289
127401000,0.0324,0.013523,0.002678,0.000431,0.000705
127402000,0.0324,0.013523,0.002678,0.000431,0.000940
127403000,0.0324,0.013523,0.002678,0.000431,0.000705
127404000,0.0324,0.013523,0.002678,0.000431,0.000940
127405000,0.0324,0.013523,0.002678,0.000431,0.000823
127406000,0.0324,0.013523,0.002678,0.000431,0.000823
127407000,0.0324,0.013523,0.002678,0.000431,0.000823
127408000,0.0324,0.013523,0.002678,0.000431,0.000823
127409000,0.0324,0.013523,0.002678,0.000431,0.000940
127410000,0.0324,0.013523,0.002678,0.000431,0.000705
127411000,0.0324,0.013523,0.002678,0.000431,0.000940
127412000,0.0324,0.013523,0.002678,0.000431,0.000705
127413000,0.0324,0.013523,0.002678,0.000431,0.000940
127414000,0.0324,0.013523,0.002678,0.000431,0.000705
127415000,0.0324,0.013523,0.002678,0.000431,0.000940
127416000,0.0324,0.013523,0.002678,0.000431,0.000705
127417000,0.0324,0.013523,0.002678,0.000431,0.000940
127418000,0.0324,0.013523,0.002678,0.000431,0.002468
127419000,0.0324,0.013523,0.002678,0.000431,0.476694
127420000,0.0324,0.013523,0.002678,0.000431,0.765579
127421000,0.0324,0.013523,0.002678,0.000431,0.362222
127422000,0.0324,0.013523,0.002678,0.000431,0.166537
127423000,0.0324,0.013523,0.002678,0.000431,0.512775
127424000,0.0324,0.013523,0.002678,0.000431,0.360459
127425000,0.0324,0.013523,0.002678,0.000431,0.316856
127426000,0.0324,0.013523,0.002678,0.000431,0.222951
127427000,0.0324,0.013523,0.002678,0.000431,0.185812
127428000,0.0324,0.013523,0.002678,0.000431,0.086383
127429000,0.0324,0.013523,0.002678,0.000431,0.575536
127430000,0.0324,0.013523,0.002678,0.000431,0.403827
127431000,0.0324,0.013523,0.002678,0.000431,0.287827
127432000,0.0324,0.013523,0.002678,0.000431,0.237760
127433000,0.0324,0.013523,0.002678,0.000431,0.244576
127434000,0.0324,0.013523,0.002678,0.000431,0.191924
127435000,0.0324,0.013523,0.002678,0.000431,0.153374
127436000,0.0324,0.013523,0.002678,0.000431,0.129163
127437000,0.0324,0.013523,0.002678,0.000431,0.117646
127438000,0.0324,0.013523,0.002678,0.000431,0.100016
127439000,0.0324,0.013523,0.002678,0.000431,0.090967
127440000,0.0324,0.013523,0.002678,0.000431,0.074865
127441000,0.0324,0.013523,0.002678,0.000431,0.058059
127442000,0.0324,0.013523,0.002678,0.000431,0.050420
127443000,0.0324,0.013523,0.002678,0.000431,0.040782
127444000,0.0324,0.013523,0.002678,0.000431,0.038784
127445000,0.0324,0.013523,0.002678,0.000431,0.023153
127446000,0.0324,0.013523,0.002678,0.000431,0.028677
127447000,0.0324,0.013523,0.002678,0.000431,0.022918
127448000,0.0324,0.013523,0.002678,0.000431,0.025269
127449000,0.0324,0.013523,0.002678,0.000431,0.020567
127450000,0.0324,0.013523,0.002678,0.000431,0.012576
127451000,0.0324,0.013523,0.002678,0.000431,0.007522
127452000,0.0324,0.013523,0.002678,0.000431,0.008345
127453000,0.0324,0.013523,0.002678,0.000431,0.007992
127454000,0.0324,0.013523,0.002678,0.000431,0.007639
127455000,0.0324,0.013523,0.002678,0.000431,0.005054
127456000,0.0324,0.013523,0.002678,0.000431,0.003996
127457000,0.0324,0.013523,0.002678,0.000431,0.013633
127458000,0.0324,0.013523,0.002678,0.000431,0.004584
127459000,0.0324,0.013523,0.002678,0.000431,0.003056
127460000,0.0324,0.013523,0.002678,0.000431,0.000705
127461000,0.0324,0.013523,0.002678,0.000431,0.001293
127462000,0.0324,0.013523,0.002678,0.000431,0.321557
127463000,0.0324,0.013523,0.002678,0.000431,0.841384
127464000,0.0324,0.013523,0.002678,0.000431,0.465294
127465000,0.0324,0.013523,0.002678,0.000431,0.161719
127466000,0.0324,0.013523,0.002678,0.000431,0.417343
127467000,0.0324,0.013523,0.002678,0.000431,0.385492
127468000,0.0324,0.013523,0.002678,0.000431,0.287827
127469000,0.0324,0.013523,0.002678,0.000431,0.274781
127470000,0.0324,0.013523,0.002678,0.000431,0.164539
127471000,0.0324,0.013523,0.002678,0.000431,0.106245
127472000,0.0324,0.013523,0.002678,0.000431,0.435089
127473000,0.0324,0.013523,0.002678,0.000431,0.495264
127474000,0.0324,0.013523,0.002678,0.000431,0.282890
127475000,0.0324,0.013523,0.002678,0.000431,0.250805
127476000,0.0324,0.013523,0.002678,0.000431,0.235762
127477000,0.0324,0.013523,0.002678,0.000431,0.204264
127478000,0.0324,0.013523,0.002678,0.000431,0.163482
127479000,0.0324,0.013523,0.002678,0.000431,0.141621
127480000,0.0324,0.013523,0.002678,0.000431,0.127988
127481000,0.0324,0.013523,0.002678,0.000431,0.108008
127482000,0.0324,0.013523,0.002678,0.000431,0.092730
127483000,0.0324,0.013523,0.002678,0.000431,0.080507
127484000,0.0324,0.013523,0.002678,0.000431,0.061115
127485000,0.0324,0.013523,0.002678,0.000431,0.063230
127486000,0.0324,0.013523,0.002678,0.000431,0.049244
127487000,0.0324,0.013523,0.002678,0.000431,0.048304
127488000,0.0324,0.013523,0.002678,0.000431,0.031380
127489000,0.0324,0.013523,0.002678,0.000431,0.028677
127490000,0.0324,0.013523,0.002678,0.000431,0.020802
127491000,0.0324,0.013523,0.002678,0.000431,0.020215
127492000,0.0324,0.013523,0.002678,0.000431,0.020920
127493000,0.0324,0.013523,0.002678,0.000431,0.022565
127494000,0.0324,0.013523,0.002678,0.000431,0.018922
127495000,0.0324,0.013523,0.002678,0.000431,0.013281
127496000,0.0324,0.013523,0.002678,0.000431,0.011988
127497000,0.0324,0.013523,0.002678,0.000431,0.020332
127498000,0.0324,0.013523,0.002678,0.000431,0.009167
127499000,0.0324,0.013523,0.002678,0.000431,0.003408
127500000,0.0324,0.013523,0.002678,0.000431,0.003878
127501000,0.0324,0.013523,0.002678,0.000431,0.006934
127502000,0.0324,0.013523,0.002678,0.000431,0.002468
127503000,0.0324,0.013523,0.002678,0.000431,0.002233
127504000,0.0324,0.013523,0.002678,0.000431,0.002586
127505000,0.0324,0.013523,0.002678,0.000431,0.002703
127506000,0.0324,0.013523,0.002678,0.000431,0.002468
127507000,0.0324,0.013523,0.002678,0.000431,0.002586
127508000,0.0324,0.013523,0.002678,0.000431,0.002468
127509000,0.0324,0.013523,0.002678,0.000431,0.002468
127510000,0.0324,0.013523,0.002678,0.000431,0.002586
127511000,0.0324,0.013523,0.002678,0.000431,0.002586
127512000,0.0324,0.013523,0.002678,0.000431,0.002351
127513000,0.0324,0.013523,0.002678,0.000431,0.002586
127514000,0.0324,0.013523,0.002678,0.000431,0.002586
127515000,0.0324,0.013523,0.002678,0.000431,0.002351
127516000,0.0324,0.013523,0.002678,0.000431,0.006111
127517000,0.0324,0.013523,0.002678,0.000431,0.001528
127518000,0.0324,0.013523,0.002678,0.000431,0.001763
127519000,0.0324,0.013523,0.002678,0.000431,0.001645
127520000,0.0324,0.013523,0.002678,0.000431,0.001763
127521000,0.0324,0.013523,0.002678,0.000431,0.001763
127522000,0.0324,0.013523,0.002678,0.000431,0.001528
127523000,0.0324,0.013523,0.002678,0.000431,0.001763
127524000,0.0324,0.013523,0.002678,0.000431,0.001528
127525000,0.0324,0.013523,0.002678,0.000431,0.001763
127526000,0.0324,0.013523,0.002678,0.000431,0.001645
127527000,0.0324,0.013523,0.002678,0.000431,0.001763
127528000,0.0324,0.013523,0.002678,0.000431,0.001528
127529000,0.0324,0.013523,0.002678,0.000431,0.001763
127530000,0.0324,0.013523,0.002678,0.000431,0.004584
127531000,0.0324,0.013523,0.002678,0.000431,0.002586
127532000,0.0324,0.013523,0.002678,0.000431,0.575183
127533000,0.0324,0.013523,0.002678,0.000431,0.726559
127534000,0.0324,0.013523,0.002678,0.000431,0.339304
127535000,0.0324,0.013523,0.002678,0.000431,0.153022
127536000,0.0324,0.013523,0.002678,0.000431,0.535693
127537000,0.0324,0.013523,0.002678,0.000431,0.265379
127538000,0.0324,0.013523,0.002678,0.000431,0.354112
127539000,0.0324,0.013523,0.002678,0.000431,0.220483
127540000,0.0324,0.013523,0.002678,0.000431,0.184754
127541000,0.0324,0.013523,0.002678,0.000431,0.094610
127542000,0.0324,0.013523,0.002678,0.000431,0.570247
127543000,0.0324,0.013523,0.002678,0.000431,0.420398
127544000,0.0324,0.013523,0.002678,0.000431,0.296289
127545000,0.0324,0.013523,0.002678,0.000431,0.254684
127546000,0.0324,0.013523,0.002678,0.000431,0.217780
127547000,0.0324,0.013523,0.002678,0.000431,0.208730
127548000,0.0324,0.013523,0.002678,0.000431,0.161014
127549000,0.0324,0.013523,0.002678,0.000431,0.119174
127550000,0.0324,0.013523,0.002678,0.000431,0.128576
127551000,0.0324,0.013523,0.002678,0.000431,0.117058
127552000,0.0324,0.013523,0.002678,0.000431,0.084503
127553000,0.0324,0.013523,0.002678,0.000431,0.070517
127554000,0.0324,0.013523,0.002678,0.000431,0.047599
127555000,0.0324,0.013523,0.002678,0.000431,0.041840
127556000,0.0324,0.013523,0.002678,0.000431,0.034318
127557000,0.0324,0.013523,0.002678,0.000431,0.034201
127558000,0.0324,0.013523,0.002678,0.000431,0.028912
127559000,0.0324,0.013523,0.002678,0.000431,0.034906
127560000,0.0324,0.013523,0.002678,0.000431,0.022448
127561000,0.0324,0.013523,0.002678,0.000431,0.023858
127562000,0.0324,0.013523,0.002678,0.000431,0.031733
127563000,0.0324,0.013523,0.002678,0.000431,0.018687
127564000,0.0324,0.013523,0.002678,0.000431,0.019275
127565000,0.0324,0.013523,0.002678,0.000431,0.020450
127566000,0.0324,0.013523,0.002678,0.000431,0.013986
127567000,0.0324,0.013523,0.002678,0.000431,0.009285
127568000,0.0324,0.013523,0.002678,0.000431,0.011518
127569000,0.0324,0.013523,0.002678,0.000431,0.007639
127570000,0.0324,0.013523,0.002678,0.000431,0.009402
127571000,0.0324,0.013523,0.002678,0.000431,0.005524
127572000,0.0324,0.013523,0.002678,0.000431,0.005641
127573000,0.0324,0.013523,0.002678,0.000431,0.005524
127574000,0.0324,0.013523,0.002678,0.000431,0.007522
127575000,0.0324,0.013523,0.002678,0.000431,0.003996
127576000,0.0324,0.013523,0.002678,0.000431,0.007757
127577000,0.0324,0.013523,0.002678,0.000431,0.002821
127578000,0.0324,0.013523,0.002678,0.000431,0.001645
127579000,0.0324,0.013523,0.002678,0.000431,0.001763
127580000,0.0324,0.013523,0.002678,0.000431,0.001645
127581000,0.0324,0.013523,0.002678,0.000431,0.001645
127582000,0.0324,0.013523,0.002678,0.000431,0.001763
127583000,0.0324,0.013523,0.002678,0.000431,0.001528
127584000,0.0324,0.013523,0.002678,0.000431,0.001645
127585000,0.0324,0.013523,0.002678,0.000431,0.001528
127586000,0.0324,0.013523,0.002678,0.000431,0.001880
127587000,0.0324,0.013523,0.002678,0.000431,0.005054
127588000,0.0324,0.013523,0.002678,0.000431,0.005054
127589000,0.0324,0.013523,0.002678,0.000431,0.752063
127590000,0.0324,0.013523,0.002678,0.000431,0.682251
127591000,0.0324,0.013523,0.002678,0.000431,0.244341
127592000,0.0324,0.013523,0.002678,0.000431,0.168535
127593000,0.0324,0.013523,0.002678,0.000431,0.573067
127594000,0.0324,0.013523,0.002678,0.000431,0.253978
127595000,0.0324,0.013523,0.002678,0.000431,0.372682
127596000,0.0324,0.013523,0.002678,0.000431,0.171239
127597000,0.0324,0.013523,0.002678,0.000431,0.161954
127598000,0.0324,0.013523,0.002678,0.000431,0.174529
127599000,0.0324,0.013523,0.002678,0.000431,0.589169
127600000,0.0324,0.013523,0.002678,0.000431,0.356933
127601000,0.0324,0.013523,0.002678,0.000431,0.276661
127602000,0.0324,0.013523,0.002678,0.000431,0.225772
127603000,0.0324,0.013523,0.002678,0.000431,0.211786
127604000,0.0324,0.013523,0.002678,0.000431,0.181346
127605000,0.0324,0.013523,0.002678,0.000431,0.152904
127606000,0.0324,0.013523,0.002678,0.000431,0.116470
127607000,0.0324,0.013523,0.002678,0.000431,0.096138
127608000,0.0324,0.013523,0.002678,0.000431,0.097313
127609000,0.0324,0.013523,0.002678,0.000431,0.071692
127610000,0.0324,0.013523,0.002678,0.000431,0.055826
127611000,0.0324,0.013523,0.002678,0.000431,0.053240
127612000,0.0324,0.013523,0.002678,0.000431,0.032320
127613000,0.0324,0.013523,0.002678,0.000431,0.027972
127614000,0.0324,0.013523,0.002678,0.000431,0.028089
127615000,0.0324,0.013523,0.002678,0.000431,0.023623
127616000,0.0324,0.013523,0.002678,0.000431,0.016571
127617000,0.0324,0.013523,0.002678,0.000431,0.015631
127618000,0.0324,0.013523,0.002678,0.000431,0.014691
127619000,0.0324,0.013523,0.002678,0.000431,0.010578
127620000,0.0324,0.013523,0.002678,0.000431,0.009637
127621000,0.0324,0.013523,0.002678,0.000431,0.008815
127622000,0.0324,0.013523,0.002678,0.000431,0.005289
127623000,0.0324,0.013523,0.002678,0.000431,0.007404
127624000,0.0324,0.013523,0.002678,0.000431,0.007522
127625000,0.0324,0.013523,0.002678,0.000431,0.009520
127626000,0.0324,0.013523,0.002678,0.000431,0.002821
127627000,0.0324,0.013523,0.002678,0.000431,0.002938
127628000,0.0324,0.013523,0.002678,0.000431,0.002586
127629000,0.0324,0.013523,0.002678,0.000431,0.004819
127630000,0.0324,0.013523,0.002678,0.000431,0.003996
127631000,0.0324,0.013523,0.002678,0.000431,0.001528
127632000,0.0324,0.013523,0.002678,0.000431,0.005054
127633000,0.0324,0.013523,0.002678,0.000431,0.000705
127634000,0.0324,0.013523,0.002678,0.000431,0.000940
127635000,0.0324,0.013523,0.002678,0.000431,0.000823
127636000,0.0324,0.013523,0.002678,0.000431,0.000823
127637000,0.0324,0.013523,0.002678,0.000431,0.000823
127638000,0.0324,0.013523,0.002678,0.000431,0.000823
127639000,0.0324,0.013523,0.002678,0.000431,0.000823
127640000,0.0324,0.013523,0.002678,0.000431,0.000823
127641000,0.0324,0.013523,0.002678,0.000431,0.000823
127642000,0.0324,0.013523,0.002678,0.000431,0.000823
127643000,0.0324,0.013523,0.002678,0.000431,0.000940
127644000,0.0324,0.013523,0.002678,0.000431,0.000823
127645000,0.0324,0.013523,0.002678,0.000431,0.000823
127646000,0.0324,0.013523,0.002678,0.000431,0.000705
127647000,0.0324,0.013523,0.002678,0.000431,0.000940
127648000,0.0324,0.013523,0.002678,0.000431,0.000940
127649000,0.0324,0.013523,0.002678,0.000431,0.000705
127650000,0.0324,0.013523,0.002678,0.000431,0.000940
127651000,0.0324,0.013523,0.002678,0.000431,0.000705
127652000,0.0324,0.013523,0.002678,0.000431,0.000940
127653000,0.0324,0.013523,0.002678,0.000431,0.000823
127654000,0.0324,0.013523,0.002678,0.000431,0.000823
127655000,0.0324,0.013523,0.002678,0.000431,0.000940
127656000,0.0324,0.013523,0.002678,0.000431,0.000705
127657000,0.0324,0.013523,0.002678,0.000431,0.000940
127658000,0.0324,0.013523,0.002678,0.000431,0.000823
127659000,0.0324,0.013523,0.002678,0.000431,0.000823
127660000,0.0324,0.013523,0.002678,0.000431,0.000823
127661000,0.0324,0.013523,0.002678,0.000431,0.000823
127662000,0.0324,0.013523,0.002678,0.000431,0.000823
127663000,0.0324,0.013523,0.002678,0.000431,0.000823
127664000,0.0324,0.013523,0.002678,0.000431,0.000940
127665000,0.0324,0.013523,0.002678,0.000431,0.000823
127666000,0.0324,0.013523,0.002678,0.000431,0.000823
127667000,0.0324,0.013523,0.002678,0.000431,0.000823
127668000,0.0324,0.013523,0.002678,0.000431,0.000823
127669000,0.0324,0.013523,0.002678,0.000431,0.000705
127670000,0.0324,0.013523,0.002678,0.000431,0.000940
127671000,0.0324,0.013523,0.002678,0.000431,0.000705
127672000,0.0324,0.013523,0.002678,0.000431,0.000940
127673000,0.0324,0.013523,0.002678,0.000431,0.000823
127674000,0.0324,0.013523,0.002678,0.000431,0.000823
127675000,0.0324,0.013523,0.002678,0.000431,0.096491
127676000,0.0324,0.013523,0.002678,0.000431,0.915780
127677000,0.0324,0.013523,0.002678,0.000431,0.545801
127678000,0.0324,0.013523,0.002678,0.000431,0.157370
127679000,0.0324,0.013523,0.002678,0.000431,0.251393
127680000,0.0324,0.013523,0.002678,0.000431,0.513128
127681000,0.0324,0.013523,0.002678,0.000431,0.276309
127682000,0.0324,0.013523,0.002678,0.000431,0.328961
127683000,0.0324,0.013523,0.002678,0.000431,0.162659
127684000,0.0324,0.013523,0.002678,0.000431,0.128341
127685000,0.0324,0.013523,0.002678,0.000431,0.291822
127686000,0.0324,0.013523,0.002678,0.000431,0.576006
127687000,0.0324,0.013523,0.002678,0.000431,0.307806
127688000,0.0324,0.013523,0.002678,0.000431,0.271960
127689000,0.0324,0.013523,0.002678,0.000431,0.244341
127690000,0.0324,0.013523,0.002678,0.000431,0.212138
127691000,0.0324,0.013523,0.002678,0.000431,0.185342
127692000,0.0324,0.013523,0.002678,0.000431,0.166890
127693000,0.0324,0.013523,0.002678,0.000431,0.130574
127694000,0.0324,0.013523,0.002678,0.000431,0.108949
127695000,0.0324,0.013523,0.002678,0.000431,0.090732
127696000,0.0324,0.013523,0.002678,0.000431,0.072632
127697000,0.0324,0.013523,0.002678,0.000431,0.072162
127698000,0.0324,0.013523,0.002678,0.000431,0.062995
127699000,0.0324,0.013523,0.002678,0.000431,0.048069
127700000,0.0324,0.013523,0.002678,0.000431,0.032203
127701000,0.0324,0.013523,0.002678,0.000431,0.021390
127702000,0.0324,0.013523,0.002678,0.000431,0.036199
127703000,0.0324,0.013523,0.002678,0.000431,0.023036
127704000,0.0324,0.013523,0.002678,0.000431,0.022800
127705000,0.0324,0.013523,0.002678,0.000431,0.008932
127706000,0.0324,0.013523,0.002678,0.000431,0.011283
127707000,0.0324,0.013523,0.002678,0.000431,0.007287
127708000,0.0324,0.013523,0.002678,0.000431,0.007052
127709000,0.0324,0.013523,0.002678,0.000431,0.010460
127710000,0.0324,0.013523,0.002678,0.000431,0.008109
127711000,0.0324,0.013523,0.002678,0.000431,0.005289
127712000,0.0324,0.013523,0.002678,0.000431,0.006229
127713000,0.0324,0.013523,0.002678,0.000431,0.002468
127714000,0.0324,0.013523,0.002678,0.000431,0.002586
127715000,0.0324,0.013523,0.002678,0.000431,0.005759
127716000,0.0324,0.013523,0.002678,0.000431,0.001763
127717000,0.0324,0.013523,0.002678,0.000431,0.001763
127718000,0.0324,0.013523,0.002678,0.000431,0.001645
127719000,0.0324,0.013523,0.002678,0.000431,0.001763
127720000,0.0324,0.013523,0.002678,0.000431,0.001645
127721000,0.0324,0.013523,0.002678,0.000431,0.001880
127722000,0.0324,0.013523,0.002678,0.000431,0.001645
127723000,0.0324,0.013523,0.002678,0.000431,0.001645
127724000,0.0324,0.013523,0.002678,0.000431,0.001763
127725000,0.0324,0.013523,0.002678,0.000431,0.001763
127726000,0.0324,0.013523,0.002678,0.000431,0.001645
127727000,0.0324,0.013523,0.002678,0.000431,0.001645
127728000,0.0324,0.013523,0.002678,0.000431,0.001763
127729000,0.0324,0.013523,0.002678,0.000431,0.001645
127730000,0.0324,0.013523,0.002678,0.000431,0.001880
127731000,0.0324,0.013523,0.002678,0.000431,0.001645
127732000,0.0324,0.013523,0.002678,0.000431,0.004701
127733000,0.0324,0.013523,0.002678,0.000431,0.000823
127734000,0.0324,0.013523,0.002678,0.000431,0.000823
127735000,0.0324,0.013523,0.002678,0.000431,0.002233
127736000,0.0324,0.013523,0.002678,0.000431,0.576123
127737000,0.0324,0.013523,0.002678,0.000431,0.729145
127738000,0.0324,0.013523,0.002678,0.000431,0.336483
127739000,0.0324,0.013523,0.002678,0.000431,0.170063
127740000,0.0324,0.013523,0.002678,0.000431,0.595045
127741000,0.0324,0.013523,0.002678,0.000431,0.261853
127742000,0.0324,0.013523,0.002678,0.000431,0.333427
127743000,0.0324,0.013523,0.002678,0.000431,0.216722
127744000,0.0324,0.013523,0.002678,0.000431,0.165362
127745000,0.0324,0.013523,0.002678,0.000431,0.127636
127746000,0.0324,0.013523,0.002678,0.000431,0.581529
127747000,0.0324,0.013523,0.002678,0.000431,0.384905
127748000,0.0324,0.013523,0.002678,0.000431,0.280422
127749000,0.0324,0.013523,0.002678,0.000431,0.249277
127750000,0.0324,0.013523,0.002678,0.000431,0.197330
127751000,0.0324,0.013523,0.002678,0.000431,0.189455
127752000,0.0324,0.013523,0.002678,0.000431,0.153492
127753000,0.0324,0.013523,0.002678,0.000431,0.111534
127754000,0.0324,0.013523,0.002678,0.000431,0.097901
127755000,0.0324,0.013523,0.002678,0.000431,0.080859
127756000,0.0324,0.013523,0.002678,0.000431,0.064170
127757000,0.0324,0.013523,0.002678,0.000431,0.047481
127758000,0.0324,0.013523,0.002678,0.000431,0.045248
127759000,0.0324,0.013523,0.002678,0.000431,0.042663
127760000,0.0324,0.013523,0.002678,0.000431,0.035964
127761000,0.0324,0.013523,0.002678,0.000431,0.026679
127762000,0.0324,0.013523,0.002678,0.000431,0.020567
127763000,0.0324,0.013523,0.002678,0.000431,0.015749
127764000,0.0324,0.013523,0.002678,0.000431,0.021508
127765000,0.0324,0.013523,0.002678,0.000431,0.014691
127766000,0.0324,0.013523,0.002678,0.000431,0.017982
127767000,0.0324,0.013523,0.002678,0.000431,0.014103
127768000,0.0324,0.013523,0.002678,0.000431,0.005054
127769000,0.0324,0.013523,0.002678,0.000431,0.007169
127770000,0.0324,0.013523,0.002678,0.000431,0.004584
127771000,0.0324,0.013523,0.002678,0.000431,0.007874
127772000,0.0324,0.013523,0.002678,0.000431,0.003643
127773000,0.0324,0.013523,0.002678,0.000431,0.007404
127774000,0.0324,0.013523,0.002678,0.000431,0.003408
127775000,0.0324,0.013523,0.002678,0.000431,0.004701
127776000,0.0324,0.013523,0.002678,0.000431,0.000823
127777000,0.0324,0.013523,0.002678,0.000431,0.001175
127778000,0.0324,0.013523,0.002678,0.000431,0.000940
127779000,0.0324,0.013523,0.002678,0.000431,0.001175
127780000,0.0324,0.013523,0.002678,0.000431,0.000940
127781000,0.0324,0.013523,0.002678,0.000431,0.000940
127782000,0.0324,0.013523,0.002678,0.000431,0.000940
127783000,0.0324,0.013523,0.002678,0.000431,0.000940
127784000,0.0324,0.013523,0.002678,0.000431,0.019510
127785000,0.0324,0.013523,0.002678,0.000431,0.910726
127786000,0.0324,0.013523,0.002678,0.000431,0.541687
127787000,0.0324,0.013523,0.002678,0.000431,0.199915
127788000,0.0324,0.013523,0.002678,0.000431,0.214019
127789000,0.0324,0.013523,0.002678,0.000431,0.573185
127790000,0.0324,0.013523,0.002678,0.000431,0.309099
127791000,0.0324,0.013523,0.002678,0.000431,0.308159
127792000,0.0324,0.013523,0.002678,0.000431,0.151964
127793000,0.0324,0.013523,0.002678,0.000431,0.146323
127794000,0.0324,0.013523,0.002678,0.000431,0.238465
127795000,0.0324,0.013523,0.002678,0.000431,0.572245
127796000,0.0324,0.013523,0.002678,0.000431,0.290295
127797000,0.0324,0.013523,0.002678,0.000431,0.247632
127798000,0.0324,0.013523,0.002678,0.000431,0.226477
127799000,0.0324,0.013523,0.002678,0.000431,0.182991
127800000,0.0324,0.013523,0.002678,0.000431,0.167830
127801000,0.0324,0.013523,0.002678,0.000431,0.133394
127802000,0.0324,0.013523,0.002678,0.000431,0.118821
127803000,0.0324,0.013523,0.002678,0.000431,0.084973
127804000,0.0324,0.013523,0.002678,0.000431,0.095198
127805000,0.0324,0.013523,0.002678,0.000431,0.062290
127806000,0.0324,0.013523,0.002678,0.000431,0.041840
127807000,0.0324,0.013523,0.002678,0.000431,0.040312
127808000,0.0324,0.013523,0.002678,0.000431,0.028559
127809000,0.0324,0.013523,0.002678,0.000431,0.023388
127810000,0.0324,0.013523,0.002678,0.000431,0.028677
127811000,0.0324,0.013523,0.002678,0.000431,0.028207
127812000,0.0324,0.013523,0.002678,0.000431,0.017747
127813000,0.0324,0.013523,0.002678,0.000431,0.021743
127814000,0.0324,0.013523,0.002678,0.000431,0.011870
127815000,0.0324,0.013523,0.002678,0.000431,0.011870
127816000,0.0324,0.013523,0.002678,0.000431,0.012105
127817000,0.0324,0.013523,0.002678,0.000431,0.015631
127818000,0.0324,0.013523,0.002678,0.000431,0.012576
127819000,0.0324,0.013523,0.002678,0.000431,0.007052
127820000,0.0324,0.013523,0.002678,0.000431,0.006347
127821000,0.0324,0.013523,0.002678,0.000431,0.007052
127822000,0.0324,0.013523,0.002678,0.000431,0.003173
127823000,0.0324,0.013523,0.002678,0.000431,0.002938
127824000,0.0324,0.013523,0.002678,0.000431,0.003173
127825000,0.0324,0.013523,0.002678,0.000431,0.003291
127826000,0.0324,0.013523,0.002678,0.000431,0.003408
127827000,0.0324,0.013523,0.002678,0.000431,0.003408
127828000,0.0324,0.013523,0.002678,0.000431,0.002703
127829000,0.0324,0.013523,0.002678,0.000431,0.003291
127830000,0.0324,0.013523,0.002678,0.000431,0.004701
127831000,0.0324,0.013523,0.002678,0.000431,0.005876
127832000,0.0324,0.013523,0.002678,0.000431,0.001175
127833000,0.0324,0.013523,0.002678,0.000431,0.001293
127834000,0.0324,0.013523,0.002678,0.000431,0.001293
127835000,0.0324,0.013523,0.002678,0.000431,0.001410
127836000,0.0324,0.013523,0.002678,0.000431,0.001645
127837000,0.0324,0.013523,0.002678,0.000431,0.001175
127838000,0.0324,0.013523,0.002678,0.000431,0.001645
127839000,0.0324,0.013523,0.002678,0.000431,0.001410
127840000,0.0324,0.013523,0.002678,0.000431,0.001293
127841000,0.0324,0.013523,0.002678,0.000431,0.004466
127842000,0.0324,0.013523,0.002678,0.000431,0.629246
127843000,0.0324,0.013523,0.002678,0.000431,0.732201
127844000,0.0324,0.013523,0.002678,0.000431,0.245516
127845000,0.0324,0.013523,0.002678,0.000431,0.156783
127846000,0.0324,0.013523,0.002678,0.000431,0.577298
127847000,0.0324,0.013523,0.002678,0.000431,0.270550
127848000,0.0324,0.013523,0.002678,0.000431,0.324260
127849000,0.0324,0.013523,0.002678,0.000431,0.183579
127850000,0.0324,0.013523,0.002678,0.000431,0.185812
127851000,0.0324,0.013523,0.002678,0.000431,0.100134
127852000,0.0324,0.013523,0.002678,0.000431,0.571657
127853000,0.0324,0.013523,0.002678,0.000431,0.377618
127854000,0.0324,0.013523,0.002678,0.000431,0.248572
127855000,0.0324,0.013523,0.002678,0.000431,0.228945
127856000,0.0324,0.013523,0.002678,0.000431,0.202854
127857000,0.0324,0.013523,0.002678,0.000431,0.175352
127858000,0.0324,0.013523,0.002678,0.000431,0.155607
127859000,0.0324,0.013523,0.002678,0.000431,0.127988
127860000,0.0324,0.013523,0.002678,0.000431,0.082387
127861000,0.0324,0.013523,0.002678,0.000431,0.082035
127862000,0.0324,0.013523,0.002678,0.000431,0.085090
127863000,0.0324,0.013523,0.002678,0.000431,0.062525
127864000,0.0324,0.013523,0.002678,0.000431,0.045131
127865000,0.0324,0.013523,0.002678,0.000431,0.035729
127866000,0.0324,0.013523,0.002678,0.000431,0.036551
127867000,0.0324,0.013523,0.002678,0.000431,0.037374
127868000,0.0324,0.013523,0.002678,0.000431,0.016101
127869000,0.0324,0.013523,0.002678,0.000431,0.019980
127870000,0.0324,0.013523,0.002678,0.000431,0.019745
127871000,0.0324,0.013523,0.002678,0.000431,0.012928
127872000,0.0324,0.013523,0.002678,0.000431,0.014926
127873000,0.0324,0.013523,0.002678,0.000431,0.011635
127874000,0.0324,0.013523,0.002678,0.000431,0.011518
127875000,0.0324,0.013523,0.002678,0.000431,0.012340
127876000,0.0324,0.013523,0.002678,0.000431,0.011283
127877000,0.0324,0.013523,0.002678,0.000431,0.013633
127878000,0.0324,0.013523,0.002678,0.000431,0.015279
127879000,0.0324,0.013523,0.002678,0.000431,0.009167
127880000,0.0324,0.013523,0.002678,0.000431,0.004349
127881000,0.0324,0.013523,0.002678,0.000431,0.002586
127882000,0.0324,0.013523,0.002678,0.000431,0.002468
127883000,0.0324,0.013523,0.002678,0.000431,0.002586
127884000,0.0324,0.013523,0.002678,0.000431,0.002468
127885000,0.0324,0.013523,0.002678,0.000431,0.002703
127886000,0.0324,0.013523,0.002678,0.000431,0.002468
127887000,0.0324,0.013523,0.002678,0.000431,0.002703
127888000,0.0324,0.013523,0.002678,0.000431,0.002468
127889000,0.0324,0.013523,0.002678,0.000431,0.002468
127890000,0.0324,0.013523,0.002678,0.000431,0.002703
127891000,0.0324,0.013523,0.002678,0.000431,0.007169
127892000,0.0324,0.013523,0.002678,0.000431,0.002468
127893000,0.0324,0.013523,0.002678,0.000431,0.000823
127894000,0.0324,0.013523,0.002678,0.000431,0.000705
127895000,0.0324,0.013523,0.002678,0.000431,0.000940
127896000,0.0324,0.013523,0.002678,0.000431,0.000940
127897000,0.0324,0.013523,0.002678,0.000431,0.000705
127898000,0.0324,0.013523,0.002678,0.000431,0.000940
127899000,0.0324,0.013523,0.002678,0.000431,0.000705
127900000,0.0324,0.013523,0.002678,0.000431,0.000940
127901000,0.0324,0.013523,0.002678,0.000431,0.000705
127902000,0.0324,0.013523,0.002678,0.000431,0.000940
127903000,0.0324,0.013523,0.002678,0.000431,0.000705
127904000,0.0324,0.013523,0.002678,0.000431,0.000823
127905000,0.0324,0.013523,0.002678,0.000431,0.000940
127906000,0.0324,0.013523,0.002678,0.000431,0.000823
127907000,0.0324,0.013523,0.002678,0.000431,0.000705
127908000,0.0324,0.013523,0.002678,0.000431,0.000940
127909000,0.0324,0.013523,0.002678,0.000431,0.000705
127910000,0.0324,0.013523,0.002678,0.000431,0.000940
127911000,0.0324,0.013523,0.002678,0.000431,0.000705
127912000,0.0324,0.013523,0.002678,0.000431,0.000940
127913000,0.0324,0.013523,0.002678,0.000431,0.000823
127914000,0.0324,0.013523,0.002678,0.000431,0.000823
127915000,0.0324,0.013523,0.002678,0.000431,0.000823
127916000,0.0324,0.013523,0.002678,0.000431,0.000823
127917000,0.0324,0.013523,0.002678,0.000431,0.000940
127918000,0.0324,0.013523,0.002678,0.000431,0.000705
127919000,0.0324,0.013523,0.002678,0.000431,0.000940
127920000,0.0324,0.013523,0.002678,0.000431,0.072750
127921000,0.0324,0.013523,0.002678,0.000431,0.867358
127922000,0.0324,0.013523,0.002678,0.000431,0.563783
127923000,0.0324,0.013523,0.002678,0.000431,0.169358
127924000,0.0324,0.013523,0.002678,0.000431,0.218367
127925000,0.0324,0.013523,0.002678,0.000431,0.553558
127926000,0.0324,0.013523,0.002678,0.000431,0.285123
127927000,0.0324,0.013523,0.002678,0.000431,0.328256
127928000,0.0324,0.013523,0.002678,0.000431,0.157135
127929000,0.0324,0.013523,0.002678,0.000431,0.122229
127930000,0.0324,0.013523,0.002678,0.000431,0.334955
127931000,0.0324,0.013523,0.002678,0.000431,0.553205
127932000,0.0324,0.013523,0.002678,0.000431,0.298992
127933000,0.0324,0.013523,0.002678,0.000431,0.293585
127934000,0.0324,0.013523,0.002678,0.000431,0.234939
127935000,0.0324,0.013523,0.002678,0.000431,0.201091
127936000,0.0324,0.013523,0.002678,0.000431,0.157135
127937000,0.0324,0.013523,0.002678,0.000431,0.142444
127938000,0.0324,0.013523,0.002678,0.000431,0.103542
127939000,0.0324,0.013523,0.002678,0.000431,0.104247
127940000,0.0324,0.013523,0.002678,0.000431,0.071457
127941000,0.0324,0.013523,0.002678,0.000431,0.075101
127942000,0.0324,0.013523,0.002678,0.000431,0.068636
127943000,0.0324,0.013523,0.002678,0.000431,0.041840
127944000,0.0324,0.013523,0.002678,0.000431,0.044543
127945000,0.0324,0.013523,0.002678,0.000431,0.035611
127946000,0.0324,0.013523,0.002678,0.000431,0.026796
127947000,0.0324,0.013523,0.002678,0.000431,0.028207
127948000,0.0324,0.013523,0.002678,0.000431,0.022213
127949000,0.0324,0.013523,0.002678,0.000431,0.025386
127950000,0.0324,0.013523,0.002678,0.000431,0.017042
127951000,0.0324,0.013523,0.002678,0.000431,0.011283
127952000,0.0324,0.013523,0.002678,0.000431,0.005171
127953000,0.0324,0.013523,0.002678,0.000431,0.009402
127954000,0.0324,0.013523,0.002678,0.000431,0.010813
127955000,0.0324,0.013523,0.002678,0.000431,0.004819
127956000,0.0324,0.013523,0.002678,0.000431,0.003173
127957000,0.0324,0.013523,0.002678,0.000431,0.002351
127958000,0.0324,0.013523,0.002678,0.000431,0.000705
127959000,0.0324,0.013523,0.002678,0.000431,0.000940
127960000,0.0324,0.013523,0.002678,0.000431,0.000705
127961000,0.0324,0.013523,0.002678,0.000431,0.000940
127962000,0.0324,0.013523,0.002678,0.000431,0.000705
127963000,0.0324,0.013523,0.002678,0.000431,0.000940
127964000,0.0324,0.013523,0.002678,0.000431,0.000705
127965000,0.0324,0.013523,0.002678,0.000431,0.000940
127966000,0.0324,0.013523,0.002678,0.000431,0.000705
127967000,0.0324,0.013523,0.002678,0.000431,0.000940
127968000,0.0324,0.013523,0.002678,0.000431,0.000705
127969000,0.0324,0.013523,0.002678,0.000431,0.000940
127970000,0.0324,0.013523,0.002678,0.000431,0.000823
127971000,0.0324,0.013523,0.002678,0.000431,0.000823
127972000,0.0324,0.013523,0.002678,0.000431,0.000940
127973000,0.0324,0.013523,0.002678,0.000431,0.000705
127974000,0.0324,0.013523,0.002678,0.000431,0.000705
127975000,0.0324,0.013523,0.002678,0.000431,0.000823
127976000,0.0324,0.013523,0.002678,0.000431,0.000823
127977000,0.0324,0.013523,0.002678,0.000431,0.000940
127978000,0.0324,0.013523,0.002678,0.000431,0.000823
127979000,0.0324,0.013523,0.002678,0.000431,0.000588
127980000,0.0324,0.013523,0.002678,0.000431,0.000940
127981000,0.0324,0.013523,0.002678,0.000431,0.000823
127982000,0.0324,0.013523,0.002678,0.000431,0.017512
127983000,0.0324,0.013523,0.002678,0.000431,0.934819
127984000,0.0324,0.013523,0.002678,0.000431,0.558376
127985000,0.0324,0.013523,0.002678,0.000431,0.194862
127986000,0.0324,0.013523,0.002678,0.000431,0.310862
127987000,0.0324,0.013523,0.002678,0.000431,0.571892
127988000,0.0324,0.013523,0.002678,0.000431,0.300285
127989000,0.0324,0.013523,0.002678,0.000431,0.280657
127990000,0.0324,0.013523,0.002678,0.000431,0.163364
127991000,0.0324,0.013523,0.002678,0.000431,0.139976
127992000,0.0324,0.013523,0.002678,0.000431,0.571422
127993000,0.0324,0.013523,0.002678,0.000431,0.414404
127994000,0.0324,0.013523,0.002678,0.000431,0.295348
127995000,0.0324,0.013523,0.002678,0.000431,0.276896
127996000,0.0324,0.013523,0.002678,0.000431,0.232706
127997000,0.0324,0.013523,0.002678,0.000431,0.201678
127998000,0.0324,0.013523,0.002678,0.000431,0.169828
127999000,0.0324,0.013523,0.002678,0.000431,0.135628
