Cycle,Area(mm^2),PeakDynamic(W),SubthresholdLeakage(W),GateLeakage(W),RunTimeDynamic(W)
62000000,0.0324,0.013523,0.002678,0.000431,0.558141
62001000,0.0324,0.013523,0.002678,0.000431,0.216604
62002000,0.0324,0.013523,0.002678,0.000431,0.177350
62003000,0.0324,0.013523,0.002678,0.000431,0.133159
62004000,0.0324,0.013523,0.002678,0.000431,0.119761
62005000,0.0324,0.013523,0.002678,0.000431,0.103660
62006000,0.0324,0.013523,0.002678,0.000431,0.072632
62007000,0.0324,0.013523,0.002678,0.000431,0.057001
62008000,0.0324,0.013523,0.002678,0.000431,0.053593
62009000,0.0324,0.013523,0.002678,0.000431,0.038667
62010000,0.0324,0.013523,0.002678,0.000431,0.029265
62011000,0.0324,0.013523,0.002678,0.000431,0.024093
62012000,0.0324,0.013523,0.002678,0.000431,0.020332
62013000,0.0324,0.013523,0.002678,0.000431,0.021273
62014000,0.0324,0.013523,0.002678,0.000431,0.018099
62015000,0.0324,0.013523,0.002678,0.000431,0.010460
62016000,0.0324,0.013523,0.002678,0.000431,0.010813
62017000,0.0324,0.013523,0.002678,0.000431,0.005641
62018000,0.0324,0.013523,0.002678,0.000431,0.003996
62019000,0.0324,0.013523,0.002678,0.000431,0.008580
62020000,0.0324,0.013523,0.002678,0.000431,0.003408
62021000,0.0324,0.013523,0.002678,0.000431,0.003056
62022000,0.0324,0.013523,0.002678,0.000431,0.006111
62023000,0.0324,0.013523,0.002678,0.000431,0.002233
62024000,0.0324,0.013523,0.002678,0.000431,0.002468
62025000,0.0324,0.013523,0.002678,0.000431,0.002351
62026000,0.0324,0.013523,0.002678,0.000431,0.002351
62027000,0.0324,0.013523,0.002678,0.000431,0.002468
62028000,0.0324,0.013523,0.002678,0.000431,0.004936
62029000,0.0324,0.013523,0.002678,0.000431,0.001410
62030000,0.0324,0.013523,0.002678,0.000431,0.001645
62031000,0.0324,0.013523,0.002678,0.000431,0.001410
62032000,0.0324,0.013523,0.002678,0.000431,0.001645
62033000,0.0324,0.013523,0.002678,0.000431,0.001880
62034000,0.0324,0.013523,0.002678,0.000431,0.001175
62035000,0.0324,0.013523,0.002678,0.000431,0.001880
62036000,0.0324,0.013523,0.002678,0.000431,0.001293
62037000,0.0324,0.013523,0.002678,0.000431,0.001763
62038000,0.0324,0.013523,0.002678,0.000431,0.001645
62039000,0.0324,0.013523,0.002678,0.000431,0.001410
62040000,0.0324,0.013523,0.002678,0.000431,0.001763
62041000,0.0324,0.013523,0.002678,0.000431,0.001410
62042000,0.0324,0.013523,0.002678,0.000431,0.001293
62043000,0.0324,0.013523,0.002678,0.000431,0.261970
62044000,0.0324,0.013523,0.002678,0.000431,0.744424
62045000,0.0324,0.013523,0.002678,0.000431,0.398303
62046000,0.0324,0.013523,0.002678,0.000431,0.140329
62047000,0.0324,0.013523,0.002678,0.000431,0.491033
62048000,0.0324,0.013523,0.002678,0.000431,0.254449
62049000,0.0324,0.013523,0.002678,0.000431,0.294878
62050000,0.0324,0.013523,0.002678,0.000431,0.245281
62051000,0.0324,0.013523,0.002678,0.000431,0.158781
62052000,0.0324,0.013523,0.002678,0.000431,0.107891
62053000,0.0324,0.013523,0.002678,0.000431,0.495381
62054000,0.0324,0.013523,0.002678,0.000431,0.333075
62055000,0.0324,0.013523,0.002678,0.000431,0.216252
62056000,0.0324,0.013523,0.002678,0.000431,0.172531
62057000,0.0324,0.013523,0.002678,0.000431,0.150319
62058000,0.0324,0.013523,0.002678,0.000431,0.125755
62059000,0.0324,0.013523,0.002678,0.000431,0.097666
62060000,0.0324,0.013523,0.002678,0.000431,0.086971
62061000,0.0324,0.013523,0.002678,0.000431,0.057354
62062000,0.0324,0.013523,0.002678,0.000431,0.043133
62063000,0.0324,0.013523,0.002678,0.000431,0.028559
62064000,0.0324,0.013523,0.002678,0.000431,0.025269
62065000,0.0324,0.013523,0.002678,0.000431,0.017629
62066000,0.0324,0.013523,0.002678,0.000431,0.019157
62067000,0.0324,0.013523,0.002678,0.000431,0.015044
62068000,0.0324,0.013523,0.002678,0.000431,0.008462
62069000,0.0324,0.013523,0.002678,0.000431,0.011753
62070000,0.0324,0.013523,0.002678,0.000431,0.012811
62071000,0.0324,0.013523,0.002678,0.000431,0.006817
62072000,0.0324,0.013523,0.002678,0.000431,0.007287
62073000,0.0324,0.013523,0.002678,0.000431,0.006699
62074000,0.0324,0.013523,0.002678,0.000431,0.007874
62075000,0.0324,0.013523,0.002678,0.000431,0.009167
62076000,0.0324,0.013523,0.002678,0.000431,0.004349
62077000,0.0324,0.013523,0.002678,0.000431,0.003878
62078000,0.0324,0.013523,0.002678,0.000431,0.003173
62079000,0.0324,0.013523,0.002678,0.000431,0.003643
62080000,0.0324,0.013523,0.002678,0.000431,0.003526
62081000,0.0324,0.013523,0.002678,0.000431,0.003291
62082000,0.0324,0.013523,0.002678,0.000431,0.003761
62083000,0.0324,0.013523,0.002678,0.000431,0.003056
62084000,0.0324,0.013523,0.002678,0.000431,0.003761
62085000,0.0324,0.013523,0.002678,0.000431,0.003408
62086000,0.0324,0.013523,0.002678,0.000431,0.003526
62087000,0.0324,0.013523,0.002678,0.000431,0.004584
62088000,0.0324,0.013523,0.002678,0.000431,0.003056
62089000,0.0324,0.013523,0.002678,0.000431,0.003761
62090000,0.0324,0.013523,0.002678,0.000431,0.003408
62091000,0.0324,0.013523,0.002678,0.000431,0.003291
62092000,0.0324,0.013523,0.002678,0.000431,0.003291
62093000,0.0324,0.013523,0.002678,0.000431,0.003291
62094000,0.0324,0.013523,0.002678,0.000431,0.003291
62095000,0.0324,0.013523,0.002678,0.000431,0.003526
62096000,0.0324,0.013523,0.002678,0.000431,0.003173
62097000,0.0324,0.013523,0.002678,0.000431,0.003291
62098000,0.0324,0.013523,0.002678,0.000431,0.003643
62099000,0.0324,0.013523,0.002678,0.000431,0.003056
62100000,0.0324,0.013523,0.002678,0.000431,0.003761
62101000,0.0324,0.013523,0.002678,0.000431,0.002703
62102000,0.0324,0.013523,0.002678,0.000431,0.003761
62103000,0.0324,0.013523,0.002678,0.000431,0.002703
62104000,0.0324,0.013523,0.002678,0.000431,0.003643
62105000,0.0324,0.013523,0.002678,0.000431,0.003643
62106000,0.0324,0.013523,0.002678,0.000431,0.002703
62107000,0.0324,0.013523,0.002678,0.000431,0.003761
62108000,0.0324,0.013523,0.002678,0.000431,0.002703
62109000,0.0324,0.013523,0.002678,0.000431,0.003643
62110000,0.0324,0.013523,0.002678,0.000431,0.003291
62111000,0.0324,0.013523,0.002678,0.000431,0.003056
62112000,0.0324,0.013523,0.002678,0.000431,0.003291
62113000,0.0324,0.013523,0.002678,0.000431,0.003173
62114000,0.0324,0.013523,0.002678,0.000431,0.003173
62115000,0.0324,0.013523,0.002678,0.000431,0.003291
62116000,0.0324,0.013523,0.002678,0.000431,0.003526
62117000,0.0324,0.013523,0.002678,0.000431,0.002821
62118000,0.0324,0.013523,0.002678,0.000431,0.003526
62119000,0.0324,0.013523,0.002678,0.000431,0.003173
62120000,0.0324,0.013523,0.002678,0.000431,0.003408
62121000,0.0324,0.013523,0.002678,0.000431,0.003056
62122000,0.0324,0.013523,0.002678,0.000431,0.003291
62123000,0.0324,0.013523,0.002678,0.000431,0.003173
62124000,0.0324,0.013523,0.002678,0.000431,0.003173
62125000,0.0324,0.013523,0.002678,0.000431,0.003761
62126000,0.0324,0.013523,0.002678,0.000431,0.002468
62127000,0.0324,0.013523,0.002678,0.000431,0.003878
62128000,0.0324,0.013523,0.002678,0.000431,0.003173
62129000,0.0324,0.013523,0.002678,0.000431,0.003173
62130000,0.0324,0.013523,0.002678,0.000431,0.003291
62131000,0.0324,0.013523,0.002678,0.000431,0.002938
62132000,0.0324,0.013523,0.002678,0.000431,0.003408
62133000,0.0324,0.013523,0.002678,0.000431,0.003173
62134000,0.0324,0.013523,0.002678,0.000431,0.003878
62135000,0.0324,0.013523,0.002678,0.000431,0.002938
62136000,0.0324,0.013523,0.002678,0.000431,0.003878
62137000,0.0324,0.013523,0.002678,0.000431,0.003173
62138000,0.0324,0.013523,0.002678,0.000431,0.003408
62139000,0.0324,0.013523,0.002678,0.000431,0.002821
62140000,0.0324,0.013523,0.002678,0.000431,0.003408
62141000,0.0324,0.013523,0.002678,0.000431,0.003408
62142000,0.0324,0.013523,0.002678,0.000431,0.003408
62143000,0.0324,0.013523,0.002678,0.000431,0.002938
62144000,0.0324,0.013523,0.002678,0.000431,0.003291
62145000,0.0324,0.013523,0.002678,0.000431,0.002703
62146000,0.0324,0.013523,0.002678,0.000431,0.003643
62147000,0.0324,0.013523,0.002678,0.000431,0.003878
62148000,0.0324,0.013523,0.002678,0.000431,0.002468
62149000,0.0324,0.013523,0.002678,0.000431,0.003761
62150000,0.0324,0.013523,0.002678,0.000431,0.002703
62151000,0.0324,0.013523,0.002678,0.000431,0.003643
62152000,0.0324,0.013523,0.002678,0.000431,0.003291
62153000,0.0324,0.013523,0.002678,0.000431,0.003056
62154000,0.0324,0.013523,0.002678,0.000431,0.003291
62155000,0.0324,0.013523,0.002678,0.000431,0.007757
62156000,0.0324,0.013523,0.002678,0.000431,0.001058
62157000,0.0324,0.013523,0.002678,0.000431,0.000940
62158000,0.0324,0.013523,0.002678,0.000431,0.132337
62159000,0.0324,0.013523,0.002678,0.000431,0.789437
62160000,0.0324,0.013523,0.002678,0.000431,0.496792
62161000,0.0324,0.013523,0.002678,0.000431,0.153609
62162000,0.0324,0.013523,0.002678,0.000431,0.393014
62163000,0.0324,0.013523,0.002678,0.000431,0.389253
62164000,0.0324,0.013523,0.002678,0.000431,0.340479
62165000,0.0324,0.013523,0.002678,0.000431,0.240580
62166000,0.0324,0.013523,0.002678,0.000431,0.171004
62167000,0.0324,0.013523,0.002678,0.000431,0.128458
62168000,0.0324,0.013523,0.002678,0.000431,0.560962
62169000,0.0324,0.013523,0.002678,0.000431,0.256211
62170000,0.0324,0.013523,0.002678,0.000431,0.204852
62171000,0.0324,0.013523,0.002678,0.000431,0.161249
62172000,0.0324,0.013523,0.002678,0.000431,0.140564
62173000,0.0324,0.013523,0.002678,0.000431,0.108596
62174000,0.0324,0.013523,0.002678,0.000431,0.087676
62175000,0.0324,0.013523,0.002678,0.000431,0.075218
62176000,0.0324,0.013523,0.002678,0.000431,0.069694
62177000,0.0324,0.013523,0.002678,0.000431,0.051712
62178000,0.0324,0.013523,0.002678,0.000431,0.030910
62179000,0.0324,0.013523,0.002678,0.000431,0.033848
62180000,0.0324,0.013523,0.002678,0.000431,0.020215
62181000,0.0324,0.013523,0.002678,0.000431,0.019040
62182000,0.0324,0.013523,0.002678,0.000431,0.021625
62183000,0.0324,0.013523,0.002678,0.000431,0.019275
62184000,0.0324,0.013523,0.002678,0.000431,0.017864
62185000,0.0324,0.013523,0.002678,0.000431,0.018687
62186000,0.0324,0.013523,0.002678,0.000431,0.006582
62187000,0.0324,0.013523,0.002678,0.000431,0.008462
62188000,0.0324,0.013523,0.002678,0.000431,0.011518
62189000,0.0324,0.013523,0.002678,0.000431,0.007169
62190000,0.0324,0.013523,0.002678,0.000431,0.006934
62191000,0.0324,0.013523,0.002678,0.000431,0.003878
62192000,0.0324,0.013523,0.002678,0.000431,0.001528
62193000,0.0324,0.013523,0.002678,0.000431,0.002703
62194000,0.0324,0.013523,0.002678,0.000431,0.001645
62195000,0.0324,0.013523,0.002678,0.000431,0.001058
62196000,0.0324,0.013523,0.002678,0.000431,0.000940
62197000,0.0324,0.013523,0.002678,0.000431,0.003761
62198000,0.0324,0.013523,0.002678,0.000431,0.592930
62199000,0.0324,0.013523,0.002678,0.000431,0.753238
62200000,0.0324,0.013523,0.002678,0.000431,0.144795
62201000,0.0324,0.013523,0.002678,0.000431,0.136920
62202000,0.0324,0.013523,0.002678,0.000431,0.564605
62203000,0.0324,0.013523,0.002678,0.000431,0.270785
62204000,0.0324,0.013523,0.002678,0.000431,0.318149
62205000,0.0324,0.013523,0.002678,0.000431,0.149731
62206000,0.0324,0.013523,0.002678,0.000431,0.167125
62207000,0.0324,0.013523,0.002678,0.000431,0.138213
62208000,0.0324,0.013523,0.002678,0.000431,0.524998
62209000,0.0324,0.013523,0.002678,0.000431,0.201796
62210000,0.0324,0.013523,0.002678,0.000431,0.158310
62211000,0.0324,0.013523,0.002678,0.000431,0.155255
62212000,0.0324,0.013523,0.002678,0.000431,0.132924
62213000,0.0324,0.013523,0.002678,0.000431,0.107773
62214000,0.0324,0.013523,0.002678,0.000431,0.095550
62215000,0.0324,0.013523,0.002678,0.000431,0.073455
62216000,0.0324,0.013523,0.002678,0.000431,0.072162
62217000,0.0324,0.013523,0.002678,0.000431,0.049127
62218000,0.0324,0.013523,0.002678,0.000431,0.033613
62219000,0.0324,0.013523,0.002678,0.000431,0.027854
62220000,0.0324,0.013523,0.002678,0.000431,0.024681
62221000,0.0324,0.013523,0.002678,0.000431,0.020802
62222000,0.0324,0.013523,0.002678,0.000431,0.018569
62223000,0.0324,0.013523,0.002678,0.000431,0.011048
62224000,0.0324,0.013523,0.002678,0.000431,0.011870
62225000,0.0324,0.013523,0.002678,0.000431,0.008227
62226000,0.0324,0.013523,0.002678,0.000431,0.006934
62227000,0.0324,0.013523,0.002678,0.000431,0.007757
62228000,0.0324,0.013523,0.002678,0.000431,0.005641
62229000,0.0324,0.013523,0.002678,0.000431,0.012693
62230000,0.0324,0.013523,0.002678,0.000431,0.003643
62231000,0.0324,0.013523,0.002678,0.000431,0.002821
62232000,0.0324,0.013523,0.002678,0.000431,0.003526
62233000,0.0324,0.013523,0.002678,0.000431,0.003173
62234000,0.0324,0.013523,0.002678,0.000431,0.005876
62235000,0.0324,0.013523,0.002678,0.000431,0.004936
62236000,0.0324,0.013523,0.002678,0.000431,0.001528
62237000,0.0324,0.013523,0.002678,0.000431,0.001880
62238000,0.0324,0.013523,0.002678,0.000431,0.001410
62239000,0.0324,0.013523,0.002678,0.000431,0.001645
62240000,0.0324,0.013523,0.002678,0.000431,0.001528
62241000,0.0324,0.013523,0.002678,0.000431,0.001528
62242000,0.0324,0.013523,0.002678,0.000431,0.001645
62243000,0.0324,0.013523,0.002678,0.000431,0.001645
62244000,0.0324,0.013523,0.002678,0.000431,0.001410
62245000,0.0324,0.013523,0.002678,0.000431,0.001645
62246000,0.0324,0.013523,0.002678,0.000431,0.001410
62247000,0.0324,0.013523,0.002678,0.000431,0.001293
62248000,0.0324,0.013523,0.002678,0.000431,0.000823
62249000,0.0324,0.013523,0.002678,0.000431,0.000823
62250000,0.0324,0.013523,0.002678,0.000431,0.000940
62251000,0.0324,0.013523,0.002678,0.000431,0.000705
62252000,0.0324,0.013523,0.002678,0.000431,0.000940
62253000,0.0324,0.013523,0.002678,0.000431,0.000823
62254000,0.0324,0.013523,0.002678,0.000431,0.000823
62255000,0.0324,0.013523,0.002678,0.000431,0.002233
62256000,0.0324,0.013523,0.002678,0.000431,0.402299
62257000,0.0324,0.013523,0.002678,0.000431,0.777802
62258000,0.0324,0.013523,0.002678,0.000431,0.227417
62259000,0.0324,0.013523,0.002678,0.000431,0.135863
62260000,0.0324,0.013523,0.002678,0.000431,0.507487
62261000,0.0324,0.013523,0.002678,0.000431,0.283948
62262000,0.0324,0.013523,0.002678,0.000431,0.267142
62263000,0.0324,0.013523,0.002678,0.000431,0.255271
62264000,0.0324,0.013523,0.002678,0.000431,0.153022
62265000,0.0324,0.013523,0.002678,0.000431,0.108479
62266000,0.0324,0.013523,0.002678,0.000431,0.397480
62267000,0.0324,0.013523,0.002678,0.000431,0.379381
62268000,0.0324,0.013523,0.002678,0.000431,0.176292
62269000,0.0324,0.013523,0.002678,0.000431,0.162071
62270000,0.0324,0.013523,0.002678,0.000431,0.135275
62271000,0.0324,0.013523,0.002678,0.000431,0.104365
62272000,0.0324,0.013523,0.002678,0.000431,0.087323
62273000,0.0324,0.013523,0.002678,0.000431,0.080859
62274000,0.0324,0.013523,0.002678,0.000431,0.065816
62275000,0.0324,0.013523,0.002678,0.000431,0.061820
62276000,0.0324,0.013523,0.002678,0.000431,0.039254
62277000,0.0324,0.013523,0.002678,0.000431,0.035846
62278000,0.0324,0.013523,0.002678,0.000431,0.022448
62279000,0.0324,0.013523,0.002678,0.000431,0.019627
62280000,0.0324,0.013523,0.002678,0.000431,0.020685
62281000,0.0324,0.013523,0.002678,0.000431,0.016101
62282000,0.0324,0.013523,0.002678,0.000431,0.019862
62283000,0.0324,0.013523,0.002678,0.000431,0.010813
62284000,0.0324,0.013523,0.002678,0.000431,0.004819
62285000,0.0324,0.013523,0.002678,0.000431,0.004349
62286000,0.0324,0.013523,0.002678,0.000431,0.006347
62287000,0.0324,0.013523,0.002678,0.000431,0.003526
62288000,0.0324,0.013523,0.002678,0.000431,0.008932
62289000,0.0324,0.013523,0.002678,0.000431,0.001880
62290000,0.0324,0.013523,0.002678,0.000431,0.001645
62291000,0.0324,0.013523,0.002678,0.000431,0.001763
62292000,0.0324,0.013523,0.002678,0.000431,0.001645
62293000,0.0324,0.013523,0.002678,0.000431,0.001763
62294000,0.0324,0.013523,0.002678,0.000431,0.001880
62295000,0.0324,0.013523,0.002678,0.000431,0.001645
62296000,0.0324,0.013523,0.002678,0.000431,0.002703
62297000,0.0324,0.013523,0.002678,0.000431,0.002116
62298000,0.0324,0.013523,0.002678,0.000431,0.000940
62299000,0.0324,0.013523,0.002678,0.000431,0.000823
62300000,0.0324,0.013523,0.002678,0.000431,0.000940
62301000,0.0324,0.013523,0.002678,0.000431,0.000823
62302000,0.0324,0.013523,0.002678,0.000431,0.000940
62303000,0.0324,0.013523,0.002678,0.000431,0.003526
62304000,0.0324,0.013523,0.002678,0.000431,0.611617
62305000,0.0324,0.013523,0.002678,0.000431,0.702819
62306000,0.0324,0.013523,0.002678,0.000431,0.140211
62307000,0.0324,0.013523,0.002678,0.000431,0.135392
62308000,0.0324,0.013523,0.002678,0.000431,0.508780
62309000,0.0324,0.013523,0.002678,0.000431,0.271960
62310000,0.0324,0.013523,0.002678,0.000431,0.280540
62311000,0.0324,0.013523,0.002678,0.000431,0.186165
62312000,0.0324,0.013523,0.002678,0.000431,0.165597
62313000,0.0324,0.013523,0.002678,0.000431,0.112474
62314000,0.0324,0.013523,0.002678,0.000431,0.483864
62315000,0.0324,0.013523,0.002678,0.000431,0.296876
62316000,0.0324,0.013523,0.002678,0.000431,0.194744
62317000,0.0324,0.013523,0.002678,0.000431,0.175705
62318000,0.0324,0.013523,0.002678,0.000431,0.144560
62319000,0.0324,0.013523,0.002678,0.000431,0.114825
62320000,0.0324,0.013523,0.002678,0.000431,0.095550
62321000,0.0324,0.013523,0.002678,0.000431,0.072045
62322000,0.0324,0.013523,0.002678,0.000431,0.063818
62323000,0.0324,0.013523,0.002678,0.000431,0.049949
62324000,0.0324,0.013523,0.002678,0.000431,0.028559
62325000,0.0324,0.013523,0.002678,0.000431,0.037139
62326000,0.0324,0.013523,0.002678,0.000431,0.021155
62327000,0.0324,0.013523,0.002678,0.000431,0.015984
62328000,0.0324,0.013523,0.002678,0.000431,0.013633
62329000,0.0324,0.013523,0.002678,0.000431,0.015279
62330000,0.0324,0.013523,0.002678,0.000431,0.005876
62331000,0.0324,0.013523,0.002678,0.000431,0.004936
62332000,0.0324,0.013523,0.002678,0.000431,0.002703
62333000,0.0324,0.013523,0.002678,0.000431,0.001645
62334000,0.0324,0.013523,0.002678,0.000431,0.001645
62335000,0.0324,0.013523,0.002678,0.000431,0.001645
62336000,0.0324,0.013523,0.002678,0.000431,0.001645
62337000,0.0324,0.013523,0.002678,0.000431,0.001763
62338000,0.0324,0.013523,0.002678,0.000431,0.001645
62339000,0.0324,0.013523,0.002678,0.000431,0.001763
62340000,0.0324,0.013523,0.002678,0.000431,0.001528
62341000,0.0324,0.013523,0.002678,0.000431,0.001763
62342000,0.0324,0.013523,0.002678,0.000431,0.001645
62343000,0.0324,0.013523,0.002678,0.000431,0.001645
62344000,0.0324,0.013523,0.002678,0.000431,0.001763
62345000,0.0324,0.013523,0.002678,0.000431,0.001645
62346000,0.0324,0.013523,0.002678,0.000431,0.001645
62347000,0.0324,0.013523,0.002678,0.000431,0.003526
62348000,0.0324,0.013523,0.002678,0.000431,0.000940
62349000,0.0324,0.013523,0.002678,0.000431,0.000940
62350000,0.0324,0.013523,0.002678,0.000431,0.000705
62351000,0.0324,0.013523,0.002678,0.000431,0.000940
62352000,0.0324,0.013523,0.002678,0.000431,0.000705
62353000,0.0324,0.013523,0.002678,0.000431,0.000940
62354000,0.0324,0.013523,0.002678,0.000431,0.000823
62355000,0.0324,0.013523,0.002678,0.000431,0.000823
62356000,0.0324,0.013523,0.002678,0.000431,0.000823
62357000,0.0324,0.013523,0.002678,0.000431,0.000823
62358000,0.0324,0.013523,0.002678,0.000431,0.000940
62359000,0.0324,0.013523,0.002678,0.000431,0.000823
62360000,0.0324,0.013523,0.002678,0.000431,0.000823
62361000,0.0324,0.013523,0.002678,0.000431,0.000823
62362000,0.0324,0.013523,0.002678,0.000431,0.000823
62363000,0.0324,0.013523,0.002678,0.000431,0.000823
62364000,0.0324,0.013523,0.002678,0.000431,0.000823
62365000,0.0324,0.013523,0.002678,0.000431,0.000940
62366000,0.0324,0.013523,0.002678,0.000431,0.000705
62367000,0.0324,0.013523,0.002678,0.000431,0.000823
62368000,0.0324,0.013523,0.002678,0.000431,0.000940
62369000,0.0324,0.013523,0.002678,0.000431,0.000823
62370000,0.0324,0.013523,0.002678,0.000431,0.000823
62371000,0.0324,0.013523,0.002678,0.000431,0.000823
62372000,0.0324,0.013523,0.002678,0.000431,0.000705
62373000,0.0324,0.013523,0.002678,0.000431,0.000940
62374000,0.0324,0.013523,0.002678,0.000431,0.000940
62375000,0.0324,0.013523,0.002678,0.000431,0.000705
62376000,0.0324,0.013523,0.002678,0.000431,0.000940
62377000,0.0324,0.013523,0.002678,0.000431,0.000705
62378000,0.0324,0.013523,0.002678,0.000431,0.000940
62379000,0.0324,0.013523,0.002678,0.000431,0.000940
62380000,0.0324,0.013523,0.002678,0.000431,0.000705
62381000,0.0324,0.013523,0.002678,0.000431,0.000940
62382000,0.0324,0.013523,0.002678,0.000431,0.000705
62383000,0.0324,0.013523,0.002678,0.000431,0.000940
62384000,0.0324,0.013523,0.002678,0.000431,0.000823
62385000,0.0324,0.013523,0.002678,0.000431,0.000823
62386000,0.0324,0.013523,0.002678,0.000431,0.000823
62387000,0.0324,0.013523,0.002678,0.000431,0.000823
62388000,0.0324,0.013523,0.002678,0.000431,0.000823
62389000,0.0324,0.013523,0.002678,0.000431,0.000823
62390000,0.0324,0.013523,0.002678,0.000431,0.000940
62391000,0.0324,0.013523,0.002678,0.000431,0.000705
62392000,0.0324,0.013523,0.002678,0.000431,0.000940
62393000,0.0324,0.013523,0.002678,0.000431,0.000823
62394000,0.0324,0.013523,0.002678,0.000431,0.000823
62395000,0.0324,0.013523,0.002678,0.000431,0.000705
62396000,0.0324,0.013523,0.002678,0.000431,0.000940
62397000,0.0324,0.013523,0.002678,0.000431,0.000940
62398000,0.0324,0.013523,0.002678,0.000431,0.000705
62399000,0.0324,0.013523,0.002678,0.000431,0.000940
62400000,0.0324,0.013523,0.002678,0.000431,0.000705
62401000,0.0324,0.013523,0.002678,0.000431,0.000940
62402000,0.0324,0.013523,0.002678,0.000431,0.000823
62403000,0.0324,0.013523,0.002678,0.000431,0.000823
62404000,0.0324,0.013523,0.002678,0.000431,0.000940
62405000,0.0324,0.013523,0.002678,0.000431,0.000705
62406000,0.0324,0.013523,0.002678,0.000431,0.000940
62407000,0.0324,0.013523,0.002678,0.000431,0.000823
62408000,0.0324,0.013523,0.002678,0.000431,0.000823
62409000,0.0324,0.013523,0.002678,0.000431,0.000823
62410000,0.0324,0.013523,0.002678,0.000431,0.000823
62411000,0.0324,0.013523,0.002678,0.000431,0.000823
62412000,0.0324,0.013523,0.002678,0.000431,0.000823
62413000,0.0324,0.013523,0.002678,0.000431,0.000823
62414000,0.0324,0.013523,0.002678,0.000431,0.000823
62415000,0.0324,0.013523,0.002678,0.000431,0.000823
62416000,0.0324,0.013523,0.002678,0.000431,0.000823
62417000,0.0324,0.013523,0.002678,0.000431,0.000940
62418000,0.0324,0.013523,0.002678,0.000431,0.000823
62419000,0.0324,0.013523,0.002678,0.000431,0.000823
62420000,0.0324,0.013523,0.002678,0.000431,0.000705
62421000,0.0324,0.013523,0.002678,0.000431,0.000940
62422000,0.0324,0.013523,0.002678,0.000431,0.000940
62423000,0.0324,0.013523,0.002678,0.000431,0.000705
62424000,0.0324,0.013523,0.002678,0.000431,0.000940
62425000,0.0324,0.013523,0.002678,0.000431,0.000705
62426000,0.0324,0.013523,0.002678,0.000431,0.000940
62427000,0.0324,0.013523,0.002678,0.000431,0.000823
62428000,0.0324,0.013523,0.002678,0.000431,0.000823
62429000,0.0324,0.013523,0.002678,0.000431,0.000940
62430000,0.0324,0.013523,0.002678,0.000431,0.000705
62431000,0.0324,0.013523,0.002678,0.000431,0.000940
62432000,0.0324,0.013523,0.002678,0.000431,0.000823
62433000,0.0324,0.013523,0.002678,0.000431,0.000823
62434000,0.0324,0.013523,0.002678,0.000431,0.000823
62435000,0.0324,0.013523,0.002678,0.000431,0.000823
62436000,0.0324,0.013523,0.002678,0.000431,0.000940
62437000,0.0324,0.013523,0.002678,0.000431,0.000705
62438000,0.0324,0.013523,0.002678,0.000431,0.000940
62439000,0.0324,0.013523,0.002678,0.000431,0.000823
62440000,0.0324,0.013523,0.002678,0.000431,0.000823
62441000,0.0324,0.013523,0.002678,0.000431,0.000823
62442000,0.0324,0.013523,0.002678,0.000431,0.000823
62443000,0.0324,0.013523,0.002678,0.000431,0.000705
62444000,0.0324,0.013523,0.002678,0.000431,0.000940
62445000,0.0324,0.013523,0.002678,0.000431,0.000940
62446000,0.0324,0.013523,0.002678,0.000431,0.000705
62447000,0.0324,0.013523,0.002678,0.000431,0.000940
62448000,0.0324,0.013523,0.002678,0.000431,0.000705
62449000,0.0324,0.013523,0.002678,0.000431,0.000823
62450000,0.0324,0.013523,0.002678,0.000431,0.000940
62451000,0.0324,0.013523,0.002678,0.000431,0.000823
62452000,0.0324,0.013523,0.002678,0.000431,0.000823
62453000,0.0324,0.013523,0.002678,0.000431,0.000823
62454000,0.0324,0.013523,0.002678,0.000431,0.000940
62455000,0.0324,0.013523,0.002678,0.000431,0.000705
62456000,0.0324,0.013523,0.002678,0.000431,0.000823
62457000,0.0324,0.013523,0.002678,0.000431,0.000940
62458000,0.0324,0.013523,0.002678,0.000431,0.000823
62459000,0.0324,0.013523,0.002678,0.000431,0.000823
62460000,0.0324,0.013523,0.002678,0.000431,0.000823
62461000,0.0324,0.013523,0.002678,0.000431,0.000705
62462000,0.0324,0.013523,0.002678,0.000431,0.000940
62463000,0.0324,0.013523,0.002678,0.000431,0.000940
62464000,0.0324,0.013523,0.002678,0.000431,0.000705
62465000,0.0324,0.013523,0.002678,0.000431,0.000940
62466000,0.0324,0.013523,0.002678,0.000431,0.000705
62467000,0.0324,0.013523,0.002678,0.000431,0.000940
62468000,0.0324,0.013523,0.002678,0.000431,0.000940
62469000,0.0324,0.013523,0.002678,0.000431,0.000705
62470000,0.0324,0.013523,0.002678,0.000431,0.000940
62471000,0.0324,0.013523,0.002678,0.000431,0.000705
62472000,0.0324,0.013523,0.002678,0.000431,0.000940
62473000,0.0324,0.013523,0.002678,0.000431,0.000823
62474000,0.0324,0.013523,0.002678,0.000431,0.000823
62475000,0.0324,0.013523,0.002678,0.000431,0.000823
62476000,0.0324,0.013523,0.002678,0.000431,0.000823
62477000,0.0324,0.013523,0.002678,0.000431,0.000940
62478000,0.0324,0.013523,0.002678,0.000431,0.000705
62479000,0.0324,0.013523,0.002678,0.000431,0.000940
62480000,0.0324,0.013523,0.002678,0.000431,0.000823
62481000,0.0324,0.013523,0.002678,0.000431,0.000823
62482000,0.0324,0.013523,0.002678,0.000431,0.000823
62483000,0.0324,0.013523,0.002678,0.000431,0.000823
62484000,0.0324,0.013523,0.002678,0.000431,0.000705
62485000,0.0324,0.013523,0.002678,0.000431,0.000940
62486000,0.0324,0.013523,0.002678,0.000431,0.000940
62487000,0.0324,0.013523,0.002678,0.000431,0.000705
62488000,0.0324,0.013523,0.002678,0.000431,0.000940
62489000,0.0324,0.013523,0.002678,0.000431,0.000705
62490000,0.0324,0.013523,0.002678,0.000431,0.000940
62491000,0.0324,0.013523,0.002678,0.000431,0.000823
62492000,0.0324,0.013523,0.002678,0.000431,0.000705
62493000,0.0324,0.013523,0.002678,0.000431,0.000940
62494000,0.0324,0.013523,0.002678,0.000431,0.000823
62495000,0.0324,0.013523,0.002678,0.000431,0.000823
62496000,0.0324,0.013523,0.002678,0.000431,0.000823
62497000,0.0324,0.013523,0.002678,0.000431,0.000940
62498000,0.0324,0.013523,0.002678,0.000431,0.000705
62499000,0.0324,0.013523,0.002678,0.000431,0.000823
62500000,0.0324,0.013523,0.002678,0.000431,0.000823
62501000,0.0324,0.013523,0.002678,0.000431,0.000940
62502000,0.0324,0.013523,0.002678,0.000431,0.000823
62503000,0.0324,0.013523,0.002678,0.000431,0.000823
62504000,0.0324,0.013523,0.002678,0.000431,0.000705
62505000,0.0324,0.013523,0.002678,0.000431,0.000940
62506000,0.0324,0.013523,0.002678,0.000431,0.000940
62507000,0.0324,0.013523,0.002678,0.000431,0.000705
62508000,0.0324,0.013523,0.002678,0.000431,0.000940
62509000,0.0324,0.013523,0.002678,0.000431,0.000705
62510000,0.0324,0.013523,0.002678,0.000431,0.000940
62511000,0.0324,0.013523,0.002678,0.000431,0.000823
62512000,0.0324,0.013523,0.002678,0.000431,0.000823
62513000,0.0324,0.013523,0.002678,0.000431,0.000940
62514000,0.0324,0.013523,0.002678,0.000431,0.000705
62515000,0.0324,0.013523,0.002678,0.000431,0.000940
62516000,0.0324,0.013523,0.002678,0.000431,0.000823
62517000,0.0324,0.013523,0.002678,0.000431,0.073808
62518000,0.0324,0.013523,0.002678,0.000431,0.771573
62519000,0.0324,0.013523,0.002678,0.000431,0.532050
62520000,0.0324,0.013523,0.002678,0.000431,0.136333
62521000,0.0324,0.013523,0.002678,0.000431,0.334015
62522000,0.0324,0.013523,0.002678,0.000431,0.490093
62523000,0.0324,0.013523,0.002678,0.000431,0.281715
62524000,0.0324,0.013523,0.002678,0.000431,0.235762
62525000,0.0324,0.013523,0.002678,0.000431,0.185459
62526000,0.0324,0.013523,0.002678,0.000431,0.086148
62527000,0.0324,0.013523,0.002678,0.000431,0.551442
62528000,0.0324,0.013523,0.002678,0.000431,0.241285
62529000,0.0324,0.013523,0.002678,0.000431,0.179466
62530000,0.0324,0.013523,0.002678,0.000431,0.153139
62531000,0.0324,0.013523,0.002678,0.000431,0.125638
62532000,0.0324,0.013523,0.002678,0.000431,0.114708
62533000,0.0324,0.013523,0.002678,0.000431,0.101309
62534000,0.0324,0.013523,0.002678,0.000431,0.062643
62535000,0.0324,0.013523,0.002678,0.000431,0.062760
62536000,0.0324,0.013523,0.002678,0.000431,0.058999
62537000,0.0324,0.013523,0.002678,0.000431,0.044896
62538000,0.0324,0.013523,0.002678,0.000431,0.040195
62539000,0.0324,0.013523,0.002678,0.000431,0.031615
62540000,0.0324,0.013523,0.002678,0.000431,0.028089
62541000,0.0324,0.013523,0.002678,0.000431,0.037021
62542000,0.0324,0.013523,0.002678,0.000431,0.018334
62543000,0.0324,0.013523,0.002678,0.000431,0.024211
62544000,0.0324,0.013523,0.002678,0.000431,0.015514
62545000,0.0324,0.013523,0.002678,0.000431,0.005641
62546000,0.0324,0.013523,0.002678,0.000431,0.003408
62547000,0.0324,0.013523,0.002678,0.000431,0.003291
62548000,0.0324,0.013523,0.002678,0.000431,0.002586
62549000,0.0324,0.013523,0.002678,0.000431,0.004819
62550000,0.0324,0.013523,0.002678,0.000431,0.001763
62551000,0.0324,0.013523,0.002678,0.000431,0.001528
62552000,0.0324,0.013523,0.002678,0.000431,0.001998
62553000,0.0324,0.013523,0.002678,0.000431,0.001763
62554000,0.0324,0.013523,0.002678,0.000431,0.003761
62555000,0.0324,0.013523,0.002678,0.000431,0.002703
62556000,0.0324,0.013523,0.002678,0.000431,0.001058
62557000,0.0324,0.013523,0.002678,0.000431,0.001058
62558000,0.0324,0.013523,0.002678,0.000431,0.000823
62559000,0.0324,0.013523,0.002678,0.000431,0.001058
62560000,0.0324,0.013523,0.002678,0.000431,0.000940
62561000,0.0324,0.013523,0.002678,0.000431,0.001058
62562000,0.0324,0.013523,0.002678,0.000431,0.000940
62563000,0.0324,0.013523,0.002678,0.000431,0.000823
62564000,0.0324,0.013523,0.002678,0.000431,0.001175
62565000,0.0324,0.013523,0.002678,0.000431,0.000823
62566000,0.0324,0.013523,0.002678,0.000431,0.001058
62567000,0.0324,0.013523,0.002678,0.000431,0.000940
62568000,0.0324,0.013523,0.002678,0.000431,0.001058
62569000,0.0324,0.013523,0.002678,0.000431,0.000940
62570000,0.0324,0.013523,0.002678,0.000431,0.000823
62571000,0.0324,0.013523,0.002678,0.000431,0.001175
62572000,0.0324,0.013523,0.002678,0.000431,0.001175
62573000,0.0324,0.013523,0.002678,0.000431,0.004584
62574000,0.0324,0.013523,0.002678,0.000431,0.641469
62575000,0.0324,0.013523,0.002678,0.000431,0.680841
62576000,0.0324,0.013523,0.002678,0.000431,0.136920
62577000,0.0324,0.013523,0.002678,0.000431,0.135863
62578000,0.0324,0.013523,0.002678,0.000431,0.523941
62579000,0.0324,0.013523,0.002678,0.000431,0.260913
62580000,0.0324,0.013523,0.002678,0.000431,0.290765
62581000,0.0324,0.013523,0.002678,0.000431,0.201443
62582000,0.0324,0.013523,0.002678,0.000431,0.166185
62583000,0.0324,0.013523,0.002678,0.000431,0.113885
62584000,0.0324,0.013523,0.002678,0.000431,0.464941
62585000,0.0324,0.013523,0.002678,0.000431,0.308864
62586000,0.0324,0.013523,0.002678,0.000431,0.188280
62587000,0.0324,0.013523,0.002678,0.000431,0.151964
62588000,0.0324,0.013523,0.002678,0.000431,0.131161
62589000,0.0324,0.013523,0.002678,0.000431,0.103895
62590000,0.0324,0.013523,0.002678,0.000431,0.093670
62591000,0.0324,0.013523,0.002678,0.000431,0.071575
62592000,0.0324,0.013523,0.002678,0.000431,0.049597
62593000,0.0324,0.013523,0.002678,0.000431,0.040665
62594000,0.0324,0.013523,0.002678,0.000431,0.040195
62595000,0.0324,0.013523,0.002678,0.000431,0.024563
62596000,0.0324,0.013523,0.002678,0.000431,0.025269
62597000,0.0324,0.013523,0.002678,0.000431,0.029029
62598000,0.0324,0.013523,0.002678,0.000431,0.019745
62599000,0.0324,0.013523,0.002678,0.000431,0.016101
62600000,0.0324,0.013523,0.002678,0.000431,0.015396
62601000,0.0324,0.013523,0.002678,0.000431,0.020920
62602000,0.0324,0.013523,0.002678,0.000431,0.018099
62603000,0.0324,0.013523,0.002678,0.000431,0.021625
62604000,0.0324,0.013523,0.002678,0.000431,0.008227
62605000,0.0324,0.013523,0.002678,0.000431,0.005171
62606000,0.0324,0.013523,0.002678,0.000431,0.005289
62607000,0.0324,0.013523,0.002678,0.000431,0.005876
62608000,0.0324,0.013523,0.002678,0.000431,0.007052
62609000,0.0324,0.013523,0.002678,0.000431,0.003173
62610000,0.0324,0.013523,0.002678,0.000431,0.005289
62611000,0.0324,0.013523,0.002678,0.000431,0.001880
62612000,0.0324,0.013523,0.002678,0.000431,0.001528
62613000,0.0324,0.013523,0.002678,0.000431,0.082740
62614000,0.0324,0.013523,0.002678,0.000431,0.788497
62615000,0.0324,0.013523,0.002678,0.000431,0.506899
62616000,0.0324,0.013523,0.002678,0.000431,0.139976
62617000,0.0324,0.013523,0.002678,0.000431,0.285241
62618000,0.0324,0.013523,0.002678,0.000431,0.428155
62619000,0.0324,0.013523,0.002678,0.000431,0.270785
62620000,0.0324,0.013523,0.002678,0.000431,0.302400
62621000,0.0324,0.013523,0.002678,0.000431,0.156077
62622000,0.0324,0.013523,0.002678,0.000431,0.115765
62623000,0.0324,0.013523,0.002678,0.000431,0.384787
62624000,0.0324,0.013523,0.002678,0.000431,0.414169
62625000,0.0324,0.013523,0.002678,0.000431,0.210375
62626000,0.0324,0.013523,0.002678,0.000431,0.182874
62627000,0.0324,0.013523,0.002678,0.000431,0.163952
62628000,0.0324,0.013523,0.002678,0.000431,0.137978
62629000,0.0324,0.013523,0.002678,0.000431,0.109654
62630000,0.0324,0.013523,0.002678,0.000431,0.114472
62631000,0.0324,0.013523,0.002678,0.000431,0.088029
62632000,0.0324,0.013523,0.002678,0.000431,0.066521
62633000,0.0324,0.013523,0.002678,0.000431,0.050420
62634000,0.0324,0.013523,0.002678,0.000431,0.048539
62635000,0.0324,0.013523,0.002678,0.000431,0.040077
62636000,0.0324,0.013523,0.002678,0.000431,0.023036
62637000,0.0324,0.013523,0.002678,0.000431,0.017277
62638000,0.0324,0.013523,0.002678,0.000431,0.010225
62639000,0.0324,0.013523,0.002678,0.000431,0.009285
62640000,0.0324,0.013523,0.002678,0.000431,0.007287
62641000,0.0324,0.013523,0.002678,0.000431,0.006229
62642000,0.0324,0.013523,0.002678,0.000431,0.001880
62643000,0.0324,0.013523,0.002678,0.000431,0.004584
62644000,0.0324,0.013523,0.002678,0.000431,0.000940
62645000,0.0324,0.013523,0.002678,0.000431,0.000823
62646000,0.0324,0.013523,0.002678,0.000431,0.002233
62647000,0.0324,0.013523,0.002678,0.000431,0.408763
62648000,0.0324,0.013523,0.002678,0.000431,0.798369
62649000,0.0324,0.013523,0.002678,0.000431,0.233764
62650000,0.0324,0.013523,0.002678,0.000431,0.137273
62651000,0.0324,0.013523,0.002678,0.000431,0.516301
62652000,0.0324,0.013523,0.002678,0.000431,0.246692
62653000,0.0324,0.013523,0.002678,0.000431,0.325318
62654000,0.0324,0.013523,0.002678,0.000431,0.207555
62655000,0.0324,0.013523,0.002678,0.000431,0.183344
62656000,0.0324,0.013523,0.002678,0.000431,0.090849
62657000,0.0324,0.013523,0.002678,0.000431,0.551912
62658000,0.0324,0.013523,0.002678,0.000431,0.273018
62659000,0.0324,0.013523,0.002678,0.000431,0.211433
62660000,0.0324,0.013523,0.002678,0.000431,0.173942
62661000,0.0324,0.013523,0.002678,0.000431,0.158193
62662000,0.0324,0.013523,0.002678,0.000431,0.111534
62663000,0.0324,0.013523,0.002678,0.000431,0.084503
62664000,0.0324,0.013523,0.002678,0.000431,0.080037
62665000,0.0324,0.013523,0.002678,0.000431,0.074748
62666000,0.0324,0.013523,0.002678,0.000431,0.069812
62667000,0.0324,0.013523,0.002678,0.000431,0.037844
62668000,0.0324,0.013523,0.002678,0.000431,0.035846
62669000,0.0324,0.013523,0.002678,0.000431,0.033378
62670000,0.0324,0.013523,0.002678,0.000431,0.020097
62671000,0.0324,0.013523,0.002678,0.000431,0.014221
62672000,0.0324,0.013523,0.002678,0.000431,0.011518
62673000,0.0324,0.013523,0.002678,0.000431,0.012458
62674000,0.0324,0.013523,0.002678,0.000431,0.016101
62675000,0.0324,0.013523,0.002678,0.000431,0.009755
62676000,0.0324,0.013523,0.002678,0.000431,0.010578
62677000,0.0324,0.013523,0.002678,0.000431,0.004231
62678000,0.0324,0.013523,0.002678,0.000431,0.006699
62679000,0.0324,0.013523,0.002678,0.000431,0.003526
62680000,0.0324,0.013523,0.002678,0.000431,0.003056
62681000,0.0324,0.013523,0.002678,0.000431,0.001880
62682000,0.0324,0.013523,0.002678,0.000431,0.001645
62683000,0.0324,0.013523,0.002678,0.000431,0.004701
62684000,0.0324,0.013523,0.002678,0.000431,0.000823
62685000,0.0324,0.013523,0.002678,0.000431,0.000823
62686000,0.0324,0.013523,0.002678,0.000431,0.000940
62687000,0.0324,0.013523,0.002678,0.000431,0.000940
62688000,0.0324,0.013523,0.002678,0.000431,0.000823
62689000,0.0324,0.013523,0.002678,0.000431,0.077216
62690000,0.0324,0.013523,0.002678,0.000431,0.798839
62691000,0.0324,0.013523,0.002678,0.000431,0.523941
62692000,0.0324,0.013523,0.002678,0.000431,0.146675
62693000,0.0324,0.013523,0.002678,0.000431,0.257152
62694000,0.0324,0.013523,0.002678,0.000431,0.453776
62695000,0.0324,0.013523,0.002678,0.000431,0.268082
62696000,0.0324,0.013523,0.002678,0.000431,0.288884
62697000,0.0324,0.013523,0.002678,0.000431,0.146440
62698000,0.0324,0.013523,0.002678,0.000431,0.154902
62699000,0.0324,0.013523,0.002678,0.000431,0.239875
62700000,0.0324,0.013523,0.002678,0.000431,0.503491
62701000,0.0324,0.013523,0.002678,0.000431,0.201091
62702000,0.0324,0.013523,0.002678,0.000431,0.170886
62703000,0.0324,0.013523,0.002678,0.000431,0.156312
62704000,0.0324,0.013523,0.002678,0.000431,0.121759
62705000,0.0324,0.013523,0.002678,0.000431,0.106481
62706000,0.0324,0.013523,0.002678,0.000431,0.080272
62707000,0.0324,0.013523,0.002678,0.000431,0.081330
62708000,0.0324,0.013523,0.002678,0.000431,0.064288
62709000,0.0324,0.013523,0.002678,0.000431,0.045718
62710000,0.0324,0.013523,0.002678,0.000431,0.040900
62711000,0.0324,0.013523,0.002678,0.000431,0.032555
62712000,0.0324,0.013523,0.002678,0.000431,0.029382
62713000,0.0324,0.013523,0.002678,0.000431,0.024916
62714000,0.0324,0.013523,0.002678,0.000431,0.031027
62715000,0.0324,0.013523,0.002678,0.000431,0.025621
62716000,0.0324,0.013523,0.002678,0.000431,0.011400
62717000,0.0324,0.013523,0.002678,0.000431,0.013046
62718000,0.0324,0.013523,0.002678,0.000431,0.010813
62719000,0.0324,0.013523,0.002678,0.000431,0.010930
62720000,0.0324,0.013523,0.002678,0.000431,0.008580
62721000,0.0324,0.013523,0.002678,0.000431,0.012811
62722000,0.0324,0.013523,0.002678,0.000431,0.007287
62723000,0.0324,0.013523,0.002678,0.000431,0.002468
62724000,0.0324,0.013523,0.002678,0.000431,0.001410
62725000,0.0324,0.013523,0.002678,0.000431,0.001880
62726000,0.0324,0.013523,0.002678,0.000431,0.001645
62727000,0.0324,0.013523,0.002678,0.000431,0.001645
62728000,0.0324,0.013523,0.002678,0.000431,0.001763
62729000,0.0324,0.013523,0.002678,0.000431,0.001528
62730000,0.0324,0.013523,0.002678,0.000431,0.001880
62731000,0.0324,0.013523,0.002678,0.000431,0.001645
62732000,0.0324,0.013523,0.002678,0.000431,0.001410
62733000,0.0324,0.013523,0.002678,0.000431,0.001763
62734000,0.0324,0.013523,0.002678,0.000431,0.001763
62735000,0.0324,0.013523,0.002678,0.000431,0.001528
62736000,0.0324,0.013523,0.002678,0.000431,0.001763
62737000,0.0324,0.013523,0.002678,0.000431,0.001645
62738000,0.0324,0.013523,0.002678,0.000431,0.001645
62739000,0.0324,0.013523,0.002678,0.000431,0.001763
62740000,0.0324,0.013523,0.002678,0.000431,0.001645
62741000,0.0324,0.013523,0.002678,0.000431,0.001410
62742000,0.0324,0.013523,0.002678,0.000431,0.005171
62743000,0.0324,0.013523,0.002678,0.000431,0.552147
62744000,0.0324,0.013523,0.002678,0.000431,0.743601
62745000,0.0324,0.013523,0.002678,0.000431,0.149378
62746000,0.0324,0.013523,0.002678,0.000431,0.136333
62747000,0.0324,0.013523,0.002678,0.000431,0.498907
62748000,0.0324,0.013523,0.002678,0.000431,0.254566
62749000,0.0324,0.013523,0.002678,0.000431,0.278072
62750000,0.0324,0.013523,0.002678,0.000431,0.196742
62751000,0.0324,0.013523,0.002678,0.000431,0.162306
62752000,0.0324,0.013523,0.002678,0.000431,0.115178
62753000,0.0324,0.013523,0.002678,0.000431,0.404767
62754000,0.0324,0.013523,0.002678,0.000431,0.375503
62755000,0.0324,0.013523,0.002678,0.000431,0.196272
62756000,0.0324,0.013523,0.002678,0.000431,0.161131
62757000,0.0324,0.013523,0.002678,0.000431,0.155372
62758000,0.0324,0.013523,0.002678,0.000431,0.119056
62759000,0.0324,0.013523,0.002678,0.000431,0.094610
62760000,0.0324,0.013523,0.002678,0.000431,0.090379
62761000,0.0324,0.013523,0.002678,0.000431,0.081917
62762000,0.0324,0.013523,0.002678,0.000431,0.065111
62763000,0.0324,0.013523,0.002678,0.000431,0.049949
62764000,0.0324,0.013523,0.002678,0.000431,0.046424
62765000,0.0324,0.013523,0.002678,0.000431,0.042075
62766000,0.0324,0.013523,0.002678,0.000431,0.045718
62767000,0.0324,0.013523,0.002678,0.000431,0.032790
62768000,0.0324,0.013523,0.002678,0.000431,0.026091
62769000,0.0324,0.013523,0.002678,0.000431,0.024446
62770000,0.0324,0.013523,0.002678,0.000431,0.025034
62771000,0.0324,0.013523,0.002678,0.000431,0.019980
62772000,0.0324,0.013523,0.002678,0.000431,0.015396
62773000,0.0324,0.013523,0.002678,0.000431,0.018922
62774000,0.0324,0.013523,0.002678,0.000431,0.016571
62775000,0.0324,0.013523,0.002678,0.000431,0.010695
62776000,0.0324,0.013523,0.002678,0.000431,0.004349
62777000,0.0324,0.013523,0.002678,0.000431,0.004231
62778000,0.0324,0.013523,0.002678,0.000431,0.004701
62779000,0.0324,0.013523,0.002678,0.000431,0.003291
62780000,0.0324,0.013523,0.002678,0.000431,0.003526
62781000,0.0324,0.013523,0.002678,0.000431,0.005524
62782000,0.0324,0.013523,0.002678,0.000431,0.004819
62783000,0.0324,0.013523,0.002678,0.000431,0.003056
62784000,0.0324,0.013523,0.002678,0.000431,0.002351
62785000,0.0324,0.013523,0.002678,0.000431,0.002938
62786000,0.0324,0.013523,0.002678,0.000431,0.002821
62787000,0.0324,0.013523,0.002678,0.000431,0.002586
62788000,0.0324,0.013523,0.002678,0.000431,0.002938
62789000,0.0324,0.013523,0.002678,0.000431,0.004819
62790000,0.0324,0.013523,0.002678,0.000431,0.003173
62791000,0.0324,0.013523,0.002678,0.000431,0.198858
62792000,0.0324,0.013523,0.002678,0.000431,0.704817
62793000,0.0324,0.013523,0.002678,0.000431,0.489740
62794000,0.0324,0.013523,0.002678,0.000431,0.136803
62795000,0.0324,0.013523,0.002678,0.000431,0.301460
62796000,0.0324,0.013523,0.002678,0.000431,0.418870
62797000,0.0324,0.013523,0.002678,0.000431,0.290412
62798000,0.0324,0.013523,0.002678,0.000431,0.312742
62799000,0.0324,0.013523,0.002678,0.000431,0.151964
62800000,0.0324,0.013523,0.002678,0.000431,0.105305
62801000,0.0324,0.013523,0.002678,0.000431,0.420986
62802000,0.0324,0.013523,0.002678,0.000431,0.365395
62803000,0.0324,0.013523,0.002678,0.000431,0.175352
62804000,0.0324,0.013523,0.002678,0.000431,0.155607
62805000,0.0324,0.013523,0.002678,0.000431,0.125990
62806000,0.0324,0.013523,0.002678,0.000431,0.115413
62807000,0.0324,0.013523,0.002678,0.000431,0.094023
62808000,0.0324,0.013523,0.002678,0.000431,0.080037
62809000,0.0324,0.013523,0.002678,0.000431,0.075923
62810000,0.0324,0.013523,0.002678,0.000431,0.052770
62811000,0.0324,0.013523,0.002678,0.000431,0.046189
62812000,0.0324,0.013523,0.002678,0.000431,0.045483
62813000,0.0324,0.013523,0.002678,0.000431,0.035258
62814000,0.0324,0.013523,0.002678,0.000431,0.033025
62815000,0.0324,0.013523,0.002678,0.000431,0.018099
62816000,0.0324,0.013523,0.002678,0.000431,0.024798
62817000,0.0324,0.013523,0.002678,0.000431,0.019040
62818000,0.0324,0.013523,0.002678,0.000431,0.012811
62819000,0.0324,0.013523,0.002678,0.000431,0.008109
62820000,0.0324,0.013523,0.002678,0.000431,0.009050
62821000,0.0324,0.013523,0.002678,0.000431,0.007404
62822000,0.0324,0.013523,0.002678,0.000431,0.008109
62823000,0.0324,0.013523,0.002678,0.000431,0.015631
62824000,0.0324,0.013523,0.002678,0.000431,0.002821
62825000,0.0324,0.013523,0.002678,0.000431,0.002938
62826000,0.0324,0.013523,0.002678,0.000431,0.002586
62827000,0.0324,0.013523,0.002678,0.000431,0.004349
62828000,0.0324,0.013523,0.002678,0.000431,0.002351
62829000,0.0324,0.013523,0.002678,0.000431,0.001528
62830000,0.0324,0.013523,0.002678,0.000431,0.002233
62831000,0.0324,0.013523,0.002678,0.000431,0.001645
62832000,0.0324,0.013523,0.002678,0.000431,0.001763
62833000,0.0324,0.013523,0.002678,0.000431,0.001998
62834000,0.0324,0.013523,0.002678,0.000431,0.001763
62835000,0.0324,0.013523,0.002678,0.000431,0.001998
62836000,0.0324,0.013523,0.002678,0.000431,0.001645
62837000,0.0324,0.013523,0.002678,0.000431,0.001645
62838000,0.0324,0.013523,0.002678,0.000431,0.002116
62839000,0.0324,0.013523,0.002678,0.000431,0.001998
62840000,0.0324,0.013523,0.002678,0.000431,0.001645
62841000,0.0324,0.013523,0.002678,0.000431,0.001998
62842000,0.0324,0.013523,0.002678,0.000431,0.001998
62843000,0.0324,0.013523,0.002678,0.000431,0.002233
62844000,0.0324,0.013523,0.002678,0.000431,0.001645
62845000,0.0324,0.013523,0.002678,0.000431,0.002233
62846000,0.0324,0.013523,0.002678,0.000431,0.001998
62847000,0.0324,0.013523,0.002678,0.000431,0.001645
62848000,0.0324,0.013523,0.002678,0.000431,0.002116
62849000,0.0324,0.013523,0.002678,0.000431,0.001998
62850000,0.0324,0.013523,0.002678,0.000431,0.001880
62851000,0.0324,0.013523,0.002678,0.000431,0.001880
62852000,0.0324,0.013523,0.002678,0.000431,0.001998
62853000,0.0324,0.013523,0.002678,0.000431,0.045954
62854000,0.0324,0.013523,0.002678,0.000431,0.750888
62855000,0.0324,0.013523,0.002678,0.000431,0.552265
62856000,0.0324,0.013523,0.002678,0.000431,0.135392
62857000,0.0324,0.013523,0.002678,0.000431,0.155020
62858000,0.0324,0.013523,0.002678,0.000431,0.564723
62859000,0.0324,0.013523,0.002678,0.000431,0.249630
62860000,0.0324,0.013523,0.002678,0.000431,0.306278
62861000,0.0324,0.013523,0.002678,0.000431,0.152552
62862000,0.0324,0.013523,0.002678,0.000431,0.157723
62863000,0.0324,0.013523,0.002678,0.000431,0.195097
62864000,0.0324,0.013523,0.002678,0.000431,0.497967
62865000,0.0324,0.013523,0.002678,0.000431,0.187928
62866000,0.0324,0.013523,0.002678,0.000431,0.148203
62867000,0.0324,0.013523,0.002678,0.000431,0.127518
62868000,0.0324,0.013523,0.002678,0.000431,0.102014
62869000,0.0324,0.013523,0.002678,0.000431,0.083680
62870000,0.0324,0.013523,0.002678,0.000431,0.066286
62871000,0.0324,0.013523,0.002678,0.000431,0.052535
62872000,0.0324,0.013523,0.002678,0.000431,0.055121
62873000,0.0324,0.013523,0.002678,0.000431,0.041252
62874000,0.0324,0.013523,0.002678,0.000431,0.030440
62875000,0.0324,0.013523,0.002678,0.000431,0.032790
62876000,0.0324,0.013523,0.002678,0.000431,0.021273
62877000,0.0324,0.013523,0.002678,0.000431,0.012105
62878000,0.0324,0.013523,0.002678,0.000431,0.018217
62879000,0.0324,0.013523,0.002678,0.000431,0.012223
62880000,0.0324,0.013523,0.002678,0.000431,0.009050
62881000,0.0324,0.013523,0.002678,0.000431,0.010930
62882000,0.0324,0.013523,0.002678,0.000431,0.007287
62883000,0.0324,0.013523,0.002678,0.000431,0.009050
62884000,0.0324,0.013523,0.002678,0.000431,0.005054
62885000,0.0324,0.013523,0.002678,0.000431,0.005289
62886000,0.0324,0.013523,0.002678,0.000431,0.005289
62887000,0.0324,0.013523,0.002678,0.000431,0.005289
62888000,0.0324,0.013523,0.002678,0.000431,0.005994
62889000,0.0324,0.013523,0.002678,0.000431,0.007052
62890000,0.0324,0.013523,0.002678,0.000431,0.002703
62891000,0.0324,0.013523,0.002678,0.000431,0.005054
62892000,0.0324,0.013523,0.002678,0.000431,0.001763
62893000,0.0324,0.013523,0.002678,0.000431,0.001998
62894000,0.0324,0.013523,0.002678,0.000431,0.002233
62895000,0.0324,0.013523,0.002678,0.000431,0.001645
62896000,0.0324,0.013523,0.002678,0.000431,0.002233
62897000,0.0324,0.013523,0.002678,0.000431,0.001880
62898000,0.0324,0.013523,0.002678,0.000431,0.002116
62899000,0.0324,0.013523,0.002678,0.000431,0.002116
62900000,0.0324,0.013523,0.002678,0.000431,0.001645
62901000,0.0324,0.013523,0.002678,0.000431,0.002351
62902000,0.0324,0.013523,0.002678,0.000431,0.002351
62903000,0.0324,0.013523,0.002678,0.000431,0.001998
62904000,0.0324,0.013523,0.002678,0.000431,0.005524
62905000,0.0324,0.013523,0.002678,0.000431,0.000940
62906000,0.0324,0.013523,0.002678,0.000431,0.000823
62907000,0.0324,0.013523,0.002678,0.000431,0.000823
62908000,0.0324,0.013523,0.002678,0.000431,0.000823
62909000,0.0324,0.013523,0.002678,0.000431,0.000823
62910000,0.0324,0.013523,0.002678,0.000431,0.000940
62911000,0.0324,0.013523,0.002678,0.000431,0.000823
62912000,0.0324,0.013523,0.002678,0.000431,0.000823
62913000,0.0324,0.013523,0.002678,0.000431,0.000823
62914000,0.0324,0.013523,0.002678,0.000431,0.000823
62915000,0.0324,0.013523,0.002678,0.000431,0.000823
62916000,0.0324,0.013523,0.002678,0.000431,0.000823
62917000,0.0324,0.013523,0.002678,0.000431,0.000823
62918000,0.0324,0.013523,0.002678,0.000431,0.000823
62919000,0.0324,0.013523,0.002678,0.000431,0.000940
62920000,0.0324,0.013523,0.002678,0.000431,0.000823
62921000,0.0324,0.013523,0.002678,0.000431,0.000823
62922000,0.0324,0.013523,0.002678,0.000431,0.000705
62923000,0.0324,0.013523,0.002678,0.000431,0.000940
62924000,0.0324,0.013523,0.002678,0.000431,0.000940
62925000,0.0324,0.013523,0.002678,0.000431,0.000705
62926000,0.0324,0.013523,0.002678,0.000431,0.000940
62927000,0.0324,0.013523,0.002678,0.000431,0.000705
62928000,0.0324,0.013523,0.002678,0.000431,0.000940
62929000,0.0324,0.013523,0.002678,0.000431,0.000823
62930000,0.0324,0.013523,0.002678,0.000431,0.000823
62931000,0.0324,0.013523,0.002678,0.000431,0.000940
62932000,0.0324,0.013523,0.002678,0.000431,0.000705
62933000,0.0324,0.013523,0.002678,0.000431,0.000940
62934000,0.0324,0.013523,0.002678,0.000431,0.000823
62935000,0.0324,0.013523,0.002678,0.000431,0.000823
62936000,0.0324,0.013523,0.002678,0.000431,0.000823
62937000,0.0324,0.013523,0.002678,0.000431,0.000823
62938000,0.0324,0.013523,0.002678,0.000431,0.000823
62939000,0.0324,0.013523,0.002678,0.000431,0.000823
62940000,0.0324,0.013523,0.002678,0.000431,0.000940
62941000,0.0324,0.013523,0.002678,0.000431,0.000705
62942000,0.0324,0.013523,0.002678,0.000431,0.000940
62943000,0.0324,0.013523,0.002678,0.000431,0.000823
62944000,0.0324,0.013523,0.002678,0.000431,0.000823
62945000,0.0324,0.013523,0.002678,0.000431,0.000705
62946000,0.0324,0.013523,0.002678,0.000431,0.000940
62947000,0.0324,0.013523,0.002678,0.000431,0.000940
62948000,0.0324,0.013523,0.002678,0.000431,0.000705
62949000,0.0324,0.013523,0.002678,0.000431,0.000940
62950000,0.0324,0.013523,0.002678,0.000431,0.000705
62951000,0.0324,0.013523,0.002678,0.000431,0.000940
62952000,0.0324,0.013523,0.002678,0.000431,0.000940
62953000,0.0324,0.013523,0.002678,0.000431,0.000705
62954000,0.0324,0.013523,0.002678,0.000431,0.000940
62955000,0.0324,0.013523,0.002678,0.000431,0.000705
62956000,0.0324,0.013523,0.002678,0.000431,0.000940
62957000,0.0324,0.013523,0.002678,0.000431,0.000823
62958000,0.0324,0.013523,0.002678,0.000431,0.000823
62959000,0.0324,0.013523,0.002678,0.000431,0.000823
62960000,0.0324,0.013523,0.002678,0.000431,0.000823
62961000,0.0324,0.013523,0.002678,0.000431,0.000940
62962000,0.0324,0.013523,0.002678,0.000431,0.000705
62963000,0.0324,0.013523,0.002678,0.000431,0.000940
62964000,0.0324,0.013523,0.002678,0.000431,0.000823
62965000,0.0324,0.013523,0.002678,0.000431,0.000823
62966000,0.0324,0.013523,0.002678,0.000431,0.000823
62967000,0.0324,0.013523,0.002678,0.000431,0.000823
62968000,0.0324,0.013523,0.002678,0.000431,0.000940
62969000,0.0324,0.013523,0.002678,0.000431,0.000705
62970000,0.0324,0.013523,0.002678,0.000431,0.000823
62971000,0.0324,0.013523,0.002678,0.000431,0.000940
62972000,0.0324,0.013523,0.002678,0.000431,0.000823
62973000,0.0324,0.013523,0.002678,0.000431,0.000823
62974000,0.0324,0.013523,0.002678,0.000431,0.000823
62975000,0.0324,0.013523,0.002678,0.000431,0.000823
62976000,0.0324,0.013523,0.002678,0.000431,0.000823
62977000,0.0324,0.013523,0.002678,0.000431,0.000940
62978000,0.0324,0.013523,0.002678,0.000431,0.000823
62979000,0.0324,0.013523,0.002678,0.000431,0.000823
62980000,0.0324,0.013523,0.002678,0.000431,0.000705
62981000,0.0324,0.013523,0.002678,0.000431,0.000940
62982000,0.0324,0.013523,0.002678,0.000431,0.000940
62983000,0.0324,0.013523,0.002678,0.000431,0.000705
62984000,0.0324,0.013523,0.002678,0.000431,0.000940
62985000,0.0324,0.013523,0.002678,0.000431,0.000705
62986000,0.0324,0.013523,0.002678,0.000431,0.000940
62987000,0.0324,0.013523,0.002678,0.000431,0.000823
62988000,0.0324,0.013523,0.002678,0.000431,0.000823
62989000,0.0324,0.013523,0.002678,0.000431,0.000940
62990000,0.0324,0.013523,0.002678,0.000431,0.000705
62991000,0.0324,0.013523,0.002678,0.000431,0.013868
62992000,0.0324,0.013523,0.002678,0.000431,0.690948
62993000,0.0324,0.013523,0.002678,0.000431,0.602097
62994000,0.0324,0.013523,0.002678,0.000431,0.138918
62995000,0.0324,0.013523,0.002678,0.000431,0.135980
62996000,0.0324,0.013523,0.002678,0.000431,0.542040
62997000,0.0324,0.013523,0.002678,0.000431,0.245399
62998000,0.0324,0.013523,0.002678,0.000431,0.323555
62999000,0.0324,0.013523,0.002678,0.000431,0.189455
