Cycle,Area(mm^2),PeakDynamic(W),SubthresholdLeakage(W),GateLeakage(W),RunTimeDynamic(W)
29000000,0.0324,0.013523,0.002678,0.000431,0.003291
29001000,0.0324,0.013523,0.002678,0.000431,0.005524
29002000,0.0324,0.013523,0.002678,0.000431,0.004231
29003000,0.0324,0.013523,0.002678,0.000431,0.001528
29004000,0.0324,0.013523,0.002678,0.000431,0.001763
29005000,0.0324,0.013523,0.002678,0.000431,0.001528
29006000,0.0324,0.013523,0.002678,0.000431,0.003173
29007000,0.0324,0.013523,0.002678,0.000431,0.000940
29008000,0.0324,0.013523,0.002678,0.000431,0.000940
29009000,0.0324,0.013523,0.002678,0.000431,0.000705
29010000,0.0324,0.013523,0.002678,0.000431,0.001880
29011000,0.0324,0.013523,0.002678,0.000431,0.414874
29012000,0.0324,0.013523,0.002678,0.000431,0.732436
29013000,0.0324,0.013523,0.002678,0.000431,0.155020
29014000,0.0324,0.013523,0.002678,0.000431,0.134922
29015000,0.0324,0.013523,0.002678,0.000431,0.184167
29016000,0.0324,0.013523,0.002678,0.000431,0.630421
29017000,0.0324,0.013523,0.002678,0.000431,0.244341
29018000,0.0324,0.013523,0.002678,0.000431,0.302988
29019000,0.0324,0.013523,0.002678,0.000431,0.187575
29020000,0.0324,0.013523,0.002678,0.000431,0.148438
29021000,0.0324,0.013523,0.002678,0.000431,0.121877
29022000,0.0324,0.013523,0.002678,0.000431,0.299579
29023000,0.0324,0.013523,0.002678,0.000431,0.332605
29024000,0.0324,0.013523,0.002678,0.000431,0.099429
29025000,0.0324,0.013523,0.002678,0.000431,0.083798
29026000,0.0324,0.013523,0.002678,0.000431,0.075218
29027000,0.0324,0.013523,0.002678,0.000431,0.054768
29028000,0.0324,0.013523,0.002678,0.000431,0.050185
29029000,0.0324,0.013523,0.002678,0.000431,0.046424
29030000,0.0324,0.013523,0.002678,0.000431,0.034788
29031000,0.0324,0.013523,0.002678,0.000431,0.036081
29032000,0.0324,0.013523,0.002678,0.000431,0.023976
29033000,0.0324,0.013523,0.002678,0.000431,0.026091
29034000,0.0324,0.013523,0.002678,0.000431,0.017864
29035000,0.0324,0.013523,0.002678,0.000431,0.010695
29036000,0.0324,0.013523,0.002678,0.000431,0.011870
29037000,0.0324,0.013523,0.002678,0.000431,0.013516
29038000,0.0324,0.013523,0.002678,0.000431,0.013868
29039000,0.0324,0.013523,0.002678,0.000431,0.009285
29040000,0.0324,0.013523,0.002678,0.000431,0.007757
29041000,0.0324,0.013523,0.002678,0.000431,0.007757
29042000,0.0324,0.013523,0.002678,0.000431,0.007169
29043000,0.0324,0.013523,0.002678,0.000431,0.005524
29044000,0.0324,0.013523,0.002678,0.000431,0.005171
29045000,0.0324,0.013523,0.002678,0.000431,0.001880
29046000,0.0324,0.013523,0.002678,0.000431,0.001645
29047000,0.0324,0.013523,0.002678,0.000431,0.022448
29048000,0.0324,0.013523,0.002678,0.000431,0.581529
29049000,0.0324,0.013523,0.002678,0.000431,0.602449
29050000,0.0324,0.013523,0.002678,0.000431,0.133042
29051000,0.0324,0.013523,0.002678,0.000431,0.133982
29052000,0.0324,0.013523,0.002678,0.000431,0.518417
29053000,0.0324,0.013523,0.002678,0.000431,0.262440
29054000,0.0324,0.013523,0.002678,0.000431,0.279835
29055000,0.0324,0.013523,0.002678,0.000431,0.303575
29056000,0.0324,0.013523,0.002678,0.000431,0.139153
29057000,0.0324,0.013523,0.002678,0.000431,0.151259
29058000,0.0324,0.013523,0.002678,0.000431,0.116235
29059000,0.0324,0.013523,0.002678,0.000431,0.340127
29060000,0.0324,0.013523,0.002678,0.000431,0.317091
29061000,0.0324,0.013523,0.002678,0.000431,0.135745
29062000,0.0324,0.013523,0.002678,0.000431,0.108949
29063000,0.0324,0.013523,0.002678,0.000431,0.087206
29064000,0.0324,0.013523,0.002678,0.000431,0.076746
29065000,0.0324,0.013523,0.002678,0.000431,0.067579
29066000,0.0324,0.013523,0.002678,0.000431,0.052418
29067000,0.0324,0.013523,0.002678,0.000431,0.049949
29068000,0.0324,0.013523,0.002678,0.000431,0.034671
29069000,0.0324,0.013523,0.002678,0.000431,0.044426
29070000,0.0324,0.013523,0.002678,0.000431,0.023623
29071000,0.0324,0.013523,0.002678,0.000431,0.019275
29072000,0.0324,0.013523,0.002678,0.000431,0.018805
29073000,0.0324,0.013523,0.002678,0.000431,0.016807
29074000,0.0324,0.013523,0.002678,0.000431,0.019862
29075000,0.0324,0.013523,0.002678,0.000431,0.012340
29076000,0.0324,0.013523,0.002678,0.000431,0.013281
29077000,0.0324,0.013523,0.002678,0.000431,0.006817
29078000,0.0324,0.013523,0.002678,0.000431,0.009050
29079000,0.0324,0.013523,0.002678,0.000431,0.006464
29080000,0.0324,0.013523,0.002678,0.000431,0.007992
29081000,0.0324,0.013523,0.002678,0.000431,0.007757
29082000,0.0324,0.013523,0.002678,0.000431,0.004819
29083000,0.0324,0.013523,0.002678,0.000431,0.004819
29084000,0.0324,0.013523,0.002678,0.000431,0.006582
29085000,0.0324,0.013523,0.002678,0.000431,0.001763
29086000,0.0324,0.013523,0.002678,0.000431,0.002116
29087000,0.0324,0.013523,0.002678,0.000431,0.001880
29088000,0.0324,0.013523,0.002678,0.000431,0.002116
29089000,0.0324,0.013523,0.002678,0.000431,0.001880
29090000,0.0324,0.013523,0.002678,0.000431,0.001763
29091000,0.0324,0.013523,0.002678,0.000431,0.002233
29092000,0.0324,0.013523,0.002678,0.000431,0.003878
29093000,0.0324,0.013523,0.002678,0.000431,0.001293
29094000,0.0324,0.013523,0.002678,0.000431,0.001175
29095000,0.0324,0.013523,0.002678,0.000431,0.000940
29096000,0.0324,0.013523,0.002678,0.000431,0.001293
29097000,0.0324,0.013523,0.002678,0.000431,0.000940
29098000,0.0324,0.013523,0.002678,0.000431,0.001293
29099000,0.0324,0.013523,0.002678,0.000431,0.000823
29100000,0.0324,0.013523,0.002678,0.000431,0.001175
29101000,0.0324,0.013523,0.002678,0.000431,0.001175
29102000,0.0324,0.013523,0.002678,0.000431,0.000705
29103000,0.0324,0.013523,0.002678,0.000431,0.001410
29104000,0.0324,0.013523,0.002678,0.000431,0.000940
29105000,0.0324,0.013523,0.002678,0.000431,0.001293
29106000,0.0324,0.013523,0.002678,0.000431,0.000823
29107000,0.0324,0.013523,0.002678,0.000431,0.001058
29108000,0.0324,0.013523,0.002678,0.000431,0.001293
29109000,0.0324,0.013523,0.002678,0.000431,0.000823
29110000,0.0324,0.013523,0.002678,0.000431,0.001175
29111000,0.0324,0.013523,0.002678,0.000431,0.001058
29112000,0.0324,0.013523,0.002678,0.000431,0.001058
29113000,0.0324,0.013523,0.002678,0.000431,0.001175
29114000,0.0324,0.013523,0.002678,0.000431,0.000823
29115000,0.0324,0.013523,0.002678,0.000431,0.001410
29116000,0.0324,0.013523,0.002678,0.000431,0.000823
29117000,0.0324,0.013523,0.002678,0.000431,0.001058
29118000,0.0324,0.013523,0.002678,0.000431,0.001175
29119000,0.0324,0.013523,0.002678,0.000431,0.001293
29120000,0.0324,0.013523,0.002678,0.000431,0.001528
29121000,0.0324,0.013523,0.002678,0.000431,0.000823
29122000,0.0324,0.013523,0.002678,0.000431,0.001058
29123000,0.0324,0.013523,0.002678,0.000431,0.001175
29124000,0.0324,0.013523,0.002678,0.000431,0.000823
29125000,0.0324,0.013523,0.002678,0.000431,0.001410
29126000,0.0324,0.013523,0.002678,0.000431,0.000823
29127000,0.0324,0.013523,0.002678,0.000431,0.001293
29128000,0.0324,0.013523,0.002678,0.000431,0.001410
29129000,0.0324,0.013523,0.002678,0.000431,0.001410
29130000,0.0324,0.013523,0.002678,0.000431,0.001293
29131000,0.0324,0.013523,0.002678,0.000431,0.001058
29132000,0.0324,0.013523,0.002678,0.000431,0.000823
29133000,0.0324,0.013523,0.002678,0.000431,0.001410
29134000,0.0324,0.013523,0.002678,0.000431,0.000823
29135000,0.0324,0.013523,0.002678,0.000431,0.001763
29136000,0.0324,0.013523,0.002678,0.000431,0.431093
29137000,0.0324,0.013523,0.002678,0.000431,0.739017
29138000,0.0324,0.013523,0.002678,0.000431,0.146440
29139000,0.0324,0.013523,0.002678,0.000431,0.133865
29140000,0.0324,0.013523,0.002678,0.000431,0.180523
29141000,0.0324,0.013523,0.002678,0.000431,0.561197
29142000,0.0324,0.013523,0.002678,0.000431,0.243283
29143000,0.0324,0.013523,0.002678,0.000431,0.321440
29144000,0.0324,0.013523,0.002678,0.000431,0.213666
29145000,0.0324,0.013523,0.002678,0.000431,0.144912
29146000,0.0324,0.013523,0.002678,0.000431,0.137861
29147000,0.0324,0.013523,0.002678,0.000431,0.240698
29148000,0.0324,0.013523,0.002678,0.000431,0.393132
29149000,0.0324,0.013523,0.002678,0.000431,0.137978
29150000,0.0324,0.013523,0.002678,0.000431,0.119761
29151000,0.0324,0.013523,0.002678,0.000431,0.106716
29152000,0.0324,0.013523,0.002678,0.000431,0.088381
29153000,0.0324,0.013523,0.002678,0.000431,0.080859
29154000,0.0324,0.013523,0.002678,0.000431,0.067814
29155000,0.0324,0.013523,0.002678,0.000431,0.057589
29156000,0.0324,0.013523,0.002678,0.000431,0.055708
29157000,0.0324,0.013523,0.002678,0.000431,0.048304
29158000,0.0324,0.013523,0.002678,0.000431,0.041487
29159000,0.0324,0.013523,0.002678,0.000431,0.032203
29160000,0.0324,0.013523,0.002678,0.000431,0.034436
29161000,0.0324,0.013523,0.002678,0.000431,0.022330
29162000,0.0324,0.013523,0.002678,0.000431,0.021978
29163000,0.0324,0.013523,0.002678,0.000431,0.021508
29164000,0.0324,0.013523,0.002678,0.000431,0.015866
29165000,0.0324,0.013523,0.002678,0.000431,0.012576
29166000,0.0324,0.013523,0.002678,0.000431,0.012458
29167000,0.0324,0.013523,0.002678,0.000431,0.016924
29168000,0.0324,0.013523,0.002678,0.000431,0.012576
29169000,0.0324,0.013523,0.002678,0.000431,0.012105
29170000,0.0324,0.013523,0.002678,0.000431,0.008462
29171000,0.0324,0.013523,0.002678,0.000431,0.008580
29172000,0.0324,0.013523,0.002678,0.000431,0.009285
29173000,0.0324,0.013523,0.002678,0.000431,0.007639
29174000,0.0324,0.013523,0.002678,0.000431,0.008697
29175000,0.0324,0.013523,0.002678,0.000431,0.006582
29176000,0.0324,0.013523,0.002678,0.000431,0.008109
29177000,0.0324,0.013523,0.002678,0.000431,0.005406
29178000,0.0324,0.013523,0.002678,0.000431,0.005054
29179000,0.0324,0.013523,0.002678,0.000431,0.005171
29180000,0.0324,0.013523,0.002678,0.000431,0.006699
29181000,0.0324,0.013523,0.002678,0.000431,0.004349
29182000,0.0324,0.013523,0.002678,0.000431,0.004349
29183000,0.0324,0.013523,0.002678,0.000431,0.006699
29184000,0.0324,0.013523,0.002678,0.000431,0.005406
29185000,0.0324,0.013523,0.002678,0.000431,0.002116
29186000,0.0324,0.013523,0.002678,0.000431,0.002821
29187000,0.0324,0.013523,0.002678,0.000431,0.002586
29188000,0.0324,0.013523,0.002678,0.000431,0.002351
29189000,0.0324,0.013523,0.002678,0.000431,0.005054
29190000,0.0324,0.013523,0.002678,0.000431,0.001645
29191000,0.0324,0.013523,0.002678,0.000431,0.002821
29192000,0.0324,0.013523,0.002678,0.000431,0.000823
29193000,0.0324,0.013523,0.002678,0.000431,0.000940
29194000,0.0324,0.013523,0.002678,0.000431,0.000823
29195000,0.0324,0.013523,0.002678,0.000431,0.000823
29196000,0.0324,0.013523,0.002678,0.000431,0.081917
29197000,0.0324,0.013523,0.002678,0.000431,0.616788
29198000,0.0324,0.013523,0.002678,0.000431,0.551090
29199000,0.0324,0.013523,0.002678,0.000431,0.137038
29200000,0.0324,0.013523,0.002678,0.000431,0.144677
29201000,0.0324,0.013523,0.002678,0.000431,0.619609
29202000,0.0324,0.013523,0.002678,0.000431,0.259385
29203000,0.0324,0.013523,0.002678,0.000431,0.264673
29204000,0.0324,0.013523,0.002678,0.000431,0.276074
29205000,0.0324,0.013523,0.002678,0.000431,0.144207
29206000,0.0324,0.013523,0.002678,0.000431,0.157488
29207000,0.0324,0.013523,0.002678,0.000431,0.156900
29208000,0.0324,0.013523,0.002678,0.000431,0.432269
29209000,0.0324,0.013523,0.002678,0.000431,0.129281
29210000,0.0324,0.013523,0.002678,0.000431,0.099311
29211000,0.0324,0.013523,0.002678,0.000431,0.086266
29212000,0.0324,0.013523,0.002678,0.000431,0.079214
29213000,0.0324,0.013523,0.002678,0.000431,0.065581
29214000,0.0324,0.013523,0.002678,0.000431,0.059704
29215000,0.0324,0.013523,0.002678,0.000431,0.047364
29216000,0.0324,0.013523,0.002678,0.000431,0.047246
29217000,0.0324,0.013523,0.002678,0.000431,0.032320
29218000,0.0324,0.013523,0.002678,0.000431,0.027972
29219000,0.0324,0.013523,0.002678,0.000431,0.020802
29220000,0.0324,0.013523,0.002678,0.000431,0.019157
29221000,0.0324,0.013523,0.002678,0.000431,0.017982
29222000,0.0324,0.013523,0.002678,0.000431,0.017864
29223000,0.0324,0.013523,0.002678,0.000431,0.015514
29224000,0.0324,0.013523,0.002678,0.000431,0.015396
29225000,0.0324,0.013523,0.002678,0.000431,0.013163
29226000,0.0324,0.013523,0.002678,0.000431,0.010225
29227000,0.0324,0.013523,0.002678,0.000431,0.008815
29228000,0.0324,0.013523,0.002678,0.000431,0.006699
29229000,0.0324,0.013523,0.002678,0.000431,0.006699
29230000,0.0324,0.013523,0.002678,0.000431,0.008815
29231000,0.0324,0.013523,0.002678,0.000431,0.007757
29232000,0.0324,0.013523,0.002678,0.000431,0.005524
29233000,0.0324,0.013523,0.002678,0.000431,0.005876
29234000,0.0324,0.013523,0.002678,0.000431,0.003526
29235000,0.0324,0.013523,0.002678,0.000431,0.004584
29236000,0.0324,0.013523,0.002678,0.000431,0.002703
29237000,0.0324,0.013523,0.002678,0.000431,0.002351
29238000,0.0324,0.013523,0.002678,0.000431,0.003996
29239000,0.0324,0.013523,0.002678,0.000431,0.001645
29240000,0.0324,0.013523,0.002678,0.000431,0.001763
29241000,0.0324,0.013523,0.002678,0.000431,0.003291
29242000,0.0324,0.013523,0.002678,0.000431,0.000823
29243000,0.0324,0.013523,0.002678,0.000431,0.000940
29244000,0.0324,0.013523,0.002678,0.000431,0.000705
29245000,0.0324,0.013523,0.002678,0.000431,0.000940
29246000,0.0324,0.013523,0.002678,0.000431,0.000823
29247000,0.0324,0.013523,0.002678,0.000431,0.000823
29248000,0.0324,0.013523,0.002678,0.000431,0.000705
29249000,0.0324,0.013523,0.002678,0.000431,0.000940
29250000,0.0324,0.013523,0.002678,0.000431,0.000940
29251000,0.0324,0.013523,0.002678,0.000431,0.000705
29252000,0.0324,0.013523,0.002678,0.000431,0.000940
29253000,0.0324,0.013523,0.002678,0.000431,0.000705
29254000,0.0324,0.013523,0.002678,0.000431,0.000940
29255000,0.0324,0.013523,0.002678,0.000431,0.000823
29256000,0.0324,0.013523,0.002678,0.000431,0.000823
29257000,0.0324,0.013523,0.002678,0.000431,0.000940
29258000,0.0324,0.013523,0.002678,0.000431,0.000705
29259000,0.0324,0.013523,0.002678,0.000431,0.000940
29260000,0.0324,0.013523,0.002678,0.000431,0.000940
29261000,0.0324,0.013523,0.002678,0.000431,0.000705
29262000,0.0324,0.013523,0.002678,0.000431,0.000940
29263000,0.0324,0.013523,0.002678,0.000431,0.000940
29264000,0.0324,0.013523,0.002678,0.000431,0.000823
29265000,0.0324,0.013523,0.002678,0.000431,0.000940
29266000,0.0324,0.013523,0.002678,0.000431,0.217662
29267000,0.0324,0.013523,0.002678,0.000431,0.606798
29268000,0.0324,0.013523,0.002678,0.000431,0.425217
29269000,0.0324,0.013523,0.002678,0.000431,0.133512
29270000,0.0324,0.013523,0.002678,0.000431,0.133512
29271000,0.0324,0.013523,0.002678,0.000431,0.587876
29272000,0.0324,0.013523,0.002678,0.000431,0.220483
29273000,0.0324,0.013523,0.002678,0.000431,0.280775
29274000,0.0324,0.013523,0.002678,0.000431,0.270785
29275000,0.0324,0.013523,0.002678,0.000431,0.139388
29276000,0.0324,0.013523,0.002678,0.000431,0.155372
29277000,0.0324,0.013523,0.002678,0.000431,0.104365
29278000,0.0324,0.013523,0.002678,0.000431,0.443316
29279000,0.0324,0.013523,0.002678,0.000431,0.185342
29280000,0.0324,0.013523,0.002678,0.000431,0.110829
29281000,0.0324,0.013523,0.002678,0.000431,0.092965
29282000,0.0324,0.013523,0.002678,0.000431,0.082387
29283000,0.0324,0.013523,0.002678,0.000431,0.077569
29284000,0.0324,0.013523,0.002678,0.000431,0.076158
29285000,0.0324,0.013523,0.002678,0.000431,0.059939
29286000,0.0324,0.013523,0.002678,0.000431,0.059234
29287000,0.0324,0.013523,0.002678,0.000431,0.041370
29288000,0.0324,0.013523,0.002678,0.000431,0.036434
29289000,0.0324,0.013523,0.002678,0.000431,0.035494
29290000,0.0324,0.013523,0.002678,0.000431,0.029265
29291000,0.0324,0.013523,0.002678,0.000431,0.028089
29292000,0.0324,0.013523,0.002678,0.000431,0.026914
29293000,0.0324,0.013523,0.002678,0.000431,0.027384
29294000,0.0324,0.013523,0.002678,0.000431,0.023976
29295000,0.0324,0.013523,0.002678,0.000431,0.022330
29296000,0.0324,0.013523,0.002678,0.000431,0.019392
29297000,0.0324,0.013523,0.002678,0.000431,0.019862
29298000,0.0324,0.013523,0.002678,0.000431,0.014103
29299000,0.0324,0.013523,0.002678,0.000431,0.017042
29300000,0.0324,0.013523,0.002678,0.000431,0.015396
29301000,0.0324,0.013523,0.002678,0.000431,0.013986
29302000,0.0324,0.013523,0.002678,0.000431,0.012928
29303000,0.0324,0.013523,0.002678,0.000431,0.012811
29304000,0.0324,0.013523,0.002678,0.000431,0.009402
29305000,0.0324,0.013523,0.002678,0.000431,0.005524
29306000,0.0324,0.013523,0.002678,0.000431,0.005876
29307000,0.0324,0.013523,0.002678,0.000431,0.006817
29308000,0.0324,0.013523,0.002678,0.000431,0.004701
29309000,0.0324,0.013523,0.002678,0.000431,0.005054
29310000,0.0324,0.013523,0.002678,0.000431,0.004936
29311000,0.0324,0.013523,0.002678,0.000431,0.006229
29312000,0.0324,0.013523,0.002678,0.000431,0.003761
29313000,0.0324,0.013523,0.002678,0.000431,0.004231
29314000,0.0324,0.013523,0.002678,0.000431,0.008109
29315000,0.0324,0.013523,0.002678,0.000431,0.002468
29316000,0.0324,0.013523,0.002678,0.000431,0.002351
29317000,0.0324,0.013523,0.002678,0.000431,0.002351
29318000,0.0324,0.013523,0.002678,0.000431,0.001880
29319000,0.0324,0.013523,0.002678,0.000431,0.002586
29320000,0.0324,0.013523,0.002678,0.000431,0.002233
29321000,0.0324,0.013523,0.002678,0.000431,0.002351
29322000,0.0324,0.013523,0.002678,0.000431,0.001645
29323000,0.0324,0.013523,0.002678,0.000431,0.001645
29324000,0.0324,0.013523,0.002678,0.000431,0.001763
29325000,0.0324,0.013523,0.002678,0.000431,0.001528
29326000,0.0324,0.013523,0.002678,0.000431,0.001763
29327000,0.0324,0.013523,0.002678,0.000431,0.001645
29328000,0.0324,0.013523,0.002678,0.000431,0.001763
29329000,0.0324,0.013523,0.002678,0.000431,0.001528
29330000,0.0324,0.013523,0.002678,0.000431,0.001763
29331000,0.0324,0.013523,0.002678,0.000431,0.001528
29332000,0.0324,0.013523,0.002678,0.000431,0.003291
29333000,0.0324,0.013523,0.002678,0.000431,0.000823
29334000,0.0324,0.013523,0.002678,0.000431,0.000823
29335000,0.0324,0.013523,0.002678,0.000431,0.000823
29336000,0.0324,0.013523,0.002678,0.000431,0.000823
29337000,0.0324,0.013523,0.002678,0.000431,0.000940
29338000,0.0324,0.013523,0.002678,0.000431,0.000705
29339000,0.0324,0.013523,0.002678,0.000431,0.000940
29340000,0.0324,0.013523,0.002678,0.000431,0.000705
29341000,0.0324,0.013523,0.002678,0.000431,0.000940
29342000,0.0324,0.013523,0.002678,0.000431,0.000705
29343000,0.0324,0.013523,0.002678,0.000431,0.000940
29344000,0.0324,0.013523,0.002678,0.000431,0.000823
29345000,0.0324,0.013523,0.002678,0.000431,0.000705
29346000,0.0324,0.013523,0.002678,0.000431,0.000940
29347000,0.0324,0.013523,0.002678,0.000431,0.000823
29348000,0.0324,0.013523,0.002678,0.000431,0.000823
29349000,0.0324,0.013523,0.002678,0.000431,0.000823
29350000,0.0324,0.013523,0.002678,0.000431,0.000823
29351000,0.0324,0.013523,0.002678,0.000431,0.000823
29352000,0.0324,0.013523,0.002678,0.000431,0.000940
29353000,0.0324,0.013523,0.002678,0.000431,0.000823
29354000,0.0324,0.013523,0.002678,0.000431,0.000823
29355000,0.0324,0.013523,0.002678,0.000431,0.000705
29356000,0.0324,0.013523,0.002678,0.000431,0.000940
29357000,0.0324,0.013523,0.002678,0.000431,0.000940
29358000,0.0324,0.013523,0.002678,0.000431,0.000705
29359000,0.0324,0.013523,0.002678,0.000431,0.000940
29360000,0.0324,0.013523,0.002678,0.000431,0.000705
29361000,0.0324,0.013523,0.002678,0.000431,0.000940
29362000,0.0324,0.013523,0.002678,0.000431,0.000823
29363000,0.0324,0.013523,0.002678,0.000431,0.000823
29364000,0.0324,0.013523,0.002678,0.000431,0.000940
29365000,0.0324,0.013523,0.002678,0.000431,0.000705
29366000,0.0324,0.013523,0.002678,0.000431,0.000940
29367000,0.0324,0.013523,0.002678,0.000431,0.000823
29368000,0.0324,0.013523,0.002678,0.000431,0.229062
29369000,0.0324,0.013523,0.002678,0.000431,0.608091
29370000,0.0324,0.013523,0.002678,0.000431,0.421339
29371000,0.0324,0.013523,0.002678,0.000431,0.132807
29372000,0.0324,0.013523,0.002678,0.000431,0.133277
29373000,0.0324,0.013523,0.002678,0.000431,0.574595
29374000,0.0324,0.013523,0.002678,0.000431,0.236819
29375000,0.0324,0.013523,0.002678,0.000431,0.235879
29376000,0.0324,0.013523,0.002678,0.000431,0.282655
29377000,0.0324,0.013523,0.002678,0.000431,0.139153
29378000,0.0324,0.013523,0.002678,0.000431,0.145382
29379000,0.0324,0.013523,0.002678,0.000431,0.127753
29380000,0.0324,0.013523,0.002678,0.000431,0.338481
29381000,0.0324,0.013523,0.002678,0.000431,0.309334
29382000,0.0324,0.013523,0.002678,0.000431,0.134100
29383000,0.0324,0.013523,0.002678,0.000431,0.124815
29384000,0.0324,0.013523,0.002678,0.000431,0.109889
29385000,0.0324,0.013523,0.002678,0.000431,0.090379
29386000,0.0324,0.013523,0.002678,0.000431,0.083210
29387000,0.0324,0.013523,0.002678,0.000431,0.075923
29388000,0.0324,0.013523,0.002678,0.000431,0.060527
29389000,0.0324,0.013523,0.002678,0.000431,0.058176
29390000,0.0324,0.013523,0.002678,0.000431,0.054651
29391000,0.0324,0.013523,0.002678,0.000431,0.047951
29392000,0.0324,0.013523,0.002678,0.000431,0.044543
29393000,0.0324,0.013523,0.002678,0.000431,0.042075
29394000,0.0324,0.013523,0.002678,0.000431,0.043015
29395000,0.0324,0.013523,0.002678,0.000431,0.040782
29396000,0.0324,0.013523,0.002678,0.000431,0.037374
29397000,0.0324,0.013523,0.002678,0.000431,0.032555
29398000,0.0324,0.013523,0.002678,0.000431,0.030910
29399000,0.0324,0.013523,0.002678,0.000431,0.029970
29400000,0.0324,0.013523,0.002678,0.000431,0.027502
29401000,0.0324,0.013523,0.002678,0.000431,0.027619
29402000,0.0324,0.013523,0.002678,0.000431,0.028794
29403000,0.0324,0.013523,0.002678,0.000431,0.024446
29404000,0.0324,0.013523,0.002678,0.000431,0.020332
29405000,0.0324,0.013523,0.002678,0.000431,0.014809
29406000,0.0324,0.013523,0.002678,0.000431,0.012811
29407000,0.0324,0.013523,0.002678,0.000431,0.014926
29408000,0.0324,0.013523,0.002678,0.000431,0.013751
29409000,0.0324,0.013523,0.002678,0.000431,0.013163
29410000,0.0324,0.013523,0.002678,0.000431,0.013633
29411000,0.0324,0.013523,0.002678,0.000431,0.010695
29412000,0.0324,0.013523,0.002678,0.000431,0.007757
29413000,0.0324,0.013523,0.002678,0.000431,0.007522
29414000,0.0324,0.013523,0.002678,0.000431,0.008815
29415000,0.0324,0.013523,0.002678,0.000431,0.008109
29416000,0.0324,0.013523,0.002678,0.000431,0.009637
29417000,0.0324,0.013523,0.002678,0.000431,0.008462
29418000,0.0324,0.013523,0.002678,0.000431,0.008815
29419000,0.0324,0.013523,0.002678,0.000431,0.004936
29420000,0.0324,0.013523,0.002678,0.000431,0.004936
29421000,0.0324,0.013523,0.002678,0.000431,0.005171
29422000,0.0324,0.013523,0.002678,0.000431,0.007169
29423000,0.0324,0.013523,0.002678,0.000431,0.004113
29424000,0.0324,0.013523,0.002678,0.000431,0.004113
29425000,0.0324,0.013523,0.002678,0.000431,0.006347
29426000,0.0324,0.013523,0.002678,0.000431,0.003526
29427000,0.0324,0.013523,0.002678,0.000431,0.003056
29428000,0.0324,0.013523,0.002678,0.000431,0.003526
29429000,0.0324,0.013523,0.002678,0.000431,0.003291
29430000,0.0324,0.013523,0.002678,0.000431,0.003173
29431000,0.0324,0.013523,0.002678,0.000431,0.003291
29432000,0.0324,0.013523,0.002678,0.000431,0.003291
29433000,0.0324,0.013523,0.002678,0.000431,0.004349
29434000,0.0324,0.013523,0.002678,0.000431,0.004113
29435000,0.0324,0.013523,0.002678,0.000431,0.002586
29436000,0.0324,0.013523,0.002678,0.000431,0.001998
29437000,0.0324,0.013523,0.002678,0.000431,0.002468
29438000,0.0324,0.013523,0.002678,0.000431,0.002703
29439000,0.0324,0.013523,0.002678,0.000431,0.001998
29440000,0.0324,0.013523,0.002678,0.000431,0.002351
29441000,0.0324,0.013523,0.002678,0.000431,0.001763
29442000,0.0324,0.013523,0.002678,0.000431,0.001645
29443000,0.0324,0.013523,0.002678,0.000431,0.001763
29444000,0.0324,0.013523,0.002678,0.000431,0.001645
29445000,0.0324,0.013523,0.002678,0.000431,0.001528
29446000,0.0324,0.013523,0.002678,0.000431,0.001645
29447000,0.0324,0.013523,0.002678,0.000431,0.001880
29448000,0.0324,0.013523,0.002678,0.000431,0.001645
29449000,0.0324,0.013523,0.002678,0.000431,0.001645
29450000,0.0324,0.013523,0.002678,0.000431,0.001645
29451000,0.0324,0.013523,0.002678,0.000431,0.001645
29452000,0.0324,0.013523,0.002678,0.000431,0.001880
29453000,0.0324,0.013523,0.002678,0.000431,0.001528
29454000,0.0324,0.013523,0.002678,0.000431,0.001763
29455000,0.0324,0.013523,0.002678,0.000431,0.003643
29456000,0.0324,0.013523,0.002678,0.000431,0.000940
29457000,0.0324,0.013523,0.002678,0.000431,0.000940
29458000,0.0324,0.013523,0.002678,0.000431,0.000705
29459000,0.0324,0.013523,0.002678,0.000431,0.000940
29460000,0.0324,0.013523,0.002678,0.000431,0.000823
29461000,0.0324,0.013523,0.002678,0.000431,0.000823
29462000,0.0324,0.013523,0.002678,0.000431,0.000940
29463000,0.0324,0.013523,0.002678,0.000431,0.001998
29464000,0.0324,0.013523,0.002678,0.000431,0.271020
29465000,0.0324,0.013523,0.002678,0.000431,0.662976
29466000,0.0324,0.013523,0.002678,0.000431,0.356463
29467000,0.0324,0.013523,0.002678,0.000431,0.132572
29468000,0.0324,0.013523,0.002678,0.000431,0.178290
29469000,0.0324,0.013523,0.002678,0.000431,0.613732
29470000,0.0324,0.013523,0.002678,0.000431,0.240933
29471000,0.0324,0.013523,0.002678,0.000431,0.239993
29472000,0.0324,0.013523,0.002678,0.000431,0.213901
29473000,0.0324,0.013523,0.002678,0.000431,0.145030
29474000,0.0324,0.013523,0.002678,0.000431,0.176997
29475000,0.0324,0.013523,0.002678,0.000431,0.130926
29476000,0.0324,0.013523,0.002678,0.000431,0.458595
29477000,0.0324,0.013523,0.002678,0.000431,0.130104
29478000,0.0324,0.013523,0.002678,0.000431,0.116235
29479000,0.0324,0.013523,0.002678,0.000431,0.096256
29480000,0.0324,0.013523,0.002678,0.000431,0.076041
29481000,0.0324,0.013523,0.002678,0.000431,0.071810
29482000,0.0324,0.013523,0.002678,0.000431,0.062525
29483000,0.0324,0.013523,0.002678,0.000431,0.056061
29484000,0.0324,0.013523,0.002678,0.000431,0.044896
29485000,0.0324,0.013523,0.002678,0.000431,0.037256
29486000,0.0324,0.013523,0.002678,0.000431,0.031733
29487000,0.0324,0.013523,0.002678,0.000431,0.030557
29488000,0.0324,0.013523,0.002678,0.000431,0.020097
29489000,0.0324,0.013523,0.002678,0.000431,0.020685
29490000,0.0324,0.013523,0.002678,0.000431,0.020567
29491000,0.0324,0.013523,0.002678,0.000431,0.019745
29492000,0.0324,0.013523,0.002678,0.000431,0.014809
29493000,0.0324,0.013523,0.002678,0.000431,0.018334
29494000,0.0324,0.013523,0.002678,0.000431,0.015631
29495000,0.0324,0.013523,0.002678,0.000431,0.012105
29496000,0.0324,0.013523,0.002678,0.000431,0.013398
29497000,0.0324,0.013523,0.002678,0.000431,0.011753
29498000,0.0324,0.013523,0.002678,0.000431,0.008345
29499000,0.0324,0.013523,0.002678,0.000431,0.007287
29500000,0.0324,0.013523,0.002678,0.000431,0.004231
29501000,0.0324,0.013523,0.002678,0.000431,0.004231
29502000,0.0324,0.013523,0.002678,0.000431,0.006111
29503000,0.0324,0.013523,0.002678,0.000431,0.003878
29504000,0.0324,0.013523,0.002678,0.000431,0.003526
29505000,0.0324,0.013523,0.002678,0.000431,0.004701
29506000,0.0324,0.013523,0.002678,0.000431,0.004113
29507000,0.0324,0.013523,0.002678,0.000431,0.002586
29508000,0.0324,0.013523,0.002678,0.000431,0.003761
29509000,0.0324,0.013523,0.002678,0.000431,0.003408
29510000,0.0324,0.013523,0.002678,0.000431,0.001763
29511000,0.0324,0.013523,0.002678,0.000431,0.001763
29512000,0.0324,0.013523,0.002678,0.000431,0.003878
29513000,0.0324,0.013523,0.002678,0.000431,0.000940
29514000,0.0324,0.013523,0.002678,0.000431,0.000823
29515000,0.0324,0.013523,0.002678,0.000431,0.000940
29516000,0.0324,0.013523,0.002678,0.000431,0.000823
29517000,0.0324,0.013523,0.002678,0.000431,0.000940
29518000,0.0324,0.013523,0.002678,0.000431,0.000823
29519000,0.0324,0.013523,0.002678,0.000431,0.000823
29520000,0.0324,0.013523,0.002678,0.000431,0.000940
29521000,0.0324,0.013523,0.002678,0.000431,0.000940
29522000,0.0324,0.013523,0.002678,0.000431,0.000940
29523000,0.0324,0.013523,0.002678,0.000431,0.000823
29524000,0.0324,0.013523,0.002678,0.000431,0.000823
29525000,0.0324,0.013523,0.002678,0.000431,0.000940
29526000,0.0324,0.013523,0.002678,0.000431,0.000940
29527000,0.0324,0.013523,0.002678,0.000431,0.000705
29528000,0.0324,0.013523,0.002678,0.000431,0.000940
29529000,0.0324,0.013523,0.002678,0.000431,0.000940
29530000,0.0324,0.013523,0.002678,0.000431,0.000940
29531000,0.0324,0.013523,0.002678,0.000431,0.000940
29532000,0.0324,0.013523,0.002678,0.000431,0.000940
29533000,0.0324,0.013523,0.002678,0.000431,0.000823
29534000,0.0324,0.013523,0.002678,0.000431,0.000823
29535000,0.0324,0.013523,0.002678,0.000431,0.000940
29536000,0.0324,0.013523,0.002678,0.000431,0.000940
29537000,0.0324,0.013523,0.002678,0.000431,0.000823
29538000,0.0324,0.013523,0.002678,0.000431,0.000823
29539000,0.0324,0.013523,0.002678,0.000431,0.000940
29540000,0.0324,0.013523,0.002678,0.000431,0.000940
29541000,0.0324,0.013523,0.002678,0.000431,0.000940
29542000,0.0324,0.013523,0.002678,0.000431,0.000705
29543000,0.0324,0.013523,0.002678,0.000431,0.000940
29544000,0.0324,0.013523,0.002678,0.000431,0.000940
29545000,0.0324,0.013523,0.002678,0.000431,0.000823
29546000,0.0324,0.013523,0.002678,0.000431,0.000823
29547000,0.0324,0.013523,0.002678,0.000431,0.217897
29548000,0.0324,0.013523,0.002678,0.000431,0.645347
29549000,0.0324,0.013523,0.002678,0.000431,0.403122
29550000,0.0324,0.013523,0.002678,0.000431,0.132102
29551000,0.0324,0.013523,0.002678,0.000431,0.140094
29552000,0.0324,0.013523,0.002678,0.000431,0.593752
29553000,0.0324,0.013523,0.002678,0.000431,0.222481
29554000,0.0324,0.013523,0.002678,0.000431,0.267964
29555000,0.0324,0.013523,0.002678,0.000431,0.245281
29556000,0.0324,0.013523,0.002678,0.000431,0.149261
29557000,0.0324,0.013523,0.002678,0.000431,0.189808
29558000,0.0324,0.013523,0.002678,0.000431,0.082857
29559000,0.0324,0.013523,0.002678,0.000431,0.481983
29560000,0.0324,0.013523,0.002678,0.000431,0.156077
29561000,0.0324,0.013523,0.002678,0.000431,0.116118
29562000,0.0324,0.013523,0.002678,0.000431,0.087206
29563000,0.0324,0.013523,0.002678,0.000431,0.086501
29564000,0.0324,0.013523,0.002678,0.000431,0.070164
29565000,0.0324,0.013523,0.002678,0.000431,0.057236
29566000,0.0324,0.013523,0.002678,0.000431,0.050772
29567000,0.0324,0.013523,0.002678,0.000431,0.045366
29568000,0.0324,0.013523,0.002678,0.000431,0.042193
29569000,0.0324,0.013523,0.002678,0.000431,0.036316
29570000,0.0324,0.013523,0.002678,0.000431,0.034906
29571000,0.0324,0.013523,0.002678,0.000431,0.031968
29572000,0.0324,0.013523,0.002678,0.000431,0.021743
29573000,0.0324,0.013523,0.002678,0.000431,0.023153
29574000,0.0324,0.013523,0.002678,0.000431,0.020920
29575000,0.0324,0.013523,0.002678,0.000431,0.016689
29576000,0.0324,0.013523,0.002678,0.000431,0.017277
29577000,0.0324,0.013523,0.002678,0.000431,0.010695
29578000,0.0324,0.013523,0.002678,0.000431,0.008462
29579000,0.0324,0.013523,0.002678,0.000431,0.009872
29580000,0.0324,0.013523,0.002678,0.000431,0.010225
29581000,0.0324,0.013523,0.002678,0.000431,0.005876
29582000,0.0324,0.013523,0.002678,0.000431,0.005876
29583000,0.0324,0.013523,0.002678,0.000431,0.007169
29584000,0.0324,0.013523,0.002678,0.000431,0.006934
29585000,0.0324,0.013523,0.002678,0.000431,0.008109
29586000,0.0324,0.013523,0.002678,0.000431,0.003291
29587000,0.0324,0.013523,0.002678,0.000431,0.003526
29588000,0.0324,0.013523,0.002678,0.000431,0.006464
29589000,0.0324,0.013523,0.002678,0.000431,0.002116
29590000,0.0324,0.013523,0.002678,0.000431,0.000940
29591000,0.0324,0.013523,0.002678,0.000431,0.071575
29592000,0.0324,0.013523,0.002678,0.000431,0.595985
29593000,0.0324,0.013523,0.002678,0.000431,0.566603
29594000,0.0324,0.013523,0.002678,0.000431,0.133394
29595000,0.0324,0.013523,0.002678,0.000431,0.133042
29596000,0.0324,0.013523,0.002678,0.000431,0.544978
29597000,0.0324,0.013523,0.002678,0.000431,0.236467
29598000,0.0324,0.013523,0.002678,0.000431,0.268199
29599000,0.0324,0.013523,0.002678,0.000431,0.273606
29600000,0.0324,0.013523,0.002678,0.000431,0.140916
29601000,0.0324,0.013523,0.002678,0.000431,0.158898
29602000,0.0324,0.013523,0.002678,0.000431,0.117881
29603000,0.0324,0.013523,0.002678,0.000431,0.322615
29604000,0.0324,0.013523,0.002678,0.000431,0.324260
29605000,0.0324,0.013523,0.002678,0.000431,0.132689
29606000,0.0324,0.013523,0.002678,0.000431,0.108831
29607000,0.0324,0.013523,0.002678,0.000431,0.108949
29608000,0.0324,0.013523,0.002678,0.000431,0.094845
29609000,0.0324,0.013523,0.002678,0.000431,0.080742
29610000,0.0324,0.013523,0.002678,0.000431,0.072280
29611000,0.0324,0.013523,0.002678,0.000431,0.063935
29612000,0.0324,0.013523,0.002678,0.000431,0.043603
29613000,0.0324,0.013523,0.002678,0.000431,0.046541
29614000,0.0324,0.013523,0.002678,0.000431,0.039372
29615000,0.0324,0.013523,0.002678,0.000431,0.039137
29616000,0.0324,0.013523,0.002678,0.000431,0.022448
29617000,0.0324,0.013523,0.002678,0.000431,0.019745
29618000,0.0324,0.013523,0.002678,0.000431,0.020097
29619000,0.0324,0.013523,0.002678,0.000431,0.013281
29620000,0.0324,0.013523,0.002678,0.000431,0.013751
29621000,0.0324,0.013523,0.002678,0.000431,0.015279
29622000,0.0324,0.013523,0.002678,0.000431,0.008815
29623000,0.0324,0.013523,0.002678,0.000431,0.006229
29624000,0.0324,0.013523,0.002678,0.000431,0.007522
29625000,0.0324,0.013523,0.002678,0.000431,0.005641
29626000,0.0324,0.013523,0.002678,0.000431,0.004819
29627000,0.0324,0.013523,0.002678,0.000431,0.007992
29628000,0.0324,0.013523,0.002678,0.000431,0.005876
29629000,0.0324,0.013523,0.002678,0.000431,0.003291
29630000,0.0324,0.013523,0.002678,0.000431,0.003761
29631000,0.0324,0.013523,0.002678,0.000431,0.005406
29632000,0.0324,0.013523,0.002678,0.000431,0.002938
29633000,0.0324,0.013523,0.002678,0.000431,0.003643
29634000,0.0324,0.013523,0.002678,0.000431,0.003173
29635000,0.0324,0.013523,0.002678,0.000431,0.001998
29636000,0.0324,0.013523,0.002678,0.000431,0.001763
29637000,0.0324,0.013523,0.002678,0.000431,0.001880
29638000,0.0324,0.013523,0.002678,0.000431,0.002351
29639000,0.0324,0.013523,0.002678,0.000431,0.001645
29640000,0.0324,0.013523,0.002678,0.000431,0.001880
29641000,0.0324,0.013523,0.002678,0.000431,0.001763
29642000,0.0324,0.013523,0.002678,0.000431,0.001763
29643000,0.0324,0.013523,0.002678,0.000431,0.003408
29644000,0.0324,0.013523,0.002678,0.000431,0.000705
29645000,0.0324,0.013523,0.002678,0.000431,0.000940
29646000,0.0324,0.013523,0.002678,0.000431,0.000823
29647000,0.0324,0.013523,0.002678,0.000431,0.000823
29648000,0.0324,0.013523,0.002678,0.000431,0.000940
29649000,0.0324,0.013523,0.002678,0.000431,0.000705
29650000,0.0324,0.013523,0.002678,0.000431,0.002351
29651000,0.0324,0.013523,0.002678,0.000431,0.373975
29652000,0.0324,0.013523,0.002678,0.000431,0.685894
29653000,0.0324,0.013523,0.002678,0.000431,0.232588
29654000,0.0324,0.013523,0.002678,0.000431,0.133512
29655000,0.0324,0.013523,0.002678,0.000431,0.146793
29656000,0.0324,0.013523,0.002678,0.000431,0.606916
29657000,0.0324,0.013523,0.002678,0.000431,0.268317
29658000,0.0324,0.013523,0.002678,0.000431,0.260913
29659000,0.0324,0.013523,0.002678,0.000431,0.220835
29660000,0.0324,0.013523,0.002678,0.000431,0.139388
29661000,0.0324,0.013523,0.002678,0.000431,0.166772
29662000,0.0324,0.013523,0.002678,0.000431,0.151611
29663000,0.0324,0.013523,0.002678,0.000431,0.449193
29664000,0.0324,0.013523,0.002678,0.000431,0.135510
29665000,0.0324,0.013523,0.002678,0.000431,0.121172
29666000,0.0324,0.013523,0.002678,0.000431,0.125873
29667000,0.0324,0.013523,0.002678,0.000431,0.108126
29668000,0.0324,0.013523,0.002678,0.000431,0.102485
29669000,0.0324,0.013523,0.002678,0.000431,0.090497
29670000,0.0324,0.013523,0.002678,0.000431,0.093200
29671000,0.0324,0.013523,0.002678,0.000431,0.080154
29672000,0.0324,0.013523,0.002678,0.000431,0.068636
29673000,0.0324,0.013523,0.002678,0.000431,0.073220
29674000,0.0324,0.013523,0.002678,0.000431,0.064405
29675000,0.0324,0.013523,0.002678,0.000431,0.055708
29676000,0.0324,0.013523,0.002678,0.000431,0.050067
29677000,0.0324,0.013523,0.002678,0.000431,0.047951
29678000,0.0324,0.013523,0.002678,0.000431,0.035141
29679000,0.0324,0.013523,0.002678,0.000431,0.034671
29680000,0.0324,0.013523,0.002678,0.000431,0.032555
29681000,0.0324,0.013523,0.002678,0.000431,0.031027
29682000,0.0324,0.013523,0.002678,0.000431,0.030675
29683000,0.0324,0.013523,0.002678,0.000431,0.027149
29684000,0.0324,0.013523,0.002678,0.000431,0.027737
29685000,0.0324,0.013523,0.002678,0.000431,0.026796
29686000,0.0324,0.013523,0.002678,0.000431,0.025151
29687000,0.0324,0.013523,0.002678,0.000431,0.025269
29688000,0.0324,0.013523,0.002678,0.000431,0.020332
29689000,0.0324,0.013523,0.002678,0.000431,0.022330
29690000,0.0324,0.013523,0.002678,0.000431,0.017747
29691000,0.0324,0.013523,0.002678,0.000431,0.017277
29692000,0.0324,0.013523,0.002678,0.000431,0.014691
29693000,0.0324,0.013523,0.002678,0.000431,0.017629
29694000,0.0324,0.013523,0.002678,0.000431,0.014573
29695000,0.0324,0.013523,0.002678,0.000431,0.014103
29696000,0.0324,0.013523,0.002678,0.000431,0.013046
29697000,0.0324,0.013523,0.002678,0.000431,0.014338
29698000,0.0324,0.013523,0.002678,0.000431,0.016454
29699000,0.0324,0.013523,0.002678,0.000431,0.015749
29700000,0.0324,0.013523,0.002678,0.000431,0.013751
29701000,0.0324,0.013523,0.002678,0.000431,0.010107
29702000,0.0324,0.013523,0.002678,0.000431,0.010930
29703000,0.0324,0.013523,0.002678,0.000431,0.008345
29704000,0.0324,0.013523,0.002678,0.000431,0.007992
29705000,0.0324,0.013523,0.002678,0.000431,0.008815
29706000,0.0324,0.013523,0.002678,0.000431,0.010225
29707000,0.0324,0.013523,0.002678,0.000431,0.007169
29708000,0.0324,0.013523,0.002678,0.000431,0.007287
29709000,0.0324,0.013523,0.002678,0.000431,0.008580
29710000,0.0324,0.013523,0.002678,0.000431,0.007404
29711000,0.0324,0.013523,0.002678,0.000431,0.004349
29712000,0.0324,0.013523,0.002678,0.000431,0.004466
29713000,0.0324,0.013523,0.002678,0.000431,0.003996
29714000,0.0324,0.013523,0.002678,0.000431,0.004466
29715000,0.0324,0.013523,0.002678,0.000431,0.008345
29716000,0.0324,0.013523,0.002678,0.000431,0.002468
29717000,0.0324,0.013523,0.002678,0.000431,0.002351
29718000,0.0324,0.013523,0.002678,0.000431,0.002586
29719000,0.0324,0.013523,0.002678,0.000431,0.002703
29720000,0.0324,0.013523,0.002678,0.000431,0.002233
29721000,0.0324,0.013523,0.002678,0.000431,0.002586
29722000,0.0324,0.013523,0.002678,0.000431,0.002703
29723000,0.0324,0.013523,0.002678,0.000431,0.002468
29724000,0.0324,0.013523,0.002678,0.000431,0.002233
29725000,0.0324,0.013523,0.002678,0.000431,0.002468
29726000,0.0324,0.013523,0.002678,0.000431,0.002821
29727000,0.0324,0.013523,0.002678,0.000431,0.002468
29728000,0.0324,0.013523,0.002678,0.000431,0.002233
29729000,0.0324,0.013523,0.002678,0.000431,0.002821
29730000,0.0324,0.013523,0.002678,0.000431,0.002351
29731000,0.0324,0.013523,0.002678,0.000431,0.002586
29732000,0.0324,0.013523,0.002678,0.000431,0.002351
29733000,0.0324,0.013523,0.002678,0.000431,0.002586
29734000,0.0324,0.013523,0.002678,0.000431,0.002586
29735000,0.0324,0.013523,0.002678,0.000431,0.002468
29736000,0.0324,0.013523,0.002678,0.000431,0.002468
29737000,0.0324,0.013523,0.002678,0.000431,0.002586
29738000,0.0324,0.013523,0.002678,0.000431,0.002351
29739000,0.0324,0.013523,0.002678,0.000431,0.002821
29740000,0.0324,0.013523,0.002678,0.000431,0.001998
29741000,0.0324,0.013523,0.002678,0.000431,0.001645
29742000,0.0324,0.013523,0.002678,0.000431,0.001880
29743000,0.0324,0.013523,0.002678,0.000431,0.004113
29744000,0.0324,0.013523,0.002678,0.000431,0.000823
29745000,0.0324,0.013523,0.002678,0.000431,0.000823
29746000,0.0324,0.013523,0.002678,0.000431,0.000940
29747000,0.0324,0.013523,0.002678,0.000431,0.000940
29748000,0.0324,0.013523,0.002678,0.000431,0.000823
29749000,0.0324,0.013523,0.002678,0.000431,0.000823
29750000,0.0324,0.013523,0.002678,0.000431,0.000940
29751000,0.0324,0.013523,0.002678,0.000431,0.000823
29752000,0.0324,0.013523,0.002678,0.000431,0.003173
29753000,0.0324,0.013523,0.002678,0.000431,0.437087
29754000,0.0324,0.013523,0.002678,0.000431,0.693064
29755000,0.0324,0.013523,0.002678,0.000431,0.133159
29756000,0.0324,0.013523,0.002678,0.000431,0.133512
29757000,0.0324,0.013523,0.002678,0.000431,0.305691
29758000,0.0324,0.013523,0.002678,0.000431,0.505489
29759000,0.0324,0.013523,0.002678,0.000431,0.222598
29760000,0.0324,0.013523,0.002678,0.000431,0.342477
29761000,0.0324,0.013523,0.002678,0.000431,0.145030
29762000,0.0324,0.013523,0.002678,0.000431,0.146910
29763000,0.0324,0.013523,0.002678,0.000431,0.119644
29764000,0.0324,0.013523,0.002678,0.000431,0.420163
29765000,0.0324,0.013523,0.002678,0.000431,0.208730
29766000,0.0324,0.013523,0.002678,0.000431,0.119174
29767000,0.0324,0.013523,0.002678,0.000431,0.094258
29768000,0.0324,0.013523,0.002678,0.000431,0.080154
29769000,0.0324,0.013523,0.002678,0.000431,0.075453
29770000,0.0324,0.013523,0.002678,0.000431,0.054768
29771000,0.0324,0.013523,0.002678,0.000431,0.045131
29772000,0.0324,0.013523,0.002678,0.000431,0.040900
29773000,0.0324,0.013523,0.002678,0.000431,0.039607
29774000,0.0324,0.013523,0.002678,0.000431,0.031968
29775000,0.0324,0.013523,0.002678,0.000431,0.017747
29776000,0.0324,0.013523,0.002678,0.000431,0.019392
29777000,0.0324,0.013523,0.002678,0.000431,0.019745
29778000,0.0324,0.013523,0.002678,0.000431,0.015161
29779000,0.0324,0.013523,0.002678,0.000431,0.013398
29780000,0.0324,0.013523,0.002678,0.000431,0.012458
29781000,0.0324,0.013523,0.002678,0.000431,0.013868
29782000,0.0324,0.013523,0.002678,0.000431,0.011048
29783000,0.0324,0.013523,0.002678,0.000431,0.011048
29784000,0.0324,0.013523,0.002678,0.000431,0.006347
29785000,0.0324,0.013523,0.002678,0.000431,0.009637
29786000,0.0324,0.013523,0.002678,0.000431,0.007522
29787000,0.0324,0.013523,0.002678,0.000431,0.005289
29788000,0.0324,0.013523,0.002678,0.000431,0.004819
29789000,0.0324,0.013523,0.002678,0.000431,0.006464
29790000,0.0324,0.013523,0.002678,0.000431,0.004701
29791000,0.0324,0.013523,0.002678,0.000431,0.003761
29792000,0.0324,0.013523,0.002678,0.000431,0.004466
29793000,0.0324,0.013523,0.002678,0.000431,0.002586
29794000,0.0324,0.013523,0.002678,0.000431,0.002703
29795000,0.0324,0.013523,0.002678,0.000431,0.004701
29796000,0.0324,0.013523,0.002678,0.000431,0.001880
29797000,0.0324,0.013523,0.002678,0.000431,0.003526
29798000,0.0324,0.013523,0.002678,0.000431,0.000705
29799000,0.0324,0.013523,0.002678,0.000431,0.000940
29800000,0.0324,0.013523,0.002678,0.000431,0.000705
29801000,0.0324,0.013523,0.002678,0.000431,0.000940
29802000,0.0324,0.013523,0.002678,0.000431,0.000823
29803000,0.0324,0.013523,0.002678,0.000431,0.000823
29804000,0.0324,0.013523,0.002678,0.000431,0.000940
29805000,0.0324,0.013523,0.002678,0.000431,0.000705
29806000,0.0324,0.013523,0.002678,0.000431,0.000940
29807000,0.0324,0.013523,0.002678,0.000431,0.000823
29808000,0.0324,0.013523,0.002678,0.000431,0.000823
29809000,0.0324,0.013523,0.002678,0.000431,0.000823
29810000,0.0324,0.013523,0.002678,0.000431,0.000823
29811000,0.0324,0.013523,0.002678,0.000431,0.000940
29812000,0.0324,0.013523,0.002678,0.000431,0.000705
29813000,0.0324,0.013523,0.002678,0.000431,0.000940
29814000,0.0324,0.013523,0.002678,0.000431,0.002821
29815000,0.0324,0.013523,0.002678,0.000431,0.422161
29816000,0.0324,0.013523,0.002678,0.000431,0.708107
29817000,0.0324,0.013523,0.002678,0.000431,0.151729
29818000,0.0324,0.013523,0.002678,0.000431,0.133042
29819000,0.0324,0.013523,0.002678,0.000431,0.160543
29820000,0.0324,0.013523,0.002678,0.000431,0.570599
29821000,0.0324,0.013523,0.002678,0.000431,0.244459
29822000,0.0324,0.013523,0.002678,0.000431,0.265261
29823000,0.0324,0.013523,0.002678,0.000431,0.235526
29824000,0.0324,0.013523,0.002678,0.000431,0.145030
29825000,0.0324,0.013523,0.002678,0.000431,0.188868
29826000,0.0324,0.013523,0.002678,0.000431,0.082505
29827000,0.0324,0.013523,0.002678,0.000431,0.479985
29828000,0.0324,0.013523,0.002678,0.000431,0.143854
29829000,0.0324,0.013523,0.002678,0.000431,0.097548
29830000,0.0324,0.013523,0.002678,0.000431,0.086266
29831000,0.0324,0.013523,0.002678,0.000431,0.080859
29832000,0.0324,0.013523,0.002678,0.000431,0.081682
29833000,0.0324,0.013523,0.002678,0.000431,0.075923
29834000,0.0324,0.013523,0.002678,0.000431,0.060645
29835000,0.0324,0.013523,0.002678,0.000431,0.057471
29836000,0.0324,0.013523,0.002678,0.000431,0.061350
29837000,0.0324,0.013523,0.002678,0.000431,0.048892
29838000,0.0324,0.013523,0.002678,0.000431,0.044308
29839000,0.0324,0.013523,0.002678,0.000431,0.040430
29840000,0.0324,0.013523,0.002678,0.000431,0.035964
29841000,0.0324,0.013523,0.002678,0.000431,0.029735
29842000,0.0324,0.013523,0.002678,0.000431,0.032320
29843000,0.0324,0.013523,0.002678,0.000431,0.026209
29844000,0.0324,0.013523,0.002678,0.000431,0.033378
29845000,0.0324,0.013523,0.002678,0.000431,0.025974
29846000,0.0324,0.013523,0.002678,0.000431,0.025151
29847000,0.0324,0.013523,0.002678,0.000431,0.024328
29848000,0.0324,0.013523,0.002678,0.000431,0.020332
29849000,0.0324,0.013523,0.002678,0.000431,0.017747
29850000,0.0324,0.013523,0.002678,0.000431,0.015514
29851000,0.0324,0.013523,0.002678,0.000431,0.014691
29852000,0.0324,0.013523,0.002678,0.000431,0.015514
29853000,0.0324,0.013523,0.002678,0.000431,0.010225
29854000,0.0324,0.013523,0.002678,0.000431,0.013633
29855000,0.0324,0.013523,0.002678,0.000431,0.006111
29856000,0.0324,0.013523,0.002678,0.000431,0.008815
29857000,0.0324,0.013523,0.002678,0.000431,0.007169
29858000,0.0324,0.013523,0.002678,0.000431,0.004466
29859000,0.0324,0.013523,0.002678,0.000431,0.004701
29860000,0.0324,0.013523,0.002678,0.000431,0.003878
29861000,0.0324,0.013523,0.002678,0.000431,0.004113
29862000,0.0324,0.013523,0.002678,0.000431,0.003643
29863000,0.0324,0.013523,0.002678,0.000431,0.004231
29864000,0.0324,0.013523,0.002678,0.000431,0.001645
29865000,0.0324,0.013523,0.002678,0.000431,0.001763
29866000,0.0324,0.013523,0.002678,0.000431,0.001645
29867000,0.0324,0.013523,0.002678,0.000431,0.001763
29868000,0.0324,0.013523,0.002678,0.000431,0.001645
29869000,0.0324,0.013523,0.002678,0.000431,0.001645
29870000,0.0324,0.013523,0.002678,0.000431,0.001880
29871000,0.0324,0.013523,0.002678,0.000431,0.001763
29872000,0.0324,0.013523,0.002678,0.000431,0.001763
29873000,0.0324,0.013523,0.002678,0.000431,0.001645
29874000,0.0324,0.013523,0.002678,0.000431,0.001763
29875000,0.0324,0.013523,0.002678,0.000431,0.001880
29876000,0.0324,0.013523,0.002678,0.000431,0.001763
29877000,0.0324,0.013523,0.002678,0.000431,0.001763
29878000,0.0324,0.013523,0.002678,0.000431,0.001763
29879000,0.0324,0.013523,0.002678,0.000431,0.001763
29880000,0.0324,0.013523,0.002678,0.000431,0.001763
29881000,0.0324,0.013523,0.002678,0.000431,0.001645
29882000,0.0324,0.013523,0.002678,0.000431,0.004231
29883000,0.0324,0.013523,0.002678,0.000431,0.000823
29884000,0.0324,0.013523,0.002678,0.000431,0.000940
29885000,0.0324,0.013523,0.002678,0.000431,0.000823
29886000,0.0324,0.013523,0.002678,0.000431,0.000940
29887000,0.0324,0.013523,0.002678,0.000431,0.000940
29888000,0.0324,0.013523,0.002678,0.000431,0.000823
29889000,0.0324,0.013523,0.002678,0.000431,0.000823
29890000,0.0324,0.013523,0.002678,0.000431,0.000940
29891000,0.0324,0.013523,0.002678,0.000431,0.000823
29892000,0.0324,0.013523,0.002678,0.000431,0.083327
29893000,0.0324,0.013523,0.002678,0.000431,0.586466
29894000,0.0324,0.013523,0.002678,0.000431,0.547329
29895000,0.0324,0.013523,0.002678,0.000431,0.133512
29896000,0.0324,0.013523,0.002678,0.000431,0.134570
29897000,0.0324,0.013523,0.002678,0.000431,0.555086
29898000,0.0324,0.013523,0.002678,0.000431,0.236937
29899000,0.0324,0.013523,0.002678,0.000431,0.267612
29900000,0.0324,0.013523,0.002678,0.000431,0.250453
29901000,0.0324,0.013523,0.002678,0.000431,0.140564
29902000,0.0324,0.013523,0.002678,0.000431,0.153492
29903000,0.0324,0.013523,0.002678,0.000431,0.116353
29904000,0.0324,0.013523,0.002678,0.000431,0.416755
29905000,0.0324,0.013523,0.002678,0.000431,0.230943
29906000,0.0324,0.013523,0.002678,0.000431,0.111299
29907000,0.0324,0.013523,0.002678,0.000431,0.089439
29908000,0.0324,0.013523,0.002678,0.000431,0.071810
29909000,0.0324,0.013523,0.002678,0.000431,0.064876
29910000,0.0324,0.013523,0.002678,0.000431,0.049949
29911000,0.0324,0.013523,0.002678,0.000431,0.049832
29912000,0.0324,0.013523,0.002678,0.000431,0.048422
29913000,0.0324,0.013523,0.002678,0.000431,0.042428
29914000,0.0324,0.013523,0.002678,0.000431,0.036786
29915000,0.0324,0.013523,0.002678,0.000431,0.023623
29916000,0.0324,0.013523,0.002678,0.000431,0.019275
29917000,0.0324,0.013523,0.002678,0.000431,0.023858
29918000,0.0324,0.013523,0.002678,0.000431,0.023036
29919000,0.0324,0.013523,0.002678,0.000431,0.021390
29920000,0.0324,0.013523,0.002678,0.000431,0.015631
29921000,0.0324,0.013523,0.002678,0.000431,0.012811
29922000,0.0324,0.013523,0.002678,0.000431,0.011753
29923000,0.0324,0.013523,0.002678,0.000431,0.009167
29924000,0.0324,0.013523,0.002678,0.000431,0.009637
29925000,0.0324,0.013523,0.002678,0.000431,0.008815
29926000,0.0324,0.013523,0.002678,0.000431,0.010342
29927000,0.0324,0.013523,0.002678,0.000431,0.009755
29928000,0.0324,0.013523,0.002678,0.000431,0.006699
29929000,0.0324,0.013523,0.002678,0.000431,0.007052
29930000,0.0324,0.013523,0.002678,0.000431,0.006229
29931000,0.0324,0.013523,0.002678,0.000431,0.009050
29932000,0.0324,0.013523,0.002678,0.000431,0.005994
29933000,0.0324,0.013523,0.002678,0.000431,0.005406
29934000,0.0324,0.013523,0.002678,0.000431,0.005759
29935000,0.0324,0.013523,0.002678,0.000431,0.005641
29936000,0.0324,0.013523,0.002678,0.000431,0.004701
29937000,0.0324,0.013523,0.002678,0.000431,0.005054
29938000,0.0324,0.013523,0.002678,0.000431,0.004936
29939000,0.0324,0.013523,0.002678,0.000431,0.005054
29940000,0.0324,0.013523,0.002678,0.000431,0.006464
29941000,0.0324,0.013523,0.002678,0.000431,0.006111
29942000,0.0324,0.013523,0.002678,0.000431,0.003291
29943000,0.0324,0.013523,0.002678,0.000431,0.004584
29944000,0.0324,0.013523,0.002678,0.000431,0.003173
29945000,0.0324,0.013523,0.002678,0.000431,0.193569
29946000,0.0324,0.013523,0.002678,0.000431,0.544626
29947000,0.0324,0.013523,0.002678,0.000431,0.521002
29948000,0.0324,0.013523,0.002678,0.000431,0.133512
29949000,0.0324,0.013523,0.002678,0.000431,0.133512
29950000,0.0324,0.013523,0.002678,0.000431,0.563430
29951000,0.0324,0.013523,0.002678,0.000431,0.243518
29952000,0.0324,0.013523,0.002678,0.000431,0.298287
29953000,0.0324,0.013523,0.002678,0.000431,0.258209
29954000,0.0324,0.013523,0.002678,0.000431,0.145265
29955000,0.0324,0.013523,0.002678,0.000431,0.184872
29956000,0.0324,0.013523,0.002678,0.000431,0.082622
29957000,0.0324,0.013523,0.002678,0.000431,0.476224
29958000,0.0324,0.013523,0.002678,0.000431,0.156430
29959000,0.0324,0.013523,0.002678,0.000431,0.110947
29960000,0.0324,0.013523,0.002678,0.000431,0.092260
29961000,0.0324,0.013523,0.002678,0.000431,0.079567
29962000,0.0324,0.013523,0.002678,0.000431,0.069812
29963000,0.0324,0.013523,0.002678,0.000431,0.055356
29964000,0.0324,0.013523,0.002678,0.000431,0.055473
29965000,0.0324,0.013523,0.002678,0.000431,0.051830
29966000,0.0324,0.013523,0.002678,0.000431,0.033143
29967000,0.0324,0.013523,0.002678,0.000431,0.030675
29968000,0.0324,0.013523,0.002678,0.000431,0.024681
29969000,0.0324,0.013523,0.002678,0.000431,0.025974
29970000,0.0324,0.013523,0.002678,0.000431,0.020450
29971000,0.0324,0.013523,0.002678,0.000431,0.018099
29972000,0.0324,0.013523,0.002678,0.000431,0.018334
29973000,0.0324,0.013523,0.002678,0.000431,0.017277
29974000,0.0324,0.013523,0.002678,0.000431,0.013163
29975000,0.0324,0.013523,0.002678,0.000431,0.013398
29976000,0.0324,0.013523,0.002678,0.000431,0.009402
29977000,0.0324,0.013523,0.002678,0.000431,0.010460
29978000,0.0324,0.013523,0.002678,0.000431,0.008697
29979000,0.0324,0.013523,0.002678,0.000431,0.007757
29980000,0.0324,0.013523,0.002678,0.000431,0.007522
29981000,0.0324,0.013523,0.002678,0.000431,0.009755
29982000,0.0324,0.013523,0.002678,0.000431,0.007404
29983000,0.0324,0.013523,0.002678,0.000431,0.006464
29984000,0.0324,0.013523,0.002678,0.000431,0.009990
29985000,0.0324,0.013523,0.002678,0.000431,0.005289
29986000,0.0324,0.013523,0.002678,0.000431,0.005171
29987000,0.0324,0.013523,0.002678,0.000431,0.004701
29988000,0.0324,0.013523,0.002678,0.000431,0.005289
29989000,0.0324,0.013523,0.002678,0.000431,0.005171
29990000,0.0324,0.013523,0.002678,0.000431,0.007287
29991000,0.0324,0.013523,0.002678,0.000431,0.003408
29992000,0.0324,0.013523,0.002678,0.000431,0.005641
29993000,0.0324,0.013523,0.002678,0.000431,0.001645
29994000,0.0324,0.013523,0.002678,0.000431,0.001880
29995000,0.0324,0.013523,0.002678,0.000431,0.001880
29996000,0.0324,0.013523,0.002678,0.000431,0.001645
29997000,0.0324,0.013523,0.002678,0.000431,0.001763
29998000,0.0324,0.013523,0.002678,0.000431,0.003761
29999000,0.0324,0.013523,0.002678,0.000431,0.000940
