Cycle,Area(mm^2),PeakDynamic(W),SubthresholdLeakage(W),GateLeakage(W),RunTimeDynamic(W)
16000000,0.0324,0.013523,0.002678,0.000431,0.176762
16001000,0.0324,0.013523,0.002678,0.000431,0.097196
16002000,0.0324,0.013523,0.002678,0.000431,0.468585
16003000,0.0324,0.013523,0.002678,0.000431,0.127988
16004000,0.0324,0.013523,0.002678,0.000431,0.088734
16005000,0.0324,0.013523,0.002678,0.000431,0.074395
16006000,0.0324,0.013523,0.002678,0.000431,0.060409
16007000,0.0324,0.013523,0.002678,0.000431,0.042663
16008000,0.0324,0.013523,0.002678,0.000431,0.035023
16009000,0.0324,0.013523,0.002678,0.000431,0.030910
16010000,0.0324,0.013523,0.002678,0.000431,0.018687
16011000,0.0324,0.013523,0.002678,0.000431,0.018452
16012000,0.0324,0.013523,0.002678,0.000431,0.019627
16013000,0.0324,0.013523,0.002678,0.000431,0.016924
16014000,0.0324,0.013523,0.002678,0.000431,0.011635
16015000,0.0324,0.013523,0.002678,0.000431,0.009285
16016000,0.0324,0.013523,0.002678,0.000431,0.006582
16017000,0.0324,0.013523,0.002678,0.000431,0.005171
16018000,0.0324,0.013523,0.002678,0.000431,0.005054
16019000,0.0324,0.013523,0.002678,0.000431,0.005054
16020000,0.0324,0.013523,0.002678,0.000431,0.006817
16021000,0.0324,0.013523,0.002678,0.000431,0.004231
16022000,0.0324,0.013523,0.002678,0.000431,0.006229
16023000,0.0324,0.013523,0.002678,0.000431,0.004819
16024000,0.0324,0.013523,0.002678,0.000431,0.002586
16025000,0.0324,0.013523,0.002678,0.000431,0.002586
16026000,0.0324,0.013523,0.002678,0.000431,0.002351
16027000,0.0324,0.013523,0.002678,0.000431,0.002703
16028000,0.0324,0.013523,0.002678,0.000431,0.002233
16029000,0.0324,0.013523,0.002678,0.000431,0.004466
16030000,0.0324,0.013523,0.002678,0.000431,0.001763
16031000,0.0324,0.013523,0.002678,0.000431,0.001645
16032000,0.0324,0.013523,0.002678,0.000431,0.001763
16033000,0.0324,0.013523,0.002678,0.000431,0.001528
16034000,0.0324,0.013523,0.002678,0.000431,0.001763
16035000,0.0324,0.013523,0.002678,0.000431,0.001645
16036000,0.0324,0.013523,0.002678,0.000431,0.001763
16037000,0.0324,0.013523,0.002678,0.000431,0.001410
16038000,0.0324,0.013523,0.002678,0.000431,0.001763
16039000,0.0324,0.013523,0.002678,0.000431,0.001645
16040000,0.0324,0.013523,0.002678,0.000431,0.001763
16041000,0.0324,0.013523,0.002678,0.000431,0.003408
16042000,0.0324,0.013523,0.002678,0.000431,0.000705
16043000,0.0324,0.013523,0.002678,0.000431,0.000940
16044000,0.0324,0.013523,0.002678,0.000431,0.000705
16045000,0.0324,0.013523,0.002678,0.000431,0.000940
16046000,0.0324,0.013523,0.002678,0.000431,0.000823
16047000,0.0324,0.013523,0.002678,0.000431,0.000823
16048000,0.0324,0.013523,0.002678,0.000431,0.000940
16049000,0.0324,0.013523,0.002678,0.000431,0.000705
16050000,0.0324,0.013523,0.002678,0.000431,0.000940
16051000,0.0324,0.013523,0.002678,0.000431,0.000823
16052000,0.0324,0.013523,0.002678,0.000431,0.000823
16053000,0.0324,0.013523,0.002678,0.000431,0.000823
16054000,0.0324,0.013523,0.002678,0.000431,0.000823
16055000,0.0324,0.013523,0.002678,0.000431,0.000940
16056000,0.0324,0.013523,0.002678,0.000431,0.000940
16057000,0.0324,0.013523,0.002678,0.000431,0.000940
16058000,0.0324,0.013523,0.002678,0.000431,0.000705
16059000,0.0324,0.013523,0.002678,0.000431,0.000940
16060000,0.0324,0.013523,0.002678,0.000431,0.000940
16061000,0.0324,0.013523,0.002678,0.000431,0.187928
16062000,0.0324,0.013523,0.002678,0.000431,0.499730
16063000,0.0324,0.013523,0.002678,0.000431,0.527702
16064000,0.0324,0.013523,0.002678,0.000431,0.133982
16065000,0.0324,0.013523,0.002678,0.000431,0.133512
16066000,0.0324,0.013523,0.002678,0.000431,0.557319
16067000,0.0324,0.013523,0.002678,0.000431,0.231413
16068000,0.0324,0.013523,0.002678,0.000431,0.257974
16069000,0.0324,0.013523,0.002678,0.000431,0.269962
16070000,0.0324,0.013523,0.002678,0.000431,0.145735
16071000,0.0324,0.013523,0.002678,0.000431,0.141739
16072000,0.0324,0.013523,0.002678,0.000431,0.124227
16073000,0.0324,0.013523,0.002678,0.000431,0.355875
16074000,0.0324,0.013523,0.002678,0.000431,0.266084
16075000,0.0324,0.013523,0.002678,0.000431,0.094845
16076000,0.0324,0.013523,0.002678,0.000431,0.067344
16077000,0.0324,0.013523,0.002678,0.000431,0.060997
16078000,0.0324,0.013523,0.002678,0.000431,0.058882
16079000,0.0324,0.013523,0.002678,0.000431,0.049714
16080000,0.0324,0.013523,0.002678,0.000431,0.049009
16081000,0.0324,0.013523,0.002678,0.000431,0.043015
16082000,0.0324,0.013523,0.002678,0.000431,0.029029
16083000,0.0324,0.013523,0.002678,0.000431,0.025621
16084000,0.0324,0.013523,0.002678,0.000431,0.024093
16085000,0.0324,0.013523,0.002678,0.000431,0.022095
16086000,0.0324,0.013523,0.002678,0.000431,0.020567
16087000,0.0324,0.013523,0.002678,0.000431,0.018452
16088000,0.0324,0.013523,0.002678,0.000431,0.020215
16089000,0.0324,0.013523,0.002678,0.000431,0.015044
16090000,0.0324,0.013523,0.002678,0.000431,0.013163
16091000,0.0324,0.013523,0.002678,0.000431,0.019040
16092000,0.0324,0.013523,0.002678,0.000431,0.015984
16093000,0.0324,0.013523,0.002678,0.000431,0.010695
16094000,0.0324,0.013523,0.002678,0.000431,0.006111
16095000,0.0324,0.013523,0.002678,0.000431,0.007169
16096000,0.0324,0.013523,0.002678,0.000431,0.005759
16097000,0.0324,0.013523,0.002678,0.000431,0.005406
16098000,0.0324,0.013523,0.002678,0.000431,0.004701
16099000,0.0324,0.013523,0.002678,0.000431,0.004701
16100000,0.0324,0.013523,0.002678,0.000431,0.005289
16101000,0.0324,0.013523,0.002678,0.000431,0.004466
16102000,0.0324,0.013523,0.002678,0.000431,0.005289
16103000,0.0324,0.013523,0.002678,0.000431,0.004701
16104000,0.0324,0.013523,0.002678,0.000431,0.004819
16105000,0.0324,0.013523,0.002678,0.000431,0.005289
16106000,0.0324,0.013523,0.002678,0.000431,0.004466
16107000,0.0324,0.013523,0.002678,0.000431,0.006934
16108000,0.0324,0.013523,0.002678,0.000431,0.005406
16109000,0.0324,0.013523,0.002678,0.000431,0.003291
16110000,0.0324,0.013523,0.002678,0.000431,0.003408
16111000,0.0324,0.013523,0.002678,0.000431,0.002938
16112000,0.0324,0.013523,0.002678,0.000431,0.004584
16113000,0.0324,0.013523,0.002678,0.000431,0.002468
16114000,0.0324,0.013523,0.002678,0.000431,0.002233
16115000,0.0324,0.013523,0.002678,0.000431,0.002468
16116000,0.0324,0.013523,0.002678,0.000431,0.002233
16117000,0.0324,0.013523,0.002678,0.000431,0.002586
16118000,0.0324,0.013523,0.002678,0.000431,0.003408
16119000,0.0324,0.013523,0.002678,0.000431,0.001410
16120000,0.0324,0.013523,0.002678,0.000431,0.001645
16121000,0.0324,0.013523,0.002678,0.000431,0.001528
16122000,0.0324,0.013523,0.002678,0.000431,0.001528
16123000,0.0324,0.013523,0.002678,0.000431,0.001880
16124000,0.0324,0.013523,0.002678,0.000431,0.001175
16125000,0.0324,0.013523,0.002678,0.000431,0.001880
16126000,0.0324,0.013523,0.002678,0.000431,0.001528
16127000,0.0324,0.013523,0.002678,0.000431,0.001528
16128000,0.0324,0.013523,0.002678,0.000431,0.001645
16129000,0.0324,0.013523,0.002678,0.000431,0.001410
16130000,0.0324,0.013523,0.002678,0.000431,0.001880
16131000,0.0324,0.013523,0.002678,0.000431,0.001410
16132000,0.0324,0.013523,0.002678,0.000431,0.001645
16133000,0.0324,0.013523,0.002678,0.000431,0.001410
16134000,0.0324,0.013523,0.002678,0.000431,0.001645
16135000,0.0324,0.013523,0.002678,0.000431,0.001410
16136000,0.0324,0.013523,0.002678,0.000431,0.001880
16137000,0.0324,0.013523,0.002678,0.000431,0.001175
16138000,0.0324,0.013523,0.002678,0.000431,0.001645
16139000,0.0324,0.013523,0.002678,0.000431,0.001880
16140000,0.0324,0.013523,0.002678,0.000431,0.001175
16141000,0.0324,0.013523,0.002678,0.000431,0.001880
16142000,0.0324,0.013523,0.002678,0.000431,0.001410
16143000,0.0324,0.013523,0.002678,0.000431,0.000823
16144000,0.0324,0.013523,0.002678,0.000431,0.000940
16145000,0.0324,0.013523,0.002678,0.000431,0.000823
16146000,0.0324,0.013523,0.002678,0.000431,0.229650
16147000,0.0324,0.013523,0.002678,0.000431,0.643114
16148000,0.0324,0.013523,0.002678,0.000431,0.359636
16149000,0.0324,0.013523,0.002678,0.000431,0.132572
16150000,0.0324,0.013523,0.002678,0.000431,0.133277
16151000,0.0324,0.013523,0.002678,0.000431,0.607033
16152000,0.0324,0.013523,0.002678,0.000431,0.259972
16153000,0.0324,0.013523,0.002678,0.000431,0.250218
16154000,0.0324,0.013523,0.002678,0.000431,0.231413
16155000,0.0324,0.013523,0.002678,0.000431,0.140211
16156000,0.0324,0.013523,0.002678,0.000431,0.186047
16157000,0.0324,0.013523,0.002678,0.000431,0.087441
16158000,0.0324,0.013523,0.002678,0.000431,0.478810
16159000,0.0324,0.013523,0.002678,0.000431,0.133159
16160000,0.0324,0.013523,0.002678,0.000431,0.105305
16161000,0.0324,0.013523,0.002678,0.000431,0.088264
16162000,0.0324,0.013523,0.002678,0.000431,0.067814
16163000,0.0324,0.013523,0.002678,0.000431,0.058882
16164000,0.0324,0.013523,0.002678,0.000431,0.056649
16165000,0.0324,0.013523,0.002678,0.000431,0.045248
16166000,0.0324,0.013523,0.002678,0.000431,0.041370
16167000,0.0324,0.013523,0.002678,0.000431,0.041135
16168000,0.0324,0.013523,0.002678,0.000431,0.030322
16169000,0.0324,0.013523,0.002678,0.000431,0.031145
16170000,0.0324,0.013523,0.002678,0.000431,0.029147
16171000,0.0324,0.013523,0.002678,0.000431,0.024328
16172000,0.0324,0.013523,0.002678,0.000431,0.020450
16173000,0.0324,0.013523,0.002678,0.000431,0.018334
16174000,0.0324,0.013523,0.002678,0.000431,0.015631
16175000,0.0324,0.013523,0.002678,0.000431,0.012223
16176000,0.0324,0.013523,0.002678,0.000431,0.014103
16177000,0.0324,0.013523,0.002678,0.000431,0.013751
16178000,0.0324,0.013523,0.002678,0.000431,0.012223
16179000,0.0324,0.013523,0.002678,0.000431,0.010225
16180000,0.0324,0.013523,0.002678,0.000431,0.008697
16181000,0.0324,0.013523,0.002678,0.000431,0.008462
16182000,0.0324,0.013523,0.002678,0.000431,0.008227
16183000,0.0324,0.013523,0.002678,0.000431,0.006582
16184000,0.0324,0.013523,0.002678,0.000431,0.005524
16185000,0.0324,0.013523,0.002678,0.000431,0.005759
16186000,0.0324,0.013523,0.002678,0.000431,0.006347
16187000,0.0324,0.013523,0.002678,0.000431,0.005171
16188000,0.0324,0.013523,0.002678,0.000431,0.006111
16189000,0.0324,0.013523,0.002678,0.000431,0.005641
16190000,0.0324,0.013523,0.002678,0.000431,0.005759
16191000,0.0324,0.013523,0.002678,0.000431,0.005641
16192000,0.0324,0.013523,0.002678,0.000431,0.007287
16193000,0.0324,0.013523,0.002678,0.000431,0.006817
16194000,0.0324,0.013523,0.002678,0.000431,0.003643
16195000,0.0324,0.013523,0.002678,0.000431,0.004466
16196000,0.0324,0.013523,0.002678,0.000431,0.003761
16197000,0.0324,0.013523,0.002678,0.000431,0.003408
16198000,0.0324,0.013523,0.002678,0.000431,0.004584
16199000,0.0324,0.013523,0.002678,0.000431,0.002351
16200000,0.0324,0.013523,0.002678,0.000431,0.002586
16201000,0.0324,0.013523,0.002678,0.000431,0.002351
16202000,0.0324,0.013523,0.002678,0.000431,0.002821
16203000,0.0324,0.013523,0.002678,0.000431,0.002351
16204000,0.0324,0.013523,0.002678,0.000431,0.002703
16205000,0.0324,0.013523,0.002678,0.000431,0.002468
16206000,0.0324,0.013523,0.002678,0.000431,0.002468
16207000,0.0324,0.013523,0.002678,0.000431,0.002351
16208000,0.0324,0.013523,0.002678,0.000431,0.002703
16209000,0.0324,0.013523,0.002678,0.000431,0.002468
16210000,0.0324,0.013523,0.002678,0.000431,0.002351
16211000,0.0324,0.013523,0.002678,0.000431,0.002703
16212000,0.0324,0.013523,0.002678,0.000431,0.002116
16213000,0.0324,0.013523,0.002678,0.000431,0.004466
16214000,0.0324,0.013523,0.002678,0.000431,0.001763
16215000,0.0324,0.013523,0.002678,0.000431,0.001645
16216000,0.0324,0.013523,0.002678,0.000431,0.001880
16217000,0.0324,0.013523,0.002678,0.000431,0.003408
16218000,0.0324,0.013523,0.002678,0.000431,0.000940
16219000,0.0324,0.013523,0.002678,0.000431,0.000823
16220000,0.0324,0.013523,0.002678,0.000431,0.000823
16221000,0.0324,0.013523,0.002678,0.000431,0.000940
16222000,0.0324,0.013523,0.002678,0.000431,0.000940
16223000,0.0324,0.013523,0.002678,0.000431,0.000823
16224000,0.0324,0.013523,0.002678,0.000431,0.073338
16225000,0.0324,0.013523,0.002678,0.000431,0.577063
16226000,0.0324,0.013523,0.002678,0.000431,0.565193
16227000,0.0324,0.013523,0.002678,0.000431,0.133982
16228000,0.0324,0.013523,0.002678,0.000431,0.132102
16229000,0.0324,0.013523,0.002678,0.000431,0.546976
16230000,0.0324,0.013523,0.002678,0.000431,0.226242
16231000,0.0324,0.013523,0.002678,0.000431,0.246692
16232000,0.0324,0.013523,0.002678,0.000431,0.313330
16233000,0.0324,0.013523,0.002678,0.000431,0.139976
16234000,0.0324,0.013523,0.002678,0.000431,0.147850
16235000,0.0324,0.013523,0.002678,0.000431,0.135157
16236000,0.0324,0.013523,0.002678,0.000431,0.254213
16237000,0.0324,0.013523,0.002678,0.000431,0.348001
16238000,0.0324,0.013523,0.002678,0.000431,0.082387
16239000,0.0324,0.013523,0.002678,0.000431,0.067579
16240000,0.0324,0.013523,0.002678,0.000431,0.057941
16241000,0.0324,0.013523,0.002678,0.000431,0.051125
16242000,0.0324,0.013523,0.002678,0.000431,0.041135
16243000,0.0324,0.013523,0.002678,0.000431,0.032673
16244000,0.0324,0.013523,0.002678,0.000431,0.029617
16245000,0.0324,0.013523,0.002678,0.000431,0.028559
16246000,0.0324,0.013523,0.002678,0.000431,0.021860
16247000,0.0324,0.013523,0.002678,0.000431,0.019980
16248000,0.0324,0.013523,0.002678,0.000431,0.015631
16249000,0.0324,0.013523,0.002678,0.000431,0.017042
16250000,0.0324,0.013523,0.002678,0.000431,0.016219
16251000,0.0324,0.013523,0.002678,0.000431,0.010578
16252000,0.0324,0.013523,0.002678,0.000431,0.010695
16253000,0.0324,0.013523,0.002678,0.000431,0.007522
16254000,0.0324,0.013523,0.002678,0.000431,0.010342
16255000,0.0324,0.013523,0.002678,0.000431,0.008697
16256000,0.0324,0.013523,0.002678,0.000431,0.009285
16257000,0.0324,0.013523,0.002678,0.000431,0.006817
16258000,0.0324,0.013523,0.002678,0.000431,0.008345
16259000,0.0324,0.013523,0.002678,0.000431,0.009755
16260000,0.0324,0.013523,0.002678,0.000431,0.004466
16261000,0.0324,0.013523,0.002678,0.000431,0.004466
16262000,0.0324,0.013523,0.002678,0.000431,0.003996
16263000,0.0324,0.013523,0.002678,0.000431,0.004349
16264000,0.0324,0.013523,0.002678,0.000431,0.004349
16265000,0.0324,0.013523,0.002678,0.000431,0.004113
16266000,0.0324,0.013523,0.002678,0.000431,0.005289
16267000,0.0324,0.013523,0.002678,0.000431,0.004819
16268000,0.0324,0.013523,0.002678,0.000431,0.003408
16269000,0.0324,0.013523,0.002678,0.000431,0.005524
16270000,0.0324,0.013523,0.002678,0.000431,0.002703
16271000,0.0324,0.013523,0.002678,0.000431,0.002351
16272000,0.0324,0.013523,0.002678,0.000431,0.002586
16273000,0.0324,0.013523,0.002678,0.000431,0.002586
16274000,0.0324,0.013523,0.002678,0.000431,0.003878
16275000,0.0324,0.013523,0.002678,0.000431,0.001645
16276000,0.0324,0.013523,0.002678,0.000431,0.001645
16277000,0.0324,0.013523,0.002678,0.000431,0.001880
16278000,0.0324,0.013523,0.002678,0.000431,0.001528
16279000,0.0324,0.013523,0.002678,0.000431,0.001763
16280000,0.0324,0.013523,0.002678,0.000431,0.001528
16281000,0.0324,0.013523,0.002678,0.000431,0.001763
16282000,0.0324,0.013523,0.002678,0.000431,0.001763
16283000,0.0324,0.013523,0.002678,0.000431,0.001528
16284000,0.0324,0.013523,0.002678,0.000431,0.001880
16285000,0.0324,0.013523,0.002678,0.000431,0.001528
16286000,0.0324,0.013523,0.002678,0.000431,0.001763
16287000,0.0324,0.013523,0.002678,0.000431,0.001645
16288000,0.0324,0.013523,0.002678,0.000431,0.001645
16289000,0.0324,0.013523,0.002678,0.000431,0.001645
16290000,0.0324,0.013523,0.002678,0.000431,0.001645
16291000,0.0324,0.013523,0.002678,0.000431,0.001645
16292000,0.0324,0.013523,0.002678,0.000431,0.001645
16293000,0.0324,0.013523,0.002678,0.000431,0.001880
16294000,0.0324,0.013523,0.002678,0.000431,0.001528
16295000,0.0324,0.013523,0.002678,0.000431,0.001763
16296000,0.0324,0.013523,0.002678,0.000431,0.001528
16297000,0.0324,0.013523,0.002678,0.000431,0.001763
16298000,0.0324,0.013523,0.002678,0.000431,0.001645
16299000,0.0324,0.013523,0.002678,0.000431,0.001645
16300000,0.0324,0.013523,0.002678,0.000431,0.001880
16301000,0.0324,0.013523,0.002678,0.000431,0.001410
16302000,0.0324,0.013523,0.002678,0.000431,0.001763
16303000,0.0324,0.013523,0.002678,0.000431,0.001645
16304000,0.0324,0.013523,0.002678,0.000431,0.001528
16305000,0.0324,0.013523,0.002678,0.000431,0.003173
16306000,0.0324,0.013523,0.002678,0.000431,0.000823
16307000,0.0324,0.013523,0.002678,0.000431,0.000823
16308000,0.0324,0.013523,0.002678,0.000431,0.000940
16309000,0.0324,0.013523,0.002678,0.000431,0.000940
16310000,0.0324,0.013523,0.002678,0.000431,0.000823
16311000,0.0324,0.013523,0.002678,0.000431,0.000823
16312000,0.0324,0.013523,0.002678,0.000431,0.000940
16313000,0.0324,0.013523,0.002678,0.000431,0.000940
16314000,0.0324,0.013523,0.002678,0.000431,0.011165
16315000,0.0324,0.013523,0.002678,0.000431,0.479397
16316000,0.0324,0.013523,0.002678,0.000431,0.623957
16317000,0.0324,0.013523,0.002678,0.000431,0.133512
16318000,0.0324,0.013523,0.002678,0.000431,0.132219
16319000,0.0324,0.013523,0.002678,0.000431,0.206850
16320000,0.0324,0.013523,0.002678,0.000431,0.528172
16321000,0.0324,0.013523,0.002678,0.000431,0.239405
16322000,0.0324,0.013523,0.002678,0.000431,0.281127
16323000,0.0324,0.013523,0.002678,0.000431,0.219308
16324000,0.0324,0.013523,0.002678,0.000431,0.143502
16325000,0.0324,0.013523,0.002678,0.000431,0.181464
16326000,0.0324,0.013523,0.002678,0.000431,0.101192
16327000,0.0324,0.013523,0.002678,0.000431,0.473051
16328000,0.0324,0.013523,0.002678,0.000431,0.125520
16329000,0.0324,0.013523,0.002678,0.000431,0.091672
16330000,0.0324,0.013523,0.002678,0.000431,0.077804
16331000,0.0324,0.013523,0.002678,0.000431,0.062407
16332000,0.0324,0.013523,0.002678,0.000431,0.049244
16333000,0.0324,0.013523,0.002678,0.000431,0.043133
16334000,0.0324,0.013523,0.002678,0.000431,0.035846
16335000,0.0324,0.013523,0.002678,0.000431,0.030322
16336000,0.0324,0.013523,0.002678,0.000431,0.023858
16337000,0.0324,0.013523,0.002678,0.000431,0.026914
16338000,0.0324,0.013523,0.002678,0.000431,0.018569
16339000,0.0324,0.013523,0.002678,0.000431,0.021978
16340000,0.0324,0.013523,0.002678,0.000431,0.018452
16341000,0.0324,0.013523,0.002678,0.000431,0.019745
16342000,0.0324,0.013523,0.002678,0.000431,0.019862
16343000,0.0324,0.013523,0.002678,0.000431,0.013398
16344000,0.0324,0.013523,0.002678,0.000431,0.011283
16345000,0.0324,0.013523,0.002678,0.000431,0.011165
16346000,0.0324,0.013523,0.002678,0.000431,0.014691
16347000,0.0324,0.013523,0.002678,0.000431,0.011165
16348000,0.0324,0.013523,0.002678,0.000431,0.009637
16349000,0.0324,0.013523,0.002678,0.000431,0.009990
16350000,0.0324,0.013523,0.002678,0.000431,0.008227
16351000,0.0324,0.013523,0.002678,0.000431,0.008345
16352000,0.0324,0.013523,0.002678,0.000431,0.009285
16353000,0.0324,0.013523,0.002678,0.000431,0.008932
16354000,0.0324,0.013523,0.002678,0.000431,0.009050
16355000,0.0324,0.013523,0.002678,0.000431,0.007052
16356000,0.0324,0.013523,0.002678,0.000431,0.007169
16357000,0.0324,0.013523,0.002678,0.000431,0.006111
16358000,0.0324,0.013523,0.002678,0.000431,0.009285
16359000,0.0324,0.013523,0.002678,0.000431,0.005171
16360000,0.0324,0.013523,0.002678,0.000431,0.006347
16361000,0.0324,0.013523,0.002678,0.000431,0.005876
16362000,0.0324,0.013523,0.002678,0.000431,0.004936
16363000,0.0324,0.013523,0.002678,0.000431,0.002821
16364000,0.0324,0.013523,0.002678,0.000431,0.005171
16365000,0.0324,0.013523,0.002678,0.000431,0.001645
16366000,0.0324,0.013523,0.002678,0.000431,0.001880
16367000,0.0324,0.013523,0.002678,0.000431,0.003056
16368000,0.0324,0.013523,0.002678,0.000431,0.000823
16369000,0.0324,0.013523,0.002678,0.000431,0.000823
16370000,0.0324,0.013523,0.002678,0.000431,0.000823
16371000,0.0324,0.013523,0.002678,0.000431,0.000823
16372000,0.0324,0.013523,0.002678,0.000431,0.000940
16373000,0.0324,0.013523,0.002678,0.000431,0.000823
16374000,0.0324,0.013523,0.002678,0.000431,0.000823
16375000,0.0324,0.013523,0.002678,0.000431,0.000705
16376000,0.0324,0.013523,0.002678,0.000431,0.000940
16377000,0.0324,0.013523,0.002678,0.000431,0.207555
16378000,0.0324,0.013523,0.002678,0.000431,0.531110
16379000,0.0324,0.013523,0.002678,0.000431,0.489505
16380000,0.0324,0.013523,0.002678,0.000431,0.133394
16381000,0.0324,0.013523,0.002678,0.000431,0.134452
16382000,0.0324,0.013523,0.002678,0.000431,0.561785
16383000,0.0324,0.013523,0.002678,0.000431,0.238935
16384000,0.0324,0.013523,0.002678,0.000431,0.275956
16385000,0.0324,0.013523,0.002678,0.000431,0.260207
16386000,0.0324,0.013523,0.002678,0.000431,0.147850
16387000,0.0324,0.013523,0.002678,0.000431,0.146793
16388000,0.0324,0.013523,0.002678,0.000431,0.119526
16389000,0.0324,0.013523,0.002678,0.000431,0.423337
16390000,0.0324,0.013523,0.002678,0.000431,0.209200
16391000,0.0324,0.013523,0.002678,0.000431,0.093905
16392000,0.0324,0.013523,0.002678,0.000431,0.074395
16393000,0.0324,0.013523,0.002678,0.000431,0.058764
16394000,0.0324,0.013523,0.002678,0.000431,0.048069
16395000,0.0324,0.013523,0.002678,0.000431,0.040900
16396000,0.0324,0.013523,0.002678,0.000431,0.034318
16397000,0.0324,0.013523,0.002678,0.000431,0.032555
16398000,0.0324,0.013523,0.002678,0.000431,0.026326
16399000,0.0324,0.013523,0.002678,0.000431,0.024563
16400000,0.0324,0.013523,0.002678,0.000431,0.023506
16401000,0.0324,0.013523,0.002678,0.000431,0.015984
16402000,0.0324,0.013523,0.002678,0.000431,0.016571
16403000,0.0324,0.013523,0.002678,0.000431,0.010460
16404000,0.0324,0.013523,0.002678,0.000431,0.009050
16405000,0.0324,0.013523,0.002678,0.000431,0.011283
16406000,0.0324,0.013523,0.002678,0.000431,0.009637
16407000,0.0324,0.013523,0.002678,0.000431,0.007522
16408000,0.0324,0.013523,0.002678,0.000431,0.004584
16409000,0.0324,0.013523,0.002678,0.000431,0.006229
16410000,0.0324,0.013523,0.002678,0.000431,0.003526
16411000,0.0324,0.013523,0.002678,0.000431,0.003408
16412000,0.0324,0.013523,0.002678,0.000431,0.003526
16413000,0.0324,0.013523,0.002678,0.000431,0.003291
16414000,0.0324,0.013523,0.002678,0.000431,0.003643
16415000,0.0324,0.013523,0.002678,0.000431,0.003291
16416000,0.0324,0.013523,0.002678,0.000431,0.006464
16417000,0.0324,0.013523,0.002678,0.000431,0.001880
16418000,0.0324,0.013523,0.002678,0.000431,0.002703
16419000,0.0324,0.013523,0.002678,0.000431,0.000823
16420000,0.0324,0.013523,0.002678,0.000431,0.000823
16421000,0.0324,0.013523,0.002678,0.000431,0.000940
16422000,0.0324,0.013523,0.002678,0.000431,0.000940
16423000,0.0324,0.013523,0.002678,0.000431,0.000705
16424000,0.0324,0.013523,0.002678,0.000431,0.000940
16425000,0.0324,0.013523,0.002678,0.000431,0.000940
16426000,0.0324,0.013523,0.002678,0.000431,0.000940
16427000,0.0324,0.013523,0.002678,0.000431,0.000705
16428000,0.0324,0.013523,0.002678,0.000431,0.000940
16429000,0.0324,0.013523,0.002678,0.000431,0.014103
16430000,0.0324,0.013523,0.002678,0.000431,0.541687
16431000,0.0324,0.013523,0.002678,0.000431,0.607856
16432000,0.0324,0.013523,0.002678,0.000431,0.134452
16433000,0.0324,0.013523,0.002678,0.000431,0.132219
16434000,0.0324,0.013523,0.002678,0.000431,0.377971
16435000,0.0324,0.013523,0.002678,0.000431,0.389841
16436000,0.0324,0.013523,0.002678,0.000431,0.228005
16437000,0.0324,0.013523,0.002678,0.000431,0.331547
16438000,0.0324,0.013523,0.002678,0.000431,0.168888
16439000,0.0324,0.013523,0.002678,0.000431,0.150789
16440000,0.0324,0.013523,0.002678,0.000431,0.131514
16441000,0.0324,0.013523,0.002678,0.000431,0.251745
16442000,0.0324,0.013523,0.002678,0.000431,0.388783
16443000,0.0324,0.013523,0.002678,0.000431,0.121642
16444000,0.0324,0.013523,0.002678,0.000431,0.091319
16445000,0.0324,0.013523,0.002678,0.000431,0.067226
16446000,0.0324,0.013523,0.002678,0.000431,0.059939
16447000,0.0324,0.013523,0.002678,0.000431,0.046541
16448000,0.0324,0.013523,0.002678,0.000431,0.035729
16449000,0.0324,0.013523,0.002678,0.000431,0.029970
16450000,0.0324,0.013523,0.002678,0.000431,0.026444
16451000,0.0324,0.013523,0.002678,0.000431,0.027737
16452000,0.0324,0.013523,0.002678,0.000431,0.026679
16453000,0.0324,0.013523,0.002678,0.000431,0.023741
16454000,0.0324,0.013523,0.002678,0.000431,0.021743
16455000,0.0324,0.013523,0.002678,0.000431,0.015984
16456000,0.0324,0.013523,0.002678,0.000431,0.009050
16457000,0.0324,0.013523,0.002678,0.000431,0.009520
16458000,0.0324,0.013523,0.002678,0.000431,0.010342
16459000,0.0324,0.013523,0.002678,0.000431,0.008697
16460000,0.0324,0.013523,0.002678,0.000431,0.011048
16461000,0.0324,0.013523,0.002678,0.000431,0.012576
16462000,0.0324,0.013523,0.002678,0.000431,0.005289
16463000,0.0324,0.013523,0.002678,0.000431,0.004936
16464000,0.0324,0.013523,0.002678,0.000431,0.005759
16465000,0.0324,0.013523,0.002678,0.000431,0.003173
16466000,0.0324,0.013523,0.002678,0.000431,0.003761
16467000,0.0324,0.013523,0.002678,0.000431,0.003408
16468000,0.0324,0.013523,0.002678,0.000431,0.003173
16469000,0.0324,0.013523,0.002678,0.000431,0.003643
16470000,0.0324,0.013523,0.002678,0.000431,0.005171
16471000,0.0324,0.013523,0.002678,0.000431,0.002703
16472000,0.0324,0.013523,0.002678,0.000431,0.002468
16473000,0.0324,0.013523,0.002678,0.000431,0.002586
16474000,0.0324,0.013523,0.002678,0.000431,0.003526
16475000,0.0324,0.013523,0.002678,0.000431,0.002703
16476000,0.0324,0.013523,0.002678,0.000431,0.001763
16477000,0.0324,0.013523,0.002678,0.000431,0.001645
16478000,0.0324,0.013523,0.002678,0.000431,0.001763
16479000,0.0324,0.013523,0.002678,0.000431,0.001528
16480000,0.0324,0.013523,0.002678,0.000431,0.001763
16481000,0.0324,0.013523,0.002678,0.000431,0.001645
16482000,0.0324,0.013523,0.002678,0.000431,0.001645
16483000,0.0324,0.013523,0.002678,0.000431,0.001645
16484000,0.0324,0.013523,0.002678,0.000431,0.001763
16485000,0.0324,0.013523,0.002678,0.000431,0.001528
16486000,0.0324,0.013523,0.002678,0.000431,0.001763
16487000,0.0324,0.013523,0.002678,0.000431,0.001645
16488000,0.0324,0.013523,0.002678,0.000431,0.001528
16489000,0.0324,0.013523,0.002678,0.000431,0.001880
16490000,0.0324,0.013523,0.002678,0.000431,0.001763
16491000,0.0324,0.013523,0.002678,0.000431,0.001528
16492000,0.0324,0.013523,0.002678,0.000431,0.001880
16493000,0.0324,0.013523,0.002678,0.000431,0.001528
16494000,0.0324,0.013523,0.002678,0.000431,0.001880
16495000,0.0324,0.013523,0.002678,0.000431,0.003526
16496000,0.0324,0.013523,0.002678,0.000431,0.000705
16497000,0.0324,0.013523,0.002678,0.000431,0.000940
16498000,0.0324,0.013523,0.002678,0.000431,0.000705
16499000,0.0324,0.013523,0.002678,0.000431,0.000940
16500000,0.0324,0.013523,0.002678,0.000431,0.000823
16501000,0.0324,0.013523,0.002678,0.000431,0.000823
16502000,0.0324,0.013523,0.002678,0.000431,0.000823
16503000,0.0324,0.013523,0.002678,0.000431,0.000823
16504000,0.0324,0.013523,0.002678,0.000431,0.000940
16505000,0.0324,0.013523,0.002678,0.000431,0.014338
16506000,0.0324,0.013523,0.002678,0.000431,0.560727
16507000,0.0324,0.013523,0.002678,0.000431,0.614202
16508000,0.0324,0.013523,0.002678,0.000431,0.133982
16509000,0.0324,0.013523,0.002678,0.000431,0.132572
16510000,0.0324,0.013523,0.002678,0.000431,0.444844
16511000,0.0324,0.013523,0.002678,0.000431,0.379969
16512000,0.0324,0.013523,0.002678,0.000431,0.242108
16513000,0.0324,0.013523,0.002678,0.000431,0.330489
16514000,0.0324,0.013523,0.002678,0.000431,0.140681
16515000,0.0324,0.013523,0.002678,0.000431,0.149378
16516000,0.0324,0.013523,0.002678,0.000431,0.111769
16517000,0.0324,0.013523,0.002678,0.000431,0.426510
16518000,0.0324,0.013523,0.002678,0.000431,0.192394
16519000,0.0324,0.013523,0.002678,0.000431,0.090614
16520000,0.0324,0.013523,0.002678,0.000431,0.088616
16521000,0.0324,0.013523,0.002678,0.000431,0.065816
16522000,0.0324,0.013523,0.002678,0.000431,0.061467
16523000,0.0324,0.013523,0.002678,0.000431,0.047716
16524000,0.0324,0.013523,0.002678,0.000431,0.045131
16525000,0.0324,0.013523,0.002678,0.000431,0.037727
16526000,0.0324,0.013523,0.002678,0.000431,0.036199
16527000,0.0324,0.013523,0.002678,0.000431,0.028912
16528000,0.0324,0.013523,0.002678,0.000431,0.033025
16529000,0.0324,0.013523,0.002678,0.000431,0.027031
16530000,0.0324,0.013523,0.002678,0.000431,0.026914
16531000,0.0324,0.013523,0.002678,0.000431,0.021508
16532000,0.0324,0.013523,0.002678,0.000431,0.019392
16533000,0.0324,0.013523,0.002678,0.000431,0.020685
16534000,0.0324,0.013523,0.002678,0.000431,0.021390
16535000,0.0324,0.013523,0.002678,0.000431,0.020802
16536000,0.0324,0.013523,0.002678,0.000431,0.016219
16537000,0.0324,0.013523,0.002678,0.000431,0.015631
16538000,0.0324,0.013523,0.002678,0.000431,0.007757
16539000,0.0324,0.013523,0.002678,0.000431,0.010578
16540000,0.0324,0.013523,0.002678,0.000431,0.009285
16541000,0.0324,0.013523,0.002678,0.000431,0.003291
16542000,0.0324,0.013523,0.002678,0.000431,0.003408
16543000,0.0324,0.013523,0.002678,0.000431,0.003761
16544000,0.0324,0.013523,0.002678,0.000431,0.003173
16545000,0.0324,0.013523,0.002678,0.000431,0.003408
16546000,0.0324,0.013523,0.002678,0.000431,0.003526
16547000,0.0324,0.013523,0.002678,0.000431,0.003526
16548000,0.0324,0.013523,0.002678,0.000431,0.003056
16549000,0.0324,0.013523,0.002678,0.000431,0.003526
16550000,0.0324,0.013523,0.002678,0.000431,0.003761
16551000,0.0324,0.013523,0.002678,0.000431,0.004466
16552000,0.0324,0.013523,0.002678,0.000431,0.003526
16553000,0.0324,0.013523,0.002678,0.000431,0.002586
16554000,0.0324,0.013523,0.002678,0.000431,0.001880
16555000,0.0324,0.013523,0.002678,0.000431,0.002586
16556000,0.0324,0.013523,0.002678,0.000431,0.001998
16557000,0.0324,0.013523,0.002678,0.000431,0.000940
16558000,0.0324,0.013523,0.002678,0.000431,0.000823
16559000,0.0324,0.013523,0.002678,0.000431,0.000940
16560000,0.0324,0.013523,0.002678,0.000431,0.000823
16561000,0.0324,0.013523,0.002678,0.000431,0.071340
16562000,0.0324,0.013523,0.002678,0.000431,0.522413
16563000,0.0324,0.013523,0.002678,0.000431,0.599276
16564000,0.0324,0.013523,0.002678,0.000431,0.131632
16565000,0.0324,0.013523,0.002678,0.000431,0.134922
16566000,0.0324,0.013523,0.002678,0.000431,0.557906
16567000,0.0324,0.013523,0.002678,0.000431,0.253861
16568000,0.0324,0.013523,0.002678,0.000431,0.253156
16569000,0.0324,0.013523,0.002678,0.000431,0.307924
16570000,0.0324,0.013523,0.002678,0.000431,0.144912
16571000,0.0324,0.013523,0.002678,0.000431,0.150906
16572000,0.0324,0.013523,0.002678,0.000431,0.111417
16573000,0.0324,0.013523,0.002678,0.000431,0.423337
16574000,0.0324,0.013523,0.002678,0.000431,0.214136
16575000,0.0324,0.013523,0.002678,0.000431,0.101074
16576000,0.0324,0.013523,0.002678,0.000431,0.083327
16577000,0.0324,0.013523,0.002678,0.000431,0.067109
16578000,0.0324,0.013523,0.002678,0.000431,0.054180
16579000,0.0324,0.013523,0.002678,0.000431,0.044426
16580000,0.0324,0.013523,0.002678,0.000431,0.049127
16581000,0.0324,0.013523,0.002678,0.000431,0.033731
16582000,0.0324,0.013523,0.002678,0.000431,0.030557
16583000,0.0324,0.013523,0.002678,0.000431,0.029852
16584000,0.0324,0.013523,0.002678,0.000431,0.018334
16585000,0.0324,0.013523,0.002678,0.000431,0.015866
16586000,0.0324,0.013523,0.002678,0.000431,0.013868
16587000,0.0324,0.013523,0.002678,0.000431,0.013398
16588000,0.0324,0.013523,0.002678,0.000431,0.008462
16589000,0.0324,0.013523,0.002678,0.000431,0.005876
16590000,0.0324,0.013523,0.002678,0.000431,0.006699
16591000,0.0324,0.013523,0.002678,0.000431,0.008580
16592000,0.0324,0.013523,0.002678,0.000431,0.006934
16593000,0.0324,0.013523,0.002678,0.000431,0.005406
16594000,0.0324,0.013523,0.002678,0.000431,0.002351
16595000,0.0324,0.013523,0.002678,0.000431,0.004349
16596000,0.0324,0.013523,0.002678,0.000431,0.001528
16597000,0.0324,0.013523,0.002678,0.000431,0.001763
16598000,0.0324,0.013523,0.002678,0.000431,0.001763
16599000,0.0324,0.013523,0.002678,0.000431,0.001763
16600000,0.0324,0.013523,0.002678,0.000431,0.001528
16601000,0.0324,0.013523,0.002678,0.000431,0.003408
16602000,0.0324,0.013523,0.002678,0.000431,0.000940
16603000,0.0324,0.013523,0.002678,0.000431,0.000940
16604000,0.0324,0.013523,0.002678,0.000431,0.000705
16605000,0.0324,0.013523,0.002678,0.000431,0.000940
16606000,0.0324,0.013523,0.002678,0.000431,0.000940
16607000,0.0324,0.013523,0.002678,0.000431,0.000823
16608000,0.0324,0.013523,0.002678,0.000431,0.000823
16609000,0.0324,0.013523,0.002678,0.000431,0.000940
16610000,0.0324,0.013523,0.002678,0.000431,0.000940
16611000,0.0324,0.013523,0.002678,0.000431,0.000823
16612000,0.0324,0.013523,0.002678,0.000431,0.014338
16613000,0.0324,0.013523,0.002678,0.000431,0.566251
16614000,0.0324,0.013523,0.002678,0.000431,0.594693
16615000,0.0324,0.013523,0.002678,0.000431,0.134922
16616000,0.0324,0.013523,0.002678,0.000431,0.132572
16617000,0.0324,0.013523,0.002678,0.000431,0.452954
16618000,0.0324,0.013523,0.002678,0.000431,0.296171
16619000,0.0324,0.013523,0.002678,0.000431,0.249630
16620000,0.0324,0.013523,0.002678,0.000431,0.291000
16621000,0.0324,0.013523,0.002678,0.000431,0.167360
16622000,0.0324,0.013523,0.002678,0.000431,0.141504
16623000,0.0324,0.013523,0.002678,0.000431,0.160896
16624000,0.0324,0.013523,0.002678,0.000431,0.181111
16625000,0.0324,0.013523,0.002678,0.000431,0.425452
16626000,0.0324,0.013523,0.002678,0.000431,0.133512
16627000,0.0324,0.013523,0.002678,0.000431,0.105658
16628000,0.0324,0.013523,0.002678,0.000431,0.095550
16629000,0.0324,0.013523,0.002678,0.000431,0.084150
16630000,0.0324,0.013523,0.002678,0.000431,0.077334
16631000,0.0324,0.013523,0.002678,0.000431,0.062290
16632000,0.0324,0.013523,0.002678,0.000431,0.055121
16633000,0.0324,0.013523,0.002678,0.000431,0.052183
16634000,0.0324,0.013523,0.002678,0.000431,0.040547
16635000,0.0324,0.013523,0.002678,0.000431,0.030675
16636000,0.0324,0.013523,0.002678,0.000431,0.028677
16637000,0.0324,0.013523,0.002678,0.000431,0.023271
16638000,0.0324,0.013523,0.002678,0.000431,0.019980
16639000,0.0324,0.013523,0.002678,0.000431,0.020215
16640000,0.0324,0.013523,0.002678,0.000431,0.019862
16641000,0.0324,0.013523,0.002678,0.000431,0.015514
16642000,0.0324,0.013523,0.002678,0.000431,0.012576
16643000,0.0324,0.013523,0.002678,0.000431,0.010813
16644000,0.0324,0.013523,0.002678,0.000431,0.007169
16645000,0.0324,0.013523,0.002678,0.000431,0.009637
16646000,0.0324,0.013523,0.002678,0.000431,0.005641
16647000,0.0324,0.013523,0.002678,0.000431,0.004701
16648000,0.0324,0.013523,0.002678,0.000431,0.004349
16649000,0.0324,0.013523,0.002678,0.000431,0.005289
16650000,0.0324,0.013523,0.002678,0.000431,0.003291
16651000,0.0324,0.013523,0.002678,0.000431,0.000823
16652000,0.0324,0.013523,0.002678,0.000431,0.000823
16653000,0.0324,0.013523,0.002678,0.000431,0.014338
16654000,0.0324,0.013523,0.002678,0.000431,0.599276
16655000,0.0324,0.013523,0.002678,0.000431,0.597161
16656000,0.0324,0.013523,0.002678,0.000431,0.134452
16657000,0.0324,0.013523,0.002678,0.000431,0.133042
16658000,0.0324,0.013523,0.002678,0.000431,0.508544
16659000,0.0324,0.013523,0.002678,0.000431,0.273135
16660000,0.0324,0.013523,0.002678,0.000431,0.272548
16661000,0.0324,0.013523,0.002678,0.000431,0.269610
16662000,0.0324,0.013523,0.002678,0.000431,0.141386
16663000,0.0324,0.013523,0.002678,0.000431,0.149848
16664000,0.0324,0.013523,0.002678,0.000431,0.133512
16665000,0.0324,0.013523,0.002678,0.000431,0.279600
16666000,0.0324,0.013523,0.002678,0.000431,0.330959
16667000,0.0324,0.013523,0.002678,0.000431,0.091554
16668000,0.0324,0.013523,0.002678,0.000431,0.058882
16669000,0.0324,0.013523,0.002678,0.000431,0.051360
16670000,0.0324,0.013523,0.002678,0.000431,0.044778
16671000,0.0324,0.013523,0.002678,0.000431,0.037256
16672000,0.0324,0.013523,0.002678,0.000431,0.028794
16673000,0.0324,0.013523,0.002678,0.000431,0.022683
16674000,0.0324,0.013523,0.002678,0.000431,0.027854
16675000,0.0324,0.013523,0.002678,0.000431,0.024563
16676000,0.0324,0.013523,0.002678,0.000431,0.018922
16677000,0.0324,0.013523,0.002678,0.000431,0.017629
16678000,0.0324,0.013523,0.002678,0.000431,0.017277
16679000,0.0324,0.013523,0.002678,0.000431,0.010460
16680000,0.0324,0.013523,0.002678,0.000431,0.008462
16681000,0.0324,0.013523,0.002678,0.000431,0.008580
16682000,0.0324,0.013523,0.002678,0.000431,0.006817
16683000,0.0324,0.013523,0.002678,0.000431,0.007757
16684000,0.0324,0.013523,0.002678,0.000431,0.008345
16685000,0.0324,0.013523,0.002678,0.000431,0.008227
16686000,0.0324,0.013523,0.002678,0.000431,0.004231
16687000,0.0324,0.013523,0.002678,0.000431,0.005054
16688000,0.0324,0.013523,0.002678,0.000431,0.003526
16689000,0.0324,0.013523,0.002678,0.000431,0.003643
16690000,0.0324,0.013523,0.002678,0.000431,0.005289
16691000,0.0324,0.013523,0.002678,0.000431,0.002586
16692000,0.0324,0.013523,0.002678,0.000431,0.003996
16693000,0.0324,0.013523,0.002678,0.000431,0.001763
16694000,0.0324,0.013523,0.002678,0.000431,0.001763
16695000,0.0324,0.013523,0.002678,0.000431,0.001763
16696000,0.0324,0.013523,0.002678,0.000431,0.001763
16697000,0.0324,0.013523,0.002678,0.000431,0.001763
16698000,0.0324,0.013523,0.002678,0.000431,0.001645
16699000,0.0324,0.013523,0.002678,0.000431,0.001763
16700000,0.0324,0.013523,0.002678,0.000431,0.001880
16701000,0.0324,0.013523,0.002678,0.000431,0.002233
16702000,0.0324,0.013523,0.002678,0.000431,0.002468
16703000,0.0324,0.013523,0.002678,0.000431,0.000823
16704000,0.0324,0.013523,0.002678,0.000431,0.000940
16705000,0.0324,0.013523,0.002678,0.000431,0.000940
16706000,0.0324,0.013523,0.002678,0.000431,0.000705
16707000,0.0324,0.013523,0.002678,0.000431,0.000940
16708000,0.0324,0.013523,0.002678,0.000431,0.000940
16709000,0.0324,0.013523,0.002678,0.000431,0.000940
16710000,0.0324,0.013523,0.002678,0.000431,0.113885
16711000,0.0324,0.013523,0.002678,0.000431,0.552500
16712000,0.0324,0.013523,0.002678,0.000431,0.531697
16713000,0.0324,0.013523,0.002678,0.000431,0.134452
16714000,0.0324,0.013523,0.002678,0.000431,0.131632
16715000,0.0324,0.013523,0.002678,0.000431,0.553675
16716000,0.0324,0.013523,0.002678,0.000431,0.248220
16717000,0.0324,0.013523,0.002678,0.000431,0.264086
16718000,0.0324,0.013523,0.002678,0.000431,0.274428
16719000,0.0324,0.013523,0.002678,0.000431,0.146558
16720000,0.0324,0.013523,0.002678,0.000431,0.144207
16721000,0.0324,0.013523,0.002678,0.000431,0.113885
16722000,0.0324,0.013523,0.002678,0.000431,0.377501
16723000,0.0324,0.013523,0.002678,0.000431,0.267494
16724000,0.0324,0.013523,0.002678,0.000431,0.104247
16725000,0.0324,0.013523,0.002678,0.000431,0.072397
16726000,0.0324,0.013523,0.002678,0.000431,0.063818
16727000,0.0324,0.013523,0.002678,0.000431,0.054886
16728000,0.0324,0.013523,0.002678,0.000431,0.042780
16729000,0.0324,0.013523,0.002678,0.000431,0.027502
16730000,0.0324,0.013523,0.002678,0.000431,0.027149
16731000,0.0324,0.013523,0.002678,0.000431,0.020332
16732000,0.0324,0.013523,0.002678,0.000431,0.020450
16733000,0.0324,0.013523,0.002678,0.000431,0.016101
16734000,0.0324,0.013523,0.002678,0.000431,0.015866
16735000,0.0324,0.013523,0.002678,0.000431,0.014338
16736000,0.0324,0.013523,0.002678,0.000431,0.012105
16737000,0.0324,0.013523,0.002678,0.000431,0.009050
16738000,0.0324,0.013523,0.002678,0.000431,0.011283
16739000,0.0324,0.013523,0.002678,0.000431,0.008345
16740000,0.0324,0.013523,0.002678,0.000431,0.007404
16741000,0.0324,0.013523,0.002678,0.000431,0.006934
16742000,0.0324,0.013523,0.002678,0.000431,0.006934
16743000,0.0324,0.013523,0.002678,0.000431,0.007874
16744000,0.0324,0.013523,0.002678,0.000431,0.005994
16745000,0.0324,0.013523,0.002678,0.000431,0.007287
16746000,0.0324,0.013523,0.002678,0.000431,0.005054
16747000,0.0324,0.013523,0.002678,0.000431,0.005171
16748000,0.0324,0.013523,0.002678,0.000431,0.007169
16749000,0.0324,0.013523,0.002678,0.000431,0.008580
16750000,0.0324,0.013523,0.002678,0.000431,0.003408
16751000,0.0324,0.013523,0.002678,0.000431,0.003173
16752000,0.0324,0.013523,0.002678,0.000431,0.003643
16753000,0.0324,0.013523,0.002678,0.000431,0.003526
16754000,0.0324,0.013523,0.002678,0.000431,0.003173
16755000,0.0324,0.013523,0.002678,0.000431,0.003408
16756000,0.0324,0.013523,0.002678,0.000431,0.003173
16757000,0.0324,0.013523,0.002678,0.000431,0.003526
16758000,0.0324,0.013523,0.002678,0.000431,0.003643
16759000,0.0324,0.013523,0.002678,0.000431,0.003878
16760000,0.0324,0.013523,0.002678,0.000431,0.003408
16761000,0.0324,0.013523,0.002678,0.000431,0.002586
16762000,0.0324,0.013523,0.002678,0.000431,0.002468
16763000,0.0324,0.013523,0.002678,0.000431,0.002468
16764000,0.0324,0.013523,0.002678,0.000431,0.002821
16765000,0.0324,0.013523,0.002678,0.000431,0.002468
16766000,0.0324,0.013523,0.002678,0.000431,0.002586
16767000,0.0324,0.013523,0.002678,0.000431,0.002468
16768000,0.0324,0.013523,0.002678,0.000431,0.002468
16769000,0.0324,0.013523,0.002678,0.000431,0.002703
16770000,0.0324,0.013523,0.002678,0.000431,0.002586
16771000,0.0324,0.013523,0.002678,0.000431,0.004231
16772000,0.0324,0.013523,0.002678,0.000431,0.001880
16773000,0.0324,0.013523,0.002678,0.000431,0.001528
16774000,0.0324,0.013523,0.002678,0.000431,0.001763
16775000,0.0324,0.013523,0.002678,0.000431,0.001763
16776000,0.0324,0.013523,0.002678,0.000431,0.001763
16777000,0.0324,0.013523,0.002678,0.000431,0.002821
16778000,0.0324,0.013523,0.002678,0.000431,0.000823
16779000,0.0324,0.013523,0.002678,0.000431,0.000940
16780000,0.0324,0.013523,0.002678,0.000431,0.000823
16781000,0.0324,0.013523,0.002678,0.000431,0.000940
16782000,0.0324,0.013523,0.002678,0.000431,0.000823
16783000,0.0324,0.013523,0.002678,0.000431,0.000940
16784000,0.0324,0.013523,0.002678,0.000431,0.000823
16785000,0.0324,0.013523,0.002678,0.000431,0.000823
16786000,0.0324,0.013523,0.002678,0.000431,0.000940
16787000,0.0324,0.013523,0.002678,0.000431,0.000940
16788000,0.0324,0.013523,0.002678,0.000431,0.000823
16789000,0.0324,0.013523,0.002678,0.000431,0.000823
16790000,0.0324,0.013523,0.002678,0.000431,0.000940
16791000,0.0324,0.013523,0.002678,0.000431,0.000940
16792000,0.0324,0.013523,0.002678,0.000431,0.001998
16793000,0.0324,0.013523,0.002678,0.000431,0.263616
16794000,0.0324,0.013523,0.002678,0.000431,0.685777
16795000,0.0324,0.013523,0.002678,0.000431,0.296053
16796000,0.0324,0.013523,0.002678,0.000431,0.131632
16797000,0.0324,0.013523,0.002678,0.000431,0.150319
16798000,0.0324,0.013523,0.002678,0.000431,0.641116
16799000,0.0324,0.013523,0.002678,0.000431,0.239640
16800000,0.0324,0.013523,0.002678,0.000431,0.269022
16801000,0.0324,0.013523,0.002678,0.000431,0.213549
16802000,0.0324,0.013523,0.002678,0.000431,0.144090
16803000,0.0324,0.013523,0.002678,0.000431,0.155725
16804000,0.0324,0.013523,0.002678,0.000431,0.163599
16805000,0.0324,0.013523,0.002678,0.000431,0.446960
16806000,0.0324,0.013523,0.002678,0.000431,0.094845
16807000,0.0324,0.013523,0.002678,0.000431,0.073573
16808000,0.0324,0.013523,0.002678,0.000431,0.066521
16809000,0.0324,0.013523,0.002678,0.000431,0.060762
16810000,0.0324,0.013523,0.002678,0.000431,0.045366
16811000,0.0324,0.013523,0.002678,0.000431,0.039372
16812000,0.0324,0.013523,0.002678,0.000431,0.026796
16813000,0.0324,0.013523,0.002678,0.000431,0.028442
16814000,0.0324,0.013523,0.002678,0.000431,0.023741
16815000,0.0324,0.013523,0.002678,0.000431,0.023976
16816000,0.0324,0.013523,0.002678,0.000431,0.019040
16817000,0.0324,0.013523,0.002678,0.000431,0.015866
16818000,0.0324,0.013523,0.002678,0.000431,0.009285
16819000,0.0324,0.013523,0.002678,0.000431,0.011400
16820000,0.0324,0.013523,0.002678,0.000431,0.011870
16821000,0.0324,0.013523,0.002678,0.000431,0.006934
16822000,0.0324,0.013523,0.002678,0.000431,0.005994
16823000,0.0324,0.013523,0.002678,0.000431,0.006229
16824000,0.0324,0.013523,0.002678,0.000431,0.008227
16825000,0.0324,0.013523,0.002678,0.000431,0.006111
16826000,0.0324,0.013523,0.002678,0.000431,0.007287
16827000,0.0324,0.013523,0.002678,0.000431,0.005289
16828000,0.0324,0.013523,0.002678,0.000431,0.002586
16829000,0.0324,0.013523,0.002678,0.000431,0.002351
16830000,0.0324,0.013523,0.002678,0.000431,0.003643
16831000,0.0324,0.013523,0.002678,0.000431,0.001528
16832000,0.0324,0.013523,0.002678,0.000431,0.404179
16833000,0.0324,0.013523,0.002678,0.000431,0.713161
16834000,0.0324,0.013523,0.002678,0.000431,0.152434
16835000,0.0324,0.013523,0.002678,0.000431,0.134452
16836000,0.0324,0.013523,0.002678,0.000431,0.174059
16837000,0.0324,0.013523,0.002678,0.000431,0.562960
16838000,0.0324,0.013523,0.002678,0.000431,0.232941
16839000,0.0324,0.013523,0.002678,0.000431,0.307101
16840000,0.0324,0.013523,0.002678,0.000431,0.223186
16841000,0.0324,0.013523,0.002678,0.000431,0.144325
16842000,0.0324,0.013523,0.002678,0.000431,0.152081
16843000,0.0324,0.013523,0.002678,0.000431,0.192159
16844000,0.0324,0.013523,0.002678,0.000431,0.468820
16845000,0.0324,0.013523,0.002678,0.000431,0.157370
16846000,0.0324,0.013523,0.002678,0.000431,0.142444
16847000,0.0324,0.013523,0.002678,0.000431,0.111182
16848000,0.0324,0.013523,0.002678,0.000431,0.077451
16849000,0.0324,0.013523,0.002678,0.000431,0.070752
16850000,0.0324,0.013523,0.002678,0.000431,0.061115
16851000,0.0324,0.013523,0.002678,0.000431,0.056296
16852000,0.0324,0.013523,0.002678,0.000431,0.039607
16853000,0.0324,0.013523,0.002678,0.000431,0.038902
16854000,0.0324,0.013523,0.002678,0.000431,0.032908
16855000,0.0324,0.013523,0.002678,0.000431,0.021273
16856000,0.0324,0.013523,0.002678,0.000431,0.023976
16857000,0.0324,0.013523,0.002678,0.000431,0.023976
16858000,0.0324,0.013523,0.002678,0.000431,0.011518
16859000,0.0324,0.013523,0.002678,0.000431,0.013516
16860000,0.0324,0.013523,0.002678,0.000431,0.012105
16861000,0.0324,0.013523,0.002678,0.000431,0.011048
16862000,0.0324,0.013523,0.002678,0.000431,0.009637
16863000,0.0324,0.013523,0.002678,0.000431,0.013046
16864000,0.0324,0.013523,0.002678,0.000431,0.011400
16865000,0.0324,0.013523,0.002678,0.000431,0.006347
16866000,0.0324,0.013523,0.002678,0.000431,0.008932
16867000,0.0324,0.013523,0.002678,0.000431,0.004936
16868000,0.0324,0.013523,0.002678,0.000431,0.005524
16869000,0.0324,0.013523,0.002678,0.000431,0.006111
16870000,0.0324,0.013523,0.002678,0.000431,0.008345
16871000,0.0324,0.013523,0.002678,0.000431,0.003291
16872000,0.0324,0.013523,0.002678,0.000431,0.003643
16873000,0.0324,0.013523,0.002678,0.000431,0.004936
16874000,0.0324,0.013523,0.002678,0.000431,0.004113
16875000,0.0324,0.013523,0.002678,0.000431,0.002468
16876000,0.0324,0.013523,0.002678,0.000431,0.002821
16877000,0.0324,0.013523,0.002678,0.000431,0.002703
16878000,0.0324,0.013523,0.002678,0.000431,0.002586
16879000,0.0324,0.013523,0.002678,0.000431,0.002468
16880000,0.0324,0.013523,0.002678,0.000431,0.004701
16881000,0.0324,0.013523,0.002678,0.000431,0.001880
16882000,0.0324,0.013523,0.002678,0.000431,0.001645
16883000,0.0324,0.013523,0.002678,0.000431,0.001763
16884000,0.0324,0.013523,0.002678,0.000431,0.001880
16885000,0.0324,0.013523,0.002678,0.000431,0.003761
16886000,0.0324,0.013523,0.002678,0.000431,0.000940
16887000,0.0324,0.013523,0.002678,0.000431,0.000823
16888000,0.0324,0.013523,0.002678,0.000431,0.000940
16889000,0.0324,0.013523,0.002678,0.000431,0.000823
16890000,0.0324,0.013523,0.002678,0.000431,0.000940
16891000,0.0324,0.013523,0.002678,0.000431,0.014338
16892000,0.0324,0.013523,0.002678,0.000431,0.627130
16893000,0.0324,0.013523,0.002678,0.000431,0.627013
16894000,0.0324,0.013523,0.002678,0.000431,0.136685
16895000,0.0324,0.013523,0.002678,0.000431,0.132572
16896000,0.0324,0.013523,0.002678,0.000431,0.401124
16897000,0.0324,0.013523,0.002678,0.000431,0.384552
16898000,0.0324,0.013523,0.002678,0.000431,0.225419
16899000,0.0324,0.013523,0.002678,0.000431,0.350822
16900000,0.0324,0.013523,0.002678,0.000431,0.170768
16901000,0.0324,0.013523,0.002678,0.000431,0.147498
16902000,0.0324,0.013523,0.002678,0.000431,0.117058
16903000,0.0324,0.013523,0.002678,0.000431,0.316621
16904000,0.0324,0.013523,0.002678,0.000431,0.333780
16905000,0.0324,0.013523,0.002678,0.000431,0.111064
16906000,0.0324,0.013523,0.002678,0.000431,0.095550
16907000,0.0324,0.013523,0.002678,0.000431,0.076746
16908000,0.0324,0.013523,0.002678,0.000431,0.053828
16909000,0.0324,0.013523,0.002678,0.000431,0.057354
16910000,0.0324,0.013523,0.002678,0.000431,0.043250
16911000,0.0324,0.013523,0.002678,0.000431,0.037491
16912000,0.0324,0.013523,0.002678,0.000431,0.029735
16913000,0.0324,0.013523,0.002678,0.000431,0.026679
16914000,0.0324,0.013523,0.002678,0.000431,0.020802
16915000,0.0324,0.013523,0.002678,0.000431,0.014456
16916000,0.0324,0.013523,0.002678,0.000431,0.022095
16917000,0.0324,0.013523,0.002678,0.000431,0.009990
16918000,0.0324,0.013523,0.002678,0.000431,0.009050
16919000,0.0324,0.013523,0.002678,0.000431,0.008109
16920000,0.0324,0.013523,0.002678,0.000431,0.004701
16921000,0.0324,0.013523,0.002678,0.000431,0.004231
16922000,0.0324,0.013523,0.002678,0.000431,0.003408
16923000,0.0324,0.013523,0.002678,0.000431,0.003291
16924000,0.0324,0.013523,0.002678,0.000431,0.003291
16925000,0.0324,0.013523,0.002678,0.000431,0.003291
16926000,0.0324,0.013523,0.002678,0.000431,0.003408
16927000,0.0324,0.013523,0.002678,0.000431,0.003291
16928000,0.0324,0.013523,0.002678,0.000431,0.003056
16929000,0.0324,0.013523,0.002678,0.000431,0.003408
16930000,0.0324,0.013523,0.002678,0.000431,0.003291
16931000,0.0324,0.013523,0.002678,0.000431,0.003408
16932000,0.0324,0.013523,0.002678,0.000431,0.004936
16933000,0.0324,0.013523,0.002678,0.000431,0.001998
16934000,0.0324,0.013523,0.002678,0.000431,0.001645
16935000,0.0324,0.013523,0.002678,0.000431,0.001645
16936000,0.0324,0.013523,0.002678,0.000431,0.001880
16937000,0.0324,0.013523,0.002678,0.000431,0.001763
16938000,0.0324,0.013523,0.002678,0.000431,0.001528
16939000,0.0324,0.013523,0.002678,0.000431,0.001880
16940000,0.0324,0.013523,0.002678,0.000431,0.001528
16941000,0.0324,0.013523,0.002678,0.000431,0.001880
16942000,0.0324,0.013523,0.002678,0.000431,0.001645
16943000,0.0324,0.013523,0.002678,0.000431,0.001763
16944000,0.0324,0.013523,0.002678,0.000431,0.001645
16945000,0.0324,0.013523,0.002678,0.000431,0.001645
16946000,0.0324,0.013523,0.002678,0.000431,0.001880
16947000,0.0324,0.013523,0.002678,0.000431,0.001645
16948000,0.0324,0.013523,0.002678,0.000431,0.001645
16949000,0.0324,0.013523,0.002678,0.000431,0.001763
16950000,0.0324,0.013523,0.002678,0.000431,0.001763
16951000,0.0324,0.013523,0.002678,0.000431,0.001763
16952000,0.0324,0.013523,0.002678,0.000431,0.001645
16953000,0.0324,0.013523,0.002678,0.000431,0.001645
16954000,0.0324,0.013523,0.002678,0.000431,0.001763
16955000,0.0324,0.013523,0.002678,0.000431,0.001880
16956000,0.0324,0.013523,0.002678,0.000431,0.001528
16957000,0.0324,0.013523,0.002678,0.000431,0.001763
16958000,0.0324,0.013523,0.002678,0.000431,0.001645
16959000,0.0324,0.013523,0.002678,0.000431,0.001763
16960000,0.0324,0.013523,0.002678,0.000431,0.001880
16961000,0.0324,0.013523,0.002678,0.000431,0.003173
16962000,0.0324,0.013523,0.002678,0.000431,0.006934
16963000,0.0324,0.013523,0.002678,0.000431,0.521708
16964000,0.0324,0.013523,0.002678,0.000431,0.664152
16965000,0.0324,0.013523,0.002678,0.000431,0.133982
16966000,0.0324,0.013523,0.002678,0.000431,0.132572
16967000,0.0324,0.013523,0.002678,0.000431,0.249395
16968000,0.0324,0.013523,0.002678,0.000431,0.503138
16969000,0.0324,0.013523,0.002678,0.000431,0.214842
16970000,0.0324,0.013523,0.002678,0.000431,0.315446
16971000,0.0324,0.013523,0.002678,0.000431,0.191336
16972000,0.0324,0.013523,0.002678,0.000431,0.139741
16973000,0.0324,0.013523,0.002678,0.000431,0.170886
16974000,0.0324,0.013523,0.002678,0.000431,0.113650
16975000,0.0324,0.013523,0.002678,0.000431,0.478105
16976000,0.0324,0.013523,0.002678,0.000431,0.104600
16977000,0.0324,0.013523,0.002678,0.000431,0.085090
16978000,0.0324,0.013523,0.002678,0.000431,0.077804
16979000,0.0324,0.013523,0.002678,0.000431,0.055121
16980000,0.0324,0.013523,0.002678,0.000431,0.041723
16981000,0.0324,0.013523,0.002678,0.000431,0.040782
16982000,0.0324,0.013523,0.002678,0.000431,0.023976
16983000,0.0324,0.013523,0.002678,0.000431,0.024446
16984000,0.0324,0.013523,0.002678,0.000431,0.021390
16985000,0.0324,0.013523,0.002678,0.000431,0.018687
16986000,0.0324,0.013523,0.002678,0.000431,0.017277
16987000,0.0324,0.013523,0.002678,0.000431,0.013633
16988000,0.0324,0.013523,0.002678,0.000431,0.017277
16989000,0.0324,0.013523,0.002678,0.000431,0.014338
16990000,0.0324,0.013523,0.002678,0.000431,0.013163
16991000,0.0324,0.013523,0.002678,0.000431,0.007992
16992000,0.0324,0.013523,0.002678,0.000431,0.009167
16993000,0.0324,0.013523,0.002678,0.000431,0.005406
16994000,0.0324,0.013523,0.002678,0.000431,0.002703
16995000,0.0324,0.013523,0.002678,0.000431,0.002586
16996000,0.0324,0.013523,0.002678,0.000431,0.002821
16997000,0.0324,0.013523,0.002678,0.000431,0.002586
16998000,0.0324,0.013523,0.002678,0.000431,0.002468
16999000,0.0324,0.013523,0.002678,0.000431,0.002586
