Cycle,Area(mm^2),PeakDynamic(W),SubthresholdLeakage(W),GateLeakage(W),RunTimeDynamic(W)
115000000,0.0324,0.013523,0.002678,0.000431,0.144677
115001000,0.0324,0.013523,0.002678,0.000431,0.144677
115002000,0.0324,0.013523,0.002678,0.000431,0.601509
115003000,0.0324,0.013523,0.002678,0.000431,0.280070
115004000,0.0324,0.013523,0.002678,0.000431,0.364925
115005000,0.0324,0.013523,0.002678,0.000431,0.200856
115006000,0.0324,0.013523,0.002678,0.000431,0.167243
115007000,0.0324,0.013523,0.002678,0.000431,0.088264
115008000,0.0324,0.013523,0.002678,0.000431,0.523588
115009000,0.0324,0.013523,0.002678,0.000431,0.241050
115010000,0.0324,0.013523,0.002678,0.000431,0.192394
115011000,0.0324,0.013523,0.002678,0.000431,0.159368
115012000,0.0324,0.013523,0.002678,0.000431,0.134217
115013000,0.0324,0.013523,0.002678,0.000431,0.121994
115014000,0.0324,0.013523,0.002678,0.000431,0.106363
115015000,0.0324,0.013523,0.002678,0.000431,0.096961
115016000,0.0324,0.013523,0.002678,0.000431,0.081917
115017000,0.0324,0.013523,0.002678,0.000431,0.066051
115018000,0.0324,0.013523,0.002678,0.000431,0.069577
115019000,0.0324,0.013523,0.002678,0.000431,0.048069
115020000,0.0324,0.013523,0.002678,0.000431,0.044073
115021000,0.0324,0.013523,0.002678,0.000431,0.042075
115022000,0.0324,0.013523,0.002678,0.000431,0.037021
115023000,0.0324,0.013523,0.002678,0.000431,0.037021
115024000,0.0324,0.013523,0.002678,0.000431,0.032203
115025000,0.0324,0.013523,0.002678,0.000431,0.028324
115026000,0.0324,0.013523,0.002678,0.000431,0.021860
115027000,0.0324,0.013523,0.002678,0.000431,0.034788
115028000,0.0324,0.013523,0.002678,0.000431,0.014456
115029000,0.0324,0.013523,0.002678,0.000431,0.013046
115030000,0.0324,0.013523,0.002678,0.000431,0.010695
115031000,0.0324,0.013523,0.002678,0.000431,0.013163
115032000,0.0324,0.013523,0.002678,0.000431,0.011518
115033000,0.0324,0.013523,0.002678,0.000431,0.011988
115034000,0.0324,0.013523,0.002678,0.000431,0.007287
115035000,0.0324,0.013523,0.002678,0.000431,0.008462
115036000,0.0324,0.013523,0.002678,0.000431,0.009285
115037000,0.0324,0.013523,0.002678,0.000431,0.004701
115038000,0.0324,0.013523,0.002678,0.000431,0.007992
115039000,0.0324,0.013523,0.002678,0.000431,0.000940
115040000,0.0324,0.013523,0.002678,0.000431,0.000823
115041000,0.0324,0.013523,0.002678,0.000431,0.000823
115042000,0.0324,0.013523,0.002678,0.000431,0.000940
115043000,0.0324,0.013523,0.002678,0.000431,0.002586
115044000,0.0324,0.013523,0.002678,0.000431,0.548386
115045000,0.0324,0.013523,0.002678,0.000431,0.716804
115046000,0.0324,0.013523,0.002678,0.000431,0.152199
115047000,0.0324,0.013523,0.002678,0.000431,0.137273
115048000,0.0324,0.013523,0.002678,0.000431,0.443199
115049000,0.0324,0.013523,0.002678,0.000431,0.345768
115050000,0.0324,0.013523,0.002678,0.000431,0.278777
115051000,0.0324,0.013523,0.002678,0.000431,0.352937
115052000,0.0324,0.013523,0.002678,0.000431,0.147263
115053000,0.0324,0.013523,0.002678,0.000431,0.143032
115054000,0.0324,0.013523,0.002678,0.000431,0.200621
115055000,0.0324,0.013523,0.002678,0.000431,0.506546
115056000,0.0324,0.013523,0.002678,0.000431,0.249982
115057000,0.0324,0.013523,0.002678,0.000431,0.196390
115058000,0.0324,0.013523,0.002678,0.000431,0.174059
115059000,0.0324,0.013523,0.002678,0.000431,0.152081
115060000,0.0324,0.013523,0.002678,0.000431,0.122229
115061000,0.0324,0.013523,0.002678,0.000431,0.114002
115062000,0.0324,0.013523,0.002678,0.000431,0.094493
115063000,0.0324,0.013523,0.002678,0.000431,0.088616
115064000,0.0324,0.013523,0.002678,0.000431,0.073690
115065000,0.0324,0.013523,0.002678,0.000431,0.068989
115066000,0.0324,0.013523,0.002678,0.000431,0.061232
115067000,0.0324,0.013523,0.002678,0.000431,0.043956
115068000,0.0324,0.013523,0.002678,0.000431,0.041840
115069000,0.0324,0.013523,0.002678,0.000431,0.038902
115070000,0.0324,0.013523,0.002678,0.000431,0.042428
115071000,0.0324,0.013523,0.002678,0.000431,0.028324
115072000,0.0324,0.013523,0.002678,0.000431,0.022918
115073000,0.0324,0.013523,0.002678,0.000431,0.019862
115074000,0.0324,0.013523,0.002678,0.000431,0.021508
115075000,0.0324,0.013523,0.002678,0.000431,0.013046
115076000,0.0324,0.013523,0.002678,0.000431,0.017747
115077000,0.0324,0.013523,0.002678,0.000431,0.010813
115078000,0.0324,0.013523,0.002678,0.000431,0.013751
115079000,0.0324,0.013523,0.002678,0.000431,0.013163
115080000,0.0324,0.013523,0.002678,0.000431,0.008345
115081000,0.0324,0.013523,0.002678,0.000431,0.009402
115082000,0.0324,0.013523,0.002678,0.000431,0.002703
115083000,0.0324,0.013523,0.002678,0.000431,0.002586
115084000,0.0324,0.013523,0.002678,0.000431,0.005641
115085000,0.0324,0.013523,0.002678,0.000431,0.001763
115086000,0.0324,0.013523,0.002678,0.000431,0.001763
115087000,0.0324,0.013523,0.002678,0.000431,0.003996
115088000,0.0324,0.013523,0.002678,0.000431,0.000705
115089000,0.0324,0.013523,0.002678,0.000431,0.000940
115090000,0.0324,0.013523,0.002678,0.000431,0.072045
115091000,0.0324,0.013523,0.002678,0.000431,0.745834
115092000,0.0324,0.013523,0.002678,0.000431,0.569542
115093000,0.0324,0.013523,0.002678,0.000431,0.161131
115094000,0.0324,0.013523,0.002678,0.000431,0.161366
115095000,0.0324,0.013523,0.002678,0.000431,0.617493
115096000,0.0324,0.013523,0.002678,0.000431,0.241638
115097000,0.0324,0.013523,0.002678,0.000431,0.337658
115098000,0.0324,0.013523,0.002678,0.000431,0.196742
115099000,0.0324,0.013523,0.002678,0.000431,0.161366
115100000,0.0324,0.013523,0.002678,0.000431,0.108949
115101000,0.0324,0.013523,0.002678,0.000431,0.442729
115102000,0.0324,0.013523,0.002678,0.000431,0.289942
115103000,0.0324,0.013523,0.002678,0.000431,0.186517
115104000,0.0324,0.013523,0.002678,0.000431,0.174412
115105000,0.0324,0.013523,0.002678,0.000431,0.165127
115106000,0.0324,0.013523,0.002678,0.000431,0.135157
115107000,0.0324,0.013523,0.002678,0.000431,0.135392
115108000,0.0324,0.013523,0.002678,0.000431,0.127401
115109000,0.0324,0.013523,0.002678,0.000431,0.109301
115110000,0.0324,0.013523,0.002678,0.000431,0.096256
115111000,0.0324,0.013523,0.002678,0.000431,0.078861
115112000,0.0324,0.013523,0.002678,0.000431,0.073690
115113000,0.0324,0.013523,0.002678,0.000431,0.070164
115114000,0.0324,0.013523,0.002678,0.000431,0.067109
115115000,0.0324,0.013523,0.002678,0.000431,0.060527
115116000,0.0324,0.013523,0.002678,0.000431,0.052300
115117000,0.0324,0.013523,0.002678,0.000431,0.044308
115118000,0.0324,0.013523,0.002678,0.000431,0.045248
115119000,0.0324,0.013523,0.002678,0.000431,0.048304
115120000,0.0324,0.013523,0.002678,0.000431,0.040195
115121000,0.0324,0.013523,0.002678,0.000431,0.046071
115122000,0.0324,0.013523,0.002678,0.000431,0.035611
115123000,0.0324,0.013523,0.002678,0.000431,0.034436
115124000,0.0324,0.013523,0.002678,0.000431,0.032908
115125000,0.0324,0.013523,0.002678,0.000431,0.031615
115126000,0.0324,0.013523,0.002678,0.000431,0.027384
115127000,0.0324,0.013523,0.002678,0.000431,0.031145
115128000,0.0324,0.013523,0.002678,0.000431,0.026679
115129000,0.0324,0.013523,0.002678,0.000431,0.028794
115130000,0.0324,0.013523,0.002678,0.000431,0.025739
115131000,0.0324,0.013523,0.002678,0.000431,0.024328
115132000,0.0324,0.013523,0.002678,0.000431,0.021860
115133000,0.0324,0.013523,0.002678,0.000431,0.022213
115134000,0.0324,0.013523,0.002678,0.000431,0.021038
115135000,0.0324,0.013523,0.002678,0.000431,0.019040
115136000,0.0324,0.013523,0.002678,0.000431,0.014926
115137000,0.0324,0.013523,0.002678,0.000431,0.015749
115138000,0.0324,0.013523,0.002678,0.000431,0.012223
115139000,0.0324,0.013523,0.002678,0.000431,0.014456
115140000,0.0324,0.013523,0.002678,0.000431,0.014103
115141000,0.0324,0.013523,0.002678,0.000431,0.010695
115142000,0.0324,0.013523,0.002678,0.000431,0.009520
115143000,0.0324,0.013523,0.002678,0.000431,0.013516
115144000,0.0324,0.013523,0.002678,0.000431,0.008227
115145000,0.0324,0.013523,0.002678,0.000431,0.005876
115146000,0.0324,0.013523,0.002678,0.000431,0.005994
115147000,0.0324,0.013523,0.002678,0.000431,0.010695
115148000,0.0324,0.013523,0.002678,0.000431,0.004231
115149000,0.0324,0.013523,0.002678,0.000431,0.006111
115150000,0.0324,0.013523,0.002678,0.000431,0.005876
115151000,0.0324,0.013523,0.002678,0.000431,0.003408
115152000,0.0324,0.013523,0.002678,0.000431,0.003408
115153000,0.0324,0.013523,0.002678,0.000431,0.006229
115154000,0.0324,0.013523,0.002678,0.000431,0.004819
115155000,0.0324,0.013523,0.002678,0.000431,0.011635
115156000,0.0324,0.013523,0.002678,0.000431,0.607268
115157000,0.0324,0.013523,0.002678,0.000431,0.641469
115158000,0.0324,0.013523,0.002678,0.000431,0.156900
115159000,0.0324,0.013523,0.002678,0.000431,0.136803
115160000,0.0324,0.013523,0.002678,0.000431,0.462826
115161000,0.0324,0.013523,0.002678,0.000431,0.342830
115162000,0.0324,0.013523,0.002678,0.000431,0.275133
115163000,0.0324,0.013523,0.002678,0.000431,0.315093
115164000,0.0324,0.013523,0.002678,0.000431,0.141504
115165000,0.0324,0.013523,0.002678,0.000431,0.165480
115166000,0.0324,0.013523,0.002678,0.000431,0.103307
115167000,0.0324,0.013523,0.002678,0.000431,0.507839
115168000,0.0324,0.013523,0.002678,0.000431,0.287121
115169000,0.0324,0.013523,0.002678,0.000431,0.201678
115170000,0.0324,0.013523,0.002678,0.000431,0.180053
115171000,0.0324,0.013523,0.002678,0.000431,0.148203
115172000,0.0324,0.013523,0.002678,0.000431,0.153257
115173000,0.0324,0.013523,0.002678,0.000431,0.121642
115174000,0.0324,0.013523,0.002678,0.000431,0.109771
115175000,0.0324,0.013523,0.002678,0.000431,0.103660
115176000,0.0324,0.013523,0.002678,0.000431,0.090497
115177000,0.0324,0.013523,0.002678,0.000431,0.086148
115178000,0.0324,0.013523,0.002678,0.000431,0.078274
115179000,0.0324,0.013523,0.002678,0.000431,0.063583
115180000,0.0324,0.013523,0.002678,0.000431,0.074513
115181000,0.0324,0.013523,0.002678,0.000431,0.048774
115182000,0.0324,0.013523,0.002678,0.000431,0.039372
115183000,0.0324,0.013523,0.002678,0.000431,0.036199
115184000,0.0324,0.013523,0.002678,0.000431,0.039960
115185000,0.0324,0.013523,0.002678,0.000431,0.033496
115186000,0.0324,0.013523,0.002678,0.000431,0.027972
115187000,0.0324,0.013523,0.002678,0.000431,0.022213
115188000,0.0324,0.013523,0.002678,0.000431,0.024798
115189000,0.0324,0.013523,0.002678,0.000431,0.024681
115190000,0.0324,0.013523,0.002678,0.000431,0.013281
115191000,0.0324,0.013523,0.002678,0.000431,0.013398
115192000,0.0324,0.013523,0.002678,0.000431,0.014221
115193000,0.0324,0.013523,0.002678,0.000431,0.018569
115194000,0.0324,0.013523,0.002678,0.000431,0.015396
115195000,0.0324,0.013523,0.002678,0.000431,0.009755
115196000,0.0324,0.013523,0.002678,0.000431,0.011048
115197000,0.0324,0.013523,0.002678,0.000431,0.007757
115198000,0.0324,0.013523,0.002678,0.000431,0.009990
115199000,0.0324,0.013523,0.002678,0.000431,0.008462
115200000,0.0324,0.013523,0.002678,0.000431,0.008109
115201000,0.0324,0.013523,0.002678,0.000431,0.007169
115202000,0.0324,0.013523,0.002678,0.000431,0.006347
115203000,0.0324,0.013523,0.002678,0.000431,0.007639
115204000,0.0324,0.013523,0.002678,0.000431,0.008109
115205000,0.0324,0.013523,0.002678,0.000431,0.005876
115206000,0.0324,0.013523,0.002678,0.000431,0.008697
115207000,0.0324,0.013523,0.002678,0.000431,0.004584
115208000,0.0324,0.013523,0.002678,0.000431,0.005641
115209000,0.0324,0.013523,0.002678,0.000431,0.005289
115210000,0.0324,0.013523,0.002678,0.000431,0.004701
115211000,0.0324,0.013523,0.002678,0.000431,0.005876
115212000,0.0324,0.013523,0.002678,0.000431,0.004701
115213000,0.0324,0.013523,0.002678,0.000431,0.005524
115214000,0.0324,0.013523,0.002678,0.000431,0.005289
115215000,0.0324,0.013523,0.002678,0.000431,0.004936
115216000,0.0324,0.013523,0.002678,0.000431,0.005406
115217000,0.0324,0.013523,0.002678,0.000431,0.005054
115218000,0.0324,0.013523,0.002678,0.000431,0.005054
115219000,0.0324,0.013523,0.002678,0.000431,0.005524
115220000,0.0324,0.013523,0.002678,0.000431,0.005289
115221000,0.0324,0.013523,0.002678,0.000431,0.005406
115222000,0.0324,0.013523,0.002678,0.000431,0.005054
115223000,0.0324,0.013523,0.002678,0.000431,0.005289
115224000,0.0324,0.013523,0.002678,0.000431,0.005289
115225000,0.0324,0.013523,0.002678,0.000431,0.010342
115226000,0.0324,0.013523,0.002678,0.000431,0.003996
115227000,0.0324,0.013523,0.002678,0.000431,0.003761
115228000,0.0324,0.013523,0.002678,0.000431,0.003408
115229000,0.0324,0.013523,0.002678,0.000431,0.003761
115230000,0.0324,0.013523,0.002678,0.000431,0.003408
115231000,0.0324,0.013523,0.002678,0.000431,0.004113
115232000,0.0324,0.013523,0.002678,0.000431,0.003291
115233000,0.0324,0.013523,0.002678,0.000431,0.003643
115234000,0.0324,0.013523,0.002678,0.000431,0.003643
115235000,0.0324,0.013523,0.002678,0.000431,0.003526
115236000,0.0324,0.013523,0.002678,0.000431,0.003878
115237000,0.0324,0.013523,0.002678,0.000431,0.003408
115238000,0.0324,0.013523,0.002678,0.000431,0.003526
115239000,0.0324,0.013523,0.002678,0.000431,0.003878
115240000,0.0324,0.013523,0.002678,0.000431,0.003408
115241000,0.0324,0.013523,0.002678,0.000431,0.003761
115242000,0.0324,0.013523,0.002678,0.000431,0.003761
115243000,0.0324,0.013523,0.002678,0.000431,0.003526
115244000,0.0324,0.013523,0.002678,0.000431,0.003878
115245000,0.0324,0.013523,0.002678,0.000431,0.003291
115246000,0.0324,0.013523,0.002678,0.000431,0.003996
115247000,0.0324,0.013523,0.002678,0.000431,0.003526
115248000,0.0324,0.013523,0.002678,0.000431,0.003291
115249000,0.0324,0.013523,0.002678,0.000431,0.004113
115250000,0.0324,0.013523,0.002678,0.000431,0.003173
115251000,0.0324,0.013523,0.002678,0.000431,0.004231
115252000,0.0324,0.013523,0.002678,0.000431,0.003643
115253000,0.0324,0.013523,0.002678,0.000431,0.003761
115254000,0.0324,0.013523,0.002678,0.000431,0.003291
115255000,0.0324,0.013523,0.002678,0.000431,0.002351
115256000,0.0324,0.013523,0.002678,0.000431,0.002703
115257000,0.0324,0.013523,0.002678,0.000431,0.002468
115258000,0.0324,0.013523,0.002678,0.000431,0.002586
115259000,0.0324,0.013523,0.002678,0.000431,0.002586
115260000,0.0324,0.013523,0.002678,0.000431,0.002586
115261000,0.0324,0.013523,0.002678,0.000431,0.003761
115262000,0.0324,0.013523,0.002678,0.000431,0.001763
115263000,0.0324,0.013523,0.002678,0.000431,0.001763
115264000,0.0324,0.013523,0.002678,0.000431,0.001763
115265000,0.0324,0.013523,0.002678,0.000431,0.001763
115266000,0.0324,0.013523,0.002678,0.000431,0.001763
115267000,0.0324,0.013523,0.002678,0.000431,0.001763
115268000,0.0324,0.013523,0.002678,0.000431,0.001763
115269000,0.0324,0.013523,0.002678,0.000431,0.003878
115270000,0.0324,0.013523,0.002678,0.000431,0.001058
115271000,0.0324,0.013523,0.002678,0.000431,0.000823
115272000,0.0324,0.013523,0.002678,0.000431,0.000823
115273000,0.0324,0.013523,0.002678,0.000431,0.000940
115274000,0.0324,0.013523,0.002678,0.000431,0.000940
115275000,0.0324,0.013523,0.002678,0.000431,0.000705
115276000,0.0324,0.013523,0.002678,0.000431,0.000940
115277000,0.0324,0.013523,0.002678,0.000431,0.000823
115278000,0.0324,0.013523,0.002678,0.000431,0.000823
115279000,0.0324,0.013523,0.002678,0.000431,0.000940
115280000,0.0324,0.013523,0.002678,0.000431,0.000823
115281000,0.0324,0.013523,0.002678,0.000431,0.000823
115282000,0.0324,0.013523,0.002678,0.000431,0.000940
115283000,0.0324,0.013523,0.002678,0.000431,0.000705
115284000,0.0324,0.013523,0.002678,0.000431,0.002821
115285000,0.0324,0.013523,0.002678,0.000431,0.451191
115286000,0.0324,0.013523,0.002678,0.000431,0.714101
115287000,0.0324,0.013523,0.002678,0.000431,0.285593
115288000,0.0324,0.013523,0.002678,0.000431,0.144912
115289000,0.0324,0.013523,0.002678,0.000431,0.321792
115290000,0.0324,0.013523,0.002678,0.000431,0.524411
115291000,0.0324,0.013523,0.002678,0.000431,0.265496
115292000,0.0324,0.013523,0.002678,0.000431,0.305338
115293000,0.0324,0.013523,0.002678,0.000431,0.148791
115294000,0.0324,0.013523,0.002678,0.000431,0.167125
115295000,0.0324,0.013523,0.002678,0.000431,0.129986
115296000,0.0324,0.013523,0.002678,0.000431,0.493148
115297000,0.0324,0.013523,0.002678,0.000431,0.216839
115298000,0.0324,0.013523,0.002678,0.000431,0.162424
115299000,0.0324,0.013523,0.002678,0.000431,0.149261
115300000,0.0324,0.013523,0.002678,0.000431,0.138566
115301000,0.0324,0.013523,0.002678,0.000431,0.132102
115302000,0.0324,0.013523,0.002678,0.000431,0.113297
115303000,0.0324,0.013523,0.002678,0.000431,0.093435
115304000,0.0324,0.013523,0.002678,0.000431,0.085678
115305000,0.0324,0.013523,0.002678,0.000431,0.085208
115306000,0.0324,0.013523,0.002678,0.000431,0.078861
115307000,0.0324,0.013523,0.002678,0.000431,0.066638
115308000,0.0324,0.013523,0.002678,0.000431,0.065816
115309000,0.0324,0.013523,0.002678,0.000431,0.057941
115310000,0.0324,0.013523,0.002678,0.000431,0.050537
115311000,0.0324,0.013523,0.002678,0.000431,0.040547
115312000,0.0324,0.013523,0.002678,0.000431,0.038197
115313000,0.0324,0.013523,0.002678,0.000431,0.036669
115314000,0.0324,0.013523,0.002678,0.000431,0.028442
115315000,0.0324,0.013523,0.002678,0.000431,0.036199
115316000,0.0324,0.013523,0.002678,0.000431,0.021273
115317000,0.0324,0.013523,0.002678,0.000431,0.021743
115318000,0.0324,0.013523,0.002678,0.000431,0.016807
115319000,0.0324,0.013523,0.002678,0.000431,0.019745
115320000,0.0324,0.013523,0.002678,0.000431,0.017159
115321000,0.0324,0.013523,0.002678,0.000431,0.014338
115322000,0.0324,0.013523,0.002678,0.000431,0.015984
115323000,0.0324,0.013523,0.002678,0.000431,0.017277
115324000,0.0324,0.013523,0.002678,0.000431,0.012928
115325000,0.0324,0.013523,0.002678,0.000431,0.011635
115326000,0.0324,0.013523,0.002678,0.000431,0.008932
115327000,0.0324,0.013523,0.002678,0.000431,0.009520
115328000,0.0324,0.013523,0.002678,0.000431,0.008932
115329000,0.0324,0.013523,0.002678,0.000431,0.008580
115330000,0.0324,0.013523,0.002678,0.000431,0.009990
115331000,0.0324,0.013523,0.002678,0.000431,0.013516
115332000,0.0324,0.013523,0.002678,0.000431,0.006111
115333000,0.0324,0.013523,0.002678,0.000431,0.004349
115334000,0.0324,0.013523,0.002678,0.000431,0.002116
115335000,0.0324,0.013523,0.002678,0.000431,0.001528
115336000,0.0324,0.013523,0.002678,0.000431,0.001763
115337000,0.0324,0.013523,0.002678,0.000431,0.001410
115338000,0.0324,0.013523,0.002678,0.000431,0.001645
115339000,0.0324,0.013523,0.002678,0.000431,0.001410
115340000,0.0324,0.013523,0.002678,0.000431,0.001645
115341000,0.0324,0.013523,0.002678,0.000431,0.001645
115342000,0.0324,0.013523,0.002678,0.000431,0.001645
115343000,0.0324,0.013523,0.002678,0.000431,0.001410
115344000,0.0324,0.013523,0.002678,0.000431,0.001645
115345000,0.0324,0.013523,0.002678,0.000431,0.001645
115346000,0.0324,0.013523,0.002678,0.000431,0.001410
115347000,0.0324,0.013523,0.002678,0.000431,0.001880
115348000,0.0324,0.013523,0.002678,0.000431,0.001410
115349000,0.0324,0.013523,0.002678,0.000431,0.001645
115350000,0.0324,0.013523,0.002678,0.000431,0.001410
115351000,0.0324,0.013523,0.002678,0.000431,0.001645
115352000,0.0324,0.013523,0.002678,0.000431,0.001880
115353000,0.0324,0.013523,0.002678,0.000431,0.001175
115354000,0.0324,0.013523,0.002678,0.000431,0.001880
115355000,0.0324,0.013523,0.002678,0.000431,0.001410
115356000,0.0324,0.013523,0.002678,0.000431,0.001645
115357000,0.0324,0.013523,0.002678,0.000431,0.001645
115358000,0.0324,0.013523,0.002678,0.000431,0.001410
115359000,0.0324,0.013523,0.002678,0.000431,0.001645
115360000,0.0324,0.013523,0.002678,0.000431,0.001645
115361000,0.0324,0.013523,0.002678,0.000431,0.001645
115362000,0.0324,0.013523,0.002678,0.000431,0.001410
115363000,0.0324,0.013523,0.002678,0.000431,0.001645
115364000,0.0324,0.013523,0.002678,0.000431,0.001645
115365000,0.0324,0.013523,0.002678,0.000431,0.001645
115366000,0.0324,0.013523,0.002678,0.000431,0.001410
115367000,0.0324,0.013523,0.002678,0.000431,0.001645
115368000,0.0324,0.013523,0.002678,0.000431,0.001410
115369000,0.0324,0.013523,0.002678,0.000431,0.001645
115370000,0.0324,0.013523,0.002678,0.000431,0.001880
115371000,0.0324,0.013523,0.002678,0.000431,0.001175
115372000,0.0324,0.013523,0.002678,0.000431,0.001880
115373000,0.0324,0.013523,0.002678,0.000431,0.001293
115374000,0.0324,0.013523,0.002678,0.000431,0.001763
115375000,0.0324,0.013523,0.002678,0.000431,0.064758
115376000,0.0324,0.013523,0.002678,0.000431,0.653339
115377000,0.0324,0.013523,0.002678,0.000431,0.599864
115378000,0.0324,0.013523,0.002678,0.000431,0.136568
115379000,0.0324,0.013523,0.002678,0.000431,0.134452
115380000,0.0324,0.013523,0.002678,0.000431,0.638413
115381000,0.0324,0.013523,0.002678,0.000431,0.239993
115382000,0.0324,0.013523,0.002678,0.000431,0.306043
115383000,0.0324,0.013523,0.002678,0.000431,0.232588
115384000,0.0324,0.013523,0.002678,0.000431,0.153139
115385000,0.0324,0.013523,0.002678,0.000431,0.111887
115386000,0.0324,0.013523,0.002678,0.000431,0.379263
115387000,0.0324,0.013523,0.002678,0.000431,0.368098
115388000,0.0324,0.013523,0.002678,0.000431,0.190513
115389000,0.0324,0.013523,0.002678,0.000431,0.163717
115390000,0.0324,0.013523,0.002678,0.000431,0.157605
115391000,0.0324,0.013523,0.002678,0.000431,0.134570
115392000,0.0324,0.013523,0.002678,0.000431,0.115060
115393000,0.0324,0.013523,0.002678,0.000431,0.092025
115394000,0.0324,0.013523,0.002678,0.000431,0.075688
115395000,0.0324,0.013523,0.002678,0.000431,0.067696
115396000,0.0324,0.013523,0.002678,0.000431,0.075101
115397000,0.0324,0.013523,0.002678,0.000431,0.052770
115398000,0.0324,0.013523,0.002678,0.000431,0.051477
115399000,0.0324,0.013523,0.002678,0.000431,0.036316
115400000,0.0324,0.013523,0.002678,0.000431,0.040900
115401000,0.0324,0.013523,0.002678,0.000431,0.029382
115402000,0.0324,0.013523,0.002678,0.000431,0.021508
115403000,0.0324,0.013523,0.002678,0.000431,0.020450
115404000,0.0324,0.013523,0.002678,0.000431,0.019275
115405000,0.0324,0.013523,0.002678,0.000431,0.014809
115406000,0.0324,0.013523,0.002678,0.000431,0.016689
115407000,0.0324,0.013523,0.002678,0.000431,0.014926
115408000,0.0324,0.013523,0.002678,0.000431,0.008932
115409000,0.0324,0.013523,0.002678,0.000431,0.008932
115410000,0.0324,0.013523,0.002678,0.000431,0.008932
115411000,0.0324,0.013523,0.002678,0.000431,0.010695
115412000,0.0324,0.013523,0.002678,0.000431,0.011165
115413000,0.0324,0.013523,0.002678,0.000431,0.005289
115414000,0.0324,0.013523,0.002678,0.000431,0.009050
115415000,0.0324,0.013523,0.002678,0.000431,0.004349
115416000,0.0324,0.013523,0.002678,0.000431,0.003526
115417000,0.0324,0.013523,0.002678,0.000431,0.005759
115418000,0.0324,0.013523,0.002678,0.000431,0.002703
115419000,0.0324,0.013523,0.002678,0.000431,0.002703
115420000,0.0324,0.013523,0.002678,0.000431,0.002351
115421000,0.0324,0.013523,0.002678,0.000431,0.006582
115422000,0.0324,0.013523,0.002678,0.000431,0.002821
115423000,0.0324,0.013523,0.002678,0.000431,0.002233
115424000,0.0324,0.013523,0.002678,0.000431,0.000705
115425000,0.0324,0.013523,0.002678,0.000431,0.000940
115426000,0.0324,0.013523,0.002678,0.000431,0.000823
115427000,0.0324,0.013523,0.002678,0.000431,0.000940
115428000,0.0324,0.013523,0.002678,0.000431,0.014573
115429000,0.0324,0.013523,0.002678,0.000431,0.703524
115430000,0.0324,0.013523,0.002678,0.000431,0.579061
115431000,0.0324,0.013523,0.002678,0.000431,0.172649
115432000,0.0324,0.013523,0.002678,0.000431,0.161131
115433000,0.0324,0.013523,0.002678,0.000431,0.634887
115434000,0.0324,0.013523,0.002678,0.000431,0.273723
115435000,0.0324,0.013523,0.002678,0.000431,0.313448
115436000,0.0324,0.013523,0.002678,0.000431,0.225066
115437000,0.0324,0.013523,0.002678,0.000431,0.149378
115438000,0.0324,0.013523,0.002678,0.000431,0.109889
115439000,0.0324,0.013523,0.002678,0.000431,0.363045
115440000,0.0324,0.013523,0.002678,0.000431,0.428508
115441000,0.0324,0.013523,0.002678,0.000431,0.226947
115442000,0.0324,0.013523,0.002678,0.000431,0.186635
115443000,0.0324,0.013523,0.002678,0.000431,0.170416
115444000,0.0324,0.013523,0.002678,0.000431,0.142914
115445000,0.0324,0.013523,0.002678,0.000431,0.131984
115446000,0.0324,0.013523,0.002678,0.000431,0.117998
115447000,0.0324,0.013523,0.002678,0.000431,0.100722
115448000,0.0324,0.013523,0.002678,0.000431,0.096491
115449000,0.0324,0.013523,0.002678,0.000431,0.079096
115450000,0.0324,0.013523,0.002678,0.000431,0.074395
115451000,0.0324,0.013523,0.002678,0.000431,0.060057
115452000,0.0324,0.013523,0.002678,0.000431,0.053358
115453000,0.0324,0.013523,0.002678,0.000431,0.050537
115454000,0.0324,0.013523,0.002678,0.000431,0.046189
115455000,0.0324,0.013523,0.002678,0.000431,0.051712
115456000,0.0324,0.013523,0.002678,0.000431,0.038784
115457000,0.0324,0.013523,0.002678,0.000431,0.041840
115458000,0.0324,0.013523,0.002678,0.000431,0.033378
115459000,0.0324,0.013523,0.002678,0.000431,0.037844
115460000,0.0324,0.013523,0.002678,0.000431,0.027619
115461000,0.0324,0.013523,0.002678,0.000431,0.031850
115462000,0.0324,0.013523,0.002678,0.000431,0.026796
115463000,0.0324,0.013523,0.002678,0.000431,0.019745
115464000,0.0324,0.013523,0.002678,0.000431,0.018569
115465000,0.0324,0.013523,0.002678,0.000431,0.020332
115466000,0.0324,0.013523,0.002678,0.000431,0.015866
115467000,0.0324,0.013523,0.002678,0.000431,0.016101
115468000,0.0324,0.013523,0.002678,0.000431,0.015161
115469000,0.0324,0.013523,0.002678,0.000431,0.018334
115470000,0.0324,0.013523,0.002678,0.000431,0.017747
115471000,0.0324,0.013523,0.002678,0.000431,0.012105
115472000,0.0324,0.013523,0.002678,0.000431,0.010107
115473000,0.0324,0.013523,0.002678,0.000431,0.015514
115474000,0.0324,0.013523,0.002678,0.000431,0.008462
115475000,0.0324,0.013523,0.002678,0.000431,0.010225
115476000,0.0324,0.013523,0.002678,0.000431,0.008580
115477000,0.0324,0.013523,0.002678,0.000431,0.002703
115478000,0.0324,0.013523,0.002678,0.000431,0.002586
115479000,0.0324,0.013523,0.002678,0.000431,0.002468
115480000,0.0324,0.013523,0.002678,0.000431,0.002586
115481000,0.0324,0.013523,0.002678,0.000431,0.002586
115482000,0.0324,0.013523,0.002678,0.000431,0.002703
115483000,0.0324,0.013523,0.002678,0.000431,0.002703
115484000,0.0324,0.013523,0.002678,0.000431,0.002468
115485000,0.0324,0.013523,0.002678,0.000431,0.003878
115486000,0.0324,0.013523,0.002678,0.000431,0.005171
115487000,0.0324,0.013523,0.002678,0.000431,0.000823
115488000,0.0324,0.013523,0.002678,0.000431,0.000823
115489000,0.0324,0.013523,0.002678,0.000431,0.017512
115490000,0.0324,0.013523,0.002678,0.000431,0.774041
115491000,0.0324,0.013523,0.002678,0.000431,0.575888
115492000,0.0324,0.013523,0.002678,0.000431,0.171474
115493000,0.0324,0.013523,0.002678,0.000431,0.158075
115494000,0.0324,0.013523,0.002678,0.000431,0.584115
115495000,0.0324,0.013523,0.002678,0.000431,0.260795
115496000,0.0324,0.013523,0.002678,0.000431,0.330607
115497000,0.0324,0.013523,0.002678,0.000431,0.226359
115498000,0.0324,0.013523,0.002678,0.000431,0.175705
115499000,0.0324,0.013523,0.002678,0.000431,0.098371
115500000,0.0324,0.013523,0.002678,0.000431,0.388196
115501000,0.0324,0.013523,0.002678,0.000431,0.373857
115502000,0.0324,0.013523,0.002678,0.000431,0.198740
115503000,0.0324,0.013523,0.002678,0.000431,0.174412
115504000,0.0324,0.013523,0.002678,0.000431,0.164304
115505000,0.0324,0.013523,0.002678,0.000431,0.143737
115506000,0.0324,0.013523,0.002678,0.000431,0.136215
115507000,0.0324,0.013523,0.002678,0.000431,0.112592
115508000,0.0324,0.013523,0.002678,0.000431,0.097901
115509000,0.0324,0.013523,0.002678,0.000431,0.090614
115510000,0.0324,0.013523,0.002678,0.000431,0.071927
115511000,0.0324,0.013523,0.002678,0.000431,0.061115
115512000,0.0324,0.013523,0.002678,0.000431,0.057354
115513000,0.0324,0.013523,0.002678,0.000431,0.058059
115514000,0.0324,0.013523,0.002678,0.000431,0.053945
115515000,0.0324,0.013523,0.002678,0.000431,0.050655
115516000,0.0324,0.013523,0.002678,0.000431,0.033496
115517000,0.0324,0.013523,0.002678,0.000431,0.035729
115518000,0.0324,0.013523,0.002678,0.000431,0.030675
115519000,0.0324,0.013523,0.002678,0.000431,0.026679
115520000,0.0324,0.013523,0.002678,0.000431,0.025386
115521000,0.0324,0.013523,0.002678,0.000431,0.022330
115522000,0.0324,0.013523,0.002678,0.000431,0.019745
115523000,0.0324,0.013523,0.002678,0.000431,0.022683
115524000,0.0324,0.013523,0.002678,0.000431,0.014103
115525000,0.0324,0.013523,0.002678,0.000431,0.011870
115526000,0.0324,0.013523,0.002678,0.000431,0.011753
115527000,0.0324,0.013523,0.002678,0.000431,0.011283
115528000,0.0324,0.013523,0.002678,0.000431,0.007522
115529000,0.0324,0.013523,0.002678,0.000431,0.013281
115530000,0.0324,0.013523,0.002678,0.000431,0.005524
115531000,0.0324,0.013523,0.002678,0.000431,0.009167
115532000,0.0324,0.013523,0.002678,0.000431,0.005641
115533000,0.0324,0.013523,0.002678,0.000431,0.002703
115534000,0.0324,0.013523,0.002678,0.000431,0.002468
115535000,0.0324,0.013523,0.002678,0.000431,0.004584
115536000,0.0324,0.013523,0.002678,0.000431,0.001645
115537000,0.0324,0.013523,0.002678,0.000431,0.001763
115538000,0.0324,0.013523,0.002678,0.000431,0.001528
115539000,0.0324,0.013523,0.002678,0.000431,0.001763
115540000,0.0324,0.013523,0.002678,0.000431,0.001763
115541000,0.0324,0.013523,0.002678,0.000431,0.001528
115542000,0.0324,0.013523,0.002678,0.000431,0.001763
115543000,0.0324,0.013523,0.002678,0.000431,0.003291
115544000,0.0324,0.013523,0.002678,0.000431,0.000705
115545000,0.0324,0.013523,0.002678,0.000431,0.009167
115546000,0.0324,0.013523,0.002678,0.000431,0.611617
115547000,0.0324,0.013523,0.002678,0.000431,0.664622
115548000,0.0324,0.013523,0.002678,0.000431,0.157605
115549000,0.0324,0.013523,0.002678,0.000431,0.140681
115550000,0.0324,0.013523,0.002678,0.000431,0.482453
115551000,0.0324,0.013523,0.002678,0.000431,0.337306
115552000,0.0324,0.013523,0.002678,0.000431,0.264791
115553000,0.0324,0.013523,0.002678,0.000431,0.346943
115554000,0.0324,0.013523,0.002678,0.000431,0.147028
115555000,0.0324,0.013523,0.002678,0.000431,0.163364
115556000,0.0324,0.013523,0.002678,0.000431,0.138801
115557000,0.0324,0.013523,0.002678,0.000431,0.527584
115558000,0.0324,0.013523,0.002678,0.000431,0.274076
115559000,0.0324,0.013523,0.002678,0.000431,0.200268
115560000,0.0324,0.013523,0.002678,0.000431,0.183344
115561000,0.0324,0.013523,0.002678,0.000431,0.155255
115562000,0.0324,0.013523,0.002678,0.000431,0.141269
115563000,0.0324,0.013523,0.002678,0.000431,0.129281
115564000,0.0324,0.013523,0.002678,0.000431,0.108126
115565000,0.0324,0.013523,0.002678,0.000431,0.094728
115566000,0.0324,0.013523,0.002678,0.000431,0.078509
115567000,0.0324,0.013523,0.002678,0.000431,0.067931
115568000,0.0324,0.013523,0.002678,0.000431,0.072632
115569000,0.0324,0.013523,0.002678,0.000431,0.048657
115570000,0.0324,0.013523,0.002678,0.000431,0.045483
115571000,0.0324,0.013523,0.002678,0.000431,0.043720
115572000,0.0324,0.013523,0.002678,0.000431,0.035846
115573000,0.0324,0.013523,0.002678,0.000431,0.043133
115574000,0.0324,0.013523,0.002678,0.000431,0.036199
115575000,0.0324,0.013523,0.002678,0.000431,0.026209
115576000,0.0324,0.013523,0.002678,0.000431,0.025739
115577000,0.0324,0.013523,0.002678,0.000431,0.027502
115578000,0.0324,0.013523,0.002678,0.000431,0.014573
115579000,0.0324,0.013523,0.002678,0.000431,0.012340
115580000,0.0324,0.013523,0.002678,0.000431,0.014103
115581000,0.0324,0.013523,0.002678,0.000431,0.012811
115582000,0.0324,0.013523,0.002678,0.000431,0.014103
115583000,0.0324,0.013523,0.002678,0.000431,0.013046
115584000,0.0324,0.013523,0.002678,0.000431,0.009990
115585000,0.0324,0.013523,0.002678,0.000431,0.013046
115586000,0.0324,0.013523,0.002678,0.000431,0.011165
115587000,0.0324,0.013523,0.002678,0.000431,0.010813
115588000,0.0324,0.013523,0.002678,0.000431,0.007052
115589000,0.0324,0.013523,0.002678,0.000431,0.007404
115590000,0.0324,0.013523,0.002678,0.000431,0.008932
115591000,0.0324,0.013523,0.002678,0.000431,0.005524
115592000,0.0324,0.013523,0.002678,0.000431,0.007522
115593000,0.0324,0.013523,0.002678,0.000431,0.006111
115594000,0.0324,0.013523,0.002678,0.000431,0.005289
115595000,0.0324,0.013523,0.002678,0.000431,0.003526
115596000,0.0324,0.013523,0.002678,0.000431,0.004819
115597000,0.0324,0.013523,0.002678,0.000431,0.004936
115598000,0.0324,0.013523,0.002678,0.000431,0.002468
115599000,0.0324,0.013523,0.002678,0.000431,0.002468
115600000,0.0324,0.013523,0.002678,0.000431,0.002703
115601000,0.0324,0.013523,0.002678,0.000431,0.002468
115602000,0.0324,0.013523,0.002678,0.000431,0.002821
115603000,0.0324,0.013523,0.002678,0.000431,0.002351
115604000,0.0324,0.013523,0.002678,0.000431,0.002586
115605000,0.0324,0.013523,0.002678,0.000431,0.002468
115606000,0.0324,0.013523,0.002678,0.000431,0.002703
115607000,0.0324,0.013523,0.002678,0.000431,0.002468
115608000,0.0324,0.013523,0.002678,0.000431,0.002468
115609000,0.0324,0.013523,0.002678,0.000431,0.002821
115610000,0.0324,0.013523,0.002678,0.000431,0.003526
115611000,0.0324,0.013523,0.002678,0.000431,0.001763
115612000,0.0324,0.013523,0.002678,0.000431,0.001880
115613000,0.0324,0.013523,0.002678,0.000431,0.004936
115614000,0.0324,0.013523,0.002678,0.000431,0.000940
115615000,0.0324,0.013523,0.002678,0.000431,0.000823
115616000,0.0324,0.013523,0.002678,0.000431,0.000940
115617000,0.0324,0.013523,0.002678,0.000431,0.000823
115618000,0.0324,0.013523,0.002678,0.000431,0.000823
115619000,0.0324,0.013523,0.002678,0.000431,0.000940
115620000,0.0324,0.013523,0.002678,0.000431,0.000940
115621000,0.0324,0.013523,0.002678,0.000431,0.000705
115622000,0.0324,0.013523,0.002678,0.000431,0.001058
115623000,0.0324,0.013523,0.002678,0.000431,0.000823
115624000,0.0324,0.013523,0.002678,0.000431,0.000940
115625000,0.0324,0.013523,0.002678,0.000431,0.000823
115626000,0.0324,0.013523,0.002678,0.000431,0.000940
115627000,0.0324,0.013523,0.002678,0.000431,0.000823
115628000,0.0324,0.013523,0.002678,0.000431,0.236349
115629000,0.0324,0.013523,0.002678,0.000431,0.680958
115630000,0.0324,0.013523,0.002678,0.000431,0.512188
115631000,0.0324,0.013523,0.002678,0.000431,0.144560
115632000,0.0324,0.013523,0.002678,0.000431,0.192511
115633000,0.0324,0.013523,0.002678,0.000431,0.603507
115634000,0.0324,0.013523,0.002678,0.000431,0.262088
115635000,0.0324,0.013523,0.002678,0.000431,0.378206
115636000,0.0324,0.013523,0.002678,0.000431,0.167360
115637000,0.0324,0.013523,0.002678,0.000431,0.158546
115638000,0.0324,0.013523,0.002678,0.000431,0.153374
115639000,0.0324,0.013523,0.002678,0.000431,0.518887
115640000,0.0324,0.013523,0.002678,0.000431,0.254919
115641000,0.0324,0.013523,0.002678,0.000431,0.202266
115642000,0.0324,0.013523,0.002678,0.000431,0.176762
115643000,0.0324,0.013523,0.002678,0.000431,0.161366
115644000,0.0324,0.013523,0.002678,0.000431,0.139859
115645000,0.0324,0.013523,0.002678,0.000431,0.112592
115646000,0.0324,0.013523,0.002678,0.000431,0.105775
115647000,0.0324,0.013523,0.002678,0.000431,0.080859
115648000,0.0324,0.013523,0.002678,0.000431,0.082622
115649000,0.0324,0.013523,0.002678,0.000431,0.071340
115650000,0.0324,0.013523,0.002678,0.000431,0.064993
115651000,0.0324,0.013523,0.002678,0.000431,0.053593
115652000,0.0324,0.013523,0.002678,0.000431,0.053358
115653000,0.0324,0.013523,0.002678,0.000431,0.041370
115654000,0.0324,0.013523,0.002678,0.000431,0.036669
115655000,0.0324,0.013523,0.002678,0.000431,0.037256
115656000,0.0324,0.013523,0.002678,0.000431,0.030087
115657000,0.0324,0.013523,0.002678,0.000431,0.038667
115658000,0.0324,0.013523,0.002678,0.000431,0.030675
115659000,0.0324,0.013523,0.002678,0.000431,0.022448
115660000,0.0324,0.013523,0.002678,0.000431,0.022448
115661000,0.0324,0.013523,0.002678,0.000431,0.017159
115662000,0.0324,0.013523,0.002678,0.000431,0.017864
115663000,0.0324,0.013523,0.002678,0.000431,0.021508
115664000,0.0324,0.013523,0.002678,0.000431,0.016219
115665000,0.0324,0.013523,0.002678,0.000431,0.015044
115666000,0.0324,0.013523,0.002678,0.000431,0.022448
115667000,0.0324,0.013523,0.002678,0.000431,0.010225
115668000,0.0324,0.013523,0.002678,0.000431,0.005876
115669000,0.0324,0.013523,0.002678,0.000431,0.007639
115670000,0.0324,0.013523,0.002678,0.000431,0.003408
115671000,0.0324,0.013523,0.002678,0.000431,0.003173
115672000,0.0324,0.013523,0.002678,0.000431,0.003408
115673000,0.0324,0.013523,0.002678,0.000431,0.003056
115674000,0.0324,0.013523,0.002678,0.000431,0.003408
115675000,0.0324,0.013523,0.002678,0.000431,0.006464
115676000,0.0324,0.013523,0.002678,0.000431,0.005289
115677000,0.0324,0.013523,0.002678,0.000431,0.000940
115678000,0.0324,0.013523,0.002678,0.000431,0.181934
115679000,0.0324,0.013523,0.002678,0.000431,0.685424
115680000,0.0324,0.013523,0.002678,0.000431,0.541805
115681000,0.0324,0.013523,0.002678,0.000431,0.143737
115682000,0.0324,0.013523,0.002678,0.000431,0.152081
115683000,0.0324,0.013523,0.002678,0.000431,0.603272
115684000,0.0324,0.013523,0.002678,0.000431,0.258327
115685000,0.0324,0.013523,0.002678,0.000431,0.278189
115686000,0.0324,0.013523,0.002678,0.000431,0.201678
115687000,0.0324,0.013523,0.002678,0.000431,0.153139
115688000,0.0324,0.013523,0.002678,0.000431,0.140211
115689000,0.0324,0.013523,0.002678,0.000431,0.254213
115690000,0.0324,0.013523,0.002678,0.000431,0.465529
115691000,0.0324,0.013523,0.002678,0.000431,0.200738
115692000,0.0324,0.013523,0.002678,0.000431,0.163012
115693000,0.0324,0.013523,0.002678,0.000431,0.150319
115694000,0.0324,0.013523,0.002678,0.000431,0.135157
115695000,0.0324,0.013523,0.002678,0.000431,0.126343
115696000,0.0324,0.013523,0.002678,0.000431,0.114355
115697000,0.0324,0.013523,0.002678,0.000431,0.103895
115698000,0.0324,0.013523,0.002678,0.000431,0.083445
115699000,0.0324,0.013523,0.002678,0.000431,0.092142
115700000,0.0324,0.013523,0.002678,0.000431,0.065463
115701000,0.0324,0.013523,0.002678,0.000431,0.064053
115702000,0.0324,0.013523,0.002678,0.000431,0.054533
115703000,0.0324,0.013523,0.002678,0.000431,0.043485
115704000,0.0324,0.013523,0.002678,0.000431,0.045601
115705000,0.0324,0.013523,0.002678,0.000431,0.035846
115706000,0.0324,0.013523,0.002678,0.000431,0.035376
115707000,0.0324,0.013523,0.002678,0.000431,0.024328
115708000,0.0324,0.013523,0.002678,0.000431,0.020685
115709000,0.0324,0.013523,0.002678,0.000431,0.028089
115710000,0.0324,0.013523,0.002678,0.000431,0.021860
115711000,0.0324,0.013523,0.002678,0.000431,0.021390
115712000,0.0324,0.013523,0.002678,0.000431,0.012458
115713000,0.0324,0.013523,0.002678,0.000431,0.014456
115714000,0.0324,0.013523,0.002678,0.000431,0.011753
115715000,0.0324,0.013523,0.002678,0.000431,0.012340
115716000,0.0324,0.013523,0.002678,0.000431,0.008815
115717000,0.0324,0.013523,0.002678,0.000431,0.009872
115718000,0.0324,0.013523,0.002678,0.000431,0.009637
115719000,0.0324,0.013523,0.002678,0.000431,0.008932
115720000,0.0324,0.013523,0.002678,0.000431,0.010578
115721000,0.0324,0.013523,0.002678,0.000431,0.009167
115722000,0.0324,0.013523,0.002678,0.000431,0.007404
115723000,0.0324,0.013523,0.002678,0.000431,0.007169
115724000,0.0324,0.013523,0.002678,0.000431,0.006347
115725000,0.0324,0.013523,0.002678,0.000431,0.007639
115726000,0.0324,0.013523,0.002678,0.000431,0.006464
115727000,0.0324,0.013523,0.002678,0.000431,0.009637
115728000,0.0324,0.013523,0.002678,0.000431,0.006347
115729000,0.0324,0.013523,0.002678,0.000431,0.004936
115730000,0.0324,0.013523,0.002678,0.000431,0.007287
115731000,0.0324,0.013523,0.002678,0.000431,0.001645
115732000,0.0324,0.013523,0.002678,0.000431,0.001645
115733000,0.0324,0.013523,0.002678,0.000431,0.001645
115734000,0.0324,0.013523,0.002678,0.000431,0.001645
115735000,0.0324,0.013523,0.002678,0.000431,0.004584
115736000,0.0324,0.013523,0.002678,0.000431,0.450838
115737000,0.0324,0.013523,0.002678,0.000431,0.691653
115738000,0.0324,0.013523,0.002678,0.000431,0.271020
115739000,0.0324,0.013523,0.002678,0.000431,0.144560
115740000,0.0324,0.013523,0.002678,0.000431,0.255389
115741000,0.0324,0.013523,0.002678,0.000431,0.568601
115742000,0.0324,0.013523,0.002678,0.000431,0.242108
115743000,0.0324,0.013523,0.002678,0.000431,0.333898
115744000,0.0324,0.013523,0.002678,0.000431,0.148086
115745000,0.0324,0.013523,0.002678,0.000431,0.178878
115746000,0.0324,0.013523,0.002678,0.000431,0.089439
115747000,0.0324,0.013523,0.002678,0.000431,0.526761
115748000,0.0324,0.013523,0.002678,0.000431,0.280187
115749000,0.0324,0.013523,0.002678,0.000431,0.194392
115750000,0.0324,0.013523,0.002678,0.000431,0.172884
115751000,0.0324,0.013523,0.002678,0.000431,0.151141
115752000,0.0324,0.013523,0.002678,0.000431,0.114943
115753000,0.0324,0.013523,0.002678,0.000431,0.106598
115754000,0.0324,0.013523,0.002678,0.000431,0.091084
115755000,0.0324,0.013523,0.002678,0.000431,0.080154
115756000,0.0324,0.013523,0.002678,0.000431,0.075101
115757000,0.0324,0.013523,0.002678,0.000431,0.058882
115758000,0.0324,0.013523,0.002678,0.000431,0.055826
115759000,0.0324,0.013523,0.002678,0.000431,0.047951
115760000,0.0324,0.013523,0.002678,0.000431,0.037727
115761000,0.0324,0.013523,0.002678,0.000431,0.039842
115762000,0.0324,0.013523,0.002678,0.000431,0.033966
115763000,0.0324,0.013523,0.002678,0.000431,0.030557
115764000,0.0324,0.013523,0.002678,0.000431,0.023858
115765000,0.0324,0.013523,0.002678,0.000431,0.020332
115766000,0.0324,0.013523,0.002678,0.000431,0.024798
115767000,0.0324,0.013523,0.002678,0.000431,0.014338
115768000,0.0324,0.013523,0.002678,0.000431,0.014926
115769000,0.0324,0.013523,0.002678,0.000431,0.013046
115770000,0.0324,0.013523,0.002678,0.000431,0.013986
115771000,0.0324,0.013523,0.002678,0.000431,0.017159
115772000,0.0324,0.013523,0.002678,0.000431,0.016924
115773000,0.0324,0.013523,0.002678,0.000431,0.012340
115774000,0.0324,0.013523,0.002678,0.000431,0.007404
115775000,0.0324,0.013523,0.002678,0.000431,0.006111
115776000,0.0324,0.013523,0.002678,0.000431,0.007757
115777000,0.0324,0.013523,0.002678,0.000431,0.007757
115778000,0.0324,0.013523,0.002678,0.000431,0.004819
115779000,0.0324,0.013523,0.002678,0.000431,0.005406
115780000,0.0324,0.013523,0.002678,0.000431,0.002586
115781000,0.0324,0.013523,0.002678,0.000431,0.003526
115782000,0.0324,0.013523,0.002678,0.000431,0.003056
115783000,0.0324,0.013523,0.002678,0.000431,0.004584
115784000,0.0324,0.013523,0.002678,0.000431,0.000940
115785000,0.0324,0.013523,0.002678,0.000431,0.000705
115786000,0.0324,0.013523,0.002678,0.000431,0.000940
115787000,0.0324,0.013523,0.002678,0.000431,0.000705
115788000,0.0324,0.013523,0.002678,0.000431,0.000940
115789000,0.0324,0.013523,0.002678,0.000431,0.000823
115790000,0.0324,0.013523,0.002678,0.000431,0.000823
115791000,0.0324,0.013523,0.002678,0.000431,0.000823
115792000,0.0324,0.013523,0.002678,0.000431,0.000823
115793000,0.0324,0.013523,0.002678,0.000431,0.224126
115794000,0.0324,0.013523,0.002678,0.000431,0.688480
115795000,0.0324,0.013523,0.002678,0.000431,0.524058
115796000,0.0324,0.013523,0.002678,0.000431,0.136803
115797000,0.0324,0.013523,0.002678,0.000431,0.212021
115798000,0.0324,0.013523,0.002678,0.000431,0.559552
115799000,0.0324,0.013523,0.002678,0.000431,0.276191
115800000,0.0324,0.013523,0.002678,0.000431,0.362927
115801000,0.0324,0.013523,0.002678,0.000431,0.142797
115802000,0.0324,0.013523,0.002678,0.000431,0.167830
115803000,0.0324,0.013523,0.002678,0.000431,0.135157
115804000,0.0324,0.013523,0.002678,0.000431,0.541805
115805000,0.0324,0.013523,0.002678,0.000431,0.270080
115806000,0.0324,0.013523,0.002678,0.000431,0.190513
115807000,0.0324,0.013523,0.002678,0.000431,0.186517
115808000,0.0324,0.013523,0.002678,0.000431,0.152199
115809000,0.0324,0.013523,0.002678,0.000431,0.130926
115810000,0.0324,0.013523,0.002678,0.000431,0.111887
115811000,0.0324,0.013523,0.002678,0.000431,0.098489
115812000,0.0324,0.013523,0.002678,0.000431,0.082622
115813000,0.0324,0.013523,0.002678,0.000431,0.066168
115814000,0.0324,0.013523,0.002678,0.000431,0.068284
115815000,0.0324,0.013523,0.002678,0.000431,0.051947
115816000,0.0324,0.013523,0.002678,0.000431,0.037962
115817000,0.0324,0.013523,0.002678,0.000431,0.037256
115818000,0.0324,0.013523,0.002678,0.000431,0.039137
115819000,0.0324,0.013523,0.002678,0.000431,0.040900
115820000,0.0324,0.013523,0.002678,0.000431,0.030087
115821000,0.0324,0.013523,0.002678,0.000431,0.032203
115822000,0.0324,0.013523,0.002678,0.000431,0.030322
115823000,0.0324,0.013523,0.002678,0.000431,0.033025
115824000,0.0324,0.013523,0.002678,0.000431,0.025974
115825000,0.0324,0.013523,0.002678,0.000431,0.022448
115826000,0.0324,0.013523,0.002678,0.000431,0.024798
115827000,0.0324,0.013523,0.002678,0.000431,0.025856
115828000,0.0324,0.013523,0.002678,0.000431,0.020920
115829000,0.0324,0.013523,0.002678,0.000431,0.023388
115830000,0.0324,0.013523,0.002678,0.000431,0.018922
115831000,0.0324,0.013523,0.002678,0.000431,0.017747
115832000,0.0324,0.013523,0.002678,0.000431,0.017277
115833000,0.0324,0.013523,0.002678,0.000431,0.013868
115834000,0.0324,0.013523,0.002678,0.000431,0.008697
115835000,0.0324,0.013523,0.002678,0.000431,0.011048
115836000,0.0324,0.013523,0.002678,0.000431,0.010225
115837000,0.0324,0.013523,0.002678,0.000431,0.004349
115838000,0.0324,0.013523,0.002678,0.000431,0.004466
115839000,0.0324,0.013523,0.002678,0.000431,0.004584
115840000,0.0324,0.013523,0.002678,0.000431,0.004349
115841000,0.0324,0.013523,0.002678,0.000431,0.004113
115842000,0.0324,0.013523,0.002678,0.000431,0.003408
115843000,0.0324,0.013523,0.002678,0.000431,0.004466
115844000,0.0324,0.013523,0.002678,0.000431,0.007169
115845000,0.0324,0.013523,0.002678,0.000431,0.003173
115846000,0.0324,0.013523,0.002678,0.000431,0.003173
115847000,0.0324,0.013523,0.002678,0.000431,0.003173
115848000,0.0324,0.013523,0.002678,0.000431,0.004584
115849000,0.0324,0.013523,0.002678,0.000431,0.003526
115850000,0.0324,0.013523,0.002678,0.000431,0.001763
115851000,0.0324,0.013523,0.002678,0.000431,0.003761
115852000,0.0324,0.013523,0.002678,0.000431,0.000823
115853000,0.0324,0.013523,0.002678,0.000431,0.000823
115854000,0.0324,0.013523,0.002678,0.000431,0.000823
115855000,0.0324,0.013523,0.002678,0.000431,0.000705
115856000,0.0324,0.013523,0.002678,0.000431,0.000940
115857000,0.0324,0.013523,0.002678,0.000431,0.000940
115858000,0.0324,0.013523,0.002678,0.000431,0.000705
115859000,0.0324,0.013523,0.002678,0.000431,0.000940
115860000,0.0324,0.013523,0.002678,0.000431,0.000705
115861000,0.0324,0.013523,0.002678,0.000431,0.000940
115862000,0.0324,0.013523,0.002678,0.000431,0.000823
115863000,0.0324,0.013523,0.002678,0.000431,0.000823
115864000,0.0324,0.013523,0.002678,0.000431,0.000940
115865000,0.0324,0.013523,0.002678,0.000431,0.000705
115866000,0.0324,0.013523,0.002678,0.000431,0.000823
115867000,0.0324,0.013523,0.002678,0.000431,0.000823
115868000,0.0324,0.013523,0.002678,0.000431,0.000940
115869000,0.0324,0.013523,0.002678,0.000431,0.000705
115870000,0.0324,0.013523,0.002678,0.000431,0.000940
115871000,0.0324,0.013523,0.002678,0.000431,0.145500
115872000,0.0324,0.013523,0.002678,0.000431,0.756059
115873000,0.0324,0.013523,0.002678,0.000431,0.562607
115874000,0.0324,0.013523,0.002678,0.000431,0.147380
115875000,0.0324,0.013523,0.002678,0.000431,0.196977
115876000,0.0324,0.013523,0.002678,0.000431,0.569424
115877000,0.0324,0.013523,0.002678,0.000431,0.267847
115878000,0.0324,0.013523,0.002678,0.000431,0.375973
115879000,0.0324,0.013523,0.002678,0.000431,0.148556
115880000,0.0324,0.013523,0.002678,0.000431,0.159956
115881000,0.0324,0.013523,0.002678,0.000431,0.156430
115882000,0.0324,0.013523,0.002678,0.000431,0.540512
115883000,0.0324,0.013523,0.002678,0.000431,0.262675
115884000,0.0324,0.013523,0.002678,0.000431,0.196390
115885000,0.0324,0.013523,0.002678,0.000431,0.161249
115886000,0.0324,0.013523,0.002678,0.000431,0.152434
115887000,0.0324,0.013523,0.002678,0.000431,0.140329
115888000,0.0324,0.013523,0.002678,0.000431,0.123640
115889000,0.0324,0.013523,0.002678,0.000431,0.109419
115890000,0.0324,0.013523,0.002678,0.000431,0.093082
115891000,0.0324,0.013523,0.002678,0.000431,0.066991
115892000,0.0324,0.013523,0.002678,0.000431,0.062525
115893000,0.0324,0.013523,0.002678,0.000431,0.052653
115894000,0.0324,0.013523,0.002678,0.000431,0.045131
115895000,0.0324,0.013523,0.002678,0.000431,0.034906
115896000,0.0324,0.013523,0.002678,0.000431,0.037491
115897000,0.0324,0.013523,0.002678,0.000431,0.028324
115898000,0.0324,0.013523,0.002678,0.000431,0.026914
115899000,0.0324,0.013523,0.002678,0.000431,0.029147
115900000,0.0324,0.013523,0.002678,0.000431,0.027854
115901000,0.0324,0.013523,0.002678,0.000431,0.019862
115902000,0.0324,0.013523,0.002678,0.000431,0.023388
115903000,0.0324,0.013523,0.002678,0.000431,0.013516
115904000,0.0324,0.013523,0.002678,0.000431,0.013633
115905000,0.0324,0.013523,0.002678,0.000431,0.023623
115906000,0.0324,0.013523,0.002678,0.000431,0.010930
115907000,0.0324,0.013523,0.002678,0.000431,0.012105
115908000,0.0324,0.013523,0.002678,0.000431,0.006699
115909000,0.0324,0.013523,0.002678,0.000431,0.006582
115910000,0.0324,0.013523,0.002678,0.000431,0.006229
115911000,0.0324,0.013523,0.002678,0.000431,0.010695
115912000,0.0324,0.013523,0.002678,0.000431,0.006229
115913000,0.0324,0.013523,0.002678,0.000431,0.004701
115914000,0.0324,0.013523,0.002678,0.000431,0.004701
115915000,0.0324,0.013523,0.002678,0.000431,0.005171
115916000,0.0324,0.013523,0.002678,0.000431,0.003761
115917000,0.0324,0.013523,0.002678,0.000431,0.004231
115918000,0.0324,0.013523,0.002678,0.000431,0.004466
115919000,0.0324,0.013523,0.002678,0.000431,0.004466
115920000,0.0324,0.013523,0.002678,0.000431,0.006582
115921000,0.0324,0.013523,0.002678,0.000431,0.002468
115922000,0.0324,0.013523,0.002678,0.000431,0.002233
115923000,0.0324,0.013523,0.002678,0.000431,0.002468
115924000,0.0324,0.013523,0.002678,0.000431,0.002351
115925000,0.0324,0.013523,0.002678,0.000431,0.002351
115926000,0.0324,0.013523,0.002678,0.000431,0.002586
115927000,0.0324,0.013523,0.002678,0.000431,0.002116
115928000,0.0324,0.013523,0.002678,0.000431,0.002351
115929000,0.0324,0.013523,0.002678,0.000431,0.002468
115930000,0.0324,0.013523,0.002678,0.000431,0.002468
115931000,0.0324,0.013523,0.002678,0.000431,0.002116
115932000,0.0324,0.013523,0.002678,0.000431,0.002586
115933000,0.0324,0.013523,0.002678,0.000431,0.002586
115934000,0.0324,0.013523,0.002678,0.000431,0.002351
115935000,0.0324,0.013523,0.002678,0.000431,0.002351
115936000,0.0324,0.013523,0.002678,0.000431,0.002351
115937000,0.0324,0.013523,0.002678,0.000431,0.002351
115938000,0.0324,0.013523,0.002678,0.000431,0.002351
115939000,0.0324,0.013523,0.002678,0.000431,0.004349
115940000,0.0324,0.013523,0.002678,0.000431,0.001175
115941000,0.0324,0.013523,0.002678,0.000431,0.001880
115942000,0.0324,0.013523,0.002678,0.000431,0.001528
115943000,0.0324,0.013523,0.002678,0.000431,0.001528
115944000,0.0324,0.013523,0.002678,0.000431,0.001645
115945000,0.0324,0.013523,0.002678,0.000431,0.001410
115946000,0.0324,0.013523,0.002678,0.000431,0.001645
115947000,0.0324,0.013523,0.002678,0.000431,0.001645
115948000,0.0324,0.013523,0.002678,0.000431,0.001645
115949000,0.0324,0.013523,0.002678,0.000431,0.001880
115950000,0.0324,0.013523,0.002678,0.000431,0.001410
115951000,0.0324,0.013523,0.002678,0.000431,0.001645
115952000,0.0324,0.013523,0.002678,0.000431,0.001058
115953000,0.0324,0.013523,0.002678,0.000431,0.001763
115954000,0.0324,0.013523,0.002678,0.000431,0.001410
115955000,0.0324,0.013523,0.002678,0.000431,0.001645
115956000,0.0324,0.013523,0.002678,0.000431,0.001410
115957000,0.0324,0.013523,0.002678,0.000431,0.001880
115958000,0.0324,0.013523,0.002678,0.000431,0.001645
115959000,0.0324,0.013523,0.002678,0.000431,0.001645
115960000,0.0324,0.013523,0.002678,0.000431,0.001410
115961000,0.0324,0.013523,0.002678,0.000431,0.001880
115962000,0.0324,0.013523,0.002678,0.000431,0.001645
115963000,0.0324,0.013523,0.002678,0.000431,0.001410
115964000,0.0324,0.013523,0.002678,0.000431,0.001293
115965000,0.0324,0.013523,0.002678,0.000431,0.000823
115966000,0.0324,0.013523,0.002678,0.000431,0.000823
115967000,0.0324,0.013523,0.002678,0.000431,0.000940
115968000,0.0324,0.013523,0.002678,0.000431,0.000823
115969000,0.0324,0.013523,0.002678,0.000431,0.000823
115970000,0.0324,0.013523,0.002678,0.000431,0.000940
115971000,0.0324,0.013523,0.002678,0.000431,0.000705
115972000,0.0324,0.013523,0.002678,0.000431,0.000940
115973000,0.0324,0.013523,0.002678,0.000431,0.000823
115974000,0.0324,0.013523,0.002678,0.000431,0.000823
115975000,0.0324,0.013523,0.002678,0.000431,0.257269
115976000,0.0324,0.013523,0.002678,0.000431,0.733611
115977000,0.0324,0.013523,0.002678,0.000431,0.453776
115978000,0.0324,0.013523,0.002678,0.000431,0.172766
115979000,0.0324,0.013523,0.002678,0.000431,0.277249
115980000,0.0324,0.013523,0.002678,0.000431,0.480808
115981000,0.0324,0.013523,0.002678,0.000431,0.246222
115982000,0.0324,0.013523,0.002678,0.000431,0.341654
115983000,0.0324,0.013523,0.002678,0.000431,0.155255
115984000,0.0324,0.013523,0.002678,0.000431,0.170181
115985000,0.0324,0.013523,0.002678,0.000431,0.173824
115986000,0.0324,0.013523,0.002678,0.000431,0.519710
115987000,0.0324,0.013523,0.002678,0.000431,0.240815
115988000,0.0324,0.013523,0.002678,0.000431,0.179348
115989000,0.0324,0.013523,0.002678,0.000431,0.141621
115990000,0.0324,0.013523,0.002678,0.000431,0.124697
115991000,0.0324,0.013523,0.002678,0.000431,0.109889
115992000,0.0324,0.013523,0.002678,0.000431,0.088851
115993000,0.0324,0.013523,0.002678,0.000431,0.068284
115994000,0.0324,0.013523,0.002678,0.000431,0.065816
115995000,0.0324,0.013523,0.002678,0.000431,0.057706
115996000,0.0324,0.013523,0.002678,0.000431,0.055708
115997000,0.0324,0.013523,0.002678,0.000431,0.037609
115998000,0.0324,0.013523,0.002678,0.000431,0.033496
115999000,0.0324,0.013523,0.002678,0.000431,0.029735
