Cycle,Area(mm^2),PeakDynamic(W),SubthresholdLeakage(W),GateLeakage(W),RunTimeDynamic(W)
17000000,0.0324,0.013523,0.002678,0.000431,0.002703
17001000,0.0324,0.013523,0.002678,0.000431,0.004466
17002000,0.0324,0.013523,0.002678,0.000431,0.001763
17003000,0.0324,0.013523,0.002678,0.000431,0.001880
17004000,0.0324,0.013523,0.002678,0.000431,0.001645
17005000,0.0324,0.013523,0.002678,0.000431,0.001763
17006000,0.0324,0.013523,0.002678,0.000431,0.001645
17007000,0.0324,0.013523,0.002678,0.000431,0.001763
17008000,0.0324,0.013523,0.002678,0.000431,0.001645
17009000,0.0324,0.013523,0.002678,0.000431,0.001763
17010000,0.0324,0.013523,0.002678,0.000431,0.001645
17011000,0.0324,0.013523,0.002678,0.000431,0.001763
17012000,0.0324,0.013523,0.002678,0.000431,0.001645
17013000,0.0324,0.013523,0.002678,0.000431,0.001645
17014000,0.0324,0.013523,0.002678,0.000431,0.001880
17015000,0.0324,0.013523,0.002678,0.000431,0.001763
17016000,0.0324,0.013523,0.002678,0.000431,0.001645
17017000,0.0324,0.013523,0.002678,0.000431,0.001528
17018000,0.0324,0.013523,0.002678,0.000431,0.001880
17019000,0.0324,0.013523,0.002678,0.000431,0.001880
17020000,0.0324,0.013523,0.002678,0.000431,0.001528
17021000,0.0324,0.013523,0.002678,0.000431,0.001763
17022000,0.0324,0.013523,0.002678,0.000431,0.001645
17023000,0.0324,0.013523,0.002678,0.000431,0.001880
17024000,0.0324,0.013523,0.002678,0.000431,0.001645
17025000,0.0324,0.013523,0.002678,0.000431,0.001645
17026000,0.0324,0.013523,0.002678,0.000431,0.001880
17027000,0.0324,0.013523,0.002678,0.000431,0.001528
17028000,0.0324,0.013523,0.002678,0.000431,0.001880
17029000,0.0324,0.013523,0.002678,0.000431,0.001645
17030000,0.0324,0.013523,0.002678,0.000431,0.001763
17031000,0.0324,0.013523,0.002678,0.000431,0.001645
17032000,0.0324,0.013523,0.002678,0.000431,0.002586
17033000,0.0324,0.013523,0.002678,0.000431,0.001998
17034000,0.0324,0.013523,0.002678,0.000431,0.000940
17035000,0.0324,0.013523,0.002678,0.000431,0.000823
17036000,0.0324,0.013523,0.002678,0.000431,0.000940
17037000,0.0324,0.013523,0.002678,0.000431,0.000823
17038000,0.0324,0.013523,0.002678,0.000431,0.000940
17039000,0.0324,0.013523,0.002678,0.000431,0.000823
17040000,0.0324,0.013523,0.002678,0.000431,0.000823
17041000,0.0324,0.013523,0.002678,0.000431,0.000940
17042000,0.0324,0.013523,0.002678,0.000431,0.000940
17043000,0.0324,0.013523,0.002678,0.000431,0.000823
17044000,0.0324,0.013523,0.002678,0.000431,0.000823
17045000,0.0324,0.013523,0.002678,0.000431,0.000940
17046000,0.0324,0.013523,0.002678,0.000431,0.000940
17047000,0.0324,0.013523,0.002678,0.000431,0.000823
17048000,0.0324,0.013523,0.002678,0.000431,0.000823
17049000,0.0324,0.013523,0.002678,0.000431,0.000940
17050000,0.0324,0.013523,0.002678,0.000431,0.000940
17051000,0.0324,0.013523,0.002678,0.000431,0.000823
17052000,0.0324,0.013523,0.002678,0.000431,0.000823
17053000,0.0324,0.013523,0.002678,0.000431,0.000940
17054000,0.0324,0.013523,0.002678,0.000431,0.000823
17055000,0.0324,0.013523,0.002678,0.000431,0.000940
17056000,0.0324,0.013523,0.002678,0.000431,0.000823
17057000,0.0324,0.013523,0.002678,0.000431,0.000940
17058000,0.0324,0.013523,0.002678,0.000431,0.000823
17059000,0.0324,0.013523,0.002678,0.000431,0.000823
17060000,0.0324,0.013523,0.002678,0.000431,0.000940
17061000,0.0324,0.013523,0.002678,0.000431,0.000940
17062000,0.0324,0.013523,0.002678,0.000431,0.000823
17063000,0.0324,0.013523,0.002678,0.000431,0.000823
17064000,0.0324,0.013523,0.002678,0.000431,0.000940
17065000,0.0324,0.013523,0.002678,0.000431,0.000940
17066000,0.0324,0.013523,0.002678,0.000431,0.000705
17067000,0.0324,0.013523,0.002678,0.000431,0.000940
17068000,0.0324,0.013523,0.002678,0.000431,0.211903
17069000,0.0324,0.013523,0.002678,0.000431,0.591402
17070000,0.0324,0.013523,0.002678,0.000431,0.441201
17071000,0.0324,0.013523,0.002678,0.000431,0.131632
17072000,0.0324,0.013523,0.002678,0.000431,0.134452
17073000,0.0324,0.013523,0.002678,0.000431,0.583175
17074000,0.0324,0.013523,0.002678,0.000431,0.230003
17075000,0.0324,0.013523,0.002678,0.000431,0.274311
17076000,0.0324,0.013523,0.002678,0.000431,0.247514
17077000,0.0324,0.013523,0.002678,0.000431,0.138448
17078000,0.0324,0.013523,0.002678,0.000431,0.155842
17079000,0.0324,0.013523,0.002678,0.000431,0.110712
17080000,0.0324,0.013523,0.002678,0.000431,0.424747
17081000,0.0324,0.013523,0.002678,0.000431,0.198740
17082000,0.0324,0.013523,0.002678,0.000431,0.091202
17083000,0.0324,0.013523,0.002678,0.000431,0.079802
17084000,0.0324,0.013523,0.002678,0.000431,0.061937
17085000,0.0324,0.013523,0.002678,0.000431,0.057471
17086000,0.0324,0.013523,0.002678,0.000431,0.040547
17087000,0.0324,0.013523,0.002678,0.000431,0.037021
17088000,0.0324,0.013523,0.002678,0.000431,0.030322
17089000,0.0324,0.013523,0.002678,0.000431,0.027502
17090000,0.0324,0.013523,0.002678,0.000431,0.032555
17091000,0.0324,0.013523,0.002678,0.000431,0.028089
17092000,0.0324,0.013523,0.002678,0.000431,0.016219
17093000,0.0324,0.013523,0.002678,0.000431,0.013163
17094000,0.0324,0.013523,0.002678,0.000431,0.016101
17095000,0.0324,0.013523,0.002678,0.000431,0.010460
17096000,0.0324,0.013523,0.002678,0.000431,0.006464
17097000,0.0324,0.013523,0.002678,0.000431,0.006111
17098000,0.0324,0.013523,0.002678,0.000431,0.005759
17099000,0.0324,0.013523,0.002678,0.000431,0.006111
17100000,0.0324,0.013523,0.002678,0.000431,0.009050
17101000,0.0324,0.013523,0.002678,0.000431,0.004466
17102000,0.0324,0.013523,0.002678,0.000431,0.004231
17103000,0.0324,0.013523,0.002678,0.000431,0.006699
17104000,0.0324,0.013523,0.002678,0.000431,0.003643
17105000,0.0324,0.013523,0.002678,0.000431,0.002468
17106000,0.0324,0.013523,0.002678,0.000431,0.002586
17107000,0.0324,0.013523,0.002678,0.000431,0.003878
17108000,0.0324,0.013523,0.002678,0.000431,0.001880
17109000,0.0324,0.013523,0.002678,0.000431,0.004584
17110000,0.0324,0.013523,0.002678,0.000431,0.422866
17111000,0.0324,0.013523,0.002678,0.000431,0.711516
17112000,0.0324,0.013523,0.002678,0.000431,0.141504
17113000,0.0324,0.013523,0.002678,0.000431,0.134805
17114000,0.0324,0.013523,0.002678,0.000431,0.156783
17115000,0.0324,0.013523,0.002678,0.000431,0.577886
17116000,0.0324,0.013523,0.002678,0.000431,0.245046
17117000,0.0324,0.013523,0.002678,0.000431,0.265261
17118000,0.0324,0.013523,0.002678,0.000431,0.219778
17119000,0.0324,0.013523,0.002678,0.000431,0.139976
17120000,0.0324,0.013523,0.002678,0.000431,0.195919
17121000,0.0324,0.013523,0.002678,0.000431,0.084150
17122000,0.0324,0.013523,0.002678,0.000431,0.478575
17123000,0.0324,0.013523,0.002678,0.000431,0.144912
17124000,0.0324,0.013523,0.002678,0.000431,0.092025
17125000,0.0324,0.013523,0.002678,0.000431,0.075453
17126000,0.0324,0.013523,0.002678,0.000431,0.071340
17127000,0.0324,0.013523,0.002678,0.000431,0.048069
17128000,0.0324,0.013523,0.002678,0.000431,0.050420
17129000,0.0324,0.013523,0.002678,0.000431,0.043838
17130000,0.0324,0.013523,0.002678,0.000431,0.036199
17131000,0.0324,0.013523,0.002678,0.000431,0.029852
17132000,0.0324,0.013523,0.002678,0.000431,0.025856
17133000,0.0324,0.013523,0.002678,0.000431,0.027737
17134000,0.0324,0.013523,0.002678,0.000431,0.023976
17135000,0.0324,0.013523,0.002678,0.000431,0.025386
17136000,0.0324,0.013523,0.002678,0.000431,0.016454
17137000,0.0324,0.013523,0.002678,0.000431,0.014691
17138000,0.0324,0.013523,0.002678,0.000431,0.013868
17139000,0.0324,0.013523,0.002678,0.000431,0.012340
17140000,0.0324,0.013523,0.002678,0.000431,0.012928
17141000,0.0324,0.013523,0.002678,0.000431,0.012693
17142000,0.0324,0.013523,0.002678,0.000431,0.009167
17143000,0.0324,0.013523,0.002678,0.000431,0.008580
17144000,0.0324,0.013523,0.002678,0.000431,0.007287
17145000,0.0324,0.013523,0.002678,0.000431,0.007874
17146000,0.0324,0.013523,0.002678,0.000431,0.007639
17147000,0.0324,0.013523,0.002678,0.000431,0.008815
17148000,0.0324,0.013523,0.002678,0.000431,0.006699
17149000,0.0324,0.013523,0.002678,0.000431,0.008580
17150000,0.0324,0.013523,0.002678,0.000431,0.007404
17151000,0.0324,0.013523,0.002678,0.000431,0.005289
17152000,0.0324,0.013523,0.002678,0.000431,0.005876
17153000,0.0324,0.013523,0.002678,0.000431,0.004701
17154000,0.0324,0.013523,0.002678,0.000431,0.006229
17155000,0.0324,0.013523,0.002678,0.000431,0.003408
17156000,0.0324,0.013523,0.002678,0.000431,0.003526
17157000,0.0324,0.013523,0.002678,0.000431,0.003408
17158000,0.0324,0.013523,0.002678,0.000431,0.003291
17159000,0.0324,0.013523,0.002678,0.000431,0.003408
17160000,0.0324,0.013523,0.002678,0.000431,0.003526
17161000,0.0324,0.013523,0.002678,0.000431,0.003526
17162000,0.0324,0.013523,0.002678,0.000431,0.003291
17163000,0.0324,0.013523,0.002678,0.000431,0.003291
17164000,0.0324,0.013523,0.002678,0.000431,0.003643
17165000,0.0324,0.013523,0.002678,0.000431,0.005289
17166000,0.0324,0.013523,0.002678,0.000431,0.002468
17167000,0.0324,0.013523,0.002678,0.000431,0.002468
17168000,0.0324,0.013523,0.002678,0.000431,0.002821
17169000,0.0324,0.013523,0.002678,0.000431,0.002703
17170000,0.0324,0.013523,0.002678,0.000431,0.002233
17171000,0.0324,0.013523,0.002678,0.000431,0.002821
17172000,0.0324,0.013523,0.002678,0.000431,0.004113
17173000,0.0324,0.013523,0.002678,0.000431,0.001763
17174000,0.0324,0.013523,0.002678,0.000431,0.001763
17175000,0.0324,0.013523,0.002678,0.000431,0.001645
17176000,0.0324,0.013523,0.002678,0.000431,0.001880
17177000,0.0324,0.013523,0.002678,0.000431,0.001645
17178000,0.0324,0.013523,0.002678,0.000431,0.002468
17179000,0.0324,0.013523,0.002678,0.000431,0.014691
17180000,0.0324,0.013523,0.002678,0.000431,0.568954
17181000,0.0324,0.013523,0.002678,0.000431,0.602685
17182000,0.0324,0.013523,0.002678,0.000431,0.134922
17183000,0.0324,0.013523,0.002678,0.000431,0.132102
17184000,0.0324,0.013523,0.002678,0.000431,0.456715
17185000,0.0324,0.013523,0.002678,0.000431,0.373034
17186000,0.0324,0.013523,0.002678,0.000431,0.231648
17187000,0.0324,0.013523,0.002678,0.000431,0.325671
17188000,0.0324,0.013523,0.002678,0.000431,0.140211
17189000,0.0324,0.013523,0.002678,0.000431,0.149496
17190000,0.0324,0.013523,0.002678,0.000431,0.107421
17191000,0.0324,0.013523,0.002678,0.000431,0.358696
17192000,0.0324,0.013523,0.002678,0.000431,0.273488
17193000,0.0324,0.013523,0.002678,0.000431,0.099194
17194000,0.0324,0.013523,0.002678,0.000431,0.079919
17195000,0.0324,0.013523,0.002678,0.000431,0.064641
17196000,0.0324,0.013523,0.002678,0.000431,0.054533
17197000,0.0324,0.013523,0.002678,0.000431,0.050772
17198000,0.0324,0.013523,0.002678,0.000431,0.046776
17199000,0.0324,0.013523,0.002678,0.000431,0.036081
17200000,0.0324,0.013523,0.002678,0.000431,0.023271
17201000,0.0324,0.013523,0.002678,0.000431,0.033731
17202000,0.0324,0.013523,0.002678,0.000431,0.014573
17203000,0.0324,0.013523,0.002678,0.000431,0.015749
17204000,0.0324,0.013523,0.002678,0.000431,0.011753
17205000,0.0324,0.013523,0.002678,0.000431,0.011048
17206000,0.0324,0.013523,0.002678,0.000431,0.012105
17207000,0.0324,0.013523,0.002678,0.000431,0.007992
17208000,0.0324,0.013523,0.002678,0.000431,0.009285
17209000,0.0324,0.013523,0.002678,0.000431,0.006699
17210000,0.0324,0.013523,0.002678,0.000431,0.011400
17211000,0.0324,0.013523,0.002678,0.000431,0.005759
17212000,0.0324,0.013523,0.002678,0.000431,0.004349
17213000,0.0324,0.013523,0.002678,0.000431,0.003643
17214000,0.0324,0.013523,0.002678,0.000431,0.004584
17215000,0.0324,0.013523,0.002678,0.000431,0.003996
17216000,0.0324,0.013523,0.002678,0.000431,0.004701
17217000,0.0324,0.013523,0.002678,0.000431,0.003761
17218000,0.0324,0.013523,0.002678,0.000431,0.004466
17219000,0.0324,0.013523,0.002678,0.000431,0.004349
17220000,0.0324,0.013523,0.002678,0.000431,0.003996
17221000,0.0324,0.013523,0.002678,0.000431,0.005289
17222000,0.0324,0.013523,0.002678,0.000431,0.004349
17223000,0.0324,0.013523,0.002678,0.000431,0.003291
17224000,0.0324,0.013523,0.002678,0.000431,0.003408
17225000,0.0324,0.013523,0.002678,0.000431,0.004466
17226000,0.0324,0.013523,0.002678,0.000431,0.002351
17227000,0.0324,0.013523,0.002678,0.000431,0.000823
17228000,0.0324,0.013523,0.002678,0.000431,0.000940
17229000,0.0324,0.013523,0.002678,0.000431,0.000823
17230000,0.0324,0.013523,0.002678,0.000431,0.000823
17231000,0.0324,0.013523,0.002678,0.000431,0.000823
17232000,0.0324,0.013523,0.002678,0.000431,0.000823
17233000,0.0324,0.013523,0.002678,0.000431,0.000823
17234000,0.0324,0.013523,0.002678,0.000431,0.000940
17235000,0.0324,0.013523,0.002678,0.000431,0.000823
17236000,0.0324,0.013523,0.002678,0.000431,0.000823
17237000,0.0324,0.013523,0.002678,0.000431,0.000705
17238000,0.0324,0.013523,0.002678,0.000431,0.000940
17239000,0.0324,0.013523,0.002678,0.000431,0.000940
17240000,0.0324,0.013523,0.002678,0.000431,0.000705
17241000,0.0324,0.013523,0.002678,0.000431,0.000940
17242000,0.0324,0.013523,0.002678,0.000431,0.000705
17243000,0.0324,0.013523,0.002678,0.000431,0.000940
17244000,0.0324,0.013523,0.002678,0.000431,0.000823
17245000,0.0324,0.013523,0.002678,0.000431,0.000823
17246000,0.0324,0.013523,0.002678,0.000431,0.000823
17247000,0.0324,0.013523,0.002678,0.000431,0.000823
17248000,0.0324,0.013523,0.002678,0.000431,0.000940
17249000,0.0324,0.013523,0.002678,0.000431,0.000823
17250000,0.0324,0.013523,0.002678,0.000431,0.000823
17251000,0.0324,0.013523,0.002678,0.000431,0.000823
17252000,0.0324,0.013523,0.002678,0.000431,0.000823
17253000,0.0324,0.013523,0.002678,0.000431,0.000823
17254000,0.0324,0.013523,0.002678,0.000431,0.000823
17255000,0.0324,0.013523,0.002678,0.000431,0.000940
17256000,0.0324,0.013523,0.002678,0.000431,0.000705
17257000,0.0324,0.013523,0.002678,0.000431,0.000940
17258000,0.0324,0.013523,0.002678,0.000431,0.000823
17259000,0.0324,0.013523,0.002678,0.000431,0.000823
17260000,0.0324,0.013523,0.002678,0.000431,0.063935
17261000,0.0324,0.013523,0.002678,0.000431,0.532403
17262000,0.0324,0.013523,0.002678,0.000431,0.601157
17263000,0.0324,0.013523,0.002678,0.000431,0.132102
17264000,0.0324,0.013523,0.002678,0.000431,0.133512
17265000,0.0324,0.013523,0.002678,0.000431,0.553440
17266000,0.0324,0.013523,0.002678,0.000431,0.226829
17267000,0.0324,0.013523,0.002678,0.000431,0.280540
17268000,0.0324,0.013523,0.002678,0.000431,0.325083
17269000,0.0324,0.013523,0.002678,0.000431,0.145265
17270000,0.0324,0.013523,0.002678,0.000431,0.151611
17271000,0.0324,0.013523,0.002678,0.000431,0.104600
17272000,0.0324,0.013523,0.002678,0.000431,0.433797
17273000,0.0324,0.013523,0.002678,0.000431,0.186282
17274000,0.0324,0.013523,0.002678,0.000431,0.084738
17275000,0.0324,0.013523,0.002678,0.000431,0.067109
17276000,0.0324,0.013523,0.002678,0.000431,0.055943
17277000,0.0324,0.013523,0.002678,0.000431,0.054651
17278000,0.0324,0.013523,0.002678,0.000431,0.043720
17279000,0.0324,0.013523,0.002678,0.000431,0.036786
17280000,0.0324,0.013523,0.002678,0.000431,0.031615
17281000,0.0324,0.013523,0.002678,0.000431,0.027502
17282000,0.0324,0.013523,0.002678,0.000431,0.027619
17283000,0.0324,0.013523,0.002678,0.000431,0.025974
17284000,0.0324,0.013523,0.002678,0.000431,0.012811
17285000,0.0324,0.013523,0.002678,0.000431,0.013986
17286000,0.0324,0.013523,0.002678,0.000431,0.008815
17287000,0.0324,0.013523,0.002678,0.000431,0.011635
17288000,0.0324,0.013523,0.002678,0.000431,0.005524
17289000,0.0324,0.013523,0.002678,0.000431,0.006347
17290000,0.0324,0.013523,0.002678,0.000431,0.005994
17291000,0.0324,0.013523,0.002678,0.000431,0.003526
17292000,0.0324,0.013523,0.002678,0.000431,0.003173
17293000,0.0324,0.013523,0.002678,0.000431,0.003643
17294000,0.0324,0.013523,0.002678,0.000431,0.003291
17295000,0.0324,0.013523,0.002678,0.000431,0.003526
17296000,0.0324,0.013523,0.002678,0.000431,0.003173
17297000,0.0324,0.013523,0.002678,0.000431,0.004349
17298000,0.0324,0.013523,0.002678,0.000431,0.003526
17299000,0.0324,0.013523,0.002678,0.000431,0.002703
17300000,0.0324,0.013523,0.002678,0.000431,0.003761
17301000,0.0324,0.013523,0.002678,0.000431,0.003291
17302000,0.0324,0.013523,0.002678,0.000431,0.001645
17303000,0.0324,0.013523,0.002678,0.000431,0.003056
17304000,0.0324,0.013523,0.002678,0.000431,0.000940
17305000,0.0324,0.013523,0.002678,0.000431,0.000940
17306000,0.0324,0.013523,0.002678,0.000431,0.000823
17307000,0.0324,0.013523,0.002678,0.000431,0.000823
17308000,0.0324,0.013523,0.002678,0.000431,0.000823
17309000,0.0324,0.013523,0.002678,0.000431,0.000705
17310000,0.0324,0.013523,0.002678,0.000431,0.000940
17311000,0.0324,0.013523,0.002678,0.000431,0.000940
17312000,0.0324,0.013523,0.002678,0.000431,0.000705
17313000,0.0324,0.013523,0.002678,0.000431,0.000940
17314000,0.0324,0.013523,0.002678,0.000431,0.000705
17315000,0.0324,0.013523,0.002678,0.000431,0.000940
17316000,0.0324,0.013523,0.002678,0.000431,0.000823
17317000,0.0324,0.013523,0.002678,0.000431,0.000823
17318000,0.0324,0.013523,0.002678,0.000431,0.000940
17319000,0.0324,0.013523,0.002678,0.000431,0.000705
17320000,0.0324,0.013523,0.002678,0.000431,0.000940
17321000,0.0324,0.013523,0.002678,0.000431,0.000823
17322000,0.0324,0.013523,0.002678,0.000431,0.000823
17323000,0.0324,0.013523,0.002678,0.000431,0.000705
17324000,0.0324,0.013523,0.002678,0.000431,0.000823
17325000,0.0324,0.013523,0.002678,0.000431,0.000940
17326000,0.0324,0.013523,0.002678,0.000431,0.000823
17327000,0.0324,0.013523,0.002678,0.000431,0.000823
17328000,0.0324,0.013523,0.002678,0.000431,0.000823
17329000,0.0324,0.013523,0.002678,0.000431,0.000823
17330000,0.0324,0.013523,0.002678,0.000431,0.000823
17331000,0.0324,0.013523,0.002678,0.000431,0.000940
17332000,0.0324,0.013523,0.002678,0.000431,0.000705
17333000,0.0324,0.013523,0.002678,0.000431,0.000940
17334000,0.0324,0.013523,0.002678,0.000431,0.000705
17335000,0.0324,0.013523,0.002678,0.000431,0.000940
17336000,0.0324,0.013523,0.002678,0.000431,0.000940
17337000,0.0324,0.013523,0.002678,0.000431,0.000705
17338000,0.0324,0.013523,0.002678,0.000431,0.000940
17339000,0.0324,0.013523,0.002678,0.000431,0.000705
17340000,0.0324,0.013523,0.002678,0.000431,0.000940
17341000,0.0324,0.013523,0.002678,0.000431,0.000705
17342000,0.0324,0.013523,0.002678,0.000431,0.000940
17343000,0.0324,0.013523,0.002678,0.000431,0.030910
17344000,0.0324,0.013523,0.002678,0.000431,0.544508
17345000,0.0324,0.013523,0.002678,0.000431,0.603742
17346000,0.0324,0.013523,0.002678,0.000431,0.131161
17347000,0.0324,0.013523,0.002678,0.000431,0.134452
17348000,0.0324,0.013523,0.002678,0.000431,0.517947
17349000,0.0324,0.013523,0.002678,0.000431,0.252921
17350000,0.0324,0.013523,0.002678,0.000431,0.241520
17351000,0.0324,0.013523,0.002678,0.000431,0.347296
17352000,0.0324,0.013523,0.002678,0.000431,0.137743
17353000,0.0324,0.013523,0.002678,0.000431,0.144560
17354000,0.0324,0.013523,0.002678,0.000431,0.135628
17355000,0.0324,0.013523,0.002678,0.000431,0.258915
17356000,0.0324,0.013523,0.002678,0.000431,0.372799
17357000,0.0324,0.013523,0.002678,0.000431,0.116823
17358000,0.0324,0.013523,0.002678,0.000431,0.080742
17359000,0.0324,0.013523,0.002678,0.000431,0.077569
17360000,0.0324,0.013523,0.002678,0.000431,0.056649
17361000,0.0324,0.013523,0.002678,0.000431,0.056884
17362000,0.0324,0.013523,0.002678,0.000431,0.037727
17363000,0.0324,0.013523,0.002678,0.000431,0.028089
17364000,0.0324,0.013523,0.002678,0.000431,0.028089
17365000,0.0324,0.013523,0.002678,0.000431,0.029029
17366000,0.0324,0.013523,0.002678,0.000431,0.018217
17367000,0.0324,0.013523,0.002678,0.000431,0.021508
17368000,0.0324,0.013523,0.002678,0.000431,0.015161
17369000,0.0324,0.013523,0.002678,0.000431,0.015984
17370000,0.0324,0.013523,0.002678,0.000431,0.015279
17371000,0.0324,0.013523,0.002678,0.000431,0.011635
17372000,0.0324,0.013523,0.002678,0.000431,0.010107
17373000,0.0324,0.013523,0.002678,0.000431,0.009872
17374000,0.0324,0.013523,0.002678,0.000431,0.004231
17375000,0.0324,0.013523,0.002678,0.000431,0.005289
17376000,0.0324,0.013523,0.002678,0.000431,0.003056
17377000,0.0324,0.013523,0.002678,0.000431,0.003291
17378000,0.0324,0.013523,0.002678,0.000431,0.004349
17379000,0.0324,0.013523,0.002678,0.000431,0.001880
17380000,0.0324,0.013523,0.002678,0.000431,0.003291
17381000,0.0324,0.013523,0.002678,0.000431,0.000940
17382000,0.0324,0.013523,0.002678,0.000431,0.000940
17383000,0.0324,0.013523,0.002678,0.000431,0.014691
17384000,0.0324,0.013523,0.002678,0.000431,0.580354
17385000,0.0324,0.013523,0.002678,0.000431,0.601039
17386000,0.0324,0.013523,0.002678,0.000431,0.133042
17387000,0.0324,0.013523,0.002678,0.000431,0.133512
17388000,0.0324,0.013523,0.002678,0.000431,0.491738
17389000,0.0324,0.013523,0.002678,0.000431,0.285476
17390000,0.0324,0.013523,0.002678,0.000431,0.272195
17391000,0.0324,0.013523,0.002678,0.000431,0.313918
17392000,0.0324,0.013523,0.002678,0.000431,0.142679
17393000,0.0324,0.013523,0.002678,0.000431,0.149026
17394000,0.0324,0.013523,0.002678,0.000431,0.125520
17395000,0.0324,0.013523,0.002678,0.000431,0.287004
17396000,0.0324,0.013523,0.002678,0.000431,0.357991
17397000,0.0324,0.013523,0.002678,0.000431,0.117528
17398000,0.0324,0.013523,0.002678,0.000431,0.097313
17399000,0.0324,0.013523,0.002678,0.000431,0.082035
17400000,0.0324,0.013523,0.002678,0.000431,0.072397
17401000,0.0324,0.013523,0.002678,0.000431,0.059939
17402000,0.0324,0.013523,0.002678,0.000431,0.049244
17403000,0.0324,0.013523,0.002678,0.000431,0.036669
17404000,0.0324,0.013523,0.002678,0.000431,0.037962
17405000,0.0324,0.013523,0.002678,0.000431,0.033378
17406000,0.0324,0.013523,0.002678,0.000431,0.032673
17407000,0.0324,0.013523,0.002678,0.000431,0.031145
17408000,0.0324,0.013523,0.002678,0.000431,0.027737
17409000,0.0324,0.013523,0.002678,0.000431,0.024681
17410000,0.0324,0.013523,0.002678,0.000431,0.018922
17411000,0.0324,0.013523,0.002678,0.000431,0.020450
17412000,0.0324,0.013523,0.002678,0.000431,0.014573
17413000,0.0324,0.013523,0.002678,0.000431,0.015749
17414000,0.0324,0.013523,0.002678,0.000431,0.013046
17415000,0.0324,0.013523,0.002678,0.000431,0.013281
17416000,0.0324,0.013523,0.002678,0.000431,0.013986
17417000,0.0324,0.013523,0.002678,0.000431,0.015161
17418000,0.0324,0.013523,0.002678,0.000431,0.010578
17419000,0.0324,0.013523,0.002678,0.000431,0.010460
17420000,0.0324,0.013523,0.002678,0.000431,0.011283
17421000,0.0324,0.013523,0.002678,0.000431,0.010813
17422000,0.0324,0.013523,0.002678,0.000431,0.011518
17423000,0.0324,0.013523,0.002678,0.000431,0.011283
17424000,0.0324,0.013523,0.002678,0.000431,0.008697
17425000,0.0324,0.013523,0.002678,0.000431,0.010813
17426000,0.0324,0.013523,0.002678,0.000431,0.009872
17427000,0.0324,0.013523,0.002678,0.000431,0.005406
17428000,0.0324,0.013523,0.002678,0.000431,0.004936
17429000,0.0324,0.013523,0.002678,0.000431,0.005054
17430000,0.0324,0.013523,0.002678,0.000431,0.006582
17431000,0.0324,0.013523,0.002678,0.000431,0.004466
17432000,0.0324,0.013523,0.002678,0.000431,0.004584
17433000,0.0324,0.013523,0.002678,0.000431,0.004936
17434000,0.0324,0.013523,0.002678,0.000431,0.003643
17435000,0.0324,0.013523,0.002678,0.000431,0.002821
17436000,0.0324,0.013523,0.002678,0.000431,0.003526
17437000,0.0324,0.013523,0.002678,0.000431,0.003408
17438000,0.0324,0.013523,0.002678,0.000431,0.004231
17439000,0.0324,0.013523,0.002678,0.000431,0.002821
17440000,0.0324,0.013523,0.002678,0.000431,0.001998
17441000,0.0324,0.013523,0.002678,0.000431,0.005289
17442000,0.0324,0.013523,0.002678,0.000431,0.001763
17443000,0.0324,0.013523,0.002678,0.000431,0.001410
17444000,0.0324,0.013523,0.002678,0.000431,0.001880
17445000,0.0324,0.013523,0.002678,0.000431,0.187340
17446000,0.0324,0.013523,0.002678,0.000431,0.549562
17447000,0.0324,0.013523,0.002678,0.000431,0.526056
17448000,0.0324,0.013523,0.002678,0.000431,0.133394
17449000,0.0324,0.013523,0.002678,0.000431,0.133159
17450000,0.0324,0.013523,0.002678,0.000431,0.584585
17451000,0.0324,0.013523,0.002678,0.000431,0.263851
17452000,0.0324,0.013523,0.002678,0.000431,0.269727
17453000,0.0324,0.013523,0.002678,0.000431,0.274311
17454000,0.0324,0.013523,0.002678,0.000431,0.143854
17455000,0.0324,0.013523,0.002678,0.000431,0.171944
17456000,0.0324,0.013523,0.002678,0.000431,0.121994
17457000,0.0324,0.013523,0.002678,0.000431,0.462591
17458000,0.0324,0.013523,0.002678,0.000431,0.099311
17459000,0.0324,0.013523,0.002678,0.000431,0.068754
17460000,0.0324,0.013523,0.002678,0.000431,0.060880
17461000,0.0324,0.013523,0.002678,0.000431,0.042310
17462000,0.0324,0.013523,0.002678,0.000431,0.039725
17463000,0.0324,0.013523,0.002678,0.000431,0.029852
17464000,0.0324,0.013523,0.002678,0.000431,0.029735
17465000,0.0324,0.013523,0.002678,0.000431,0.019392
17466000,0.0324,0.013523,0.002678,0.000431,0.019275
17467000,0.0324,0.013523,0.002678,0.000431,0.015631
17468000,0.0324,0.013523,0.002678,0.000431,0.015044
17469000,0.0324,0.013523,0.002678,0.000431,0.013986
17470000,0.0324,0.013523,0.002678,0.000431,0.013046
17471000,0.0324,0.013523,0.002678,0.000431,0.013751
17472000,0.0324,0.013523,0.002678,0.000431,0.009990
17473000,0.0324,0.013523,0.002678,0.000431,0.010460
17474000,0.0324,0.013523,0.002678,0.000431,0.011165
17475000,0.0324,0.013523,0.002678,0.000431,0.013868
17476000,0.0324,0.013523,0.002678,0.000431,0.007874
17477000,0.0324,0.013523,0.002678,0.000431,0.007169
17478000,0.0324,0.013523,0.002678,0.000431,0.006934
17479000,0.0324,0.013523,0.002678,0.000431,0.007639
17480000,0.0324,0.013523,0.002678,0.000431,0.006111
17481000,0.0324,0.013523,0.002678,0.000431,0.006464
17482000,0.0324,0.013523,0.002678,0.000431,0.006229
17483000,0.0324,0.013523,0.002678,0.000431,0.005054
17484000,0.0324,0.013523,0.002678,0.000431,0.005406
17485000,0.0324,0.013523,0.002678,0.000431,0.004819
17486000,0.0324,0.013523,0.002678,0.000431,0.008345
17487000,0.0324,0.013523,0.002678,0.000431,0.004819
17488000,0.0324,0.013523,0.002678,0.000431,0.004584
17489000,0.0324,0.013523,0.002678,0.000431,0.004584
17490000,0.0324,0.013523,0.002678,0.000431,0.001880
17491000,0.0324,0.013523,0.002678,0.000431,0.001763
17492000,0.0324,0.013523,0.002678,0.000431,0.001528
17493000,0.0324,0.013523,0.002678,0.000431,0.001880
17494000,0.0324,0.013523,0.002678,0.000431,0.001645
17495000,0.0324,0.013523,0.002678,0.000431,0.001763
17496000,0.0324,0.013523,0.002678,0.000431,0.001645
17497000,0.0324,0.013523,0.002678,0.000431,0.001763
17498000,0.0324,0.013523,0.002678,0.000431,0.001645
17499000,0.0324,0.013523,0.002678,0.000431,0.001763
17500000,0.0324,0.013523,0.002678,0.000431,0.001763
17501000,0.0324,0.013523,0.002678,0.000431,0.001645
17502000,0.0324,0.013523,0.002678,0.000431,0.001763
17503000,0.0324,0.013523,0.002678,0.000431,0.002468
17504000,0.0324,0.013523,0.002678,0.000431,0.001763
17505000,0.0324,0.013523,0.002678,0.000431,0.000823
17506000,0.0324,0.013523,0.002678,0.000431,0.000823
17507000,0.0324,0.013523,0.002678,0.000431,0.000940
17508000,0.0324,0.013523,0.002678,0.000431,0.000705
17509000,0.0324,0.013523,0.002678,0.000431,0.000940
17510000,0.0324,0.013523,0.002678,0.000431,0.000705
17511000,0.0324,0.013523,0.002678,0.000431,0.000940
17512000,0.0324,0.013523,0.002678,0.000431,0.000705
17513000,0.0324,0.013523,0.002678,0.000431,0.000940
17514000,0.0324,0.013523,0.002678,0.000431,0.000940
17515000,0.0324,0.013523,0.002678,0.000431,0.000705
17516000,0.0324,0.013523,0.002678,0.000431,0.000940
17517000,0.0324,0.013523,0.002678,0.000431,0.000705
17518000,0.0324,0.013523,0.002678,0.000431,0.000940
17519000,0.0324,0.013523,0.002678,0.000431,0.000823
17520000,0.0324,0.013523,0.002678,0.000431,0.000823
17521000,0.0324,0.013523,0.002678,0.000431,0.000823
17522000,0.0324,0.013523,0.002678,0.000431,0.001998
17523000,0.0324,0.013523,0.002678,0.000431,0.336013
17524000,0.0324,0.013523,0.002678,0.000431,0.686600
17525000,0.0324,0.013523,0.002678,0.000431,0.216487
17526000,0.0324,0.013523,0.002678,0.000431,0.132102
17527000,0.0324,0.013523,0.002678,0.000431,0.147615
17528000,0.0324,0.013523,0.002678,0.000431,0.640999
17529000,0.0324,0.013523,0.002678,0.000431,0.240698
17530000,0.0324,0.013523,0.002678,0.000431,0.276309
17531000,0.0324,0.013523,0.002678,0.000431,0.234469
17532000,0.0324,0.013523,0.002678,0.000431,0.137626
17533000,0.0324,0.013523,0.002678,0.000431,0.151376
17534000,0.0324,0.013523,0.002678,0.000431,0.188163
17535000,0.0324,0.013523,0.002678,0.000431,0.423689
17536000,0.0324,0.013523,0.002678,0.000431,0.099194
17537000,0.0324,0.013523,0.002678,0.000431,0.071927
17538000,0.0324,0.013523,0.002678,0.000431,0.058764
17539000,0.0324,0.013523,0.002678,0.000431,0.051712
17540000,0.0324,0.013523,0.002678,0.000431,0.045954
17541000,0.0324,0.013523,0.002678,0.000431,0.040665
17542000,0.0324,0.013523,0.002678,0.000431,0.038197
17543000,0.0324,0.013523,0.002678,0.000431,0.020567
17544000,0.0324,0.013523,0.002678,0.000431,0.026561
17545000,0.0324,0.013523,0.002678,0.000431,0.015631
17546000,0.0324,0.013523,0.002678,0.000431,0.015279
17547000,0.0324,0.013523,0.002678,0.000431,0.019275
17548000,0.0324,0.013523,0.002678,0.000431,0.016336
17549000,0.0324,0.013523,0.002678,0.000431,0.010813
17550000,0.0324,0.013523,0.002678,0.000431,0.011165
17551000,0.0324,0.013523,0.002678,0.000431,0.012340
17552000,0.0324,0.013523,0.002678,0.000431,0.014221
17553000,0.0324,0.013523,0.002678,0.000431,0.008932
17554000,0.0324,0.013523,0.002678,0.000431,0.007404
17555000,0.0324,0.013523,0.002678,0.000431,0.008580
17556000,0.0324,0.013523,0.002678,0.000431,0.009050
17557000,0.0324,0.013523,0.002678,0.000431,0.005641
17558000,0.0324,0.013523,0.002678,0.000431,0.006111
17559000,0.0324,0.013523,0.002678,0.000431,0.007169
17560000,0.0324,0.013523,0.002678,0.000431,0.006934
17561000,0.0324,0.013523,0.002678,0.000431,0.004113
17562000,0.0324,0.013523,0.002678,0.000431,0.004349
17563000,0.0324,0.013523,0.002678,0.000431,0.005524
17564000,0.0324,0.013523,0.002678,0.000431,0.002938
17565000,0.0324,0.013523,0.002678,0.000431,0.003526
17566000,0.0324,0.013523,0.002678,0.000431,0.003291
17567000,0.0324,0.013523,0.002678,0.000431,0.003291
17568000,0.0324,0.013523,0.002678,0.000431,0.003291
17569000,0.0324,0.013523,0.002678,0.000431,0.003526
17570000,0.0324,0.013523,0.002678,0.000431,0.004584
17571000,0.0324,0.013523,0.002678,0.000431,0.002586
17572000,0.0324,0.013523,0.002678,0.000431,0.002351
17573000,0.0324,0.013523,0.002678,0.000431,0.002351
17574000,0.0324,0.013523,0.002678,0.000431,0.002821
17575000,0.0324,0.013523,0.002678,0.000431,0.001880
17576000,0.0324,0.013523,0.002678,0.000431,0.002821
17577000,0.0324,0.013523,0.002678,0.000431,0.002351
17578000,0.0324,0.013523,0.002678,0.000431,0.002351
17579000,0.0324,0.013523,0.002678,0.000431,0.002468
17580000,0.0324,0.013523,0.002678,0.000431,0.002233
17581000,0.0324,0.013523,0.002678,0.000431,0.002586
17582000,0.0324,0.013523,0.002678,0.000431,0.002351
17583000,0.0324,0.013523,0.002678,0.000431,0.002586
17584000,0.0324,0.013523,0.002678,0.000431,0.002233
17585000,0.0324,0.013523,0.002678,0.000431,0.002468
17586000,0.0324,0.013523,0.002678,0.000431,0.002351
17587000,0.0324,0.013523,0.002678,0.000431,0.002586
17588000,0.0324,0.013523,0.002678,0.000431,0.002233
17589000,0.0324,0.013523,0.002678,0.000431,0.002468
17590000,0.0324,0.013523,0.002678,0.000431,0.002116
17591000,0.0324,0.013523,0.002678,0.000431,0.001528
17592000,0.0324,0.013523,0.002678,0.000431,0.001763
17593000,0.0324,0.013523,0.002678,0.000431,0.001645
17594000,0.0324,0.013523,0.002678,0.000431,0.002703
17595000,0.0324,0.013523,0.002678,0.000431,0.001763
17596000,0.0324,0.013523,0.002678,0.000431,0.187810
17597000,0.0324,0.013523,0.002678,0.000431,0.504078
17598000,0.0324,0.013523,0.002678,0.000431,0.524528
17599000,0.0324,0.013523,0.002678,0.000431,0.134922
17600000,0.0324,0.013523,0.002678,0.000431,0.132572
17601000,0.0324,0.013523,0.002678,0.000431,0.555086
17602000,0.0324,0.013523,0.002678,0.000431,0.250218
17603000,0.0324,0.013523,0.002678,0.000431,0.263733
17604000,0.0324,0.013523,0.002678,0.000431,0.280892
17605000,0.0324,0.013523,0.002678,0.000431,0.144677
17606000,0.0324,0.013523,0.002678,0.000431,0.159368
17607000,0.0324,0.013523,0.002678,0.000431,0.114120
17608000,0.0324,0.013523,0.002678,0.000431,0.417225
17609000,0.0324,0.013523,0.002678,0.000431,0.188280
17610000,0.0324,0.013523,0.002678,0.000431,0.095550
17611000,0.0324,0.013523,0.002678,0.000431,0.070752
17612000,0.0324,0.013523,0.002678,0.000431,0.063935
17613000,0.0324,0.013523,0.002678,0.000431,0.046541
17614000,0.0324,0.013523,0.002678,0.000431,0.033496
17615000,0.0324,0.013523,0.002678,0.000431,0.033260
17616000,0.0324,0.013523,0.002678,0.000431,0.029029
17617000,0.0324,0.013523,0.002678,0.000431,0.025034
17618000,0.0324,0.013523,0.002678,0.000431,0.026796
17619000,0.0324,0.013523,0.002678,0.000431,0.021743
17620000,0.0324,0.013523,0.002678,0.000431,0.014221
17621000,0.0324,0.013523,0.002678,0.000431,0.013516
17622000,0.0324,0.013523,0.002678,0.000431,0.007874
17623000,0.0324,0.013523,0.002678,0.000431,0.007522
17624000,0.0324,0.013523,0.002678,0.000431,0.007522
17625000,0.0324,0.013523,0.002678,0.000431,0.008109
17626000,0.0324,0.013523,0.002678,0.000431,0.006934
17627000,0.0324,0.013523,0.002678,0.000431,0.007522
17628000,0.0324,0.013523,0.002678,0.000431,0.007404
17629000,0.0324,0.013523,0.002678,0.000431,0.007522
17630000,0.0324,0.013523,0.002678,0.000431,0.007522
17631000,0.0324,0.013523,0.002678,0.000431,0.008345
17632000,0.0324,0.013523,0.002678,0.000431,0.007874
17633000,0.0324,0.013523,0.002678,0.000431,0.008462
17634000,0.0324,0.013523,0.002678,0.000431,0.004231
17635000,0.0324,0.013523,0.002678,0.000431,0.006229
17636000,0.0324,0.013523,0.002678,0.000431,0.004819
17637000,0.0324,0.013523,0.002678,0.000431,0.002116
17638000,0.0324,0.013523,0.002678,0.000431,0.002703
17639000,0.0324,0.013523,0.002678,0.000431,0.002468
17640000,0.0324,0.013523,0.002678,0.000431,0.002586
17641000,0.0324,0.013523,0.002678,0.000431,0.002351
17642000,0.0324,0.013523,0.002678,0.000431,0.004231
17643000,0.0324,0.013523,0.002678,0.000431,0.001528
17644000,0.0324,0.013523,0.002678,0.000431,0.001998
17645000,0.0324,0.013523,0.002678,0.000431,0.001645
17646000,0.0324,0.013523,0.002678,0.000431,0.001763
17647000,0.0324,0.013523,0.002678,0.000431,0.001645
17648000,0.0324,0.013523,0.002678,0.000431,0.001410
17649000,0.0324,0.013523,0.002678,0.000431,0.001880
17650000,0.0324,0.013523,0.002678,0.000431,0.001645
17651000,0.0324,0.013523,0.002678,0.000431,0.001410
17652000,0.0324,0.013523,0.002678,0.000431,0.001645
17653000,0.0324,0.013523,0.002678,0.000431,0.001763
17654000,0.0324,0.013523,0.002678,0.000431,0.001528
17655000,0.0324,0.013523,0.002678,0.000431,0.001880
17656000,0.0324,0.013523,0.002678,0.000431,0.001293
17657000,0.0324,0.013523,0.002678,0.000431,0.001763
17658000,0.0324,0.013523,0.002678,0.000431,0.001880
17659000,0.0324,0.013523,0.002678,0.000431,0.001175
17660000,0.0324,0.013523,0.002678,0.000431,0.001880
17661000,0.0324,0.013523,0.002678,0.000431,0.001763
17662000,0.0324,0.013523,0.002678,0.000431,0.001763
17663000,0.0324,0.013523,0.002678,0.000431,0.001410
17664000,0.0324,0.013523,0.002678,0.000431,0.001880
17665000,0.0324,0.013523,0.002678,0.000431,0.001410
17666000,0.0324,0.013523,0.002678,0.000431,0.001763
17667000,0.0324,0.013523,0.002678,0.000431,0.001763
17668000,0.0324,0.013523,0.002678,0.000431,0.001175
17669000,0.0324,0.013523,0.002678,0.000431,0.001175
17670000,0.0324,0.013523,0.002678,0.000431,0.001998
17671000,0.0324,0.013523,0.002678,0.000431,0.395717
17672000,0.0324,0.013523,0.002678,0.000431,0.721506
17673000,0.0324,0.013523,0.002678,0.000431,0.143267
17674000,0.0324,0.013523,0.002678,0.000431,0.134217
17675000,0.0324,0.013523,0.002678,0.000431,0.172179
17676000,0.0324,0.013523,0.002678,0.000431,0.621959
17677000,0.0324,0.013523,0.002678,0.000431,0.246339
17678000,0.0324,0.013523,0.002678,0.000431,0.288179
17679000,0.0324,0.013523,0.002678,0.000431,0.198975
17680000,0.0324,0.013523,0.002678,0.000431,0.145147
17681000,0.0324,0.013523,0.002678,0.000431,0.143267
17682000,0.0324,0.013523,0.002678,0.000431,0.238817
17683000,0.0324,0.013523,0.002678,0.000431,0.355758
17684000,0.0324,0.013523,0.002678,0.000431,0.071457
17685000,0.0324,0.013523,0.002678,0.000431,0.058647
17686000,0.0324,0.013523,0.002678,0.000431,0.058059
17687000,0.0324,0.013523,0.002678,0.000431,0.043956
17688000,0.0324,0.013523,0.002678,0.000431,0.040547
17689000,0.0324,0.013523,0.002678,0.000431,0.030087
17690000,0.0324,0.013523,0.002678,0.000431,0.023976
17691000,0.0324,0.013523,0.002678,0.000431,0.018334
17692000,0.0324,0.013523,0.002678,0.000431,0.020685
17693000,0.0324,0.013523,0.002678,0.000431,0.017277
17694000,0.0324,0.013523,0.002678,0.000431,0.015631
17695000,0.0324,0.013523,0.002678,0.000431,0.013633
17696000,0.0324,0.013523,0.002678,0.000431,0.007874
17697000,0.0324,0.013523,0.002678,0.000431,0.009872
17698000,0.0324,0.013523,0.002678,0.000431,0.006817
17699000,0.0324,0.013523,0.002678,0.000431,0.010225
17700000,0.0324,0.013523,0.002678,0.000431,0.006229
17701000,0.0324,0.013523,0.002678,0.000431,0.004349
17702000,0.0324,0.013523,0.002678,0.000431,0.005289
17703000,0.0324,0.013523,0.002678,0.000431,0.005289
17704000,0.0324,0.013523,0.002678,0.000431,0.004466
17705000,0.0324,0.013523,0.002678,0.000431,0.005289
17706000,0.0324,0.013523,0.002678,0.000431,0.004466
17707000,0.0324,0.013523,0.002678,0.000431,0.005171
17708000,0.0324,0.013523,0.002678,0.000431,0.005289
17709000,0.0324,0.013523,0.002678,0.000431,0.004701
17710000,0.0324,0.013523,0.002678,0.000431,0.004819
17711000,0.0324,0.013523,0.002678,0.000431,0.005289
17712000,0.0324,0.013523,0.002678,0.000431,0.005054
17713000,0.0324,0.013523,0.002678,0.000431,0.007169
17714000,0.0324,0.013523,0.002678,0.000431,0.003408
17715000,0.0324,0.013523,0.002678,0.000431,0.003291
17716000,0.0324,0.013523,0.002678,0.000431,0.003291
17717000,0.0324,0.013523,0.002678,0.000431,0.005171
17718000,0.0324,0.013523,0.002678,0.000431,0.002351
17719000,0.0324,0.013523,0.002678,0.000431,0.002703
17720000,0.0324,0.013523,0.002678,0.000431,0.002351
17721000,0.0324,0.013523,0.002678,0.000431,0.001763
17722000,0.0324,0.013523,0.002678,0.000431,0.001645
17723000,0.0324,0.013523,0.002678,0.000431,0.001645
17724000,0.0324,0.013523,0.002678,0.000431,0.001763
17725000,0.0324,0.013523,0.002678,0.000431,0.001645
17726000,0.0324,0.013523,0.002678,0.000431,0.001763
17727000,0.0324,0.013523,0.002678,0.000431,0.003291
17728000,0.0324,0.013523,0.002678,0.000431,0.000823
17729000,0.0324,0.013523,0.002678,0.000431,0.000940
17730000,0.0324,0.013523,0.002678,0.000431,0.000940
17731000,0.0324,0.013523,0.002678,0.000431,0.000823
17732000,0.0324,0.013523,0.002678,0.000431,0.000823
17733000,0.0324,0.013523,0.002678,0.000431,0.000823
17734000,0.0324,0.013523,0.002678,0.000431,0.000823
17735000,0.0324,0.013523,0.002678,0.000431,0.000940
17736000,0.0324,0.013523,0.002678,0.000431,0.000823
17737000,0.0324,0.013523,0.002678,0.000431,0.000823
17738000,0.0324,0.013523,0.002678,0.000431,0.000940
17739000,0.0324,0.013523,0.002678,0.000431,0.000823
17740000,0.0324,0.013523,0.002678,0.000431,0.000823
17741000,0.0324,0.013523,0.002678,0.000431,0.000823
17742000,0.0324,0.013523,0.002678,0.000431,0.000823
17743000,0.0324,0.013523,0.002678,0.000431,0.000940
17744000,0.0324,0.013523,0.002678,0.000431,0.000823
17745000,0.0324,0.013523,0.002678,0.000431,0.000823
17746000,0.0324,0.013523,0.002678,0.000431,0.000940
17747000,0.0324,0.013523,0.002678,0.000431,0.000823
17748000,0.0324,0.013523,0.002678,0.000431,0.071222
17749000,0.0324,0.013523,0.002678,0.000431,0.529347
17750000,0.0324,0.013523,0.002678,0.000431,0.557554
17751000,0.0324,0.013523,0.002678,0.000431,0.131397
17752000,0.0324,0.013523,0.002678,0.000431,0.133630
17753000,0.0324,0.013523,0.002678,0.000431,0.546859
17754000,0.0324,0.013523,0.002678,0.000431,0.225419
17755000,0.0324,0.013523,0.002678,0.000431,0.252686
17756000,0.0324,0.013523,0.002678,0.000431,0.327669
17757000,0.0324,0.013523,0.002678,0.000431,0.142092
17758000,0.0324,0.013523,0.002678,0.000431,0.141857
17759000,0.0324,0.013523,0.002678,0.000431,0.144677
17760000,0.0324,0.013523,0.002678,0.000431,0.228827
17761000,0.0324,0.013523,0.002678,0.000431,0.384317
17762000,0.0324,0.013523,0.002678,0.000431,0.076511
17763000,0.0324,0.013523,0.002678,0.000431,0.068049
17764000,0.0324,0.013523,0.002678,0.000431,0.058176
17765000,0.0324,0.013523,0.002678,0.000431,0.045718
17766000,0.0324,0.013523,0.002678,0.000431,0.037139
17767000,0.0324,0.013523,0.002678,0.000431,0.040312
17768000,0.0324,0.013523,0.002678,0.000431,0.032673
17769000,0.0324,0.013523,0.002678,0.000431,0.028912
17770000,0.0324,0.013523,0.002678,0.000431,0.032555
17771000,0.0324,0.013523,0.002678,0.000431,0.029617
17772000,0.0324,0.013523,0.002678,0.000431,0.015396
17773000,0.0324,0.013523,0.002678,0.000431,0.015161
17774000,0.0324,0.013523,0.002678,0.000431,0.014809
17775000,0.0324,0.013523,0.002678,0.000431,0.007169
17776000,0.0324,0.013523,0.002678,0.000431,0.006934
17777000,0.0324,0.013523,0.002678,0.000431,0.007522
17778000,0.0324,0.013523,0.002678,0.000431,0.005759
17779000,0.0324,0.013523,0.002678,0.000431,0.003526
17780000,0.0324,0.013523,0.002678,0.000431,0.003408
17781000,0.0324,0.013523,0.002678,0.000431,0.003526
17782000,0.0324,0.013523,0.002678,0.000431,0.006934
17783000,0.0324,0.013523,0.002678,0.000431,0.003056
17784000,0.0324,0.013523,0.002678,0.000431,0.001763
17785000,0.0324,0.013523,0.002678,0.000431,0.001645
17786000,0.0324,0.013523,0.002678,0.000431,0.001763
17787000,0.0324,0.013523,0.002678,0.000431,0.001645
17788000,0.0324,0.013523,0.002678,0.000431,0.001880
17789000,0.0324,0.013523,0.002678,0.000431,0.001763
17790000,0.0324,0.013523,0.002678,0.000431,0.001763
17791000,0.0324,0.013523,0.002678,0.000431,0.001763
17792000,0.0324,0.013523,0.002678,0.000431,0.001880
17793000,0.0324,0.013523,0.002678,0.000431,0.001763
17794000,0.0324,0.013523,0.002678,0.000431,0.001645
17795000,0.0324,0.013523,0.002678,0.000431,0.001763
17796000,0.0324,0.013523,0.002678,0.000431,0.001763
17797000,0.0324,0.013523,0.002678,0.000431,0.003291
17798000,0.0324,0.013523,0.002678,0.000431,0.000823
17799000,0.0324,0.013523,0.002678,0.000431,0.000823
17800000,0.0324,0.013523,0.002678,0.000431,0.000940
17801000,0.0324,0.013523,0.002678,0.000431,0.000823
17802000,0.0324,0.013523,0.002678,0.000431,0.000940
17803000,0.0324,0.013523,0.002678,0.000431,0.000823
17804000,0.0324,0.013523,0.002678,0.000431,0.000940
17805000,0.0324,0.013523,0.002678,0.000431,0.000823
17806000,0.0324,0.013523,0.002678,0.000431,0.000823
17807000,0.0324,0.013523,0.002678,0.000431,0.000940
17808000,0.0324,0.013523,0.002678,0.000431,0.000940
17809000,0.0324,0.013523,0.002678,0.000431,0.000823
17810000,0.0324,0.013523,0.002678,0.000431,0.000823
17811000,0.0324,0.013523,0.002678,0.000431,0.000940
17812000,0.0324,0.013523,0.002678,0.000431,0.001763
17813000,0.0324,0.013523,0.002678,0.000431,0.329902
17814000,0.0324,0.013523,0.002678,0.000431,0.684954
17815000,0.0324,0.013523,0.002678,0.000431,0.226359
17816000,0.0324,0.013523,0.002678,0.000431,0.133747
17817000,0.0324,0.013523,0.002678,0.000431,0.132102
17818000,0.0324,0.013523,0.002678,0.000431,0.591284
17819000,0.0324,0.013523,0.002678,0.000431,0.234821
17820000,0.0324,0.013523,0.002678,0.000431,0.272313
17821000,0.0324,0.013523,0.002678,0.000431,0.252333
17822000,0.0324,0.013523,0.002678,0.000431,0.151141
17823000,0.0324,0.013523,0.002678,0.000431,0.182639
17824000,0.0324,0.013523,0.002678,0.000431,0.082270
17825000,0.0324,0.013523,0.002678,0.000431,0.472933
17826000,0.0324,0.013523,0.002678,0.000431,0.116000
17827000,0.0324,0.013523,0.002678,0.000431,0.076393
17828000,0.0324,0.013523,0.002678,0.000431,0.066756
17829000,0.0324,0.013523,0.002678,0.000431,0.049362
17830000,0.0324,0.013523,0.002678,0.000431,0.044661
17831000,0.0324,0.013523,0.002678,0.000431,0.029617
17832000,0.0324,0.013523,0.002678,0.000431,0.025504
17833000,0.0324,0.013523,0.002678,0.000431,0.024798
17834000,0.0324,0.013523,0.002678,0.000431,0.023388
17835000,0.0324,0.013523,0.002678,0.000431,0.017747
17836000,0.0324,0.013523,0.002678,0.000431,0.016924
17837000,0.0324,0.013523,0.002678,0.000431,0.015749
17838000,0.0324,0.013523,0.002678,0.000431,0.015514
17839000,0.0324,0.013523,0.002678,0.000431,0.012811
17840000,0.0324,0.013523,0.002678,0.000431,0.012811
17841000,0.0324,0.013523,0.002678,0.000431,0.014338
17842000,0.0324,0.013523,0.002678,0.000431,0.011518
17843000,0.0324,0.013523,0.002678,0.000431,0.012693
17844000,0.0324,0.013523,0.002678,0.000431,0.006699
17845000,0.0324,0.013523,0.002678,0.000431,0.004113
17846000,0.0324,0.013523,0.002678,0.000431,0.005524
17847000,0.0324,0.013523,0.002678,0.000431,0.003996
17848000,0.0324,0.013523,0.002678,0.000431,0.003761
17849000,0.0324,0.013523,0.002678,0.000431,0.003408
17850000,0.0324,0.013523,0.002678,0.000431,0.003173
17851000,0.0324,0.013523,0.002678,0.000431,0.003408
17852000,0.0324,0.013523,0.002678,0.000431,0.003408
17853000,0.0324,0.013523,0.002678,0.000431,0.003643
17854000,0.0324,0.013523,0.002678,0.000431,0.003173
17855000,0.0324,0.013523,0.002678,0.000431,0.003291
17856000,0.0324,0.013523,0.002678,0.000431,0.003173
17857000,0.0324,0.013523,0.002678,0.000431,0.003291
17858000,0.0324,0.013523,0.002678,0.000431,0.003408
17859000,0.0324,0.013523,0.002678,0.000431,0.003291
17860000,0.0324,0.013523,0.002678,0.000431,0.003526
17861000,0.0324,0.013523,0.002678,0.000431,0.003291
17862000,0.0324,0.013523,0.002678,0.000431,0.003173
17863000,0.0324,0.013523,0.002678,0.000431,0.003291
17864000,0.0324,0.013523,0.002678,0.000431,0.003643
17865000,0.0324,0.013523,0.002678,0.000431,0.003291
17866000,0.0324,0.013523,0.002678,0.000431,0.004584
17867000,0.0324,0.013523,0.002678,0.000431,0.002351
17868000,0.0324,0.013523,0.002678,0.000431,0.002821
17869000,0.0324,0.013523,0.002678,0.000431,0.002586
17870000,0.0324,0.013523,0.002678,0.000431,0.002116
17871000,0.0324,0.013523,0.002678,0.000431,0.002821
17872000,0.0324,0.013523,0.002678,0.000431,0.002351
17873000,0.0324,0.013523,0.002678,0.000431,0.002586
17874000,0.0324,0.013523,0.002678,0.000431,0.002116
17875000,0.0324,0.013523,0.002678,0.000431,0.001645
17876000,0.0324,0.013523,0.002678,0.000431,0.001763
17877000,0.0324,0.013523,0.002678,0.000431,0.001645
17878000,0.0324,0.013523,0.002678,0.000431,0.001763
17879000,0.0324,0.013523,0.002678,0.000431,0.001645
17880000,0.0324,0.013523,0.002678,0.000431,0.001763
17881000,0.0324,0.013523,0.002678,0.000431,0.001528
17882000,0.0324,0.013523,0.002678,0.000431,0.001763
17883000,0.0324,0.013523,0.002678,0.000431,0.003291
17884000,0.0324,0.013523,0.002678,0.000431,0.000823
17885000,0.0324,0.013523,0.002678,0.000431,0.000940
17886000,0.0324,0.013523,0.002678,0.000431,0.070634
17887000,0.0324,0.013523,0.002678,0.000431,0.514773
17888000,0.0324,0.013523,0.002678,0.000431,0.589521
17889000,0.0324,0.013523,0.002678,0.000431,0.133042
17890000,0.0324,0.013523,0.002678,0.000431,0.133512
17891000,0.0324,0.013523,0.002678,0.000431,0.552970
17892000,0.0324,0.013523,0.002678,0.000431,0.235879
17893000,0.0324,0.013523,0.002678,0.000431,0.244106
17894000,0.0324,0.013523,0.002678,0.000431,0.354465
17895000,0.0324,0.013523,0.002678,0.000431,0.140799
17896000,0.0324,0.013523,0.002678,0.000431,0.152317
17897000,0.0324,0.013523,0.002678,0.000431,0.106833
17898000,0.0324,0.013523,0.002678,0.000431,0.460358
17899000,0.0324,0.013523,0.002678,0.000431,0.170651
17900000,0.0324,0.013523,0.002678,0.000431,0.088499
17901000,0.0324,0.013523,0.002678,0.000431,0.070752
17902000,0.0324,0.013523,0.002678,0.000431,0.063818
17903000,0.0324,0.013523,0.002678,0.000431,0.056884
17904000,0.0324,0.013523,0.002678,0.000431,0.052535
17905000,0.0324,0.013523,0.002678,0.000431,0.044778
17906000,0.0324,0.013523,0.002678,0.000431,0.032320
17907000,0.0324,0.013523,0.002678,0.000431,0.025621
17908000,0.0324,0.013523,0.002678,0.000431,0.027149
17909000,0.0324,0.013523,0.002678,0.000431,0.027031
17910000,0.0324,0.013523,0.002678,0.000431,0.024798
17911000,0.0324,0.013523,0.002678,0.000431,0.018687
17912000,0.0324,0.013523,0.002678,0.000431,0.018922
17913000,0.0324,0.013523,0.002678,0.000431,0.012811
17914000,0.0324,0.013523,0.002678,0.000431,0.013868
17915000,0.0324,0.013523,0.002678,0.000431,0.012458
17916000,0.0324,0.013523,0.002678,0.000431,0.007404
17917000,0.0324,0.013523,0.002678,0.000431,0.007757
17918000,0.0324,0.013523,0.002678,0.000431,0.011518
17919000,0.0324,0.013523,0.002678,0.000431,0.005759
17920000,0.0324,0.013523,0.002678,0.000431,0.006817
17921000,0.0324,0.013523,0.002678,0.000431,0.004936
17922000,0.0324,0.013523,0.002678,0.000431,0.004819
17923000,0.0324,0.013523,0.002678,0.000431,0.005406
17924000,0.0324,0.013523,0.002678,0.000431,0.005054
17925000,0.0324,0.013523,0.002678,0.000431,0.004936
17926000,0.0324,0.013523,0.002678,0.000431,0.004936
17927000,0.0324,0.013523,0.002678,0.000431,0.005054
17928000,0.0324,0.013523,0.002678,0.000431,0.006699
17929000,0.0324,0.013523,0.002678,0.000431,0.003761
17930000,0.0324,0.013523,0.002678,0.000431,0.004231
17931000,0.0324,0.013523,0.002678,0.000431,0.005524
17932000,0.0324,0.013523,0.002678,0.000431,0.003526
17933000,0.0324,0.013523,0.002678,0.000431,0.003408
17934000,0.0324,0.013523,0.002678,0.000431,0.002938
17935000,0.0324,0.013523,0.002678,0.000431,0.003761
17936000,0.0324,0.013523,0.002678,0.000431,0.002938
17937000,0.0324,0.013523,0.002678,0.000431,0.003526
17938000,0.0324,0.013523,0.002678,0.000431,0.003526
17939000,0.0324,0.013523,0.002678,0.000431,0.002938
17940000,0.0324,0.013523,0.002678,0.000431,0.003526
17941000,0.0324,0.013523,0.002678,0.000431,0.003173
17942000,0.0324,0.013523,0.002678,0.000431,0.006464
17943000,0.0324,0.013523,0.002678,0.000431,0.001998
17944000,0.0324,0.013523,0.002678,0.000431,0.001528
17945000,0.0324,0.013523,0.002678,0.000431,0.001763
17946000,0.0324,0.013523,0.002678,0.000431,0.001763
17947000,0.0324,0.013523,0.002678,0.000431,0.001880
17948000,0.0324,0.013523,0.002678,0.000431,0.001528
17949000,0.0324,0.013523,0.002678,0.000431,0.001763
17950000,0.0324,0.013523,0.002678,0.000431,0.001763
17951000,0.0324,0.013523,0.002678,0.000431,0.001645
17952000,0.0324,0.013523,0.002678,0.000431,0.001645
17953000,0.0324,0.013523,0.002678,0.000431,0.001763
17954000,0.0324,0.013523,0.002678,0.000431,0.002586
17955000,0.0324,0.013523,0.002678,0.000431,0.001763
17956000,0.0324,0.013523,0.002678,0.000431,0.000823
17957000,0.0324,0.013523,0.002678,0.000431,0.000940
17958000,0.0324,0.013523,0.002678,0.000431,0.000823
17959000,0.0324,0.013523,0.002678,0.000431,0.000823
17960000,0.0324,0.013523,0.002678,0.000431,0.000823
17961000,0.0324,0.013523,0.002678,0.000431,0.000705
17962000,0.0324,0.013523,0.002678,0.000431,0.000940
17963000,0.0324,0.013523,0.002678,0.000431,0.000940
17964000,0.0324,0.013523,0.002678,0.000431,0.000705
17965000,0.0324,0.013523,0.002678,0.000431,0.000940
17966000,0.0324,0.013523,0.002678,0.000431,0.000705
17967000,0.0324,0.013523,0.002678,0.000431,0.000940
17968000,0.0324,0.013523,0.002678,0.000431,0.000940
17969000,0.0324,0.013523,0.002678,0.000431,0.000705
17970000,0.0324,0.013523,0.002678,0.000431,0.000940
17971000,0.0324,0.013523,0.002678,0.000431,0.000705
17972000,0.0324,0.013523,0.002678,0.000431,0.000940
17973000,0.0324,0.013523,0.002678,0.000431,0.000705
17974000,0.0324,0.013523,0.002678,0.000431,0.000940
17975000,0.0324,0.013523,0.002678,0.000431,0.070869
17976000,0.0324,0.013523,0.002678,0.000431,0.537926
17977000,0.0324,0.013523,0.002678,0.000431,0.593282
17978000,0.0324,0.013523,0.002678,0.000431,0.132102
17979000,0.0324,0.013523,0.002678,0.000431,0.133512
17980000,0.0324,0.013523,0.002678,0.000431,0.527819
17981000,0.0324,0.013523,0.002678,0.000431,0.228710
17982000,0.0324,0.013523,0.002678,0.000431,0.238465
17983000,0.0324,0.013523,0.002678,0.000431,0.310274
17984000,0.0324,0.013523,0.002678,0.000431,0.138918
17985000,0.0324,0.013523,0.002678,0.000431,0.143972
17986000,0.0324,0.013523,0.002678,0.000431,0.154197
17987000,0.0324,0.013523,0.002678,0.000431,0.235291
17988000,0.0324,0.013523,0.002678,0.000431,0.365160
17989000,0.0324,0.013523,0.002678,0.000431,0.088146
17990000,0.0324,0.013523,0.002678,0.000431,0.064993
17991000,0.0324,0.013523,0.002678,0.000431,0.056531
17992000,0.0324,0.013523,0.002678,0.000431,0.048422
17993000,0.0324,0.013523,0.002678,0.000431,0.041605
17994000,0.0324,0.013523,0.002678,0.000431,0.042780
17995000,0.0324,0.013523,0.002678,0.000431,0.033848
17996000,0.0324,0.013523,0.002678,0.000431,0.028442
17997000,0.0324,0.013523,0.002678,0.000431,0.032320
17998000,0.0324,0.013523,0.002678,0.000431,0.028324
17999000,0.0324,0.013523,0.002678,0.000431,0.023036
