Cycle,Area(mm^2),PeakDynamic(W),SubthresholdLeakage(W),GateLeakage(W),RunTimeDynamic(W)
14000000,0.0324,0.013523,0.002678,0.000431,0.015866
14001000,0.0324,0.013523,0.002678,0.000431,0.011518
14002000,0.0324,0.013523,0.002678,0.000431,0.012928
14003000,0.0324,0.013523,0.002678,0.000431,0.013633
14004000,0.0324,0.013523,0.002678,0.000431,0.012811
14005000,0.0324,0.013523,0.002678,0.000431,0.013516
14006000,0.0324,0.013523,0.002678,0.000431,0.010578
14007000,0.0324,0.013523,0.002678,0.000431,0.005876
14008000,0.0324,0.013523,0.002678,0.000431,0.008345
14009000,0.0324,0.013523,0.002678,0.000431,0.005641
14010000,0.0324,0.013523,0.002678,0.000431,0.005289
14011000,0.0324,0.013523,0.002678,0.000431,0.005289
14012000,0.0324,0.013523,0.002678,0.000431,0.007287
14013000,0.0324,0.013523,0.002678,0.000431,0.005994
14014000,0.0324,0.013523,0.002678,0.000431,0.004936
14015000,0.0324,0.013523,0.002678,0.000431,0.004113
14016000,0.0324,0.013523,0.002678,0.000431,0.004701
14017000,0.0324,0.013523,0.002678,0.000431,0.004466
14018000,0.0324,0.013523,0.002678,0.000431,0.005876
14019000,0.0324,0.013523,0.002678,0.000431,0.003878
14020000,0.0324,0.013523,0.002678,0.000431,0.003056
14021000,0.0324,0.013523,0.002678,0.000431,0.003056
14022000,0.0324,0.013523,0.002678,0.000431,0.005759
14023000,0.0324,0.013523,0.002678,0.000431,0.001645
14024000,0.0324,0.013523,0.002678,0.000431,0.001763
14025000,0.0324,0.013523,0.002678,0.000431,0.001763
14026000,0.0324,0.013523,0.002678,0.000431,0.003408
14027000,0.0324,0.013523,0.002678,0.000431,0.000940
14028000,0.0324,0.013523,0.002678,0.000431,0.000823
14029000,0.0324,0.013523,0.002678,0.000431,0.000823
14030000,0.0324,0.013523,0.002678,0.000431,0.000940
14031000,0.0324,0.013523,0.002678,0.000431,0.013868
14032000,0.0324,0.013523,0.002678,0.000431,0.554380
14033000,0.0324,0.013523,0.002678,0.000431,0.658510
14034000,0.0324,0.013523,0.002678,0.000431,0.132572
14035000,0.0324,0.013523,0.002678,0.000431,0.133042
14036000,0.0324,0.013523,0.002678,0.000431,0.297346
14037000,0.0324,0.013523,0.002678,0.000431,0.479515
14038000,0.0324,0.013523,0.002678,0.000431,0.270902
14039000,0.0324,0.013523,0.002678,0.000431,0.323673
14040000,0.0324,0.013523,0.002678,0.000431,0.182639
14041000,0.0324,0.013523,0.002678,0.000431,0.151376
14042000,0.0324,0.013523,0.002678,0.000431,0.109536
14043000,0.0324,0.013523,0.002678,0.000431,0.325553
14044000,0.0324,0.013523,0.002678,0.000431,0.361164
14045000,0.0324,0.013523,0.002678,0.000431,0.137390
14046000,0.0324,0.013523,0.002678,0.000431,0.104483
14047000,0.0324,0.013523,0.002678,0.000431,0.085913
14048000,0.0324,0.013523,0.002678,0.000431,0.063113
14049000,0.0324,0.013523,0.002678,0.000431,0.057471
14050000,0.0324,0.013523,0.002678,0.000431,0.041017
14051000,0.0324,0.013523,0.002678,0.000431,0.041135
14052000,0.0324,0.013523,0.002678,0.000431,0.030675
14053000,0.0324,0.013523,0.002678,0.000431,0.037962
14054000,0.0324,0.013523,0.002678,0.000431,0.022213
14055000,0.0324,0.013523,0.002678,0.000431,0.025504
14056000,0.0324,0.013523,0.002678,0.000431,0.020097
14057000,0.0324,0.013523,0.002678,0.000431,0.019040
14058000,0.0324,0.013523,0.002678,0.000431,0.016924
14059000,0.0324,0.013523,0.002678,0.000431,0.018922
14060000,0.0324,0.013523,0.002678,0.000431,0.016336
14061000,0.0324,0.013523,0.002678,0.000431,0.014573
14062000,0.0324,0.013523,0.002678,0.000431,0.012223
14063000,0.0324,0.013523,0.002678,0.000431,0.011988
14064000,0.0324,0.013523,0.002678,0.000431,0.012576
14065000,0.0324,0.013523,0.002678,0.000431,0.013868
14066000,0.0324,0.013523,0.002678,0.000431,0.013633
14067000,0.0324,0.013523,0.002678,0.000431,0.012105
14068000,0.0324,0.013523,0.002678,0.000431,0.010813
14069000,0.0324,0.013523,0.002678,0.000431,0.008345
14070000,0.0324,0.013523,0.002678,0.000431,0.006582
14071000,0.0324,0.013523,0.002678,0.000431,0.008697
14072000,0.0324,0.013523,0.002678,0.000431,0.005759
14073000,0.0324,0.013523,0.002678,0.000431,0.005876
14074000,0.0324,0.013523,0.002678,0.000431,0.006111
14075000,0.0324,0.013523,0.002678,0.000431,0.006111
14076000,0.0324,0.013523,0.002678,0.000431,0.005994
14077000,0.0324,0.013523,0.002678,0.000431,0.007874
14078000,0.0324,0.013523,0.002678,0.000431,0.004701
14079000,0.0324,0.013523,0.002678,0.000431,0.005406
14080000,0.0324,0.013523,0.002678,0.000431,0.004819
14081000,0.0324,0.013523,0.002678,0.000431,0.005054
14082000,0.0324,0.013523,0.002678,0.000431,0.008932
14083000,0.0324,0.013523,0.002678,0.000431,0.004936
14084000,0.0324,0.013523,0.002678,0.000431,0.003291
14085000,0.0324,0.013523,0.002678,0.000431,0.004113
14086000,0.0324,0.013523,0.002678,0.000431,0.003526
14087000,0.0324,0.013523,0.002678,0.000431,0.002468
14088000,0.0324,0.013523,0.002678,0.000431,0.002586
14089000,0.0324,0.013523,0.002678,0.000431,0.002586
14090000,0.0324,0.013523,0.002678,0.000431,0.002586
14091000,0.0324,0.013523,0.002678,0.000431,0.002468
14092000,0.0324,0.013523,0.002678,0.000431,0.002586
14093000,0.0324,0.013523,0.002678,0.000431,0.002468
14094000,0.0324,0.013523,0.002678,0.000431,0.002703
14095000,0.0324,0.013523,0.002678,0.000431,0.002586
14096000,0.0324,0.013523,0.002678,0.000431,0.004231
14097000,0.0324,0.013523,0.002678,0.000431,0.001528
14098000,0.0324,0.013523,0.002678,0.000431,0.001880
14099000,0.0324,0.013523,0.002678,0.000431,0.001880
14100000,0.0324,0.013523,0.002678,0.000431,0.001528
14101000,0.0324,0.013523,0.002678,0.000431,0.001763
14102000,0.0324,0.013523,0.002678,0.000431,0.001763
14103000,0.0324,0.013523,0.002678,0.000431,0.001763
14104000,0.0324,0.013523,0.002678,0.000431,0.001645
14105000,0.0324,0.013523,0.002678,0.000431,0.001880
14106000,0.0324,0.013523,0.002678,0.000431,0.001763
14107000,0.0324,0.013523,0.002678,0.000431,0.001880
14108000,0.0324,0.013523,0.002678,0.000431,0.001528
14109000,0.0324,0.013523,0.002678,0.000431,0.003878
14110000,0.0324,0.013523,0.002678,0.000431,0.000940
14111000,0.0324,0.013523,0.002678,0.000431,0.000823
14112000,0.0324,0.013523,0.002678,0.000431,0.000823
14113000,0.0324,0.013523,0.002678,0.000431,0.000940
14114000,0.0324,0.013523,0.002678,0.000431,0.000940
14115000,0.0324,0.013523,0.002678,0.000431,0.000823
14116000,0.0324,0.013523,0.002678,0.000431,0.000823
14117000,0.0324,0.013523,0.002678,0.000431,0.000940
14118000,0.0324,0.013523,0.002678,0.000431,0.000823
14119000,0.0324,0.013523,0.002678,0.000431,0.000940
14120000,0.0324,0.013523,0.002678,0.000431,0.000823
14121000,0.0324,0.013523,0.002678,0.000431,0.000705
14122000,0.0324,0.013523,0.002678,0.000431,0.000940
14123000,0.0324,0.013523,0.002678,0.000431,0.000940
14124000,0.0324,0.013523,0.002678,0.000431,0.000705
14125000,0.0324,0.013523,0.002678,0.000431,0.000940
14126000,0.0324,0.013523,0.002678,0.000431,0.000705
14127000,0.0324,0.013523,0.002678,0.000431,0.000940
14128000,0.0324,0.013523,0.002678,0.000431,0.000940
14129000,0.0324,0.013523,0.002678,0.000431,0.000705
14130000,0.0324,0.013523,0.002678,0.000431,0.000940
14131000,0.0324,0.013523,0.002678,0.000431,0.000823
14132000,0.0324,0.013523,0.002678,0.000431,0.000823
14133000,0.0324,0.013523,0.002678,0.000431,0.000940
14134000,0.0324,0.013523,0.002678,0.000431,0.000705
14135000,0.0324,0.013523,0.002678,0.000431,0.000940
14136000,0.0324,0.013523,0.002678,0.000431,0.000823
14137000,0.0324,0.013523,0.002678,0.000431,0.000823
14138000,0.0324,0.013523,0.002678,0.000431,0.000823
14139000,0.0324,0.013523,0.002678,0.000431,0.000823
14140000,0.0324,0.013523,0.002678,0.000431,0.000940
14141000,0.0324,0.013523,0.002678,0.000431,0.000705
14142000,0.0324,0.013523,0.002678,0.000431,0.000940
14143000,0.0324,0.013523,0.002678,0.000431,0.000940
14144000,0.0324,0.013523,0.002678,0.000431,0.000823
14145000,0.0324,0.013523,0.002678,0.000431,0.000823
14146000,0.0324,0.013523,0.002678,0.000431,0.000940
14147000,0.0324,0.013523,0.002678,0.000431,0.000940
14148000,0.0324,0.013523,0.002678,0.000431,0.000823
14149000,0.0324,0.013523,0.002678,0.000431,0.000823
14150000,0.0324,0.013523,0.002678,0.000431,0.000940
14151000,0.0324,0.013523,0.002678,0.000431,0.000823
14152000,0.0324,0.013523,0.002678,0.000431,0.000823
14153000,0.0324,0.013523,0.002678,0.000431,0.000940
14154000,0.0324,0.013523,0.002678,0.000431,0.000705
14155000,0.0324,0.013523,0.002678,0.000431,0.000940
14156000,0.0324,0.013523,0.002678,0.000431,0.000823
14157000,0.0324,0.013523,0.002678,0.000431,0.000823
14158000,0.0324,0.013523,0.002678,0.000431,0.000823
14159000,0.0324,0.013523,0.002678,0.000431,0.000823
14160000,0.0324,0.013523,0.002678,0.000431,0.000823
14161000,0.0324,0.013523,0.002678,0.000431,0.000823
14162000,0.0324,0.013523,0.002678,0.000431,0.000940
14163000,0.0324,0.013523,0.002678,0.000431,0.000705
14164000,0.0324,0.013523,0.002678,0.000431,0.000940
14165000,0.0324,0.013523,0.002678,0.000431,0.000823
14166000,0.0324,0.013523,0.002678,0.000431,0.000823
14167000,0.0324,0.013523,0.002678,0.000431,0.000705
14168000,0.0324,0.013523,0.002678,0.000431,0.000940
14169000,0.0324,0.013523,0.002678,0.000431,0.000940
14170000,0.0324,0.013523,0.002678,0.000431,0.000940
14171000,0.0324,0.013523,0.002678,0.000431,0.000940
14172000,0.0324,0.013523,0.002678,0.000431,0.000823
14173000,0.0324,0.013523,0.002678,0.000431,0.000823
14174000,0.0324,0.013523,0.002678,0.000431,0.000940
14175000,0.0324,0.013523,0.002678,0.000431,0.000823
14176000,0.0324,0.013523,0.002678,0.000431,0.000940
14177000,0.0324,0.013523,0.002678,0.000431,0.000823
14178000,0.0324,0.013523,0.002678,0.000431,0.000940
14179000,0.0324,0.013523,0.002678,0.000431,0.000823
14180000,0.0324,0.013523,0.002678,0.000431,0.000823
14181000,0.0324,0.013523,0.002678,0.000431,0.000940
14182000,0.0324,0.013523,0.002678,0.000431,0.000705
14183000,0.0324,0.013523,0.002678,0.000431,0.000940
14184000,0.0324,0.013523,0.002678,0.000431,0.000823
14185000,0.0324,0.013523,0.002678,0.000431,0.000823
14186000,0.0324,0.013523,0.002678,0.000431,0.000823
14187000,0.0324,0.013523,0.002678,0.000431,0.000823
14188000,0.0324,0.013523,0.002678,0.000431,0.000823
14189000,0.0324,0.013523,0.002678,0.000431,0.000823
14190000,0.0324,0.013523,0.002678,0.000431,0.000940
14191000,0.0324,0.013523,0.002678,0.000431,0.000940
14192000,0.0324,0.013523,0.002678,0.000431,0.000823
14193000,0.0324,0.013523,0.002678,0.000431,0.000823
14194000,0.0324,0.013523,0.002678,0.000431,0.000940
14195000,0.0324,0.013523,0.002678,0.000431,0.000823
14196000,0.0324,0.013523,0.002678,0.000431,0.000940
14197000,0.0324,0.013523,0.002678,0.000431,0.000823
14198000,0.0324,0.013523,0.002678,0.000431,0.000940
14199000,0.0324,0.013523,0.002678,0.000431,0.000823
14200000,0.0324,0.013523,0.002678,0.000431,0.000823
14201000,0.0324,0.013523,0.002678,0.000431,0.000940
14202000,0.0324,0.013523,0.002678,0.000431,0.000940
14203000,0.0324,0.013523,0.002678,0.000431,0.000823
14204000,0.0324,0.013523,0.002678,0.000431,0.000823
14205000,0.0324,0.013523,0.002678,0.000431,0.000940
14206000,0.0324,0.013523,0.002678,0.000431,0.065933
14207000,0.0324,0.013523,0.002678,0.000431,0.583880
14208000,0.0324,0.013523,0.002678,0.000431,0.608796
14209000,0.0324,0.013523,0.002678,0.000431,0.131632
14210000,0.0324,0.013523,0.002678,0.000431,0.133982
14211000,0.0324,0.013523,0.002678,0.000431,0.549562
14212000,0.0324,0.013523,0.002678,0.000431,0.226594
14213000,0.0324,0.013523,0.002678,0.000431,0.280305
14214000,0.0324,0.013523,0.002678,0.000431,0.293115
14215000,0.0324,0.013523,0.002678,0.000431,0.139036
14216000,0.0324,0.013523,0.002678,0.000431,0.143149
14217000,0.0324,0.013523,0.002678,0.000431,0.128693
14218000,0.0324,0.013523,0.002678,0.000431,0.289354
14219000,0.0324,0.013523,0.002678,0.000431,0.382437
14220000,0.0324,0.013523,0.002678,0.000431,0.111299
14221000,0.0324,0.013523,0.002678,0.000431,0.099781
14222000,0.0324,0.013523,0.002678,0.000431,0.067109
14223000,0.0324,0.013523,0.002678,0.000431,0.070399
14224000,0.0324,0.013523,0.002678,0.000431,0.053828
14225000,0.0324,0.013523,0.002678,0.000431,0.048774
14226000,0.0324,0.013523,0.002678,0.000431,0.043368
14227000,0.0324,0.013523,0.002678,0.000431,0.027267
14228000,0.0324,0.013523,0.002678,0.000431,0.026209
14229000,0.0324,0.013523,0.002678,0.000431,0.025386
14230000,0.0324,0.013523,0.002678,0.000431,0.027267
14231000,0.0324,0.013523,0.002678,0.000431,0.016807
14232000,0.0324,0.013523,0.002678,0.000431,0.017512
14233000,0.0324,0.013523,0.002678,0.000431,0.013516
14234000,0.0324,0.013523,0.002678,0.000431,0.013868
14235000,0.0324,0.013523,0.002678,0.000431,0.014456
14236000,0.0324,0.013523,0.002678,0.000431,0.011283
14237000,0.0324,0.013523,0.002678,0.000431,0.012693
14238000,0.0324,0.013523,0.002678,0.000431,0.009167
14239000,0.0324,0.013523,0.002678,0.000431,0.008227
14240000,0.0324,0.013523,0.002678,0.000431,0.007874
14241000,0.0324,0.013523,0.002678,0.000431,0.006464
14242000,0.0324,0.013523,0.002678,0.000431,0.007404
14243000,0.0324,0.013523,0.002678,0.000431,0.005171
14244000,0.0324,0.013523,0.002678,0.000431,0.004701
14245000,0.0324,0.013523,0.002678,0.000431,0.005289
14246000,0.0324,0.013523,0.002678,0.000431,0.005289
14247000,0.0324,0.013523,0.002678,0.000431,0.005289
14248000,0.0324,0.013523,0.002678,0.000431,0.005054
14249000,0.0324,0.013523,0.002678,0.000431,0.006699
14250000,0.0324,0.013523,0.002678,0.000431,0.004466
14251000,0.0324,0.013523,0.002678,0.000431,0.006934
14252000,0.0324,0.013523,0.002678,0.000431,0.005876
14253000,0.0324,0.013523,0.002678,0.000431,0.002703
14254000,0.0324,0.013523,0.002678,0.000431,0.002586
14255000,0.0324,0.013523,0.002678,0.000431,0.003761
14256000,0.0324,0.013523,0.002678,0.000431,0.001880
14257000,0.0324,0.013523,0.002678,0.000431,0.001645
14258000,0.0324,0.013523,0.002678,0.000431,0.001763
14259000,0.0324,0.013523,0.002678,0.000431,0.001645
14260000,0.0324,0.013523,0.002678,0.000431,0.001528
14261000,0.0324,0.013523,0.002678,0.000431,0.003408
14262000,0.0324,0.013523,0.002678,0.000431,0.002821
14263000,0.0324,0.013523,0.002678,0.000431,0.000705
14264000,0.0324,0.013523,0.002678,0.000431,0.000940
14265000,0.0324,0.013523,0.002678,0.000431,0.000705
14266000,0.0324,0.013523,0.002678,0.000431,0.000940
14267000,0.0324,0.013523,0.002678,0.000431,0.000823
14268000,0.0324,0.013523,0.002678,0.000431,0.000823
14269000,0.0324,0.013523,0.002678,0.000431,0.000940
14270000,0.0324,0.013523,0.002678,0.000431,0.000705
14271000,0.0324,0.013523,0.002678,0.000431,0.000940
14272000,0.0324,0.013523,0.002678,0.000431,0.000823
14273000,0.0324,0.013523,0.002678,0.000431,0.000823
14274000,0.0324,0.013523,0.002678,0.000431,0.000823
14275000,0.0324,0.013523,0.002678,0.000431,0.000823
14276000,0.0324,0.013523,0.002678,0.000431,0.000940
14277000,0.0324,0.013523,0.002678,0.000431,0.000705
14278000,0.0324,0.013523,0.002678,0.000431,0.000940
14279000,0.0324,0.013523,0.002678,0.000431,0.000823
14280000,0.0324,0.013523,0.002678,0.000431,0.000823
14281000,0.0324,0.013523,0.002678,0.000431,0.000940
14282000,0.0324,0.013523,0.002678,0.000431,0.000823
14283000,0.0324,0.013523,0.002678,0.000431,0.000940
14284000,0.0324,0.013523,0.002678,0.000431,0.000823
14285000,0.0324,0.013523,0.002678,0.000431,0.000940
14286000,0.0324,0.013523,0.002678,0.000431,0.000823
14287000,0.0324,0.013523,0.002678,0.000431,0.000823
14288000,0.0324,0.013523,0.002678,0.000431,0.000940
14289000,0.0324,0.013523,0.002678,0.000431,0.000940
14290000,0.0324,0.013523,0.002678,0.000431,0.000705
14291000,0.0324,0.013523,0.002678,0.000431,0.001058
14292000,0.0324,0.013523,0.002678,0.000431,0.000823
14293000,0.0324,0.013523,0.002678,0.000431,0.000940
14294000,0.0324,0.013523,0.002678,0.000431,0.001763
14295000,0.0324,0.013523,0.002678,0.000431,0.276191
14296000,0.0324,0.013523,0.002678,0.000431,0.694944
14297000,0.0324,0.013523,0.002678,0.000431,0.324848
14298000,0.0324,0.013523,0.002678,0.000431,0.132102
14299000,0.0324,0.013523,0.002678,0.000431,0.181464
14300000,0.0324,0.013523,0.002678,0.000431,0.659568
14301000,0.0324,0.013523,0.002678,0.000431,0.267964
14302000,0.0324,0.013523,0.002678,0.000431,0.279129
14303000,0.0324,0.013523,0.002678,0.000431,0.199915
14304000,0.0324,0.013523,0.002678,0.000431,0.139976
14305000,0.0324,0.013523,0.002678,0.000431,0.117528
14306000,0.0324,0.013523,0.002678,0.000431,0.331665
14307000,0.0324,0.013523,0.002678,0.000431,0.396893
14308000,0.0324,0.013523,0.002678,0.000431,0.172061
14309000,0.0324,0.013523,0.002678,0.000431,0.134922
14310000,0.0324,0.013523,0.002678,0.000431,0.120466
14311000,0.0324,0.013523,0.002678,0.000431,0.099429
14312000,0.0324,0.013523,0.002678,0.000431,0.078156
14313000,0.0324,0.013523,0.002678,0.000431,0.053123
14314000,0.0324,0.013523,0.002678,0.000431,0.055356
14315000,0.0324,0.013523,0.002678,0.000431,0.049362
14316000,0.0324,0.013523,0.002678,0.000431,0.049597
14317000,0.0324,0.013523,0.002678,0.000431,0.035964
14318000,0.0324,0.013523,0.002678,0.000431,0.034906
14319000,0.0324,0.013523,0.002678,0.000431,0.032085
14320000,0.0324,0.013523,0.002678,0.000431,0.025386
14321000,0.0324,0.013523,0.002678,0.000431,0.019745
14322000,0.0324,0.013523,0.002678,0.000431,0.020215
14323000,0.0324,0.013523,0.002678,0.000431,0.018569
14324000,0.0324,0.013523,0.002678,0.000431,0.015279
14325000,0.0324,0.013523,0.002678,0.000431,0.020685
14326000,0.0324,0.013523,0.002678,0.000431,0.015749
14327000,0.0324,0.013523,0.002678,0.000431,0.015044
14328000,0.0324,0.013523,0.002678,0.000431,0.013868
14329000,0.0324,0.013523,0.002678,0.000431,0.006582
14330000,0.0324,0.013523,0.002678,0.000431,0.006699
14331000,0.0324,0.013523,0.002678,0.000431,0.006582
14332000,0.0324,0.013523,0.002678,0.000431,0.006699
14333000,0.0324,0.013523,0.002678,0.000431,0.009402
14334000,0.0324,0.013523,0.002678,0.000431,0.005994
14335000,0.0324,0.013523,0.002678,0.000431,0.006464
14336000,0.0324,0.013523,0.002678,0.000431,0.004819
14337000,0.0324,0.013523,0.002678,0.000431,0.003173
14338000,0.0324,0.013523,0.002678,0.000431,0.003643
14339000,0.0324,0.013523,0.002678,0.000431,0.003291
14340000,0.0324,0.013523,0.002678,0.000431,0.003291
14341000,0.0324,0.013523,0.002678,0.000431,0.006699
14342000,0.0324,0.013523,0.002678,0.000431,0.002233
14343000,0.0324,0.013523,0.002678,0.000431,0.002703
14344000,0.0324,0.013523,0.002678,0.000431,0.002586
14345000,0.0324,0.013523,0.002678,0.000431,0.002351
14346000,0.0324,0.013523,0.002678,0.000431,0.005289
14347000,0.0324,0.013523,0.002678,0.000431,0.001763
14348000,0.0324,0.013523,0.002678,0.000431,0.001528
14349000,0.0324,0.013523,0.002678,0.000431,0.001763
14350000,0.0324,0.013523,0.002678,0.000431,0.001645
14351000,0.0324,0.013523,0.002678,0.000431,0.002703
14352000,0.0324,0.013523,0.002678,0.000431,0.003291
14353000,0.0324,0.013523,0.002678,0.000431,0.000823
14354000,0.0324,0.013523,0.002678,0.000431,0.000940
14355000,0.0324,0.013523,0.002678,0.000431,0.000823
14356000,0.0324,0.013523,0.002678,0.000431,0.000823
14357000,0.0324,0.013523,0.002678,0.000431,0.000823
14358000,0.0324,0.013523,0.002678,0.000431,0.000823
14359000,0.0324,0.013523,0.002678,0.000431,0.000823
14360000,0.0324,0.013523,0.002678,0.000431,0.000940
14361000,0.0324,0.013523,0.002678,0.000431,0.000823
14362000,0.0324,0.013523,0.002678,0.000431,0.000823
14363000,0.0324,0.013523,0.002678,0.000431,0.000705
14364000,0.0324,0.013523,0.002678,0.000431,0.000940
14365000,0.0324,0.013523,0.002678,0.000431,0.000940
14366000,0.0324,0.013523,0.002678,0.000431,0.000705
14367000,0.0324,0.013523,0.002678,0.000431,0.000940
14368000,0.0324,0.013523,0.002678,0.000431,0.000705
14369000,0.0324,0.013523,0.002678,0.000431,0.000940
14370000,0.0324,0.013523,0.002678,0.000431,0.000823
14371000,0.0324,0.013523,0.002678,0.000431,0.000823
14372000,0.0324,0.013523,0.002678,0.000431,0.000823
14373000,0.0324,0.013523,0.002678,0.000431,0.000823
14374000,0.0324,0.013523,0.002678,0.000431,0.000940
14375000,0.0324,0.013523,0.002678,0.000431,0.000823
14376000,0.0324,0.013523,0.002678,0.000431,0.000823
14377000,0.0324,0.013523,0.002678,0.000431,0.000823
14378000,0.0324,0.013523,0.002678,0.000431,0.000823
14379000,0.0324,0.013523,0.002678,0.000431,0.000823
14380000,0.0324,0.013523,0.002678,0.000431,0.000823
14381000,0.0324,0.013523,0.002678,0.000431,0.000940
14382000,0.0324,0.013523,0.002678,0.000431,0.000705
14383000,0.0324,0.013523,0.002678,0.000431,0.000940
14384000,0.0324,0.013523,0.002678,0.000431,0.000940
14385000,0.0324,0.013523,0.002678,0.000431,0.022683
14386000,0.0324,0.013523,0.002678,0.000431,0.685894
14387000,0.0324,0.013523,0.002678,0.000431,0.617258
14388000,0.0324,0.013523,0.002678,0.000431,0.132572
14389000,0.0324,0.013523,0.002678,0.000431,0.133982
14390000,0.0324,0.013523,0.002678,0.000431,0.600569
14391000,0.0324,0.013523,0.002678,0.000431,0.252921
14392000,0.0324,0.013523,0.002678,0.000431,0.275486
14393000,0.0324,0.013523,0.002678,0.000431,0.253273
14394000,0.0324,0.013523,0.002678,0.000431,0.139506
14395000,0.0324,0.013523,0.002678,0.000431,0.166302
14396000,0.0324,0.013523,0.002678,0.000431,0.101897
14397000,0.0324,0.013523,0.002678,0.000431,0.475049
14398000,0.0324,0.013523,0.002678,0.000431,0.291705
14399000,0.0324,0.013523,0.002678,0.000431,0.171826
14400000,0.0324,0.013523,0.002678,0.000431,0.129751
14401000,0.0324,0.013523,0.002678,0.000431,0.116118
14402000,0.0324,0.013523,0.002678,0.000431,0.095903
14403000,0.0324,0.013523,0.002678,0.000431,0.077216
14404000,0.0324,0.013523,0.002678,0.000431,0.081447
14405000,0.0324,0.013523,0.002678,0.000431,0.047011
14406000,0.0324,0.013523,0.002678,0.000431,0.045366
14407000,0.0324,0.013523,0.002678,0.000431,0.035376
14408000,0.0324,0.013523,0.002678,0.000431,0.032438
14409000,0.0324,0.013523,0.002678,0.000431,0.031262
14410000,0.0324,0.013523,0.002678,0.000431,0.030440
14411000,0.0324,0.013523,0.002678,0.000431,0.024093
14412000,0.0324,0.013523,0.002678,0.000431,0.029265
14413000,0.0324,0.013523,0.002678,0.000431,0.024446
14414000,0.0324,0.013523,0.002678,0.000431,0.025504
14415000,0.0324,0.013523,0.002678,0.000431,0.020332
14416000,0.0324,0.013523,0.002678,0.000431,0.016571
14417000,0.0324,0.013523,0.002678,0.000431,0.018099
14418000,0.0324,0.013523,0.002678,0.000431,0.024681
14419000,0.0324,0.013523,0.002678,0.000431,0.018099
14420000,0.0324,0.013523,0.002678,0.000431,0.011283
14421000,0.0324,0.013523,0.002678,0.000431,0.011870
14422000,0.0324,0.013523,0.002678,0.000431,0.010107
14423000,0.0324,0.013523,0.002678,0.000431,0.009050
14424000,0.0324,0.013523,0.002678,0.000431,0.008580
14425000,0.0324,0.013523,0.002678,0.000431,0.009402
14426000,0.0324,0.013523,0.002678,0.000431,0.009637
14427000,0.0324,0.013523,0.002678,0.000431,0.009637
14428000,0.0324,0.013523,0.002678,0.000431,0.010107
14429000,0.0324,0.013523,0.002678,0.000431,0.010107
14430000,0.0324,0.013523,0.002678,0.000431,0.007639
14431000,0.0324,0.013523,0.002678,0.000431,0.007287
14432000,0.0324,0.013523,0.002678,0.000431,0.007639
14433000,0.0324,0.013523,0.002678,0.000431,0.007522
14434000,0.0324,0.013523,0.002678,0.000431,0.006699
14435000,0.0324,0.013523,0.002678,0.000431,0.009755
14436000,0.0324,0.013523,0.002678,0.000431,0.007169
14437000,0.0324,0.013523,0.002678,0.000431,0.004701
14438000,0.0324,0.013523,0.002678,0.000431,0.004231
14439000,0.0324,0.013523,0.002678,0.000431,0.004349
14440000,0.0324,0.013523,0.002678,0.000431,0.004349
14441000,0.0324,0.013523,0.002678,0.000431,0.004231
14442000,0.0324,0.013523,0.002678,0.000431,0.004349
14443000,0.0324,0.013523,0.002678,0.000431,0.004113
14444000,0.0324,0.013523,0.002678,0.000431,0.004231
14445000,0.0324,0.013523,0.002678,0.000431,0.004466
14446000,0.0324,0.013523,0.002678,0.000431,0.004231
14447000,0.0324,0.013523,0.002678,0.000431,0.005876
14448000,0.0324,0.013523,0.002678,0.000431,0.003408
14449000,0.0324,0.013523,0.002678,0.000431,0.003761
14450000,0.0324,0.013523,0.002678,0.000431,0.004349
14451000,0.0324,0.013523,0.002678,0.000431,0.003878
14452000,0.0324,0.013523,0.002678,0.000431,0.002586
14453000,0.0324,0.013523,0.002678,0.000431,0.002468
14454000,0.0324,0.013523,0.002678,0.000431,0.002821
14455000,0.0324,0.013523,0.002678,0.000431,0.002468
14456000,0.0324,0.013523,0.002678,0.000431,0.002586
14457000,0.0324,0.013523,0.002678,0.000431,0.006111
14458000,0.0324,0.013523,0.002678,0.000431,0.001645
14459000,0.0324,0.013523,0.002678,0.000431,0.001763
14460000,0.0324,0.013523,0.002678,0.000431,0.001763
14461000,0.0324,0.013523,0.002678,0.000431,0.001763
14462000,0.0324,0.013523,0.002678,0.000431,0.001645
14463000,0.0324,0.013523,0.002678,0.000431,0.001528
14464000,0.0324,0.013523,0.002678,0.000431,0.001880
14465000,0.0324,0.013523,0.002678,0.000431,0.001880
14466000,0.0324,0.013523,0.002678,0.000431,0.001645
14467000,0.0324,0.013523,0.002678,0.000431,0.001645
14468000,0.0324,0.013523,0.002678,0.000431,0.001645
14469000,0.0324,0.013523,0.002678,0.000431,0.001880
14470000,0.0324,0.013523,0.002678,0.000431,0.001645
14471000,0.0324,0.013523,0.002678,0.000431,0.001645
14472000,0.0324,0.013523,0.002678,0.000431,0.001880
14473000,0.0324,0.013523,0.002678,0.000431,0.001645
14474000,0.0324,0.013523,0.002678,0.000431,0.001763
14475000,0.0324,0.013523,0.002678,0.000431,0.001645
14476000,0.0324,0.013523,0.002678,0.000431,0.001763
14477000,0.0324,0.013523,0.002678,0.000431,0.001645
14478000,0.0324,0.013523,0.002678,0.000431,0.001763
14479000,0.0324,0.013523,0.002678,0.000431,0.001645
14480000,0.0324,0.013523,0.002678,0.000431,0.001763
14481000,0.0324,0.013523,0.002678,0.000431,0.001763
14482000,0.0324,0.013523,0.002678,0.000431,0.001528
14483000,0.0324,0.013523,0.002678,0.000431,0.001880
14484000,0.0324,0.013523,0.002678,0.000431,0.001763
14485000,0.0324,0.013523,0.002678,0.000431,0.001645
14486000,0.0324,0.013523,0.002678,0.000431,0.001528
14487000,0.0324,0.013523,0.002678,0.000431,0.001880
14488000,0.0324,0.013523,0.002678,0.000431,0.001880
14489000,0.0324,0.013523,0.002678,0.000431,0.001410
14490000,0.0324,0.013523,0.002678,0.000431,0.001880
14491000,0.0324,0.013523,0.002678,0.000431,0.001645
14492000,0.0324,0.013523,0.002678,0.000431,0.001763
14493000,0.0324,0.013523,0.002678,0.000431,0.001763
14494000,0.0324,0.013523,0.002678,0.000431,0.001763
14495000,0.0324,0.013523,0.002678,0.000431,0.001880
14496000,0.0324,0.013523,0.002678,0.000431,0.001645
14497000,0.0324,0.013523,0.002678,0.000431,0.001763
14498000,0.0324,0.013523,0.002678,0.000431,0.001645
14499000,0.0324,0.013523,0.002678,0.000431,0.001880
14500000,0.0324,0.013523,0.002678,0.000431,0.001528
14501000,0.0324,0.013523,0.002678,0.000431,0.001763
14502000,0.0324,0.013523,0.002678,0.000431,0.001763
14503000,0.0324,0.013523,0.002678,0.000431,0.001763
14504000,0.0324,0.013523,0.002678,0.000431,0.001645
14505000,0.0324,0.013523,0.002678,0.000431,0.001645
14506000,0.0324,0.013523,0.002678,0.000431,0.001880
14507000,0.0324,0.013523,0.002678,0.000431,0.001763
14508000,0.0324,0.013523,0.002678,0.000431,0.001528
14509000,0.0324,0.013523,0.002678,0.000431,0.001763
14510000,0.0324,0.013523,0.002678,0.000431,0.001763
14511000,0.0324,0.013523,0.002678,0.000431,0.001645
14512000,0.0324,0.013523,0.002678,0.000431,0.001645
14513000,0.0324,0.013523,0.002678,0.000431,0.001880
14514000,0.0324,0.013523,0.002678,0.000431,0.001763
14515000,0.0324,0.013523,0.002678,0.000431,0.001645
14516000,0.0324,0.013523,0.002678,0.000431,0.001645
14517000,0.0324,0.013523,0.002678,0.000431,0.001763
14518000,0.0324,0.013523,0.002678,0.000431,0.001763
14519000,0.0324,0.013523,0.002678,0.000431,0.001763
14520000,0.0324,0.013523,0.002678,0.000431,0.001528
14521000,0.0324,0.013523,0.002678,0.000431,0.001763
14522000,0.0324,0.013523,0.002678,0.000431,0.001880
14523000,0.0324,0.013523,0.002678,0.000431,0.001528
14524000,0.0324,0.013523,0.002678,0.000431,0.001880
14525000,0.0324,0.013523,0.002678,0.000431,0.001528
14526000,0.0324,0.013523,0.002678,0.000431,0.001880
14527000,0.0324,0.013523,0.002678,0.000431,0.001763
14528000,0.0324,0.013523,0.002678,0.000431,0.001528
14529000,0.0324,0.013523,0.002678,0.000431,0.001880
14530000,0.0324,0.013523,0.002678,0.000431,0.001645
14531000,0.0324,0.013523,0.002678,0.000431,0.001763
14532000,0.0324,0.013523,0.002678,0.000431,0.001645
14533000,0.0324,0.013523,0.002678,0.000431,0.001763
14534000,0.0324,0.013523,0.002678,0.000431,0.001763
14535000,0.0324,0.013523,0.002678,0.000431,0.001528
14536000,0.0324,0.013523,0.002678,0.000431,0.001763
14537000,0.0324,0.013523,0.002678,0.000431,0.001763
14538000,0.0324,0.013523,0.002678,0.000431,0.001880
14539000,0.0324,0.013523,0.002678,0.000431,0.001645
14540000,0.0324,0.013523,0.002678,0.000431,0.001763
14541000,0.0324,0.013523,0.002678,0.000431,0.001763
14542000,0.0324,0.013523,0.002678,0.000431,0.001763
14543000,0.0324,0.013523,0.002678,0.000431,0.001763
14544000,0.0324,0.013523,0.002678,0.000431,0.001763
14545000,0.0324,0.013523,0.002678,0.000431,0.001763
14546000,0.0324,0.013523,0.002678,0.000431,0.001763
14547000,0.0324,0.013523,0.002678,0.000431,0.001645
14548000,0.0324,0.013523,0.002678,0.000431,0.001763
14549000,0.0324,0.013523,0.002678,0.000431,0.001645
14550000,0.0324,0.013523,0.002678,0.000431,0.001645
14551000,0.0324,0.013523,0.002678,0.000431,0.001880
14552000,0.0324,0.013523,0.002678,0.000431,0.001645
14553000,0.0324,0.013523,0.002678,0.000431,0.001880
14554000,0.0324,0.013523,0.002678,0.000431,0.001528
14555000,0.0324,0.013523,0.002678,0.000431,0.001763
14556000,0.0324,0.013523,0.002678,0.000431,0.001763
14557000,0.0324,0.013523,0.002678,0.000431,0.001645
14558000,0.0324,0.013523,0.002678,0.000431,0.001763
14559000,0.0324,0.013523,0.002678,0.000431,0.001880
14560000,0.0324,0.013523,0.002678,0.000431,0.001763
14561000,0.0324,0.013523,0.002678,0.000431,0.002821
14562000,0.0324,0.013523,0.002678,0.000431,0.002116
14563000,0.0324,0.013523,0.002678,0.000431,0.000940
14564000,0.0324,0.013523,0.002678,0.000431,0.000823
14565000,0.0324,0.013523,0.002678,0.000431,0.000940
14566000,0.0324,0.013523,0.002678,0.000431,0.000823
14567000,0.0324,0.013523,0.002678,0.000431,0.000940
14568000,0.0324,0.013523,0.002678,0.000431,0.000823
14569000,0.0324,0.013523,0.002678,0.000431,0.000823
14570000,0.0324,0.013523,0.002678,0.000431,0.000940
14571000,0.0324,0.013523,0.002678,0.000431,0.000940
14572000,0.0324,0.013523,0.002678,0.000431,0.000823
14573000,0.0324,0.013523,0.002678,0.000431,0.000823
14574000,0.0324,0.013523,0.002678,0.000431,0.000940
14575000,0.0324,0.013523,0.002678,0.000431,0.000940
14576000,0.0324,0.013523,0.002678,0.000431,0.000705
14577000,0.0324,0.013523,0.002678,0.000431,0.000940
14578000,0.0324,0.013523,0.002678,0.000431,0.000940
14579000,0.0324,0.013523,0.002678,0.000431,0.000940
14580000,0.0324,0.013523,0.002678,0.000431,0.000823
14581000,0.0324,0.013523,0.002678,0.000431,0.000823
14582000,0.0324,0.013523,0.002678,0.000431,0.000940
14583000,0.0324,0.013523,0.002678,0.000431,0.000823
14584000,0.0324,0.013523,0.002678,0.000431,0.000940
14585000,0.0324,0.013523,0.002678,0.000431,0.000823
14586000,0.0324,0.013523,0.002678,0.000431,0.000940
14587000,0.0324,0.013523,0.002678,0.000431,0.000823
14588000,0.0324,0.013523,0.002678,0.000431,0.000823
14589000,0.0324,0.013523,0.002678,0.000431,0.000940
14590000,0.0324,0.013523,0.002678,0.000431,0.000940
14591000,0.0324,0.013523,0.002678,0.000431,0.000823
14592000,0.0324,0.013523,0.002678,0.000431,0.000823
14593000,0.0324,0.013523,0.002678,0.000431,0.000940
14594000,0.0324,0.013523,0.002678,0.000431,0.000940
14595000,0.0324,0.013523,0.002678,0.000431,0.000705
14596000,0.0324,0.013523,0.002678,0.000431,0.000940
14597000,0.0324,0.013523,0.002678,0.000431,0.000940
14598000,0.0324,0.013523,0.002678,0.000431,0.000940
14599000,0.0324,0.013523,0.002678,0.000431,0.000705
14600000,0.0324,0.013523,0.002678,0.000431,0.000940
14601000,0.0324,0.013523,0.002678,0.000431,0.000940
14602000,0.0324,0.013523,0.002678,0.000431,0.000823
14603000,0.0324,0.013523,0.002678,0.000431,0.000823
14604000,0.0324,0.013523,0.002678,0.000431,0.000940
14605000,0.0324,0.013523,0.002678,0.000431,0.000940
14606000,0.0324,0.013523,0.002678,0.000431,0.000823
14607000,0.0324,0.013523,0.002678,0.000431,0.000823
14608000,0.0324,0.013523,0.002678,0.000431,0.000940
14609000,0.0324,0.013523,0.002678,0.000431,0.223891
14610000,0.0324,0.013523,0.002678,0.000431,0.663329
14611000,0.0324,0.013523,0.002678,0.000431,0.507252
14612000,0.0324,0.013523,0.002678,0.000431,0.133512
14613000,0.0324,0.013523,0.002678,0.000431,0.134452
14614000,0.0324,0.013523,0.002678,0.000431,0.561785
14615000,0.0324,0.013523,0.002678,0.000431,0.229533
14616000,0.0324,0.013523,0.002678,0.000431,0.242696
14617000,0.0324,0.013523,0.002678,0.000431,0.285711
14618000,0.0324,0.013523,0.002678,0.000431,0.146088
14619000,0.0324,0.013523,0.002678,0.000431,0.150554
14620000,0.0324,0.013523,0.002678,0.000431,0.114708
14621000,0.0324,0.013523,0.002678,0.000431,0.440378
14622000,0.0324,0.013523,0.002678,0.000431,0.263851
14623000,0.0324,0.013523,0.002678,0.000431,0.150319
14624000,0.0324,0.013523,0.002678,0.000431,0.113415
14625000,0.0324,0.013523,0.002678,0.000431,0.096021
14626000,0.0324,0.013523,0.002678,0.000431,0.070634
14627000,0.0324,0.013523,0.002678,0.000431,0.056766
14628000,0.0324,0.013523,0.002678,0.000431,0.049832
14629000,0.0324,0.013523,0.002678,0.000431,0.035846
14630000,0.0324,0.013523,0.002678,0.000431,0.020097
14631000,0.0324,0.013523,0.002678,0.000431,0.027502
14632000,0.0324,0.013523,0.002678,0.000431,0.018217
14633000,0.0324,0.013523,0.002678,0.000431,0.015866
14634000,0.0324,0.013523,0.002678,0.000431,0.014221
14635000,0.0324,0.013523,0.002678,0.000431,0.011518
14636000,0.0324,0.013523,0.002678,0.000431,0.013986
14637000,0.0324,0.013523,0.002678,0.000431,0.006582
14638000,0.0324,0.013523,0.002678,0.000431,0.004466
14639000,0.0324,0.013523,0.002678,0.000431,0.005171
14640000,0.0324,0.013523,0.002678,0.000431,0.005054
14641000,0.0324,0.013523,0.002678,0.000431,0.003173
14642000,0.0324,0.013523,0.002678,0.000431,0.004349
14643000,0.0324,0.013523,0.002678,0.000431,0.003996
14644000,0.0324,0.013523,0.002678,0.000431,0.002586
14645000,0.0324,0.013523,0.002678,0.000431,0.002586
14646000,0.0324,0.013523,0.002678,0.000431,0.002468
14647000,0.0324,0.013523,0.002678,0.000431,0.002468
14648000,0.0324,0.013523,0.002678,0.000431,0.002821
14649000,0.0324,0.013523,0.002678,0.000431,0.004231
14650000,0.0324,0.013523,0.002678,0.000431,0.001763
14651000,0.0324,0.013523,0.002678,0.000431,0.003761
14652000,0.0324,0.013523,0.002678,0.000431,0.001058
14653000,0.0324,0.013523,0.002678,0.000431,0.000823
14654000,0.0324,0.013523,0.002678,0.000431,0.072397
14655000,0.0324,0.013523,0.002678,0.000431,0.662859
14656000,0.0324,0.013523,0.002678,0.000431,0.589991
14657000,0.0324,0.013523,0.002678,0.000431,0.132102
14658000,0.0324,0.013523,0.002678,0.000431,0.133982
14659000,0.0324,0.013523,0.002678,0.000431,0.583998
14660000,0.0324,0.013523,0.002678,0.000431,0.277719
14661000,0.0324,0.013523,0.002678,0.000431,0.228240
14662000,0.0324,0.013523,0.002678,0.000431,0.285711
14663000,0.0324,0.013523,0.002678,0.000431,0.138331
14664000,0.0324,0.013523,0.002678,0.000431,0.150789
14665000,0.0324,0.013523,0.002678,0.000431,0.112945
14666000,0.0324,0.013523,0.002678,0.000431,0.467762
14667000,0.0324,0.013523,0.002678,0.000431,0.298169
14668000,0.0324,0.013523,0.002678,0.000431,0.157253
14669000,0.0324,0.013523,0.002678,0.000431,0.126813
14670000,0.0324,0.013523,0.002678,0.000431,0.107303
14671000,0.0324,0.013523,0.002678,0.000431,0.091907
14672000,0.0324,0.013523,0.002678,0.000431,0.080624
14673000,0.0324,0.013523,0.002678,0.000431,0.058647
14674000,0.0324,0.013523,0.002678,0.000431,0.046189
14675000,0.0324,0.013523,0.002678,0.000431,0.046659
14676000,0.0324,0.013523,0.002678,0.000431,0.031027
14677000,0.0324,0.013523,0.002678,0.000431,0.030322
14678000,0.0324,0.013523,0.002678,0.000431,0.014103
14679000,0.0324,0.013523,0.002678,0.000431,0.013868
14680000,0.0324,0.013523,0.002678,0.000431,0.011753
14681000,0.0324,0.013523,0.002678,0.000431,0.011518
14682000,0.0324,0.013523,0.002678,0.000431,0.013751
14683000,0.0324,0.013523,0.002678,0.000431,0.012693
14684000,0.0324,0.013523,0.002678,0.000431,0.009167
14685000,0.0324,0.013523,0.002678,0.000431,0.015514
14686000,0.0324,0.013523,0.002678,0.000431,0.012928
14687000,0.0324,0.013523,0.002678,0.000431,0.007169
14688000,0.0324,0.013523,0.002678,0.000431,0.004349
14689000,0.0324,0.013523,0.002678,0.000431,0.004466
14690000,0.0324,0.013523,0.002678,0.000431,0.004231
14691000,0.0324,0.013523,0.002678,0.000431,0.003996
14692000,0.0324,0.013523,0.002678,0.000431,0.004349
14693000,0.0324,0.013523,0.002678,0.000431,0.004231
14694000,0.0324,0.013523,0.002678,0.000431,0.004231
14695000,0.0324,0.013523,0.002678,0.000431,0.004113
14696000,0.0324,0.013523,0.002678,0.000431,0.004113
14697000,0.0324,0.013523,0.002678,0.000431,0.007874
14698000,0.0324,0.013523,0.002678,0.000431,0.003526
14699000,0.0324,0.013523,0.002678,0.000431,0.003408
14700000,0.0324,0.013523,0.002678,0.000431,0.003526
14701000,0.0324,0.013523,0.002678,0.000431,0.003408
14702000,0.0324,0.013523,0.002678,0.000431,0.005289
14703000,0.0324,0.013523,0.002678,0.000431,0.002586
14704000,0.0324,0.013523,0.002678,0.000431,0.003761
14705000,0.0324,0.013523,0.002678,0.000431,0.003056
14706000,0.0324,0.013523,0.002678,0.000431,0.001645
14707000,0.0324,0.013523,0.002678,0.000431,0.001645
14708000,0.0324,0.013523,0.002678,0.000431,0.001645
14709000,0.0324,0.013523,0.002678,0.000431,0.001763
14710000,0.0324,0.013523,0.002678,0.000431,0.001763
14711000,0.0324,0.013523,0.002678,0.000431,0.001763
14712000,0.0324,0.013523,0.002678,0.000431,0.001880
14713000,0.0324,0.013523,0.002678,0.000431,0.001528
14714000,0.0324,0.013523,0.002678,0.000431,0.001880
14715000,0.0324,0.013523,0.002678,0.000431,0.001763
14716000,0.0324,0.013523,0.002678,0.000431,0.001528
14717000,0.0324,0.013523,0.002678,0.000431,0.001880
14718000,0.0324,0.013523,0.002678,0.000431,0.001645
14719000,0.0324,0.013523,0.002678,0.000431,0.001763
14720000,0.0324,0.013523,0.002678,0.000431,0.001763
14721000,0.0324,0.013523,0.002678,0.000431,0.003056
14722000,0.0324,0.013523,0.002678,0.000431,0.001058
14723000,0.0324,0.013523,0.002678,0.000431,0.002586
14724000,0.0324,0.013523,0.002678,0.000431,0.407588
14725000,0.0324,0.013523,0.002678,0.000431,0.777802
14726000,0.0324,0.013523,0.002678,0.000431,0.244576
14727000,0.0324,0.013523,0.002678,0.000431,0.134922
14728000,0.0324,0.013523,0.002678,0.000431,0.153139
14729000,0.0324,0.013523,0.002678,0.000431,0.630539
14730000,0.0324,0.013523,0.002678,0.000431,0.241873
14731000,0.0324,0.013523,0.002678,0.000431,0.258444
14732000,0.0324,0.013523,0.002678,0.000431,0.196742
14733000,0.0324,0.013523,0.002678,0.000431,0.141034
14734000,0.0324,0.013523,0.002678,0.000431,0.157488
14735000,0.0324,0.013523,0.002678,0.000431,0.212726
14736000,0.0324,0.013523,0.002678,0.000431,0.482336
14737000,0.0324,0.013523,0.002678,0.000431,0.215547
14738000,0.0324,0.013523,0.002678,0.000431,0.137038
14739000,0.0324,0.013523,0.002678,0.000431,0.116941
14740000,0.0324,0.013523,0.002678,0.000431,0.090967
14741000,0.0324,0.013523,0.002678,0.000431,0.081330
14742000,0.0324,0.013523,0.002678,0.000431,0.062407
14743000,0.0324,0.013523,0.002678,0.000431,0.058999
14744000,0.0324,0.013523,0.002678,0.000431,0.049832
14745000,0.0324,0.013523,0.002678,0.000431,0.046189
14746000,0.0324,0.013523,0.002678,0.000431,0.031733
14747000,0.0324,0.013523,0.002678,0.000431,0.033848
14748000,0.0324,0.013523,0.002678,0.000431,0.029382
14749000,0.0324,0.013523,0.002678,0.000431,0.014456
14750000,0.0324,0.013523,0.002678,0.000431,0.017864
14751000,0.0324,0.013523,0.002678,0.000431,0.017277
14752000,0.0324,0.013523,0.002678,0.000431,0.015279
14753000,0.0324,0.013523,0.002678,0.000431,0.010225
14754000,0.0324,0.013523,0.002678,0.000431,0.007992
14755000,0.0324,0.013523,0.002678,0.000431,0.009755
14756000,0.0324,0.013523,0.002678,0.000431,0.011283
14757000,0.0324,0.013523,0.002678,0.000431,0.009402
14758000,0.0324,0.013523,0.002678,0.000431,0.005406
14759000,0.0324,0.013523,0.002678,0.000431,0.003526
14760000,0.0324,0.013523,0.002678,0.000431,0.004231
14761000,0.0324,0.013523,0.002678,0.000431,0.004349
14762000,0.0324,0.013523,0.002678,0.000431,0.005289
14763000,0.0324,0.013523,0.002678,0.000431,0.001645
14764000,0.0324,0.013523,0.002678,0.000431,0.001763
14765000,0.0324,0.013523,0.002678,0.000431,0.001645
14766000,0.0324,0.013523,0.002678,0.000431,0.001645
14767000,0.0324,0.013523,0.002678,0.000431,0.001763
14768000,0.0324,0.013523,0.002678,0.000431,0.001645
14769000,0.0324,0.013523,0.002678,0.000431,0.003643
14770000,0.0324,0.013523,0.002678,0.000431,0.000940
14771000,0.0324,0.013523,0.002678,0.000431,0.000705
14772000,0.0324,0.013523,0.002678,0.000431,0.000823
14773000,0.0324,0.013523,0.002678,0.000431,0.000940
14774000,0.0324,0.013523,0.002678,0.000431,0.000823
14775000,0.0324,0.013523,0.002678,0.000431,0.000940
14776000,0.0324,0.013523,0.002678,0.000431,0.000823
14777000,0.0324,0.013523,0.002678,0.000431,0.000823
14778000,0.0324,0.013523,0.002678,0.000431,0.000940
14779000,0.0324,0.013523,0.002678,0.000431,0.000940
14780000,0.0324,0.013523,0.002678,0.000431,0.000823
14781000,0.0324,0.013523,0.002678,0.000431,0.082975
14782000,0.0324,0.013523,0.002678,0.000431,0.729380
14783000,0.0324,0.013523,0.002678,0.000431,0.566603
14784000,0.0324,0.013523,0.002678,0.000431,0.138448
14785000,0.0324,0.013523,0.002678,0.000431,0.131161
14786000,0.0324,0.013523,0.002678,0.000431,0.578356
14787000,0.0324,0.013523,0.002678,0.000431,0.251863
14788000,0.0324,0.013523,0.002678,0.000431,0.265026
14789000,0.0324,0.013523,0.002678,0.000431,0.295818
14790000,0.0324,0.013523,0.002678,0.000431,0.143619
14791000,0.0324,0.013523,0.002678,0.000431,0.166655
14792000,0.0324,0.013523,0.002678,0.000431,0.106598
14793000,0.0324,0.013523,0.002678,0.000431,0.503843
14794000,0.0324,0.013523,0.002678,0.000431,0.240698
14795000,0.0324,0.013523,0.002678,0.000431,0.147263
14796000,0.0324,0.013523,0.002678,0.000431,0.108714
14797000,0.0324,0.013523,0.002678,0.000431,0.086501
14798000,0.0324,0.013523,0.002678,0.000431,0.080624
14799000,0.0324,0.013523,0.002678,0.000431,0.066991
14800000,0.0324,0.013523,0.002678,0.000431,0.052300
14801000,0.0324,0.013523,0.002678,0.000431,0.042898
14802000,0.0324,0.013523,0.002678,0.000431,0.032555
14803000,0.0324,0.013523,0.002678,0.000431,0.021625
14804000,0.0324,0.013523,0.002678,0.000431,0.021508
14805000,0.0324,0.013523,0.002678,0.000431,0.023036
14806000,0.0324,0.013523,0.002678,0.000431,0.018922
14807000,0.0324,0.013523,0.002678,0.000431,0.015866
14808000,0.0324,0.013523,0.002678,0.000431,0.019862
14809000,0.0324,0.013523,0.002678,0.000431,0.011870
14810000,0.0324,0.013523,0.002678,0.000431,0.014338
14811000,0.0324,0.013523,0.002678,0.000431,0.010578
14812000,0.0324,0.013523,0.002678,0.000431,0.016101
14813000,0.0324,0.013523,0.002678,0.000431,0.015631
14814000,0.0324,0.013523,0.002678,0.000431,0.008580
14815000,0.0324,0.013523,0.002678,0.000431,0.009520
14816000,0.0324,0.013523,0.002678,0.000431,0.007052
14817000,0.0324,0.013523,0.002678,0.000431,0.004584
14818000,0.0324,0.013523,0.002678,0.000431,0.004113
14819000,0.0324,0.013523,0.002678,0.000431,0.002468
14820000,0.0324,0.013523,0.002678,0.000431,0.003408
14821000,0.0324,0.013523,0.002678,0.000431,0.001880
14822000,0.0324,0.013523,0.002678,0.000431,0.003291
14823000,0.0324,0.013523,0.002678,0.000431,0.000823
14824000,0.0324,0.013523,0.002678,0.000431,0.000823
14825000,0.0324,0.013523,0.002678,0.000431,0.000940
14826000,0.0324,0.013523,0.002678,0.000431,0.000940
14827000,0.0324,0.013523,0.002678,0.000431,0.000823
14828000,0.0324,0.013523,0.002678,0.000431,0.000823
14829000,0.0324,0.013523,0.002678,0.000431,0.000940
14830000,0.0324,0.013523,0.002678,0.000431,0.000940
14831000,0.0324,0.013523,0.002678,0.000431,0.000823
14832000,0.0324,0.013523,0.002678,0.000431,0.000823
14833000,0.0324,0.013523,0.002678,0.000431,0.000940
14834000,0.0324,0.013523,0.002678,0.000431,0.000823
14835000,0.0324,0.013523,0.002678,0.000431,0.000940
14836000,0.0324,0.013523,0.002678,0.000431,0.000823
14837000,0.0324,0.013523,0.002678,0.000431,0.000940
14838000,0.0324,0.013523,0.002678,0.000431,0.000823
14839000,0.0324,0.013523,0.002678,0.000431,0.000823
14840000,0.0324,0.013523,0.002678,0.000431,0.000940
14841000,0.0324,0.013523,0.002678,0.000431,0.000940
14842000,0.0324,0.013523,0.002678,0.000431,0.000823
14843000,0.0324,0.013523,0.002678,0.000431,0.000823
14844000,0.0324,0.013523,0.002678,0.000431,0.000940
14845000,0.0324,0.013523,0.002678,0.000431,0.000940
14846000,0.0324,0.013523,0.002678,0.000431,0.000705
14847000,0.0324,0.013523,0.002678,0.000431,0.000940
14848000,0.0324,0.013523,0.002678,0.000431,0.000940
14849000,0.0324,0.013523,0.002678,0.000431,0.000940
14850000,0.0324,0.013523,0.002678,0.000431,0.000705
14851000,0.0324,0.013523,0.002678,0.000431,0.000940
14852000,0.0324,0.013523,0.002678,0.000431,0.000940
14853000,0.0324,0.013523,0.002678,0.000431,0.000823
14854000,0.0324,0.013523,0.002678,0.000431,0.000940
14855000,0.0324,0.013523,0.002678,0.000431,0.000823
14856000,0.0324,0.013523,0.002678,0.000431,0.000940
14857000,0.0324,0.013523,0.002678,0.000431,0.000823
14858000,0.0324,0.013523,0.002678,0.000431,0.000823
14859000,0.0324,0.013523,0.002678,0.000431,0.000940
14860000,0.0324,0.013523,0.002678,0.000431,0.000940
14861000,0.0324,0.013523,0.002678,0.000431,0.000705
14862000,0.0324,0.013523,0.002678,0.000431,0.000940
14863000,0.0324,0.013523,0.002678,0.000431,0.000940
14864000,0.0324,0.013523,0.002678,0.000431,0.000940
14865000,0.0324,0.013523,0.002678,0.000431,0.000705
14866000,0.0324,0.013523,0.002678,0.000431,0.000940
14867000,0.0324,0.013523,0.002678,0.000431,0.000940
14868000,0.0324,0.013523,0.002678,0.000431,0.152081
14869000,0.0324,0.013523,0.002678,0.000431,0.678960
14870000,0.0324,0.013523,0.002678,0.000431,0.531815
14871000,0.0324,0.013523,0.002678,0.000431,0.142444
14872000,0.0324,0.013523,0.002678,0.000431,0.137743
14873000,0.0324,0.013523,0.002678,0.000431,0.582705
14874000,0.0324,0.013523,0.002678,0.000431,0.251158
14875000,0.0324,0.013523,0.002678,0.000431,0.256682
14876000,0.0324,0.013523,0.002678,0.000431,0.304868
14877000,0.0324,0.013523,0.002678,0.000431,0.143854
14878000,0.0324,0.013523,0.002678,0.000431,0.178643
14879000,0.0324,0.013523,0.002678,0.000431,0.082857
14880000,0.0324,0.013523,0.002678,0.000431,0.523823
14881000,0.0324,0.013523,0.002678,0.000431,0.219543
14882000,0.0324,0.013523,0.002678,0.000431,0.126695
14883000,0.0324,0.013523,0.002678,0.000431,0.104835
14884000,0.0324,0.013523,0.002678,0.000431,0.099781
14885000,0.0324,0.013523,0.002678,0.000431,0.069107
14886000,0.0324,0.013523,0.002678,0.000431,0.059352
14887000,0.0324,0.013523,0.002678,0.000431,0.053945
14888000,0.0324,0.013523,0.002678,0.000431,0.041135
14889000,0.0324,0.013523,0.002678,0.000431,0.038667
14890000,0.0324,0.013523,0.002678,0.000431,0.037256
14891000,0.0324,0.013523,0.002678,0.000431,0.029500
14892000,0.0324,0.013523,0.002678,0.000431,0.034318
14893000,0.0324,0.013523,0.002678,0.000431,0.020567
14894000,0.0324,0.013523,0.002678,0.000431,0.021625
14895000,0.0324,0.013523,0.002678,0.000431,0.020215
14896000,0.0324,0.013523,0.002678,0.000431,0.017629
14897000,0.0324,0.013523,0.002678,0.000431,0.015396
14898000,0.0324,0.013523,0.002678,0.000431,0.012693
14899000,0.0324,0.013523,0.002678,0.000431,0.018569
14900000,0.0324,0.013523,0.002678,0.000431,0.012928
14901000,0.0324,0.013523,0.002678,0.000431,0.014103
14902000,0.0324,0.013523,0.002678,0.000431,0.011165
14903000,0.0324,0.013523,0.002678,0.000431,0.016219
14904000,0.0324,0.013523,0.002678,0.000431,0.007757
14905000,0.0324,0.013523,0.002678,0.000431,0.007874
14906000,0.0324,0.013523,0.002678,0.000431,0.005524
14907000,0.0324,0.013523,0.002678,0.000431,0.007169
14908000,0.0324,0.013523,0.002678,0.000431,0.004231
14909000,0.0324,0.013523,0.002678,0.000431,0.007757
14910000,0.0324,0.013523,0.002678,0.000431,0.003173
14911000,0.0324,0.013523,0.002678,0.000431,0.003643
14912000,0.0324,0.013523,0.002678,0.000431,0.003526
14913000,0.0324,0.013523,0.002678,0.000431,0.005289
14914000,0.0324,0.013523,0.002678,0.000431,0.002586
14915000,0.0324,0.013523,0.002678,0.000431,0.002586
14916000,0.0324,0.013523,0.002678,0.000431,0.002821
14917000,0.0324,0.013523,0.002678,0.000431,0.005054
14918000,0.0324,0.013523,0.002678,0.000431,0.001880
14919000,0.0324,0.013523,0.002678,0.000431,0.001763
14920000,0.0324,0.013523,0.002678,0.000431,0.001645
14921000,0.0324,0.013523,0.002678,0.000431,0.001645
14922000,0.0324,0.013523,0.002678,0.000431,0.002586
14923000,0.0324,0.013523,0.002678,0.000431,0.002116
14924000,0.0324,0.013523,0.002678,0.000431,0.000823
14925000,0.0324,0.013523,0.002678,0.000431,0.002233
14926000,0.0324,0.013523,0.002678,0.000431,0.469643
14927000,0.0324,0.013523,0.002678,0.000431,0.759937
14928000,0.0324,0.013523,0.002678,0.000431,0.178290
14929000,0.0324,0.013523,0.002678,0.000431,0.141034
14930000,0.0324,0.013523,0.002678,0.000431,0.224596
14931000,0.0324,0.013523,0.002678,0.000431,0.578121
14932000,0.0324,0.013523,0.002678,0.000431,0.291117
14933000,0.0324,0.013523,0.002678,0.000431,0.341537
14934000,0.0324,0.013523,0.002678,0.000431,0.159956
14935000,0.0324,0.013523,0.002678,0.000431,0.156195
14936000,0.0324,0.013523,0.002678,0.000431,0.108361
14937000,0.0324,0.013523,0.002678,0.000431,0.470113
14938000,0.0324,0.013523,0.002678,0.000431,0.131397
14939000,0.0324,0.013523,0.002678,0.000431,0.082270
14940000,0.0324,0.013523,0.002678,0.000431,0.071810
14941000,0.0324,0.013523,0.002678,0.000431,0.048774
14942000,0.0324,0.013523,0.002678,0.000431,0.048539
14943000,0.0324,0.013523,0.002678,0.000431,0.035494
14944000,0.0324,0.013523,0.002678,0.000431,0.026091
14945000,0.0324,0.013523,0.002678,0.000431,0.022683
14946000,0.0324,0.013523,0.002678,0.000431,0.021625
14947000,0.0324,0.013523,0.002678,0.000431,0.023271
14948000,0.0324,0.013523,0.002678,0.000431,0.016807
14949000,0.0324,0.013523,0.002678,0.000431,0.011283
14950000,0.0324,0.013523,0.002678,0.000431,0.008697
14951000,0.0324,0.013523,0.002678,0.000431,0.009637
14952000,0.0324,0.013523,0.002678,0.000431,0.010225
14953000,0.0324,0.013523,0.002678,0.000431,0.007639
14954000,0.0324,0.013523,0.002678,0.000431,0.003996
14955000,0.0324,0.013523,0.002678,0.000431,0.001528
14956000,0.0324,0.013523,0.002678,0.000431,0.001763
14957000,0.0324,0.013523,0.002678,0.000431,0.001880
14958000,0.0324,0.013523,0.002678,0.000431,0.001645
14959000,0.0324,0.013523,0.002678,0.000431,0.003408
14960000,0.0324,0.013523,0.002678,0.000431,0.000705
14961000,0.0324,0.013523,0.002678,0.000431,0.000940
14962000,0.0324,0.013523,0.002678,0.000431,0.000823
14963000,0.0324,0.013523,0.002678,0.000431,0.000940
14964000,0.0324,0.013523,0.002678,0.000431,0.000823
14965000,0.0324,0.013523,0.002678,0.000431,0.000940
14966000,0.0324,0.013523,0.002678,0.000431,0.000940
14967000,0.0324,0.013523,0.002678,0.000431,0.013163
14968000,0.0324,0.013523,0.002678,0.000431,0.527702
14969000,0.0324,0.013523,0.002678,0.000431,0.611852
14970000,0.0324,0.013523,0.002678,0.000431,0.134922
14971000,0.0324,0.013523,0.002678,0.000431,0.131161
14972000,0.0324,0.013523,0.002678,0.000431,0.434619
14973000,0.0324,0.013523,0.002678,0.000431,0.355640
14974000,0.0324,0.013523,0.002678,0.000431,0.248102
14975000,0.0324,0.013523,0.002678,0.000431,0.291000
14976000,0.0324,0.013523,0.002678,0.000431,0.141386
14977000,0.0324,0.013523,0.002678,0.000431,0.140564
14978000,0.0324,0.013523,0.002678,0.000431,0.136685
14979000,0.0324,0.013523,0.002678,0.000431,0.289119
14980000,0.0324,0.013523,0.002678,0.000431,0.310039
14981000,0.0324,0.013523,0.002678,0.000431,0.075571
14982000,0.0324,0.013523,0.002678,0.000431,0.053123
14983000,0.0324,0.013523,0.002678,0.000431,0.053240
14984000,0.0324,0.013523,0.002678,0.000431,0.039960
14985000,0.0324,0.013523,0.002678,0.000431,0.031027
14986000,0.0324,0.013523,0.002678,0.000431,0.025856
14987000,0.0324,0.013523,0.002678,0.000431,0.029735
14988000,0.0324,0.013523,0.002678,0.000431,0.011870
14989000,0.0324,0.013523,0.002678,0.000431,0.015161
14990000,0.0324,0.013523,0.002678,0.000431,0.011870
14991000,0.0324,0.013523,0.002678,0.000431,0.008345
14992000,0.0324,0.013523,0.002678,0.000431,0.008815
14993000,0.0324,0.013523,0.002678,0.000431,0.004349
14994000,0.0324,0.013523,0.002678,0.000431,0.005289
14995000,0.0324,0.013523,0.002678,0.000431,0.004231
14996000,0.0324,0.013523,0.002678,0.000431,0.003291
14997000,0.0324,0.013523,0.002678,0.000431,0.003291
14998000,0.0324,0.013523,0.002678,0.000431,0.004584
14999000,0.0324,0.013523,0.002678,0.000431,0.003643
