Cycle,Area(mm^2),PeakDynamic(W),SubthresholdLeakage(W),GateLeakage(W),RunTimeDynamic(W)
11000000,0.0324,0.013523,0.002678,0.000431,0.220248
11001000,0.0324,0.013523,0.002678,0.000431,0.145500
11002000,0.0324,0.013523,0.002678,0.000431,0.122582
11003000,0.0324,0.013523,0.002678,0.000431,0.321910
11004000,0.0324,0.013523,0.002678,0.000431,0.406060
11005000,0.0324,0.013523,0.002678,0.000431,0.155842
11006000,0.0324,0.013523,0.002678,0.000431,0.125520
11007000,0.0324,0.013523,0.002678,0.000431,0.094140
11008000,0.0324,0.013523,0.002678,0.000431,0.067461
11009000,0.0324,0.013523,0.002678,0.000431,0.060057
11010000,0.0324,0.013523,0.002678,0.000431,0.044191
11011000,0.0324,0.013523,0.002678,0.000431,0.037256
11012000,0.0324,0.013523,0.002678,0.000431,0.036786
11013000,0.0324,0.013523,0.002678,0.000431,0.019862
11014000,0.0324,0.013523,0.002678,0.000431,0.015631
11015000,0.0324,0.013523,0.002678,0.000431,0.015866
11016000,0.0324,0.013523,0.002678,0.000431,0.015279
11017000,0.0324,0.013523,0.002678,0.000431,0.013751
11018000,0.0324,0.013523,0.002678,0.000431,0.013633
11019000,0.0324,0.013523,0.002678,0.000431,0.009402
11020000,0.0324,0.013523,0.002678,0.000431,0.009285
11021000,0.0324,0.013523,0.002678,0.000431,0.009167
11022000,0.0324,0.013523,0.002678,0.000431,0.014338
11023000,0.0324,0.013523,0.002678,0.000431,0.006111
11024000,0.0324,0.013523,0.002678,0.000431,0.005054
11025000,0.0324,0.013523,0.002678,0.000431,0.005054
11026000,0.0324,0.013523,0.002678,0.000431,0.008462
11027000,0.0324,0.013523,0.002678,0.000431,0.002351
11028000,0.0324,0.013523,0.002678,0.000431,0.002586
11029000,0.0324,0.013523,0.002678,0.000431,0.002586
11030000,0.0324,0.013523,0.002678,0.000431,0.002351
11031000,0.0324,0.013523,0.002678,0.000431,0.002586
11032000,0.0324,0.013523,0.002678,0.000431,0.002351
11033000,0.0324,0.013523,0.002678,0.000431,0.002586
11034000,0.0324,0.013523,0.002678,0.000431,0.002703
11035000,0.0324,0.013523,0.002678,0.000431,0.003643
11036000,0.0324,0.013523,0.002678,0.000431,0.000940
11037000,0.0324,0.013523,0.002678,0.000431,0.000705
11038000,0.0324,0.013523,0.002678,0.000431,0.013633
11039000,0.0324,0.013523,0.002678,0.000431,0.623017
11040000,0.0324,0.013523,0.002678,0.000431,0.662506
11041000,0.0324,0.013523,0.002678,0.000431,0.134922
11042000,0.0324,0.013523,0.002678,0.000431,0.133042
11043000,0.0324,0.013523,0.002678,0.000431,0.405825
11044000,0.0324,0.013523,0.002678,0.000431,0.335543
11045000,0.0324,0.013523,0.002678,0.000431,0.224949
11046000,0.0324,0.013523,0.002678,0.000431,0.321792
11047000,0.0324,0.013523,0.002678,0.000431,0.153257
11048000,0.0324,0.013523,0.002678,0.000431,0.151024
11049000,0.0324,0.013523,0.002678,0.000431,0.148086
11050000,0.0324,0.013523,0.002678,0.000431,0.232941
11051000,0.0324,0.013523,0.002678,0.000431,0.457537
11052000,0.0324,0.013523,0.002678,0.000431,0.142914
11053000,0.0324,0.013523,0.002678,0.000431,0.111417
11054000,0.0324,0.013523,0.002678,0.000431,0.079214
11055000,0.0324,0.013523,0.002678,0.000431,0.061232
11056000,0.0324,0.013523,0.002678,0.000431,0.040665
11057000,0.0324,0.013523,0.002678,0.000431,0.040077
11058000,0.0324,0.013523,0.002678,0.000431,0.032438
11059000,0.0324,0.013523,0.002678,0.000431,0.024681
11060000,0.0324,0.013523,0.002678,0.000431,0.013398
11061000,0.0324,0.013523,0.002678,0.000431,0.019510
11062000,0.0324,0.013523,0.002678,0.000431,0.005759
11063000,0.0324,0.013523,0.002678,0.000431,0.005054
11064000,0.0324,0.013523,0.002678,0.000431,0.007169
11065000,0.0324,0.013523,0.002678,0.000431,0.003761
11066000,0.0324,0.013523,0.002678,0.000431,0.003291
11067000,0.0324,0.013523,0.002678,0.000431,0.002703
11068000,0.0324,0.013523,0.002678,0.000431,0.002468
11069000,0.0324,0.013523,0.002678,0.000431,0.002468
11070000,0.0324,0.013523,0.002678,0.000431,0.004584
11071000,0.0324,0.013523,0.002678,0.000431,0.003761
11072000,0.0324,0.013523,0.002678,0.000431,0.001528
11073000,0.0324,0.013523,0.002678,0.000431,0.001763
11074000,0.0324,0.013523,0.002678,0.000431,0.001645
11075000,0.0324,0.013523,0.002678,0.000431,0.004819
11076000,0.0324,0.013523,0.002678,0.000431,0.000940
11077000,0.0324,0.013523,0.002678,0.000431,0.000705
11078000,0.0324,0.013523,0.002678,0.000431,0.000940
11079000,0.0324,0.013523,0.002678,0.000431,0.000705
11080000,0.0324,0.013523,0.002678,0.000431,0.000940
11081000,0.0324,0.013523,0.002678,0.000431,0.000823
11082000,0.0324,0.013523,0.002678,0.000431,0.003526
11083000,0.0324,0.013523,0.002678,0.000431,0.556261
11084000,0.0324,0.013523,0.002678,0.000431,0.699998
11085000,0.0324,0.013523,0.002678,0.000431,0.133982
11086000,0.0324,0.013523,0.002678,0.000431,0.132102
11087000,0.0324,0.013523,0.002678,0.000431,0.371036
11088000,0.0324,0.013523,0.002678,0.000431,0.457655
11089000,0.0324,0.013523,0.002678,0.000431,0.234116
11090000,0.0324,0.013523,0.002678,0.000431,0.295936
11091000,0.0324,0.013523,0.002678,0.000431,0.145970
11092000,0.0324,0.013523,0.002678,0.000431,0.148791
11093000,0.0324,0.013523,0.002678,0.000431,0.122817
11094000,0.0324,0.013523,0.002678,0.000431,0.323908
11095000,0.0324,0.013523,0.002678,0.000431,0.358226
11096000,0.0324,0.013523,0.002678,0.000431,0.117763
11097000,0.0324,0.013523,0.002678,0.000431,0.092495
11098000,0.0324,0.013523,0.002678,0.000431,0.067344
11099000,0.0324,0.013523,0.002678,0.000431,0.047716
11100000,0.0324,0.013523,0.002678,0.000431,0.043603
11101000,0.0324,0.013523,0.002678,0.000431,0.035611
11102000,0.0324,0.013523,0.002678,0.000431,0.026914
11103000,0.0324,0.013523,0.002678,0.000431,0.028794
11104000,0.0324,0.013523,0.002678,0.000431,0.019627
11105000,0.0324,0.013523,0.002678,0.000431,0.018922
11106000,0.0324,0.013523,0.002678,0.000431,0.014103
11107000,0.0324,0.013523,0.002678,0.000431,0.016807
11108000,0.0324,0.013523,0.002678,0.000431,0.010342
11109000,0.0324,0.013523,0.002678,0.000431,0.012693
11110000,0.0324,0.013523,0.002678,0.000431,0.010342
11111000,0.0324,0.013523,0.002678,0.000431,0.007757
11112000,0.0324,0.013523,0.002678,0.000431,0.007287
11113000,0.0324,0.013523,0.002678,0.000431,0.007169
11114000,0.0324,0.013523,0.002678,0.000431,0.007404
11115000,0.0324,0.013523,0.002678,0.000431,0.010578
11116000,0.0324,0.013523,0.002678,0.000431,0.006464
11117000,0.0324,0.013523,0.002678,0.000431,0.006699
11118000,0.0324,0.013523,0.002678,0.000431,0.006934
11119000,0.0324,0.013523,0.002678,0.000431,0.006817
11120000,0.0324,0.013523,0.002678,0.000431,0.003056
11121000,0.0324,0.013523,0.002678,0.000431,0.002586
11122000,0.0324,0.013523,0.002678,0.000431,0.002586
11123000,0.0324,0.013523,0.002678,0.000431,0.002468
11124000,0.0324,0.013523,0.002678,0.000431,0.002703
11125000,0.0324,0.013523,0.002678,0.000431,0.002468
11126000,0.0324,0.013523,0.002678,0.000431,0.004466
11127000,0.0324,0.013523,0.002678,0.000431,0.001645
11128000,0.0324,0.013523,0.002678,0.000431,0.001645
11129000,0.0324,0.013523,0.002678,0.000431,0.003173
11130000,0.0324,0.013523,0.002678,0.000431,0.000940
11131000,0.0324,0.013523,0.002678,0.000431,0.000940
11132000,0.0324,0.013523,0.002678,0.000431,0.070634
11133000,0.0324,0.013523,0.002678,0.000431,0.633242
11134000,0.0324,0.013523,0.002678,0.000431,0.564253
11135000,0.0324,0.013523,0.002678,0.000431,0.132572
11136000,0.0324,0.013523,0.002678,0.000431,0.133042
11137000,0.0324,0.013523,0.002678,0.000431,0.581529
11138000,0.0324,0.013523,0.002678,0.000431,0.265261
11139000,0.0324,0.013523,0.002678,0.000431,0.239640
11140000,0.0324,0.013523,0.002678,0.000431,0.318619
11141000,0.0324,0.013523,0.002678,0.000431,0.139976
11142000,0.0324,0.013523,0.002678,0.000431,0.180641
11143000,0.0324,0.013523,0.002678,0.000431,0.084855
11144000,0.0324,0.013523,0.002678,0.000431,0.527584
11145000,0.0324,0.013523,0.002678,0.000431,0.188398
11146000,0.0324,0.013523,0.002678,0.000431,0.103190
11147000,0.0324,0.013523,0.002678,0.000431,0.085208
11148000,0.0324,0.013523,0.002678,0.000431,0.059234
11149000,0.0324,0.013523,0.002678,0.000431,0.049362
11150000,0.0324,0.013523,0.002678,0.000431,0.038549
11151000,0.0324,0.013523,0.002678,0.000431,0.026444
11152000,0.0324,0.013523,0.002678,0.000431,0.021038
11153000,0.0324,0.013523,0.002678,0.000431,0.017394
11154000,0.0324,0.013523,0.002678,0.000431,0.017747
11155000,0.0324,0.013523,0.002678,0.000431,0.017277
11156000,0.0324,0.013523,0.002678,0.000431,0.014456
11157000,0.0324,0.013523,0.002678,0.000431,0.006934
11158000,0.0324,0.013523,0.002678,0.000431,0.005171
11159000,0.0324,0.013523,0.002678,0.000431,0.004936
11160000,0.0324,0.013523,0.002678,0.000431,0.005406
11161000,0.0324,0.013523,0.002678,0.000431,0.005289
11162000,0.0324,0.013523,0.002678,0.000431,0.006229
11163000,0.0324,0.013523,0.002678,0.000431,0.007404
11164000,0.0324,0.013523,0.002678,0.000431,0.002586
11165000,0.0324,0.013523,0.002678,0.000431,0.002703
11166000,0.0324,0.013523,0.002678,0.000431,0.004936
11167000,0.0324,0.013523,0.002678,0.000431,0.001763
11168000,0.0324,0.013523,0.002678,0.000431,0.001763
11169000,0.0324,0.013523,0.002678,0.000431,0.001763
11170000,0.0324,0.013523,0.002678,0.000431,0.001763
11171000,0.0324,0.013523,0.002678,0.000431,0.001763
11172000,0.0324,0.013523,0.002678,0.000431,0.001763
11173000,0.0324,0.013523,0.002678,0.000431,0.003761
11174000,0.0324,0.013523,0.002678,0.000431,0.116470
11175000,0.0324,0.013523,0.002678,0.000431,0.676962
11176000,0.0324,0.013523,0.002678,0.000431,0.540042
11177000,0.0324,0.013523,0.002678,0.000431,0.134452
11178000,0.0324,0.013523,0.002678,0.000431,0.132102
11179000,0.0324,0.013523,0.002678,0.000431,0.580354
11180000,0.0324,0.013523,0.002678,0.000431,0.243871
11181000,0.0324,0.013523,0.002678,0.000431,0.311567
11182000,0.0324,0.013523,0.002678,0.000431,0.247514
11183000,0.0324,0.013523,0.002678,0.000431,0.146088
11184000,0.0324,0.013523,0.002678,0.000431,0.145265
11185000,0.0324,0.013523,0.002678,0.000431,0.214606
11186000,0.0324,0.013523,0.002678,0.000431,0.450015
11187000,0.0324,0.013523,0.002678,0.000431,0.116470
11188000,0.0324,0.013523,0.002678,0.000431,0.087558
11189000,0.0324,0.013523,0.002678,0.000431,0.071692
11190000,0.0324,0.013523,0.002678,0.000431,0.065111
11191000,0.0324,0.013523,0.002678,0.000431,0.042310
11192000,0.0324,0.013523,0.002678,0.000431,0.039960
11193000,0.0324,0.013523,0.002678,0.000431,0.032908
11194000,0.0324,0.013523,0.002678,0.000431,0.025504
11195000,0.0324,0.013523,0.002678,0.000431,0.025151
11196000,0.0324,0.013523,0.002678,0.000431,0.012811
11197000,0.0324,0.013523,0.002678,0.000431,0.017512
11198000,0.0324,0.013523,0.002678,0.000431,0.011518
11199000,0.0324,0.013523,0.002678,0.000431,0.008227
11200000,0.0324,0.013523,0.002678,0.000431,0.008345
11201000,0.0324,0.013523,0.002678,0.000431,0.008345
11202000,0.0324,0.013523,0.002678,0.000431,0.014926
11203000,0.0324,0.013523,0.002678,0.000431,0.004936
11204000,0.0324,0.013523,0.002678,0.000431,0.005524
11205000,0.0324,0.013523,0.002678,0.000431,0.005054
11206000,0.0324,0.013523,0.002678,0.000431,0.007052
11207000,0.0324,0.013523,0.002678,0.000431,0.005876
11208000,0.0324,0.013523,0.002678,0.000431,0.003291
11209000,0.0324,0.013523,0.002678,0.000431,0.003761
11210000,0.0324,0.013523,0.002678,0.000431,0.004936
11211000,0.0324,0.013523,0.002678,0.000431,0.002586
11212000,0.0324,0.013523,0.002678,0.000431,0.002586
11213000,0.0324,0.013523,0.002678,0.000431,0.003643
11214000,0.0324,0.013523,0.002678,0.000431,0.003056
11215000,0.0324,0.013523,0.002678,0.000431,0.001645
11216000,0.0324,0.013523,0.002678,0.000431,0.001763
11217000,0.0324,0.013523,0.002678,0.000431,0.001763
11218000,0.0324,0.013523,0.002678,0.000431,0.001645
11219000,0.0324,0.013523,0.002678,0.000431,0.001880
11220000,0.0324,0.013523,0.002678,0.000431,0.004584
11221000,0.0324,0.013523,0.002678,0.000431,0.000940
11222000,0.0324,0.013523,0.002678,0.000431,0.000823
11223000,0.0324,0.013523,0.002678,0.000431,0.000823
11224000,0.0324,0.013523,0.002678,0.000431,0.000823
11225000,0.0324,0.013523,0.002678,0.000431,0.000823
11226000,0.0324,0.013523,0.002678,0.000431,0.000940
11227000,0.0324,0.013523,0.002678,0.000431,0.000705
11228000,0.0324,0.013523,0.002678,0.000431,0.000940
11229000,0.0324,0.013523,0.002678,0.000431,0.000823
11230000,0.0324,0.013523,0.002678,0.000431,0.000823
11231000,0.0324,0.013523,0.002678,0.000431,0.000940
11232000,0.0324,0.013523,0.002678,0.000431,0.000823
11233000,0.0324,0.013523,0.002678,0.000431,0.000940
11234000,0.0324,0.013523,0.002678,0.000431,0.000823
11235000,0.0324,0.013523,0.002678,0.000431,0.000940
11236000,0.0324,0.013523,0.002678,0.000431,0.000823
11237000,0.0324,0.013523,0.002678,0.000431,0.000823
11238000,0.0324,0.013523,0.002678,0.000431,0.000940
11239000,0.0324,0.013523,0.002678,0.000431,0.000940
11240000,0.0324,0.013523,0.002678,0.000431,0.000705
11241000,0.0324,0.013523,0.002678,0.000431,0.000940
11242000,0.0324,0.013523,0.002678,0.000431,0.000823
11243000,0.0324,0.013523,0.002678,0.000431,0.000823
11244000,0.0324,0.013523,0.002678,0.000431,0.000823
11245000,0.0324,0.013523,0.002678,0.000431,0.000823
11246000,0.0324,0.013523,0.002678,0.000431,0.000823
11247000,0.0324,0.013523,0.002678,0.000431,0.000823
11248000,0.0324,0.013523,0.002678,0.000431,0.000940
11249000,0.0324,0.013523,0.002678,0.000431,0.000705
11250000,0.0324,0.013523,0.002678,0.000431,0.000823
11251000,0.0324,0.013523,0.002678,0.000431,0.000940
11252000,0.0324,0.013523,0.002678,0.000431,0.000823
11253000,0.0324,0.013523,0.002678,0.000431,0.000823
11254000,0.0324,0.013523,0.002678,0.000431,0.000823
11255000,0.0324,0.013523,0.002678,0.000431,0.000705
11256000,0.0324,0.013523,0.002678,0.000431,0.000940
11257000,0.0324,0.013523,0.002678,0.000431,0.000940
11258000,0.0324,0.013523,0.002678,0.000431,0.000705
11259000,0.0324,0.013523,0.002678,0.000431,0.000940
11260000,0.0324,0.013523,0.002678,0.000431,0.000705
11261000,0.0324,0.013523,0.002678,0.000431,0.000940
11262000,0.0324,0.013523,0.002678,0.000431,0.000823
11263000,0.0324,0.013523,0.002678,0.000431,0.000823
11264000,0.0324,0.013523,0.002678,0.000431,0.000940
11265000,0.0324,0.013523,0.002678,0.000431,0.000705
11266000,0.0324,0.013523,0.002678,0.000431,0.000940
11267000,0.0324,0.013523,0.002678,0.000431,0.000823
11268000,0.0324,0.013523,0.002678,0.000431,0.000823
11269000,0.0324,0.013523,0.002678,0.000431,0.000823
11270000,0.0324,0.013523,0.002678,0.000431,0.000823
11271000,0.0324,0.013523,0.002678,0.000431,0.000823
11272000,0.0324,0.013523,0.002678,0.000431,0.000823
11273000,0.0324,0.013523,0.002678,0.000431,0.003996
11274000,0.0324,0.013523,0.002678,0.000431,0.480338
11275000,0.0324,0.013523,0.002678,0.000431,0.729968
11276000,0.0324,0.013523,0.002678,0.000431,0.133042
11277000,0.0324,0.013523,0.002678,0.000431,0.132572
11278000,0.0324,0.013523,0.002678,0.000431,0.233528
11279000,0.0324,0.013523,0.002678,0.000431,0.513128
11280000,0.0324,0.013523,0.002678,0.000431,0.239522
11281000,0.0324,0.013523,0.002678,0.000431,0.319794
11282000,0.0324,0.013523,0.002678,0.000431,0.196860
11283000,0.0324,0.013523,0.002678,0.000431,0.144795
11284000,0.0324,0.013523,0.002678,0.000431,0.145147
11285000,0.0324,0.013523,0.002678,0.000431,0.238582
11286000,0.0324,0.013523,0.002678,0.000431,0.454246
11287000,0.0324,0.013523,0.002678,0.000431,0.158428
11288000,0.0324,0.013523,0.002678,0.000431,0.129986
11289000,0.0324,0.013523,0.002678,0.000431,0.109066
11290000,0.0324,0.013523,0.002678,0.000431,0.075571
11291000,0.0324,0.013523,0.002678,0.000431,0.051477
11292000,0.0324,0.013523,0.002678,0.000431,0.041017
11293000,0.0324,0.013523,0.002678,0.000431,0.038902
11294000,0.0324,0.013523,0.002678,0.000431,0.021508
11295000,0.0324,0.013523,0.002678,0.000431,0.015749
11296000,0.0324,0.013523,0.002678,0.000431,0.014338
11297000,0.0324,0.013523,0.002678,0.000431,0.013516
11298000,0.0324,0.013523,0.002678,0.000431,0.006934
11299000,0.0324,0.013523,0.002678,0.000431,0.006464
11300000,0.0324,0.013523,0.002678,0.000431,0.007052
11301000,0.0324,0.013523,0.002678,0.000431,0.010107
11302000,0.0324,0.013523,0.002678,0.000431,0.005876
11303000,0.0324,0.013523,0.002678,0.000431,0.006699
11304000,0.0324,0.013523,0.002678,0.000431,0.003408
11305000,0.0324,0.013523,0.002678,0.000431,0.003526
11306000,0.0324,0.013523,0.002678,0.000431,0.003408
11307000,0.0324,0.013523,0.002678,0.000431,0.003408
11308000,0.0324,0.013523,0.002678,0.000431,0.006817
11309000,0.0324,0.013523,0.002678,0.000431,0.002468
11310000,0.0324,0.013523,0.002678,0.000431,0.002703
11311000,0.0324,0.013523,0.002678,0.000431,0.002703
11312000,0.0324,0.013523,0.002678,0.000431,0.004701
11313000,0.0324,0.013523,0.002678,0.000431,0.003878
11314000,0.0324,0.013523,0.002678,0.000431,0.000823
11315000,0.0324,0.013523,0.002678,0.000431,0.000823
11316000,0.0324,0.013523,0.002678,0.000431,0.014338
11317000,0.0324,0.013523,0.002678,0.000431,0.655690
11318000,0.0324,0.013523,0.002678,0.000431,0.620666
11319000,0.0324,0.013523,0.002678,0.000431,0.138683
11320000,0.0324,0.013523,0.002678,0.000431,0.133512
11321000,0.0324,0.013523,0.002678,0.000431,0.485626
11322000,0.0324,0.013523,0.002678,0.000431,0.277719
11323000,0.0324,0.013523,0.002678,0.000431,0.240698
11324000,0.0324,0.013523,0.002678,0.000431,0.341772
11325000,0.0324,0.013523,0.002678,0.000431,0.144560
11326000,0.0324,0.013523,0.002678,0.000431,0.151259
11327000,0.0324,0.013523,0.002678,0.000431,0.108831
11328000,0.0324,0.013523,0.002678,0.000431,0.400419
11329000,0.0324,0.013523,0.002678,0.000431,0.353642
11330000,0.0324,0.013523,0.002678,0.000431,0.152081
11331000,0.0324,0.013523,0.002678,0.000431,0.115883
11332000,0.0324,0.013523,0.002678,0.000431,0.107421
11333000,0.0324,0.013523,0.002678,0.000431,0.090732
11334000,0.0324,0.013523,0.002678,0.000431,0.075336
11335000,0.0324,0.013523,0.002678,0.000431,0.051712
11336000,0.0324,0.013523,0.002678,0.000431,0.051947
11337000,0.0324,0.013523,0.002678,0.000431,0.027149
11338000,0.0324,0.013523,0.002678,0.000431,0.033731
11339000,0.0324,0.013523,0.002678,0.000431,0.022683
11340000,0.0324,0.013523,0.002678,0.000431,0.016336
11341000,0.0324,0.013523,0.002678,0.000431,0.009872
11342000,0.0324,0.013523,0.002678,0.000431,0.012105
11343000,0.0324,0.013523,0.002678,0.000431,0.012340
11344000,0.0324,0.013523,0.002678,0.000431,0.008697
11345000,0.0324,0.013523,0.002678,0.000431,0.010930
11346000,0.0324,0.013523,0.002678,0.000431,0.007287
11347000,0.0324,0.013523,0.002678,0.000431,0.012340
11348000,0.0324,0.013523,0.002678,0.000431,0.002351
11349000,0.0324,0.013523,0.002678,0.000431,0.002586
11350000,0.0324,0.013523,0.002678,0.000431,0.002703
11351000,0.0324,0.013523,0.002678,0.000431,0.002703
11352000,0.0324,0.013523,0.002678,0.000431,0.002468
11353000,0.0324,0.013523,0.002678,0.000431,0.005641
11354000,0.0324,0.013523,0.002678,0.000431,0.002233
11355000,0.0324,0.013523,0.002678,0.000431,0.000940
11356000,0.0324,0.013523,0.002678,0.000431,0.000823
11357000,0.0324,0.013523,0.002678,0.000431,0.000940
11358000,0.0324,0.013523,0.002678,0.000431,0.000823
11359000,0.0324,0.013523,0.002678,0.000431,0.000823
11360000,0.0324,0.013523,0.002678,0.000431,0.000940
11361000,0.0324,0.013523,0.002678,0.000431,0.000940
11362000,0.0324,0.013523,0.002678,0.000431,0.000823
11363000,0.0324,0.013523,0.002678,0.000431,0.000823
11364000,0.0324,0.013523,0.002678,0.000431,0.000940
11365000,0.0324,0.013523,0.002678,0.000431,0.000940
11366000,0.0324,0.013523,0.002678,0.000431,0.000823
11367000,0.0324,0.013523,0.002678,0.000431,0.000823
11368000,0.0324,0.013523,0.002678,0.000431,0.000940
11369000,0.0324,0.013523,0.002678,0.000431,0.000940
11370000,0.0324,0.013523,0.002678,0.000431,0.000823
11371000,0.0324,0.013523,0.002678,0.000431,0.000823
11372000,0.0324,0.013523,0.002678,0.000431,0.000940
11373000,0.0324,0.013523,0.002678,0.000431,0.000823
11374000,0.0324,0.013523,0.002678,0.000431,0.000940
11375000,0.0324,0.013523,0.002678,0.000431,0.000823
11376000,0.0324,0.013523,0.002678,0.000431,0.000940
11377000,0.0324,0.013523,0.002678,0.000431,0.000823
11378000,0.0324,0.013523,0.002678,0.000431,0.000823
11379000,0.0324,0.013523,0.002678,0.000431,0.000940
11380000,0.0324,0.013523,0.002678,0.000431,0.000940
11381000,0.0324,0.013523,0.002678,0.000431,0.000823
11382000,0.0324,0.013523,0.002678,0.000431,0.000823
11383000,0.0324,0.013523,0.002678,0.000431,0.000940
11384000,0.0324,0.013523,0.002678,0.000431,0.000940
11385000,0.0324,0.013523,0.002678,0.000431,0.000705
11386000,0.0324,0.013523,0.002678,0.000431,0.000940
11387000,0.0324,0.013523,0.002678,0.000431,0.000940
11388000,0.0324,0.013523,0.002678,0.000431,0.000940
11389000,0.0324,0.013523,0.002678,0.000431,0.000823
11390000,0.0324,0.013523,0.002678,0.000431,0.000823
11391000,0.0324,0.013523,0.002678,0.000431,0.000940
11392000,0.0324,0.013523,0.002678,0.000431,0.000823
11393000,0.0324,0.013523,0.002678,0.000431,0.000940
11394000,0.0324,0.013523,0.002678,0.000431,0.000823
11395000,0.0324,0.013523,0.002678,0.000431,0.000940
11396000,0.0324,0.013523,0.002678,0.000431,0.000823
11397000,0.0324,0.013523,0.002678,0.000431,0.000823
11398000,0.0324,0.013523,0.002678,0.000431,0.000940
11399000,0.0324,0.013523,0.002678,0.000431,0.000940
11400000,0.0324,0.013523,0.002678,0.000431,0.014221
11401000,0.0324,0.013523,0.002678,0.000431,0.707402
11402000,0.0324,0.013523,0.002678,0.000431,0.610089
11403000,0.0324,0.013523,0.002678,0.000431,0.133512
11404000,0.0324,0.013523,0.002678,0.000431,0.134452
11405000,0.0324,0.013523,0.002678,0.000431,0.526056
11406000,0.0324,0.013523,0.002678,0.000431,0.232588
11407000,0.0324,0.013523,0.002678,0.000431,0.275604
11408000,0.0324,0.013523,0.002678,0.000431,0.298757
11409000,0.0324,0.013523,0.002678,0.000431,0.147145
11410000,0.0324,0.013523,0.002678,0.000431,0.142797
11411000,0.0324,0.013523,0.002678,0.000431,0.116470
11412000,0.0324,0.013523,0.002678,0.000431,0.427215
11413000,0.0324,0.013523,0.002678,0.000431,0.255389
11414000,0.0324,0.013523,0.002678,0.000431,0.100839
11415000,0.0324,0.013523,0.002678,0.000431,0.090379
11416000,0.0324,0.013523,0.002678,0.000431,0.072162
11417000,0.0324,0.013523,0.002678,0.000431,0.058999
11418000,0.0324,0.013523,0.002678,0.000431,0.045718
11419000,0.0324,0.013523,0.002678,0.000431,0.035729
11420000,0.0324,0.013523,0.002678,0.000431,0.028207
11421000,0.0324,0.013523,0.002678,0.000431,0.021155
11422000,0.0324,0.013523,0.002678,0.000431,0.019745
11423000,0.0324,0.013523,0.002678,0.000431,0.023153
11424000,0.0324,0.013523,0.002678,0.000431,0.018334
11425000,0.0324,0.013523,0.002678,0.000431,0.014573
11426000,0.0324,0.013523,0.002678,0.000431,0.011518
11427000,0.0324,0.013523,0.002678,0.000431,0.009755
11428000,0.0324,0.013523,0.002678,0.000431,0.007874
11429000,0.0324,0.013523,0.002678,0.000431,0.007287
11430000,0.0324,0.013523,0.002678,0.000431,0.007287
11431000,0.0324,0.013523,0.002678,0.000431,0.008932
11432000,0.0324,0.013523,0.002678,0.000431,0.007287
11433000,0.0324,0.013523,0.002678,0.000431,0.009990
11434000,0.0324,0.013523,0.002678,0.000431,0.002703
11435000,0.0324,0.013523,0.002678,0.000431,0.002586
11436000,0.0324,0.013523,0.002678,0.000431,0.002821
11437000,0.0324,0.013523,0.002678,0.000431,0.002468
11438000,0.0324,0.013523,0.002678,0.000431,0.004113
11439000,0.0324,0.013523,0.002678,0.000431,0.003408
11440000,0.0324,0.013523,0.002678,0.000431,0.001763
11441000,0.0324,0.013523,0.002678,0.000431,0.001763
11442000,0.0324,0.013523,0.002678,0.000431,0.001763
11443000,0.0324,0.013523,0.002678,0.000431,0.001763
11444000,0.0324,0.013523,0.002678,0.000431,0.001763
11445000,0.0324,0.013523,0.002678,0.000431,0.001763
11446000,0.0324,0.013523,0.002678,0.000431,0.001645
11447000,0.0324,0.013523,0.002678,0.000431,0.001763
11448000,0.0324,0.013523,0.002678,0.000431,0.001763
11449000,0.0324,0.013523,0.002678,0.000431,0.001880
11450000,0.0324,0.013523,0.002678,0.000431,0.001645
11451000,0.0324,0.013523,0.002678,0.000431,0.001880
11452000,0.0324,0.013523,0.002678,0.000431,0.001645
11453000,0.0324,0.013523,0.002678,0.000431,0.001763
11454000,0.0324,0.013523,0.002678,0.000431,0.001763
11455000,0.0324,0.013523,0.002678,0.000431,0.003291
11456000,0.0324,0.013523,0.002678,0.000431,0.000823
11457000,0.0324,0.013523,0.002678,0.000431,0.000940
11458000,0.0324,0.013523,0.002678,0.000431,0.000940
11459000,0.0324,0.013523,0.002678,0.000431,0.000823
11460000,0.0324,0.013523,0.002678,0.000431,0.000823
11461000,0.0324,0.013523,0.002678,0.000431,0.000940
11462000,0.0324,0.013523,0.002678,0.000431,0.000823
11463000,0.0324,0.013523,0.002678,0.000431,0.000940
11464000,0.0324,0.013523,0.002678,0.000431,0.000823
11465000,0.0324,0.013523,0.002678,0.000431,0.000940
11466000,0.0324,0.013523,0.002678,0.000431,0.003526
11467000,0.0324,0.013523,0.002678,0.000431,0.517594
11468000,0.0324,0.013523,0.002678,0.000431,0.693299
11469000,0.0324,0.013523,0.002678,0.000431,0.133982
11470000,0.0324,0.013523,0.002678,0.000431,0.132572
11471000,0.0324,0.013523,0.002678,0.000431,0.310509
11472000,0.0324,0.013523,0.002678,0.000431,0.508192
11473000,0.0324,0.013523,0.002678,0.000431,0.238465
11474000,0.0324,0.013523,0.002678,0.000431,0.319912
11475000,0.0324,0.013523,0.002678,0.000431,0.158663
11476000,0.0324,0.013523,0.002678,0.000431,0.151846
11477000,0.0324,0.013523,0.002678,0.000431,0.116470
11478000,0.0324,0.013523,0.002678,0.000431,0.353642
11479000,0.0324,0.013523,0.002678,0.000431,0.410291
11480000,0.0324,0.013523,0.002678,0.000431,0.166772
11481000,0.0324,0.013523,0.002678,0.000431,0.148908
11482000,0.0324,0.013523,0.002678,0.000431,0.111887
11483000,0.0324,0.013523,0.002678,0.000431,0.090144
11484000,0.0324,0.013523,0.002678,0.000431,0.059704
11485000,0.0324,0.013523,0.002678,0.000431,0.061232
11486000,0.0324,0.013523,0.002678,0.000431,0.043133
11487000,0.0324,0.013523,0.002678,0.000431,0.035023
11488000,0.0324,0.013523,0.002678,0.000431,0.037962
11489000,0.0324,0.013523,0.002678,0.000431,0.023623
11490000,0.0324,0.013523,0.002678,0.000431,0.022330
11491000,0.0324,0.013523,0.002678,0.000431,0.016101
11492000,0.0324,0.013523,0.002678,0.000431,0.017512
11493000,0.0324,0.013523,0.002678,0.000431,0.017277
11494000,0.0324,0.013523,0.002678,0.000431,0.012458
11495000,0.0324,0.013523,0.002678,0.000431,0.014221
11496000,0.0324,0.013523,0.002678,0.000431,0.008227
11497000,0.0324,0.013523,0.002678,0.000431,0.010342
11498000,0.0324,0.013523,0.002678,0.000431,0.006464
11499000,0.0324,0.013523,0.002678,0.000431,0.006582
11500000,0.0324,0.013523,0.002678,0.000431,0.009285
11501000,0.0324,0.013523,0.002678,0.000431,0.005054
11502000,0.0324,0.013523,0.002678,0.000431,0.005759
11503000,0.0324,0.013523,0.002678,0.000431,0.005876
11504000,0.0324,0.013523,0.002678,0.000431,0.005289
11505000,0.0324,0.013523,0.002678,0.000431,0.005641
11506000,0.0324,0.013523,0.002678,0.000431,0.005289
11507000,0.0324,0.013523,0.002678,0.000431,0.005289
11508000,0.0324,0.013523,0.002678,0.000431,0.006111
11509000,0.0324,0.013523,0.002678,0.000431,0.005054
11510000,0.0324,0.013523,0.002678,0.000431,0.005641
11511000,0.0324,0.013523,0.002678,0.000431,0.006229
11512000,0.0324,0.013523,0.002678,0.000431,0.005171
11513000,0.0324,0.013523,0.002678,0.000431,0.007169
11514000,0.0324,0.013523,0.002678,0.000431,0.004701
11515000,0.0324,0.013523,0.002678,0.000431,0.002821
11516000,0.0324,0.013523,0.002678,0.000431,0.002116
11517000,0.0324,0.013523,0.002678,0.000431,0.002586
11518000,0.0324,0.013523,0.002678,0.000431,0.004231
11519000,0.0324,0.013523,0.002678,0.000431,0.000823
11520000,0.0324,0.013523,0.002678,0.000431,0.000940
11521000,0.0324,0.013523,0.002678,0.000431,0.000823
11522000,0.0324,0.013523,0.002678,0.000431,0.000940
11523000,0.0324,0.013523,0.002678,0.000431,0.000823
11524000,0.0324,0.013523,0.002678,0.000431,0.000823
11525000,0.0324,0.013523,0.002678,0.000431,0.000940
11526000,0.0324,0.013523,0.002678,0.000431,0.000940
11527000,0.0324,0.013523,0.002678,0.000431,0.000823
11528000,0.0324,0.013523,0.002678,0.000431,0.014338
11529000,0.0324,0.013523,0.002678,0.000431,0.719390
11530000,0.0324,0.013523,0.002678,0.000431,0.611617
11531000,0.0324,0.013523,0.002678,0.000431,0.134452
11532000,0.0324,0.013523,0.002678,0.000431,0.134100
11533000,0.0324,0.013523,0.002678,0.000431,0.545801
11534000,0.0324,0.013523,0.002678,0.000431,0.227064
11535000,0.0324,0.013523,0.002678,0.000431,0.293350
11536000,0.0324,0.013523,0.002678,0.000431,0.289589
11537000,0.0324,0.013523,0.002678,0.000431,0.151259
11538000,0.0324,0.013523,0.002678,0.000431,0.169476
11539000,0.0324,0.013523,0.002678,0.000431,0.118821
11540000,0.0324,0.013523,0.002678,0.000431,0.532873
11541000,0.0324,0.013523,0.002678,0.000431,0.222128
11542000,0.0324,0.013523,0.002678,0.000431,0.142444
11543000,0.0324,0.013523,0.002678,0.000431,0.115178
11544000,0.0324,0.013523,0.002678,0.000431,0.099781
11545000,0.0324,0.013523,0.002678,0.000431,0.057119
11546000,0.0324,0.013523,0.002678,0.000431,0.056884
11547000,0.0324,0.013523,0.002678,0.000431,0.047481
11548000,0.0324,0.013523,0.002678,0.000431,0.034436
11549000,0.0324,0.013523,0.002678,0.000431,0.015984
11550000,0.0324,0.013523,0.002678,0.000431,0.016336
11551000,0.0324,0.013523,0.002678,0.000431,0.017982
11552000,0.0324,0.013523,0.002678,0.000431,0.021508
11553000,0.0324,0.013523,0.002678,0.000431,0.012928
11554000,0.0324,0.013523,0.002678,0.000431,0.015396
11555000,0.0324,0.013523,0.002678,0.000431,0.006347
11556000,0.0324,0.013523,0.002678,0.000431,0.005876
11557000,0.0324,0.013523,0.002678,0.000431,0.007169
11558000,0.0324,0.013523,0.002678,0.000431,0.005759
11559000,0.0324,0.013523,0.002678,0.000431,0.005054
11560000,0.0324,0.013523,0.002678,0.000431,0.005171
11561000,0.0324,0.013523,0.002678,0.000431,0.008345
11562000,0.0324,0.013523,0.002678,0.000431,0.004231
11563000,0.0324,0.013523,0.002678,0.000431,0.004231
11564000,0.0324,0.013523,0.002678,0.000431,0.004231
11565000,0.0324,0.013523,0.002678,0.000431,0.004584
11566000,0.0324,0.013523,0.002678,0.000431,0.003996
11567000,0.0324,0.013523,0.002678,0.000431,0.004349
11568000,0.0324,0.013523,0.002678,0.000431,0.004349
11569000,0.0324,0.013523,0.002678,0.000431,0.004466
11570000,0.0324,0.013523,0.002678,0.000431,0.004231
11571000,0.0324,0.013523,0.002678,0.000431,0.004113
11572000,0.0324,0.013523,0.002678,0.000431,0.008109
11573000,0.0324,0.013523,0.002678,0.000431,0.003526
11574000,0.0324,0.013523,0.002678,0.000431,0.003291
11575000,0.0324,0.013523,0.002678,0.000431,0.003526
11576000,0.0324,0.013523,0.002678,0.000431,0.003173
11577000,0.0324,0.013523,0.002678,0.000431,0.003526
11578000,0.0324,0.013523,0.002678,0.000431,0.003526
11579000,0.0324,0.013523,0.002678,0.000431,0.003526
11580000,0.0324,0.013523,0.002678,0.000431,0.003291
11581000,0.0324,0.013523,0.002678,0.000431,0.003408
11582000,0.0324,0.013523,0.002678,0.000431,0.003526
11583000,0.0324,0.013523,0.002678,0.000431,0.003526
11584000,0.0324,0.013523,0.002678,0.000431,0.004701
11585000,0.0324,0.013523,0.002678,0.000431,0.002586
11586000,0.0324,0.013523,0.002678,0.000431,0.002703
11587000,0.0324,0.013523,0.002678,0.000431,0.002351
11588000,0.0324,0.013523,0.002678,0.000431,0.002703
11589000,0.0324,0.013523,0.002678,0.000431,0.005641
11590000,0.0324,0.013523,0.002678,0.000431,0.002116
11591000,0.0324,0.013523,0.002678,0.000431,0.000940
11592000,0.0324,0.013523,0.002678,0.000431,0.000705
11593000,0.0324,0.013523,0.002678,0.000431,0.000940
11594000,0.0324,0.013523,0.002678,0.000431,0.000823
11595000,0.0324,0.013523,0.002678,0.000431,0.000823
11596000,0.0324,0.013523,0.002678,0.000431,0.000823
11597000,0.0324,0.013523,0.002678,0.000431,0.000823
11598000,0.0324,0.013523,0.002678,0.000431,0.000940
11599000,0.0324,0.013523,0.002678,0.000431,0.000705
11600000,0.0324,0.013523,0.002678,0.000431,0.000940
11601000,0.0324,0.013523,0.002678,0.000431,0.000823
11602000,0.0324,0.013523,0.002678,0.000431,0.000823
11603000,0.0324,0.013523,0.002678,0.000431,0.000823
11604000,0.0324,0.013523,0.002678,0.000431,0.000823
11605000,0.0324,0.013523,0.002678,0.000431,0.000823
11606000,0.0324,0.013523,0.002678,0.000431,0.000823
11607000,0.0324,0.013523,0.002678,0.000431,0.000940
11608000,0.0324,0.013523,0.002678,0.000431,0.000705
11609000,0.0324,0.013523,0.002678,0.000431,0.000940
11610000,0.0324,0.013523,0.002678,0.000431,0.000705
11611000,0.0324,0.013523,0.002678,0.000431,0.000940
11612000,0.0324,0.013523,0.002678,0.000431,0.000940
11613000,0.0324,0.013523,0.002678,0.000431,0.000705
11614000,0.0324,0.013523,0.002678,0.000431,0.000940
11615000,0.0324,0.013523,0.002678,0.000431,0.000705
11616000,0.0324,0.013523,0.002678,0.000431,0.000940
11617000,0.0324,0.013523,0.002678,0.000431,0.000823
11618000,0.0324,0.013523,0.002678,0.000431,0.000823
11619000,0.0324,0.013523,0.002678,0.000431,0.000823
11620000,0.0324,0.013523,0.002678,0.000431,0.000823
11621000,0.0324,0.013523,0.002678,0.000431,0.000940
11622000,0.0324,0.013523,0.002678,0.000431,0.000705
11623000,0.0324,0.013523,0.002678,0.000431,0.000940
11624000,0.0324,0.013523,0.002678,0.000431,0.000823
11625000,0.0324,0.013523,0.002678,0.000431,0.000823
11626000,0.0324,0.013523,0.002678,0.000431,0.000823
11627000,0.0324,0.013523,0.002678,0.000431,0.000823
11628000,0.0324,0.013523,0.002678,0.000431,0.000823
11629000,0.0324,0.013523,0.002678,0.000431,0.000823
11630000,0.0324,0.013523,0.002678,0.000431,0.000823
11631000,0.0324,0.013523,0.002678,0.000431,0.000823
11632000,0.0324,0.013523,0.002678,0.000431,0.000940
11633000,0.0324,0.013523,0.002678,0.000431,0.000823
11634000,0.0324,0.013523,0.002678,0.000431,0.000823
11635000,0.0324,0.013523,0.002678,0.000431,0.000705
11636000,0.0324,0.013523,0.002678,0.000431,0.000940
11637000,0.0324,0.013523,0.002678,0.000431,0.000940
11638000,0.0324,0.013523,0.002678,0.000431,0.000705
11639000,0.0324,0.013523,0.002678,0.000431,0.000940
11640000,0.0324,0.013523,0.002678,0.000431,0.000705
11641000,0.0324,0.013523,0.002678,0.000431,0.000940
11642000,0.0324,0.013523,0.002678,0.000431,0.000823
11643000,0.0324,0.013523,0.002678,0.000431,0.000823
11644000,0.0324,0.013523,0.002678,0.000431,0.000940
11645000,0.0324,0.013523,0.002678,0.000431,0.000705
11646000,0.0324,0.013523,0.002678,0.000431,0.000940
11647000,0.0324,0.013523,0.002678,0.000431,0.000823
11648000,0.0324,0.013523,0.002678,0.000431,0.000823
11649000,0.0324,0.013523,0.002678,0.000431,0.000823
11650000,0.0324,0.013523,0.002678,0.000431,0.000823
11651000,0.0324,0.013523,0.002678,0.000431,0.000823
11652000,0.0324,0.013523,0.002678,0.000431,0.000823
11653000,0.0324,0.013523,0.002678,0.000431,0.000940
11654000,0.0324,0.013523,0.002678,0.000431,0.000705
11655000,0.0324,0.013523,0.002678,0.000431,0.000940
11656000,0.0324,0.013523,0.002678,0.000431,0.000823
11657000,0.0324,0.013523,0.002678,0.000431,0.000823
11658000,0.0324,0.013523,0.002678,0.000431,0.000705
11659000,0.0324,0.013523,0.002678,0.000431,0.000940
11660000,0.0324,0.013523,0.002678,0.000431,0.000940
11661000,0.0324,0.013523,0.002678,0.000431,0.000705
11662000,0.0324,0.013523,0.002678,0.000431,0.000940
11663000,0.0324,0.013523,0.002678,0.000431,0.000705
11664000,0.0324,0.013523,0.002678,0.000431,0.000940
11665000,0.0324,0.013523,0.002678,0.000431,0.000823
11666000,0.0324,0.013523,0.002678,0.000431,0.000823
11667000,0.0324,0.013523,0.002678,0.000431,0.000940
11668000,0.0324,0.013523,0.002678,0.000431,0.000705
11669000,0.0324,0.013523,0.002678,0.000431,0.000940
11670000,0.0324,0.013523,0.002678,0.000431,0.000705
11671000,0.0324,0.013523,0.002678,0.000431,0.000940
11672000,0.0324,0.013523,0.002678,0.000431,0.000823
11673000,0.0324,0.013523,0.002678,0.000431,0.000823
11674000,0.0324,0.013523,0.002678,0.000431,0.000823
11675000,0.0324,0.013523,0.002678,0.000431,0.000823
11676000,0.0324,0.013523,0.002678,0.000431,0.000940
11677000,0.0324,0.013523,0.002678,0.000431,0.000705
11678000,0.0324,0.013523,0.002678,0.000431,0.000823
11679000,0.0324,0.013523,0.002678,0.000431,0.000823
11680000,0.0324,0.013523,0.002678,0.000431,0.000940
11681000,0.0324,0.013523,0.002678,0.000431,0.000823
11682000,0.0324,0.013523,0.002678,0.000431,0.000823
11683000,0.0324,0.013523,0.002678,0.000431,0.000705
11684000,0.0324,0.013523,0.002678,0.000431,0.000940
11685000,0.0324,0.013523,0.002678,0.000431,0.000940
11686000,0.0324,0.013523,0.002678,0.000431,0.000705
11687000,0.0324,0.013523,0.002678,0.000431,0.000940
11688000,0.0324,0.013523,0.002678,0.000431,0.000705
11689000,0.0324,0.013523,0.002678,0.000431,0.000940
11690000,0.0324,0.013523,0.002678,0.000431,0.000823
11691000,0.0324,0.013523,0.002678,0.000431,0.000823
11692000,0.0324,0.013523,0.002678,0.000431,0.000940
11693000,0.0324,0.013523,0.002678,0.000431,0.000705
11694000,0.0324,0.013523,0.002678,0.000431,0.000940
11695000,0.0324,0.013523,0.002678,0.000431,0.000823
11696000,0.0324,0.013523,0.002678,0.000431,0.000823
11697000,0.0324,0.013523,0.002678,0.000431,0.000823
11698000,0.0324,0.013523,0.002678,0.000431,0.000823
11699000,0.0324,0.013523,0.002678,0.000431,0.000940
11700000,0.0324,0.013523,0.002678,0.000431,0.000705
11701000,0.0324,0.013523,0.002678,0.000431,0.000940
11702000,0.0324,0.013523,0.002678,0.000431,0.000823
11703000,0.0324,0.013523,0.002678,0.000431,0.000823
11704000,0.0324,0.013523,0.002678,0.000431,0.000823
11705000,0.0324,0.013523,0.002678,0.000431,0.000823
11706000,0.0324,0.013523,0.002678,0.000431,0.000940
11707000,0.0324,0.013523,0.002678,0.000431,0.000823
11708000,0.0324,0.013523,0.002678,0.000431,0.000823
11709000,0.0324,0.013523,0.002678,0.000431,0.000705
11710000,0.0324,0.013523,0.002678,0.000431,0.000940
11711000,0.0324,0.013523,0.002678,0.000431,0.000940
11712000,0.0324,0.013523,0.002678,0.000431,0.000705
11713000,0.0324,0.013523,0.002678,0.000431,0.000940
11714000,0.0324,0.013523,0.002678,0.000431,0.000705
11715000,0.0324,0.013523,0.002678,0.000431,0.000940
11716000,0.0324,0.013523,0.002678,0.000431,0.000940
11717000,0.0324,0.013523,0.002678,0.000431,0.000705
11718000,0.0324,0.013523,0.002678,0.000431,0.000940
11719000,0.0324,0.013523,0.002678,0.000431,0.000705
11720000,0.0324,0.013523,0.002678,0.000431,0.000940
11721000,0.0324,0.013523,0.002678,0.000431,0.000823
11722000,0.0324,0.013523,0.002678,0.000431,0.000823
11723000,0.0324,0.013523,0.002678,0.000431,0.000823
11724000,0.0324,0.013523,0.002678,0.000431,0.000823
11725000,0.0324,0.013523,0.002678,0.000431,0.000940
11726000,0.0324,0.013523,0.002678,0.000431,0.000705
11727000,0.0324,0.013523,0.002678,0.000431,0.000940
11728000,0.0324,0.013523,0.002678,0.000431,0.000823
11729000,0.0324,0.013523,0.002678,0.000431,0.000823
11730000,0.0324,0.013523,0.002678,0.000431,0.000823
11731000,0.0324,0.013523,0.002678,0.000431,0.000823
11732000,0.0324,0.013523,0.002678,0.000431,0.000823
11733000,0.0324,0.013523,0.002678,0.000431,0.000823
11734000,0.0324,0.013523,0.002678,0.000431,0.000940
11735000,0.0324,0.013523,0.002678,0.000431,0.000940
11736000,0.0324,0.013523,0.002678,0.000431,0.000705
11737000,0.0324,0.013523,0.002678,0.000431,0.238582
11738000,0.0324,0.013523,0.002678,0.000431,0.735609
11739000,0.0324,0.013523,0.002678,0.000431,0.437205
11740000,0.0324,0.013523,0.002678,0.000431,0.132102
11741000,0.0324,0.013523,0.002678,0.000431,0.143384
11742000,0.0324,0.013523,0.002678,0.000431,0.617493
11743000,0.0324,0.013523,0.002678,0.000431,0.256211
11744000,0.0324,0.013523,0.002678,0.000431,0.302165
11745000,0.0324,0.013523,0.002678,0.000431,0.229650
11746000,0.0324,0.013523,0.002678,0.000431,0.143149
11747000,0.0324,0.013523,0.002678,0.000431,0.139859
11748000,0.0324,0.013523,0.002678,0.000431,0.235056
11749000,0.0324,0.013523,0.002678,0.000431,0.475637
11750000,0.0324,0.013523,0.002678,0.000431,0.166420
11751000,0.0324,0.013523,0.002678,0.000431,0.126695
11752000,0.0324,0.013523,0.002678,0.000431,0.101779
11753000,0.0324,0.013523,0.002678,0.000431,0.083445
11754000,0.0324,0.013523,0.002678,0.000431,0.064758
11755000,0.0324,0.013523,0.002678,0.000431,0.050067
11756000,0.0324,0.013523,0.002678,0.000431,0.040547
11757000,0.0324,0.013523,0.002678,0.000431,0.026561
11758000,0.0324,0.013523,0.002678,0.000431,0.024916
11759000,0.0324,0.013523,0.002678,0.000431,0.019862
11760000,0.0324,0.013523,0.002678,0.000431,0.025974
11761000,0.0324,0.013523,0.002678,0.000431,0.018334
11762000,0.0324,0.013523,0.002678,0.000431,0.012693
11763000,0.0324,0.013523,0.002678,0.000431,0.015866
11764000,0.0324,0.013523,0.002678,0.000431,0.010930
11765000,0.0324,0.013523,0.002678,0.000431,0.007639
11766000,0.0324,0.013523,0.002678,0.000431,0.008109
11767000,0.0324,0.013523,0.002678,0.000431,0.007169
11768000,0.0324,0.013523,0.002678,0.000431,0.008109
11769000,0.0324,0.013523,0.002678,0.000431,0.010107
11770000,0.0324,0.013523,0.002678,0.000431,0.007169
11771000,0.0324,0.013523,0.002678,0.000431,0.009755
11772000,0.0324,0.013523,0.002678,0.000431,0.006464
11773000,0.0324,0.013523,0.002678,0.000431,0.009285
11774000,0.0324,0.013523,0.002678,0.000431,0.001645
11775000,0.0324,0.013523,0.002678,0.000431,0.001880
11776000,0.0324,0.013523,0.002678,0.000431,0.004113
11777000,0.0324,0.013523,0.002678,0.000431,0.000823
11778000,0.0324,0.013523,0.002678,0.000431,0.000823
11779000,0.0324,0.013523,0.002678,0.000431,0.000940
11780000,0.0324,0.013523,0.002678,0.000431,0.000940
11781000,0.0324,0.013523,0.002678,0.000431,0.000705
11782000,0.0324,0.013523,0.002678,0.000431,0.000940
11783000,0.0324,0.013523,0.002678,0.000431,0.000940
11784000,0.0324,0.013523,0.002678,0.000431,0.000940
11785000,0.0324,0.013523,0.002678,0.000431,0.000705
11786000,0.0324,0.013523,0.002678,0.000431,0.000940
11787000,0.0324,0.013523,0.002678,0.000431,0.000940
11788000,0.0324,0.013523,0.002678,0.000431,0.000823
11789000,0.0324,0.013523,0.002678,0.000431,0.000823
11790000,0.0324,0.013523,0.002678,0.000431,0.000940
11791000,0.0324,0.013523,0.002678,0.000431,0.000940
11792000,0.0324,0.013523,0.002678,0.000431,0.000823
11793000,0.0324,0.013523,0.002678,0.000431,0.000823
11794000,0.0324,0.013523,0.002678,0.000431,0.000940
11795000,0.0324,0.013523,0.002678,0.000431,0.000823
11796000,0.0324,0.013523,0.002678,0.000431,0.000823
11797000,0.0324,0.013523,0.002678,0.000431,0.003996
11798000,0.0324,0.013523,0.002678,0.000431,0.510777
11799000,0.0324,0.013523,0.002678,0.000431,0.762053
11800000,0.0324,0.013523,0.002678,0.000431,0.142327
11801000,0.0324,0.013523,0.002678,0.000431,0.132924
11802000,0.0324,0.013523,0.002678,0.000431,0.277014
11803000,0.0324,0.013523,0.002678,0.000431,0.533813
11804000,0.0324,0.013523,0.002678,0.000431,0.227064
11805000,0.0324,0.013523,0.002678,0.000431,0.324848
11806000,0.0324,0.013523,0.002678,0.000431,0.150906
11807000,0.0324,0.013523,0.002678,0.000431,0.138213
11808000,0.0324,0.013523,0.002678,0.000431,0.121524
11809000,0.0324,0.013523,0.002678,0.000431,0.338481
11810000,0.0324,0.013523,0.002678,0.000431,0.357286
11811000,0.0324,0.013523,0.002678,0.000431,0.127283
11812000,0.0324,0.013523,0.002678,0.000431,0.087323
11813000,0.0324,0.013523,0.002678,0.000431,0.064876
11814000,0.0324,0.013523,0.002678,0.000431,0.048539
11815000,0.0324,0.013523,0.002678,0.000431,0.041370
11816000,0.0324,0.013523,0.002678,0.000431,0.032203
11817000,0.0324,0.013523,0.002678,0.000431,0.023506
11818000,0.0324,0.013523,0.002678,0.000431,0.022095
11819000,0.0324,0.013523,0.002678,0.000431,0.021978
11820000,0.0324,0.013523,0.002678,0.000431,0.011753
11821000,0.0324,0.013523,0.002678,0.000431,0.007757
11822000,0.0324,0.013523,0.002678,0.000431,0.007639
11823000,0.0324,0.013523,0.002678,0.000431,0.006817
11824000,0.0324,0.013523,0.002678,0.000431,0.006934
11825000,0.0324,0.013523,0.002678,0.000431,0.002586
11826000,0.0324,0.013523,0.002678,0.000431,0.004231
11827000,0.0324,0.013523,0.002678,0.000431,0.001763
11828000,0.0324,0.013523,0.002678,0.000431,0.001763
11829000,0.0324,0.013523,0.002678,0.000431,0.001645
11830000,0.0324,0.013523,0.002678,0.000431,0.001880
11831000,0.0324,0.013523,0.002678,0.000431,0.002468
11832000,0.0324,0.013523,0.002678,0.000431,0.001880
11833000,0.0324,0.013523,0.002678,0.000431,0.000940
11834000,0.0324,0.013523,0.002678,0.000431,0.000940
11835000,0.0324,0.013523,0.002678,0.000431,0.000823
11836000,0.0324,0.013523,0.002678,0.000431,0.000823
11837000,0.0324,0.013523,0.002678,0.000431,0.000940
11838000,0.0324,0.013523,0.002678,0.000431,0.000940
11839000,0.0324,0.013523,0.002678,0.000431,0.021038
11840000,0.0324,0.013523,0.002678,0.000431,0.620314
11841000,0.0324,0.013523,0.002678,0.000431,0.612087
11842000,0.0324,0.013523,0.002678,0.000431,0.131632
11843000,0.0324,0.013523,0.002678,0.000431,0.134452
11844000,0.0324,0.013523,0.002678,0.000431,0.496322
11845000,0.0324,0.013523,0.002678,0.000431,0.256799
11846000,0.0324,0.013523,0.002678,0.000431,0.253391
11847000,0.0324,0.013523,0.002678,0.000431,0.300872
11848000,0.0324,0.013523,0.002678,0.000431,0.168535
11849000,0.0324,0.013523,0.002678,0.000431,0.145030
11850000,0.0324,0.013523,0.002678,0.000431,0.147263
11851000,0.0324,0.013523,0.002678,0.000431,0.223539
11852000,0.0324,0.013523,0.002678,0.000431,0.481748
11853000,0.0324,0.013523,0.002678,0.000431,0.164304
11854000,0.0324,0.013523,0.002678,0.000431,0.142797
11855000,0.0324,0.013523,0.002678,0.000431,0.093787
11856000,0.0324,0.013523,0.002678,0.000431,0.077098
11857000,0.0324,0.013523,0.002678,0.000431,0.072632
11858000,0.0324,0.013523,0.002678,0.000431,0.049009
11859000,0.0324,0.013523,0.002678,0.000431,0.038902
11860000,0.0324,0.013523,0.002678,0.000431,0.034671
11861000,0.0324,0.013523,0.002678,0.000431,0.029500
11862000,0.0324,0.013523,0.002678,0.000431,0.026091
11863000,0.0324,0.013523,0.002678,0.000431,0.023388
11864000,0.0324,0.013523,0.002678,0.000431,0.020450
11865000,0.0324,0.013523,0.002678,0.000431,0.011518
11866000,0.0324,0.013523,0.002678,0.000431,0.006699
11867000,0.0324,0.013523,0.002678,0.000431,0.003408
11868000,0.0324,0.013523,0.002678,0.000431,0.008462
11869000,0.0324,0.013523,0.002678,0.000431,0.001645
11870000,0.0324,0.013523,0.002678,0.000431,0.001645
11871000,0.0324,0.013523,0.002678,0.000431,0.001763
11872000,0.0324,0.013523,0.002678,0.000431,0.001763
11873000,0.0324,0.013523,0.002678,0.000431,0.004113
11874000,0.0324,0.013523,0.002678,0.000431,0.000940
11875000,0.0324,0.013523,0.002678,0.000431,0.001645
11876000,0.0324,0.013523,0.002678,0.000431,0.291705
11877000,0.0324,0.013523,0.002678,0.000431,0.780740
11878000,0.0324,0.013523,0.002678,0.000431,0.311332
11879000,0.0324,0.013523,0.002678,0.000431,0.133042
11880000,0.0324,0.013523,0.002678,0.000431,0.133042
11881000,0.0324,0.013523,0.002678,0.000431,0.578004
11882000,0.0324,0.013523,0.002678,0.000431,0.235409
11883000,0.0324,0.013523,0.002678,0.000431,0.272665
11884000,0.0324,0.013523,0.002678,0.000431,0.224009
11885000,0.0324,0.013523,0.002678,0.000431,0.146910
11886000,0.0324,0.013523,0.002678,0.000431,0.186987
11887000,0.0324,0.013523,0.002678,0.000431,0.092377
11888000,0.0324,0.013523,0.002678,0.000431,0.539219
11889000,0.0324,0.013523,0.002678,0.000431,0.224949
11890000,0.0324,0.013523,0.002678,0.000431,0.154079
11891000,0.0324,0.013523,0.002678,0.000431,0.115530
11892000,0.0324,0.013523,0.002678,0.000431,0.092142
11893000,0.0324,0.013523,0.002678,0.000431,0.072867
11894000,0.0324,0.013523,0.002678,0.000431,0.045013
11895000,0.0324,0.013523,0.002678,0.000431,0.039842
11896000,0.0324,0.013523,0.002678,0.000431,0.034906
11897000,0.0324,0.013523,0.002678,0.000431,0.017629
11898000,0.0324,0.013523,0.002678,0.000431,0.018922
11899000,0.0324,0.013523,0.002678,0.000431,0.021743
11900000,0.0324,0.013523,0.002678,0.000431,0.012576
11901000,0.0324,0.013523,0.002678,0.000431,0.014691
11902000,0.0324,0.013523,0.002678,0.000431,0.008580
11903000,0.0324,0.013523,0.002678,0.000431,0.013046
11904000,0.0324,0.013523,0.002678,0.000431,0.010107
11905000,0.0324,0.013523,0.002678,0.000431,0.003291
11906000,0.0324,0.013523,0.002678,0.000431,0.003526
11907000,0.0324,0.013523,0.002678,0.000431,0.004113
11908000,0.0324,0.013523,0.002678,0.000431,0.003173
11909000,0.0324,0.013523,0.002678,0.000431,0.001528
11910000,0.0324,0.013523,0.002678,0.000431,0.001763
11911000,0.0324,0.013523,0.002678,0.000431,0.001528
11912000,0.0324,0.013523,0.002678,0.000431,0.001763
11913000,0.0324,0.013523,0.002678,0.000431,0.003643
11914000,0.0324,0.013523,0.002678,0.000431,0.000705
11915000,0.0324,0.013523,0.002678,0.000431,0.000940
11916000,0.0324,0.013523,0.002678,0.000431,0.000705
11917000,0.0324,0.013523,0.002678,0.000431,0.000940
11918000,0.0324,0.013523,0.002678,0.000431,0.000823
11919000,0.0324,0.013523,0.002678,0.000431,0.000823
11920000,0.0324,0.013523,0.002678,0.000431,0.000823
11921000,0.0324,0.013523,0.002678,0.000431,0.000823
11922000,0.0324,0.013523,0.002678,0.000431,0.000823
11923000,0.0324,0.013523,0.002678,0.000431,0.000823
11924000,0.0324,0.013523,0.002678,0.000431,0.000940
11925000,0.0324,0.013523,0.002678,0.000431,0.000705
11926000,0.0324,0.013523,0.002678,0.000431,0.000823
11927000,0.0324,0.013523,0.002678,0.000431,0.000940
11928000,0.0324,0.013523,0.002678,0.000431,0.000823
11929000,0.0324,0.013523,0.002678,0.000431,0.000823
11930000,0.0324,0.013523,0.002678,0.000431,0.000823
11931000,0.0324,0.013523,0.002678,0.000431,0.000940
11932000,0.0324,0.013523,0.002678,0.000431,0.000823
11933000,0.0324,0.013523,0.002678,0.000431,0.002468
11934000,0.0324,0.013523,0.002678,0.000431,0.396893
11935000,0.0324,0.013523,0.002678,0.000431,0.792140
11936000,0.0324,0.013523,0.002678,0.000431,0.220013
11937000,0.0324,0.013523,0.002678,0.000431,0.134452
11938000,0.0324,0.013523,0.002678,0.000431,0.133982
11939000,0.0324,0.013523,0.002678,0.000431,0.579296
11940000,0.0324,0.013523,0.002678,0.000431,0.237995
11941000,0.0324,0.013523,0.002678,0.000431,0.277014
11942000,0.0324,0.013523,0.002678,0.000431,0.233528
11943000,0.0324,0.013523,0.002678,0.000431,0.145852
11944000,0.0324,0.013523,0.002678,0.000431,0.175705
11945000,0.0324,0.013523,0.002678,0.000431,0.140564
11946000,0.0324,0.013523,0.002678,0.000431,0.535106
11947000,0.0324,0.013523,0.002678,0.000431,0.214254
11948000,0.0324,0.013523,0.002678,0.000431,0.137390
11949000,0.0324,0.013523,0.002678,0.000431,0.108949
11950000,0.0324,0.013523,0.002678,0.000431,0.086266
11951000,0.0324,0.013523,0.002678,0.000431,0.069342
11952000,0.0324,0.013523,0.002678,0.000431,0.056296
11953000,0.0324,0.013523,0.002678,0.000431,0.039372
11954000,0.0324,0.013523,0.002678,0.000431,0.028324
11955000,0.0324,0.013523,0.002678,0.000431,0.025269
11956000,0.0324,0.013523,0.002678,0.000431,0.024563
11957000,0.0324,0.013523,0.002678,0.000431,0.018569
11958000,0.0324,0.013523,0.002678,0.000431,0.021390
11959000,0.0324,0.013523,0.002678,0.000431,0.010578
11960000,0.0324,0.013523,0.002678,0.000431,0.009285
11961000,0.0324,0.013523,0.002678,0.000431,0.008109
11962000,0.0324,0.013523,0.002678,0.000431,0.007757
11963000,0.0324,0.013523,0.002678,0.000431,0.005994
11964000,0.0324,0.013523,0.002678,0.000431,0.009637
11965000,0.0324,0.013523,0.002678,0.000431,0.003643
11966000,0.0324,0.013523,0.002678,0.000431,0.003291
11967000,0.0324,0.013523,0.002678,0.000431,0.005876
11968000,0.0324,0.013523,0.002678,0.000431,0.004584
11969000,0.0324,0.013523,0.002678,0.000431,0.001645
11970000,0.0324,0.013523,0.002678,0.000431,0.001763
11971000,0.0324,0.013523,0.002678,0.000431,0.001528
11972000,0.0324,0.013523,0.002678,0.000431,0.001763
11973000,0.0324,0.013523,0.002678,0.000431,0.001645
11974000,0.0324,0.013523,0.002678,0.000431,0.001763
11975000,0.0324,0.013523,0.002678,0.000431,0.001528
11976000,0.0324,0.013523,0.002678,0.000431,0.001763
11977000,0.0324,0.013523,0.002678,0.000431,0.003878
11978000,0.0324,0.013523,0.002678,0.000431,0.000823
11979000,0.0324,0.013523,0.002678,0.000431,0.000940
11980000,0.0324,0.013523,0.002678,0.000431,0.000823
11981000,0.0324,0.013523,0.002678,0.000431,0.000823
11982000,0.0324,0.013523,0.002678,0.000431,0.000823
11983000,0.0324,0.013523,0.002678,0.000431,0.000823
11984000,0.0324,0.013523,0.002678,0.000431,0.000823
11985000,0.0324,0.013523,0.002678,0.000431,0.000940
11986000,0.0324,0.013523,0.002678,0.000431,0.000940
11987000,0.0324,0.013523,0.002678,0.000431,0.000823
11988000,0.0324,0.013523,0.002678,0.000431,0.000823
11989000,0.0324,0.013523,0.002678,0.000431,0.000940
11990000,0.0324,0.013523,0.002678,0.000431,0.000823
11991000,0.0324,0.013523,0.002678,0.000431,0.000940
11992000,0.0324,0.013523,0.002678,0.000431,0.000823
11993000,0.0324,0.013523,0.002678,0.000431,0.000940
11994000,0.0324,0.013523,0.002678,0.000431,0.000823
11995000,0.0324,0.013523,0.002678,0.000431,0.000823
11996000,0.0324,0.013523,0.002678,0.000431,0.000940
11997000,0.0324,0.013523,0.002678,0.000431,0.070282
11998000,0.0324,0.013523,0.002678,0.000431,0.689068
11999000,0.0324,0.013523,0.002678,0.000431,0.614437
