Cycle,Area(mm^2),PeakDynamic(W),SubthresholdLeakage(W),GateLeakage(W),RunTimeDynamic(W)
1000,0.0324,0.013523,0.002678,0.000431,0.000000
2000,0.0324,0.013523,0.002678,0.000431,0.000000
3000,0.0324,0.013523,0.002678,0.000431,0.000000
4000,0.0324,0.013523,0.002678,0.000431,0.000000
5000,0.0324,0.013523,0.002678,0.000431,0.000000
6000,0.0324,0.013523,0.002678,0.000431,0.616435
7000,0.0324,0.013523,0.002678,0.000431,0.939873
8000,0.0324,0.013523,0.002678,0.000431,0.347648
9000,0.0324,0.013523,0.002678,0.000431,1.021790
10000,0.0324,0.013523,0.002678,0.000431,1.302212
11000,0.0324,0.013523,0.002678,0.000431,1.373787
12000,0.0324,0.013523,0.002678,0.000431,1.391886
13000,0.0324,0.013523,0.002678,0.000431,1.502363
14000,0.0324,0.013523,0.002678,0.000431,1.446537
15000,0.0324,0.013523,0.002678,0.000431,1.548199
16000,0.0324,0.013523,0.002678,0.000431,1.574525
17000,0.0324,0.013523,0.002678,0.000431,1.452766
18000,0.0324,0.013523,0.002678,0.000431,1.390006
19000,0.0324,0.013523,0.002678,0.000431,1.361799
20000,0.0324,0.013523,0.002678,0.000431,1.388713
21000,0.0324,0.013523,0.002678,0.000431,1.333945
22000,0.0324,0.013523,0.002678,0.000431,1.333945
23000,0.0324,0.013523,0.002678,0.000431,1.247092
24000,0.0324,0.013523,0.002678,0.000431,1.305150
25000,0.0324,0.013523,0.002678,0.000431,1.220178
26000,0.0324,0.013523,0.002678,0.000431,1.200903
27000,0.0324,0.013523,0.002678,0.000431,1.152834
28000,0.0324,0.013523,0.002678,0.000431,1.001575
29000,0.0324,0.013523,0.002678,0.000431,0.936582
30000,0.0324,0.013523,0.002678,0.000431,0.945397
31000,0.0324,0.013523,0.002678,0.000431,0.833510
32000,0.0324,0.013523,0.002678,0.000431,0.873822
33000,0.0324,0.013523,0.002678,0.000431,0.802365
34000,0.0324,0.013523,0.002678,0.000431,0.746069
35000,0.0324,0.013523,0.002678,0.000431,0.785206
36000,0.0324,0.013523,0.002678,0.000431,0.682134
37000,0.0324,0.013523,0.002678,0.000431,0.587993
38000,0.0324,0.013523,0.002678,0.000431,0.508662
39000,0.0324,0.013523,0.002678,0.000431,0.465059
40000,0.0324,0.013523,0.002678,0.000431,0.461181
41000,0.0324,0.013523,0.002678,0.000431,0.435795
42000,0.0324,0.013523,0.002678,0.000431,0.413934
43000,0.0324,0.013523,0.002678,0.000431,0.410056
44000,0.0324,0.013523,0.002678,0.000431,0.385375
45000,0.0324,0.013523,0.002678,0.000431,0.353760
46000,0.0324,0.013523,0.002678,0.000431,0.347413
47000,0.0324,0.013523,0.002678,0.000431,0.339304
48000,0.0324,0.013523,0.002678,0.000431,0.298404
49000,0.0324,0.013523,0.002678,0.000431,0.313565
50000,0.0324,0.013523,0.002678,0.000431,0.292528
51000,0.0324,0.013523,0.002678,0.000431,0.257152
52000,0.0324,0.013523,0.002678,0.000431,0.242108
53000,0.0324,0.013523,0.002678,0.000431,0.237172
54000,0.0324,0.013523,0.002678,0.000431,0.225302
55000,0.0324,0.013523,0.002678,0.000431,0.182756
56000,0.0324,0.013523,0.002678,0.000431,0.182874
57000,0.0324,0.013523,0.002678,0.000431,0.211786
58000,0.0324,0.013523,0.002678,0.000431,0.216604
59000,0.0324,0.013523,0.002678,0.000431,0.169241
60000,0.0324,0.013523,0.002678,0.000431,0.194392
61000,0.0324,0.013523,0.002678,0.000431,0.185107
62000,0.0324,0.013523,0.002678,0.000431,0.186870
63000,0.0324,0.013523,0.002678,0.000431,0.158663
64000,0.0324,0.013523,0.002678,0.000431,0.155137
65000,0.0324,0.013523,0.002678,0.000431,0.168770
66000,0.0324,0.013523,0.002678,0.000431,0.153727
67000,0.0324,0.013523,0.002678,0.000431,0.156900
68000,0.0324,0.013523,0.002678,0.000431,0.156312
69000,0.0324,0.013523,0.002678,0.000431,0.146675
70000,0.0324,0.013523,0.002678,0.000431,0.144677
71000,0.0324,0.013523,0.002678,0.000431,0.145617
72000,0.0324,0.013523,0.002678,0.000431,0.141151
73000,0.0324,0.013523,0.002678,0.000431,0.144207
74000,0.0324,0.013523,0.002678,0.000431,0.140916
75000,0.0324,0.013523,0.002678,0.000431,0.135275
76000,0.0324,0.013523,0.002678,0.000431,0.137508
77000,0.0324,0.013523,0.002678,0.000431,0.136098
78000,0.0324,0.013523,0.002678,0.000431,0.135392
79000,0.0324,0.013523,0.002678,0.000431,0.145735
80000,0.0324,0.013523,0.002678,0.000431,0.125873
81000,0.0324,0.013523,0.002678,0.000431,0.128928
82000,0.0324,0.013523,0.002678,0.000431,0.122229
83000,0.0324,0.013523,0.002678,0.000431,0.138448
84000,0.0324,0.013523,0.002678,0.000431,0.132219
85000,0.0324,0.013523,0.002678,0.000431,0.121407
86000,0.0324,0.013523,0.002678,0.000431,0.115883
87000,0.0324,0.013523,0.002678,0.000431,0.120466
88000,0.0324,0.013523,0.002678,0.000431,0.125285
89000,0.0324,0.013523,0.002678,0.000431,0.123405
90000,0.0324,0.013523,0.002678,0.000431,0.116118
91000,0.0324,0.013523,0.002678,0.000431,0.107773
92000,0.0324,0.013523,0.002678,0.000431,0.119879
93000,0.0324,0.013523,0.002678,0.000431,0.115413
94000,0.0324,0.013523,0.002678,0.000431,0.110476
95000,0.0324,0.013523,0.002678,0.000431,0.114237
96000,0.0324,0.013523,0.002678,0.000431,0.106716
97000,0.0324,0.013523,0.002678,0.000431,0.106833
98000,0.0324,0.013523,0.002678,0.000431,0.111417
99000,0.0324,0.013523,0.002678,0.000431,0.113415
100000,0.0324,0.013523,0.002678,0.000431,0.103425
101000,0.0324,0.013523,0.002678,0.000431,0.107656
102000,0.0324,0.013523,0.002678,0.000431,0.102602
103000,0.0324,0.013523,0.002678,0.000431,0.103660
104000,0.0324,0.013523,0.002678,0.000431,0.107656
105000,0.0324,0.013523,0.002678,0.000431,0.099546
106000,0.0324,0.013523,0.002678,0.000431,0.102485
107000,0.0324,0.013523,0.002678,0.000431,0.096256
108000,0.0324,0.013523,0.002678,0.000431,0.099194
109000,0.0324,0.013523,0.002678,0.000431,0.100839
110000,0.0324,0.013523,0.002678,0.000431,0.097196
111000,0.0324,0.013523,0.002678,0.000431,0.095198
112000,0.0324,0.013523,0.002678,0.000431,0.092025
113000,0.0324,0.013523,0.002678,0.000431,0.091437
114000,0.0324,0.013523,0.002678,0.000431,0.094963
115000,0.0324,0.013523,0.002678,0.000431,0.097666
116000,0.0324,0.013523,0.002678,0.000431,0.086853
117000,0.0324,0.013523,0.002678,0.000431,0.089439
118000,0.0324,0.013523,0.002678,0.000431,0.087088
119000,0.0324,0.013523,0.002678,0.000431,0.094845
120000,0.0324,0.013523,0.002678,0.000431,0.092847
121000,0.0324,0.013523,0.002678,0.000431,0.076863
122000,0.0324,0.013523,0.002678,0.000431,0.089556
123000,0.0324,0.013523,0.002678,0.000431,0.089909
124000,0.0324,0.013523,0.002678,0.000431,0.086853
125000,0.0324,0.013523,0.002678,0.000431,0.083563
126000,0.0324,0.013523,0.002678,0.000431,0.085443
127000,0.0324,0.013523,0.002678,0.000431,0.077569
128000,0.0324,0.013523,0.002678,0.000431,0.085090
129000,0.0324,0.013523,0.002678,0.000431,0.084385
130000,0.0324,0.013523,0.002678,0.000431,0.082975
131000,0.0324,0.013523,0.002678,0.000431,0.079332
132000,0.0324,0.013523,0.002678,0.000431,0.078039
133000,0.0324,0.013523,0.002678,0.000431,0.077569
134000,0.0324,0.013523,0.002678,0.000431,0.079919
135000,0.0324,0.013523,0.002678,0.000431,0.075571
136000,0.0324,0.013523,0.002678,0.000431,0.077334
137000,0.0324,0.013523,0.002678,0.000431,0.075688
138000,0.0324,0.013523,0.002678,0.000431,0.076276
139000,0.0324,0.013523,0.002678,0.000431,0.072750
140000,0.0324,0.013523,0.002678,0.000431,0.074513
141000,0.0324,0.013523,0.002678,0.000431,0.077921
142000,0.0324,0.013523,0.002678,0.000431,0.074630
143000,0.0324,0.013523,0.002678,0.000431,0.074513
144000,0.0324,0.013523,0.002678,0.000431,0.068636
145000,0.0324,0.013523,0.002678,0.000431,0.074865
146000,0.0324,0.013523,0.002678,0.000431,0.071692
147000,0.0324,0.013523,0.002678,0.000431,0.071457
148000,0.0324,0.013523,0.002678,0.000431,0.073573
149000,0.0324,0.013523,0.002678,0.000431,0.067109
150000,0.0324,0.013523,0.002678,0.000431,0.067226
151000,0.0324,0.013523,0.002678,0.000431,0.072867
152000,0.0324,0.013523,0.002678,0.000431,0.073690
153000,0.0324,0.013523,0.002678,0.000431,0.068401
154000,0.0324,0.013523,0.002678,0.000431,0.068401
155000,0.0324,0.013523,0.002678,0.000431,0.064405
156000,0.0324,0.013523,0.002678,0.000431,0.071575
157000,0.0324,0.013523,0.002678,0.000431,0.069107
158000,0.0324,0.013523,0.002678,0.000431,0.066286
159000,0.0324,0.013523,0.002678,0.000431,0.065346
160000,0.0324,0.013523,0.002678,0.000431,0.065228
161000,0.0324,0.013523,0.002678,0.000431,0.066874
162000,0.0324,0.013523,0.002678,0.000431,0.069459
163000,0.0324,0.013523,0.002678,0.000431,0.064641
164000,0.0324,0.013523,0.002678,0.000431,0.062172
165000,0.0324,0.013523,0.002678,0.000431,0.065111
166000,0.0324,0.013523,0.002678,0.000431,0.064405
167000,0.0324,0.013523,0.002678,0.000431,0.065346
168000,0.0324,0.013523,0.002678,0.000431,0.065111
169000,0.0324,0.013523,0.002678,0.000431,0.059822
170000,0.0324,0.013523,0.002678,0.000431,0.062525
171000,0.0324,0.013523,0.002678,0.000431,0.064641
172000,0.0324,0.013523,0.002678,0.000431,0.061702
173000,0.0324,0.013523,0.002678,0.000431,0.060527
174000,0.0324,0.013523,0.002678,0.000431,0.059352
175000,0.0324,0.013523,0.002678,0.000431,0.062407
176000,0.0324,0.013523,0.002678,0.000431,0.064405
177000,0.0324,0.013523,0.002678,0.000431,0.058059
178000,0.0324,0.013523,0.002678,0.000431,0.060292
179000,0.0324,0.013523,0.002678,0.000431,0.057589
180000,0.0324,0.013523,0.002678,0.000431,0.061585
181000,0.0324,0.013523,0.002678,0.000431,0.063230
182000,0.0324,0.013523,0.002678,0.000431,0.056414
183000,0.0324,0.013523,0.002678,0.000431,0.052653
184000,0.0324,0.013523,0.002678,0.000431,0.060527
185000,0.0324,0.013523,0.002678,0.000431,0.057119
186000,0.0324,0.013523,0.002678,0.000431,0.057706
187000,0.0324,0.013523,0.002678,0.000431,0.054886
188000,0.0324,0.013523,0.002678,0.000431,0.056061
189000,0.0324,0.013523,0.002678,0.000431,0.054180
190000,0.0324,0.013523,0.002678,0.000431,0.057354
191000,0.0324,0.013523,0.002678,0.000431,0.057471
192000,0.0324,0.013523,0.002678,0.000431,0.053593
193000,0.0324,0.013523,0.002678,0.000431,0.053710
194000,0.0324,0.013523,0.002678,0.000431,0.057354
195000,0.0324,0.013523,0.002678,0.000431,0.053123
196000,0.0324,0.013523,0.002678,0.000431,0.052418
197000,0.0324,0.013523,0.002678,0.000431,0.054768
198000,0.0324,0.013523,0.002678,0.000431,0.053710
199000,0.0324,0.013523,0.002678,0.000431,0.051360
200000,0.0324,0.013523,0.002678,0.000431,0.053123
201000,0.0324,0.013523,0.002678,0.000431,0.053593
202000,0.0324,0.013523,0.002678,0.000431,0.047481
203000,0.0324,0.013523,0.002678,0.000431,0.052418
204000,0.0324,0.013523,0.002678,0.000431,0.055121
205000,0.0324,0.013523,0.002678,0.000431,0.049479
206000,0.0324,0.013523,0.002678,0.000431,0.050185
207000,0.0324,0.013523,0.002678,0.000431,0.048304
208000,0.0324,0.013523,0.002678,0.000431,0.048304
209000,0.0324,0.013523,0.002678,0.000431,0.051595
210000,0.0324,0.013523,0.002678,0.000431,0.048304
211000,0.0324,0.013523,0.002678,0.000431,0.051007
212000,0.0324,0.013523,0.002678,0.000431,0.046189
213000,0.0324,0.013523,0.002678,0.000431,0.047246
214000,0.0324,0.013523,0.002678,0.000431,0.047951
215000,0.0324,0.013523,0.002678,0.000431,0.048422
216000,0.0324,0.013523,0.002678,0.000431,0.044896
217000,0.0324,0.013523,0.002678,0.000431,0.043956
218000,0.0324,0.013523,0.002678,0.000431,0.043720
219000,0.0324,0.013523,0.002678,0.000431,0.047011
220000,0.0324,0.013523,0.002678,0.000431,0.042075
221000,0.0324,0.013523,0.002678,0.000431,0.046424
222000,0.0324,0.013523,0.002678,0.000431,0.039842
223000,0.0324,0.013523,0.002678,0.000431,0.042663
224000,0.0324,0.013523,0.002678,0.000431,0.042663
225000,0.0324,0.013523,0.002678,0.000431,0.047011
226000,0.0324,0.013523,0.002678,0.000431,0.040195
227000,0.0324,0.013523,0.002678,0.000431,0.041370
228000,0.0324,0.013523,0.002678,0.000431,0.042075
229000,0.0324,0.013523,0.002678,0.000431,0.041252
230000,0.0324,0.013523,0.002678,0.000431,0.041017
231000,0.0324,0.013523,0.002678,0.000431,0.040430
232000,0.0324,0.013523,0.002678,0.000431,0.038079
233000,0.0324,0.013523,0.002678,0.000431,0.040430
234000,0.0324,0.013523,0.002678,0.000431,0.041605
235000,0.0324,0.013523,0.002678,0.000431,0.037609
236000,0.0324,0.013523,0.002678,0.000431,0.039607
237000,0.0324,0.013523,0.002678,0.000431,0.040547
238000,0.0324,0.013523,0.002678,0.000431,0.040900
239000,0.0324,0.013523,0.002678,0.000431,0.036434
240000,0.0324,0.013523,0.002678,0.000431,0.038784
241000,0.0324,0.013523,0.002678,0.000431,0.038549
242000,0.0324,0.013523,0.002678,0.000431,0.039607
243000,0.0324,0.013523,0.002678,0.000431,0.037844
244000,0.0324,0.013523,0.002678,0.000431,0.037139
245000,0.0324,0.013523,0.002678,0.000431,0.033848
246000,0.0324,0.013523,0.002678,0.000431,0.037609
247000,0.0324,0.013523,0.002678,0.000431,0.039842
248000,0.0324,0.013523,0.002678,0.000431,0.037374
249000,0.0324,0.013523,0.002678,0.000431,0.034318
250000,0.0324,0.013523,0.002678,0.000431,0.037374
251000,0.0324,0.013523,0.002678,0.000431,0.037256
252000,0.0324,0.013523,0.002678,0.000431,0.037139
253000,0.0324,0.013523,0.002678,0.000431,0.036316
254000,0.0324,0.013523,0.002678,0.000431,0.036316
255000,0.0324,0.013523,0.002678,0.000431,0.036904
256000,0.0324,0.013523,0.002678,0.000431,0.034671
257000,0.0324,0.013523,0.002678,0.000431,0.037256
258000,0.0324,0.013523,0.002678,0.000431,0.035258
259000,0.0324,0.013523,0.002678,0.000431,0.036669
260000,0.0324,0.013523,0.002678,0.000431,0.033966
261000,0.0324,0.013523,0.002678,0.000431,0.035729
262000,0.0324,0.013523,0.002678,0.000431,0.032673
263000,0.0324,0.013523,0.002678,0.000431,0.036434
264000,0.0324,0.013523,0.002678,0.000431,0.036551
265000,0.0324,0.013523,0.002678,0.000431,0.033613
266000,0.0324,0.013523,0.002678,0.000431,0.031498
267000,0.0324,0.013523,0.002678,0.000431,0.036434
268000,0.0324,0.013523,0.002678,0.000431,0.032085
269000,0.0324,0.013523,0.002678,0.000431,0.035964
270000,0.0324,0.013523,0.002678,0.000431,0.031850
271000,0.0324,0.013523,0.002678,0.000431,0.037021
272000,0.0324,0.013523,0.002678,0.000431,0.031850
273000,0.0324,0.013523,0.002678,0.000431,0.031615
274000,0.0324,0.013523,0.002678,0.000431,0.032320
275000,0.0324,0.013523,0.002678,0.000431,0.035258
276000,0.0324,0.013523,0.002678,0.000431,0.034553
277000,0.0324,0.013523,0.002678,0.000431,0.031027
278000,0.0324,0.013523,0.002678,0.000431,0.032085
279000,0.0324,0.013523,0.002678,0.000431,0.029735
280000,0.0324,0.013523,0.002678,0.000431,0.034436
281000,0.0324,0.013523,0.002678,0.000431,0.033966
282000,0.0324,0.013523,0.002678,0.000431,0.030440
283000,0.0324,0.013523,0.002678,0.000431,0.029735
284000,0.0324,0.013523,0.002678,0.000431,0.033378
285000,0.0324,0.013523,0.002678,0.000431,0.031615
286000,0.0324,0.013523,0.002678,0.000431,0.030792
287000,0.0324,0.013523,0.002678,0.000431,0.029029
288000,0.0324,0.013523,0.002678,0.000431,0.030087
289000,0.0324,0.013523,0.002678,0.000431,0.029265
290000,0.0324,0.013523,0.002678,0.000431,0.029029
291000,0.0324,0.013523,0.002678,0.000431,0.029500
292000,0.0324,0.013523,0.002678,0.000431,0.032320
293000,0.0324,0.013523,0.002678,0.000431,0.029265
294000,0.0324,0.013523,0.002678,0.000431,0.028442
295000,0.0324,0.013523,0.002678,0.000431,0.028677
296000,0.0324,0.013523,0.002678,0.000431,0.029735
297000,0.0324,0.013523,0.002678,0.000431,0.029265
298000,0.0324,0.013523,0.002678,0.000431,0.028442
299000,0.0324,0.013523,0.002678,0.000431,0.027267
300000,0.0324,0.013523,0.002678,0.000431,0.027619
301000,0.0324,0.013523,0.002678,0.000431,0.028089
302000,0.0324,0.013523,0.002678,0.000431,0.029265
303000,0.0324,0.013523,0.002678,0.000431,0.028442
304000,0.0324,0.013523,0.002678,0.000431,0.027972
305000,0.0324,0.013523,0.002678,0.000431,0.027972
306000,0.0324,0.013523,0.002678,0.000431,0.026091
307000,0.0324,0.013523,0.002678,0.000431,0.026444
308000,0.0324,0.013523,0.002678,0.000431,0.027854
309000,0.0324,0.013523,0.002678,0.000431,0.025621
310000,0.0324,0.013523,0.002678,0.000431,0.027149
311000,0.0324,0.013523,0.002678,0.000431,0.024211
312000,0.0324,0.013523,0.002678,0.000431,0.026326
313000,0.0324,0.013523,0.002678,0.000431,0.027854
314000,0.0324,0.013523,0.002678,0.000431,0.025504
315000,0.0324,0.013523,0.002678,0.000431,0.025269
316000,0.0324,0.013523,0.002678,0.000431,0.025621
317000,0.0324,0.013523,0.002678,0.000431,0.022683
318000,0.0324,0.013523,0.002678,0.000431,0.027149
319000,0.0324,0.013523,0.002678,0.000431,0.025151
320000,0.0324,0.013523,0.002678,0.000431,0.026326
321000,0.0324,0.013523,0.002678,0.000431,0.024563
322000,0.0324,0.013523,0.002678,0.000431,0.024563
323000,0.0324,0.013523,0.002678,0.000431,0.026679
324000,0.0324,0.013523,0.002678,0.000431,0.022448
325000,0.0324,0.013523,0.002678,0.000431,0.025269
326000,0.0324,0.013523,0.002678,0.000431,0.025386
327000,0.0324,0.013523,0.002678,0.000431,0.023271
328000,0.0324,0.013523,0.002678,0.000431,0.023976
329000,0.0324,0.013523,0.002678,0.000431,0.022565
330000,0.0324,0.013523,0.002678,0.000431,0.024211
331000,0.0324,0.013523,0.002678,0.000431,0.022330
332000,0.0324,0.013523,0.002678,0.000431,0.023036
333000,0.0324,0.013523,0.002678,0.000431,0.022683
334000,0.0324,0.013523,0.002678,0.000431,0.023506
335000,0.0324,0.013523,0.002678,0.000431,0.022683
336000,0.0324,0.013523,0.002678,0.000431,0.021743
337000,0.0324,0.013523,0.002678,0.000431,0.024681
338000,0.0324,0.013523,0.002678,0.000431,0.020450
339000,0.0324,0.013523,0.002678,0.000431,0.022800
340000,0.0324,0.013523,0.002678,0.000431,0.023388
341000,0.0324,0.013523,0.002678,0.000431,0.023623
342000,0.0324,0.013523,0.002678,0.000431,0.022095
343000,0.0324,0.013523,0.002678,0.000431,0.019862
344000,0.0324,0.013523,0.002678,0.000431,0.022565
345000,0.0324,0.013523,0.002678,0.000431,0.022918
346000,0.0324,0.013523,0.002678,0.000431,0.020332
347000,0.0324,0.013523,0.002678,0.000431,0.020450
348000,0.0324,0.013523,0.002678,0.000431,0.021625
349000,0.0324,0.013523,0.002678,0.000431,0.019862
350000,0.0324,0.013523,0.002678,0.000431,0.020685
351000,0.0324,0.013523,0.002678,0.000431,0.020450
352000,0.0324,0.013523,0.002678,0.000431,0.021038
353000,0.0324,0.013523,0.002678,0.000431,0.021273
354000,0.0324,0.013523,0.002678,0.000431,0.020567
355000,0.0324,0.013523,0.002678,0.000431,0.018687
356000,0.0324,0.013523,0.002678,0.000431,0.019275
357000,0.0324,0.013523,0.002678,0.000431,0.018569
358000,0.0324,0.013523,0.002678,0.000431,0.020567
359000,0.0324,0.013523,0.002678,0.000431,0.018334
360000,0.0324,0.013523,0.002678,0.000431,0.018099
361000,0.0324,0.013523,0.002678,0.000431,0.018217
362000,0.0324,0.013523,0.002678,0.000431,0.019862
363000,0.0324,0.013523,0.002678,0.000431,0.018922
364000,0.0324,0.013523,0.002678,0.000431,0.017864
365000,0.0324,0.013523,0.002678,0.000431,0.019745
366000,0.0324,0.013523,0.002678,0.000431,0.017629
367000,0.0324,0.013523,0.002678,0.000431,0.018099
368000,0.0324,0.013523,0.002678,0.000431,0.016924
369000,0.0324,0.013523,0.002678,0.000431,0.019627
370000,0.0324,0.013523,0.002678,0.000431,0.017277
371000,0.0324,0.013523,0.002678,0.000431,0.017159
372000,0.0324,0.013523,0.002678,0.000431,0.017982
373000,0.0324,0.013523,0.002678,0.000431,0.019392
374000,0.0324,0.013523,0.002678,0.000431,0.017864
375000,0.0324,0.013523,0.002678,0.000431,0.018334
376000,0.0324,0.013523,0.002678,0.000431,0.015631
377000,0.0324,0.013523,0.002678,0.000431,0.016336
378000,0.0324,0.013523,0.002678,0.000431,0.016336
379000,0.0324,0.013523,0.002678,0.000431,0.017982
380000,0.0324,0.013523,0.002678,0.000431,0.017394
381000,0.0324,0.013523,0.002678,0.000431,0.015279
382000,0.0324,0.013523,0.002678,0.000431,0.017394
383000,0.0324,0.013523,0.002678,0.000431,0.015396
384000,0.0324,0.013523,0.002678,0.000431,0.014103
385000,0.0324,0.013523,0.002678,0.000431,0.016101
386000,0.0324,0.013523,0.002678,0.000431,0.015631
387000,0.0324,0.013523,0.002678,0.000431,0.013516
388000,0.0324,0.013523,0.002678,0.000431,0.013398
389000,0.0324,0.013523,0.002678,0.000431,0.015984
390000,0.0324,0.013523,0.002678,0.000431,0.016807
391000,0.0324,0.013523,0.002678,0.000431,0.011753
392000,0.0324,0.013523,0.002678,0.000431,0.014573
393000,0.0324,0.013523,0.002678,0.000431,0.014809
394000,0.0324,0.013523,0.002678,0.000431,0.015631
395000,0.0324,0.013523,0.002678,0.000431,0.013398
396000,0.0324,0.013523,0.002678,0.000431,0.016219
397000,0.0324,0.013523,0.002678,0.000431,0.012576
398000,0.0324,0.013523,0.002678,0.000431,0.015749
399000,0.0324,0.013523,0.002678,0.000431,0.014221
400000,0.0324,0.013523,0.002678,0.000431,0.015749
401000,0.0324,0.013523,0.002678,0.000431,0.011753
402000,0.0324,0.013523,0.002678,0.000431,0.014221
403000,0.0324,0.013523,0.002678,0.000431,0.014809
404000,0.0324,0.013523,0.002678,0.000431,0.013163
405000,0.0324,0.013523,0.002678,0.000431,0.012458
406000,0.0324,0.013523,0.002678,0.000431,0.015396
407000,0.0324,0.013523,0.002678,0.000431,0.013986
408000,0.0324,0.013523,0.002678,0.000431,0.010930
409000,0.0324,0.013523,0.002678,0.000431,0.012693
410000,0.0324,0.013523,0.002678,0.000431,0.014809
411000,0.0324,0.013523,0.002678,0.000431,0.011988
412000,0.0324,0.013523,0.002678,0.000431,0.011988
413000,0.0324,0.013523,0.002678,0.000431,0.012340
414000,0.0324,0.013523,0.002678,0.000431,0.013398
415000,0.0324,0.013523,0.002678,0.000431,0.012458
416000,0.0324,0.013523,0.002678,0.000431,0.011753
417000,0.0324,0.013523,0.002678,0.000431,0.011048
418000,0.0324,0.013523,0.002678,0.000431,0.010460
419000,0.0324,0.013523,0.002678,0.000431,0.011988
420000,0.0324,0.013523,0.002678,0.000431,0.010695
421000,0.0324,0.013523,0.002678,0.000431,0.011400
422000,0.0324,0.013523,0.002678,0.000431,0.009872
423000,0.0324,0.013523,0.002678,0.000431,0.011988
424000,0.0324,0.013523,0.002678,0.000431,0.010460
425000,0.0324,0.013523,0.002678,0.000431,0.009285
426000,0.0324,0.013523,0.002678,0.000431,0.011283
427000,0.0324,0.013523,0.002678,0.000431,0.009637
428000,0.0324,0.013523,0.002678,0.000431,0.008932
429000,0.0324,0.013523,0.002678,0.000431,0.008697
430000,0.0324,0.013523,0.002678,0.000431,0.010578
431000,0.0324,0.013523,0.002678,0.000431,0.009402
432000,0.0324,0.013523,0.002678,0.000431,0.008462
433000,0.0324,0.013523,0.002678,0.000431,0.008932
434000,0.0324,0.013523,0.002678,0.000431,0.011048
435000,0.0324,0.013523,0.002678,0.000431,0.009402
436000,0.0324,0.013523,0.002678,0.000431,0.008815
437000,0.0324,0.013523,0.002678,0.000431,0.009285
438000,0.0324,0.013523,0.002678,0.000431,0.008932
439000,0.0324,0.013523,0.002678,0.000431,0.009050
440000,0.0324,0.013523,0.002678,0.000431,0.008109
441000,0.0324,0.013523,0.002678,0.000431,0.008227
442000,0.0324,0.013523,0.002678,0.000431,0.008697
443000,0.0324,0.013523,0.002678,0.000431,0.009637
444000,0.0324,0.013523,0.002678,0.000431,0.008697
445000,0.0324,0.013523,0.002678,0.000431,0.007404
446000,0.0324,0.013523,0.002678,0.000431,0.009637
447000,0.0324,0.013523,0.002678,0.000431,0.008580
448000,0.0324,0.013523,0.002678,0.000431,0.008227
449000,0.0324,0.013523,0.002678,0.000431,0.007287
450000,0.0324,0.013523,0.002678,0.000431,0.009402
451000,0.0324,0.013523,0.002678,0.000431,0.009285
452000,0.0324,0.013523,0.002678,0.000431,0.007404
453000,0.0324,0.013523,0.002678,0.000431,0.008462
454000,0.0324,0.013523,0.002678,0.000431,0.009872
455000,0.0324,0.013523,0.002678,0.000431,0.007757
456000,0.0324,0.013523,0.002678,0.000431,0.007639
457000,0.0324,0.013523,0.002678,0.000431,0.008227
458000,0.0324,0.013523,0.002678,0.000431,0.007874
459000,0.0324,0.013523,0.002678,0.000431,0.008697
460000,0.0324,0.013523,0.002678,0.000431,0.007287
461000,0.0324,0.013523,0.002678,0.000431,0.008580
462000,0.0324,0.013523,0.002678,0.000431,0.008109
463000,0.0324,0.013523,0.002678,0.000431,0.007404
464000,0.0324,0.013523,0.002678,0.000431,0.007287
465000,0.0324,0.013523,0.002678,0.000431,0.008345
466000,0.0324,0.013523,0.002678,0.000431,0.007052
467000,0.0324,0.013523,0.002678,0.000431,0.008109
468000,0.0324,0.013523,0.002678,0.000431,0.007639
469000,0.0324,0.013523,0.002678,0.000431,0.005641
470000,0.0324,0.013523,0.002678,0.000431,0.008109
471000,0.0324,0.013523,0.002678,0.000431,0.007874
472000,0.0324,0.013523,0.002678,0.000431,0.006347
473000,0.0324,0.013523,0.002678,0.000431,0.005876
474000,0.0324,0.013523,0.002678,0.000431,0.007404
475000,0.0324,0.013523,0.002678,0.000431,0.007404
476000,0.0324,0.013523,0.002678,0.000431,0.006817
477000,0.0324,0.013523,0.002678,0.000431,0.005994
478000,0.0324,0.013523,0.002678,0.000431,0.008580
479000,0.0324,0.013523,0.002678,0.000431,0.006582
480000,0.0324,0.013523,0.002678,0.000431,0.005994
481000,0.0324,0.013523,0.002678,0.000431,0.007992
482000,0.0324,0.013523,0.002678,0.000431,0.008227
483000,0.0324,0.013523,0.002678,0.000431,0.004819
484000,0.0324,0.013523,0.002678,0.000431,0.007757
485000,0.0324,0.013523,0.002678,0.000431,0.007874
486000,0.0324,0.013523,0.002678,0.000431,0.005994
487000,0.0324,0.013523,0.002678,0.000431,0.006229
488000,0.0324,0.013523,0.002678,0.000431,0.006934
489000,0.0324,0.013523,0.002678,0.000431,0.005524
490000,0.0324,0.013523,0.002678,0.000431,0.006582
491000,0.0324,0.013523,0.002678,0.000431,0.005759
492000,0.0324,0.013523,0.002678,0.000431,0.006699
493000,0.0324,0.013523,0.002678,0.000431,0.005171
494000,0.0324,0.013523,0.002678,0.000431,0.006464
495000,0.0324,0.013523,0.002678,0.000431,0.006817
496000,0.0324,0.013523,0.002678,0.000431,0.005759
497000,0.0324,0.013523,0.002678,0.000431,0.006347
498000,0.0324,0.013523,0.002678,0.000431,0.007404
499000,0.0324,0.013523,0.002678,0.000431,0.004936
500000,0.0324,0.013523,0.002678,0.000431,0.005641
501000,0.0324,0.013523,0.002678,0.000431,0.005054
502000,0.0324,0.013523,0.002678,0.000431,0.006464
503000,0.0324,0.013523,0.002678,0.000431,0.004584
504000,0.0324,0.013523,0.002678,0.000431,0.005641
505000,0.0324,0.013523,0.002678,0.000431,0.005524
506000,0.0324,0.013523,0.002678,0.000431,0.005994
507000,0.0324,0.013523,0.002678,0.000431,0.004936
508000,0.0324,0.013523,0.002678,0.000431,0.005406
509000,0.0324,0.013523,0.002678,0.000431,0.006347
510000,0.0324,0.013523,0.002678,0.000431,0.004466
511000,0.0324,0.013523,0.002678,0.000431,0.005876
512000,0.0324,0.013523,0.002678,0.000431,0.005994
513000,0.0324,0.013523,0.002678,0.000431,0.004819
514000,0.0324,0.013523,0.002678,0.000431,0.005641
515000,0.0324,0.013523,0.002678,0.000431,0.005759
516000,0.0324,0.013523,0.002678,0.000431,0.004466
517000,0.0324,0.013523,0.002678,0.000431,0.006229
518000,0.0324,0.013523,0.002678,0.000431,0.004819
519000,0.0324,0.013523,0.002678,0.000431,0.004701
520000,0.0324,0.013523,0.002678,0.000431,0.004231
521000,0.0324,0.013523,0.002678,0.000431,0.004466
522000,0.0324,0.013523,0.002678,0.000431,0.005054
523000,0.0324,0.013523,0.002678,0.000431,0.004466
524000,0.0324,0.013523,0.002678,0.000431,0.003643
525000,0.0324,0.013523,0.002678,0.000431,0.004936
526000,0.0324,0.013523,0.002678,0.000431,0.005171
527000,0.0324,0.013523,0.002678,0.000431,0.003408
528000,0.0324,0.013523,0.002678,0.000431,0.004584
529000,0.0324,0.013523,0.002678,0.000431,0.004936
530000,0.0324,0.013523,0.002678,0.000431,0.004113
531000,0.0324,0.013523,0.002678,0.000431,0.004349
532000,0.0324,0.013523,0.002678,0.000431,0.004466
533000,0.0324,0.013523,0.002678,0.000431,0.004936
534000,0.0324,0.013523,0.002678,0.000431,0.003643
535000,0.0324,0.013523,0.002678,0.000431,0.003643
536000,0.0324,0.013523,0.002678,0.000431,0.004349
537000,0.0324,0.013523,0.002678,0.000431,0.003408
538000,0.0324,0.013523,0.002678,0.000431,0.004113
539000,0.0324,0.013523,0.002678,0.000431,0.004936
540000,0.0324,0.013523,0.002678,0.000431,0.002703
541000,0.0324,0.013523,0.002678,0.000431,0.004231
542000,0.0324,0.013523,0.002678,0.000431,0.004113
543000,0.0324,0.013523,0.002678,0.000431,0.003526
544000,0.0324,0.013523,0.002678,0.000431,0.003643
545000,0.0324,0.013523,0.002678,0.000431,0.003761
546000,0.0324,0.013523,0.002678,0.000431,0.004231
547000,0.0324,0.013523,0.002678,0.000431,0.003526
548000,0.0324,0.013523,0.002678,0.000431,0.003173
549000,0.0324,0.013523,0.002678,0.000431,0.004349
550000,0.0324,0.013523,0.002678,0.000431,0.003761
551000,0.0324,0.013523,0.002678,0.000431,0.003173
552000,0.0324,0.013523,0.002678,0.000431,0.003643
553000,0.0324,0.013523,0.002678,0.000431,0.004466
554000,0.0324,0.013523,0.002678,0.000431,0.003173
555000,0.0324,0.013523,0.002678,0.000431,0.003408
556000,0.0324,0.013523,0.002678,0.000431,0.004466
557000,0.0324,0.013523,0.002678,0.000431,0.003643
558000,0.0324,0.013523,0.002678,0.000431,0.002703
559000,0.0324,0.013523,0.002678,0.000431,0.003878
560000,0.0324,0.013523,0.002678,0.000431,0.003056
561000,0.0324,0.013523,0.002678,0.000431,0.002703
562000,0.0324,0.013523,0.002678,0.000431,0.003056
563000,0.0324,0.013523,0.002678,0.000431,0.003996
564000,0.0324,0.013523,0.002678,0.000431,0.004231
565000,0.0324,0.013523,0.002678,0.000431,0.002586
566000,0.0324,0.013523,0.002678,0.000431,0.002703
567000,0.0324,0.013523,0.002678,0.000431,0.001998
568000,0.0324,0.013523,0.002678,0.000431,0.001880
569000,0.0324,0.013523,0.002678,0.000431,0.002703
570000,0.0324,0.013523,0.002678,0.000431,0.002116
571000,0.0324,0.013523,0.002678,0.000431,0.002116
572000,0.0324,0.013523,0.002678,0.000431,0.001880
573000,0.0324,0.013523,0.002678,0.000431,0.002821
574000,0.0324,0.013523,0.002678,0.000431,0.001763
575000,0.0324,0.013523,0.002678,0.000431,0.002116
576000,0.0324,0.013523,0.002678,0.000431,0.002821
577000,0.0324,0.013523,0.002678,0.000431,0.001763
578000,0.0324,0.013523,0.002678,0.000431,0.003056
579000,0.0324,0.013523,0.002678,0.000431,0.001998
580000,0.0324,0.013523,0.002678,0.000431,0.001763
581000,0.0324,0.013523,0.002678,0.000431,0.001645
582000,0.0324,0.013523,0.002678,0.000431,0.002586
583000,0.0324,0.013523,0.002678,0.000431,0.001293
584000,0.0324,0.013523,0.002678,0.000431,0.001998
585000,0.0324,0.013523,0.002678,0.000431,0.002233
586000,0.0324,0.013523,0.002678,0.000431,0.001763
587000,0.0324,0.013523,0.002678,0.000431,0.001645
588000,0.0324,0.013523,0.002678,0.000431,0.002351
589000,0.0324,0.013523,0.002678,0.000431,0.001293
590000,0.0324,0.013523,0.002678,0.000431,0.002233
591000,0.0324,0.013523,0.002678,0.000431,0.001763
592000,0.0324,0.013523,0.002678,0.000431,0.001645
593000,0.0324,0.013523,0.002678,0.000431,0.002233
594000,0.0324,0.013523,0.002678,0.000431,0.001763
595000,0.0324,0.013523,0.002678,0.000431,0.001645
596000,0.0324,0.013523,0.002678,0.000431,0.002351
597000,0.0324,0.013523,0.002678,0.000431,0.001410
598000,0.0324,0.013523,0.002678,0.000431,0.002586
599000,0.0324,0.013523,0.002678,0.000431,0.001410
600000,0.0324,0.013523,0.002678,0.000431,0.002351
601000,0.0324,0.013523,0.002678,0.000431,0.001645
602000,0.0324,0.013523,0.002678,0.000431,0.002116
603000,0.0324,0.013523,0.002678,0.000431,0.001645
604000,0.0324,0.013523,0.002678,0.000431,0.001880
605000,0.0324,0.013523,0.002678,0.000431,0.001880
606000,0.0324,0.013523,0.002678,0.000431,0.001763
607000,0.0324,0.013523,0.002678,0.000431,0.002233
608000,0.0324,0.013523,0.002678,0.000431,0.001763
609000,0.0324,0.013523,0.002678,0.000431,0.001998
610000,0.0324,0.013523,0.002678,0.000431,0.001763
611000,0.0324,0.013523,0.002678,0.000431,0.001998
612000,0.0324,0.013523,0.002678,0.000431,0.001763
613000,0.0324,0.013523,0.002678,0.000431,0.001880
614000,0.0324,0.013523,0.002678,0.000431,0.001528
615000,0.0324,0.013523,0.002678,0.000431,0.002233
616000,0.0324,0.013523,0.002678,0.000431,0.001528
617000,0.0324,0.013523,0.002678,0.000431,0.002116
618000,0.0324,0.013523,0.002678,0.000431,0.001528
619000,0.0324,0.013523,0.002678,0.000431,0.002233
620000,0.0324,0.013523,0.002678,0.000431,0.001410
621000,0.0324,0.013523,0.002678,0.000431,0.002821
622000,0.0324,0.013523,0.002678,0.000431,0.000823
623000,0.0324,0.013523,0.002678,0.000431,0.001645
624000,0.0324,0.013523,0.002678,0.000431,0.001175
625000,0.0324,0.013523,0.002678,0.000431,0.001645
626000,0.0324,0.013523,0.002678,0.000431,0.001175
627000,0.0324,0.013523,0.002678,0.000431,0.001645
628000,0.0324,0.013523,0.002678,0.000431,0.001175
629000,0.0324,0.013523,0.002678,0.000431,0.001645
630000,0.0324,0.013523,0.002678,0.000431,0.001175
631000,0.0324,0.013523,0.002678,0.000431,0.001058
632000,0.0324,0.013523,0.002678,0.000431,0.001175
633000,0.0324,0.013523,0.002678,0.000431,0.000823
634000,0.0324,0.013523,0.002678,0.000431,0.001293
635000,0.0324,0.013523,0.002678,0.000431,0.001058
636000,0.0324,0.013523,0.002678,0.000431,0.001175
637000,0.0324,0.013523,0.002678,0.000431,0.001058
638000,0.0324,0.013523,0.002678,0.000431,0.001293
639000,0.0324,0.013523,0.002678,0.000431,0.001058
640000,0.0324,0.013523,0.002678,0.000431,0.001293
641000,0.0324,0.013523,0.002678,0.000431,0.001058
642000,0.0324,0.013523,0.002678,0.000431,0.001293
643000,0.0324,0.013523,0.002678,0.000431,0.001058
644000,0.0324,0.013523,0.002678,0.000431,0.001293
645000,0.0324,0.013523,0.002678,0.000431,0.001058
646000,0.0324,0.013523,0.002678,0.000431,0.001175
647000,0.0324,0.013523,0.002678,0.000431,0.000940
648000,0.0324,0.013523,0.002678,0.000431,0.001410
649000,0.0324,0.013523,0.002678,0.000431,0.000940
650000,0.0324,0.013523,0.002678,0.000431,0.001410
651000,0.0324,0.013523,0.002678,0.000431,0.000823
652000,0.0324,0.013523,0.002678,0.000431,0.001410
653000,0.0324,0.013523,0.002678,0.000431,0.000940
654000,0.0324,0.013523,0.002678,0.000431,0.001410
655000,0.0324,0.013523,0.002678,0.000431,0.000940
656000,0.0324,0.013523,0.002678,0.000431,0.001410
657000,0.0324,0.013523,0.002678,0.000431,0.000940
658000,0.0324,0.013523,0.002678,0.000431,0.001410
659000,0.0324,0.013523,0.002678,0.000431,0.000823
660000,0.0324,0.013523,0.002678,0.000431,0.001763
661000,0.0324,0.013523,0.002678,0.000431,0.000588
662000,0.0324,0.013523,0.002678,0.000431,0.000823
663000,0.0324,0.013523,0.002678,0.000431,0.000588
664000,0.0324,0.013523,0.002678,0.000431,0.000823
665000,0.0324,0.013523,0.002678,0.000431,0.000588
666000,0.0324,0.013523,0.002678,0.000431,0.000823
667000,0.0324,0.013523,0.002678,0.000431,0.000588
668000,0.0324,0.013523,0.002678,0.000431,0.000823
669000,0.0324,0.013523,0.002678,0.000431,0.000588
670000,0.0324,0.013523,0.002678,0.000431,0.000823
671000,0.0324,0.013523,0.002678,0.000431,0.000588
672000,0.0324,0.013523,0.002678,0.000431,0.000588
673000,0.0324,0.013523,0.002678,0.000431,0.000705
674000,0.0324,0.013523,0.002678,0.000431,0.000705
675000,0.0324,0.013523,0.002678,0.000431,0.000705
676000,0.0324,0.013523,0.002678,0.000431,0.000470
677000,0.0324,0.013523,0.002678,0.000431,0.000823
678000,0.0324,0.013523,0.002678,0.000431,0.000588
679000,0.0324,0.013523,0.002678,0.000431,0.000823
680000,0.0324,0.013523,0.002678,0.000431,0.000588
681000,0.0324,0.013523,0.002678,0.000431,0.000823
682000,0.0324,0.013523,0.002678,0.000431,0.000588
683000,0.0324,0.013523,0.002678,0.000431,0.000823
684000,0.0324,0.013523,0.002678,0.000431,0.000588
685000,0.0324,0.013523,0.002678,0.000431,0.000823
686000,0.0324,0.013523,0.002678,0.000431,0.000588
687000,0.0324,0.013523,0.002678,0.000431,0.000823
688000,0.0324,0.013523,0.002678,0.000431,0.000588
689000,0.0324,0.013523,0.002678,0.000431,0.000823
690000,0.0324,0.013523,0.002678,0.000431,0.000470
691000,0.0324,0.013523,0.002678,0.000431,0.000823
692000,0.0324,0.013523,0.002678,0.000431,0.000470
693000,0.0324,0.013523,0.002678,0.000431,0.000940
694000,0.0324,0.013523,0.002678,0.000431,0.000470
695000,0.0324,0.013523,0.002678,0.000431,0.000940
696000,0.0324,0.013523,0.002678,0.000431,0.000470
697000,0.0324,0.013523,0.002678,0.000431,0.000940
698000,0.0324,0.013523,0.002678,0.000431,0.000470
699000,0.0324,0.013523,0.002678,0.000431,0.000940
700000,0.0324,0.013523,0.002678,0.000431,0.000470
701000,0.0324,0.013523,0.002678,0.000431,0.000940
702000,0.0324,0.013523,0.002678,0.000431,0.000470
703000,0.0324,0.013523,0.002678,0.000431,0.000940
704000,0.0324,0.013523,0.002678,0.000431,0.000470
705000,0.0324,0.013523,0.002678,0.000431,0.000470
706000,0.0324,0.013523,0.002678,0.000431,0.000470
707000,0.0324,0.013523,0.002678,0.000431,0.000470
708000,0.0324,0.013523,0.002678,0.000431,0.000470
709000,0.0324,0.013523,0.002678,0.000431,0.000470
710000,0.0324,0.013523,0.002678,0.000431,0.000470
711000,0.0324,0.013523,0.002678,0.000431,0.000353
712000,0.0324,0.013523,0.002678,0.000431,0.000470
713000,0.0324,0.013523,0.002678,0.000431,0.000470
714000,0.0324,0.013523,0.002678,0.000431,0.000470
715000,0.0324,0.013523,0.002678,0.000431,0.000470
716000,0.0324,0.013523,0.002678,0.000431,0.000470
717000,0.0324,0.013523,0.002678,0.000431,0.000470
718000,0.0324,0.013523,0.002678,0.000431,0.000470
719000,0.0324,0.013523,0.002678,0.000431,0.000470
720000,0.0324,0.013523,0.002678,0.000431,0.000470
721000,0.0324,0.013523,0.002678,0.000431,0.000470
722000,0.0324,0.013523,0.002678,0.000431,0.000470
723000,0.0324,0.013523,0.002678,0.000431,0.000470
724000,0.0324,0.013523,0.002678,0.000431,0.000470
725000,0.0324,0.013523,0.002678,0.000431,0.000470
726000,0.0324,0.013523,0.002678,0.000431,0.000470
727000,0.0324,0.013523,0.002678,0.000431,0.000470
728000,0.0324,0.013523,0.002678,0.000431,0.000470
729000,0.0324,0.013523,0.002678,0.000431,0.000470
730000,0.0324,0.013523,0.002678,0.000431,0.000470
731000,0.0324,0.013523,0.002678,0.000431,0.000353
732000,0.0324,0.013523,0.002678,0.000431,0.000470
733000,0.0324,0.013523,0.002678,0.000431,0.000470
734000,0.0324,0.013523,0.002678,0.000431,0.000470
735000,0.0324,0.013523,0.002678,0.000431,0.000353
736000,0.0324,0.013523,0.002678,0.000431,0.000470
737000,0.0324,0.013523,0.002678,0.000431,0.000470
738000,0.0324,0.013523,0.002678,0.000431,0.000470
739000,0.0324,0.013523,0.002678,0.000431,0.000470
740000,0.0324,0.013523,0.002678,0.000431,0.000470
741000,0.0324,0.013523,0.002678,0.000431,0.000470
742000,0.0324,0.013523,0.002678,0.000431,0.000470
743000,0.0324,0.013523,0.002678,0.000431,0.000470
744000,0.0324,0.013523,0.002678,0.000431,0.000470
745000,0.0324,0.013523,0.002678,0.000431,0.000470
746000,0.0324,0.013523,0.002678,0.000431,0.000470
747000,0.0324,0.013523,0.002678,0.000431,0.000470
748000,0.0324,0.013523,0.002678,0.000431,0.000470
749000,0.0324,0.013523,0.002678,0.000431,0.000470
750000,0.0324,0.013523,0.002678,0.000431,0.000470
751000,0.0324,0.013523,0.002678,0.000431,0.000470
752000,0.0324,0.013523,0.002678,0.000431,0.000470
753000,0.0324,0.013523,0.002678,0.000431,0.000353
754000,0.0324,0.013523,0.002678,0.000431,0.000470
755000,0.0324,0.013523,0.002678,0.000431,0.000470
756000,0.0324,0.013523,0.002678,0.000431,0.000470
757000,0.0324,0.013523,0.002678,0.000431,0.000470
758000,0.0324,0.013523,0.002678,0.000431,0.000470
759000,0.0324,0.013523,0.002678,0.000431,0.000470
760000,0.0324,0.013523,0.002678,0.000431,0.000470
761000,0.0324,0.013523,0.002678,0.000431,0.000470
762000,0.0324,0.013523,0.002678,0.000431,0.000470
763000,0.0324,0.013523,0.002678,0.000431,0.000470
764000,0.0324,0.013523,0.002678,0.000431,0.000470
765000,0.0324,0.013523,0.002678,0.000431,0.000470
766000,0.0324,0.013523,0.002678,0.000431,0.000470
767000,0.0324,0.013523,0.002678,0.000431,0.000470
768000,0.0324,0.013523,0.002678,0.000431,0.000470
769000,0.0324,0.013523,0.002678,0.000431,0.000470
770000,0.0324,0.013523,0.002678,0.000431,0.000470
771000,0.0324,0.013523,0.002678,0.000431,0.000470
772000,0.0324,0.013523,0.002678,0.000431,0.000470
773000,0.0324,0.013523,0.002678,0.000431,0.000470
774000,0.0324,0.013523,0.002678,0.000431,0.000353
775000,0.0324,0.013523,0.002678,0.000431,0.000470
776000,0.0324,0.013523,0.002678,0.000431,0.000470
777000,0.0324,0.013523,0.002678,0.000431,0.000470
778000,0.0324,0.013523,0.002678,0.000431,0.000470
779000,0.0324,0.013523,0.002678,0.000431,0.000470
780000,0.0324,0.013523,0.002678,0.000431,0.000470
781000,0.0324,0.013523,0.002678,0.000431,0.000470
782000,0.0324,0.013523,0.002678,0.000431,0.000470
783000,0.0324,0.013523,0.002678,0.000431,0.000470
784000,0.0324,0.013523,0.002678,0.000431,0.000470
785000,0.0324,0.013523,0.002678,0.000431,0.000470
786000,0.0324,0.013523,0.002678,0.000431,0.000470
787000,0.0324,0.013523,0.002678,0.000431,0.000470
788000,0.0324,0.013523,0.002678,0.000431,0.000470
789000,0.0324,0.013523,0.002678,0.000431,0.000470
790000,0.0324,0.013523,0.002678,0.000431,0.000470
791000,0.0324,0.013523,0.002678,0.000431,0.000470
792000,0.0324,0.013523,0.002678,0.000431,0.000470
793000,0.0324,0.013523,0.002678,0.000431,0.000353
794000,0.0324,0.013523,0.002678,0.000431,0.000470
795000,0.0324,0.013523,0.002678,0.000431,0.000470
796000,0.0324,0.013523,0.002678,0.000431,0.000470
797000,0.0324,0.013523,0.002678,0.000431,0.000353
798000,0.0324,0.013523,0.002678,0.000431,0.000470
799000,0.0324,0.013523,0.002678,0.000431,0.000470
800000,0.0324,0.013523,0.002678,0.000431,0.000470
801000,0.0324,0.013523,0.002678,0.000431,0.000470
802000,0.0324,0.013523,0.002678,0.000431,0.000470
803000,0.0324,0.013523,0.002678,0.000431,0.000470
804000,0.0324,0.013523,0.002678,0.000431,0.000470
805000,0.0324,0.013523,0.002678,0.000431,0.000470
806000,0.0324,0.013523,0.002678,0.000431,0.000470
807000,0.0324,0.013523,0.002678,0.000431,0.000470
808000,0.0324,0.013523,0.002678,0.000431,0.000470
809000,0.0324,0.013523,0.002678,0.000431,0.000470
810000,0.0324,0.013523,0.002678,0.000431,0.000470
811000,0.0324,0.013523,0.002678,0.000431,0.000470
812000,0.0324,0.013523,0.002678,0.000431,0.000470
813000,0.0324,0.013523,0.002678,0.000431,0.000470
814000,0.0324,0.013523,0.002678,0.000431,0.000470
815000,0.0324,0.013523,0.002678,0.000431,0.000470
816000,0.0324,0.013523,0.002678,0.000431,0.000470
817000,0.0324,0.013523,0.002678,0.000431,0.000353
818000,0.0324,0.013523,0.002678,0.000431,0.000470
819000,0.0324,0.013523,0.002678,0.000431,0.000470
820000,0.0324,0.013523,0.002678,0.000431,0.000470
821000,0.0324,0.013523,0.002678,0.000431,0.000470
822000,0.0324,0.013523,0.002678,0.000431,0.000470
823000,0.0324,0.013523,0.002678,0.000431,0.000470
824000,0.0324,0.013523,0.002678,0.000431,0.000470
825000,0.0324,0.013523,0.002678,0.000431,0.000470
826000,0.0324,0.013523,0.002678,0.000431,0.000470
827000,0.0324,0.013523,0.002678,0.000431,0.000470
828000,0.0324,0.013523,0.002678,0.000431,0.000470
829000,0.0324,0.013523,0.002678,0.000431,0.000470
830000,0.0324,0.013523,0.002678,0.000431,0.000470
831000,0.0324,0.013523,0.002678,0.000431,0.000470
832000,0.0324,0.013523,0.002678,0.000431,0.000470
833000,0.0324,0.013523,0.002678,0.000431,0.000470
834000,0.0324,0.013523,0.002678,0.000431,0.000470
835000,0.0324,0.013523,0.002678,0.000431,0.000470
836000,0.0324,0.013523,0.002678,0.000431,0.000470
837000,0.0324,0.013523,0.002678,0.000431,0.000470
838000,0.0324,0.013523,0.002678,0.000431,0.000470
839000,0.0324,0.013523,0.002678,0.000431,0.000470
840000,0.0324,0.013523,0.002678,0.000431,0.000470
841000,0.0324,0.013523,0.002678,0.000431,0.000353
842000,0.0324,0.013523,0.002678,0.000431,0.000470
843000,0.0324,0.013523,0.002678,0.000431,0.000470
844000,0.0324,0.013523,0.002678,0.000431,0.000470
845000,0.0324,0.013523,0.002678,0.000431,0.000470
846000,0.0324,0.013523,0.002678,0.000431,0.000470
847000,0.0324,0.013523,0.002678,0.000431,0.000470
848000,0.0324,0.013523,0.002678,0.000431,0.000470
849000,0.0324,0.013523,0.002678,0.000431,0.000470
850000,0.0324,0.013523,0.002678,0.000431,0.000470
851000,0.0324,0.013523,0.002678,0.000431,0.000470
852000,0.0324,0.013523,0.002678,0.000431,0.000470
853000,0.0324,0.013523,0.002678,0.000431,0.000470
854000,0.0324,0.013523,0.002678,0.000431,0.000470
855000,0.0324,0.013523,0.002678,0.000431,0.000470
856000,0.0324,0.013523,0.002678,0.000431,0.000470
857000,0.0324,0.013523,0.002678,0.000431,0.000470
858000,0.0324,0.013523,0.002678,0.000431,0.000470
859000,0.0324,0.013523,0.002678,0.000431,0.000470
860000,0.0324,0.013523,0.002678,0.000431,0.000470
861000,0.0324,0.013523,0.002678,0.000431,0.000353
862000,0.0324,0.013523,0.002678,0.000431,0.000470
863000,0.0324,0.013523,0.002678,0.000431,0.000470
864000,0.0324,0.013523,0.002678,0.000431,0.000353
865000,0.0324,0.013523,0.002678,0.000431,0.000470
866000,0.0324,0.013523,0.002678,0.000431,0.000470
867000,0.0324,0.013523,0.002678,0.000431,0.000470
868000,0.0324,0.013523,0.002678,0.000431,0.000470
869000,0.0324,0.013523,0.002678,0.000431,0.000470
870000,0.0324,0.013523,0.002678,0.000431,0.000470
871000,0.0324,0.013523,0.002678,0.000431,0.000353
872000,0.0324,0.013523,0.002678,0.000431,0.000470
873000,0.0324,0.013523,0.002678,0.000431,0.000353
874000,0.0324,0.013523,0.002678,0.000431,0.000118
875000,0.0324,0.013523,0.002678,0.000431,0.000470
876000,0.0324,0.013523,0.002678,0.000431,0.000353
877000,0.0324,0.013523,0.002678,0.000431,0.000235
878000,0.0324,0.013523,0.002678,0.000431,0.000353
879000,0.0324,0.013523,0.002678,0.000431,0.000470
880000,0.0324,0.013523,0.002678,0.000431,0.000353
881000,0.0324,0.013523,0.002678,0.000431,0.000118
882000,0.0324,0.013523,0.002678,0.000431,0.000470
883000,0.0324,0.013523,0.002678,0.000431,0.000353
884000,0.0324,0.013523,0.002678,0.000431,0.000235
885000,0.0324,0.013523,0.002678,0.000431,0.000353
886000,0.0324,0.013523,0.002678,0.000431,0.000470
887000,0.0324,0.013523,0.002678,0.000431,0.000353
888000,0.0324,0.013523,0.002678,0.000431,0.000118
889000,0.0324,0.013523,0.002678,0.000431,0.000470
890000,0.0324,0.013523,0.002678,0.000431,0.000353
891000,0.0324,0.013523,0.002678,0.000431,0.000235
892000,0.0324,0.013523,0.002678,0.000431,0.000353
893000,0.0324,0.013523,0.002678,0.000431,0.000470
894000,0.0324,0.013523,0.002678,0.000431,0.000235
895000,0.0324,0.013523,0.002678,0.000431,0.000235
896000,0.0324,0.013523,0.002678,0.000431,0.000470
897000,0.0324,0.013523,0.002678,0.000431,0.000353
898000,0.0324,0.013523,0.002678,0.000431,0.000235
899000,0.0324,0.013523,0.002678,0.000431,0.000353
900000,0.0324,0.013523,0.002678,0.000431,0.000470
901000,0.0324,0.013523,0.002678,0.000431,0.000235
902000,0.0324,0.013523,0.002678,0.000431,0.000235
903000,0.0324,0.013523,0.002678,0.000431,0.000470
904000,0.0324,0.013523,0.002678,0.000431,0.000353
905000,0.0324,0.013523,0.002678,0.000431,0.000235
906000,0.0324,0.013523,0.002678,0.000431,0.000353
907000,0.0324,0.013523,0.002678,0.000431,0.000470
908000,0.0324,0.013523,0.002678,0.000431,0.000235
909000,0.0324,0.013523,0.002678,0.000431,0.000235
910000,0.0324,0.013523,0.002678,0.000431,0.000470
911000,0.0324,0.013523,0.002678,0.000431,0.000353
