Cycle,Area(mm^2),PeakDynamic(W),SubthresholdLeakage(W),GateLeakage(W),RunTimeDynamic(W)
10000000,0.0324,0.013523,0.002678,0.000431,0.012928
10001000,0.0324,0.013523,0.002678,0.000431,0.013398
10002000,0.0324,0.013523,0.002678,0.000431,0.013046
10003000,0.0324,0.013523,0.002678,0.000431,0.012105
10004000,0.0324,0.013523,0.002678,0.000431,0.013046
10005000,0.0324,0.013523,0.002678,0.000431,0.013046
10006000,0.0324,0.013523,0.002678,0.000431,0.011753
10007000,0.0324,0.013523,0.002678,0.000431,0.012928
10008000,0.0324,0.013523,0.002678,0.000431,0.014338
10009000,0.0324,0.013523,0.002678,0.000431,0.012105
10010000,0.0324,0.013523,0.002678,0.000431,0.011518
10011000,0.0324,0.013523,0.002678,0.000431,0.013868
10012000,0.0324,0.013523,0.002678,0.000431,0.013163
10013000,0.0324,0.013523,0.002678,0.000431,0.012458
10014000,0.0324,0.013523,0.002678,0.000431,0.013986
10015000,0.0324,0.013523,0.002678,0.000431,0.012223
10016000,0.0324,0.013523,0.002678,0.000431,0.011400
10017000,0.0324,0.013523,0.002678,0.000431,0.014221
10018000,0.0324,0.013523,0.002678,0.000431,0.012811
10019000,0.0324,0.013523,0.002678,0.000431,0.013163
10020000,0.0324,0.013523,0.002678,0.000431,0.012811
10021000,0.0324,0.013523,0.002678,0.000431,0.011753
10022000,0.0324,0.013523,0.002678,0.000431,0.013398
10023000,0.0324,0.013523,0.002678,0.000431,0.011988
10024000,0.0324,0.013523,0.002678,0.000431,0.013281
10025000,0.0324,0.013523,0.002678,0.000431,0.012811
10026000,0.0324,0.013523,0.002678,0.000431,0.012576
10027000,0.0324,0.013523,0.002678,0.000431,0.013398
10028000,0.0324,0.013523,0.002678,0.000431,0.013398
10029000,0.0324,0.013523,0.002678,0.000431,0.012105
10030000,0.0324,0.013523,0.002678,0.000431,0.013398
10031000,0.0324,0.013523,0.002678,0.000431,0.012811
10032000,0.0324,0.013523,0.002678,0.000431,0.014221
10033000,0.0324,0.013523,0.002678,0.000431,0.013633
10034000,0.0324,0.013523,0.002678,0.000431,0.012576
10035000,0.0324,0.013523,0.002678,0.000431,0.012693
10036000,0.0324,0.013523,0.002678,0.000431,0.015396
10037000,0.0324,0.013523,0.002678,0.000431,0.012928
10038000,0.0324,0.013523,0.002678,0.000431,0.012576
10039000,0.0324,0.013523,0.002678,0.000431,0.014103
10040000,0.0324,0.013523,0.002678,0.000431,0.012576
10041000,0.0324,0.013523,0.002678,0.000431,0.012693
10042000,0.0324,0.013523,0.002678,0.000431,0.012105
10043000,0.0324,0.013523,0.002678,0.000431,0.013046
10044000,0.0324,0.013523,0.002678,0.000431,0.012811
10045000,0.0324,0.013523,0.002678,0.000431,0.012576
10046000,0.0324,0.013523,0.002678,0.000431,0.013281
10047000,0.0324,0.013523,0.002678,0.000431,0.011870
10048000,0.0324,0.013523,0.002678,0.000431,0.012928
10049000,0.0324,0.013523,0.002678,0.000431,0.013986
10050000,0.0324,0.013523,0.002678,0.000431,0.012576
10051000,0.0324,0.013523,0.002678,0.000431,0.012223
10052000,0.0324,0.013523,0.002678,0.000431,0.013281
10053000,0.0324,0.013523,0.002678,0.000431,0.012693
10054000,0.0324,0.013523,0.002678,0.000431,0.012340
10055000,0.0324,0.013523,0.002678,0.000431,0.012928
10056000,0.0324,0.013523,0.002678,0.000431,0.012223
10057000,0.0324,0.013523,0.002678,0.000431,0.012223
10058000,0.0324,0.013523,0.002678,0.000431,0.012693
10059000,0.0324,0.013523,0.002678,0.000431,0.013046
10060000,0.0324,0.013523,0.002678,0.000431,0.013163
10061000,0.0324,0.013523,0.002678,0.000431,0.012105
10062000,0.0324,0.013523,0.002678,0.000431,0.013633
10063000,0.0324,0.013523,0.002678,0.000431,0.012928
10064000,0.0324,0.013523,0.002678,0.000431,0.012811
10065000,0.0324,0.013523,0.002678,0.000431,0.013868
10066000,0.0324,0.013523,0.002678,0.000431,0.012693
10067000,0.0324,0.013523,0.002678,0.000431,0.013163
10068000,0.0324,0.013523,0.002678,0.000431,0.013751
10069000,0.0324,0.013523,0.002678,0.000431,0.011988
10070000,0.0324,0.013523,0.002678,0.000431,0.012223
10071000,0.0324,0.013523,0.002678,0.000431,0.013868
10072000,0.0324,0.013523,0.002678,0.000431,0.012576
10073000,0.0324,0.013523,0.002678,0.000431,0.013516
10074000,0.0324,0.013523,0.002678,0.000431,0.013398
10075000,0.0324,0.013523,0.002678,0.000431,0.011518
10076000,0.0324,0.013523,0.002678,0.000431,0.013163
10077000,0.0324,0.013523,0.002678,0.000431,0.013751
10078000,0.0324,0.013523,0.002678,0.000431,0.012576
10079000,0.0324,0.013523,0.002678,0.000431,0.013986
10080000,0.0324,0.013523,0.002678,0.000431,0.013281
10081000,0.0324,0.013523,0.002678,0.000431,0.011870
10082000,0.0324,0.013523,0.002678,0.000431,0.013516
10083000,0.0324,0.013523,0.002678,0.000431,0.014926
10084000,0.0324,0.013523,0.002678,0.000431,0.012576
10085000,0.0324,0.013523,0.002678,0.000431,0.012811
10086000,0.0324,0.013523,0.002678,0.000431,0.013398
10087000,0.0324,0.013523,0.002678,0.000431,0.013046
10088000,0.0324,0.013523,0.002678,0.000431,0.012223
10089000,0.0324,0.013523,0.002678,0.000431,0.013163
10090000,0.0324,0.013523,0.002678,0.000431,0.012576
10091000,0.0324,0.013523,0.002678,0.000431,0.012340
10092000,0.0324,0.013523,0.002678,0.000431,0.013516
10093000,0.0324,0.013523,0.002678,0.000431,0.012693
10094000,0.0324,0.013523,0.002678,0.000431,0.011988
10095000,0.0324,0.013523,0.002678,0.000431,0.012340
10096000,0.0324,0.013523,0.002678,0.000431,0.013046
10097000,0.0324,0.013523,0.002678,0.000431,0.012928
10098000,0.0324,0.013523,0.002678,0.000431,0.012811
10099000,0.0324,0.013523,0.002678,0.000431,0.012928
10100000,0.0324,0.013523,0.002678,0.000431,0.013398
10101000,0.0324,0.013523,0.002678,0.000431,0.012928
10102000,0.0324,0.013523,0.002678,0.000431,0.013046
10103000,0.0324,0.013523,0.002678,0.000431,0.012576
10104000,0.0324,0.013523,0.002678,0.000431,0.012105
10105000,0.0324,0.013523,0.002678,0.000431,0.013398
10106000,0.0324,0.013523,0.002678,0.000431,0.012693
10107000,0.0324,0.013523,0.002678,0.000431,0.012458
10108000,0.0324,0.013523,0.002678,0.000431,0.011988
10109000,0.0324,0.013523,0.002678,0.000431,0.012105
10110000,0.0324,0.013523,0.002678,0.000431,0.013046
10111000,0.0324,0.013523,0.002678,0.000431,0.013516
10112000,0.0324,0.013523,0.002678,0.000431,0.012811
10113000,0.0324,0.013523,0.002678,0.000431,0.013516
10114000,0.0324,0.013523,0.002678,0.000431,0.013751
10115000,0.0324,0.013523,0.002678,0.000431,0.012811
10116000,0.0324,0.013523,0.002678,0.000431,0.012928
10117000,0.0324,0.013523,0.002678,0.000431,0.013751
10118000,0.0324,0.013523,0.002678,0.000431,0.012928
10119000,0.0324,0.013523,0.002678,0.000431,0.011753
10120000,0.0324,0.013523,0.002678,0.000431,0.015279
10121000,0.0324,0.013523,0.002678,0.000431,0.011988
10122000,0.0324,0.013523,0.002678,0.000431,0.012223
10123000,0.0324,0.013523,0.002678,0.000431,0.013751
10124000,0.0324,0.013523,0.002678,0.000431,0.013281
10125000,0.0324,0.013523,0.002678,0.000431,0.012693
10126000,0.0324,0.013523,0.002678,0.000431,0.013868
10127000,0.0324,0.013523,0.002678,0.000431,0.012458
10128000,0.0324,0.013523,0.002678,0.000431,0.013398
10129000,0.0324,0.013523,0.002678,0.000431,0.013163
10130000,0.0324,0.013523,0.002678,0.000431,0.013163
10131000,0.0324,0.013523,0.002678,0.000431,0.012811
10132000,0.0324,0.013523,0.002678,0.000431,0.012458
10133000,0.0324,0.013523,0.002678,0.000431,0.014221
10134000,0.0324,0.013523,0.002678,0.000431,0.012811
10135000,0.0324,0.013523,0.002678,0.000431,0.012223
10136000,0.0324,0.013523,0.002678,0.000431,0.011988
10137000,0.0324,0.013523,0.002678,0.000431,0.014573
10138000,0.0324,0.013523,0.002678,0.000431,0.012693
10139000,0.0324,0.013523,0.002678,0.000431,0.013398
10140000,0.0324,0.013523,0.002678,0.000431,0.012576
10141000,0.0324,0.013523,0.002678,0.000431,0.013046
10142000,0.0324,0.013523,0.002678,0.000431,0.012811
10143000,0.0324,0.013523,0.002678,0.000431,0.013868
10144000,0.0324,0.013523,0.002678,0.000431,0.012458
10145000,0.0324,0.013523,0.002678,0.000431,0.011870
10146000,0.0324,0.013523,0.002678,0.000431,0.013516
10147000,0.0324,0.013523,0.002678,0.000431,0.013398
10148000,0.0324,0.013523,0.002678,0.000431,0.013868
10149000,0.0324,0.013523,0.002678,0.000431,0.013046
10150000,0.0324,0.013523,0.002678,0.000431,0.012693
10151000,0.0324,0.013523,0.002678,0.000431,0.013046
10152000,0.0324,0.013523,0.002678,0.000431,0.013986
10153000,0.0324,0.013523,0.002678,0.000431,0.013868
10154000,0.0324,0.013523,0.002678,0.000431,0.011753
10155000,0.0324,0.013523,0.002678,0.000431,0.013516
10156000,0.0324,0.013523,0.002678,0.000431,0.013046
10157000,0.0324,0.013523,0.002678,0.000431,0.014338
10158000,0.0324,0.013523,0.002678,0.000431,0.013163
10159000,0.0324,0.013523,0.002678,0.000431,0.013281
10160000,0.0324,0.013523,0.002678,0.000431,0.012223
10161000,0.0324,0.013523,0.002678,0.000431,0.013751
10162000,0.0324,0.013523,0.002678,0.000431,0.013516
10163000,0.0324,0.013523,0.002678,0.000431,0.011635
10164000,0.0324,0.013523,0.002678,0.000431,0.013751
10165000,0.0324,0.013523,0.002678,0.000431,0.012928
10166000,0.0324,0.013523,0.002678,0.000431,0.012576
10167000,0.0324,0.013523,0.002678,0.000431,0.012223
10168000,0.0324,0.013523,0.002678,0.000431,0.013398
10169000,0.0324,0.013523,0.002678,0.000431,0.011753
10170000,0.0324,0.013523,0.002678,0.000431,0.012693
10171000,0.0324,0.013523,0.002678,0.000431,0.013633
10172000,0.0324,0.013523,0.002678,0.000431,0.012928
10173000,0.0324,0.013523,0.002678,0.000431,0.011753
10174000,0.0324,0.013523,0.002678,0.000431,0.013986
10175000,0.0324,0.013523,0.002678,0.000431,0.012223
10176000,0.0324,0.013523,0.002678,0.000431,0.012223
10177000,0.0324,0.013523,0.002678,0.000431,0.013516
10178000,0.0324,0.013523,0.002678,0.000431,0.013163
10179000,0.0324,0.013523,0.002678,0.000431,0.012105
10180000,0.0324,0.013523,0.002678,0.000431,0.012576
10181000,0.0324,0.013523,0.002678,0.000431,0.012458
10182000,0.0324,0.013523,0.002678,0.000431,0.011988
10183000,0.0324,0.013523,0.002678,0.000431,0.014221
10184000,0.0324,0.013523,0.002678,0.000431,0.012576
10185000,0.0324,0.013523,0.002678,0.000431,0.012105
10186000,0.0324,0.013523,0.002678,0.000431,0.011988
10187000,0.0324,0.013523,0.002678,0.000431,0.013398
10188000,0.0324,0.013523,0.002678,0.000431,0.012340
10189000,0.0324,0.013523,0.002678,0.000431,0.013398
10190000,0.0324,0.013523,0.002678,0.000431,0.011283
10191000,0.0324,0.013523,0.002678,0.000431,0.012576
10192000,0.0324,0.013523,0.002678,0.000431,0.012928
10193000,0.0324,0.013523,0.002678,0.000431,0.011988
10194000,0.0324,0.013523,0.002678,0.000431,0.011635
10195000,0.0324,0.013523,0.002678,0.000431,0.013163
10196000,0.0324,0.013523,0.002678,0.000431,0.012340
10197000,0.0324,0.013523,0.002678,0.000431,0.011753
10198000,0.0324,0.013523,0.002678,0.000431,0.012576
10199000,0.0324,0.013523,0.002678,0.000431,0.013398
10200000,0.0324,0.013523,0.002678,0.000431,0.012223
10201000,0.0324,0.013523,0.002678,0.000431,0.012811
10202000,0.0324,0.013523,0.002678,0.000431,0.013751
10203000,0.0324,0.013523,0.002678,0.000431,0.012105
10204000,0.0324,0.013523,0.002678,0.000431,0.012928
10205000,0.0324,0.013523,0.002678,0.000431,0.013868
10206000,0.0324,0.013523,0.002678,0.000431,0.011635
10207000,0.0324,0.013523,0.002678,0.000431,0.012105
10208000,0.0324,0.013523,0.002678,0.000431,0.013163
10209000,0.0324,0.013523,0.002678,0.000431,0.013281
10210000,0.0324,0.013523,0.002678,0.000431,0.012576
10211000,0.0324,0.013523,0.002678,0.000431,0.012693
10212000,0.0324,0.013523,0.002678,0.000431,0.013163
10213000,0.0324,0.013523,0.002678,0.000431,0.013281
10214000,0.0324,0.013523,0.002678,0.000431,0.012105
10215000,0.0324,0.013523,0.002678,0.000431,0.012105
10216000,0.0324,0.013523,0.002678,0.000431,0.012340
10217000,0.0324,0.013523,0.002678,0.000431,0.013516
10218000,0.0324,0.013523,0.002678,0.000431,0.011753
10219000,0.0324,0.013523,0.002678,0.000431,0.012340
10220000,0.0324,0.013523,0.002678,0.000431,0.013046
10221000,0.0324,0.013523,0.002678,0.000431,0.013163
10222000,0.0324,0.013523,0.002678,0.000431,0.011635
10223000,0.0324,0.013523,0.002678,0.000431,0.013751
10224000,0.0324,0.013523,0.002678,0.000431,0.011753
10225000,0.0324,0.013523,0.002678,0.000431,0.011753
10226000,0.0324,0.013523,0.002678,0.000431,0.013516
10227000,0.0324,0.013523,0.002678,0.000431,0.013046
10228000,0.0324,0.013523,0.002678,0.000431,0.012576
10229000,0.0324,0.013523,0.002678,0.000431,0.012458
10230000,0.0324,0.013523,0.002678,0.000431,0.012693
10231000,0.0324,0.013523,0.002678,0.000431,0.011753
10232000,0.0324,0.013523,0.002678,0.000431,0.012576
10233000,0.0324,0.013523,0.002678,0.000431,0.013046
10234000,0.0324,0.013523,0.002678,0.000431,0.011870
10235000,0.0324,0.013523,0.002678,0.000431,0.012105
10236000,0.0324,0.013523,0.002678,0.000431,0.014103
10237000,0.0324,0.013523,0.002678,0.000431,0.011870
10238000,0.0324,0.013523,0.002678,0.000431,0.011988
10239000,0.0324,0.013523,0.002678,0.000431,0.014456
10240000,0.0324,0.013523,0.002678,0.000431,0.011870
10241000,0.0324,0.013523,0.002678,0.000431,0.011870
10242000,0.0324,0.013523,0.002678,0.000431,0.013163
10243000,0.0324,0.013523,0.002678,0.000431,0.011988
10244000,0.0324,0.013523,0.002678,0.000431,0.011283
10245000,0.0324,0.013523,0.002678,0.000431,0.012458
10246000,0.0324,0.013523,0.002678,0.000431,0.012928
10247000,0.0324,0.013523,0.002678,0.000431,0.012576
10248000,0.0324,0.013523,0.002678,0.000431,0.012458
10249000,0.0324,0.013523,0.002678,0.000431,0.013398
10250000,0.0324,0.013523,0.002678,0.000431,0.012223
10251000,0.0324,0.013523,0.002678,0.000431,0.011988
10252000,0.0324,0.013523,0.002678,0.000431,0.012693
10253000,0.0324,0.013523,0.002678,0.000431,0.012458
10254000,0.0324,0.013523,0.002678,0.000431,0.011988
10255000,0.0324,0.013523,0.002678,0.000431,0.012105
10256000,0.0324,0.013523,0.002678,0.000431,0.012340
10257000,0.0324,0.013523,0.002678,0.000431,0.012576
10258000,0.0324,0.013523,0.002678,0.000431,0.012693
10259000,0.0324,0.013523,0.002678,0.000431,0.012223
10260000,0.0324,0.013523,0.002678,0.000431,0.012223
10261000,0.0324,0.013523,0.002678,0.000431,0.012811
10262000,0.0324,0.013523,0.002678,0.000431,0.011400
10263000,0.0324,0.013523,0.002678,0.000431,0.012811
10264000,0.0324,0.013523,0.002678,0.000431,0.013281
10265000,0.0324,0.013523,0.002678,0.000431,0.011635
10266000,0.0324,0.013523,0.002678,0.000431,0.012223
10267000,0.0324,0.013523,0.002678,0.000431,0.011753
10268000,0.0324,0.013523,0.002678,0.000431,0.011988
10269000,0.0324,0.013523,0.002678,0.000431,0.011518
10270000,0.0324,0.013523,0.002678,0.000431,0.013868
10271000,0.0324,0.013523,0.002678,0.000431,0.013633
10272000,0.0324,0.013523,0.002678,0.000431,0.011165
10273000,0.0324,0.013523,0.002678,0.000431,0.012458
10274000,0.0324,0.013523,0.002678,0.000431,0.012928
10275000,0.0324,0.013523,0.002678,0.000431,0.012693
10276000,0.0324,0.013523,0.002678,0.000431,0.012223
10277000,0.0324,0.013523,0.002678,0.000431,0.013163
10278000,0.0324,0.013523,0.002678,0.000431,0.011635
10279000,0.0324,0.013523,0.002678,0.000431,0.013398
10280000,0.0324,0.013523,0.002678,0.000431,0.012576
10281000,0.0324,0.013523,0.002678,0.000431,0.012576
10282000,0.0324,0.013523,0.002678,0.000431,0.012340
10283000,0.0324,0.013523,0.002678,0.000431,0.013986
10284000,0.0324,0.013523,0.002678,0.000431,0.012693
10285000,0.0324,0.013523,0.002678,0.000431,0.012811
10286000,0.0324,0.013523,0.002678,0.000431,0.012340
10287000,0.0324,0.013523,0.002678,0.000431,0.012223
10288000,0.0324,0.013523,0.002678,0.000431,0.013868
10289000,0.0324,0.013523,0.002678,0.000431,0.012928
10290000,0.0324,0.013523,0.002678,0.000431,0.012811
10291000,0.0324,0.013523,0.002678,0.000431,0.012576
10292000,0.0324,0.013523,0.002678,0.000431,0.012576
10293000,0.0324,0.013523,0.002678,0.000431,0.012105
10294000,0.0324,0.013523,0.002678,0.000431,0.012105
10295000,0.0324,0.013523,0.002678,0.000431,0.012105
10296000,0.0324,0.013523,0.002678,0.000431,0.013046
10297000,0.0324,0.013523,0.002678,0.000431,0.012928
10298000,0.0324,0.013523,0.002678,0.000431,0.012105
10299000,0.0324,0.013523,0.002678,0.000431,0.012928
10300000,0.0324,0.013523,0.002678,0.000431,0.011988
10301000,0.0324,0.013523,0.002678,0.000431,0.011988
10302000,0.0324,0.013523,0.002678,0.000431,0.012693
10303000,0.0324,0.013523,0.002678,0.000431,0.012223
10304000,0.0324,0.013523,0.002678,0.000431,0.013751
10305000,0.0324,0.013523,0.002678,0.000431,0.013516
10306000,0.0324,0.013523,0.002678,0.000431,0.011165
10307000,0.0324,0.013523,0.002678,0.000431,0.011870
10308000,0.0324,0.013523,0.002678,0.000431,0.013281
10309000,0.0324,0.013523,0.002678,0.000431,0.013281
10310000,0.0324,0.013523,0.002678,0.000431,0.012928
10311000,0.0324,0.013523,0.002678,0.000431,0.013281
10312000,0.0324,0.013523,0.002678,0.000431,0.011518
10313000,0.0324,0.013523,0.002678,0.000431,0.012105
10314000,0.0324,0.013523,0.002678,0.000431,0.013516
10315000,0.0324,0.013523,0.002678,0.000431,0.012223
10316000,0.0324,0.013523,0.002678,0.000431,0.011635
10317000,0.0324,0.013523,0.002678,0.000431,0.014103
10318000,0.0324,0.013523,0.002678,0.000431,0.013163
10319000,0.0324,0.013523,0.002678,0.000431,0.012458
10320000,0.0324,0.013523,0.002678,0.000431,0.012105
10321000,0.0324,0.013523,0.002678,0.000431,0.013163
10322000,0.0324,0.013523,0.002678,0.000431,0.012458
10323000,0.0324,0.013523,0.002678,0.000431,0.012576
10324000,0.0324,0.013523,0.002678,0.000431,0.012693
10325000,0.0324,0.013523,0.002678,0.000431,0.012105
10326000,0.0324,0.013523,0.002678,0.000431,0.012340
10327000,0.0324,0.013523,0.002678,0.000431,0.013751
10328000,0.0324,0.013523,0.002678,0.000431,0.011518
10329000,0.0324,0.013523,0.002678,0.000431,0.012340
10330000,0.0324,0.013523,0.002678,0.000431,0.013281
10331000,0.0324,0.013523,0.002678,0.000431,0.012340
10332000,0.0324,0.013523,0.002678,0.000431,0.012811
10333000,0.0324,0.013523,0.002678,0.000431,0.012928
10334000,0.0324,0.013523,0.002678,0.000431,0.013516
10335000,0.0324,0.013523,0.002678,0.000431,0.011988
10336000,0.0324,0.013523,0.002678,0.000431,0.013046
10337000,0.0324,0.013523,0.002678,0.000431,0.013398
10338000,0.0324,0.013523,0.002678,0.000431,0.013046
10339000,0.0324,0.013523,0.002678,0.000431,0.013046
10340000,0.0324,0.013523,0.002678,0.000431,0.012576
10341000,0.0324,0.013523,0.002678,0.000431,0.013163
10342000,0.0324,0.013523,0.002678,0.000431,0.014103
10343000,0.0324,0.013523,0.002678,0.000431,0.013281
10344000,0.0324,0.013523,0.002678,0.000431,0.013398
10345000,0.0324,0.013523,0.002678,0.000431,0.013633
10346000,0.0324,0.013523,0.002678,0.000431,0.012458
10347000,0.0324,0.013523,0.002678,0.000431,0.013633
10348000,0.0324,0.013523,0.002678,0.000431,0.012693
10349000,0.0324,0.013523,0.002678,0.000431,0.012576
10350000,0.0324,0.013523,0.002678,0.000431,0.011400
10351000,0.0324,0.013523,0.002678,0.000431,0.012811
10352000,0.0324,0.013523,0.002678,0.000431,0.013281
10353000,0.0324,0.013523,0.002678,0.000431,0.012105
10354000,0.0324,0.013523,0.002678,0.000431,0.013751
10355000,0.0324,0.013523,0.002678,0.000431,0.013163
10356000,0.0324,0.013523,0.002678,0.000431,0.012458
10357000,0.0324,0.013523,0.002678,0.000431,0.013163
10358000,0.0324,0.013523,0.002678,0.000431,0.013163
10359000,0.0324,0.013523,0.002678,0.000431,0.012223
10360000,0.0324,0.013523,0.002678,0.000431,0.012223
10361000,0.0324,0.013523,0.002678,0.000431,0.013516
10362000,0.0324,0.013523,0.002678,0.000431,0.011870
10363000,0.0324,0.013523,0.002678,0.000431,0.012340
10364000,0.0324,0.013523,0.002678,0.000431,0.012811
10365000,0.0324,0.013523,0.002678,0.000431,0.013281
10366000,0.0324,0.013523,0.002678,0.000431,0.012340
10367000,0.0324,0.013523,0.002678,0.000431,0.012928
10368000,0.0324,0.013523,0.002678,0.000431,0.012458
10369000,0.0324,0.013523,0.002678,0.000431,0.011048
10370000,0.0324,0.013523,0.002678,0.000431,0.012458
10371000,0.0324,0.013523,0.002678,0.000431,0.012576
10372000,0.0324,0.013523,0.002678,0.000431,0.013398
10373000,0.0324,0.013523,0.002678,0.000431,0.013046
10374000,0.0324,0.013523,0.002678,0.000431,0.012693
10375000,0.0324,0.013523,0.002678,0.000431,0.012223
10376000,0.0324,0.013523,0.002678,0.000431,0.013046
10377000,0.0324,0.013523,0.002678,0.000431,0.011988
10378000,0.0324,0.013523,0.002678,0.000431,0.011870
10379000,0.0324,0.013523,0.002678,0.000431,0.013046
10380000,0.0324,0.013523,0.002678,0.000431,0.012928
10381000,0.0324,0.013523,0.002678,0.000431,0.012223
10382000,0.0324,0.013523,0.002678,0.000431,0.012811
10383000,0.0324,0.013523,0.002678,0.000431,0.013046
10384000,0.0324,0.013523,0.002678,0.000431,0.011635
10385000,0.0324,0.013523,0.002678,0.000431,0.013633
10386000,0.0324,0.013523,0.002678,0.000431,0.012693
10387000,0.0324,0.013523,0.002678,0.000431,0.011400
10388000,0.0324,0.013523,0.002678,0.000431,0.012458
10389000,0.0324,0.013523,0.002678,0.000431,0.012458
10390000,0.0324,0.013523,0.002678,0.000431,0.011988
10391000,0.0324,0.013523,0.002678,0.000431,0.012693
10392000,0.0324,0.013523,0.002678,0.000431,0.014103
10393000,0.0324,0.013523,0.002678,0.000431,0.012340
10394000,0.0324,0.013523,0.002678,0.000431,0.012458
10395000,0.0324,0.013523,0.002678,0.000431,0.011635
10396000,0.0324,0.013523,0.002678,0.000431,0.013281
10397000,0.0324,0.013523,0.002678,0.000431,0.012576
10398000,0.0324,0.013523,0.002678,0.000431,0.012458
10399000,0.0324,0.013523,0.002678,0.000431,0.012340
10400000,0.0324,0.013523,0.002678,0.000431,0.012693
10401000,0.0324,0.013523,0.002678,0.000431,0.013633
10402000,0.0324,0.013523,0.002678,0.000431,0.012811
10403000,0.0324,0.013523,0.002678,0.000431,0.012223
10404000,0.0324,0.013523,0.002678,0.000431,0.012105
10405000,0.0324,0.013523,0.002678,0.000431,0.012458
10406000,0.0324,0.013523,0.002678,0.000431,0.013281
10407000,0.0324,0.013523,0.002678,0.000431,0.012693
10408000,0.0324,0.013523,0.002678,0.000431,0.011283
10409000,0.0324,0.013523,0.002678,0.000431,0.013281
10410000,0.0324,0.013523,0.002678,0.000431,0.012693
10411000,0.0324,0.013523,0.002678,0.000431,0.011988
10412000,0.0324,0.013523,0.002678,0.000431,0.011635
10413000,0.0324,0.013523,0.002678,0.000431,0.013868
10414000,0.0324,0.013523,0.002678,0.000431,0.011518
10415000,0.0324,0.013523,0.002678,0.000431,0.011635
10416000,0.0324,0.013523,0.002678,0.000431,0.013046
10417000,0.0324,0.013523,0.002678,0.000431,0.011518
10418000,0.0324,0.013523,0.002678,0.000431,0.012105
10419000,0.0324,0.013523,0.002678,0.000431,0.013163
10420000,0.0324,0.013523,0.002678,0.000431,0.012811
10421000,0.0324,0.013523,0.002678,0.000431,0.012223
10422000,0.0324,0.013523,0.002678,0.000431,0.013398
10423000,0.0324,0.013523,0.002678,0.000431,0.012340
10424000,0.0324,0.013523,0.002678,0.000431,0.011283
10425000,0.0324,0.013523,0.002678,0.000431,0.012811
10426000,0.0324,0.013523,0.002678,0.000431,0.012928
10427000,0.0324,0.013523,0.002678,0.000431,0.011870
10428000,0.0324,0.013523,0.002678,0.000431,0.013163
10429000,0.0324,0.013523,0.002678,0.000431,0.011753
10430000,0.0324,0.013523,0.002678,0.000431,0.012458
10431000,0.0324,0.013523,0.002678,0.000431,0.011400
10432000,0.0324,0.013523,0.002678,0.000431,0.012458
10433000,0.0324,0.013523,0.002678,0.000431,0.012928
10434000,0.0324,0.013523,0.002678,0.000431,0.011635
10435000,0.0324,0.013523,0.002678,0.000431,0.013046
10436000,0.0324,0.013523,0.002678,0.000431,0.012576
10437000,0.0324,0.013523,0.002678,0.000431,0.011870
10438000,0.0324,0.013523,0.002678,0.000431,0.012223
10439000,0.0324,0.013523,0.002678,0.000431,0.012811
10440000,0.0324,0.013523,0.002678,0.000431,0.011753
10441000,0.0324,0.013523,0.002678,0.000431,0.011400
10442000,0.0324,0.013523,0.002678,0.000431,0.012458
10443000,0.0324,0.013523,0.002678,0.000431,0.011635
10444000,0.0324,0.013523,0.002678,0.000431,0.012693
10445000,0.0324,0.013523,0.002678,0.000431,0.012105
10446000,0.0324,0.013523,0.002678,0.000431,0.012223
10447000,0.0324,0.013523,0.002678,0.000431,0.013281
10448000,0.0324,0.013523,0.002678,0.000431,0.012223
10449000,0.0324,0.013523,0.002678,0.000431,0.012576
10450000,0.0324,0.013523,0.002678,0.000431,0.012811
10451000,0.0324,0.013523,0.002678,0.000431,0.013281
10452000,0.0324,0.013523,0.002678,0.000431,0.011870
10453000,0.0324,0.013523,0.002678,0.000431,0.013398
10454000,0.0324,0.013523,0.002678,0.000431,0.012458
10455000,0.0324,0.013523,0.002678,0.000431,0.012576
10456000,0.0324,0.013523,0.002678,0.000431,0.012223
10457000,0.0324,0.013523,0.002678,0.000431,0.013633
10458000,0.0324,0.013523,0.002678,0.000431,0.011635
10459000,0.0324,0.013523,0.002678,0.000431,0.012458
10460000,0.0324,0.013523,0.002678,0.000431,0.011870
10461000,0.0324,0.013523,0.002678,0.000431,0.013046
10462000,0.0324,0.013523,0.002678,0.000431,0.012576
10463000,0.0324,0.013523,0.002678,0.000431,0.013163
10464000,0.0324,0.013523,0.002678,0.000431,0.011165
10465000,0.0324,0.013523,0.002678,0.000431,0.012223
10466000,0.0324,0.013523,0.002678,0.000431,0.012576
10467000,0.0324,0.013523,0.002678,0.000431,0.012928
10468000,0.0324,0.013523,0.002678,0.000431,0.011518
10469000,0.0324,0.013523,0.002678,0.000431,0.011635
10470000,0.0324,0.013523,0.002678,0.000431,0.013046
10471000,0.0324,0.013523,0.002678,0.000431,0.011988
10472000,0.0324,0.013523,0.002678,0.000431,0.011635
10473000,0.0324,0.013523,0.002678,0.000431,0.013516
10474000,0.0324,0.013523,0.002678,0.000431,0.011753
10475000,0.0324,0.013523,0.002678,0.000431,0.012576
10476000,0.0324,0.013523,0.002678,0.000431,0.013163
10477000,0.0324,0.013523,0.002678,0.000431,0.011753
10478000,0.0324,0.013523,0.002678,0.000431,0.013281
10479000,0.0324,0.013523,0.002678,0.000431,0.013046
10480000,0.0324,0.013523,0.002678,0.000431,0.012340
10481000,0.0324,0.013523,0.002678,0.000431,0.012576
10482000,0.0324,0.013523,0.002678,0.000431,0.011870
10483000,0.0324,0.013523,0.002678,0.000431,0.013046
10484000,0.0324,0.013523,0.002678,0.000431,0.012223
10485000,0.0324,0.013523,0.002678,0.000431,0.013163
10486000,0.0324,0.013523,0.002678,0.000431,0.012105
10487000,0.0324,0.013523,0.002678,0.000431,0.012105
10488000,0.0324,0.013523,0.002678,0.000431,0.012811
10489000,0.0324,0.013523,0.002678,0.000431,0.012928
10490000,0.0324,0.013523,0.002678,0.000431,0.012576
10491000,0.0324,0.013523,0.002678,0.000431,0.014103
10492000,0.0324,0.013523,0.002678,0.000431,0.013163
10493000,0.0324,0.013523,0.002678,0.000431,0.011283
10494000,0.0324,0.013523,0.002678,0.000431,0.013163
10495000,0.0324,0.013523,0.002678,0.000431,0.013281
10496000,0.0324,0.013523,0.002678,0.000431,0.011400
10497000,0.0324,0.013523,0.002678,0.000431,0.013046
10498000,0.0324,0.013523,0.002678,0.000431,0.012811
10499000,0.0324,0.013523,0.002678,0.000431,0.011635
10500000,0.0324,0.013523,0.002678,0.000431,0.011635
10501000,0.0324,0.013523,0.002678,0.000431,0.013868
10502000,0.0324,0.013523,0.002678,0.000431,0.012105
10503000,0.0324,0.013523,0.002678,0.000431,0.011753
10504000,0.0324,0.013523,0.002678,0.000431,0.013751
10505000,0.0324,0.013523,0.002678,0.000431,0.013398
10506000,0.0324,0.013523,0.002678,0.000431,0.011870
10507000,0.0324,0.013523,0.002678,0.000431,0.013398
10508000,0.0324,0.013523,0.002678,0.000431,0.011988
10509000,0.0324,0.013523,0.002678,0.000431,0.011753
10510000,0.0324,0.013523,0.002678,0.000431,0.011753
10511000,0.0324,0.013523,0.002678,0.000431,0.012576
10512000,0.0324,0.013523,0.002678,0.000431,0.011518
10513000,0.0324,0.013523,0.002678,0.000431,0.013751
10514000,0.0324,0.013523,0.002678,0.000431,0.012223
10515000,0.0324,0.013523,0.002678,0.000431,0.012693
10516000,0.0324,0.013523,0.002678,0.000431,0.012576
10517000,0.0324,0.013523,0.002678,0.000431,0.012223
10518000,0.0324,0.013523,0.002678,0.000431,0.012811
10519000,0.0324,0.013523,0.002678,0.000431,0.013986
10520000,0.0324,0.013523,0.002678,0.000431,0.011048
10521000,0.0324,0.013523,0.002678,0.000431,0.012105
10522000,0.0324,0.013523,0.002678,0.000431,0.013398
10523000,0.0324,0.013523,0.002678,0.000431,0.012811
10524000,0.0324,0.013523,0.002678,0.000431,0.012693
10525000,0.0324,0.013523,0.002678,0.000431,0.012693
10526000,0.0324,0.013523,0.002678,0.000431,0.014338
10527000,0.0324,0.013523,0.002678,0.000431,0.011753
10528000,0.0324,0.013523,0.002678,0.000431,0.012928
10529000,0.0324,0.013523,0.002678,0.000431,0.011988
10530000,0.0324,0.013523,0.002678,0.000431,0.013046
10531000,0.0324,0.013523,0.002678,0.000431,0.013163
10532000,0.0324,0.013523,0.002678,0.000431,0.012811
10533000,0.0324,0.013523,0.002678,0.000431,0.011988
10534000,0.0324,0.013523,0.002678,0.000431,0.012693
10535000,0.0324,0.013523,0.002678,0.000431,0.012928
10536000,0.0324,0.013523,0.002678,0.000431,0.012458
10537000,0.0324,0.013523,0.002678,0.000431,0.012693
10538000,0.0324,0.013523,0.002678,0.000431,0.012105
10539000,0.0324,0.013523,0.002678,0.000431,0.011870
10540000,0.0324,0.013523,0.002678,0.000431,0.013281
10541000,0.0324,0.013523,0.002678,0.000431,0.013163
10542000,0.0324,0.013523,0.002678,0.000431,0.013163
10543000,0.0324,0.013523,0.002678,0.000431,0.013163
10544000,0.0324,0.013523,0.002678,0.000431,0.013046
10545000,0.0324,0.013523,0.002678,0.000431,0.011753
10546000,0.0324,0.013523,0.002678,0.000431,0.012576
10547000,0.0324,0.013523,0.002678,0.000431,0.012811
10548000,0.0324,0.013523,0.002678,0.000431,0.013398
10549000,0.0324,0.013523,0.002678,0.000431,0.011988
10550000,0.0324,0.013523,0.002678,0.000431,0.012928
10551000,0.0324,0.013523,0.002678,0.000431,0.013281
10552000,0.0324,0.013523,0.002678,0.000431,0.012928
10553000,0.0324,0.013523,0.002678,0.000431,0.012693
10554000,0.0324,0.013523,0.002678,0.000431,0.011400
10555000,0.0324,0.013523,0.002678,0.000431,0.012811
10556000,0.0324,0.013523,0.002678,0.000431,0.014221
10557000,0.0324,0.013523,0.002678,0.000431,0.011753
10558000,0.0324,0.013523,0.002678,0.000431,0.012811
10559000,0.0324,0.013523,0.002678,0.000431,0.012811
10560000,0.0324,0.013523,0.002678,0.000431,0.013868
10561000,0.0324,0.013523,0.002678,0.000431,0.012340
10562000,0.0324,0.013523,0.002678,0.000431,0.013281
10563000,0.0324,0.013523,0.002678,0.000431,0.011400
10564000,0.0324,0.013523,0.002678,0.000431,0.013281
10565000,0.0324,0.013523,0.002678,0.000431,0.012811
10566000,0.0324,0.013523,0.002678,0.000431,0.012340
10567000,0.0324,0.013523,0.002678,0.000431,0.011165
10568000,0.0324,0.013523,0.002678,0.000431,0.013868
10569000,0.0324,0.013523,0.002678,0.000431,0.013163
10570000,0.0324,0.013523,0.002678,0.000431,0.011518
10571000,0.0324,0.013523,0.002678,0.000431,0.013281
10572000,0.0324,0.013523,0.002678,0.000431,0.012811
10573000,0.0324,0.013523,0.002678,0.000431,0.012576
10574000,0.0324,0.013523,0.002678,0.000431,0.012458
10575000,0.0324,0.013523,0.002678,0.000431,0.012693
10576000,0.0324,0.013523,0.002678,0.000431,0.011753
10577000,0.0324,0.013523,0.002678,0.000431,0.013633
10578000,0.0324,0.013523,0.002678,0.000431,0.012105
10579000,0.0324,0.013523,0.002678,0.000431,0.012693
10580000,0.0324,0.013523,0.002678,0.000431,0.012693
10581000,0.0324,0.013523,0.002678,0.000431,0.013751
10582000,0.0324,0.013523,0.002678,0.000431,0.012223
10583000,0.0324,0.013523,0.002678,0.000431,0.012458
10584000,0.0324,0.013523,0.002678,0.000431,0.013516
10585000,0.0324,0.013523,0.002678,0.000431,0.011753
10586000,0.0324,0.013523,0.002678,0.000431,0.014221
10587000,0.0324,0.013523,0.002678,0.000431,0.011988
10588000,0.0324,0.013523,0.002678,0.000431,0.011635
10589000,0.0324,0.013523,0.002678,0.000431,0.012693
10590000,0.0324,0.013523,0.002678,0.000431,0.012928
10591000,0.0324,0.013523,0.002678,0.000431,0.012576
10592000,0.0324,0.013523,0.002678,0.000431,0.012223
10593000,0.0324,0.013523,0.002678,0.000431,0.013751
10594000,0.0324,0.013523,0.002678,0.000431,0.012458
10595000,0.0324,0.013523,0.002678,0.000431,0.011518
10596000,0.0324,0.013523,0.002678,0.000431,0.013163
10597000,0.0324,0.013523,0.002678,0.000431,0.012105
10598000,0.0324,0.013523,0.002678,0.000431,0.012928
10599000,0.0324,0.013523,0.002678,0.000431,0.013046
10600000,0.0324,0.013523,0.002678,0.000431,0.013516
10601000,0.0324,0.013523,0.002678,0.000431,0.012340
10602000,0.0324,0.013523,0.002678,0.000431,0.012928
10603000,0.0324,0.013523,0.002678,0.000431,0.012811
10604000,0.0324,0.013523,0.002678,0.000431,0.012576
10605000,0.0324,0.013523,0.002678,0.000431,0.011518
10606000,0.0324,0.013523,0.002678,0.000431,0.012928
10607000,0.0324,0.013523,0.002678,0.000431,0.013398
10608000,0.0324,0.013523,0.002678,0.000431,0.011400
10609000,0.0324,0.013523,0.002678,0.000431,0.012105
10610000,0.0324,0.013523,0.002678,0.000431,0.012105
10611000,0.0324,0.013523,0.002678,0.000431,0.012223
10612000,0.0324,0.013523,0.002678,0.000431,0.011165
10613000,0.0324,0.013523,0.002678,0.000431,0.012576
10614000,0.0324,0.013523,0.002678,0.000431,0.011988
10615000,0.0324,0.013523,0.002678,0.000431,0.010813
10616000,0.0324,0.013523,0.002678,0.000431,0.012105
10617000,0.0324,0.013523,0.002678,0.000431,0.012105
10618000,0.0324,0.013523,0.002678,0.000431,0.012693
10619000,0.0324,0.013523,0.002678,0.000431,0.012693
10620000,0.0324,0.013523,0.002678,0.000431,0.013046
10621000,0.0324,0.013523,0.002678,0.000431,0.011283
10622000,0.0324,0.013523,0.002678,0.000431,0.011518
10623000,0.0324,0.013523,0.002678,0.000431,0.012576
10624000,0.0324,0.013523,0.002678,0.000431,0.013046
10625000,0.0324,0.013523,0.002678,0.000431,0.012458
10626000,0.0324,0.013523,0.002678,0.000431,0.011870
10627000,0.0324,0.013523,0.002678,0.000431,0.011753
10628000,0.0324,0.013523,0.002678,0.000431,0.011988
10629000,0.0324,0.013523,0.002678,0.000431,0.011988
10630000,0.0324,0.013523,0.002678,0.000431,0.012105
10631000,0.0324,0.013523,0.002678,0.000431,0.012693
10632000,0.0324,0.013523,0.002678,0.000431,0.012811
10633000,0.0324,0.013523,0.002678,0.000431,0.012928
10634000,0.0324,0.013523,0.002678,0.000431,0.011518
10635000,0.0324,0.013523,0.002678,0.000431,0.013046
10636000,0.0324,0.013523,0.002678,0.000431,0.011518
10637000,0.0324,0.013523,0.002678,0.000431,0.012811
10638000,0.0324,0.013523,0.002678,0.000431,0.012576
10639000,0.0324,0.013523,0.002678,0.000431,0.011165
10640000,0.0324,0.013523,0.002678,0.000431,0.011400
10641000,0.0324,0.013523,0.002678,0.000431,0.012340
10642000,0.0324,0.013523,0.002678,0.000431,0.011870
10643000,0.0324,0.013523,0.002678,0.000431,0.011048
10644000,0.0324,0.013523,0.002678,0.000431,0.013398
10645000,0.0324,0.013523,0.002678,0.000431,0.010813
10646000,0.0324,0.013523,0.002678,0.000431,0.010930
10647000,0.0324,0.013523,0.002678,0.000431,0.012223
10648000,0.0324,0.013523,0.002678,0.000431,0.011400
10649000,0.0324,0.013523,0.002678,0.000431,0.010930
10650000,0.0324,0.013523,0.002678,0.000431,0.012458
10651000,0.0324,0.013523,0.002678,0.000431,0.010813
10652000,0.0324,0.013523,0.002678,0.000431,0.010578
10653000,0.0324,0.013523,0.002678,0.000431,0.012105
10654000,0.0324,0.013523,0.002678,0.000431,0.012928
10655000,0.0324,0.013523,0.002678,0.000431,0.012105
10656000,0.0324,0.013523,0.002678,0.000431,0.010578
10657000,0.0324,0.013523,0.002678,0.000431,0.012223
10658000,0.0324,0.013523,0.002678,0.000431,0.010695
10659000,0.0324,0.013523,0.002678,0.000431,0.010813
10660000,0.0324,0.013523,0.002678,0.000431,0.011400
10661000,0.0324,0.013523,0.002678,0.000431,0.010930
10662000,0.0324,0.013523,0.002678,0.000431,0.010107
10663000,0.0324,0.013523,0.002678,0.000431,0.012928
10664000,0.0324,0.013523,0.002678,0.000431,0.010460
10665000,0.0324,0.013523,0.002678,0.000431,0.012223
10666000,0.0324,0.013523,0.002678,0.000431,0.011400
10667000,0.0324,0.013523,0.002678,0.000431,0.010813
10668000,0.0324,0.013523,0.002678,0.000431,0.011283
10669000,0.0324,0.013523,0.002678,0.000431,0.010930
10670000,0.0324,0.013523,0.002678,0.000431,0.012223
10671000,0.0324,0.013523,0.002678,0.000431,0.011283
10672000,0.0324,0.013523,0.002678,0.000431,0.013046
10673000,0.0324,0.013523,0.002678,0.000431,0.011400
10674000,0.0324,0.013523,0.002678,0.000431,0.011518
10675000,0.0324,0.013523,0.002678,0.000431,0.011518
10676000,0.0324,0.013523,0.002678,0.000431,0.011518
10677000,0.0324,0.013523,0.002678,0.000431,0.011283
10678000,0.0324,0.013523,0.002678,0.000431,0.011635
10679000,0.0324,0.013523,0.002678,0.000431,0.010930
10680000,0.0324,0.013523,0.002678,0.000431,0.012223
10681000,0.0324,0.013523,0.002678,0.000431,0.011283
10682000,0.0324,0.013523,0.002678,0.000431,0.011753
10683000,0.0324,0.013523,0.002678,0.000431,0.010578
10684000,0.0324,0.013523,0.002678,0.000431,0.012340
10685000,0.0324,0.013523,0.002678,0.000431,0.011870
10686000,0.0324,0.013523,0.002678,0.000431,0.010460
10687000,0.0324,0.013523,0.002678,0.000431,0.011518
10688000,0.0324,0.013523,0.002678,0.000431,0.011753
10689000,0.0324,0.013523,0.002678,0.000431,0.009990
10690000,0.0324,0.013523,0.002678,0.000431,0.011870
10691000,0.0324,0.013523,0.002678,0.000431,0.011518
10692000,0.0324,0.013523,0.002678,0.000431,0.011283
10693000,0.0324,0.013523,0.002678,0.000431,0.012223
10694000,0.0324,0.013523,0.002678,0.000431,0.010578
10695000,0.0324,0.013523,0.002678,0.000431,0.011048
10696000,0.0324,0.013523,0.002678,0.000431,0.011518
10697000,0.0324,0.013523,0.002678,0.000431,0.011635
10698000,0.0324,0.013523,0.002678,0.000431,0.010813
10699000,0.0324,0.013523,0.002678,0.000431,0.010930
10700000,0.0324,0.013523,0.002678,0.000431,0.010930
10701000,0.0324,0.013523,0.002678,0.000431,0.011635
10702000,0.0324,0.013523,0.002678,0.000431,0.012458
10703000,0.0324,0.013523,0.002678,0.000431,0.010460
10704000,0.0324,0.013523,0.002678,0.000431,0.011400
10705000,0.0324,0.013523,0.002678,0.000431,0.011048
10706000,0.0324,0.013523,0.002678,0.000431,0.011635
10707000,0.0324,0.013523,0.002678,0.000431,0.011518
10708000,0.0324,0.013523,0.002678,0.000431,0.010460
10709000,0.0324,0.013523,0.002678,0.000431,0.011635
10710000,0.0324,0.013523,0.002678,0.000431,0.011870
10711000,0.0324,0.013523,0.002678,0.000431,0.011753
10712000,0.0324,0.013523,0.002678,0.000431,0.011870
10713000,0.0324,0.013523,0.002678,0.000431,0.011635
10714000,0.0324,0.013523,0.002678,0.000431,0.011283
10715000,0.0324,0.013523,0.002678,0.000431,0.010695
10716000,0.0324,0.013523,0.002678,0.000431,0.012576
10717000,0.0324,0.013523,0.002678,0.000431,0.010107
10718000,0.0324,0.013523,0.002678,0.000431,0.010813
10719000,0.0324,0.013523,0.002678,0.000431,0.011518
10720000,0.0324,0.013523,0.002678,0.000431,0.012105
10721000,0.0324,0.013523,0.002678,0.000431,0.010107
10722000,0.0324,0.013523,0.002678,0.000431,0.011870
10723000,0.0324,0.013523,0.002678,0.000431,0.011165
10724000,0.0324,0.013523,0.002678,0.000431,0.011048
10725000,0.0324,0.013523,0.002678,0.000431,0.011635
10726000,0.0324,0.013523,0.002678,0.000431,0.012105
10727000,0.0324,0.013523,0.002678,0.000431,0.011048
10728000,0.0324,0.013523,0.002678,0.000431,0.011635
10729000,0.0324,0.013523,0.002678,0.000431,0.012105
10730000,0.0324,0.013523,0.002678,0.000431,0.010813
10731000,0.0324,0.013523,0.002678,0.000431,0.011400
10732000,0.0324,0.013523,0.002678,0.000431,0.012928
10733000,0.0324,0.013523,0.002678,0.000431,0.010460
10734000,0.0324,0.013523,0.002678,0.000431,0.011165
10735000,0.0324,0.013523,0.002678,0.000431,0.012811
10736000,0.0324,0.013523,0.002678,0.000431,0.011753
10737000,0.0324,0.013523,0.002678,0.000431,0.011048
10738000,0.0324,0.013523,0.002678,0.000431,0.012693
10739000,0.0324,0.013523,0.002678,0.000431,0.010813
10740000,0.0324,0.013523,0.002678,0.000431,0.011283
10741000,0.0324,0.013523,0.002678,0.000431,0.012693
10742000,0.0324,0.013523,0.002678,0.000431,0.010578
10743000,0.0324,0.013523,0.002678,0.000431,0.010930
10744000,0.0324,0.013523,0.002678,0.000431,0.011870
10745000,0.0324,0.013523,0.002678,0.000431,0.011048
10746000,0.0324,0.013523,0.002678,0.000431,0.010813
10747000,0.0324,0.013523,0.002678,0.000431,0.011753
10748000,0.0324,0.013523,0.002678,0.000431,0.011518
10749000,0.0324,0.013523,0.002678,0.000431,0.011988
10750000,0.0324,0.013523,0.002678,0.000431,0.011048
10751000,0.0324,0.013523,0.002678,0.000431,0.011048
10752000,0.0324,0.013523,0.002678,0.000431,0.011635
10753000,0.0324,0.013523,0.002678,0.000431,0.010578
10754000,0.0324,0.013523,0.002678,0.000431,0.011753
10755000,0.0324,0.013523,0.002678,0.000431,0.011400
10756000,0.0324,0.013523,0.002678,0.000431,0.011518
10757000,0.0324,0.013523,0.002678,0.000431,0.011988
10758000,0.0324,0.013523,0.002678,0.000431,0.011048
10759000,0.0324,0.013523,0.002678,0.000431,0.011400
10760000,0.0324,0.013523,0.002678,0.000431,0.011400
10761000,0.0324,0.013523,0.002678,0.000431,0.011635
10762000,0.0324,0.013523,0.002678,0.000431,0.010695
10763000,0.0324,0.013523,0.002678,0.000431,0.011518
10764000,0.0324,0.013523,0.002678,0.000431,0.011753
10765000,0.0324,0.013523,0.002678,0.000431,0.011518
10766000,0.0324,0.013523,0.002678,0.000431,0.011635
10767000,0.0324,0.013523,0.002678,0.000431,0.010930
10768000,0.0324,0.013523,0.002678,0.000431,0.010578
10769000,0.0324,0.013523,0.002678,0.000431,0.011753
10770000,0.0324,0.013523,0.002678,0.000431,0.011165
10771000,0.0324,0.013523,0.002678,0.000431,0.011048
10772000,0.0324,0.013523,0.002678,0.000431,0.011753
10773000,0.0324,0.013523,0.002678,0.000431,0.011870
10774000,0.0324,0.013523,0.002678,0.000431,0.011283
10775000,0.0324,0.013523,0.002678,0.000431,0.011635
10776000,0.0324,0.013523,0.002678,0.000431,0.009872
10777000,0.0324,0.013523,0.002678,0.000431,0.010578
10778000,0.0324,0.013523,0.002678,0.000431,0.010342
10779000,0.0324,0.013523,0.002678,0.000431,0.010460
10780000,0.0324,0.013523,0.002678,0.000431,0.010578
10781000,0.0324,0.013523,0.002678,0.000431,0.011635
10782000,0.0324,0.013523,0.002678,0.000431,0.009872
10783000,0.0324,0.013523,0.002678,0.000431,0.010460
10784000,0.0324,0.013523,0.002678,0.000431,0.010225
10785000,0.0324,0.013523,0.002678,0.000431,0.011048
10786000,0.0324,0.013523,0.002678,0.000431,0.009167
10787000,0.0324,0.013523,0.002678,0.000431,0.010930
10788000,0.0324,0.013523,0.002678,0.000431,0.011165
10789000,0.0324,0.013523,0.002678,0.000431,0.010342
10790000,0.0324,0.013523,0.002678,0.000431,0.010578
10791000,0.0324,0.013523,0.002678,0.000431,0.011870
10792000,0.0324,0.013523,0.002678,0.000431,0.010342
10793000,0.0324,0.013523,0.002678,0.000431,0.010342
10794000,0.0324,0.013523,0.002678,0.000431,0.011753
10795000,0.0324,0.013523,0.002678,0.000431,0.010460
10796000,0.0324,0.013523,0.002678,0.000431,0.010578
10797000,0.0324,0.013523,0.002678,0.000431,0.011518
10798000,0.0324,0.013523,0.002678,0.000431,0.010930
10799000,0.0324,0.013523,0.002678,0.000431,0.009285
10800000,0.0324,0.013523,0.002678,0.000431,0.010695
10801000,0.0324,0.013523,0.002678,0.000431,0.008932
10802000,0.0324,0.013523,0.002678,0.000431,0.010225
10803000,0.0324,0.013523,0.002678,0.000431,0.009755
10804000,0.0324,0.013523,0.002678,0.000431,0.011635
10805000,0.0324,0.013523,0.002678,0.000431,0.010813
10806000,0.0324,0.013523,0.002678,0.000431,0.011283
10807000,0.0324,0.013523,0.002678,0.000431,0.011753
10808000,0.0324,0.013523,0.002678,0.000431,0.010578
10809000,0.0324,0.013523,0.002678,0.000431,0.009872
10810000,0.0324,0.013523,0.002678,0.000431,0.011165
10811000,0.0324,0.013523,0.002678,0.000431,0.009755
10812000,0.0324,0.013523,0.002678,0.000431,0.011165
10813000,0.0324,0.013523,0.002678,0.000431,0.010695
10814000,0.0324,0.013523,0.002678,0.000431,0.010930
10815000,0.0324,0.013523,0.002678,0.000431,0.010695
10816000,0.0324,0.013523,0.002678,0.000431,0.011165
10817000,0.0324,0.013523,0.002678,0.000431,0.010578
10818000,0.0324,0.013523,0.002678,0.000431,0.009872
10819000,0.0324,0.013523,0.002678,0.000431,0.010342
10820000,0.0324,0.013523,0.002678,0.000431,0.011518
10821000,0.0324,0.013523,0.002678,0.000431,0.010813
10822000,0.0324,0.013523,0.002678,0.000431,0.010107
10823000,0.0324,0.013523,0.002678,0.000431,0.010695
10824000,0.0324,0.013523,0.002678,0.000431,0.011635
10825000,0.0324,0.013523,0.002678,0.000431,0.011165
10826000,0.0324,0.013523,0.002678,0.000431,0.010695
10827000,0.0324,0.013523,0.002678,0.000431,0.009990
10828000,0.0324,0.013523,0.002678,0.000431,0.010578
10829000,0.0324,0.013523,0.002678,0.000431,0.011988
10830000,0.0324,0.013523,0.002678,0.000431,0.009990
10831000,0.0324,0.013523,0.002678,0.000431,0.009520
10832000,0.0324,0.013523,0.002678,0.000431,0.009990
10833000,0.0324,0.013523,0.002678,0.000431,0.011283
10834000,0.0324,0.013523,0.002678,0.000431,0.008932
10835000,0.0324,0.013523,0.002678,0.000431,0.009990
10836000,0.0324,0.013523,0.002678,0.000431,0.010225
10837000,0.0324,0.013523,0.002678,0.000431,0.009755
10838000,0.0324,0.013523,0.002678,0.000431,0.010107
10839000,0.0324,0.013523,0.002678,0.000431,0.008932
10840000,0.0324,0.013523,0.002678,0.000431,0.010460
10841000,0.0324,0.013523,0.002678,0.000431,0.010225
10842000,0.0324,0.013523,0.002678,0.000431,0.010695
10843000,0.0324,0.013523,0.002678,0.000431,0.010107
10844000,0.0324,0.013523,0.002678,0.000431,0.009520
10845000,0.0324,0.013523,0.002678,0.000431,0.010342
10846000,0.0324,0.013523,0.002678,0.000431,0.010695
10847000,0.0324,0.013523,0.002678,0.000431,0.009402
10848000,0.0324,0.013523,0.002678,0.000431,0.010578
10849000,0.0324,0.013523,0.002678,0.000431,0.010342
10850000,0.0324,0.013523,0.002678,0.000431,0.009755
10851000,0.0324,0.013523,0.002678,0.000431,0.009637
10852000,0.0324,0.013523,0.002678,0.000431,0.009990
10853000,0.0324,0.013523,0.002678,0.000431,0.010107
10854000,0.0324,0.013523,0.002678,0.000431,0.010107
10855000,0.0324,0.013523,0.002678,0.000431,0.011165
10856000,0.0324,0.013523,0.002678,0.000431,0.008345
10857000,0.0324,0.013523,0.002678,0.000431,0.010695
10858000,0.0324,0.013523,0.002678,0.000431,0.010813
10859000,0.0324,0.013523,0.002678,0.000431,0.010107
10860000,0.0324,0.013523,0.002678,0.000431,0.009520
10861000,0.0324,0.013523,0.002678,0.000431,0.010695
10862000,0.0324,0.013523,0.002678,0.000431,0.009990
10863000,0.0324,0.013523,0.002678,0.000431,0.009990
10864000,0.0324,0.013523,0.002678,0.000431,0.010225
10865000,0.0324,0.013523,0.002678,0.000431,0.010460
10866000,0.0324,0.013523,0.002678,0.000431,0.010342
10867000,0.0324,0.013523,0.002678,0.000431,0.009990
10868000,0.0324,0.013523,0.002678,0.000431,0.009402
10869000,0.0324,0.013523,0.002678,0.000431,0.009990
10870000,0.0324,0.013523,0.002678,0.000431,0.009520
10871000,0.0324,0.013523,0.002678,0.000431,0.010460
10872000,0.0324,0.013523,0.002678,0.000431,0.009637
10873000,0.0324,0.013523,0.002678,0.000431,0.009167
10874000,0.0324,0.013523,0.002678,0.000431,0.010107
10875000,0.0324,0.013523,0.002678,0.000431,0.010107
10876000,0.0324,0.013523,0.002678,0.000431,0.009167
10877000,0.0324,0.013523,0.002678,0.000431,0.009755
10878000,0.0324,0.013523,0.002678,0.000431,0.009637
10879000,0.0324,0.013523,0.002678,0.000431,0.009402
10880000,0.0324,0.013523,0.002678,0.000431,0.010813
10881000,0.0324,0.013523,0.002678,0.000431,0.010107
10882000,0.0324,0.013523,0.002678,0.000431,0.009520
10883000,0.0324,0.013523,0.002678,0.000431,0.010460
10884000,0.0324,0.013523,0.002678,0.000431,0.009167
10885000,0.0324,0.013523,0.002678,0.000431,0.009637
10886000,0.0324,0.013523,0.002678,0.000431,0.009755
10887000,0.0324,0.013523,0.002678,0.000431,0.010460
10888000,0.0324,0.013523,0.002678,0.000431,0.009990
10889000,0.0324,0.013523,0.002678,0.000431,0.011048
10890000,0.0324,0.013523,0.002678,0.000431,0.009755
10891000,0.0324,0.013523,0.002678,0.000431,0.008815
10892000,0.0324,0.013523,0.002678,0.000431,0.009637
10893000,0.0324,0.013523,0.002678,0.000431,0.009167
10894000,0.0324,0.013523,0.002678,0.000431,0.009050
10895000,0.0324,0.013523,0.002678,0.000431,0.009990
10896000,0.0324,0.013523,0.002678,0.000431,0.009990
10897000,0.0324,0.013523,0.002678,0.000431,0.009285
10898000,0.0324,0.013523,0.002678,0.000431,0.009990
10899000,0.0324,0.013523,0.002678,0.000431,0.009637
10900000,0.0324,0.013523,0.002678,0.000431,0.009520
10901000,0.0324,0.013523,0.002678,0.000431,0.010107
10902000,0.0324,0.013523,0.002678,0.000431,0.009872
10903000,0.0324,0.013523,0.002678,0.000431,0.009402
10904000,0.0324,0.013523,0.002678,0.000431,0.009872
10905000,0.0324,0.013523,0.002678,0.000431,0.009990
10906000,0.0324,0.013523,0.002678,0.000431,0.010460
10907000,0.0324,0.013523,0.002678,0.000431,0.009755
10908000,0.0324,0.013523,0.002678,0.000431,0.009285
10909000,0.0324,0.013523,0.002678,0.000431,0.009637
10910000,0.0324,0.013523,0.002678,0.000431,0.010460
10911000,0.0324,0.013523,0.002678,0.000431,0.009872
10912000,0.0324,0.013523,0.002678,0.000431,0.009402
10913000,0.0324,0.013523,0.002678,0.000431,0.011518
10914000,0.0324,0.013523,0.002678,0.000431,0.009402
10915000,0.0324,0.013523,0.002678,0.000431,0.009990
10916000,0.0324,0.013523,0.002678,0.000431,0.009285
10917000,0.0324,0.013523,0.002678,0.000431,0.009637
10918000,0.0324,0.013523,0.002678,0.000431,0.009990
10919000,0.0324,0.013523,0.002678,0.000431,0.009755
10920000,0.0324,0.013523,0.002678,0.000431,0.010695
10921000,0.0324,0.013523,0.002678,0.000431,0.009050
10922000,0.0324,0.013523,0.002678,0.000431,0.011048
10923000,0.0324,0.013523,0.002678,0.000431,0.009637
10924000,0.0324,0.013523,0.002678,0.000431,0.010460
10925000,0.0324,0.013523,0.002678,0.000431,0.009520
10926000,0.0324,0.013523,0.002678,0.000431,0.010460
10927000,0.0324,0.013523,0.002678,0.000431,0.008815
10928000,0.0324,0.013523,0.002678,0.000431,0.010225
10929000,0.0324,0.013523,0.002678,0.000431,0.010342
10930000,0.0324,0.013523,0.002678,0.000431,0.009167
10931000,0.0324,0.013523,0.002678,0.000431,0.010460
10932000,0.0324,0.013523,0.002678,0.000431,0.009167
10933000,0.0324,0.013523,0.002678,0.000431,0.009755
10934000,0.0324,0.013523,0.002678,0.000431,0.010107
10935000,0.0324,0.013523,0.002678,0.000431,0.011283
10936000,0.0324,0.013523,0.002678,0.000431,0.010225
10937000,0.0324,0.013523,0.002678,0.000431,0.008580
10938000,0.0324,0.013523,0.002678,0.000431,0.010813
10939000,0.0324,0.013523,0.002678,0.000431,0.010107
10940000,0.0324,0.013523,0.002678,0.000431,0.009402
10941000,0.0324,0.013523,0.002678,0.000431,0.011048
10942000,0.0324,0.013523,0.002678,0.000431,0.009285
10943000,0.0324,0.013523,0.002678,0.000431,0.010225
10944000,0.0324,0.013523,0.002678,0.000431,0.010107
10945000,0.0324,0.013523,0.002678,0.000431,0.009872
10946000,0.0324,0.013523,0.002678,0.000431,0.009520
10947000,0.0324,0.013523,0.002678,0.000431,0.009872
10948000,0.0324,0.013523,0.002678,0.000431,0.010930
10949000,0.0324,0.013523,0.002678,0.000431,0.009402
10950000,0.0324,0.013523,0.002678,0.000431,0.009755
10951000,0.0324,0.013523,0.002678,0.000431,0.010578
10952000,0.0324,0.013523,0.002678,0.000431,0.010225
10953000,0.0324,0.013523,0.002678,0.000431,0.009402
10954000,0.0324,0.013523,0.002678,0.000431,0.011048
10955000,0.0324,0.013523,0.002678,0.000431,0.010107
10956000,0.0324,0.013523,0.002678,0.000431,0.009402
10957000,0.0324,0.013523,0.002678,0.000431,0.010342
10958000,0.0324,0.013523,0.002678,0.000431,0.009050
10959000,0.0324,0.013523,0.002678,0.000431,0.010342
10960000,0.0324,0.013523,0.002678,0.000431,0.009285
10961000,0.0324,0.013523,0.002678,0.000431,0.010225
10962000,0.0324,0.013523,0.002678,0.000431,0.009637
10963000,0.0324,0.013523,0.002678,0.000431,0.010460
10964000,0.0324,0.013523,0.002678,0.000431,0.009755
10965000,0.0324,0.013523,0.002678,0.000431,0.009285
10966000,0.0324,0.013523,0.002678,0.000431,0.009637
10967000,0.0324,0.013523,0.002678,0.000431,0.009050
10968000,0.0324,0.013523,0.002678,0.000431,0.009520
10969000,0.0324,0.013523,0.002678,0.000431,0.010930
10970000,0.0324,0.013523,0.002678,0.000431,0.009402
10971000,0.0324,0.013523,0.002678,0.000431,0.010460
10972000,0.0324,0.013523,0.002678,0.000431,0.010107
10973000,0.0324,0.013523,0.002678,0.000431,0.009520
10974000,0.0324,0.013523,0.002678,0.000431,0.008697
10975000,0.0324,0.013523,0.002678,0.000431,0.010930
10976000,0.0324,0.013523,0.002678,0.000431,0.011400
10977000,0.0324,0.013523,0.002678,0.000431,0.008227
10978000,0.0324,0.013523,0.002678,0.000431,0.010578
10979000,0.0324,0.013523,0.002678,0.000431,0.010107
10980000,0.0324,0.013523,0.002678,0.000431,0.009520
10981000,0.0324,0.013523,0.002678,0.000431,0.010578
10982000,0.0324,0.013523,0.002678,0.000431,0.011283
10983000,0.0324,0.013523,0.002678,0.000431,0.009050
10984000,0.0324,0.013523,0.002678,0.000431,0.009285
10985000,0.0324,0.013523,0.002678,0.000431,0.010578
10986000,0.0324,0.013523,0.002678,0.000431,0.009755
10987000,0.0324,0.013523,0.002678,0.000431,0.010107
10988000,0.0324,0.013523,0.002678,0.000431,0.011165
10989000,0.0324,0.013523,0.002678,0.000431,0.010460
10990000,0.0324,0.013523,0.002678,0.000431,0.009167
10991000,0.0324,0.013523,0.002678,0.000431,0.010930
10992000,0.0324,0.013523,0.002678,0.000431,0.011518
10993000,0.0324,0.013523,0.002678,0.000431,0.008462
10994000,0.0324,0.013523,0.002678,0.000431,0.010578
10995000,0.0324,0.013523,0.002678,0.000431,0.009520
10996000,0.0324,0.013523,0.002678,0.000431,0.009402
10997000,0.0324,0.013523,0.002678,0.000431,0.010695
10998000,0.0324,0.013523,0.002678,0.000431,0.009755
10999000,0.0324,0.013523,0.002678,0.000431,0.008815
