Cycle,Area(mm^2),PeakDynamic(W),SubthresholdLeakage(W),GateLeakage(W),RunTimeDynamic(W)
4000000,0.0324,0.013523,0.002678,0.000431,1.171991
4001000,0.0324,0.013523,0.002678,0.000431,1.254966
4002000,0.0324,0.013523,0.002678,0.000431,1.406342
4003000,0.0324,0.013523,0.002678,0.000431,1.315846
4004000,0.0324,0.013523,0.002678,0.000431,1.198905
4005000,0.0324,0.013523,0.002678,0.000431,1.380016
4006000,0.0324,0.013523,0.002678,0.000431,1.398938
4007000,0.0324,0.013523,0.002678,0.000431,1.299744
4008000,0.0324,0.013523,0.002678,0.000431,1.301155
4009000,0.0324,0.013523,0.002678,0.000431,1.319254
4010000,0.0324,0.013523,0.002678,0.000431,1.322075
4011000,0.0324,0.013523,0.002678,0.000431,1.212656
4012000,0.0324,0.013523,0.002678,0.000431,1.155067
4013000,0.0324,0.013523,0.002678,0.000431,1.069859
4014000,0.0324,0.013523,0.002678,0.000431,1.156125
4015000,0.0324,0.013523,0.002678,0.000431,1.093130
4016000,0.0324,0.013523,0.002678,0.000431,1.000752
4017000,0.0324,0.013523,0.002678,0.000431,1.074208
4018000,0.0324,0.013523,0.002678,0.000431,1.163647
4019000,0.0324,0.013523,0.002678,0.000431,1.173636
4020000,0.0324,0.013523,0.002678,0.000431,1.013093
4021000,0.0324,0.013523,0.002678,0.000431,1.107115
4022000,0.0324,0.013523,0.002678,0.000431,1.210775
4023000,0.0324,0.013523,0.002678,0.000431,1.112169
4024000,0.0324,0.013523,0.002678,0.000431,1.094657
4025000,0.0324,0.013523,0.002678,0.000431,1.247327
4026000,0.0324,0.013523,0.002678,0.000431,1.247327
4027000,0.0324,0.013523,0.002678,0.000431,1.121924
4028000,0.0324,0.013523,0.002678,0.000431,1.149661
4029000,0.0324,0.013523,0.002678,0.000431,1.242038
4030000,0.0324,0.013523,0.002678,0.000431,1.306208
4031000,0.0324,0.013523,0.002678,0.000431,1.280940
4032000,0.0324,0.013523,0.002678,0.000431,1.321957
4033000,0.0324,0.013523,0.002678,0.000431,1.460288
4034000,0.0324,0.013523,0.002678,0.000431,1.526691
4035000,0.0324,0.013523,0.002678,0.000431,1.535623
4036000,0.0324,0.013523,0.002678,0.000431,1.468515
4037000,0.0324,0.013523,0.002678,0.000431,1.513645
4038000,0.0324,0.013523,0.002678,0.000431,1.543615
4039000,0.0324,0.013523,0.002678,0.000431,1.550784
4040000,0.0324,0.013523,0.002678,0.000431,1.472511
4041000,0.0324,0.013523,0.002678,0.000431,1.300684
4042000,0.0324,0.013523,0.002678,0.000431,1.305973
4043000,0.0324,0.013523,0.002678,0.000431,1.293868
4044000,0.0324,0.013523,0.002678,0.000431,1.215476
4045000,0.0324,0.013523,0.002678,0.000431,1.245564
4046000,0.0324,0.013523,0.002678,0.000431,1.352279
4047000,0.0324,0.013523,0.002678,0.000431,1.222881
4048000,0.0324,0.013523,0.002678,0.000431,1.285993
4049000,0.0324,0.013523,0.002678,0.000431,1.199845
4050000,0.0324,0.013523,0.002678,0.000431,1.272713
4051000,0.0324,0.013523,0.002678,0.000431,1.277766
4052000,0.0324,0.013523,0.002678,0.000431,1.160238
4053000,0.0324,0.013523,0.002678,0.000431,1.163882
4054000,0.0324,0.013523,0.002678,0.000431,1.035893
4055000,0.0324,0.013523,0.002678,0.000431,1.066686
4056000,0.0324,0.013523,0.002678,0.000431,1.006041
4057000,0.0324,0.013523,0.002678,0.000431,0.970078
4058000,0.0324,0.013523,0.002678,0.000431,1.028372
4059000,0.0324,0.013523,0.002678,0.000431,1.083375
4060000,0.0324,0.013523,0.002678,0.000431,1.085255
4061000,0.0324,0.013523,0.002678,0.000431,1.112169
4062000,0.0324,0.013523,0.002678,0.000431,1.079379
4063000,0.0324,0.013523,0.002678,0.000431,1.142962
4064000,0.0324,0.013523,0.002678,0.000431,1.054463
4065000,0.0324,0.013523,0.002678,0.000431,1.083492
4066000,0.0324,0.013523,0.002678,0.000431,1.014151
4067000,0.0324,0.013523,0.002678,0.000431,1.020145
4068000,0.0324,0.013523,0.002678,0.000431,0.999577
4069000,0.0324,0.013523,0.002678,0.000431,0.953741
4070000,0.0324,0.013523,0.002678,0.000431,1.093012
4071000,0.0324,0.013523,0.002678,0.000431,1.220765
4072000,0.0324,0.013523,0.002678,0.000431,1.093952
4073000,0.0324,0.013523,0.002678,0.000431,1.060927
4074000,0.0324,0.013523,0.002678,0.000431,1.008627
4075000,0.0324,0.013523,0.002678,0.000431,0.920128
4076000,0.0324,0.013523,0.002678,0.000431,0.847026
4077000,0.0324,0.013523,0.002678,0.000431,0.760995
4078000,0.0324,0.013523,0.002678,0.000431,0.756059
4079000,0.0324,0.013523,0.002678,0.000431,0.727852
4080000,0.0324,0.013523,0.002678,0.000431,0.790847
4081000,0.0324,0.013523,0.002678,0.000431,0.686600
4082000,0.0324,0.013523,0.002678,0.000431,0.723856
4083000,0.0324,0.013523,0.002678,0.000431,0.721153
4084000,0.0324,0.013523,0.002678,0.000431,0.783678
4085000,0.0324,0.013523,0.002678,0.000431,0.741133
4086000,0.0324,0.013523,0.002678,0.000431,0.794843
4087000,0.0324,0.013523,0.002678,0.000431,0.856075
4088000,0.0324,0.013523,0.002678,0.000431,0.899678
4089000,0.0324,0.013523,0.002678,0.000431,0.940813
4090000,0.0324,0.013523,0.002678,0.000431,0.880286
4091000,0.0324,0.013523,0.002678,0.000431,0.969843
4092000,0.0324,0.013523,0.002678,0.000431,1.090544
4093000,0.0324,0.013523,0.002678,0.000431,1.181158
4094000,0.0324,0.013523,0.002678,0.000431,1.080907
4095000,0.0324,0.013523,0.002678,0.000431,1.054228
4096000,0.0324,0.013523,0.002678,0.000431,1.123099
4097000,0.0324,0.013523,0.002678,0.000431,1.163176
4098000,0.0324,0.013523,0.002678,0.000431,1.106880
4099000,0.0324,0.013523,0.002678,0.000431,1.131209
4100000,0.0324,0.013523,0.002678,0.000431,1.108996
4101000,0.0324,0.013523,0.002678,0.000431,1.088899
4102000,0.0324,0.013523,0.002678,0.000431,1.177867
4103000,0.0324,0.013523,0.002678,0.000431,1.155185
4104000,0.0324,0.013523,0.002678,0.000431,1.113227
4105000,0.0324,0.013523,0.002678,0.000431,0.937875
4106000,0.0324,0.013523,0.002678,0.000431,0.948335
4107000,0.0324,0.013523,0.002678,0.000431,1.053640
4108000,0.0324,0.013523,0.002678,0.000431,1.022378
4109000,0.0324,0.013523,0.002678,0.000431,0.983593
4110000,0.0324,0.013523,0.002678,0.000431,0.975014
4111000,0.0324,0.013523,0.002678,0.000431,1.028959
4112000,0.0324,0.013523,0.002678,0.000431,1.065393
4113000,0.0324,0.013523,0.002678,0.000431,1.047646
4114000,0.0324,0.013523,0.002678,0.000431,1.071034
4115000,0.0324,0.013523,0.002678,0.000431,1.046471
4116000,0.0324,0.013523,0.002678,0.000431,1.113932
4117000,0.0324,0.013523,0.002678,0.000431,1.096420
4118000,0.0324,0.013523,0.002678,0.000431,1.032955
4119000,0.0324,0.013523,0.002678,0.000431,1.048351
4120000,0.0324,0.013523,0.002678,0.000431,1.214184
4121000,0.0324,0.013523,0.002678,0.000431,1.203254
4122000,0.0324,0.013523,0.002678,0.000431,1.146487
4123000,0.0324,0.013523,0.002678,0.000431,1.206662
4124000,0.0324,0.013523,0.002678,0.000431,1.240980
4125000,0.0324,0.013523,0.002678,0.000431,1.356745
4126000,0.0324,0.013523,0.002678,0.000431,1.203606
4127000,0.0324,0.013523,0.002678,0.000431,1.070799
4128000,0.0324,0.013523,0.002678,0.000431,1.032838
4129000,0.0324,0.013523,0.002678,0.000431,0.992878
4130000,0.0324,0.013523,0.002678,0.000431,0.935172
4131000,0.0324,0.013523,0.002678,0.000431,0.971723
4132000,0.0324,0.013523,0.002678,0.000431,0.943399
4133000,0.0324,0.013523,0.002678,0.000431,0.987707
4134000,0.0324,0.013523,0.002678,0.000431,1.000165
4135000,0.0324,0.013523,0.002678,0.000431,1.010155
4136000,0.0324,0.013523,0.002678,0.000431,1.128741
4137000,0.0324,0.013523,0.002678,0.000431,1.109819
4138000,0.0324,0.013523,0.002678,0.000431,1.135910
4139000,0.0324,0.013523,0.002678,0.000431,1.148015
4140000,0.0324,0.013523,0.002678,0.000431,1.190325
4141000,0.0324,0.013523,0.002678,0.000431,1.127683
4142000,0.0324,0.013523,0.002678,0.000431,1.125567
4143000,0.0324,0.013523,0.002678,0.000431,1.108056
4144000,0.0324,0.013523,0.002678,0.000431,1.094070
4145000,0.0324,0.013523,0.002678,0.000431,1.062925
4146000,0.0324,0.013523,0.002678,0.000431,0.996521
4147000,0.0324,0.013523,0.002678,0.000431,1.117575
4148000,0.0324,0.013523,0.002678,0.000431,1.090191
4149000,0.0324,0.013523,0.002678,0.000431,1.155420
4150000,0.0324,0.013523,0.002678,0.000431,1.083727
4151000,0.0324,0.013523,0.002678,0.000431,1.079849
4152000,0.0324,0.013523,0.002678,0.000431,1.099476
4153000,0.0324,0.013523,0.002678,0.000431,0.983241
4154000,0.0324,0.013523,0.002678,0.000431,0.919776
4155000,0.0324,0.013523,0.002678,0.000431,0.839386
4156000,0.0324,0.013523,0.002678,0.000431,0.847496
4157000,0.0324,0.013523,0.002678,0.000431,0.870766
4158000,0.0324,0.013523,0.002678,0.000431,0.890981
4159000,0.0324,0.013523,0.002678,0.000431,0.882402
4160000,0.0324,0.013523,0.002678,0.000431,0.866535
4161000,0.0324,0.013523,0.002678,0.000431,0.910726
4162000,0.0324,0.013523,0.002678,0.000431,0.874410
4163000,0.0324,0.013523,0.002678,0.000431,0.750653
4164000,0.0324,0.013523,0.002678,0.000431,0.735256
4165000,0.0324,0.013523,0.002678,0.000431,0.729027
4166000,0.0324,0.013523,0.002678,0.000431,0.765696
4167000,0.0324,0.013523,0.002678,0.000431,0.681311
4168000,0.0324,0.013523,0.002678,0.000431,0.734316
4169000,0.0324,0.013523,0.002678,0.000431,0.797664
4170000,0.0324,0.013523,0.002678,0.000431,0.647463
4171000,0.0324,0.013523,0.002678,0.000431,0.603742
4172000,0.0324,0.013523,0.002678,0.000431,0.626543
4173000,0.0324,0.013523,0.002678,0.000431,0.720800
4174000,0.0324,0.013523,0.002678,0.000431,0.659803
4175000,0.0324,0.013523,0.002678,0.000431,0.777919
4176000,0.0324,0.013523,0.002678,0.000431,0.849846
4177000,0.0324,0.013523,0.002678,0.000431,0.825048
4178000,0.0324,0.013523,0.002678,0.000431,0.959383
4179000,0.0324,0.013523,0.002678,0.000431,0.986414
4180000,0.0324,0.013523,0.002678,0.000431,1.047529
4181000,0.0324,0.013523,0.002678,0.000431,0.996169
4182000,0.0324,0.013523,0.002678,0.000431,0.894037
4183000,0.0324,0.013523,0.002678,0.000431,0.930118
4184000,0.0324,0.013523,0.002678,0.000431,0.804715
4185000,0.0324,0.013523,0.002678,0.000431,0.729262
4186000,0.0324,0.013523,0.002678,0.000431,0.745481
4187000,0.0324,0.013523,0.002678,0.000431,0.775686
4188000,0.0324,0.013523,0.002678,0.000431,0.637238
4189000,0.0324,0.013523,0.002678,0.000431,0.641939
4190000,0.0324,0.013523,0.002678,0.000431,0.784736
4191000,0.0324,0.013523,0.002678,0.000431,0.702819
4192000,0.0324,0.013523,0.002678,0.000431,0.655690
4193000,0.0324,0.013523,0.002678,0.000431,0.838916
4194000,0.0324,0.013523,0.002678,0.000431,0.838681
4195000,0.0324,0.013523,0.002678,0.000431,0.868651
4196000,0.0324,0.013523,0.002678,0.000431,0.841502
4197000,0.0324,0.013523,0.002678,0.000431,0.841149
4198000,0.0324,0.013523,0.002678,0.000431,0.866300
4199000,0.0324,0.013523,0.002678,0.000431,0.966199
4200000,0.0324,0.013523,0.002678,0.000431,0.899678
4201000,0.0324,0.013523,0.002678,0.000431,0.876290
4202000,0.0324,0.013523,0.002678,0.000431,1.002398
4203000,0.0324,0.013523,0.002678,0.000431,0.985356
4204000,0.0324,0.013523,0.002678,0.000431,0.905085
4205000,0.0324,0.013523,0.002678,0.000431,1.067391
4206000,0.0324,0.013523,0.002678,0.000431,1.133559
4207000,0.0324,0.013523,0.002678,0.000431,1.070917
4208000,0.0324,0.013523,0.002678,0.000431,1.002633
4209000,0.0324,0.013523,0.002678,0.000431,1.000988
4210000,0.0324,0.013523,0.002678,0.000431,1.082552
4211000,0.0324,0.013523,0.002678,0.000431,1.188680
4212000,0.0324,0.013523,0.002678,0.000431,1.261900
4213000,0.0324,0.013523,0.002678,0.000431,1.192088
4214000,0.0324,0.013523,0.002678,0.000431,1.281527
4215000,0.0324,0.013523,0.002678,0.000431,1.404814
4216000,0.0324,0.013523,0.002678,0.000431,1.617423
4217000,0.0324,0.013523,0.002678,0.000431,1.566181
4218000,0.0324,0.013523,0.002678,0.000431,1.601204
4219000,0.0324,0.013523,0.002678,0.000431,1.607550
4220000,0.0324,0.013523,0.002678,0.000431,1.559481
4221000,0.0324,0.013523,0.002678,0.000431,1.602027
4222000,0.0324,0.013523,0.002678,0.000431,1.487789
4223000,0.0324,0.013523,0.002678,0.000431,1.444304
4224000,0.0324,0.013523,0.002678,0.000431,1.475331
4225000,0.0324,0.013523,0.002678,0.000431,1.371436
4226000,0.0324,0.013523,0.002678,0.000431,1.334062
4227000,0.0324,0.013523,0.002678,0.000431,1.264956
4228000,0.0324,0.013523,0.002678,0.000431,1.333357
4229000,0.0324,0.013523,0.002678,0.000431,1.226054
4230000,0.0324,0.013523,0.002678,0.000431,1.281057
4231000,0.0324,0.013523,0.002678,0.000431,1.203724
4232000,0.0324,0.013523,0.002678,0.000431,1.196907
4233000,0.0324,0.013523,0.002678,0.000431,1.090191
4234000,0.0324,0.013523,0.002678,0.000431,1.096420
4235000,0.0324,0.013523,0.002678,0.000431,1.131914
4236000,0.0324,0.013523,0.002678,0.000431,1.001223
4237000,0.0324,0.013523,0.002678,0.000431,0.863480
4238000,0.0324,0.013523,0.002678,0.000431,1.001575
4239000,0.0324,0.013523,0.002678,0.000431,0.976659
4240000,0.0324,0.013523,0.002678,0.000431,0.934584
4241000,0.0324,0.013523,0.002678,0.000431,0.843030
4242000,0.0324,0.013523,0.002678,0.000431,0.847261
4243000,0.0324,0.013523,0.002678,0.000431,0.768752
4244000,0.0324,0.013523,0.002678,0.000431,0.779447
4245000,0.0324,0.013523,0.002678,0.000431,0.825165
4246000,0.0324,0.013523,0.002678,0.000431,0.764991
4247000,0.0324,0.013523,0.002678,0.000431,0.672026
4248000,0.0324,0.013523,0.002678,0.000431,0.744776
4249000,0.0324,0.013523,0.002678,0.000431,0.811532
4250000,0.0324,0.013523,0.002678,0.000431,0.762875
4251000,0.0324,0.013523,0.002678,0.000431,0.710693
4252000,0.0324,0.013523,0.002678,0.000431,0.785676
4253000,0.0324,0.013523,0.002678,0.000431,0.854430
4254000,0.0324,0.013523,0.002678,0.000431,0.882754
4255000,0.0324,0.013523,0.002678,0.000431,1.024728
4256000,0.0324,0.013523,0.002678,0.000431,0.956209
4257000,0.0324,0.013523,0.002678,0.000431,1.021202
4258000,0.0324,0.013523,0.002678,0.000431,1.033895
4259000,0.0324,0.013523,0.002678,0.000431,0.927062
4260000,0.0324,0.013523,0.002678,0.000431,0.801190
4261000,0.0324,0.013523,0.002678,0.000431,0.879698
4262000,0.0324,0.013523,0.002678,0.000431,0.846320
4263000,0.0324,0.013523,0.002678,0.000431,0.838093
4264000,0.0324,0.013523,0.002678,0.000431,0.801190
4265000,0.0324,0.013523,0.002678,0.000431,0.769692
4266000,0.0324,0.013523,0.002678,0.000431,0.855135
4267000,0.0324,0.013523,0.002678,0.000431,0.774393
4268000,0.0324,0.013523,0.002678,0.000431,0.836801
4269000,0.0324,0.013523,0.002678,0.000431,0.911431
4270000,0.0324,0.013523,0.002678,0.000431,0.849259
4271000,0.0324,0.013523,0.002678,0.000431,0.908140
4272000,0.0324,0.013523,0.002678,0.000431,0.944456
4273000,0.0324,0.013523,0.002678,0.000431,0.879934
4274000,0.0324,0.013523,0.002678,0.000431,0.904027
4275000,0.0324,0.013523,0.002678,0.000431,0.955387
4276000,0.0324,0.013523,0.002678,0.000431,0.973251
4277000,0.0324,0.013523,0.002678,0.000431,0.867828
4278000,0.0324,0.013523,0.002678,0.000431,1.016854
4279000,0.0324,0.013523,0.002678,0.000431,1.021202
4280000,0.0324,0.013523,0.002678,0.000431,0.918718
4281000,0.0324,0.013523,0.002678,0.000431,0.975484
4282000,0.0324,0.013523,0.002678,0.000431,1.050937
4283000,0.0324,0.013523,0.002678,0.000431,0.954094
4284000,0.0324,0.013523,0.002678,0.000431,0.887220
4285000,0.0324,0.013523,0.002678,0.000431,0.819642
4286000,0.0324,0.013523,0.002678,0.000431,0.842560
4287000,0.0324,0.013523,0.002678,0.000431,0.897563
4288000,0.0324,0.013523,0.002678,0.000431,0.840327
4289000,0.0324,0.013523,0.002678,0.000431,0.853490
4290000,0.0324,0.013523,0.002678,0.000431,1.094657
4291000,0.0324,0.013523,0.002678,0.000431,1.020850
4292000,0.0324,0.013523,0.002678,0.000431,1.076911
4293000,0.0324,0.013523,0.002678,0.000431,1.166232
4294000,0.0324,0.013523,0.002678,0.000431,1.216299
4295000,0.0324,0.013523,0.002678,0.000431,1.356863
4296000,0.0324,0.013523,0.002678,0.000431,1.241920
4297000,0.0324,0.013523,0.002678,0.000431,1.280234
4298000,0.0324,0.013523,0.002678,0.000431,1.287874
4299000,0.0324,0.013523,0.002678,0.000431,1.299274
4300000,0.0324,0.013523,0.002678,0.000431,1.206662
4301000,0.0324,0.013523,0.002678,0.000431,1.156242
4302000,0.0324,0.013523,0.002678,0.000431,1.031545
4303000,0.0324,0.013523,0.002678,0.000431,0.999812
4304000,0.0324,0.013523,0.002678,0.000431,0.916485
4305000,0.0324,0.013523,0.002678,0.000431,0.979950
4306000,0.0324,0.013523,0.002678,0.000431,1.065746
4307000,0.0324,0.013523,0.002678,0.000431,1.049879
4308000,0.0324,0.013523,0.002678,0.000431,1.031545
4309000,0.0324,0.013523,0.002678,0.000431,1.113697
4310000,0.0324,0.013523,0.002678,0.000431,0.968667
4311000,0.0324,0.013523,0.002678,0.000431,0.937992
4312000,0.0324,0.013523,0.002678,0.000431,1.071152
4313000,0.0324,0.013523,0.002678,0.000431,1.112522
4314000,0.0324,0.013523,0.002678,0.000431,0.918835
4315000,0.0324,0.013523,0.002678,0.000431,0.957620
4316000,0.0324,0.013523,0.002678,0.000431,1.008392
4317000,0.0324,0.013523,0.002678,0.000431,0.949980
4318000,0.0324,0.013523,0.002678,0.000431,0.943634
4319000,0.0324,0.013523,0.002678,0.000431,0.784853
4320000,0.0324,0.013523,0.002678,0.000431,0.886280
4321000,0.0324,0.013523,0.002678,0.000431,0.905790
4322000,0.0324,0.013523,0.002678,0.000431,0.936582
4323000,0.0324,0.013523,0.002678,0.000431,0.924829
4324000,0.0324,0.013523,0.002678,0.000431,0.928120
4325000,0.0324,0.013523,0.002678,0.000431,0.929060
4326000,0.0324,0.013523,0.002678,0.000431,0.938227
4327000,0.0324,0.013523,0.002678,0.000431,1.043885
4328000,0.0324,0.013523,0.002678,0.000431,1.038126
4329000,0.0324,0.013523,0.002678,0.000431,0.935877
4330000,0.0324,0.013523,0.002678,0.000431,0.969255
4331000,0.0324,0.013523,0.002678,0.000431,1.015208
4332000,0.0324,0.013523,0.002678,0.000431,1.189855
4333000,0.0324,0.013523,0.002678,0.000431,1.327951
4334000,0.0324,0.013523,0.002678,0.000431,1.300449
4335000,0.0324,0.013523,0.002678,0.000431,1.154127
4336000,0.0324,0.013523,0.002678,0.000431,1.241098
4337000,0.0324,0.013523,0.002678,0.000431,1.242508
4338000,0.0324,0.013523,0.002678,0.000431,1.056461
4339000,0.0324,0.013523,0.002678,0.000431,0.967139
4340000,0.0324,0.013523,0.002678,0.000431,0.848553
4341000,0.0324,0.013523,0.002678,0.000431,0.928238
4342000,0.0324,0.013523,0.002678,0.000431,0.988294
4343000,0.0324,0.013523,0.002678,0.000431,0.792140
4344000,0.0324,0.013523,0.002678,0.000431,0.838211
4345000,0.0324,0.013523,0.002678,0.000431,0.976659
4346000,0.0324,0.013523,0.002678,0.000431,0.809299
4347000,0.0324,0.013523,0.002678,0.000431,0.818701
4348000,0.0324,0.013523,0.002678,0.000431,0.931411
4349000,0.0324,0.013523,0.002678,0.000431,0.905907
4350000,0.0324,0.013523,0.002678,0.000431,0.788144
4351000,0.0324,0.013523,0.002678,0.000431,0.758762
4352000,0.0324,0.013523,0.002678,0.000431,0.668618
4353000,0.0324,0.013523,0.002678,0.000431,0.629363
4354000,0.0324,0.013523,0.002678,0.000431,0.564370
4355000,0.0324,0.013523,0.002678,0.000431,0.582587
4356000,0.0324,0.013523,0.002678,0.000431,0.638883
4357000,0.0324,0.013523,0.002678,0.000431,0.687422
4358000,0.0324,0.013523,0.002678,0.000431,0.627718
4359000,0.0324,0.013523,0.002678,0.000431,0.680841
4360000,0.0324,0.013523,0.002678,0.000431,0.655807
4361000,0.0324,0.013523,0.002678,0.000431,0.551912
4362000,0.0324,0.013523,0.002678,0.000431,0.635827
4363000,0.0324,0.013523,0.002678,0.000431,0.690008
4364000,0.0324,0.013523,0.002678,0.000431,0.643819
4365000,0.0324,0.013523,0.002678,0.000431,0.647698
4366000,0.0324,0.013523,0.002678,0.000431,0.643819
4367000,0.0324,0.013523,0.002678,0.000431,0.712338
4368000,0.0324,0.013523,0.002678,0.000431,0.724796
4369000,0.0324,0.013523,0.002678,0.000431,0.700821
4370000,0.0324,0.013523,0.002678,0.000431,0.867593
4371000,0.0324,0.013523,0.002678,0.000431,0.960793
4372000,0.0324,0.013523,0.002678,0.000431,1.021790
4373000,0.0324,0.013523,0.002678,0.000431,0.997932
4374000,0.0324,0.013523,0.002678,0.000431,0.890158
4375000,0.0324,0.013523,0.002678,0.000431,0.957502
4376000,0.0324,0.013523,0.002678,0.000431,1.032132
4377000,0.0324,0.013523,0.002678,0.000431,0.978305
4378000,0.0324,0.013523,0.002678,0.000431,0.928590
4379000,0.0324,0.013523,0.002678,0.000431,1.046236
4380000,0.0324,0.013523,0.002678,0.000431,0.921538
4381000,0.0324,0.013523,0.002678,0.000431,0.846908
4382000,0.0324,0.013523,0.002678,0.000431,0.725384
4383000,0.0324,0.013523,0.002678,0.000431,0.689655
4384000,0.0324,0.013523,0.002678,0.000431,0.706344
4385000,0.0324,0.013523,0.002678,0.000431,0.669088
4386000,0.0324,0.013523,0.002678,0.000431,0.657805
4387000,0.0324,0.013523,0.002678,0.000431,0.700115
4388000,0.0324,0.013523,0.002678,0.000431,0.878288
4389000,0.0324,0.013523,0.002678,0.000431,0.835978
4390000,0.0324,0.013523,0.002678,0.000431,0.756646
4391000,0.0324,0.013523,0.002678,0.000431,0.922244
4392000,0.0324,0.013523,0.002678,0.000431,0.848083
4393000,0.0324,0.013523,0.002678,0.000431,0.860894
4394000,0.0324,0.013523,0.002678,0.000431,1.040477
4395000,0.0324,0.013523,0.002678,0.000431,1.016619
4396000,0.0324,0.013523,0.002678,0.000431,0.977129
4397000,0.0324,0.013523,0.002678,0.000431,0.921421
4398000,0.0324,0.013523,0.002678,0.000431,1.006629
4399000,0.0324,0.013523,0.002678,0.000431,0.918248
4400000,0.0324,0.013523,0.002678,0.000431,1.047999
4401000,0.0324,0.013523,0.002678,0.000431,1.235456
4402000,0.0324,0.013523,0.002678,0.000431,1.083962
4403000,0.0324,0.013523,0.002678,0.000431,1.083257
4404000,0.0324,0.013523,0.002678,0.000431,1.236632
4405000,0.0324,0.013523,0.002678,0.000431,1.121336
4406000,0.0324,0.013523,0.002678,0.000431,0.943516
4407000,0.0324,0.013523,0.002678,0.000431,1.014856
4408000,0.0324,0.013523,0.002678,0.000431,1.147545
4409000,0.0324,0.013523,0.002678,0.000431,0.948570
4410000,0.0324,0.013523,0.002678,0.000431,0.849141
4411000,0.0324,0.013523,0.002678,0.000431,0.748184
4412000,0.0324,0.013523,0.002678,0.000431,0.937640
4413000,0.0324,0.013523,0.002678,0.000431,0.911196
4414000,0.0324,0.013523,0.002678,0.000431,0.813883
4415000,0.0324,0.013523,0.002678,0.000431,0.825753
4416000,0.0324,0.013523,0.002678,0.000431,0.706697
4417000,0.0324,0.013523,0.002678,0.000431,0.720565
4418000,0.0324,0.013523,0.002678,0.000431,0.737959
4419000,0.0324,0.013523,0.002678,0.000431,0.629246
4420000,0.0324,0.013523,0.002678,0.000431,0.693769
4421000,0.0324,0.013523,0.002678,0.000431,0.799779
4422000,0.0324,0.013523,0.002678,0.000431,0.721741
4423000,0.0324,0.013523,0.002678,0.000431,0.769222
4424000,0.0324,0.013523,0.002678,0.000431,0.757234
4425000,0.0324,0.013523,0.002678,0.000431,0.865242
4426000,0.0324,0.013523,0.002678,0.000431,0.720330
4427000,0.0324,0.013523,0.002678,0.000431,0.925182
4428000,0.0324,0.013523,0.002678,0.000431,0.719272
4429000,0.0324,0.013523,0.002678,0.000431,0.791317
4430000,0.0324,0.013523,0.002678,0.000431,0.727617
4431000,0.0324,0.013523,0.002678,0.000431,0.724796
4432000,0.0324,0.013523,0.002678,0.000431,0.725972
4433000,0.0324,0.013523,0.002678,0.000431,0.763228
4434000,0.0324,0.013523,0.002678,0.000431,0.832922
4435000,0.0324,0.013523,0.002678,0.000431,0.767577
4436000,0.0324,0.013523,0.002678,0.000431,1.012270
4437000,0.0324,0.013523,0.002678,0.000431,1.258374
4438000,0.0324,0.013523,0.002678,0.000431,1.168113
4439000,0.0324,0.013523,0.002678,0.000431,1.063865
4440000,0.0324,0.013523,0.002678,0.000431,1.111346
4441000,0.0324,0.013523,0.002678,0.000431,1.024141
4442000,0.0324,0.013523,0.002678,0.000431,1.021908
4443000,0.0324,0.013523,0.002678,0.000431,1.052700
4444000,0.0324,0.013523,0.002678,0.000431,0.827751
4445000,0.0324,0.013523,0.002678,0.000431,0.760055
4446000,0.0324,0.013523,0.002678,0.000431,0.764286
4447000,0.0324,0.013523,0.002678,0.000431,0.625485
4448000,0.0324,0.013523,0.002678,0.000431,0.599746
4449000,0.0324,0.013523,0.002678,0.000431,0.579061
4450000,0.0324,0.013523,0.002678,0.000431,0.559317
4451000,0.0324,0.013523,0.002678,0.000431,0.665445
4452000,0.0324,0.013523,0.002678,0.000431,0.762993
4453000,0.0324,0.013523,0.002678,0.000431,0.725737
4454000,0.0324,0.013523,0.002678,0.000431,0.693299
4455000,0.0324,0.013523,0.002678,0.000431,0.793433
4456000,0.0324,0.013523,0.002678,0.000431,0.741250
4457000,0.0324,0.013523,0.002678,0.000431,0.732083
4458000,0.0324,0.013523,0.002678,0.000431,0.769810
4459000,0.0324,0.013523,0.002678,0.000431,0.964554
4460000,0.0324,0.013523,0.002678,0.000431,0.844440
4461000,0.0324,0.013523,0.002678,0.000431,0.852197
4462000,0.0324,0.013523,0.002678,0.000431,0.853960
4463000,0.0324,0.013523,0.002678,0.000431,1.019557
4464000,0.0324,0.013523,0.002678,0.000431,1.005454
4465000,0.0324,0.013523,0.002678,0.000431,0.929648
4466000,0.0324,0.013523,0.002678,0.000431,0.860189
4467000,0.0324,0.013523,0.002678,0.000431,0.795196
4468000,0.0324,0.013523,0.002678,0.000431,0.686952
4469000,0.0324,0.013523,0.002678,0.000431,0.584233
4470000,0.0324,0.013523,0.002678,0.000431,0.506664
4471000,0.0324,0.013523,0.002678,0.000431,0.610089
4472000,0.0324,0.013523,0.002678,0.000431,0.641116
4473000,0.0324,0.013523,0.002678,0.000431,0.553910
4474000,0.0324,0.013523,0.002678,0.000431,0.614907
4475000,0.0324,0.013523,0.002678,0.000431,0.530287
4476000,0.0324,0.013523,0.002678,0.000431,0.493853
4477000,0.0324,0.013523,0.002678,0.000431,0.584115
4478000,0.0324,0.013523,0.002678,0.000431,0.564135
4479000,0.0324,0.013523,0.002678,0.000431,0.639706
4480000,0.0324,0.013523,0.002678,0.000431,0.632184
4481000,0.0324,0.013523,0.002678,0.000431,0.549327
4482000,0.0324,0.013523,0.002678,0.000431,0.637238
4483000,0.0324,0.013523,0.002678,0.000431,0.745716
4484000,0.0324,0.013523,0.002678,0.000431,0.509485
4485000,0.0324,0.013523,0.002678,0.000431,0.606563
4486000,0.0324,0.013523,0.002678,0.000431,0.737019
4487000,0.0324,0.013523,0.002678,0.000431,0.823050
4488000,0.0324,0.013523,0.002678,0.000431,0.854547
4489000,0.0324,0.013523,0.002678,0.000431,0.895330
4490000,0.0324,0.013523,0.002678,0.000431,0.996404
4491000,0.0324,0.013523,0.002678,0.000431,0.951626
4492000,0.0324,0.013523,0.002678,0.000431,0.962791
4493000,0.0324,0.013523,0.002678,0.000431,1.047411
4494000,0.0324,0.013523,0.002678,0.000431,0.982418
4495000,0.0324,0.013523,0.002678,0.000431,0.950803
4496000,0.0324,0.013523,0.002678,0.000431,0.961498
4497000,0.0324,0.013523,0.002678,0.000431,0.963614
4498000,0.0324,0.013523,0.002678,0.000431,0.854547
4499000,0.0324,0.013523,0.002678,0.000431,0.751945
4500000,0.0324,0.013523,0.002678,0.000431,0.665327
4501000,0.0324,0.013523,0.002678,0.000431,0.765461
4502000,0.0324,0.013523,0.002678,0.000431,0.858426
4503000,0.0324,0.013523,0.002678,0.000431,0.789084
4504000,0.0324,0.013523,0.002678,0.000431,0.651341
4505000,0.0324,0.013523,0.002678,0.000431,0.643114
4506000,0.0324,0.013523,0.002678,0.000431,0.733023
4507000,0.0324,0.013523,0.002678,0.000431,0.926827
4508000,0.0324,0.013523,0.002678,0.000431,0.741250
4509000,0.0324,0.013523,0.002678,0.000431,0.767812
4510000,0.0324,0.013523,0.002678,0.000431,0.756764
4511000,0.0324,0.013523,0.002678,0.000431,0.914134
4512000,0.0324,0.013523,0.002678,0.000431,0.734316
4513000,0.0324,0.013523,0.002678,0.000431,0.698470
4514000,0.0324,0.013523,0.002678,0.000431,0.798839
4515000,0.0324,0.013523,0.002678,0.000431,0.869826
4516000,0.0324,0.013523,0.002678,0.000431,0.738430
4517000,0.0324,0.013523,0.002678,0.000431,0.664387
4518000,0.0324,0.013523,0.002678,0.000431,0.759937
4519000,0.0324,0.013523,0.002678,0.000431,0.712103
4520000,0.0324,0.013523,0.002678,0.000431,0.699293
4521000,0.0324,0.013523,0.002678,0.000431,0.694944
4522000,0.0324,0.013523,0.002678,0.000431,0.669911
4523000,0.0324,0.013523,0.002678,0.000431,0.681663
4524000,0.0324,0.013523,0.002678,0.000431,0.637355
4525000,0.0324,0.013523,0.002678,0.000431,0.648521
4526000,0.0324,0.013523,0.002678,0.000431,0.812120
4527000,0.0324,0.013523,0.002678,0.000431,0.675199
4528000,0.0324,0.013523,0.002678,0.000431,0.704229
4529000,0.0324,0.013523,0.002678,0.000431,0.618081
4530000,0.0324,0.013523,0.002678,0.000431,0.663799
4531000,0.0324,0.013523,0.002678,0.000431,0.890981
4532000,0.0324,0.013523,0.002678,0.000431,0.833980
4533000,0.0324,0.013523,0.002678,0.000431,0.840797
4534000,0.0324,0.013523,0.002678,0.000431,1.006511
4535000,0.0324,0.013523,0.002678,0.000431,0.910373
4536000,0.0324,0.013523,0.002678,0.000431,0.747832
4537000,0.0324,0.013523,0.002678,0.000431,0.743718
4538000,0.0324,0.013523,0.002678,0.000431,0.900971
4539000,0.0324,0.013523,0.002678,0.000431,0.823285
4540000,0.0324,0.013523,0.002678,0.000431,0.801660
4541000,0.0324,0.013523,0.002678,0.000431,0.819171
4542000,0.0324,0.013523,0.002678,0.000431,0.865007
4543000,0.0324,0.013523,0.002678,0.000431,0.871824
4544000,0.0324,0.013523,0.002678,0.000431,0.835508
4545000,0.0324,0.013523,0.002678,0.000431,0.914722
4546000,0.0324,0.013523,0.002678,0.000431,0.731613
4547000,0.0324,0.013523,0.002678,0.000431,0.660038
4548000,0.0324,0.013523,0.002678,0.000431,0.626778
4549000,0.0324,0.013523,0.002678,0.000431,0.664387
4550000,0.0324,0.013523,0.002678,0.000431,0.859249
4551000,0.0324,0.013523,0.002678,0.000431,0.812590
4552000,0.0324,0.013523,0.002678,0.000431,0.755354
4553000,0.0324,0.013523,0.002678,0.000431,0.725501
4554000,0.0324,0.013523,0.002678,0.000431,0.615730
4555000,0.0324,0.013523,0.002678,0.000431,0.670616
4556000,0.0324,0.013523,0.002678,0.000431,0.766636
4557000,0.0324,0.013523,0.002678,0.000431,0.937640
4558000,0.0324,0.013523,0.002678,0.000431,0.823285
4559000,0.0324,0.013523,0.002678,0.000431,0.791670
4560000,0.0324,0.013523,0.002678,0.000431,0.702583
4561000,0.0324,0.013523,0.002678,0.000431,0.755236
4562000,0.0324,0.013523,0.002678,0.000431,0.694474
4563000,0.0324,0.013523,0.002678,0.000431,0.597161
4564000,0.0324,0.013523,0.002678,0.000431,0.619256
4565000,0.0324,0.013523,0.002678,0.000431,0.670616
4566000,0.0324,0.013523,0.002678,0.000431,0.872177
4567000,0.0324,0.013523,0.002678,0.000431,1.006511
4568000,0.0324,0.013523,0.002678,0.000431,1.035188
4569000,0.0324,0.013523,0.002678,0.000431,1.116400
4570000,0.0324,0.013523,0.002678,0.000431,1.160121
4571000,0.0324,0.013523,0.002678,0.000431,1.035188
4572000,0.0324,0.013523,0.002678,0.000431,0.904967
4573000,0.0324,0.013523,0.002678,0.000431,0.745246
4574000,0.0324,0.013523,0.002678,0.000431,0.729262
4575000,0.0324,0.013523,0.002678,0.000431,0.680958
4576000,0.0324,0.013523,0.002678,0.000431,0.774158
4577000,0.0324,0.013523,0.002678,0.000431,0.653927
4578000,0.0324,0.013523,0.002678,0.000431,0.712456
4579000,0.0324,0.013523,0.002678,0.000431,0.932939
4580000,0.0324,0.013523,0.002678,0.000431,0.874292
4581000,0.0324,0.013523,0.002678,0.000431,0.900736
4582000,0.0324,0.013523,0.002678,0.000431,1.087958
4583000,0.0324,0.013523,0.002678,0.000431,0.924359
4584000,0.0324,0.013523,0.002678,0.000431,0.941166
4585000,0.0324,0.013523,0.002678,0.000431,1.128035
4586000,0.0324,0.013523,0.002678,0.000431,1.305503
4587000,0.0324,0.013523,0.002678,0.000431,1.438662
4588000,0.0324,0.013523,0.002678,0.000431,1.286463
4589000,0.0324,0.013523,0.002678,0.000431,1.166820
4590000,0.0324,0.013523,0.002678,0.000431,0.996051
4591000,0.0324,0.013523,0.002678,0.000431,0.897798
4592000,0.0324,0.013523,0.002678,0.000431,1.020145
4593000,0.0324,0.013523,0.002678,0.000431,0.970665
4594000,0.0324,0.013523,0.002678,0.000431,1.032015
4595000,0.0324,0.013523,0.002678,0.000431,1.005806
4596000,0.0324,0.013523,0.002678,0.000431,1.050702
4597000,0.0324,0.013523,0.002678,0.000431,1.191148
4598000,0.0324,0.013523,0.002678,0.000431,1.278824
4599000,0.0324,0.013523,0.002678,0.000431,1.083962
4600000,0.0324,0.013523,0.002678,0.000431,1.217709
4601000,0.0324,0.013523,0.002678,0.000431,1.220295
4602000,0.0324,0.013523,0.002678,0.000431,1.190678
4603000,0.0324,0.013523,0.002678,0.000431,1.260842
4604000,0.0324,0.013523,0.002678,0.000431,1.022848
4605000,0.0324,0.013523,0.002678,0.000431,1.315493
4606000,0.0324,0.013523,0.002678,0.000431,1.342524
4607000,0.0324,0.013523,0.002678,0.000431,1.425617
4608000,0.0324,0.013523,0.002678,0.000431,1.378606
4609000,0.0324,0.013523,0.002678,0.000431,1.407518
4610000,0.0324,0.013523,0.002678,0.000431,1.354277
4611000,0.0324,0.013523,0.002678,0.000431,1.169405
4612000,0.0324,0.013523,0.002678,0.000431,1.315963
4613000,0.0324,0.013523,0.002678,0.000431,1.246386
4614000,0.0324,0.013523,0.002678,0.000431,1.141551
4615000,0.0324,0.013523,0.002678,0.000431,1.285406
4616000,0.0324,0.013523,0.002678,0.000431,1.375785
4617000,0.0324,0.013523,0.002678,0.000431,1.224996
4618000,0.0324,0.013523,0.002678,0.000431,1.307971
4619000,0.0324,0.013523,0.002678,0.000431,1.239805
4620000,0.0324,0.013523,0.002678,0.000431,1.048234
4621000,0.0324,0.013523,0.002678,0.000431,1.067744
4622000,0.0324,0.013523,0.002678,0.000431,1.263193
4623000,0.0324,0.013523,0.002678,0.000431,1.340174
4624000,0.0324,0.013523,0.002678,0.000431,1.428790
4625000,0.0324,0.013523,0.002678,0.000431,1.269422
4626000,0.0324,0.013523,0.002678,0.000431,1.177280
4627000,0.0324,0.013523,0.002678,0.000431,1.254966
4628000,0.0324,0.013523,0.002678,0.000431,1.387655
4629000,0.0324,0.013523,0.002678,0.000431,1.378841
4630000,0.0324,0.013523,0.002678,0.000431,1.209130
4631000,0.0324,0.013523,0.002678,0.000431,1.179160
4632000,0.0324,0.013523,0.002678,0.000431,1.194321
4633000,0.0324,0.013523,0.002678,0.000431,1.200080
4634000,0.0324,0.013523,0.002678,0.000431,1.175282
4635000,0.0324,0.013523,0.002678,0.000431,1.072327
4636000,0.0324,0.013523,0.002678,0.000431,1.088664
4637000,0.0324,0.013523,0.002678,0.000431,1.067156
4638000,0.0324,0.013523,0.002678,0.000431,0.382789
4639000,0.0324,0.013523,0.002678,0.000431,0.104012
4640000,0.0324,0.013523,0.002678,0.000431,0.075101
4641000,0.0324,0.013523,0.002678,0.000431,0.070517
4642000,0.0324,0.013523,0.002678,0.000431,0.056414
4643000,0.0324,0.013523,0.002678,0.000431,0.061585
4644000,0.0324,0.013523,0.002678,0.000431,0.060997
4645000,0.0324,0.013523,0.002678,0.000431,0.059117
4646000,0.0324,0.013523,0.002678,0.000431,0.059469
4647000,0.0324,0.013523,0.002678,0.000431,0.054533
4648000,0.0324,0.013523,0.002678,0.000431,0.059939
4649000,0.0324,0.013523,0.002678,0.000431,0.056884
4650000,0.0324,0.013523,0.002678,0.000431,0.056649
4651000,0.0324,0.013523,0.002678,0.000431,0.057001
4652000,0.0324,0.013523,0.002678,0.000431,0.055473
4653000,0.0324,0.013523,0.002678,0.000431,0.056531
4654000,0.0324,0.013523,0.002678,0.000431,0.057119
4655000,0.0324,0.013523,0.002678,0.000431,0.054533
4656000,0.0324,0.013523,0.002678,0.000431,0.054768
4657000,0.0324,0.013523,0.002678,0.000431,0.056061
4658000,0.0324,0.013523,0.002678,0.000431,0.057001
4659000,0.0324,0.013523,0.002678,0.000431,0.055356
4660000,0.0324,0.013523,0.002678,0.000431,0.057589
4661000,0.0324,0.013523,0.002678,0.000431,0.052418
4662000,0.0324,0.013523,0.002678,0.000431,0.053475
4663000,0.0324,0.013523,0.002678,0.000431,0.053240
4664000,0.0324,0.013523,0.002678,0.000431,0.054416
4665000,0.0324,0.013523,0.002678,0.000431,0.050185
4666000,0.0324,0.013523,0.002678,0.000431,0.052535
4667000,0.0324,0.013523,0.002678,0.000431,0.052770
4668000,0.0324,0.013523,0.002678,0.000431,0.054180
4669000,0.0324,0.013523,0.002678,0.000431,0.055238
4670000,0.0324,0.013523,0.002678,0.000431,0.053240
4671000,0.0324,0.013523,0.002678,0.000431,0.050655
4672000,0.0324,0.013523,0.002678,0.000431,0.053123
4673000,0.0324,0.013523,0.002678,0.000431,0.053358
4674000,0.0324,0.013523,0.002678,0.000431,0.053945
4675000,0.0324,0.013523,0.002678,0.000431,0.055121
4676000,0.0324,0.013523,0.002678,0.000431,0.053475
4677000,0.0324,0.013523,0.002678,0.000431,0.053123
4678000,0.0324,0.013523,0.002678,0.000431,0.055121
4679000,0.0324,0.013523,0.002678,0.000431,0.053005
4680000,0.0324,0.013523,0.002678,0.000431,0.055238
4681000,0.0324,0.013523,0.002678,0.000431,0.052770
4682000,0.0324,0.013523,0.002678,0.000431,0.052888
4683000,0.0324,0.013523,0.002678,0.000431,0.053358
4684000,0.0324,0.013523,0.002678,0.000431,0.055708
4685000,0.0324,0.013523,0.002678,0.000431,0.053710
4686000,0.0324,0.013523,0.002678,0.000431,0.051477
4687000,0.0324,0.013523,0.002678,0.000431,0.053123
4688000,0.0324,0.013523,0.002678,0.000431,0.052770
4689000,0.0324,0.013523,0.002678,0.000431,0.055591
4690000,0.0324,0.013523,0.002678,0.000431,0.053005
4691000,0.0324,0.013523,0.002678,0.000431,0.051830
4692000,0.0324,0.013523,0.002678,0.000431,0.057706
4693000,0.0324,0.013523,0.002678,0.000431,0.051595
4694000,0.0324,0.013523,0.002678,0.000431,0.049832
4695000,0.0324,0.013523,0.002678,0.000431,0.054180
4696000,0.0324,0.013523,0.002678,0.000431,0.056649
4697000,0.0324,0.013523,0.002678,0.000431,0.053123
4698000,0.0324,0.013523,0.002678,0.000431,0.051947
4699000,0.0324,0.013523,0.002678,0.000431,0.050772
4700000,0.0324,0.013523,0.002678,0.000431,0.056061
4701000,0.0324,0.013523,0.002678,0.000431,0.050890
4702000,0.0324,0.013523,0.002678,0.000431,0.053123
4703000,0.0324,0.013523,0.002678,0.000431,0.052183
4704000,0.0324,0.013523,0.002678,0.000431,0.052065
4705000,0.0324,0.013523,0.002678,0.000431,0.054768
4706000,0.0324,0.013523,0.002678,0.000431,0.052770
4707000,0.0324,0.013523,0.002678,0.000431,0.051007
4708000,0.0324,0.013523,0.002678,0.000431,0.054533
4709000,0.0324,0.013523,0.002678,0.000431,0.050420
4710000,0.0324,0.013523,0.002678,0.000431,0.050537
4711000,0.0324,0.013523,0.002678,0.000431,0.051830
4712000,0.0324,0.013523,0.002678,0.000431,0.052653
4713000,0.0324,0.013523,0.002678,0.000431,0.049244
4714000,0.0324,0.013523,0.002678,0.000431,0.049244
4715000,0.0324,0.013523,0.002678,0.000431,0.052300
4716000,0.0324,0.013523,0.002678,0.000431,0.054651
4717000,0.0324,0.013523,0.002678,0.000431,0.051595
4718000,0.0324,0.013523,0.002678,0.000431,0.048657
4719000,0.0324,0.013523,0.002678,0.000431,0.052183
4720000,0.0324,0.013523,0.002678,0.000431,0.053710
4721000,0.0324,0.013523,0.002678,0.000431,0.048892
4722000,0.0324,0.013523,0.002678,0.000431,0.051712
4723000,0.0324,0.013523,0.002678,0.000431,0.049832
4724000,0.0324,0.013523,0.002678,0.000431,0.052183
4725000,0.0324,0.013523,0.002678,0.000431,0.051830
4726000,0.0324,0.013523,0.002678,0.000431,0.052183
4727000,0.0324,0.013523,0.002678,0.000431,0.052300
4728000,0.0324,0.013523,0.002678,0.000431,0.051830
4729000,0.0324,0.013523,0.002678,0.000431,0.051125
4730000,0.0324,0.013523,0.002678,0.000431,0.053593
4731000,0.0324,0.013523,0.002678,0.000431,0.053475
4732000,0.0324,0.013523,0.002678,0.000431,0.052418
4733000,0.0324,0.013523,0.002678,0.000431,0.053123
4734000,0.0324,0.013523,0.002678,0.000431,0.048657
4735000,0.0324,0.013523,0.002678,0.000431,0.054416
4736000,0.0324,0.013523,0.002678,0.000431,0.051830
4737000,0.0324,0.013523,0.002678,0.000431,0.052770
4738000,0.0324,0.013523,0.002678,0.000431,0.050655
4739000,0.0324,0.013523,0.002678,0.000431,0.051712
4740000,0.0324,0.013523,0.002678,0.000431,0.052065
4741000,0.0324,0.013523,0.002678,0.000431,0.048892
4742000,0.0324,0.013523,0.002678,0.000431,0.050655
4743000,0.0324,0.013523,0.002678,0.000431,0.053945
4744000,0.0324,0.013523,0.002678,0.000431,0.052065
4745000,0.0324,0.013523,0.002678,0.000431,0.045954
4746000,0.0324,0.013523,0.002678,0.000431,0.051125
4747000,0.0324,0.013523,0.002678,0.000431,0.051242
4748000,0.0324,0.013523,0.002678,0.000431,0.051830
4749000,0.0324,0.013523,0.002678,0.000431,0.048304
4750000,0.0324,0.013523,0.002678,0.000431,0.047834
4751000,0.0324,0.013523,0.002678,0.000431,0.049832
4752000,0.0324,0.013523,0.002678,0.000431,0.049479
4753000,0.0324,0.013523,0.002678,0.000431,0.050302
4754000,0.0324,0.013523,0.002678,0.000431,0.049949
4755000,0.0324,0.013523,0.002678,0.000431,0.051125
4756000,0.0324,0.013523,0.002678,0.000431,0.048304
4757000,0.0324,0.013523,0.002678,0.000431,0.051830
4758000,0.0324,0.013523,0.002678,0.000431,0.049362
4759000,0.0324,0.013523,0.002678,0.000431,0.054533
4760000,0.0324,0.013523,0.002678,0.000431,0.048422
4761000,0.0324,0.013523,0.002678,0.000431,0.049714
4762000,0.0324,0.013523,0.002678,0.000431,0.050302
4763000,0.0324,0.013523,0.002678,0.000431,0.053005
4764000,0.0324,0.013523,0.002678,0.000431,0.048539
4765000,0.0324,0.013523,0.002678,0.000431,0.046306
4766000,0.0324,0.013523,0.002678,0.000431,0.051007
4767000,0.0324,0.013523,0.002678,0.000431,0.052535
4768000,0.0324,0.013523,0.002678,0.000431,0.048069
4769000,0.0324,0.013523,0.002678,0.000431,0.050302
4770000,0.0324,0.013523,0.002678,0.000431,0.050537
4771000,0.0324,0.013523,0.002678,0.000431,0.051125
4772000,0.0324,0.013523,0.002678,0.000431,0.049714
4773000,0.0324,0.013523,0.002678,0.000431,0.047129
4774000,0.0324,0.013523,0.002678,0.000431,0.050772
4775000,0.0324,0.013523,0.002678,0.000431,0.050067
4776000,0.0324,0.013523,0.002678,0.000431,0.048774
4777000,0.0324,0.013523,0.002678,0.000431,0.049127
4778000,0.0324,0.013523,0.002678,0.000431,0.051007
4779000,0.0324,0.013523,0.002678,0.000431,0.048892
4780000,0.0324,0.013523,0.002678,0.000431,0.047364
4781000,0.0324,0.013523,0.002678,0.000431,0.049479
4782000,0.0324,0.013523,0.002678,0.000431,0.049479
4783000,0.0324,0.013523,0.002678,0.000431,0.051125
4784000,0.0324,0.013523,0.002678,0.000431,0.046424
4785000,0.0324,0.013523,0.002678,0.000431,0.050655
4786000,0.0324,0.013523,0.002678,0.000431,0.048187
4787000,0.0324,0.013523,0.002678,0.000431,0.048892
4788000,0.0324,0.013523,0.002678,0.000431,0.051595
4789000,0.0324,0.013523,0.002678,0.000431,0.046659
4790000,0.0324,0.013523,0.002678,0.000431,0.051477
4791000,0.0324,0.013523,0.002678,0.000431,0.048657
4792000,0.0324,0.013523,0.002678,0.000431,0.047834
4793000,0.0324,0.013523,0.002678,0.000431,0.047011
4794000,0.0324,0.013523,0.002678,0.000431,0.052065
4795000,0.0324,0.013523,0.002678,0.000431,0.047834
4796000,0.0324,0.013523,0.002678,0.000431,0.048304
4797000,0.0324,0.013523,0.002678,0.000431,0.047716
4798000,0.0324,0.013523,0.002678,0.000431,0.049597
4799000,0.0324,0.013523,0.002678,0.000431,0.046071
4800000,0.0324,0.013523,0.002678,0.000431,0.049127
4801000,0.0324,0.013523,0.002678,0.000431,0.047834
4802000,0.0324,0.013523,0.002678,0.000431,0.048892
4803000,0.0324,0.013523,0.002678,0.000431,0.047011
4804000,0.0324,0.013523,0.002678,0.000431,0.044661
4805000,0.0324,0.013523,0.002678,0.000431,0.046541
4806000,0.0324,0.013523,0.002678,0.000431,0.047011
4807000,0.0324,0.013523,0.002678,0.000431,0.050537
4808000,0.0324,0.013523,0.002678,0.000431,0.045013
4809000,0.0324,0.013523,0.002678,0.000431,0.045131
4810000,0.0324,0.013523,0.002678,0.000431,0.051947
4811000,0.0324,0.013523,0.002678,0.000431,0.046776
4812000,0.0324,0.013523,0.002678,0.000431,0.045366
4813000,0.0324,0.013523,0.002678,0.000431,0.049479
4814000,0.0324,0.013523,0.002678,0.000431,0.048187
4815000,0.0324,0.013523,0.002678,0.000431,0.045366
4816000,0.0324,0.013523,0.002678,0.000431,0.046894
4817000,0.0324,0.013523,0.002678,0.000431,0.046424
4818000,0.0324,0.013523,0.002678,0.000431,0.046306
4819000,0.0324,0.013523,0.002678,0.000431,0.045954
4820000,0.0324,0.013523,0.002678,0.000431,0.048774
4821000,0.0324,0.013523,0.002678,0.000431,0.045248
4822000,0.0324,0.013523,0.002678,0.000431,0.048774
4823000,0.0324,0.013523,0.002678,0.000431,0.046659
4824000,0.0324,0.013523,0.002678,0.000431,0.046541
4825000,0.0324,0.013523,0.002678,0.000431,0.044308
4826000,0.0324,0.013523,0.002678,0.000431,0.049362
4827000,0.0324,0.013523,0.002678,0.000431,0.047011
4828000,0.0324,0.013523,0.002678,0.000431,0.046306
4829000,0.0324,0.013523,0.002678,0.000431,0.048892
4830000,0.0324,0.013523,0.002678,0.000431,0.047364
4831000,0.0324,0.013523,0.002678,0.000431,0.043250
4832000,0.0324,0.013523,0.002678,0.000431,0.046424
4833000,0.0324,0.013523,0.002678,0.000431,0.049244
4834000,0.0324,0.013523,0.002678,0.000431,0.048657
4835000,0.0324,0.013523,0.002678,0.000431,0.045601
4836000,0.0324,0.013523,0.002678,0.000431,0.048422
4837000,0.0324,0.013523,0.002678,0.000431,0.049244
4838000,0.0324,0.013523,0.002678,0.000431,0.047481
4839000,0.0324,0.013523,0.002678,0.000431,0.047951
4840000,0.0324,0.013523,0.002678,0.000431,0.047716
4841000,0.0324,0.013523,0.002678,0.000431,0.048774
4842000,0.0324,0.013523,0.002678,0.000431,0.046306
4843000,0.0324,0.013523,0.002678,0.000431,0.046189
4844000,0.0324,0.013523,0.002678,0.000431,0.048657
4845000,0.0324,0.013523,0.002678,0.000431,0.046424
4846000,0.0324,0.013523,0.002678,0.000431,0.048187
4847000,0.0324,0.013523,0.002678,0.000431,0.045954
4848000,0.0324,0.013523,0.002678,0.000431,0.046541
4849000,0.0324,0.013523,0.002678,0.000431,0.050537
4850000,0.0324,0.013523,0.002678,0.000431,0.045718
4851000,0.0324,0.013523,0.002678,0.000431,0.047364
4852000,0.0324,0.013523,0.002678,0.000431,0.045366
4853000,0.0324,0.013523,0.002678,0.000431,0.047834
4854000,0.0324,0.013523,0.002678,0.000431,0.047481
4855000,0.0324,0.013523,0.002678,0.000431,0.045131
4856000,0.0324,0.013523,0.002678,0.000431,0.050185
4857000,0.0324,0.013523,0.002678,0.000431,0.049479
4858000,0.0324,0.013523,0.002678,0.000431,0.045248
4859000,0.0324,0.013523,0.002678,0.000431,0.046071
4860000,0.0324,0.013523,0.002678,0.000431,0.049009
4861000,0.0324,0.013523,0.002678,0.000431,0.049362
4862000,0.0324,0.013523,0.002678,0.000431,0.046424
4863000,0.0324,0.013523,0.002678,0.000431,0.046776
4864000,0.0324,0.013523,0.002678,0.000431,0.045013
4865000,0.0324,0.013523,0.002678,0.000431,0.050420
4866000,0.0324,0.013523,0.002678,0.000431,0.049479
4867000,0.0324,0.013523,0.002678,0.000431,0.047599
4868000,0.0324,0.013523,0.002678,0.000431,0.048304
4869000,0.0324,0.013523,0.002678,0.000431,0.048187
4870000,0.0324,0.013523,0.002678,0.000431,0.047481
4871000,0.0324,0.013523,0.002678,0.000431,0.045601
4872000,0.0324,0.013523,0.002678,0.000431,0.050772
4873000,0.0324,0.013523,0.002678,0.000431,0.045131
4874000,0.0324,0.013523,0.002678,0.000431,0.044191
4875000,0.0324,0.013523,0.002678,0.000431,0.045601
4876000,0.0324,0.013523,0.002678,0.000431,0.047951
4877000,0.0324,0.013523,0.002678,0.000431,0.045248
4878000,0.0324,0.013523,0.002678,0.000431,0.045836
4879000,0.0324,0.013523,0.002678,0.000431,0.045013
4880000,0.0324,0.013523,0.002678,0.000431,0.049597
4881000,0.0324,0.013523,0.002678,0.000431,0.045601
4882000,0.0324,0.013523,0.002678,0.000431,0.045131
4883000,0.0324,0.013523,0.002678,0.000431,0.044543
4884000,0.0324,0.013523,0.002678,0.000431,0.047481
4885000,0.0324,0.013523,0.002678,0.000431,0.046424
4886000,0.0324,0.013523,0.002678,0.000431,0.047364
4887000,0.0324,0.013523,0.002678,0.000431,0.043485
4888000,0.0324,0.013523,0.002678,0.000431,0.047364
4889000,0.0324,0.013523,0.002678,0.000431,0.044543
4890000,0.0324,0.013523,0.002678,0.000431,0.044896
4891000,0.0324,0.013523,0.002678,0.000431,0.047599
4892000,0.0324,0.013523,0.002678,0.000431,0.048304
4893000,0.0324,0.013523,0.002678,0.000431,0.044426
4894000,0.0324,0.013523,0.002678,0.000431,0.045718
4895000,0.0324,0.013523,0.002678,0.000431,0.044191
4896000,0.0324,0.013523,0.002678,0.000431,0.048539
4897000,0.0324,0.013523,0.002678,0.000431,0.047481
4898000,0.0324,0.013523,0.002678,0.000431,0.043838
4899000,0.0324,0.013523,0.002678,0.000431,0.046776
4900000,0.0324,0.013523,0.002678,0.000431,0.044778
4901000,0.0324,0.013523,0.002678,0.000431,0.044896
4902000,0.0324,0.013523,0.002678,0.000431,0.044543
4903000,0.0324,0.013523,0.002678,0.000431,0.048657
4904000,0.0324,0.013523,0.002678,0.000431,0.044661
4905000,0.0324,0.013523,0.002678,0.000431,0.044661
4906000,0.0324,0.013523,0.002678,0.000431,0.044308
4907000,0.0324,0.013523,0.002678,0.000431,0.046424
4908000,0.0324,0.013523,0.002678,0.000431,0.044073
4909000,0.0324,0.013523,0.002678,0.000431,0.044191
4910000,0.0324,0.013523,0.002678,0.000431,0.047129
4911000,0.0324,0.013523,0.002678,0.000431,0.044778
4912000,0.0324,0.013523,0.002678,0.000431,0.046306
4913000,0.0324,0.013523,0.002678,0.000431,0.046189
4914000,0.0324,0.013523,0.002678,0.000431,0.042075
4915000,0.0324,0.013523,0.002678,0.000431,0.046424
4916000,0.0324,0.013523,0.002678,0.000431,0.046071
4917000,0.0324,0.013523,0.002678,0.000431,0.042545
4918000,0.0324,0.013523,0.002678,0.000431,0.044191
4919000,0.0324,0.013523,0.002678,0.000431,0.048187
4920000,0.0324,0.013523,0.002678,0.000431,0.043838
4921000,0.0324,0.013523,0.002678,0.000431,0.043603
4922000,0.0324,0.013523,0.002678,0.000431,0.042193
4923000,0.0324,0.013523,0.002678,0.000431,0.045483
4924000,0.0324,0.013523,0.002678,0.000431,0.044543
4925000,0.0324,0.013523,0.002678,0.000431,0.043250
4926000,0.0324,0.013523,0.002678,0.000431,0.043603
4927000,0.0324,0.013523,0.002678,0.000431,0.048539
4928000,0.0324,0.013523,0.002678,0.000431,0.044073
4929000,0.0324,0.013523,0.002678,0.000431,0.043485
4930000,0.0324,0.013523,0.002678,0.000431,0.046541
4931000,0.0324,0.013523,0.002678,0.000431,0.045483
4932000,0.0324,0.013523,0.002678,0.000431,0.041840
4933000,0.0324,0.013523,0.002678,0.000431,0.044426
4934000,0.0324,0.013523,0.002678,0.000431,0.045248
4935000,0.0324,0.013523,0.002678,0.000431,0.043603
4936000,0.0324,0.013523,0.002678,0.000431,0.044191
4937000,0.0324,0.013523,0.002678,0.000431,0.041958
4938000,0.0324,0.013523,0.002678,0.000431,0.045954
4939000,0.0324,0.013523,0.002678,0.000431,0.043015
4940000,0.0324,0.013523,0.002678,0.000431,0.045248
4941000,0.0324,0.013523,0.002678,0.000431,0.042310
4942000,0.0324,0.013523,0.002678,0.000431,0.047129
4943000,0.0324,0.013523,0.002678,0.000431,0.044543
4944000,0.0324,0.013523,0.002678,0.000431,0.045013
4945000,0.0324,0.013523,0.002678,0.000431,0.045836
4946000,0.0324,0.013523,0.002678,0.000431,0.045366
4947000,0.0324,0.013523,0.002678,0.000431,0.042545
4948000,0.0324,0.013523,0.002678,0.000431,0.040782
4949000,0.0324,0.013523,0.002678,0.000431,0.045601
4950000,0.0324,0.013523,0.002678,0.000431,0.043368
4951000,0.0324,0.013523,0.002678,0.000431,0.042193
4952000,0.0324,0.013523,0.002678,0.000431,0.044896
4953000,0.0324,0.013523,0.002678,0.000431,0.044191
4954000,0.0324,0.013523,0.002678,0.000431,0.043133
4955000,0.0324,0.013523,0.002678,0.000431,0.043015
4956000,0.0324,0.013523,0.002678,0.000431,0.043603
4957000,0.0324,0.013523,0.002678,0.000431,0.046659
4958000,0.0324,0.013523,0.002678,0.000431,0.043956
4959000,0.0324,0.013523,0.002678,0.000431,0.045483
4960000,0.0324,0.013523,0.002678,0.000431,0.043485
4961000,0.0324,0.013523,0.002678,0.000431,0.044073
4962000,0.0324,0.013523,0.002678,0.000431,0.044778
4963000,0.0324,0.013523,0.002678,0.000431,0.042898
4964000,0.0324,0.013523,0.002678,0.000431,0.045954
4965000,0.0324,0.013523,0.002678,0.000431,0.044191
4966000,0.0324,0.013523,0.002678,0.000431,0.043250
4967000,0.0324,0.013523,0.002678,0.000431,0.044191
4968000,0.0324,0.013523,0.002678,0.000431,0.042780
4969000,0.0324,0.013523,0.002678,0.000431,0.045366
4970000,0.0324,0.013523,0.002678,0.000431,0.040900
4971000,0.0324,0.013523,0.002678,0.000431,0.042898
4972000,0.0324,0.013523,0.002678,0.000431,0.044778
4973000,0.0324,0.013523,0.002678,0.000431,0.042428
4974000,0.0324,0.013523,0.002678,0.000431,0.044426
4975000,0.0324,0.013523,0.002678,0.000431,0.043956
4976000,0.0324,0.013523,0.002678,0.000431,0.041017
4977000,0.0324,0.013523,0.002678,0.000431,0.043015
4978000,0.0324,0.013523,0.002678,0.000431,0.043368
4979000,0.0324,0.013523,0.002678,0.000431,0.044073
4980000,0.0324,0.013523,0.002678,0.000431,0.041840
4981000,0.0324,0.013523,0.002678,0.000431,0.046541
4982000,0.0324,0.013523,0.002678,0.000431,0.042428
4983000,0.0324,0.013523,0.002678,0.000431,0.043133
4984000,0.0324,0.013523,0.002678,0.000431,0.044661
4985000,0.0324,0.013523,0.002678,0.000431,0.041958
4986000,0.0324,0.013523,0.002678,0.000431,0.041840
4987000,0.0324,0.013523,0.002678,0.000431,0.041840
4988000,0.0324,0.013523,0.002678,0.000431,0.046189
4989000,0.0324,0.013523,0.002678,0.000431,0.042310
4990000,0.0324,0.013523,0.002678,0.000431,0.042428
4991000,0.0324,0.013523,0.002678,0.000431,0.044543
4992000,0.0324,0.013523,0.002678,0.000431,0.046189
4993000,0.0324,0.013523,0.002678,0.000431,0.042898
4994000,0.0324,0.013523,0.002678,0.000431,0.043603
4995000,0.0324,0.013523,0.002678,0.000431,0.042780
4996000,0.0324,0.013523,0.002678,0.000431,0.044426
4997000,0.0324,0.013523,0.002678,0.000431,0.044778
4998000,0.0324,0.013523,0.002678,0.000431,0.044778
4999000,0.0324,0.013523,0.002678,0.000431,0.043956
