Cycle,Area(mm^2),PeakDynamic(W),SubthresholdLeakage(W),GateLeakage(W),RunTimeDynamic(W)
6000000,0.0324,0.013523,0.002678,0.000431,0.032085
6001000,0.0324,0.013523,0.002678,0.000431,0.033143
6002000,0.0324,0.013523,0.002678,0.000431,0.033378
6003000,0.0324,0.013523,0.002678,0.000431,0.032673
6004000,0.0324,0.013523,0.002678,0.000431,0.032555
6005000,0.0324,0.013523,0.002678,0.000431,0.028794
6006000,0.0324,0.013523,0.002678,0.000431,0.035023
6007000,0.0324,0.013523,0.002678,0.000431,0.033260
6008000,0.0324,0.013523,0.002678,0.000431,0.032438
6009000,0.0324,0.013523,0.002678,0.000431,0.033143
6010000,0.0324,0.013523,0.002678,0.000431,0.034318
6011000,0.0324,0.013523,0.002678,0.000431,0.033966
6012000,0.0324,0.013523,0.002678,0.000431,0.030675
6013000,0.0324,0.013523,0.002678,0.000431,0.034436
6014000,0.0324,0.013523,0.002678,0.000431,0.032790
6015000,0.0324,0.013523,0.002678,0.000431,0.030675
6016000,0.0324,0.013523,0.002678,0.000431,0.030910
6017000,0.0324,0.013523,0.002678,0.000431,0.031968
6018000,0.0324,0.013523,0.002678,0.000431,0.032790
6019000,0.0324,0.013523,0.002678,0.000431,0.032555
6020000,0.0324,0.013523,0.002678,0.000431,0.031498
6021000,0.0324,0.013523,0.002678,0.000431,0.031262
6022000,0.0324,0.013523,0.002678,0.000431,0.032085
6023000,0.0324,0.013523,0.002678,0.000431,0.033731
6024000,0.0324,0.013523,0.002678,0.000431,0.031733
6025000,0.0324,0.013523,0.002678,0.000431,0.032320
6026000,0.0324,0.013523,0.002678,0.000431,0.031498
6027000,0.0324,0.013523,0.002678,0.000431,0.030557
6028000,0.0324,0.013523,0.002678,0.000431,0.033966
6029000,0.0324,0.013523,0.002678,0.000431,0.035376
6030000,0.0324,0.013523,0.002678,0.000431,0.030322
6031000,0.0324,0.013523,0.002678,0.000431,0.028912
6032000,0.0324,0.013523,0.002678,0.000431,0.034906
6033000,0.0324,0.013523,0.002678,0.000431,0.030675
6034000,0.0324,0.013523,0.002678,0.000431,0.034201
6035000,0.0324,0.013523,0.002678,0.000431,0.030087
6036000,0.0324,0.013523,0.002678,0.000431,0.034553
6037000,0.0324,0.013523,0.002678,0.000431,0.032908
6038000,0.0324,0.013523,0.002678,0.000431,0.030675
6039000,0.0324,0.013523,0.002678,0.000431,0.034671
6040000,0.0324,0.013523,0.002678,0.000431,0.033260
6041000,0.0324,0.013523,0.002678,0.000431,0.030322
6042000,0.0324,0.013523,0.002678,0.000431,0.034906
6043000,0.0324,0.013523,0.002678,0.000431,0.034083
6044000,0.0324,0.013523,0.002678,0.000431,0.033025
6045000,0.0324,0.013523,0.002678,0.000431,0.031968
6046000,0.0324,0.013523,0.002678,0.000431,0.031968
6047000,0.0324,0.013523,0.002678,0.000431,0.033966
6048000,0.0324,0.013523,0.002678,0.000431,0.031380
6049000,0.0324,0.013523,0.002678,0.000431,0.031145
6050000,0.0324,0.013523,0.002678,0.000431,0.031145
6051000,0.0324,0.013523,0.002678,0.000431,0.034083
6052000,0.0324,0.013523,0.002678,0.000431,0.029852
6053000,0.0324,0.013523,0.002678,0.000431,0.033848
6054000,0.0324,0.013523,0.002678,0.000431,0.033143
6055000,0.0324,0.013523,0.002678,0.000431,0.033731
6056000,0.0324,0.013523,0.002678,0.000431,0.033731
6057000,0.0324,0.013523,0.002678,0.000431,0.030910
6058000,0.0324,0.013523,0.002678,0.000431,0.030205
6059000,0.0324,0.013523,0.002678,0.000431,0.034318
6060000,0.0324,0.013523,0.002678,0.000431,0.033260
6061000,0.0324,0.013523,0.002678,0.000431,0.033260
6062000,0.0324,0.013523,0.002678,0.000431,0.033260
6063000,0.0324,0.013523,0.002678,0.000431,0.031615
6064000,0.0324,0.013523,0.002678,0.000431,0.032790
6065000,0.0324,0.013523,0.002678,0.000431,0.032203
6066000,0.0324,0.013523,0.002678,0.000431,0.034436
6067000,0.0324,0.013523,0.002678,0.000431,0.032908
6068000,0.0324,0.013523,0.002678,0.000431,0.032908
6069000,0.0324,0.013523,0.002678,0.000431,0.032908
6070000,0.0324,0.013523,0.002678,0.000431,0.033966
6071000,0.0324,0.013523,0.002678,0.000431,0.032320
6072000,0.0324,0.013523,0.002678,0.000431,0.031615
6073000,0.0324,0.013523,0.002678,0.000431,0.032203
6074000,0.0324,0.013523,0.002678,0.000431,0.033378
6075000,0.0324,0.013523,0.002678,0.000431,0.031850
6076000,0.0324,0.013523,0.002678,0.000431,0.033143
6077000,0.0324,0.013523,0.002678,0.000431,0.032908
6078000,0.0324,0.013523,0.002678,0.000431,0.029852
6079000,0.0324,0.013523,0.002678,0.000431,0.032438
6080000,0.0324,0.013523,0.002678,0.000431,0.034788
6081000,0.0324,0.013523,0.002678,0.000431,0.033260
6082000,0.0324,0.013523,0.002678,0.000431,0.033143
6083000,0.0324,0.013523,0.002678,0.000431,0.030087
6084000,0.0324,0.013523,0.002678,0.000431,0.032085
6085000,0.0324,0.013523,0.002678,0.000431,0.033378
6086000,0.0324,0.013523,0.002678,0.000431,0.032790
6087000,0.0324,0.013523,0.002678,0.000431,0.031850
6088000,0.0324,0.013523,0.002678,0.000431,0.031733
6089000,0.0324,0.013523,0.002678,0.000431,0.032438
6090000,0.0324,0.013523,0.002678,0.000431,0.032438
6091000,0.0324,0.013523,0.002678,0.000431,0.032085
6092000,0.0324,0.013523,0.002678,0.000431,0.034671
6093000,0.0324,0.013523,0.002678,0.000431,0.030322
6094000,0.0324,0.013523,0.002678,0.000431,0.030792
6095000,0.0324,0.013523,0.002678,0.000431,0.033025
6096000,0.0324,0.013523,0.002678,0.000431,0.034788
6097000,0.0324,0.013523,0.002678,0.000431,0.032085
6098000,0.0324,0.013523,0.002678,0.000431,0.030322
6099000,0.0324,0.013523,0.002678,0.000431,0.031615
6100000,0.0324,0.013523,0.002678,0.000431,0.034788
6101000,0.0324,0.013523,0.002678,0.000431,0.032673
6102000,0.0324,0.013523,0.002678,0.000431,0.031498
6103000,0.0324,0.013523,0.002678,0.000431,0.034436
6104000,0.0324,0.013523,0.002678,0.000431,0.030322
6105000,0.0324,0.013523,0.002678,0.000431,0.031615
6106000,0.0324,0.013523,0.002678,0.000431,0.031850
6107000,0.0324,0.013523,0.002678,0.000431,0.035611
6108000,0.0324,0.013523,0.002678,0.000431,0.031850
6109000,0.0324,0.013523,0.002678,0.000431,0.032203
6110000,0.0324,0.013523,0.002678,0.000431,0.033143
6111000,0.0324,0.013523,0.002678,0.000431,0.035141
6112000,0.0324,0.013523,0.002678,0.000431,0.030910
6113000,0.0324,0.013523,0.002678,0.000431,0.032555
6114000,0.0324,0.013523,0.002678,0.000431,0.030675
6115000,0.0324,0.013523,0.002678,0.000431,0.034788
6116000,0.0324,0.013523,0.002678,0.000431,0.034083
6117000,0.0324,0.013523,0.002678,0.000431,0.032085
6118000,0.0324,0.013523,0.002678,0.000431,0.033848
6119000,0.0324,0.013523,0.002678,0.000431,0.033496
6120000,0.0324,0.013523,0.002678,0.000431,0.031145
6121000,0.0324,0.013523,0.002678,0.000431,0.032555
6122000,0.0324,0.013523,0.002678,0.000431,0.033143
6123000,0.0324,0.013523,0.002678,0.000431,0.033143
6124000,0.0324,0.013523,0.002678,0.000431,0.032085
6125000,0.0324,0.013523,0.002678,0.000431,0.029382
6126000,0.0324,0.013523,0.002678,0.000431,0.032438
6127000,0.0324,0.013523,0.002678,0.000431,0.033260
6128000,0.0324,0.013523,0.002678,0.000431,0.031498
6129000,0.0324,0.013523,0.002678,0.000431,0.033613
6130000,0.0324,0.013523,0.002678,0.000431,0.031615
6131000,0.0324,0.013523,0.002678,0.000431,0.030557
6132000,0.0324,0.013523,0.002678,0.000431,0.034083
6133000,0.0324,0.013523,0.002678,0.000431,0.031027
6134000,0.0324,0.013523,0.002678,0.000431,0.036199
6135000,0.0324,0.013523,0.002678,0.000431,0.031145
6136000,0.0324,0.013523,0.002678,0.000431,0.031850
6137000,0.0324,0.013523,0.002678,0.000431,0.033025
6138000,0.0324,0.013523,0.002678,0.000431,0.033025
6139000,0.0324,0.013523,0.002678,0.000431,0.032908
6140000,0.0324,0.013523,0.002678,0.000431,0.031027
6141000,0.0324,0.013523,0.002678,0.000431,0.031380
6142000,0.0324,0.013523,0.002678,0.000431,0.034201
6143000,0.0324,0.013523,0.002678,0.000431,0.032203
6144000,0.0324,0.013523,0.002678,0.000431,0.032673
6145000,0.0324,0.013523,0.002678,0.000431,0.033966
6146000,0.0324,0.013523,0.002678,0.000431,0.031498
6147000,0.0324,0.013523,0.002678,0.000431,0.030557
6148000,0.0324,0.013523,0.002678,0.000431,0.033025
6149000,0.0324,0.013523,0.002678,0.000431,0.033613
6150000,0.0324,0.013523,0.002678,0.000431,0.030322
6151000,0.0324,0.013523,0.002678,0.000431,0.031850
6152000,0.0324,0.013523,0.002678,0.000431,0.032320
6153000,0.0324,0.013523,0.002678,0.000431,0.032790
6154000,0.0324,0.013523,0.002678,0.000431,0.031027
6155000,0.0324,0.013523,0.002678,0.000431,0.030792
6156000,0.0324,0.013523,0.002678,0.000431,0.031733
6157000,0.0324,0.013523,0.002678,0.000431,0.031027
6158000,0.0324,0.013523,0.002678,0.000431,0.029735
6159000,0.0324,0.013523,0.002678,0.000431,0.029970
6160000,0.0324,0.013523,0.002678,0.000431,0.031498
6161000,0.0324,0.013523,0.002678,0.000431,0.030440
6162000,0.0324,0.013523,0.002678,0.000431,0.032085
6163000,0.0324,0.013523,0.002678,0.000431,0.030322
6164000,0.0324,0.013523,0.002678,0.000431,0.032908
6165000,0.0324,0.013523,0.002678,0.000431,0.030322
6166000,0.0324,0.013523,0.002678,0.000431,0.029265
6167000,0.0324,0.013523,0.002678,0.000431,0.031027
6168000,0.0324,0.013523,0.002678,0.000431,0.029382
6169000,0.0324,0.013523,0.002678,0.000431,0.031145
6170000,0.0324,0.013523,0.002678,0.000431,0.030205
6171000,0.0324,0.013523,0.002678,0.000431,0.029852
6172000,0.0324,0.013523,0.002678,0.000431,0.031380
6173000,0.0324,0.013523,0.002678,0.000431,0.030205
6174000,0.0324,0.013523,0.002678,0.000431,0.031145
6175000,0.0324,0.013523,0.002678,0.000431,0.029029
6176000,0.0324,0.013523,0.002678,0.000431,0.033025
6177000,0.0324,0.013523,0.002678,0.000431,0.028089
6178000,0.0324,0.013523,0.002678,0.000431,0.030440
6179000,0.0324,0.013523,0.002678,0.000431,0.030675
6180000,0.0324,0.013523,0.002678,0.000431,0.030087
6181000,0.0324,0.013523,0.002678,0.000431,0.029029
6182000,0.0324,0.013523,0.002678,0.000431,0.030792
6183000,0.0324,0.013523,0.002678,0.000431,0.031262
6184000,0.0324,0.013523,0.002678,0.000431,0.028677
6185000,0.0324,0.013523,0.002678,0.000431,0.030910
6186000,0.0324,0.013523,0.002678,0.000431,0.031027
6187000,0.0324,0.013523,0.002678,0.000431,0.031615
6188000,0.0324,0.013523,0.002678,0.000431,0.028912
6189000,0.0324,0.013523,0.002678,0.000431,0.029500
6190000,0.0324,0.013523,0.002678,0.000431,0.031145
6191000,0.0324,0.013523,0.002678,0.000431,0.029970
6192000,0.0324,0.013523,0.002678,0.000431,0.029970
6193000,0.0324,0.013523,0.002678,0.000431,0.031262
6194000,0.0324,0.013523,0.002678,0.000431,0.031027
6195000,0.0324,0.013523,0.002678,0.000431,0.030792
6196000,0.0324,0.013523,0.002678,0.000431,0.030205
6197000,0.0324,0.013523,0.002678,0.000431,0.030087
6198000,0.0324,0.013523,0.002678,0.000431,0.031027
6199000,0.0324,0.013523,0.002678,0.000431,0.031380
6200000,0.0324,0.013523,0.002678,0.000431,0.029029
6201000,0.0324,0.013523,0.002678,0.000431,0.029382
6202000,0.0324,0.013523,0.002678,0.000431,0.032790
6203000,0.0324,0.013523,0.002678,0.000431,0.030322
6204000,0.0324,0.013523,0.002678,0.000431,0.029265
6205000,0.0324,0.013523,0.002678,0.000431,0.031850
6206000,0.0324,0.013523,0.002678,0.000431,0.031262
6207000,0.0324,0.013523,0.002678,0.000431,0.027854
6208000,0.0324,0.013523,0.002678,0.000431,0.028559
6209000,0.0324,0.013523,0.002678,0.000431,0.031498
6210000,0.0324,0.013523,0.002678,0.000431,0.031850
6211000,0.0324,0.013523,0.002678,0.000431,0.029029
6212000,0.0324,0.013523,0.002678,0.000431,0.029500
6213000,0.0324,0.013523,0.002678,0.000431,0.032203
6214000,0.0324,0.013523,0.002678,0.000431,0.028442
6215000,0.0324,0.013523,0.002678,0.000431,0.030087
6216000,0.0324,0.013523,0.002678,0.000431,0.029500
6217000,0.0324,0.013523,0.002678,0.000431,0.032790
6218000,0.0324,0.013523,0.002678,0.000431,0.029147
6219000,0.0324,0.013523,0.002678,0.000431,0.032790
6220000,0.0324,0.013523,0.002678,0.000431,0.029382
6221000,0.0324,0.013523,0.002678,0.000431,0.031262
6222000,0.0324,0.013523,0.002678,0.000431,0.029029
6223000,0.0324,0.013523,0.002678,0.000431,0.030910
6224000,0.0324,0.013523,0.002678,0.000431,0.030675
6225000,0.0324,0.013523,0.002678,0.000431,0.032320
6226000,0.0324,0.013523,0.002678,0.000431,0.027619
6227000,0.0324,0.013523,0.002678,0.000431,0.030792
6228000,0.0324,0.013523,0.002678,0.000431,0.032555
6229000,0.0324,0.013523,0.002678,0.000431,0.031262
6230000,0.0324,0.013523,0.002678,0.000431,0.028677
6231000,0.0324,0.013523,0.002678,0.000431,0.029500
6232000,0.0324,0.013523,0.002678,0.000431,0.031498
6233000,0.0324,0.013523,0.002678,0.000431,0.030087
6234000,0.0324,0.013523,0.002678,0.000431,0.030087
6235000,0.0324,0.013523,0.002678,0.000431,0.030675
6236000,0.0324,0.013523,0.002678,0.000431,0.032203
6237000,0.0324,0.013523,0.002678,0.000431,0.029029
6238000,0.0324,0.013523,0.002678,0.000431,0.031145
6239000,0.0324,0.013523,0.002678,0.000431,0.029735
6240000,0.0324,0.013523,0.002678,0.000431,0.030557
6241000,0.0324,0.013523,0.002678,0.000431,0.028089
6242000,0.0324,0.013523,0.002678,0.000431,0.031145
6243000,0.0324,0.013523,0.002678,0.000431,0.029147
6244000,0.0324,0.013523,0.002678,0.000431,0.031027
6245000,0.0324,0.013523,0.002678,0.000431,0.031262
6246000,0.0324,0.013523,0.002678,0.000431,0.028559
6247000,0.0324,0.013523,0.002678,0.000431,0.030087
6248000,0.0324,0.013523,0.002678,0.000431,0.029852
6249000,0.0324,0.013523,0.002678,0.000431,0.029382
6250000,0.0324,0.013523,0.002678,0.000431,0.030675
6251000,0.0324,0.013523,0.002678,0.000431,0.030322
6252000,0.0324,0.013523,0.002678,0.000431,0.031380
6253000,0.0324,0.013523,0.002678,0.000431,0.031145
6254000,0.0324,0.013523,0.002678,0.000431,0.027502
6255000,0.0324,0.013523,0.002678,0.000431,0.032908
6256000,0.0324,0.013523,0.002678,0.000431,0.031145
6257000,0.0324,0.013523,0.002678,0.000431,0.029029
6258000,0.0324,0.013523,0.002678,0.000431,0.030440
6259000,0.0324,0.013523,0.002678,0.000431,0.030557
6260000,0.0324,0.013523,0.002678,0.000431,0.029852
6261000,0.0324,0.013523,0.002678,0.000431,0.029029
6262000,0.0324,0.013523,0.002678,0.000431,0.028912
6263000,0.0324,0.013523,0.002678,0.000431,0.030440
6264000,0.0324,0.013523,0.002678,0.000431,0.028912
6265000,0.0324,0.013523,0.002678,0.000431,0.032085
6266000,0.0324,0.013523,0.002678,0.000431,0.031850
6267000,0.0324,0.013523,0.002678,0.000431,0.028089
6268000,0.0324,0.013523,0.002678,0.000431,0.031145
6269000,0.0324,0.013523,0.002678,0.000431,0.029852
6270000,0.0324,0.013523,0.002678,0.000431,0.030910
6271000,0.0324,0.013523,0.002678,0.000431,0.030087
6272000,0.0324,0.013523,0.002678,0.000431,0.029852
6273000,0.0324,0.013523,0.002678,0.000431,0.029147
6274000,0.0324,0.013523,0.002678,0.000431,0.031733
6275000,0.0324,0.013523,0.002678,0.000431,0.029382
6276000,0.0324,0.013523,0.002678,0.000431,0.027737
6277000,0.0324,0.013523,0.002678,0.000431,0.030910
6278000,0.0324,0.013523,0.002678,0.000431,0.030557
6279000,0.0324,0.013523,0.002678,0.000431,0.027502
6280000,0.0324,0.013523,0.002678,0.000431,0.028912
6281000,0.0324,0.013523,0.002678,0.000431,0.028794
6282000,0.0324,0.013523,0.002678,0.000431,0.027031
6283000,0.0324,0.013523,0.002678,0.000431,0.028912
6284000,0.0324,0.013523,0.002678,0.000431,0.029970
6285000,0.0324,0.013523,0.002678,0.000431,0.030087
6286000,0.0324,0.013523,0.002678,0.000431,0.029029
6287000,0.0324,0.013523,0.002678,0.000431,0.029617
6288000,0.0324,0.013523,0.002678,0.000431,0.026444
6289000,0.0324,0.013523,0.002678,0.000431,0.031615
6290000,0.0324,0.013523,0.002678,0.000431,0.030205
6291000,0.0324,0.013523,0.002678,0.000431,0.028559
6292000,0.0324,0.013523,0.002678,0.000431,0.030557
6293000,0.0324,0.013523,0.002678,0.000431,0.030675
6294000,0.0324,0.013523,0.002678,0.000431,0.028912
6295000,0.0324,0.013523,0.002678,0.000431,0.027384
6296000,0.0324,0.013523,0.002678,0.000431,0.033613
6297000,0.0324,0.013523,0.002678,0.000431,0.030440
6298000,0.0324,0.013523,0.002678,0.000431,0.028794
6299000,0.0324,0.013523,0.002678,0.000431,0.030557
6300000,0.0324,0.013523,0.002678,0.000431,0.030792
6301000,0.0324,0.013523,0.002678,0.000431,0.028324
6302000,0.0324,0.013523,0.002678,0.000431,0.030792
6303000,0.0324,0.013523,0.002678,0.000431,0.030322
6304000,0.0324,0.013523,0.002678,0.000431,0.030205
6305000,0.0324,0.013523,0.002678,0.000431,0.029852
6306000,0.0324,0.013523,0.002678,0.000431,0.030792
6307000,0.0324,0.013523,0.002678,0.000431,0.029617
6308000,0.0324,0.013523,0.002678,0.000431,0.028912
6309000,0.0324,0.013523,0.002678,0.000431,0.027854
6310000,0.0324,0.013523,0.002678,0.000431,0.028442
6311000,0.0324,0.013523,0.002678,0.000431,0.031027
6312000,0.0324,0.013523,0.002678,0.000431,0.030087
6313000,0.0324,0.013523,0.002678,0.000431,0.028794
6314000,0.0324,0.013523,0.002678,0.000431,0.029735
6315000,0.0324,0.013523,0.002678,0.000431,0.029970
6316000,0.0324,0.013523,0.002678,0.000431,0.028324
6317000,0.0324,0.013523,0.002678,0.000431,0.029382
6318000,0.0324,0.013523,0.002678,0.000431,0.027972
6319000,0.0324,0.013523,0.002678,0.000431,0.030205
6320000,0.0324,0.013523,0.002678,0.000431,0.029852
6321000,0.0324,0.013523,0.002678,0.000431,0.030557
6322000,0.0324,0.013523,0.002678,0.000431,0.029147
6323000,0.0324,0.013523,0.002678,0.000431,0.030087
6324000,0.0324,0.013523,0.002678,0.000431,0.025504
6325000,0.0324,0.013523,0.002678,0.000431,0.028912
6326000,0.0324,0.013523,0.002678,0.000431,0.029852
6327000,0.0324,0.013523,0.002678,0.000431,0.032203
6328000,0.0324,0.013523,0.002678,0.000431,0.026091
6329000,0.0324,0.013523,0.002678,0.000431,0.027149
6330000,0.0324,0.013523,0.002678,0.000431,0.030792
6331000,0.0324,0.013523,0.002678,0.000431,0.031498
6332000,0.0324,0.013523,0.002678,0.000431,0.029382
6333000,0.0324,0.013523,0.002678,0.000431,0.028559
6334000,0.0324,0.013523,0.002678,0.000431,0.030440
6335000,0.0324,0.013523,0.002678,0.000431,0.028559
6336000,0.0324,0.013523,0.002678,0.000431,0.029852
6337000,0.0324,0.013523,0.002678,0.000431,0.031262
6338000,0.0324,0.013523,0.002678,0.000431,0.030440
6339000,0.0324,0.013523,0.002678,0.000431,0.028677
6340000,0.0324,0.013523,0.002678,0.000431,0.029265
6341000,0.0324,0.013523,0.002678,0.000431,0.029617
6342000,0.0324,0.013523,0.002678,0.000431,0.028442
6343000,0.0324,0.013523,0.002678,0.000431,0.030440
6344000,0.0324,0.013523,0.002678,0.000431,0.028207
6345000,0.0324,0.013523,0.002678,0.000431,0.028559
6346000,0.0324,0.013523,0.002678,0.000431,0.029735
6347000,0.0324,0.013523,0.002678,0.000431,0.030557
6348000,0.0324,0.013523,0.002678,0.000431,0.028559
6349000,0.0324,0.013523,0.002678,0.000431,0.028912
6350000,0.0324,0.013523,0.002678,0.000431,0.029852
6351000,0.0324,0.013523,0.002678,0.000431,0.027854
6352000,0.0324,0.013523,0.002678,0.000431,0.030322
6353000,0.0324,0.013523,0.002678,0.000431,0.031027
6354000,0.0324,0.013523,0.002678,0.000431,0.029147
6355000,0.0324,0.013523,0.002678,0.000431,0.026326
6356000,0.0324,0.013523,0.002678,0.000431,0.029735
6357000,0.0324,0.013523,0.002678,0.000431,0.031145
6358000,0.0324,0.013523,0.002678,0.000431,0.026679
6359000,0.0324,0.013523,0.002678,0.000431,0.029852
6360000,0.0324,0.013523,0.002678,0.000431,0.027384
6361000,0.0324,0.013523,0.002678,0.000431,0.029617
6362000,0.0324,0.013523,0.002678,0.000431,0.028089
6363000,0.0324,0.013523,0.002678,0.000431,0.030557
6364000,0.0324,0.013523,0.002678,0.000431,0.030322
6365000,0.0324,0.013523,0.002678,0.000431,0.030440
6366000,0.0324,0.013523,0.002678,0.000431,0.028677
6367000,0.0324,0.013523,0.002678,0.000431,0.027149
6368000,0.0324,0.013523,0.002678,0.000431,0.029500
6369000,0.0324,0.013523,0.002678,0.000431,0.031262
6370000,0.0324,0.013523,0.002678,0.000431,0.027149
6371000,0.0324,0.013523,0.002678,0.000431,0.029029
6372000,0.0324,0.013523,0.002678,0.000431,0.031850
6373000,0.0324,0.013523,0.002678,0.000431,0.027619
6374000,0.0324,0.013523,0.002678,0.000431,0.029147
6375000,0.0324,0.013523,0.002678,0.000431,0.030440
6376000,0.0324,0.013523,0.002678,0.000431,0.029265
6377000,0.0324,0.013523,0.002678,0.000431,0.030087
6378000,0.0324,0.013523,0.002678,0.000431,0.031145
6379000,0.0324,0.013523,0.002678,0.000431,0.029617
6380000,0.0324,0.013523,0.002678,0.000431,0.029382
6381000,0.0324,0.013523,0.002678,0.000431,0.028324
6382000,0.0324,0.013523,0.002678,0.000431,0.029735
6383000,0.0324,0.013523,0.002678,0.000431,0.031733
6384000,0.0324,0.013523,0.002678,0.000431,0.028207
6385000,0.0324,0.013523,0.002678,0.000431,0.029029
6386000,0.0324,0.013523,0.002678,0.000431,0.029029
6387000,0.0324,0.013523,0.002678,0.000431,0.029382
6388000,0.0324,0.013523,0.002678,0.000431,0.030910
6389000,0.0324,0.013523,0.002678,0.000431,0.028559
6390000,0.0324,0.013523,0.002678,0.000431,0.027854
6391000,0.0324,0.013523,0.002678,0.000431,0.030322
6392000,0.0324,0.013523,0.002678,0.000431,0.029265
6393000,0.0324,0.013523,0.002678,0.000431,0.029500
6394000,0.0324,0.013523,0.002678,0.000431,0.028089
6395000,0.0324,0.013523,0.002678,0.000431,0.030557
6396000,0.0324,0.013523,0.002678,0.000431,0.028324
6397000,0.0324,0.013523,0.002678,0.000431,0.028559
6398000,0.0324,0.013523,0.002678,0.000431,0.031380
6399000,0.0324,0.013523,0.002678,0.000431,0.029265
6400000,0.0324,0.013523,0.002678,0.000431,0.029029
6401000,0.0324,0.013523,0.002678,0.000431,0.028442
6402000,0.0324,0.013523,0.002678,0.000431,0.030205
6403000,0.0324,0.013523,0.002678,0.000431,0.029735
6404000,0.0324,0.013523,0.002678,0.000431,0.029500
6405000,0.0324,0.013523,0.002678,0.000431,0.029617
6406000,0.0324,0.013523,0.002678,0.000431,0.029147
6407000,0.0324,0.013523,0.002678,0.000431,0.029029
6408000,0.0324,0.013523,0.002678,0.000431,0.031733
6409000,0.0324,0.013523,0.002678,0.000431,0.028442
6410000,0.0324,0.013523,0.002678,0.000431,0.031733
6411000,0.0324,0.013523,0.002678,0.000431,0.030440
6412000,0.0324,0.013523,0.002678,0.000431,0.027619
6413000,0.0324,0.013523,0.002678,0.000431,0.029029
6414000,0.0324,0.013523,0.002678,0.000431,0.030087
6415000,0.0324,0.013523,0.002678,0.000431,0.029970
6416000,0.0324,0.013523,0.002678,0.000431,0.027972
6417000,0.0324,0.013523,0.002678,0.000431,0.030087
6418000,0.0324,0.013523,0.002678,0.000431,0.028559
6419000,0.0324,0.013523,0.002678,0.000431,0.028442
6420000,0.0324,0.013523,0.002678,0.000431,0.029147
6421000,0.0324,0.013523,0.002678,0.000431,0.031615
6422000,0.0324,0.013523,0.002678,0.000431,0.027972
6423000,0.0324,0.013523,0.002678,0.000431,0.027149
6424000,0.0324,0.013523,0.002678,0.000431,0.029029
6425000,0.0324,0.013523,0.002678,0.000431,0.031145
6426000,0.0324,0.013523,0.002678,0.000431,0.028559
6427000,0.0324,0.013523,0.002678,0.000431,0.027854
6428000,0.0324,0.013523,0.002678,0.000431,0.027502
6429000,0.0324,0.013523,0.002678,0.000431,0.031145
6430000,0.0324,0.013523,0.002678,0.000431,0.029029
6431000,0.0324,0.013523,0.002678,0.000431,0.029735
6432000,0.0324,0.013523,0.002678,0.000431,0.030792
6433000,0.0324,0.013523,0.002678,0.000431,0.026444
6434000,0.0324,0.013523,0.002678,0.000431,0.028559
6435000,0.0324,0.013523,0.002678,0.000431,0.029265
6436000,0.0324,0.013523,0.002678,0.000431,0.029735
6437000,0.0324,0.013523,0.002678,0.000431,0.026091
6438000,0.0324,0.013523,0.002678,0.000431,0.028442
6439000,0.0324,0.013523,0.002678,0.000431,0.028442
6440000,0.0324,0.013523,0.002678,0.000431,0.031615
6441000,0.0324,0.013523,0.002678,0.000431,0.026444
6442000,0.0324,0.013523,0.002678,0.000431,0.029265
6443000,0.0324,0.013523,0.002678,0.000431,0.027854
6444000,0.0324,0.013523,0.002678,0.000431,0.029852
6445000,0.0324,0.013523,0.002678,0.000431,0.029852
6446000,0.0324,0.013523,0.002678,0.000431,0.028324
6447000,0.0324,0.013523,0.002678,0.000431,0.029970
6448000,0.0324,0.013523,0.002678,0.000431,0.027972
6449000,0.0324,0.013523,0.002678,0.000431,0.029735
6450000,0.0324,0.013523,0.002678,0.000431,0.028207
6451000,0.0324,0.013523,0.002678,0.000431,0.028442
6452000,0.0324,0.013523,0.002678,0.000431,0.028207
6453000,0.0324,0.013523,0.002678,0.000431,0.026796
6454000,0.0324,0.013523,0.002678,0.000431,0.028324
6455000,0.0324,0.013523,0.002678,0.000431,0.028677
6456000,0.0324,0.013523,0.002678,0.000431,0.029382
6457000,0.0324,0.013523,0.002678,0.000431,0.027502
6458000,0.0324,0.013523,0.002678,0.000431,0.027737
6459000,0.0324,0.013523,0.002678,0.000431,0.029735
6460000,0.0324,0.013523,0.002678,0.000431,0.028324
6461000,0.0324,0.013523,0.002678,0.000431,0.027854
6462000,0.0324,0.013523,0.002678,0.000431,0.028912
6463000,0.0324,0.013523,0.002678,0.000431,0.026444
6464000,0.0324,0.013523,0.002678,0.000431,0.026326
6465000,0.0324,0.013523,0.002678,0.000431,0.030675
6466000,0.0324,0.013523,0.002678,0.000431,0.027502
6467000,0.0324,0.013523,0.002678,0.000431,0.029382
6468000,0.0324,0.013523,0.002678,0.000431,0.029970
6469000,0.0324,0.013523,0.002678,0.000431,0.028559
6470000,0.0324,0.013523,0.002678,0.000431,0.026326
6471000,0.0324,0.013523,0.002678,0.000431,0.028324
6472000,0.0324,0.013523,0.002678,0.000431,0.031380
6473000,0.0324,0.013523,0.002678,0.000431,0.027737
6474000,0.0324,0.013523,0.002678,0.000431,0.026679
6475000,0.0324,0.013523,0.002678,0.000431,0.029970
6476000,0.0324,0.013523,0.002678,0.000431,0.026679
6477000,0.0324,0.013523,0.002678,0.000431,0.027972
6478000,0.0324,0.013523,0.002678,0.000431,0.029147
6479000,0.0324,0.013523,0.002678,0.000431,0.030792
6480000,0.0324,0.013523,0.002678,0.000431,0.028207
6481000,0.0324,0.013523,0.002678,0.000431,0.029382
6482000,0.0324,0.013523,0.002678,0.000431,0.028442
6483000,0.0324,0.013523,0.002678,0.000431,0.027619
6484000,0.0324,0.013523,0.002678,0.000431,0.028442
6485000,0.0324,0.013523,0.002678,0.000431,0.028324
6486000,0.0324,0.013523,0.002678,0.000431,0.027267
6487000,0.0324,0.013523,0.002678,0.000431,0.029147
6488000,0.0324,0.013523,0.002678,0.000431,0.027031
6489000,0.0324,0.013523,0.002678,0.000431,0.027502
6490000,0.0324,0.013523,0.002678,0.000431,0.027149
6491000,0.0324,0.013523,0.002678,0.000431,0.026326
6492000,0.0324,0.013523,0.002678,0.000431,0.028089
6493000,0.0324,0.013523,0.002678,0.000431,0.027149
6494000,0.0324,0.013523,0.002678,0.000431,0.028207
6495000,0.0324,0.013523,0.002678,0.000431,0.026679
6496000,0.0324,0.013523,0.002678,0.000431,0.026679
6497000,0.0324,0.013523,0.002678,0.000431,0.027031
6498000,0.0324,0.013523,0.002678,0.000431,0.026326
6499000,0.0324,0.013523,0.002678,0.000431,0.029970
6500000,0.0324,0.013523,0.002678,0.000431,0.024798
6501000,0.0324,0.013523,0.002678,0.000431,0.025739
6502000,0.0324,0.013523,0.002678,0.000431,0.028324
6503000,0.0324,0.013523,0.002678,0.000431,0.026444
6504000,0.0324,0.013523,0.002678,0.000431,0.028442
6505000,0.0324,0.013523,0.002678,0.000431,0.026679
6506000,0.0324,0.013523,0.002678,0.000431,0.028559
6507000,0.0324,0.013523,0.002678,0.000431,0.025034
6508000,0.0324,0.013523,0.002678,0.000431,0.026091
6509000,0.0324,0.013523,0.002678,0.000431,0.029617
6510000,0.0324,0.013523,0.002678,0.000431,0.027384
6511000,0.0324,0.013523,0.002678,0.000431,0.026326
6512000,0.0324,0.013523,0.002678,0.000431,0.029265
6513000,0.0324,0.013523,0.002678,0.000431,0.029382
6514000,0.0324,0.013523,0.002678,0.000431,0.025269
6515000,0.0324,0.013523,0.002678,0.000431,0.027384
6516000,0.0324,0.013523,0.002678,0.000431,0.030557
6517000,0.0324,0.013523,0.002678,0.000431,0.027384
6518000,0.0324,0.013523,0.002678,0.000431,0.027384
6519000,0.0324,0.013523,0.002678,0.000431,0.027031
6520000,0.0324,0.013523,0.002678,0.000431,0.029029
6521000,0.0324,0.013523,0.002678,0.000431,0.028207
6522000,0.0324,0.013523,0.002678,0.000431,0.026796
6523000,0.0324,0.013523,0.002678,0.000431,0.028089
6524000,0.0324,0.013523,0.002678,0.000431,0.026914
6525000,0.0324,0.013523,0.002678,0.000431,0.026444
6526000,0.0324,0.013523,0.002678,0.000431,0.030205
6527000,0.0324,0.013523,0.002678,0.000431,0.027502
6528000,0.0324,0.013523,0.002678,0.000431,0.027149
6529000,0.0324,0.013523,0.002678,0.000431,0.027502
6530000,0.0324,0.013523,0.002678,0.000431,0.027267
6531000,0.0324,0.013523,0.002678,0.000431,0.027384
6532000,0.0324,0.013523,0.002678,0.000431,0.027267
6533000,0.0324,0.013523,0.002678,0.000431,0.028089
6534000,0.0324,0.013523,0.002678,0.000431,0.026914
6535000,0.0324,0.013523,0.002678,0.000431,0.026209
6536000,0.0324,0.013523,0.002678,0.000431,0.029265
6537000,0.0324,0.013523,0.002678,0.000431,0.028089
6538000,0.0324,0.013523,0.002678,0.000431,0.026679
6539000,0.0324,0.013523,0.002678,0.000431,0.026326
6540000,0.0324,0.013523,0.002678,0.000431,0.029265
6541000,0.0324,0.013523,0.002678,0.000431,0.026914
6542000,0.0324,0.013523,0.002678,0.000431,0.027502
6543000,0.0324,0.013523,0.002678,0.000431,0.029029
6544000,0.0324,0.013523,0.002678,0.000431,0.026444
6545000,0.0324,0.013523,0.002678,0.000431,0.025739
6546000,0.0324,0.013523,0.002678,0.000431,0.027737
6547000,0.0324,0.013523,0.002678,0.000431,0.026914
6548000,0.0324,0.013523,0.002678,0.000431,0.027972
6549000,0.0324,0.013523,0.002678,0.000431,0.027854
6550000,0.0324,0.013523,0.002678,0.000431,0.028559
6551000,0.0324,0.013523,0.002678,0.000431,0.025504
6552000,0.0324,0.013523,0.002678,0.000431,0.028089
6553000,0.0324,0.013523,0.002678,0.000431,0.028794
6554000,0.0324,0.013523,0.002678,0.000431,0.027267
6555000,0.0324,0.013523,0.002678,0.000431,0.026091
6556000,0.0324,0.013523,0.002678,0.000431,0.028677
6557000,0.0324,0.013523,0.002678,0.000431,0.028207
6558000,0.0324,0.013523,0.002678,0.000431,0.026091
6559000,0.0324,0.013523,0.002678,0.000431,0.026561
6560000,0.0324,0.013523,0.002678,0.000431,0.030557
6561000,0.0324,0.013523,0.002678,0.000431,0.026796
6562000,0.0324,0.013523,0.002678,0.000431,0.026561
6563000,0.0324,0.013523,0.002678,0.000431,0.028207
6564000,0.0324,0.013523,0.002678,0.000431,0.027384
6565000,0.0324,0.013523,0.002678,0.000431,0.025739
6566000,0.0324,0.013523,0.002678,0.000431,0.029265
6567000,0.0324,0.013523,0.002678,0.000431,0.027502
6568000,0.0324,0.013523,0.002678,0.000431,0.025034
6569000,0.0324,0.013523,0.002678,0.000431,0.026444
6570000,0.0324,0.013523,0.002678,0.000431,0.029147
6571000,0.0324,0.013523,0.002678,0.000431,0.027031
6572000,0.0324,0.013523,0.002678,0.000431,0.027854
6573000,0.0324,0.013523,0.002678,0.000431,0.026326
6574000,0.0324,0.013523,0.002678,0.000431,0.027149
6575000,0.0324,0.013523,0.002678,0.000431,0.025504
6576000,0.0324,0.013523,0.002678,0.000431,0.028207
6577000,0.0324,0.013523,0.002678,0.000431,0.028912
6578000,0.0324,0.013523,0.002678,0.000431,0.026209
6579000,0.0324,0.013523,0.002678,0.000431,0.026326
6580000,0.0324,0.013523,0.002678,0.000431,0.027619
6581000,0.0324,0.013523,0.002678,0.000431,0.027267
6582000,0.0324,0.013523,0.002678,0.000431,0.028442
6583000,0.0324,0.013523,0.002678,0.000431,0.027737
6584000,0.0324,0.013523,0.002678,0.000431,0.027031
6585000,0.0324,0.013523,0.002678,0.000431,0.027149
6586000,0.0324,0.013523,0.002678,0.000431,0.028677
6587000,0.0324,0.013523,0.002678,0.000431,0.027972
6588000,0.0324,0.013523,0.002678,0.000431,0.027854
6589000,0.0324,0.013523,0.002678,0.000431,0.024798
6590000,0.0324,0.013523,0.002678,0.000431,0.029735
6591000,0.0324,0.013523,0.002678,0.000431,0.026091
6592000,0.0324,0.013523,0.002678,0.000431,0.026444
6593000,0.0324,0.013523,0.002678,0.000431,0.027854
6594000,0.0324,0.013523,0.002678,0.000431,0.028089
6595000,0.0324,0.013523,0.002678,0.000431,0.024681
6596000,0.0324,0.013523,0.002678,0.000431,0.027267
6597000,0.0324,0.013523,0.002678,0.000431,0.029735
6598000,0.0324,0.013523,0.002678,0.000431,0.027149
6599000,0.0324,0.013523,0.002678,0.000431,0.027149
6600000,0.0324,0.013523,0.002678,0.000431,0.026679
6601000,0.0324,0.013523,0.002678,0.000431,0.024563
6602000,0.0324,0.013523,0.002678,0.000431,0.027972
6603000,0.0324,0.013523,0.002678,0.000431,0.027737
6604000,0.0324,0.013523,0.002678,0.000431,0.029382
6605000,0.0324,0.013523,0.002678,0.000431,0.026326
6606000,0.0324,0.013523,0.002678,0.000431,0.026091
6607000,0.0324,0.013523,0.002678,0.000431,0.027972
6608000,0.0324,0.013523,0.002678,0.000431,0.024563
6609000,0.0324,0.013523,0.002678,0.000431,0.023976
6610000,0.0324,0.013523,0.002678,0.000431,0.026679
6611000,0.0324,0.013523,0.002678,0.000431,0.026561
6612000,0.0324,0.013523,0.002678,0.000431,0.026326
6613000,0.0324,0.013523,0.002678,0.000431,0.027502
6614000,0.0324,0.013523,0.002678,0.000431,0.026796
6615000,0.0324,0.013523,0.002678,0.000431,0.024798
6616000,0.0324,0.013523,0.002678,0.000431,0.025856
6617000,0.0324,0.013523,0.002678,0.000431,0.027502
6618000,0.0324,0.013523,0.002678,0.000431,0.024798
6619000,0.0324,0.013523,0.002678,0.000431,0.027267
6620000,0.0324,0.013523,0.002678,0.000431,0.026679
6621000,0.0324,0.013523,0.002678,0.000431,0.023976
6622000,0.0324,0.013523,0.002678,0.000431,0.025151
6623000,0.0324,0.013523,0.002678,0.000431,0.028089
6624000,0.0324,0.013523,0.002678,0.000431,0.024563
6625000,0.0324,0.013523,0.002678,0.000431,0.025739
6626000,0.0324,0.013523,0.002678,0.000431,0.026444
6627000,0.0324,0.013523,0.002678,0.000431,0.027384
6628000,0.0324,0.013523,0.002678,0.000431,0.026679
6629000,0.0324,0.013523,0.002678,0.000431,0.024798
6630000,0.0324,0.013523,0.002678,0.000431,0.027972
6631000,0.0324,0.013523,0.002678,0.000431,0.022800
6632000,0.0324,0.013523,0.002678,0.000431,0.026796
6633000,0.0324,0.013523,0.002678,0.000431,0.025856
6634000,0.0324,0.013523,0.002678,0.000431,0.026209
6635000,0.0324,0.013523,0.002678,0.000431,0.026209
6636000,0.0324,0.013523,0.002678,0.000431,0.024093
6637000,0.0324,0.013523,0.002678,0.000431,0.025856
6638000,0.0324,0.013523,0.002678,0.000431,0.026561
6639000,0.0324,0.013523,0.002678,0.000431,0.026209
6640000,0.0324,0.013523,0.002678,0.000431,0.025974
6641000,0.0324,0.013523,0.002678,0.000431,0.025386
6642000,0.0324,0.013523,0.002678,0.000431,0.025386
6643000,0.0324,0.013523,0.002678,0.000431,0.025974
6644000,0.0324,0.013523,0.002678,0.000431,0.025856
6645000,0.0324,0.013523,0.002678,0.000431,0.025034
6646000,0.0324,0.013523,0.002678,0.000431,0.026561
6647000,0.0324,0.013523,0.002678,0.000431,0.025386
6648000,0.0324,0.013523,0.002678,0.000431,0.027854
6649000,0.0324,0.013523,0.002678,0.000431,0.023858
6650000,0.0324,0.013523,0.002678,0.000431,0.025151
6651000,0.0324,0.013523,0.002678,0.000431,0.026679
6652000,0.0324,0.013523,0.002678,0.000431,0.025856
6653000,0.0324,0.013523,0.002678,0.000431,0.026914
6654000,0.0324,0.013523,0.002678,0.000431,0.028207
6655000,0.0324,0.013523,0.002678,0.000431,0.025974
6656000,0.0324,0.013523,0.002678,0.000431,0.024798
6657000,0.0324,0.013523,0.002678,0.000431,0.026091
6658000,0.0324,0.013523,0.002678,0.000431,0.026914
6659000,0.0324,0.013523,0.002678,0.000431,0.026209
6660000,0.0324,0.013523,0.002678,0.000431,0.025504
6661000,0.0324,0.013523,0.002678,0.000431,0.026561
6662000,0.0324,0.013523,0.002678,0.000431,0.026209
6663000,0.0324,0.013523,0.002678,0.000431,0.025974
6664000,0.0324,0.013523,0.002678,0.000431,0.026444
6665000,0.0324,0.013523,0.002678,0.000431,0.025151
6666000,0.0324,0.013523,0.002678,0.000431,0.026444
6667000,0.0324,0.013523,0.002678,0.000431,0.023858
6668000,0.0324,0.013523,0.002678,0.000431,0.025856
6669000,0.0324,0.013523,0.002678,0.000431,0.026679
6670000,0.0324,0.013523,0.002678,0.000431,0.025974
6671000,0.0324,0.013523,0.002678,0.000431,0.025504
6672000,0.0324,0.013523,0.002678,0.000431,0.024563
6673000,0.0324,0.013523,0.002678,0.000431,0.027031
6674000,0.0324,0.013523,0.002678,0.000431,0.025386
6675000,0.0324,0.013523,0.002678,0.000431,0.026679
6676000,0.0324,0.013523,0.002678,0.000431,0.023388
6677000,0.0324,0.013523,0.002678,0.000431,0.026444
6678000,0.0324,0.013523,0.002678,0.000431,0.025504
6679000,0.0324,0.013523,0.002678,0.000431,0.025151
6680000,0.0324,0.013523,0.002678,0.000431,0.026796
6681000,0.0324,0.013523,0.002678,0.000431,0.025739
6682000,0.0324,0.013523,0.002678,0.000431,0.025269
6683000,0.0324,0.013523,0.002678,0.000431,0.025739
6684000,0.0324,0.013523,0.002678,0.000431,0.026209
6685000,0.0324,0.013523,0.002678,0.000431,0.027972
6686000,0.0324,0.013523,0.002678,0.000431,0.025151
6687000,0.0324,0.013523,0.002678,0.000431,0.024093
6688000,0.0324,0.013523,0.002678,0.000431,0.025974
6689000,0.0324,0.013523,0.002678,0.000431,0.025739
6690000,0.0324,0.013523,0.002678,0.000431,0.027149
6691000,0.0324,0.013523,0.002678,0.000431,0.026679
6692000,0.0324,0.013523,0.002678,0.000431,0.027854
6693000,0.0324,0.013523,0.002678,0.000431,0.024446
6694000,0.0324,0.013523,0.002678,0.000431,0.024916
6695000,0.0324,0.013523,0.002678,0.000431,0.026679
6696000,0.0324,0.013523,0.002678,0.000431,0.026209
6697000,0.0324,0.013523,0.002678,0.000431,0.024798
6698000,0.0324,0.013523,0.002678,0.000431,0.027267
6699000,0.0324,0.013523,0.002678,0.000431,0.025856
6700000,0.0324,0.013523,0.002678,0.000431,0.024681
6701000,0.0324,0.013523,0.002678,0.000431,0.025739
6702000,0.0324,0.013523,0.002678,0.000431,0.026326
6703000,0.0324,0.013523,0.002678,0.000431,0.023741
6704000,0.0324,0.013523,0.002678,0.000431,0.025739
6705000,0.0324,0.013523,0.002678,0.000431,0.027854
6706000,0.0324,0.013523,0.002678,0.000431,0.025974
6707000,0.0324,0.013523,0.002678,0.000431,0.026091
6708000,0.0324,0.013523,0.002678,0.000431,0.026444
6709000,0.0324,0.013523,0.002678,0.000431,0.023271
6710000,0.0324,0.013523,0.002678,0.000431,0.027502
6711000,0.0324,0.013523,0.002678,0.000431,0.025621
6712000,0.0324,0.013523,0.002678,0.000431,0.025974
6713000,0.0324,0.013523,0.002678,0.000431,0.026091
6714000,0.0324,0.013523,0.002678,0.000431,0.025151
6715000,0.0324,0.013523,0.002678,0.000431,0.025974
6716000,0.0324,0.013523,0.002678,0.000431,0.025504
6717000,0.0324,0.013523,0.002678,0.000431,0.024563
6718000,0.0324,0.013523,0.002678,0.000431,0.026914
6719000,0.0324,0.013523,0.002678,0.000431,0.026091
6720000,0.0324,0.013523,0.002678,0.000431,0.025856
6721000,0.0324,0.013523,0.002678,0.000431,0.025974
6722000,0.0324,0.013523,0.002678,0.000431,0.025621
6723000,0.0324,0.013523,0.002678,0.000431,0.026679
6724000,0.0324,0.013523,0.002678,0.000431,0.024798
6725000,0.0324,0.013523,0.002678,0.000431,0.025856
6726000,0.0324,0.013523,0.002678,0.000431,0.027031
6727000,0.0324,0.013523,0.002678,0.000431,0.024916
6728000,0.0324,0.013523,0.002678,0.000431,0.027267
6729000,0.0324,0.013523,0.002678,0.000431,0.024916
6730000,0.0324,0.013523,0.002678,0.000431,0.027031
6731000,0.0324,0.013523,0.002678,0.000431,0.027972
6732000,0.0324,0.013523,0.002678,0.000431,0.025151
6733000,0.0324,0.013523,0.002678,0.000431,0.024093
6734000,0.0324,0.013523,0.002678,0.000431,0.027267
6735000,0.0324,0.013523,0.002678,0.000431,0.025621
6736000,0.0324,0.013523,0.002678,0.000431,0.025974
6737000,0.0324,0.013523,0.002678,0.000431,0.025856
6738000,0.0324,0.013523,0.002678,0.000431,0.025856
6739000,0.0324,0.013523,0.002678,0.000431,0.026914
6740000,0.0324,0.013523,0.002678,0.000431,0.023623
6741000,0.0324,0.013523,0.002678,0.000431,0.027619
6742000,0.0324,0.013523,0.002678,0.000431,0.025504
6743000,0.0324,0.013523,0.002678,0.000431,0.025504
6744000,0.0324,0.013523,0.002678,0.000431,0.026444
6745000,0.0324,0.013523,0.002678,0.000431,0.025386
6746000,0.0324,0.013523,0.002678,0.000431,0.026561
6747000,0.0324,0.013523,0.002678,0.000431,0.023976
6748000,0.0324,0.013523,0.002678,0.000431,0.023388
6749000,0.0324,0.013523,0.002678,0.000431,0.026561
6750000,0.0324,0.013523,0.002678,0.000431,0.024681
6751000,0.0324,0.013523,0.002678,0.000431,0.025856
6752000,0.0324,0.013523,0.002678,0.000431,0.024916
6753000,0.0324,0.013523,0.002678,0.000431,0.024328
6754000,0.0324,0.013523,0.002678,0.000431,0.025034
6755000,0.0324,0.013523,0.002678,0.000431,0.023976
6756000,0.0324,0.013523,0.002678,0.000431,0.025151
6757000,0.0324,0.013523,0.002678,0.000431,0.026326
6758000,0.0324,0.013523,0.002678,0.000431,0.024916
6759000,0.0324,0.013523,0.002678,0.000431,0.024916
6760000,0.0324,0.013523,0.002678,0.000431,0.025269
6761000,0.0324,0.013523,0.002678,0.000431,0.025739
6762000,0.0324,0.013523,0.002678,0.000431,0.025856
6763000,0.0324,0.013523,0.002678,0.000431,0.024916
6764000,0.0324,0.013523,0.002678,0.000431,0.023741
6765000,0.0324,0.013523,0.002678,0.000431,0.024798
6766000,0.0324,0.013523,0.002678,0.000431,0.024916
6767000,0.0324,0.013523,0.002678,0.000431,0.025974
6768000,0.0324,0.013523,0.002678,0.000431,0.025739
6769000,0.0324,0.013523,0.002678,0.000431,0.023741
6770000,0.0324,0.013523,0.002678,0.000431,0.023741
6771000,0.0324,0.013523,0.002678,0.000431,0.025151
6772000,0.0324,0.013523,0.002678,0.000431,0.026326
6773000,0.0324,0.013523,0.002678,0.000431,0.027031
6774000,0.0324,0.013523,0.002678,0.000431,0.023271
6775000,0.0324,0.013523,0.002678,0.000431,0.024328
6776000,0.0324,0.013523,0.002678,0.000431,0.025269
6777000,0.0324,0.013523,0.002678,0.000431,0.024798
6778000,0.0324,0.013523,0.002678,0.000431,0.026561
6779000,0.0324,0.013523,0.002678,0.000431,0.026326
6780000,0.0324,0.013523,0.002678,0.000431,0.024563
6781000,0.0324,0.013523,0.002678,0.000431,0.023506
6782000,0.0324,0.013523,0.002678,0.000431,0.025974
6783000,0.0324,0.013523,0.002678,0.000431,0.026091
6784000,0.0324,0.013523,0.002678,0.000431,0.024211
6785000,0.0324,0.013523,0.002678,0.000431,0.025856
6786000,0.0324,0.013523,0.002678,0.000431,0.023271
6787000,0.0324,0.013523,0.002678,0.000431,0.025269
6788000,0.0324,0.013523,0.002678,0.000431,0.025034
6789000,0.0324,0.013523,0.002678,0.000431,0.022918
6790000,0.0324,0.013523,0.002678,0.000431,0.025739
6791000,0.0324,0.013523,0.002678,0.000431,0.027267
6792000,0.0324,0.013523,0.002678,0.000431,0.024798
6793000,0.0324,0.013523,0.002678,0.000431,0.023741
6794000,0.0324,0.013523,0.002678,0.000431,0.027502
6795000,0.0324,0.013523,0.002678,0.000431,0.022095
6796000,0.0324,0.013523,0.002678,0.000431,0.024563
6797000,0.0324,0.013523,0.002678,0.000431,0.026679
6798000,0.0324,0.013523,0.002678,0.000431,0.026444
6799000,0.0324,0.013523,0.002678,0.000431,0.024916
6800000,0.0324,0.013523,0.002678,0.000431,0.024798
6801000,0.0324,0.013523,0.002678,0.000431,0.025269
6802000,0.0324,0.013523,0.002678,0.000431,0.023858
6803000,0.0324,0.013523,0.002678,0.000431,0.026091
6804000,0.0324,0.013523,0.002678,0.000431,0.024798
6805000,0.0324,0.013523,0.002678,0.000431,0.024563
6806000,0.0324,0.013523,0.002678,0.000431,0.025856
6807000,0.0324,0.013523,0.002678,0.000431,0.025269
6808000,0.0324,0.013523,0.002678,0.000431,0.024093
6809000,0.0324,0.013523,0.002678,0.000431,0.026091
6810000,0.0324,0.013523,0.002678,0.000431,0.025269
6811000,0.0324,0.013523,0.002678,0.000431,0.024681
6812000,0.0324,0.013523,0.002678,0.000431,0.025504
6813000,0.0324,0.013523,0.002678,0.000431,0.024446
6814000,0.0324,0.013523,0.002678,0.000431,0.027502
6815000,0.0324,0.013523,0.002678,0.000431,0.023976
6816000,0.0324,0.013523,0.002678,0.000431,0.024328
6817000,0.0324,0.013523,0.002678,0.000431,0.025621
6818000,0.0324,0.013523,0.002678,0.000431,0.025386
6819000,0.0324,0.013523,0.002678,0.000431,0.023153
6820000,0.0324,0.013523,0.002678,0.000431,0.025504
6821000,0.0324,0.013523,0.002678,0.000431,0.025974
6822000,0.0324,0.013523,0.002678,0.000431,0.025151
6823000,0.0324,0.013523,0.002678,0.000431,0.025504
6824000,0.0324,0.013523,0.002678,0.000431,0.025386
6825000,0.0324,0.013523,0.002678,0.000431,0.024328
6826000,0.0324,0.013523,0.002678,0.000431,0.025034
6827000,0.0324,0.013523,0.002678,0.000431,0.025151
6828000,0.0324,0.013523,0.002678,0.000431,0.024446
6829000,0.0324,0.013523,0.002678,0.000431,0.023741
6830000,0.0324,0.013523,0.002678,0.000431,0.026326
6831000,0.0324,0.013523,0.002678,0.000431,0.023741
6832000,0.0324,0.013523,0.002678,0.000431,0.022683
6833000,0.0324,0.013523,0.002678,0.000431,0.028207
6834000,0.0324,0.013523,0.002678,0.000431,0.024798
6835000,0.0324,0.013523,0.002678,0.000431,0.025504
6836000,0.0324,0.013523,0.002678,0.000431,0.024211
6837000,0.0324,0.013523,0.002678,0.000431,0.026326
6838000,0.0324,0.013523,0.002678,0.000431,0.026561
6839000,0.0324,0.013523,0.002678,0.000431,0.023858
6840000,0.0324,0.013523,0.002678,0.000431,0.023388
6841000,0.0324,0.013523,0.002678,0.000431,0.026209
6842000,0.0324,0.013523,0.002678,0.000431,0.022800
6843000,0.0324,0.013523,0.002678,0.000431,0.027031
6844000,0.0324,0.013523,0.002678,0.000431,0.025856
6845000,0.0324,0.013523,0.002678,0.000431,0.024446
6846000,0.0324,0.013523,0.002678,0.000431,0.024211
6847000,0.0324,0.013523,0.002678,0.000431,0.024446
6848000,0.0324,0.013523,0.002678,0.000431,0.025621
6849000,0.0324,0.013523,0.002678,0.000431,0.024211
6850000,0.0324,0.013523,0.002678,0.000431,0.025386
6851000,0.0324,0.013523,0.002678,0.000431,0.025504
6852000,0.0324,0.013523,0.002678,0.000431,0.025151
6853000,0.0324,0.013523,0.002678,0.000431,0.026326
6854000,0.0324,0.013523,0.002678,0.000431,0.024328
6855000,0.0324,0.013523,0.002678,0.000431,0.024798
6856000,0.0324,0.013523,0.002678,0.000431,0.026444
6857000,0.0324,0.013523,0.002678,0.000431,0.024446
6858000,0.0324,0.013523,0.002678,0.000431,0.023858
6859000,0.0324,0.013523,0.002678,0.000431,0.027737
6860000,0.0324,0.013523,0.002678,0.000431,0.026326
6861000,0.0324,0.013523,0.002678,0.000431,0.023153
6862000,0.0324,0.013523,0.002678,0.000431,0.026326
6863000,0.0324,0.013523,0.002678,0.000431,0.024446
6864000,0.0324,0.013523,0.002678,0.000431,0.026326
6865000,0.0324,0.013523,0.002678,0.000431,0.024093
6866000,0.0324,0.013523,0.002678,0.000431,0.023858
6867000,0.0324,0.013523,0.002678,0.000431,0.024446
6868000,0.0324,0.013523,0.002678,0.000431,0.024446
6869000,0.0324,0.013523,0.002678,0.000431,0.025504
6870000,0.0324,0.013523,0.002678,0.000431,0.024916
6871000,0.0324,0.013523,0.002678,0.000431,0.024446
6872000,0.0324,0.013523,0.002678,0.000431,0.024211
6873000,0.0324,0.013523,0.002678,0.000431,0.025621
6874000,0.0324,0.013523,0.002678,0.000431,0.026091
6875000,0.0324,0.013523,0.002678,0.000431,0.024093
6876000,0.0324,0.013523,0.002678,0.000431,0.024563
6877000,0.0324,0.013523,0.002678,0.000431,0.026679
6878000,0.0324,0.013523,0.002678,0.000431,0.024681
6879000,0.0324,0.013523,0.002678,0.000431,0.025151
6880000,0.0324,0.013523,0.002678,0.000431,0.025151
6881000,0.0324,0.013523,0.002678,0.000431,0.024563
6882000,0.0324,0.013523,0.002678,0.000431,0.022683
6883000,0.0324,0.013523,0.002678,0.000431,0.027267
6884000,0.0324,0.013523,0.002678,0.000431,0.025739
6885000,0.0324,0.013523,0.002678,0.000431,0.024328
6886000,0.0324,0.013523,0.002678,0.000431,0.027031
6887000,0.0324,0.013523,0.002678,0.000431,0.024798
6888000,0.0324,0.013523,0.002678,0.000431,0.024446
6889000,0.0324,0.013523,0.002678,0.000431,0.024563
6890000,0.0324,0.013523,0.002678,0.000431,0.027267
6891000,0.0324,0.013523,0.002678,0.000431,0.023623
6892000,0.0324,0.013523,0.002678,0.000431,0.025151
6893000,0.0324,0.013523,0.002678,0.000431,0.025386
6894000,0.0324,0.013523,0.002678,0.000431,0.023741
6895000,0.0324,0.013523,0.002678,0.000431,0.026679
6896000,0.0324,0.013523,0.002678,0.000431,0.024681
6897000,0.0324,0.013523,0.002678,0.000431,0.025974
6898000,0.0324,0.013523,0.002678,0.000431,0.023741
6899000,0.0324,0.013523,0.002678,0.000431,0.023976
6900000,0.0324,0.013523,0.002678,0.000431,0.027502
6901000,0.0324,0.013523,0.002678,0.000431,0.026326
6902000,0.0324,0.013523,0.002678,0.000431,0.023271
6903000,0.0324,0.013523,0.002678,0.000431,0.025034
6904000,0.0324,0.013523,0.002678,0.000431,0.026209
6905000,0.0324,0.013523,0.002678,0.000431,0.024093
6906000,0.0324,0.013523,0.002678,0.000431,0.025386
6907000,0.0324,0.013523,0.002678,0.000431,0.025386
6908000,0.0324,0.013523,0.002678,0.000431,0.024798
6909000,0.0324,0.013523,0.002678,0.000431,0.027031
6910000,0.0324,0.013523,0.002678,0.000431,0.024798
6911000,0.0324,0.013523,0.002678,0.000431,0.025974
6912000,0.0324,0.013523,0.002678,0.000431,0.023976
6913000,0.0324,0.013523,0.002678,0.000431,0.025739
6914000,0.0324,0.013523,0.002678,0.000431,0.024211
6915000,0.0324,0.013523,0.002678,0.000431,0.025739
6916000,0.0324,0.013523,0.002678,0.000431,0.026326
6917000,0.0324,0.013523,0.002678,0.000431,0.024798
6918000,0.0324,0.013523,0.002678,0.000431,0.024798
6919000,0.0324,0.013523,0.002678,0.000431,0.023741
6920000,0.0324,0.013523,0.002678,0.000431,0.025974
6921000,0.0324,0.013523,0.002678,0.000431,0.023976
6922000,0.0324,0.013523,0.002678,0.000431,0.025151
6923000,0.0324,0.013523,0.002678,0.000431,0.022800
6924000,0.0324,0.013523,0.002678,0.000431,0.024798
6925000,0.0324,0.013523,0.002678,0.000431,0.026914
6926000,0.0324,0.013523,0.002678,0.000431,0.023741
6927000,0.0324,0.013523,0.002678,0.000431,0.026679
6928000,0.0324,0.013523,0.002678,0.000431,0.025034
6929000,0.0324,0.013523,0.002678,0.000431,0.024093
6930000,0.0324,0.013523,0.002678,0.000431,0.024446
6931000,0.0324,0.013523,0.002678,0.000431,0.025621
6932000,0.0324,0.013523,0.002678,0.000431,0.025386
6933000,0.0324,0.013523,0.002678,0.000431,0.023388
6934000,0.0324,0.013523,0.002678,0.000431,0.024563
6935000,0.0324,0.013523,0.002678,0.000431,0.024446
6936000,0.0324,0.013523,0.002678,0.000431,0.026561
6937000,0.0324,0.013523,0.002678,0.000431,0.023976
6938000,0.0324,0.013523,0.002678,0.000431,0.024563
6939000,0.0324,0.013523,0.002678,0.000431,0.025269
6940000,0.0324,0.013523,0.002678,0.000431,0.023388
6941000,0.0324,0.013523,0.002678,0.000431,0.025269
6942000,0.0324,0.013523,0.002678,0.000431,0.024328
6943000,0.0324,0.013523,0.002678,0.000431,0.025269
6944000,0.0324,0.013523,0.002678,0.000431,0.023741
6945000,0.0324,0.013523,0.002678,0.000431,0.023741
6946000,0.0324,0.013523,0.002678,0.000431,0.026209
6947000,0.0324,0.013523,0.002678,0.000431,0.023858
6948000,0.0324,0.013523,0.002678,0.000431,0.025621
6949000,0.0324,0.013523,0.002678,0.000431,0.024211
6950000,0.0324,0.013523,0.002678,0.000431,0.023271
6951000,0.0324,0.013523,0.002678,0.000431,0.025386
6952000,0.0324,0.013523,0.002678,0.000431,0.024328
6953000,0.0324,0.013523,0.002678,0.000431,0.023036
6954000,0.0324,0.013523,0.002678,0.000431,0.024798
6955000,0.0324,0.013523,0.002678,0.000431,0.025151
6956000,0.0324,0.013523,0.002678,0.000431,0.024798
6957000,0.0324,0.013523,0.002678,0.000431,0.025386
6958000,0.0324,0.013523,0.002678,0.000431,0.026796
6959000,0.0324,0.013523,0.002678,0.000431,0.024093
6960000,0.0324,0.013523,0.002678,0.000431,0.023036
6961000,0.0324,0.013523,0.002678,0.000431,0.025974
6962000,0.0324,0.013523,0.002678,0.000431,0.027267
6963000,0.0324,0.013523,0.002678,0.000431,0.023036
6964000,0.0324,0.013523,0.002678,0.000431,0.022448
6965000,0.0324,0.013523,0.002678,0.000431,0.024798
6966000,0.0324,0.013523,0.002678,0.000431,0.025151
6967000,0.0324,0.013523,0.002678,0.000431,0.024211
6968000,0.0324,0.013523,0.002678,0.000431,0.024211
6969000,0.0324,0.013523,0.002678,0.000431,0.025739
6970000,0.0324,0.013523,0.002678,0.000431,0.024093
6971000,0.0324,0.013523,0.002678,0.000431,0.023858
6972000,0.0324,0.013523,0.002678,0.000431,0.024328
6973000,0.0324,0.013523,0.002678,0.000431,0.024211
6974000,0.0324,0.013523,0.002678,0.000431,0.024446
6975000,0.0324,0.013523,0.002678,0.000431,0.024798
6976000,0.0324,0.013523,0.002678,0.000431,0.024798
6977000,0.0324,0.013523,0.002678,0.000431,0.025151
6978000,0.0324,0.013523,0.002678,0.000431,0.025151
6979000,0.0324,0.013523,0.002678,0.000431,0.023623
6980000,0.0324,0.013523,0.002678,0.000431,0.023153
6981000,0.0324,0.013523,0.002678,0.000431,0.023976
6982000,0.0324,0.013523,0.002678,0.000431,0.023741
6983000,0.0324,0.013523,0.002678,0.000431,0.021390
6984000,0.0324,0.013523,0.002678,0.000431,0.023623
6985000,0.0324,0.013523,0.002678,0.000431,0.024446
6986000,0.0324,0.013523,0.002678,0.000431,0.021273
6987000,0.0324,0.013523,0.002678,0.000431,0.023506
6988000,0.0324,0.013523,0.002678,0.000431,0.023741
6989000,0.0324,0.013523,0.002678,0.000431,0.023976
6990000,0.0324,0.013523,0.002678,0.000431,0.021155
6991000,0.0324,0.013523,0.002678,0.000431,0.024563
6992000,0.0324,0.013523,0.002678,0.000431,0.024798
6993000,0.0324,0.013523,0.002678,0.000431,0.024093
6994000,0.0324,0.013523,0.002678,0.000431,0.023976
6995000,0.0324,0.013523,0.002678,0.000431,0.022095
6996000,0.0324,0.013523,0.002678,0.000431,0.023153
6997000,0.0324,0.013523,0.002678,0.000431,0.023388
6998000,0.0324,0.013523,0.002678,0.000431,0.024093
6999000,0.0324,0.013523,0.002678,0.000431,0.023271
