Cycle,Area(mm^2),PeakDynamic(W),SubthresholdLeakage(W),GateLeakage(W),RunTimeDynamic(W)
5000000,0.0324,0.013523,0.002678,0.000431,0.043485
5001000,0.0324,0.013523,0.002678,0.000431,0.043956
5002000,0.0324,0.013523,0.002678,0.000431,0.041605
5003000,0.0324,0.013523,0.002678,0.000431,0.042075
5004000,0.0324,0.013523,0.002678,0.000431,0.045366
5005000,0.0324,0.013523,0.002678,0.000431,0.041370
5006000,0.0324,0.013523,0.002678,0.000431,0.041605
5007000,0.0324,0.013523,0.002678,0.000431,0.044073
5008000,0.0324,0.013523,0.002678,0.000431,0.044308
5009000,0.0324,0.013523,0.002678,0.000431,0.041017
5010000,0.0324,0.013523,0.002678,0.000431,0.042310
5011000,0.0324,0.013523,0.002678,0.000431,0.042428
5012000,0.0324,0.013523,0.002678,0.000431,0.045718
5013000,0.0324,0.013523,0.002678,0.000431,0.041840
5014000,0.0324,0.013523,0.002678,0.000431,0.041487
5015000,0.0324,0.013523,0.002678,0.000431,0.044308
5016000,0.0324,0.013523,0.002678,0.000431,0.043603
5017000,0.0324,0.013523,0.002678,0.000431,0.044426
5018000,0.0324,0.013523,0.002678,0.000431,0.043603
5019000,0.0324,0.013523,0.002678,0.000431,0.042663
5020000,0.0324,0.013523,0.002678,0.000431,0.044308
5021000,0.0324,0.013523,0.002678,0.000431,0.042663
5022000,0.0324,0.013523,0.002678,0.000431,0.041252
5023000,0.0324,0.013523,0.002678,0.000431,0.044661
5024000,0.0324,0.013523,0.002678,0.000431,0.046189
5025000,0.0324,0.013523,0.002678,0.000431,0.042428
5026000,0.0324,0.013523,0.002678,0.000431,0.044191
5027000,0.0324,0.013523,0.002678,0.000431,0.046541
5028000,0.0324,0.013523,0.002678,0.000431,0.044308
5029000,0.0324,0.013523,0.002678,0.000431,0.043603
5030000,0.0324,0.013523,0.002678,0.000431,0.043250
5031000,0.0324,0.013523,0.002678,0.000431,0.045248
5032000,0.0324,0.013523,0.002678,0.000431,0.044426
5033000,0.0324,0.013523,0.002678,0.000431,0.043956
5034000,0.0324,0.013523,0.002678,0.000431,0.044661
5035000,0.0324,0.013523,0.002678,0.000431,0.043133
5036000,0.0324,0.013523,0.002678,0.000431,0.044896
5037000,0.0324,0.013523,0.002678,0.000431,0.042193
5038000,0.0324,0.013523,0.002678,0.000431,0.043956
5039000,0.0324,0.013523,0.002678,0.000431,0.044426
5040000,0.0324,0.013523,0.002678,0.000431,0.041840
5041000,0.0324,0.013523,0.002678,0.000431,0.043720
5042000,0.0324,0.013523,0.002678,0.000431,0.043956
5043000,0.0324,0.013523,0.002678,0.000431,0.042898
5044000,0.0324,0.013523,0.002678,0.000431,0.043015
5045000,0.0324,0.013523,0.002678,0.000431,0.043838
5046000,0.0324,0.013523,0.002678,0.000431,0.043485
5047000,0.0324,0.013523,0.002678,0.000431,0.042075
5048000,0.0324,0.013523,0.002678,0.000431,0.044896
5049000,0.0324,0.013523,0.002678,0.000431,0.044543
5050000,0.0324,0.013523,0.002678,0.000431,0.043015
5051000,0.0324,0.013523,0.002678,0.000431,0.045013
5052000,0.0324,0.013523,0.002678,0.000431,0.042663
5053000,0.0324,0.013523,0.002678,0.000431,0.042310
5054000,0.0324,0.013523,0.002678,0.000431,0.042663
5055000,0.0324,0.013523,0.002678,0.000431,0.043838
5056000,0.0324,0.013523,0.002678,0.000431,0.042193
5057000,0.0324,0.013523,0.002678,0.000431,0.046189
5058000,0.0324,0.013523,0.002678,0.000431,0.045131
5059000,0.0324,0.013523,0.002678,0.000431,0.042545
5060000,0.0324,0.013523,0.002678,0.000431,0.043250
5061000,0.0324,0.013523,0.002678,0.000431,0.045718
5062000,0.0324,0.013523,0.002678,0.000431,0.040195
5063000,0.0324,0.013523,0.002678,0.000431,0.043603
5064000,0.0324,0.013523,0.002678,0.000431,0.045013
5065000,0.0324,0.013523,0.002678,0.000431,0.044426
5066000,0.0324,0.013523,0.002678,0.000431,0.043133
5067000,0.0324,0.013523,0.002678,0.000431,0.043485
5068000,0.0324,0.013523,0.002678,0.000431,0.044778
5069000,0.0324,0.013523,0.002678,0.000431,0.046189
5070000,0.0324,0.013523,0.002678,0.000431,0.042075
5071000,0.0324,0.013523,0.002678,0.000431,0.045836
5072000,0.0324,0.013523,0.002678,0.000431,0.042428
5073000,0.0324,0.013523,0.002678,0.000431,0.046894
5074000,0.0324,0.013523,0.002678,0.000431,0.043838
5075000,0.0324,0.013523,0.002678,0.000431,0.043368
5076000,0.0324,0.013523,0.002678,0.000431,0.044191
5077000,0.0324,0.013523,0.002678,0.000431,0.041252
5078000,0.0324,0.013523,0.002678,0.000431,0.043603
5079000,0.0324,0.013523,0.002678,0.000431,0.044073
5080000,0.0324,0.013523,0.002678,0.000431,0.045718
5081000,0.0324,0.013523,0.002678,0.000431,0.046776
5082000,0.0324,0.013523,0.002678,0.000431,0.040665
5083000,0.0324,0.013523,0.002678,0.000431,0.044543
5084000,0.0324,0.013523,0.002678,0.000431,0.045366
5085000,0.0324,0.013523,0.002678,0.000431,0.045836
5086000,0.0324,0.013523,0.002678,0.000431,0.039254
5087000,0.0324,0.013523,0.002678,0.000431,0.044661
5088000,0.0324,0.013523,0.002678,0.000431,0.043015
5089000,0.0324,0.013523,0.002678,0.000431,0.041840
5090000,0.0324,0.013523,0.002678,0.000431,0.045248
5091000,0.0324,0.013523,0.002678,0.000431,0.043133
5092000,0.0324,0.013523,0.002678,0.000431,0.044191
5093000,0.0324,0.013523,0.002678,0.000431,0.041370
5094000,0.0324,0.013523,0.002678,0.000431,0.042545
5095000,0.0324,0.013523,0.002678,0.000431,0.041017
5096000,0.0324,0.013523,0.002678,0.000431,0.043015
5097000,0.0324,0.013523,0.002678,0.000431,0.043250
5098000,0.0324,0.013523,0.002678,0.000431,0.045248
5099000,0.0324,0.013523,0.002678,0.000431,0.044191
5100000,0.0324,0.013523,0.002678,0.000431,0.041840
5101000,0.0324,0.013523,0.002678,0.000431,0.045483
5102000,0.0324,0.013523,0.002678,0.000431,0.041252
5103000,0.0324,0.013523,0.002678,0.000431,0.045718
5104000,0.0324,0.013523,0.002678,0.000431,0.045366
5105000,0.0324,0.013523,0.002678,0.000431,0.043368
5106000,0.0324,0.013523,0.002678,0.000431,0.042075
5107000,0.0324,0.013523,0.002678,0.000431,0.044661
5108000,0.0324,0.013523,0.002678,0.000431,0.042780
5109000,0.0324,0.013523,0.002678,0.000431,0.042075
5110000,0.0324,0.013523,0.002678,0.000431,0.040782
5111000,0.0324,0.013523,0.002678,0.000431,0.044191
5112000,0.0324,0.013523,0.002678,0.000431,0.041840
5113000,0.0324,0.013523,0.002678,0.000431,0.041723
5114000,0.0324,0.013523,0.002678,0.000431,0.041252
5115000,0.0324,0.013523,0.002678,0.000431,0.043250
5116000,0.0324,0.013523,0.002678,0.000431,0.042310
5117000,0.0324,0.013523,0.002678,0.000431,0.041723
5118000,0.0324,0.013523,0.002678,0.000431,0.041135
5119000,0.0324,0.013523,0.002678,0.000431,0.042898
5120000,0.0324,0.013523,0.002678,0.000431,0.040900
5121000,0.0324,0.013523,0.002678,0.000431,0.044661
5122000,0.0324,0.013523,0.002678,0.000431,0.041958
5123000,0.0324,0.013523,0.002678,0.000431,0.043485
5124000,0.0324,0.013523,0.002678,0.000431,0.041370
5125000,0.0324,0.013523,0.002678,0.000431,0.042780
5126000,0.0324,0.013523,0.002678,0.000431,0.044191
5127000,0.0324,0.013523,0.002678,0.000431,0.038667
5128000,0.0324,0.013523,0.002678,0.000431,0.043485
5129000,0.0324,0.013523,0.002678,0.000431,0.042663
5130000,0.0324,0.013523,0.002678,0.000431,0.043250
5131000,0.0324,0.013523,0.002678,0.000431,0.042663
5132000,0.0324,0.013523,0.002678,0.000431,0.039137
5133000,0.0324,0.013523,0.002678,0.000431,0.042075
5134000,0.0324,0.013523,0.002678,0.000431,0.043133
5135000,0.0324,0.013523,0.002678,0.000431,0.041135
5136000,0.0324,0.013523,0.002678,0.000431,0.042075
5137000,0.0324,0.013523,0.002678,0.000431,0.043720
5138000,0.0324,0.013523,0.002678,0.000431,0.043956
5139000,0.0324,0.013523,0.002678,0.000431,0.041017
5140000,0.0324,0.013523,0.002678,0.000431,0.042663
5141000,0.0324,0.013523,0.002678,0.000431,0.045836
5142000,0.0324,0.013523,0.002678,0.000431,0.041605
5143000,0.0324,0.013523,0.002678,0.000431,0.040547
5144000,0.0324,0.013523,0.002678,0.000431,0.042310
5145000,0.0324,0.013523,0.002678,0.000431,0.044896
5146000,0.0324,0.013523,0.002678,0.000431,0.041840
5147000,0.0324,0.013523,0.002678,0.000431,0.041370
5148000,0.0324,0.013523,0.002678,0.000431,0.040195
5149000,0.0324,0.013523,0.002678,0.000431,0.041605
5150000,0.0324,0.013523,0.002678,0.000431,0.042193
5151000,0.0324,0.013523,0.002678,0.000431,0.039960
5152000,0.0324,0.013523,0.002678,0.000431,0.039842
5153000,0.0324,0.013523,0.002678,0.000431,0.041252
5154000,0.0324,0.013523,0.002678,0.000431,0.041958
5155000,0.0324,0.013523,0.002678,0.000431,0.039372
5156000,0.0324,0.013523,0.002678,0.000431,0.043368
5157000,0.0324,0.013523,0.002678,0.000431,0.042310
5158000,0.0324,0.013523,0.002678,0.000431,0.038784
5159000,0.0324,0.013523,0.002678,0.000431,0.041958
5160000,0.0324,0.013523,0.002678,0.000431,0.042310
5161000,0.0324,0.013523,0.002678,0.000431,0.044543
5162000,0.0324,0.013523,0.002678,0.000431,0.040782
5163000,0.0324,0.013523,0.002678,0.000431,0.041723
5164000,0.0324,0.013523,0.002678,0.000431,0.041723
5165000,0.0324,0.013523,0.002678,0.000431,0.038902
5166000,0.0324,0.013523,0.002678,0.000431,0.042310
5167000,0.0324,0.013523,0.002678,0.000431,0.040665
5168000,0.0324,0.013523,0.002678,0.000431,0.040077
5169000,0.0324,0.013523,0.002678,0.000431,0.040195
5170000,0.0324,0.013523,0.002678,0.000431,0.040547
5171000,0.0324,0.013523,0.002678,0.000431,0.039960
5172000,0.0324,0.013523,0.002678,0.000431,0.041840
5173000,0.0324,0.013523,0.002678,0.000431,0.041723
5174000,0.0324,0.013523,0.002678,0.000431,0.038314
5175000,0.0324,0.013523,0.002678,0.000431,0.042310
5176000,0.0324,0.013523,0.002678,0.000431,0.042428
5177000,0.0324,0.013523,0.002678,0.000431,0.040195
5178000,0.0324,0.013523,0.002678,0.000431,0.043485
5179000,0.0324,0.013523,0.002678,0.000431,0.042545
5180000,0.0324,0.013523,0.002678,0.000431,0.040782
5181000,0.0324,0.013523,0.002678,0.000431,0.039607
5182000,0.0324,0.013523,0.002678,0.000431,0.041487
5183000,0.0324,0.013523,0.002678,0.000431,0.043603
5184000,0.0324,0.013523,0.002678,0.000431,0.039254
5185000,0.0324,0.013523,0.002678,0.000431,0.041370
5186000,0.0324,0.013523,0.002678,0.000431,0.040430
5187000,0.0324,0.013523,0.002678,0.000431,0.041487
5188000,0.0324,0.013523,0.002678,0.000431,0.039019
5189000,0.0324,0.013523,0.002678,0.000431,0.042428
5190000,0.0324,0.013523,0.002678,0.000431,0.040547
5191000,0.0324,0.013523,0.002678,0.000431,0.041017
5192000,0.0324,0.013523,0.002678,0.000431,0.041840
5193000,0.0324,0.013523,0.002678,0.000431,0.042663
5194000,0.0324,0.013523,0.002678,0.000431,0.041840
5195000,0.0324,0.013523,0.002678,0.000431,0.042545
5196000,0.0324,0.013523,0.002678,0.000431,0.039372
5197000,0.0324,0.013523,0.002678,0.000431,0.040900
5198000,0.0324,0.013523,0.002678,0.000431,0.044073
5199000,0.0324,0.013523,0.002678,0.000431,0.040430
5200000,0.0324,0.013523,0.002678,0.000431,0.041958
5201000,0.0324,0.013523,0.002678,0.000431,0.039489
5202000,0.0324,0.013523,0.002678,0.000431,0.043015
5203000,0.0324,0.013523,0.002678,0.000431,0.040782
5204000,0.0324,0.013523,0.002678,0.000431,0.042310
5205000,0.0324,0.013523,0.002678,0.000431,0.040782
5206000,0.0324,0.013523,0.002678,0.000431,0.043603
5207000,0.0324,0.013523,0.002678,0.000431,0.038902
5208000,0.0324,0.013523,0.002678,0.000431,0.039137
5209000,0.0324,0.013523,0.002678,0.000431,0.041723
5210000,0.0324,0.013523,0.002678,0.000431,0.042545
5211000,0.0324,0.013523,0.002678,0.000431,0.040547
5212000,0.0324,0.013523,0.002678,0.000431,0.039842
5213000,0.0324,0.013523,0.002678,0.000431,0.040900
5214000,0.0324,0.013523,0.002678,0.000431,0.041370
5215000,0.0324,0.013523,0.002678,0.000431,0.042545
5216000,0.0324,0.013523,0.002678,0.000431,0.039254
5217000,0.0324,0.013523,0.002678,0.000431,0.041135
5218000,0.0324,0.013523,0.002678,0.000431,0.039254
5219000,0.0324,0.013523,0.002678,0.000431,0.040547
5220000,0.0324,0.013523,0.002678,0.000431,0.040900
5221000,0.0324,0.013523,0.002678,0.000431,0.043250
5222000,0.0324,0.013523,0.002678,0.000431,0.039725
5223000,0.0324,0.013523,0.002678,0.000431,0.040312
5224000,0.0324,0.013523,0.002678,0.000431,0.042075
5225000,0.0324,0.013523,0.002678,0.000431,0.041840
5226000,0.0324,0.013523,0.002678,0.000431,0.042075
5227000,0.0324,0.013523,0.002678,0.000431,0.039960
5228000,0.0324,0.013523,0.002678,0.000431,0.040195
5229000,0.0324,0.013523,0.002678,0.000431,0.039489
5230000,0.0324,0.013523,0.002678,0.000431,0.042780
5231000,0.0324,0.013523,0.002678,0.000431,0.037609
5232000,0.0324,0.013523,0.002678,0.000431,0.041370
5233000,0.0324,0.013523,0.002678,0.000431,0.040665
5234000,0.0324,0.013523,0.002678,0.000431,0.037844
5235000,0.0324,0.013523,0.002678,0.000431,0.040430
5236000,0.0324,0.013523,0.002678,0.000431,0.043603
5237000,0.0324,0.013523,0.002678,0.000431,0.041605
5238000,0.0324,0.013523,0.002678,0.000431,0.037256
5239000,0.0324,0.013523,0.002678,0.000431,0.041135
5240000,0.0324,0.013523,0.002678,0.000431,0.042310
5241000,0.0324,0.013523,0.002678,0.000431,0.041487
5242000,0.0324,0.013523,0.002678,0.000431,0.040312
5243000,0.0324,0.013523,0.002678,0.000431,0.039489
5244000,0.0324,0.013523,0.002678,0.000431,0.040195
5245000,0.0324,0.013523,0.002678,0.000431,0.039137
5246000,0.0324,0.013523,0.002678,0.000431,0.040782
5247000,0.0324,0.013523,0.002678,0.000431,0.042545
5248000,0.0324,0.013523,0.002678,0.000431,0.039019
5249000,0.0324,0.013523,0.002678,0.000431,0.039019
5250000,0.0324,0.013523,0.002678,0.000431,0.039725
5251000,0.0324,0.013523,0.002678,0.000431,0.043015
5252000,0.0324,0.013523,0.002678,0.000431,0.040665
5253000,0.0324,0.013523,0.002678,0.000431,0.039254
5254000,0.0324,0.013523,0.002678,0.000431,0.038197
5255000,0.0324,0.013523,0.002678,0.000431,0.041017
5256000,0.0324,0.013523,0.002678,0.000431,0.041605
5257000,0.0324,0.013523,0.002678,0.000431,0.040430
5258000,0.0324,0.013523,0.002678,0.000431,0.041135
5259000,0.0324,0.013523,0.002678,0.000431,0.039254
5260000,0.0324,0.013523,0.002678,0.000431,0.038079
5261000,0.0324,0.013523,0.002678,0.000431,0.039372
5262000,0.0324,0.013523,0.002678,0.000431,0.041252
5263000,0.0324,0.013523,0.002678,0.000431,0.038667
5264000,0.0324,0.013523,0.002678,0.000431,0.040312
5265000,0.0324,0.013523,0.002678,0.000431,0.035964
5266000,0.0324,0.013523,0.002678,0.000431,0.043485
5267000,0.0324,0.013523,0.002678,0.000431,0.041135
5268000,0.0324,0.013523,0.002678,0.000431,0.038902
5269000,0.0324,0.013523,0.002678,0.000431,0.041723
5270000,0.0324,0.013523,0.002678,0.000431,0.039254
5271000,0.0324,0.013523,0.002678,0.000431,0.041252
5272000,0.0324,0.013523,0.002678,0.000431,0.040077
5273000,0.0324,0.013523,0.002678,0.000431,0.041487
5274000,0.0324,0.013523,0.002678,0.000431,0.044426
5275000,0.0324,0.013523,0.002678,0.000431,0.037374
5276000,0.0324,0.013523,0.002678,0.000431,0.041252
5277000,0.0324,0.013523,0.002678,0.000431,0.041840
5278000,0.0324,0.013523,0.002678,0.000431,0.039489
5279000,0.0324,0.013523,0.002678,0.000431,0.039254
5280000,0.0324,0.013523,0.002678,0.000431,0.041723
5281000,0.0324,0.013523,0.002678,0.000431,0.040665
5282000,0.0324,0.013523,0.002678,0.000431,0.039254
5283000,0.0324,0.013523,0.002678,0.000431,0.038784
5284000,0.0324,0.013523,0.002678,0.000431,0.039372
5285000,0.0324,0.013523,0.002678,0.000431,0.040782
5286000,0.0324,0.013523,0.002678,0.000431,0.041252
5287000,0.0324,0.013523,0.002678,0.000431,0.041135
5288000,0.0324,0.013523,0.002678,0.000431,0.038902
5289000,0.0324,0.013523,0.002678,0.000431,0.041370
5290000,0.0324,0.013523,0.002678,0.000431,0.042193
5291000,0.0324,0.013523,0.002678,0.000431,0.037256
5292000,0.0324,0.013523,0.002678,0.000431,0.036551
5293000,0.0324,0.013523,0.002678,0.000431,0.042310
5294000,0.0324,0.013523,0.002678,0.000431,0.039137
5295000,0.0324,0.013523,0.002678,0.000431,0.037844
5296000,0.0324,0.013523,0.002678,0.000431,0.039842
5297000,0.0324,0.013523,0.002678,0.000431,0.041135
5298000,0.0324,0.013523,0.002678,0.000431,0.039607
5299000,0.0324,0.013523,0.002678,0.000431,0.039960
5300000,0.0324,0.013523,0.002678,0.000431,0.040312
5301000,0.0324,0.013523,0.002678,0.000431,0.041252
5302000,0.0324,0.013523,0.002678,0.000431,0.039960
5303000,0.0324,0.013523,0.002678,0.000431,0.039725
5304000,0.0324,0.013523,0.002678,0.000431,0.039372
5305000,0.0324,0.013523,0.002678,0.000431,0.040782
5306000,0.0324,0.013523,0.002678,0.000431,0.037256
5307000,0.0324,0.013523,0.002678,0.000431,0.040195
5308000,0.0324,0.013523,0.002678,0.000431,0.041370
5309000,0.0324,0.013523,0.002678,0.000431,0.041135
5310000,0.0324,0.013523,0.002678,0.000431,0.039254
5311000,0.0324,0.013523,0.002678,0.000431,0.038667
5312000,0.0324,0.013523,0.002678,0.000431,0.041370
5313000,0.0324,0.013523,0.002678,0.000431,0.040077
5314000,0.0324,0.013523,0.002678,0.000431,0.039489
5315000,0.0324,0.013523,0.002678,0.000431,0.039842
5316000,0.0324,0.013523,0.002678,0.000431,0.041252
5317000,0.0324,0.013523,0.002678,0.000431,0.041605
5318000,0.0324,0.013523,0.002678,0.000431,0.039725
5319000,0.0324,0.013523,0.002678,0.000431,0.038314
5320000,0.0324,0.013523,0.002678,0.000431,0.041605
5321000,0.0324,0.013523,0.002678,0.000431,0.039489
5322000,0.0324,0.013523,0.002678,0.000431,0.040312
5323000,0.0324,0.013523,0.002678,0.000431,0.042193
5324000,0.0324,0.013523,0.002678,0.000431,0.039254
5325000,0.0324,0.013523,0.002678,0.000431,0.040077
5326000,0.0324,0.013523,0.002678,0.000431,0.041252
5327000,0.0324,0.013523,0.002678,0.000431,0.038902
5328000,0.0324,0.013523,0.002678,0.000431,0.041017
5329000,0.0324,0.013523,0.002678,0.000431,0.036551
5330000,0.0324,0.013523,0.002678,0.000431,0.041135
5331000,0.0324,0.013523,0.002678,0.000431,0.040195
5332000,0.0324,0.013523,0.002678,0.000431,0.040195
5333000,0.0324,0.013523,0.002678,0.000431,0.039372
5334000,0.0324,0.013523,0.002678,0.000431,0.041135
5335000,0.0324,0.013523,0.002678,0.000431,0.035846
5336000,0.0324,0.013523,0.002678,0.000431,0.039019
5337000,0.0324,0.013523,0.002678,0.000431,0.038549
5338000,0.0324,0.013523,0.002678,0.000431,0.042780
5339000,0.0324,0.013523,0.002678,0.000431,0.038667
5340000,0.0324,0.013523,0.002678,0.000431,0.040665
5341000,0.0324,0.013523,0.002678,0.000431,0.039607
5342000,0.0324,0.013523,0.002678,0.000431,0.041370
5343000,0.0324,0.013523,0.002678,0.000431,0.040782
5344000,0.0324,0.013523,0.002678,0.000431,0.039842
5345000,0.0324,0.013523,0.002678,0.000431,0.038314
5346000,0.0324,0.013523,0.002678,0.000431,0.040900
5347000,0.0324,0.013523,0.002678,0.000431,0.040077
5348000,0.0324,0.013523,0.002678,0.000431,0.037021
5349000,0.0324,0.013523,0.002678,0.000431,0.041135
5350000,0.0324,0.013523,0.002678,0.000431,0.040547
5351000,0.0324,0.013523,0.002678,0.000431,0.038432
5352000,0.0324,0.013523,0.002678,0.000431,0.037727
5353000,0.0324,0.013523,0.002678,0.000431,0.041840
5354000,0.0324,0.013523,0.002678,0.000431,0.041723
5355000,0.0324,0.013523,0.002678,0.000431,0.035494
5356000,0.0324,0.013523,0.002678,0.000431,0.039254
5357000,0.0324,0.013523,0.002678,0.000431,0.040195
5358000,0.0324,0.013523,0.002678,0.000431,0.038079
5359000,0.0324,0.013523,0.002678,0.000431,0.040547
5360000,0.0324,0.013523,0.002678,0.000431,0.039725
5361000,0.0324,0.013523,0.002678,0.000431,0.040077
5362000,0.0324,0.013523,0.002678,0.000431,0.039372
5363000,0.0324,0.013523,0.002678,0.000431,0.039607
5364000,0.0324,0.013523,0.002678,0.000431,0.042780
5365000,0.0324,0.013523,0.002678,0.000431,0.038549
5366000,0.0324,0.013523,0.002678,0.000431,0.039372
5367000,0.0324,0.013523,0.002678,0.000431,0.038902
5368000,0.0324,0.013523,0.002678,0.000431,0.039254
5369000,0.0324,0.013523,0.002678,0.000431,0.038667
5370000,0.0324,0.013523,0.002678,0.000431,0.041487
5371000,0.0324,0.013523,0.002678,0.000431,0.036081
5372000,0.0324,0.013523,0.002678,0.000431,0.041017
5373000,0.0324,0.013523,0.002678,0.000431,0.039019
5374000,0.0324,0.013523,0.002678,0.000431,0.040312
5375000,0.0324,0.013523,0.002678,0.000431,0.039489
5376000,0.0324,0.013523,0.002678,0.000431,0.039254
5377000,0.0324,0.013523,0.002678,0.000431,0.038667
5378000,0.0324,0.013523,0.002678,0.000431,0.039489
5379000,0.0324,0.013523,0.002678,0.000431,0.040782
5380000,0.0324,0.013523,0.002678,0.000431,0.040195
5381000,0.0324,0.013523,0.002678,0.000431,0.039607
5382000,0.0324,0.013523,0.002678,0.000431,0.039725
5383000,0.0324,0.013523,0.002678,0.000431,0.039254
5384000,0.0324,0.013523,0.002678,0.000431,0.039137
5385000,0.0324,0.013523,0.002678,0.000431,0.039137
5386000,0.0324,0.013523,0.002678,0.000431,0.038432
5387000,0.0324,0.013523,0.002678,0.000431,0.041252
5388000,0.0324,0.013523,0.002678,0.000431,0.039842
5389000,0.0324,0.013523,0.002678,0.000431,0.038197
5390000,0.0324,0.013523,0.002678,0.000431,0.039725
5391000,0.0324,0.013523,0.002678,0.000431,0.041487
5392000,0.0324,0.013523,0.002678,0.000431,0.036669
5393000,0.0324,0.013523,0.002678,0.000431,0.037844
5394000,0.0324,0.013523,0.002678,0.000431,0.042193
5395000,0.0324,0.013523,0.002678,0.000431,0.036669
5396000,0.0324,0.013523,0.002678,0.000431,0.038079
5397000,0.0324,0.013523,0.002678,0.000431,0.040430
5398000,0.0324,0.013523,0.002678,0.000431,0.040782
5399000,0.0324,0.013523,0.002678,0.000431,0.037256
5400000,0.0324,0.013523,0.002678,0.000431,0.039725
5401000,0.0324,0.013523,0.002678,0.000431,0.038432
5402000,0.0324,0.013523,0.002678,0.000431,0.041017
5403000,0.0324,0.013523,0.002678,0.000431,0.039254
5404000,0.0324,0.013523,0.002678,0.000431,0.038549
5405000,0.0324,0.013523,0.002678,0.000431,0.038784
5406000,0.0324,0.013523,0.002678,0.000431,0.041017
5407000,0.0324,0.013523,0.002678,0.000431,0.037256
5408000,0.0324,0.013523,0.002678,0.000431,0.038784
5409000,0.0324,0.013523,0.002678,0.000431,0.038314
5410000,0.0324,0.013523,0.002678,0.000431,0.037727
5411000,0.0324,0.013523,0.002678,0.000431,0.037609
5412000,0.0324,0.013523,0.002678,0.000431,0.040782
5413000,0.0324,0.013523,0.002678,0.000431,0.040195
5414000,0.0324,0.013523,0.002678,0.000431,0.040195
5415000,0.0324,0.013523,0.002678,0.000431,0.037139
5416000,0.0324,0.013523,0.002678,0.000431,0.038784
5417000,0.0324,0.013523,0.002678,0.000431,0.038432
5418000,0.0324,0.013523,0.002678,0.000431,0.039137
5419000,0.0324,0.013523,0.002678,0.000431,0.035846
5420000,0.0324,0.013523,0.002678,0.000431,0.037256
5421000,0.0324,0.013523,0.002678,0.000431,0.039372
5422000,0.0324,0.013523,0.002678,0.000431,0.038902
5423000,0.0324,0.013523,0.002678,0.000431,0.038549
5424000,0.0324,0.013523,0.002678,0.000431,0.037021
5425000,0.0324,0.013523,0.002678,0.000431,0.036316
5426000,0.0324,0.013523,0.002678,0.000431,0.039372
5427000,0.0324,0.013523,0.002678,0.000431,0.036081
5428000,0.0324,0.013523,0.002678,0.000431,0.041840
5429000,0.0324,0.013523,0.002678,0.000431,0.038197
5430000,0.0324,0.013523,0.002678,0.000431,0.036199
5431000,0.0324,0.013523,0.002678,0.000431,0.038197
5432000,0.0324,0.013523,0.002678,0.000431,0.040547
5433000,0.0324,0.013523,0.002678,0.000431,0.038432
5434000,0.0324,0.013523,0.002678,0.000431,0.037021
5435000,0.0324,0.013523,0.002678,0.000431,0.037962
5436000,0.0324,0.013523,0.002678,0.000431,0.041370
5437000,0.0324,0.013523,0.002678,0.000431,0.036199
5438000,0.0324,0.013523,0.002678,0.000431,0.038549
5439000,0.0324,0.013523,0.002678,0.000431,0.038432
5440000,0.0324,0.013523,0.002678,0.000431,0.039137
5441000,0.0324,0.013523,0.002678,0.000431,0.038549
5442000,0.0324,0.013523,0.002678,0.000431,0.037727
5443000,0.0324,0.013523,0.002678,0.000431,0.040430
5444000,0.0324,0.013523,0.002678,0.000431,0.038432
5445000,0.0324,0.013523,0.002678,0.000431,0.038197
5446000,0.0324,0.013523,0.002678,0.000431,0.038197
5447000,0.0324,0.013523,0.002678,0.000431,0.039607
5448000,0.0324,0.013523,0.002678,0.000431,0.039019
5449000,0.0324,0.013523,0.002678,0.000431,0.037374
5450000,0.0324,0.013523,0.002678,0.000431,0.038432
5451000,0.0324,0.013523,0.002678,0.000431,0.038667
5452000,0.0324,0.013523,0.002678,0.000431,0.036786
5453000,0.0324,0.013523,0.002678,0.000431,0.038432
5454000,0.0324,0.013523,0.002678,0.000431,0.037727
5455000,0.0324,0.013523,0.002678,0.000431,0.040195
5456000,0.0324,0.013523,0.002678,0.000431,0.040900
5457000,0.0324,0.013523,0.002678,0.000431,0.035846
5458000,0.0324,0.013523,0.002678,0.000431,0.038432
5459000,0.0324,0.013523,0.002678,0.000431,0.038079
5460000,0.0324,0.013523,0.002678,0.000431,0.040430
5461000,0.0324,0.013523,0.002678,0.000431,0.035964
5462000,0.0324,0.013523,0.002678,0.000431,0.038432
5463000,0.0324,0.013523,0.002678,0.000431,0.039489
5464000,0.0324,0.013523,0.002678,0.000431,0.037491
5465000,0.0324,0.013523,0.002678,0.000431,0.035023
5466000,0.0324,0.013523,0.002678,0.000431,0.041958
5467000,0.0324,0.013523,0.002678,0.000431,0.034906
5468000,0.0324,0.013523,0.002678,0.000431,0.039254
5469000,0.0324,0.013523,0.002678,0.000431,0.038432
5470000,0.0324,0.013523,0.002678,0.000431,0.038197
5471000,0.0324,0.013523,0.002678,0.000431,0.035611
5472000,0.0324,0.013523,0.002678,0.000431,0.039019
5473000,0.0324,0.013523,0.002678,0.000431,0.037021
5474000,0.0324,0.013523,0.002678,0.000431,0.038667
5475000,0.0324,0.013523,0.002678,0.000431,0.040900
5476000,0.0324,0.013523,0.002678,0.000431,0.036199
5477000,0.0324,0.013523,0.002678,0.000431,0.041723
5478000,0.0324,0.013523,0.002678,0.000431,0.037844
5479000,0.0324,0.013523,0.002678,0.000431,0.039372
5480000,0.0324,0.013523,0.002678,0.000431,0.037256
5481000,0.0324,0.013523,0.002678,0.000431,0.038784
5482000,0.0324,0.013523,0.002678,0.000431,0.037844
5483000,0.0324,0.013523,0.002678,0.000431,0.038432
5484000,0.0324,0.013523,0.002678,0.000431,0.038197
5485000,0.0324,0.013523,0.002678,0.000431,0.039019
5486000,0.0324,0.013523,0.002678,0.000431,0.037491
5487000,0.0324,0.013523,0.002678,0.000431,0.037256
5488000,0.0324,0.013523,0.002678,0.000431,0.038667
5489000,0.0324,0.013523,0.002678,0.000431,0.040547
5490000,0.0324,0.013523,0.002678,0.000431,0.037256
5491000,0.0324,0.013523,0.002678,0.000431,0.036669
5492000,0.0324,0.013523,0.002678,0.000431,0.036434
5493000,0.0324,0.013523,0.002678,0.000431,0.039607
5494000,0.0324,0.013523,0.002678,0.000431,0.038197
5495000,0.0324,0.013523,0.002678,0.000431,0.038902
5496000,0.0324,0.013523,0.002678,0.000431,0.039372
5497000,0.0324,0.013523,0.002678,0.000431,0.037374
5498000,0.0324,0.013523,0.002678,0.000431,0.039489
5499000,0.0324,0.013523,0.002678,0.000431,0.038197
5500000,0.0324,0.013523,0.002678,0.000431,0.036669
5501000,0.0324,0.013523,0.002678,0.000431,0.039489
5502000,0.0324,0.013523,0.002678,0.000431,0.036786
5503000,0.0324,0.013523,0.002678,0.000431,0.038549
5504000,0.0324,0.013523,0.002678,0.000431,0.040782
5505000,0.0324,0.013523,0.002678,0.000431,0.037609
5506000,0.0324,0.013523,0.002678,0.000431,0.037727
5507000,0.0324,0.013523,0.002678,0.000431,0.037139
5508000,0.0324,0.013523,0.002678,0.000431,0.039607
5509000,0.0324,0.013523,0.002678,0.000431,0.038197
5510000,0.0324,0.013523,0.002678,0.000431,0.037491
5511000,0.0324,0.013523,0.002678,0.000431,0.038549
5512000,0.0324,0.013523,0.002678,0.000431,0.038549
5513000,0.0324,0.013523,0.002678,0.000431,0.037491
5514000,0.0324,0.013523,0.002678,0.000431,0.039254
5515000,0.0324,0.013523,0.002678,0.000431,0.038784
5516000,0.0324,0.013523,0.002678,0.000431,0.039489
5517000,0.0324,0.013523,0.002678,0.000431,0.038197
5518000,0.0324,0.013523,0.002678,0.000431,0.038549
5519000,0.0324,0.013523,0.002678,0.000431,0.038667
5520000,0.0324,0.013523,0.002678,0.000431,0.040077
5521000,0.0324,0.013523,0.002678,0.000431,0.036786
5522000,0.0324,0.013523,0.002678,0.000431,0.038902
5523000,0.0324,0.013523,0.002678,0.000431,0.039372
5524000,0.0324,0.013523,0.002678,0.000431,0.037021
5525000,0.0324,0.013523,0.002678,0.000431,0.039137
5526000,0.0324,0.013523,0.002678,0.000431,0.038314
5527000,0.0324,0.013523,0.002678,0.000431,0.038079
5528000,0.0324,0.013523,0.002678,0.000431,0.038079
5529000,0.0324,0.013523,0.002678,0.000431,0.038314
5530000,0.0324,0.013523,0.002678,0.000431,0.039254
5531000,0.0324,0.013523,0.002678,0.000431,0.038902
5532000,0.0324,0.013523,0.002678,0.000431,0.038432
5533000,0.0324,0.013523,0.002678,0.000431,0.035846
5534000,0.0324,0.013523,0.002678,0.000431,0.037727
5535000,0.0324,0.013523,0.002678,0.000431,0.038902
5536000,0.0324,0.013523,0.002678,0.000431,0.037962
5537000,0.0324,0.013523,0.002678,0.000431,0.037844
5538000,0.0324,0.013523,0.002678,0.000431,0.038784
5539000,0.0324,0.013523,0.002678,0.000431,0.040430
5540000,0.0324,0.013523,0.002678,0.000431,0.036316
5541000,0.0324,0.013523,0.002678,0.000431,0.036904
5542000,0.0324,0.013523,0.002678,0.000431,0.041840
5543000,0.0324,0.013523,0.002678,0.000431,0.038314
5544000,0.0324,0.013523,0.002678,0.000431,0.037139
5545000,0.0324,0.013523,0.002678,0.000431,0.038784
5546000,0.0324,0.013523,0.002678,0.000431,0.040900
5547000,0.0324,0.013523,0.002678,0.000431,0.039372
5548000,0.0324,0.013523,0.002678,0.000431,0.034906
5549000,0.0324,0.013523,0.002678,0.000431,0.037727
5550000,0.0324,0.013523,0.002678,0.000431,0.039489
5551000,0.0324,0.013523,0.002678,0.000431,0.037727
5552000,0.0324,0.013523,0.002678,0.000431,0.037256
5553000,0.0324,0.013523,0.002678,0.000431,0.042545
5554000,0.0324,0.013523,0.002678,0.000431,0.035141
5555000,0.0324,0.013523,0.002678,0.000431,0.037609
5556000,0.0324,0.013523,0.002678,0.000431,0.037727
5557000,0.0324,0.013523,0.002678,0.000431,0.040195
5558000,0.0324,0.013523,0.002678,0.000431,0.038197
5559000,0.0324,0.013523,0.002678,0.000431,0.036551
5560000,0.0324,0.013523,0.002678,0.000431,0.038902
5561000,0.0324,0.013523,0.002678,0.000431,0.037491
5562000,0.0324,0.013523,0.002678,0.000431,0.038667
5563000,0.0324,0.013523,0.002678,0.000431,0.036786
5564000,0.0324,0.013523,0.002678,0.000431,0.037374
5565000,0.0324,0.013523,0.002678,0.000431,0.039019
5566000,0.0324,0.013523,0.002678,0.000431,0.038432
5567000,0.0324,0.013523,0.002678,0.000431,0.036081
5568000,0.0324,0.013523,0.002678,0.000431,0.038667
5569000,0.0324,0.013523,0.002678,0.000431,0.038197
5570000,0.0324,0.013523,0.002678,0.000431,0.037962
5571000,0.0324,0.013523,0.002678,0.000431,0.036551
5572000,0.0324,0.013523,0.002678,0.000431,0.037256
5573000,0.0324,0.013523,0.002678,0.000431,0.038197
5574000,0.0324,0.013523,0.002678,0.000431,0.036434
5575000,0.0324,0.013523,0.002678,0.000431,0.034436
5576000,0.0324,0.013523,0.002678,0.000431,0.041252
5577000,0.0324,0.013523,0.002678,0.000431,0.037727
5578000,0.0324,0.013523,0.002678,0.000431,0.037139
5579000,0.0324,0.013523,0.002678,0.000431,0.037491
5580000,0.0324,0.013523,0.002678,0.000431,0.038902
5581000,0.0324,0.013523,0.002678,0.000431,0.038667
5582000,0.0324,0.013523,0.002678,0.000431,0.036669
5583000,0.0324,0.013523,0.002678,0.000431,0.039960
5584000,0.0324,0.013523,0.002678,0.000431,0.035141
5585000,0.0324,0.013523,0.002678,0.000431,0.037727
5586000,0.0324,0.013523,0.002678,0.000431,0.039019
5587000,0.0324,0.013523,0.002678,0.000431,0.040195
5588000,0.0324,0.013523,0.002678,0.000431,0.037962
5589000,0.0324,0.013523,0.002678,0.000431,0.036904
5590000,0.0324,0.013523,0.002678,0.000431,0.036904
5591000,0.0324,0.013523,0.002678,0.000431,0.036081
5592000,0.0324,0.013523,0.002678,0.000431,0.038314
5593000,0.0324,0.013523,0.002678,0.000431,0.037727
5594000,0.0324,0.013523,0.002678,0.000431,0.037727
5595000,0.0324,0.013523,0.002678,0.000431,0.037139
5596000,0.0324,0.013523,0.002678,0.000431,0.037962
5597000,0.0324,0.013523,0.002678,0.000431,0.036669
5598000,0.0324,0.013523,0.002678,0.000431,0.039019
5599000,0.0324,0.013523,0.002678,0.000431,0.037844
5600000,0.0324,0.013523,0.002678,0.000431,0.035846
5601000,0.0324,0.013523,0.002678,0.000431,0.038197
5602000,0.0324,0.013523,0.002678,0.000431,0.039137
5603000,0.0324,0.013523,0.002678,0.000431,0.036904
5604000,0.0324,0.013523,0.002678,0.000431,0.037139
5605000,0.0324,0.013523,0.002678,0.000431,0.036669
5606000,0.0324,0.013523,0.002678,0.000431,0.037139
5607000,0.0324,0.013523,0.002678,0.000431,0.038314
5608000,0.0324,0.013523,0.002678,0.000431,0.037727
5609000,0.0324,0.013523,0.002678,0.000431,0.035258
5610000,0.0324,0.013523,0.002678,0.000431,0.039725
5611000,0.0324,0.013523,0.002678,0.000431,0.037727
5612000,0.0324,0.013523,0.002678,0.000431,0.035846
5613000,0.0324,0.013523,0.002678,0.000431,0.038549
5614000,0.0324,0.013523,0.002678,0.000431,0.036669
5615000,0.0324,0.013523,0.002678,0.000431,0.036434
5616000,0.0324,0.013523,0.002678,0.000431,0.036904
5617000,0.0324,0.013523,0.002678,0.000431,0.040665
5618000,0.0324,0.013523,0.002678,0.000431,0.036434
5619000,0.0324,0.013523,0.002678,0.000431,0.033966
5620000,0.0324,0.013523,0.002678,0.000431,0.035846
5621000,0.0324,0.013523,0.002678,0.000431,0.038549
5622000,0.0324,0.013523,0.002678,0.000431,0.036081
5623000,0.0324,0.013523,0.002678,0.000431,0.037727
5624000,0.0324,0.013523,0.002678,0.000431,0.036199
5625000,0.0324,0.013523,0.002678,0.000431,0.038902
5626000,0.0324,0.013523,0.002678,0.000431,0.036316
5627000,0.0324,0.013523,0.002678,0.000431,0.036434
5628000,0.0324,0.013523,0.002678,0.000431,0.037609
5629000,0.0324,0.013523,0.002678,0.000431,0.035846
5630000,0.0324,0.013523,0.002678,0.000431,0.036551
5631000,0.0324,0.013523,0.002678,0.000431,0.037374
5632000,0.0324,0.013523,0.002678,0.000431,0.037256
5633000,0.0324,0.013523,0.002678,0.000431,0.039019
5634000,0.0324,0.013523,0.002678,0.000431,0.035729
5635000,0.0324,0.013523,0.002678,0.000431,0.034318
5636000,0.0324,0.013523,0.002678,0.000431,0.040430
5637000,0.0324,0.013523,0.002678,0.000431,0.034788
5638000,0.0324,0.013523,0.002678,0.000431,0.037609
5639000,0.0324,0.013523,0.002678,0.000431,0.035846
5640000,0.0324,0.013523,0.002678,0.000431,0.037962
5641000,0.0324,0.013523,0.002678,0.000431,0.037962
5642000,0.0324,0.013523,0.002678,0.000431,0.034436
5643000,0.0324,0.013523,0.002678,0.000431,0.035846
5644000,0.0324,0.013523,0.002678,0.000431,0.038784
5645000,0.0324,0.013523,0.002678,0.000431,0.034788
5646000,0.0324,0.013523,0.002678,0.000431,0.036551
5647000,0.0324,0.013523,0.002678,0.000431,0.038902
5648000,0.0324,0.013523,0.002678,0.000431,0.036551
5649000,0.0324,0.013523,0.002678,0.000431,0.035494
5650000,0.0324,0.013523,0.002678,0.000431,0.037609
5651000,0.0324,0.013523,0.002678,0.000431,0.039137
5652000,0.0324,0.013523,0.002678,0.000431,0.035729
5653000,0.0324,0.013523,0.002678,0.000431,0.037727
5654000,0.0324,0.013523,0.002678,0.000431,0.037844
5655000,0.0324,0.013523,0.002678,0.000431,0.039254
5656000,0.0324,0.013523,0.002678,0.000431,0.036551
5657000,0.0324,0.013523,0.002678,0.000431,0.036551
5658000,0.0324,0.013523,0.002678,0.000431,0.038314
5659000,0.0324,0.013523,0.002678,0.000431,0.038432
5660000,0.0324,0.013523,0.002678,0.000431,0.037609
5661000,0.0324,0.013523,0.002678,0.000431,0.036786
5662000,0.0324,0.013523,0.002678,0.000431,0.039254
5663000,0.0324,0.013523,0.002678,0.000431,0.038314
5664000,0.0324,0.013523,0.002678,0.000431,0.035376
5665000,0.0324,0.013523,0.002678,0.000431,0.035846
5666000,0.0324,0.013523,0.002678,0.000431,0.038784
5667000,0.0324,0.013523,0.002678,0.000431,0.037021
5668000,0.0324,0.013523,0.002678,0.000431,0.034906
5669000,0.0324,0.013523,0.002678,0.000431,0.037609
5670000,0.0324,0.013523,0.002678,0.000431,0.037962
5671000,0.0324,0.013523,0.002678,0.000431,0.037962
5672000,0.0324,0.013523,0.002678,0.000431,0.035494
5673000,0.0324,0.013523,0.002678,0.000431,0.037374
5674000,0.0324,0.013523,0.002678,0.000431,0.039372
5675000,0.0324,0.013523,0.002678,0.000431,0.036786
5676000,0.0324,0.013523,0.002678,0.000431,0.034201
5677000,0.0324,0.013523,0.002678,0.000431,0.040077
5678000,0.0324,0.013523,0.002678,0.000431,0.036081
5679000,0.0324,0.013523,0.002678,0.000431,0.038079
5680000,0.0324,0.013523,0.002678,0.000431,0.034671
5681000,0.0324,0.013523,0.002678,0.000431,0.040547
5682000,0.0324,0.013523,0.002678,0.000431,0.037021
5683000,0.0324,0.013523,0.002678,0.000431,0.037021
5684000,0.0324,0.013523,0.002678,0.000431,0.038549
5685000,0.0324,0.013523,0.002678,0.000431,0.037021
5686000,0.0324,0.013523,0.002678,0.000431,0.036199
5687000,0.0324,0.013523,0.002678,0.000431,0.037021
5688000,0.0324,0.013523,0.002678,0.000431,0.035964
5689000,0.0324,0.013523,0.002678,0.000431,0.037844
5690000,0.0324,0.013523,0.002678,0.000431,0.036551
5691000,0.0324,0.013523,0.002678,0.000431,0.038432
5692000,0.0324,0.013523,0.002678,0.000431,0.035376
5693000,0.0324,0.013523,0.002678,0.000431,0.035846
5694000,0.0324,0.013523,0.002678,0.000431,0.040312
5695000,0.0324,0.013523,0.002678,0.000431,0.035494
5696000,0.0324,0.013523,0.002678,0.000431,0.038667
5697000,0.0324,0.013523,0.002678,0.000431,0.036669
5698000,0.0324,0.013523,0.002678,0.000431,0.038079
5699000,0.0324,0.013523,0.002678,0.000431,0.037021
5700000,0.0324,0.013523,0.002678,0.000431,0.038432
5701000,0.0324,0.013523,0.002678,0.000431,0.038784
5702000,0.0324,0.013523,0.002678,0.000431,0.035964
5703000,0.0324,0.013523,0.002678,0.000431,0.035494
5704000,0.0324,0.013523,0.002678,0.000431,0.039607
5705000,0.0324,0.013523,0.002678,0.000431,0.036786
5706000,0.0324,0.013523,0.002678,0.000431,0.035964
5707000,0.0324,0.013523,0.002678,0.000431,0.036081
5708000,0.0324,0.013523,0.002678,0.000431,0.038314
5709000,0.0324,0.013523,0.002678,0.000431,0.034788
5710000,0.0324,0.013523,0.002678,0.000431,0.036081
5711000,0.0324,0.013523,0.002678,0.000431,0.038314
5712000,0.0324,0.013523,0.002678,0.000431,0.036904
5713000,0.0324,0.013523,0.002678,0.000431,0.035729
5714000,0.0324,0.013523,0.002678,0.000431,0.035846
5715000,0.0324,0.013523,0.002678,0.000431,0.039489
5716000,0.0324,0.013523,0.002678,0.000431,0.034788
5717000,0.0324,0.013523,0.002678,0.000431,0.037609
5718000,0.0324,0.013523,0.002678,0.000431,0.038549
5719000,0.0324,0.013523,0.002678,0.000431,0.036434
5720000,0.0324,0.013523,0.002678,0.000431,0.037139
5721000,0.0324,0.013523,0.002678,0.000431,0.038667
5722000,0.0324,0.013523,0.002678,0.000431,0.033260
5723000,0.0324,0.013523,0.002678,0.000431,0.037727
5724000,0.0324,0.013523,0.002678,0.000431,0.038902
5725000,0.0324,0.013523,0.002678,0.000431,0.036316
5726000,0.0324,0.013523,0.002678,0.000431,0.037844
5727000,0.0324,0.013523,0.002678,0.000431,0.038784
5728000,0.0324,0.013523,0.002678,0.000431,0.035494
5729000,0.0324,0.013523,0.002678,0.000431,0.038197
5730000,0.0324,0.013523,0.002678,0.000431,0.036904
5731000,0.0324,0.013523,0.002678,0.000431,0.038079
5732000,0.0324,0.013523,0.002678,0.000431,0.036316
5733000,0.0324,0.013523,0.002678,0.000431,0.035846
5734000,0.0324,0.013523,0.002678,0.000431,0.038314
5735000,0.0324,0.013523,0.002678,0.000431,0.037374
5736000,0.0324,0.013523,0.002678,0.000431,0.036551
5737000,0.0324,0.013523,0.002678,0.000431,0.036199
5738000,0.0324,0.013523,0.002678,0.000431,0.035494
5739000,0.0324,0.013523,0.002678,0.000431,0.036199
5740000,0.0324,0.013523,0.002678,0.000431,0.035376
5741000,0.0324,0.013523,0.002678,0.000431,0.036551
5742000,0.0324,0.013523,0.002678,0.000431,0.037139
5743000,0.0324,0.013523,0.002678,0.000431,0.036669
5744000,0.0324,0.013523,0.002678,0.000431,0.034906
5745000,0.0324,0.013523,0.002678,0.000431,0.034906
5746000,0.0324,0.013523,0.002678,0.000431,0.034201
5747000,0.0324,0.013523,0.002678,0.000431,0.033378
5748000,0.0324,0.013523,0.002678,0.000431,0.035258
5749000,0.0324,0.013523,0.002678,0.000431,0.035023
5750000,0.0324,0.013523,0.002678,0.000431,0.031380
5751000,0.0324,0.013523,0.002678,0.000431,0.038784
5752000,0.0324,0.013523,0.002678,0.000431,0.033025
5753000,0.0324,0.013523,0.002678,0.000431,0.034788
5754000,0.0324,0.013523,0.002678,0.000431,0.033848
5755000,0.0324,0.013523,0.002678,0.000431,0.034553
5756000,0.0324,0.013523,0.002678,0.000431,0.036199
5757000,0.0324,0.013523,0.002678,0.000431,0.034553
5758000,0.0324,0.013523,0.002678,0.000431,0.034318
5759000,0.0324,0.013523,0.002678,0.000431,0.032438
5760000,0.0324,0.013523,0.002678,0.000431,0.035141
5761000,0.0324,0.013523,0.002678,0.000431,0.036316
5762000,0.0324,0.013523,0.002678,0.000431,0.033143
5763000,0.0324,0.013523,0.002678,0.000431,0.033848
5764000,0.0324,0.013523,0.002678,0.000431,0.035023
5765000,0.0324,0.013523,0.002678,0.000431,0.035023
5766000,0.0324,0.013523,0.002678,0.000431,0.032320
5767000,0.0324,0.013523,0.002678,0.000431,0.035494
5768000,0.0324,0.013523,0.002678,0.000431,0.035023
5769000,0.0324,0.013523,0.002678,0.000431,0.036199
5770000,0.0324,0.013523,0.002678,0.000431,0.032203
5771000,0.0324,0.013523,0.002678,0.000431,0.034788
5772000,0.0324,0.013523,0.002678,0.000431,0.034201
5773000,0.0324,0.013523,0.002678,0.000431,0.034318
5774000,0.0324,0.013523,0.002678,0.000431,0.035376
5775000,0.0324,0.013523,0.002678,0.000431,0.034906
5776000,0.0324,0.013523,0.002678,0.000431,0.034436
5777000,0.0324,0.013523,0.002678,0.000431,0.035494
5778000,0.0324,0.013523,0.002678,0.000431,0.035729
5779000,0.0324,0.013523,0.002678,0.000431,0.036669
5780000,0.0324,0.013523,0.002678,0.000431,0.031733
5781000,0.0324,0.013523,0.002678,0.000431,0.034553
5782000,0.0324,0.013523,0.002678,0.000431,0.037727
5783000,0.0324,0.013523,0.002678,0.000431,0.034906
5784000,0.0324,0.013523,0.002678,0.000431,0.034318
5785000,0.0324,0.013523,0.002678,0.000431,0.035494
5786000,0.0324,0.013523,0.002678,0.000431,0.033496
5787000,0.0324,0.013523,0.002678,0.000431,0.037727
5788000,0.0324,0.013523,0.002678,0.000431,0.034083
5789000,0.0324,0.013523,0.002678,0.000431,0.036199
5790000,0.0324,0.013523,0.002678,0.000431,0.035611
5791000,0.0324,0.013523,0.002678,0.000431,0.033613
5792000,0.0324,0.013523,0.002678,0.000431,0.036669
5793000,0.0324,0.013523,0.002678,0.000431,0.034671
5794000,0.0324,0.013523,0.002678,0.000431,0.034906
5795000,0.0324,0.013523,0.002678,0.000431,0.034201
5796000,0.0324,0.013523,0.002678,0.000431,0.033496
5797000,0.0324,0.013523,0.002678,0.000431,0.034436
5798000,0.0324,0.013523,0.002678,0.000431,0.036669
5799000,0.0324,0.013523,0.002678,0.000431,0.034318
5800000,0.0324,0.013523,0.002678,0.000431,0.036081
5801000,0.0324,0.013523,0.002678,0.000431,0.035023
5802000,0.0324,0.013523,0.002678,0.000431,0.034671
5803000,0.0324,0.013523,0.002678,0.000431,0.035023
5804000,0.0324,0.013523,0.002678,0.000431,0.035494
5805000,0.0324,0.013523,0.002678,0.000431,0.033848
5806000,0.0324,0.013523,0.002678,0.000431,0.035494
5807000,0.0324,0.013523,0.002678,0.000431,0.032790
5808000,0.0324,0.013523,0.002678,0.000431,0.034788
5809000,0.0324,0.013523,0.002678,0.000431,0.036904
5810000,0.0324,0.013523,0.002678,0.000431,0.033143
5811000,0.0324,0.013523,0.002678,0.000431,0.035611
5812000,0.0324,0.013523,0.002678,0.000431,0.036316
5813000,0.0324,0.013523,0.002678,0.000431,0.034318
5814000,0.0324,0.013523,0.002678,0.000431,0.035023
5815000,0.0324,0.013523,0.002678,0.000431,0.036786
5816000,0.0324,0.013523,0.002678,0.000431,0.036669
5817000,0.0324,0.013523,0.002678,0.000431,0.033613
5818000,0.0324,0.013523,0.002678,0.000431,0.034906
5819000,0.0324,0.013523,0.002678,0.000431,0.035023
5820000,0.0324,0.013523,0.002678,0.000431,0.035611
5821000,0.0324,0.013523,0.002678,0.000431,0.033025
5822000,0.0324,0.013523,0.002678,0.000431,0.034906
5823000,0.0324,0.013523,0.002678,0.000431,0.033613
5824000,0.0324,0.013523,0.002678,0.000431,0.037021
5825000,0.0324,0.013523,0.002678,0.000431,0.032555
5826000,0.0324,0.013523,0.002678,0.000431,0.033731
5827000,0.0324,0.013523,0.002678,0.000431,0.032673
5828000,0.0324,0.013523,0.002678,0.000431,0.036434
5829000,0.0324,0.013523,0.002678,0.000431,0.032320
5830000,0.0324,0.013523,0.002678,0.000431,0.033848
5831000,0.0324,0.013523,0.002678,0.000431,0.035258
5832000,0.0324,0.013523,0.002678,0.000431,0.035023
5833000,0.0324,0.013523,0.002678,0.000431,0.036434
5834000,0.0324,0.013523,0.002678,0.000431,0.034788
5835000,0.0324,0.013523,0.002678,0.000431,0.036316
5836000,0.0324,0.013523,0.002678,0.000431,0.036786
5837000,0.0324,0.013523,0.002678,0.000431,0.033496
5838000,0.0324,0.013523,0.002678,0.000431,0.033260
5839000,0.0324,0.013523,0.002678,0.000431,0.037021
5840000,0.0324,0.013523,0.002678,0.000431,0.036786
5841000,0.0324,0.013523,0.002678,0.000431,0.033613
5842000,0.0324,0.013523,0.002678,0.000431,0.033378
5843000,0.0324,0.013523,0.002678,0.000431,0.034671
5844000,0.0324,0.013523,0.002678,0.000431,0.035141
5845000,0.0324,0.013523,0.002678,0.000431,0.033378
5846000,0.0324,0.013523,0.002678,0.000431,0.033260
5847000,0.0324,0.013523,0.002678,0.000431,0.035846
5848000,0.0324,0.013523,0.002678,0.000431,0.035494
5849000,0.0324,0.013523,0.002678,0.000431,0.033260
5850000,0.0324,0.013523,0.002678,0.000431,0.035023
5851000,0.0324,0.013523,0.002678,0.000431,0.035258
5852000,0.0324,0.013523,0.002678,0.000431,0.033848
5853000,0.0324,0.013523,0.002678,0.000431,0.032555
5854000,0.0324,0.013523,0.002678,0.000431,0.036786
5855000,0.0324,0.013523,0.002678,0.000431,0.033613
5856000,0.0324,0.013523,0.002678,0.000431,0.034318
5857000,0.0324,0.013523,0.002678,0.000431,0.034671
5858000,0.0324,0.013523,0.002678,0.000431,0.034201
5859000,0.0324,0.013523,0.002678,0.000431,0.036904
5860000,0.0324,0.013523,0.002678,0.000431,0.035141
5861000,0.0324,0.013523,0.002678,0.000431,0.033613
5862000,0.0324,0.013523,0.002678,0.000431,0.035141
5863000,0.0324,0.013523,0.002678,0.000431,0.035964
5864000,0.0324,0.013523,0.002678,0.000431,0.034671
5865000,0.0324,0.013523,0.002678,0.000431,0.034436
5866000,0.0324,0.013523,0.002678,0.000431,0.035258
5867000,0.0324,0.013523,0.002678,0.000431,0.033496
5868000,0.0324,0.013523,0.002678,0.000431,0.034671
5869000,0.0324,0.013523,0.002678,0.000431,0.031733
5870000,0.0324,0.013523,0.002678,0.000431,0.037844
5871000,0.0324,0.013523,0.002678,0.000431,0.033496
5872000,0.0324,0.013523,0.002678,0.000431,0.035141
5873000,0.0324,0.013523,0.002678,0.000431,0.036551
5874000,0.0324,0.013523,0.002678,0.000431,0.036081
5875000,0.0324,0.013523,0.002678,0.000431,0.032908
5876000,0.0324,0.013523,0.002678,0.000431,0.034906
5877000,0.0324,0.013523,0.002678,0.000431,0.033496
5878000,0.0324,0.013523,0.002678,0.000431,0.033260
5879000,0.0324,0.013523,0.002678,0.000431,0.032908
5880000,0.0324,0.013523,0.002678,0.000431,0.035258
5881000,0.0324,0.013523,0.002678,0.000431,0.035729
5882000,0.0324,0.013523,0.002678,0.000431,0.034201
5883000,0.0324,0.013523,0.002678,0.000431,0.034083
5884000,0.0324,0.013523,0.002678,0.000431,0.034318
5885000,0.0324,0.013523,0.002678,0.000431,0.035494
5886000,0.0324,0.013523,0.002678,0.000431,0.034788
5887000,0.0324,0.013523,0.002678,0.000431,0.035141
5888000,0.0324,0.013523,0.002678,0.000431,0.033848
5889000,0.0324,0.013523,0.002678,0.000431,0.036316
5890000,0.0324,0.013523,0.002678,0.000431,0.035494
5891000,0.0324,0.013523,0.002678,0.000431,0.033613
5892000,0.0324,0.013523,0.002678,0.000431,0.035729
5893000,0.0324,0.013523,0.002678,0.000431,0.033025
5894000,0.0324,0.013523,0.002678,0.000431,0.034436
5895000,0.0324,0.013523,0.002678,0.000431,0.033496
5896000,0.0324,0.013523,0.002678,0.000431,0.036199
5897000,0.0324,0.013523,0.002678,0.000431,0.033260
5898000,0.0324,0.013523,0.002678,0.000431,0.031498
5899000,0.0324,0.013523,0.002678,0.000431,0.034553
5900000,0.0324,0.013523,0.002678,0.000431,0.035964
5901000,0.0324,0.013523,0.002678,0.000431,0.034906
5902000,0.0324,0.013523,0.002678,0.000431,0.032908
5903000,0.0324,0.013523,0.002678,0.000431,0.033143
5904000,0.0324,0.013523,0.002678,0.000431,0.035376
5905000,0.0324,0.013523,0.002678,0.000431,0.035494
5906000,0.0324,0.013523,0.002678,0.000431,0.033613
5907000,0.0324,0.013523,0.002678,0.000431,0.034553
5908000,0.0324,0.013523,0.002678,0.000431,0.033260
5909000,0.0324,0.013523,0.002678,0.000431,0.033025
5910000,0.0324,0.013523,0.002678,0.000431,0.032673
5911000,0.0324,0.013523,0.002678,0.000431,0.035023
5912000,0.0324,0.013523,0.002678,0.000431,0.034788
5913000,0.0324,0.013523,0.002678,0.000431,0.035611
5914000,0.0324,0.013523,0.002678,0.000431,0.031262
5915000,0.0324,0.013523,0.002678,0.000431,0.035729
5916000,0.0324,0.013523,0.002678,0.000431,0.037491
5917000,0.0324,0.013523,0.002678,0.000431,0.032320
5918000,0.0324,0.013523,0.002678,0.000431,0.034436
5919000,0.0324,0.013523,0.002678,0.000431,0.035494
5920000,0.0324,0.013523,0.002678,0.000431,0.035846
5921000,0.0324,0.013523,0.002678,0.000431,0.034201
5922000,0.0324,0.013523,0.002678,0.000431,0.034906
5923000,0.0324,0.013523,0.002678,0.000431,0.036904
5924000,0.0324,0.013523,0.002678,0.000431,0.032438
5925000,0.0324,0.013523,0.002678,0.000431,0.031850
5926000,0.0324,0.013523,0.002678,0.000431,0.037374
5927000,0.0324,0.013523,0.002678,0.000431,0.037139
5928000,0.0324,0.013523,0.002678,0.000431,0.033966
5929000,0.0324,0.013523,0.002678,0.000431,0.031498
5930000,0.0324,0.013523,0.002678,0.000431,0.034553
5931000,0.0324,0.013523,0.002678,0.000431,0.034083
5932000,0.0324,0.013523,0.002678,0.000431,0.031380
5933000,0.0324,0.013523,0.002678,0.000431,0.031380
5934000,0.0324,0.013523,0.002678,0.000431,0.035964
5935000,0.0324,0.013523,0.002678,0.000431,0.031145
5936000,0.0324,0.013523,0.002678,0.000431,0.031498
5937000,0.0324,0.013523,0.002678,0.000431,0.035023
5938000,0.0324,0.013523,0.002678,0.000431,0.033260
5939000,0.0324,0.013523,0.002678,0.000431,0.033143
5940000,0.0324,0.013523,0.002678,0.000431,0.033260
5941000,0.0324,0.013523,0.002678,0.000431,0.032203
5942000,0.0324,0.013523,0.002678,0.000431,0.037021
5943000,0.0324,0.013523,0.002678,0.000431,0.032555
5944000,0.0324,0.013523,0.002678,0.000431,0.033378
5945000,0.0324,0.013523,0.002678,0.000431,0.034436
5946000,0.0324,0.013523,0.002678,0.000431,0.032555
5947000,0.0324,0.013523,0.002678,0.000431,0.033025
5948000,0.0324,0.013523,0.002678,0.000431,0.033143
5949000,0.0324,0.013523,0.002678,0.000431,0.033848
5950000,0.0324,0.013523,0.002678,0.000431,0.035611
5951000,0.0324,0.013523,0.002678,0.000431,0.032203
5952000,0.0324,0.013523,0.002678,0.000431,0.032673
5953000,0.0324,0.013523,0.002678,0.000431,0.034788
5954000,0.0324,0.013523,0.002678,0.000431,0.032555
5955000,0.0324,0.013523,0.002678,0.000431,0.032555
5956000,0.0324,0.013523,0.002678,0.000431,0.032085
5957000,0.0324,0.013523,0.002678,0.000431,0.033966
5958000,0.0324,0.013523,0.002678,0.000431,0.035846
5959000,0.0324,0.013523,0.002678,0.000431,0.031380
5960000,0.0324,0.013523,0.002678,0.000431,0.034436
5961000,0.0324,0.013523,0.002678,0.000431,0.036669
5962000,0.0324,0.013523,0.002678,0.000431,0.032673
5963000,0.0324,0.013523,0.002678,0.000431,0.032438
5964000,0.0324,0.013523,0.002678,0.000431,0.034318
5965000,0.0324,0.013523,0.002678,0.000431,0.030792
5966000,0.0324,0.013523,0.002678,0.000431,0.033260
5967000,0.0324,0.013523,0.002678,0.000431,0.032790
5968000,0.0324,0.013523,0.002678,0.000431,0.034906
5969000,0.0324,0.013523,0.002678,0.000431,0.032908
5970000,0.0324,0.013523,0.002678,0.000431,0.032438
5971000,0.0324,0.013523,0.002678,0.000431,0.034318
5972000,0.0324,0.013523,0.002678,0.000431,0.033496
5973000,0.0324,0.013523,0.002678,0.000431,0.032673
5974000,0.0324,0.013523,0.002678,0.000431,0.031380
5975000,0.0324,0.013523,0.002678,0.000431,0.032203
5976000,0.0324,0.013523,0.002678,0.000431,0.035376
5977000,0.0324,0.013523,0.002678,0.000431,0.033731
5978000,0.0324,0.013523,0.002678,0.000431,0.029970
5979000,0.0324,0.013523,0.002678,0.000431,0.033378
5980000,0.0324,0.013523,0.002678,0.000431,0.031968
5981000,0.0324,0.013523,0.002678,0.000431,0.033966
5982000,0.0324,0.013523,0.002678,0.000431,0.031850
5983000,0.0324,0.013523,0.002678,0.000431,0.034083
5984000,0.0324,0.013523,0.002678,0.000431,0.031850
5985000,0.0324,0.013523,0.002678,0.000431,0.034083
5986000,0.0324,0.013523,0.002678,0.000431,0.031498
5987000,0.0324,0.013523,0.002678,0.000431,0.036199
5988000,0.0324,0.013523,0.002678,0.000431,0.033731
5989000,0.0324,0.013523,0.002678,0.000431,0.031615
5990000,0.0324,0.013523,0.002678,0.000431,0.034318
5991000,0.0324,0.013523,0.002678,0.000431,0.033613
5992000,0.0324,0.013523,0.002678,0.000431,0.032085
5993000,0.0324,0.013523,0.002678,0.000431,0.030792
5994000,0.0324,0.013523,0.002678,0.000431,0.030792
5995000,0.0324,0.013523,0.002678,0.000431,0.032673
5996000,0.0324,0.013523,0.002678,0.000431,0.032555
5997000,0.0324,0.013523,0.002678,0.000431,0.033260
5998000,0.0324,0.013523,0.002678,0.000431,0.032438
5999000,0.0324,0.013523,0.002678,0.000431,0.031262
