Cycle,Area(mm^2),PeakDynamic(W),SubthresholdLeakage(W),GateLeakage(W),RunTimeDynamic(W)
11000000,0.0324,0.013523,0.002678,0.000431,0.010225
11001000,0.0324,0.013523,0.002678,0.000431,0.010460
11002000,0.0324,0.013523,0.002678,0.000431,0.009285
11003000,0.0324,0.013523,0.002678,0.000431,0.010578
11004000,0.0324,0.013523,0.002678,0.000431,0.009637
11005000,0.0324,0.013523,0.002678,0.000431,0.009990
11006000,0.0324,0.013523,0.002678,0.000431,0.009402
11007000,0.0324,0.013523,0.002678,0.000431,0.009402
11008000,0.0324,0.013523,0.002678,0.000431,0.009402
11009000,0.0324,0.013523,0.002678,0.000431,0.010225
11010000,0.0324,0.013523,0.002678,0.000431,0.009755
11011000,0.0324,0.013523,0.002678,0.000431,0.009520
11012000,0.0324,0.013523,0.002678,0.000431,0.010342
11013000,0.0324,0.013523,0.002678,0.000431,0.010342
11014000,0.0324,0.013523,0.002678,0.000431,0.009755
11015000,0.0324,0.013523,0.002678,0.000431,0.009402
11016000,0.0324,0.013523,0.002678,0.000431,0.010813
11017000,0.0324,0.013523,0.002678,0.000431,0.009872
11018000,0.0324,0.013523,0.002678,0.000431,0.010225
11019000,0.0324,0.013523,0.002678,0.000431,0.009637
11020000,0.0324,0.013523,0.002678,0.000431,0.011048
11021000,0.0324,0.013523,0.002678,0.000431,0.009990
11022000,0.0324,0.013523,0.002678,0.000431,0.010107
11023000,0.0324,0.013523,0.002678,0.000431,0.009990
11024000,0.0324,0.013523,0.002678,0.000431,0.009285
11025000,0.0324,0.013523,0.002678,0.000431,0.010342
11026000,0.0324,0.013523,0.002678,0.000431,0.010107
11027000,0.0324,0.013523,0.002678,0.000431,0.009285
11028000,0.0324,0.013523,0.002678,0.000431,0.009520
11029000,0.0324,0.013523,0.002678,0.000431,0.009990
11030000,0.0324,0.013523,0.002678,0.000431,0.009872
11031000,0.0324,0.013523,0.002678,0.000431,0.009872
11032000,0.0324,0.013523,0.002678,0.000431,0.009402
11033000,0.0324,0.013523,0.002678,0.000431,0.009990
11034000,0.0324,0.013523,0.002678,0.000431,0.009872
11035000,0.0324,0.013523,0.002678,0.000431,0.010578
11036000,0.0324,0.013523,0.002678,0.000431,0.010578
11037000,0.0324,0.013523,0.002678,0.000431,0.009402
11038000,0.0324,0.013523,0.002678,0.000431,0.010813
11039000,0.0324,0.013523,0.002678,0.000431,0.010342
11040000,0.0324,0.013523,0.002678,0.000431,0.009050
11041000,0.0324,0.013523,0.002678,0.000431,0.010578
11042000,0.0324,0.013523,0.002678,0.000431,0.009637
11043000,0.0324,0.013523,0.002678,0.000431,0.009755
11044000,0.0324,0.013523,0.002678,0.000431,0.010695
11045000,0.0324,0.013523,0.002678,0.000431,0.009402
11046000,0.0324,0.013523,0.002678,0.000431,0.009402
11047000,0.0324,0.013523,0.002678,0.000431,0.009637
11048000,0.0324,0.013523,0.002678,0.000431,0.010225
11049000,0.0324,0.013523,0.002678,0.000431,0.009402
11050000,0.0324,0.013523,0.002678,0.000431,0.009285
11051000,0.0324,0.013523,0.002678,0.000431,0.011048
11052000,0.0324,0.013523,0.002678,0.000431,0.009050
11053000,0.0324,0.013523,0.002678,0.000431,0.009402
11054000,0.0324,0.013523,0.002678,0.000431,0.010695
11055000,0.0324,0.013523,0.002678,0.000431,0.010578
11056000,0.0324,0.013523,0.002678,0.000431,0.009167
11057000,0.0324,0.013523,0.002678,0.000431,0.010225
11058000,0.0324,0.013523,0.002678,0.000431,0.009637
11059000,0.0324,0.013523,0.002678,0.000431,0.009285
11060000,0.0324,0.013523,0.002678,0.000431,0.009520
11061000,0.0324,0.013523,0.002678,0.000431,0.010225
11062000,0.0324,0.013523,0.002678,0.000431,0.009755
11063000,0.0324,0.013523,0.002678,0.000431,0.010225
11064000,0.0324,0.013523,0.002678,0.000431,0.010225
11065000,0.0324,0.013523,0.002678,0.000431,0.009520
11066000,0.0324,0.013523,0.002678,0.000431,0.009520
11067000,0.0324,0.013523,0.002678,0.000431,0.010695
11068000,0.0324,0.013523,0.002678,0.000431,0.010225
11069000,0.0324,0.013523,0.002678,0.000431,0.009285
11070000,0.0324,0.013523,0.002678,0.000431,0.010460
11071000,0.0324,0.013523,0.002678,0.000431,0.009637
11072000,0.0324,0.013523,0.002678,0.000431,0.010107
11073000,0.0324,0.013523,0.002678,0.000431,0.010107
11074000,0.0324,0.013523,0.002678,0.000431,0.009167
11075000,0.0324,0.013523,0.002678,0.000431,0.009872
11076000,0.0324,0.013523,0.002678,0.000431,0.009285
11077000,0.0324,0.013523,0.002678,0.000431,0.009872
11078000,0.0324,0.013523,0.002678,0.000431,0.009402
11079000,0.0324,0.013523,0.002678,0.000431,0.009402
11080000,0.0324,0.013523,0.002678,0.000431,0.009990
11081000,0.0324,0.013523,0.002678,0.000431,0.009402
11082000,0.0324,0.013523,0.002678,0.000431,0.009990
11083000,0.0324,0.013523,0.002678,0.000431,0.009755
11084000,0.0324,0.013523,0.002678,0.000431,0.008815
11085000,0.0324,0.013523,0.002678,0.000431,0.009872
11086000,0.0324,0.013523,0.002678,0.000431,0.009872
11087000,0.0324,0.013523,0.002678,0.000431,0.008697
11088000,0.0324,0.013523,0.002678,0.000431,0.010813
11089000,0.0324,0.013523,0.002678,0.000431,0.010342
11090000,0.0324,0.013523,0.002678,0.000431,0.010107
11091000,0.0324,0.013523,0.002678,0.000431,0.009755
11092000,0.0324,0.013523,0.002678,0.000431,0.009755
11093000,0.0324,0.013523,0.002678,0.000431,0.009285
11094000,0.0324,0.013523,0.002678,0.000431,0.010225
11095000,0.0324,0.013523,0.002678,0.000431,0.008462
11096000,0.0324,0.013523,0.002678,0.000431,0.009285
11097000,0.0324,0.013523,0.002678,0.000431,0.009755
11098000,0.0324,0.013523,0.002678,0.000431,0.009755
11099000,0.0324,0.013523,0.002678,0.000431,0.008932
11100000,0.0324,0.013523,0.002678,0.000431,0.009872
11101000,0.0324,0.013523,0.002678,0.000431,0.010460
11102000,0.0324,0.013523,0.002678,0.000431,0.008815
11103000,0.0324,0.013523,0.002678,0.000431,0.010813
11104000,0.0324,0.013523,0.002678,0.000431,0.008580
11105000,0.0324,0.013523,0.002678,0.000431,0.008932
11106000,0.0324,0.013523,0.002678,0.000431,0.010695
11107000,0.0324,0.013523,0.002678,0.000431,0.010107
11108000,0.0324,0.013523,0.002678,0.000431,0.009285
11109000,0.0324,0.013523,0.002678,0.000431,0.009520
11110000,0.0324,0.013523,0.002678,0.000431,0.010225
11111000,0.0324,0.013523,0.002678,0.000431,0.008815
11112000,0.0324,0.013523,0.002678,0.000431,0.010225
11113000,0.0324,0.013523,0.002678,0.000431,0.009285
11114000,0.0324,0.013523,0.002678,0.000431,0.009637
11115000,0.0324,0.013523,0.002678,0.000431,0.010460
11116000,0.0324,0.013523,0.002678,0.000431,0.008932
11117000,0.0324,0.013523,0.002678,0.000431,0.009520
11118000,0.0324,0.013523,0.002678,0.000431,0.009637
11119000,0.0324,0.013523,0.002678,0.000431,0.009520
11120000,0.0324,0.013523,0.002678,0.000431,0.009872
11121000,0.0324,0.013523,0.002678,0.000431,0.009637
11122000,0.0324,0.013523,0.002678,0.000431,0.009872
11123000,0.0324,0.013523,0.002678,0.000431,0.009167
11124000,0.0324,0.013523,0.002678,0.000431,0.010107
11125000,0.0324,0.013523,0.002678,0.000431,0.009872
11126000,0.0324,0.013523,0.002678,0.000431,0.008697
11127000,0.0324,0.013523,0.002678,0.000431,0.009520
11128000,0.0324,0.013523,0.002678,0.000431,0.010578
11129000,0.0324,0.013523,0.002678,0.000431,0.009167
11130000,0.0324,0.013523,0.002678,0.000431,0.009050
11131000,0.0324,0.013523,0.002678,0.000431,0.010107
11132000,0.0324,0.013523,0.002678,0.000431,0.008580
11133000,0.0324,0.013523,0.002678,0.000431,0.009285
11134000,0.0324,0.013523,0.002678,0.000431,0.009872
11135000,0.0324,0.013523,0.002678,0.000431,0.007874
11136000,0.0324,0.013523,0.002678,0.000431,0.009050
11137000,0.0324,0.013523,0.002678,0.000431,0.011048
11138000,0.0324,0.013523,0.002678,0.000431,0.009167
11139000,0.0324,0.013523,0.002678,0.000431,0.008462
11140000,0.0324,0.013523,0.002678,0.000431,0.010225
11141000,0.0324,0.013523,0.002678,0.000431,0.009755
11142000,0.0324,0.013523,0.002678,0.000431,0.008932
11143000,0.0324,0.013523,0.002678,0.000431,0.010813
11144000,0.0324,0.013523,0.002678,0.000431,0.008462
11145000,0.0324,0.013523,0.002678,0.000431,0.009167
11146000,0.0324,0.013523,0.002678,0.000431,0.009990
11147000,0.0324,0.013523,0.002678,0.000431,0.008580
11148000,0.0324,0.013523,0.002678,0.000431,0.008932
11149000,0.0324,0.013523,0.002678,0.000431,0.009755
11150000,0.0324,0.013523,0.002678,0.000431,0.009520
11151000,0.0324,0.013523,0.002678,0.000431,0.008815
11152000,0.0324,0.013523,0.002678,0.000431,0.009285
11153000,0.0324,0.013523,0.002678,0.000431,0.008227
11154000,0.0324,0.013523,0.002678,0.000431,0.009990
11155000,0.0324,0.013523,0.002678,0.000431,0.010342
11156000,0.0324,0.013523,0.002678,0.000431,0.009050
11157000,0.0324,0.013523,0.002678,0.000431,0.009637
11158000,0.0324,0.013523,0.002678,0.000431,0.009755
11159000,0.0324,0.013523,0.002678,0.000431,0.009520
11160000,0.0324,0.013523,0.002678,0.000431,0.009402
11161000,0.0324,0.013523,0.002678,0.000431,0.009167
11162000,0.0324,0.013523,0.002678,0.000431,0.010107
11163000,0.0324,0.013523,0.002678,0.000431,0.009637
11164000,0.0324,0.013523,0.002678,0.000431,0.007757
11165000,0.0324,0.013523,0.002678,0.000431,0.009637
11166000,0.0324,0.013523,0.002678,0.000431,0.009872
11167000,0.0324,0.013523,0.002678,0.000431,0.009167
11168000,0.0324,0.013523,0.002678,0.000431,0.010107
11169000,0.0324,0.013523,0.002678,0.000431,0.008462
11170000,0.0324,0.013523,0.002678,0.000431,0.009990
11171000,0.0324,0.013523,0.002678,0.000431,0.009755
11172000,0.0324,0.013523,0.002678,0.000431,0.009872
11173000,0.0324,0.013523,0.002678,0.000431,0.009285
11174000,0.0324,0.013523,0.002678,0.000431,0.010225
11175000,0.0324,0.013523,0.002678,0.000431,0.009285
11176000,0.0324,0.013523,0.002678,0.000431,0.009520
11177000,0.0324,0.013523,0.002678,0.000431,0.010225
11178000,0.0324,0.013523,0.002678,0.000431,0.009285
11179000,0.0324,0.013523,0.002678,0.000431,0.008697
11180000,0.0324,0.013523,0.002678,0.000431,0.010813
11181000,0.0324,0.013523,0.002678,0.000431,0.009872
11182000,0.0324,0.013523,0.002678,0.000431,0.008932
11183000,0.0324,0.013523,0.002678,0.000431,0.009872
11184000,0.0324,0.013523,0.002678,0.000431,0.009402
11185000,0.0324,0.013523,0.002678,0.000431,0.009167
11186000,0.0324,0.013523,0.002678,0.000431,0.009050
11187000,0.0324,0.013523,0.002678,0.000431,0.009285
11188000,0.0324,0.013523,0.002678,0.000431,0.009990
11189000,0.0324,0.013523,0.002678,0.000431,0.008580
11190000,0.0324,0.013523,0.002678,0.000431,0.009872
11191000,0.0324,0.013523,0.002678,0.000431,0.008227
11192000,0.0324,0.013523,0.002678,0.000431,0.009285
11193000,0.0324,0.013523,0.002678,0.000431,0.010225
11194000,0.0324,0.013523,0.002678,0.000431,0.010342
11195000,0.0324,0.013523,0.002678,0.000431,0.009167
11196000,0.0324,0.013523,0.002678,0.000431,0.008932
11197000,0.0324,0.013523,0.002678,0.000431,0.010107
11198000,0.0324,0.013523,0.002678,0.000431,0.009402
11199000,0.0324,0.013523,0.002678,0.000431,0.010342
11200000,0.0324,0.013523,0.002678,0.000431,0.009167
11201000,0.0324,0.013523,0.002678,0.000431,0.008462
11202000,0.0324,0.013523,0.002678,0.000431,0.009050
11203000,0.0324,0.013523,0.002678,0.000431,0.010695
11204000,0.0324,0.013523,0.002678,0.000431,0.009755
11205000,0.0324,0.013523,0.002678,0.000431,0.009637
11206000,0.0324,0.013523,0.002678,0.000431,0.011048
11207000,0.0324,0.013523,0.002678,0.000431,0.009167
11208000,0.0324,0.013523,0.002678,0.000431,0.010107
11209000,0.0324,0.013523,0.002678,0.000431,0.010460
11210000,0.0324,0.013523,0.002678,0.000431,0.009285
11211000,0.0324,0.013523,0.002678,0.000431,0.009872
11212000,0.0324,0.013523,0.002678,0.000431,0.010342
11213000,0.0324,0.013523,0.002678,0.000431,0.009755
11214000,0.0324,0.013523,0.002678,0.000431,0.009402
11215000,0.0324,0.013523,0.002678,0.000431,0.009402
11216000,0.0324,0.013523,0.002678,0.000431,0.008462
11217000,0.0324,0.013523,0.002678,0.000431,0.009402
11218000,0.0324,0.013523,0.002678,0.000431,0.010342
11219000,0.0324,0.013523,0.002678,0.000431,0.010107
11220000,0.0324,0.013523,0.002678,0.000431,0.008932
11221000,0.0324,0.013523,0.002678,0.000431,0.009520
11222000,0.0324,0.013523,0.002678,0.000431,0.009872
11223000,0.0324,0.013523,0.002678,0.000431,0.009402
11224000,0.0324,0.013523,0.002678,0.000431,0.009402
11225000,0.0324,0.013523,0.002678,0.000431,0.009637
11226000,0.0324,0.013523,0.002678,0.000431,0.009637
11227000,0.0324,0.013523,0.002678,0.000431,0.009402
11228000,0.0324,0.013523,0.002678,0.000431,0.010460
11229000,0.0324,0.013523,0.002678,0.000431,0.008932
11230000,0.0324,0.013523,0.002678,0.000431,0.009050
11231000,0.0324,0.013523,0.002678,0.000431,0.011165
11232000,0.0324,0.013523,0.002678,0.000431,0.008932
11233000,0.0324,0.013523,0.002678,0.000431,0.008932
11234000,0.0324,0.013523,0.002678,0.000431,0.009755
11235000,0.0324,0.013523,0.002678,0.000431,0.009872
11236000,0.0324,0.013523,0.002678,0.000431,0.009285
11237000,0.0324,0.013523,0.002678,0.000431,0.010342
11238000,0.0324,0.013523,0.002678,0.000431,0.009402
11239000,0.0324,0.013523,0.002678,0.000431,0.009755
11240000,0.0324,0.013523,0.002678,0.000431,0.009637
11241000,0.0324,0.013523,0.002678,0.000431,0.009402
11242000,0.0324,0.013523,0.002678,0.000431,0.009755
11243000,0.0324,0.013523,0.002678,0.000431,0.008932
11244000,0.0324,0.013523,0.002678,0.000431,0.009637
11245000,0.0324,0.013523,0.002678,0.000431,0.009872
11246000,0.0324,0.013523,0.002678,0.000431,0.008815
11247000,0.0324,0.013523,0.002678,0.000431,0.010695
11248000,0.0324,0.013523,0.002678,0.000431,0.009285
11249000,0.0324,0.013523,0.002678,0.000431,0.010342
11250000,0.0324,0.013523,0.002678,0.000431,0.010225
11251000,0.0324,0.013523,0.002678,0.000431,0.008932
11252000,0.0324,0.013523,0.002678,0.000431,0.010107
11253000,0.0324,0.013523,0.002678,0.000431,0.009872
11254000,0.0324,0.013523,0.002678,0.000431,0.009872
11255000,0.0324,0.013523,0.002678,0.000431,0.009285
11256000,0.0324,0.013523,0.002678,0.000431,0.010225
11257000,0.0324,0.013523,0.002678,0.000431,0.010225
11258000,0.0324,0.013523,0.002678,0.000431,0.009167
11259000,0.0324,0.013523,0.002678,0.000431,0.010107
11260000,0.0324,0.013523,0.002678,0.000431,0.009402
11261000,0.0324,0.013523,0.002678,0.000431,0.008815
11262000,0.0324,0.013523,0.002678,0.000431,0.010342
11263000,0.0324,0.013523,0.002678,0.000431,0.010107
11264000,0.0324,0.013523,0.002678,0.000431,0.008932
11265000,0.0324,0.013523,0.002678,0.000431,0.009990
11266000,0.0324,0.013523,0.002678,0.000431,0.008697
11267000,0.0324,0.013523,0.002678,0.000431,0.009755
11268000,0.0324,0.013523,0.002678,0.000431,0.009167
11269000,0.0324,0.013523,0.002678,0.000431,0.010460
11270000,0.0324,0.013523,0.002678,0.000431,0.008932
11271000,0.0324,0.013523,0.002678,0.000431,0.009520
11272000,0.0324,0.013523,0.002678,0.000431,0.010342
11273000,0.0324,0.013523,0.002678,0.000431,0.010342
11274000,0.0324,0.013523,0.002678,0.000431,0.008932
11275000,0.0324,0.013523,0.002678,0.000431,0.010578
11276000,0.0324,0.013523,0.002678,0.000431,0.009872
11277000,0.0324,0.013523,0.002678,0.000431,0.009755
11278000,0.0324,0.013523,0.002678,0.000431,0.008932
11279000,0.0324,0.013523,0.002678,0.000431,0.010813
11280000,0.0324,0.013523,0.002678,0.000431,0.010225
11281000,0.0324,0.013523,0.002678,0.000431,0.009520
11282000,0.0324,0.013523,0.002678,0.000431,0.009755
11283000,0.0324,0.013523,0.002678,0.000431,0.009872
11284000,0.0324,0.013523,0.002678,0.000431,0.010107
11285000,0.0324,0.013523,0.002678,0.000431,0.009872
11286000,0.0324,0.013523,0.002678,0.000431,0.009402
11287000,0.0324,0.013523,0.002678,0.000431,0.009402
11288000,0.0324,0.013523,0.002678,0.000431,0.010460
11289000,0.0324,0.013523,0.002678,0.000431,0.008109
11290000,0.0324,0.013523,0.002678,0.000431,0.009872
11291000,0.0324,0.013523,0.002678,0.000431,0.009990
11292000,0.0324,0.013523,0.002678,0.000431,0.010107
11293000,0.0324,0.013523,0.002678,0.000431,0.010107
11294000,0.0324,0.013523,0.002678,0.000431,0.010578
11295000,0.0324,0.013523,0.002678,0.000431,0.010342
11296000,0.0324,0.013523,0.002678,0.000431,0.009050
11297000,0.0324,0.013523,0.002678,0.000431,0.009872
11298000,0.0324,0.013523,0.002678,0.000431,0.009285
11299000,0.0324,0.013523,0.002678,0.000431,0.009285
11300000,0.0324,0.013523,0.002678,0.000431,0.008932
11301000,0.0324,0.013523,0.002678,0.000431,0.010578
11302000,0.0324,0.013523,0.002678,0.000431,0.009167
11303000,0.0324,0.013523,0.002678,0.000431,0.009402
11304000,0.0324,0.013523,0.002678,0.000431,0.010107
11305000,0.0324,0.013523,0.002678,0.000431,0.009637
11306000,0.0324,0.013523,0.002678,0.000431,0.009285
11307000,0.0324,0.013523,0.002678,0.000431,0.010578
11308000,0.0324,0.013523,0.002678,0.000431,0.009637
11309000,0.0324,0.013523,0.002678,0.000431,0.009050
11310000,0.0324,0.013523,0.002678,0.000431,0.010460
11311000,0.0324,0.013523,0.002678,0.000431,0.008932
11312000,0.0324,0.013523,0.002678,0.000431,0.008697
11313000,0.0324,0.013523,0.002678,0.000431,0.010930
11314000,0.0324,0.013523,0.002678,0.000431,0.009990
11315000,0.0324,0.013523,0.002678,0.000431,0.009285
11316000,0.0324,0.013523,0.002678,0.000431,0.010695
11317000,0.0324,0.013523,0.002678,0.000431,0.009637
11318000,0.0324,0.013523,0.002678,0.000431,0.009167
11319000,0.0324,0.013523,0.002678,0.000431,0.010578
11320000,0.0324,0.013523,0.002678,0.000431,0.009520
11321000,0.0324,0.013523,0.002678,0.000431,0.009990
11322000,0.0324,0.013523,0.002678,0.000431,0.009520
11323000,0.0324,0.013523,0.002678,0.000431,0.010578
11324000,0.0324,0.013523,0.002678,0.000431,0.009872
11325000,0.0324,0.013523,0.002678,0.000431,0.009520
11326000,0.0324,0.013523,0.002678,0.000431,0.009872
11327000,0.0324,0.013523,0.002678,0.000431,0.009050
11328000,0.0324,0.013523,0.002678,0.000431,0.009402
11329000,0.0324,0.013523,0.002678,0.000431,0.010225
11330000,0.0324,0.013523,0.002678,0.000431,0.009285
11331000,0.0324,0.013523,0.002678,0.000431,0.009285
11332000,0.0324,0.013523,0.002678,0.000431,0.010342
11333000,0.0324,0.013523,0.002678,0.000431,0.009755
11334000,0.0324,0.013523,0.002678,0.000431,0.009402
11335000,0.0324,0.013523,0.002678,0.000431,0.009755
11336000,0.0324,0.013523,0.002678,0.000431,0.010225
11337000,0.0324,0.013523,0.002678,0.000431,0.009520
11338000,0.0324,0.013523,0.002678,0.000431,0.008580
11339000,0.0324,0.013523,0.002678,0.000431,0.009755
11340000,0.0324,0.013523,0.002678,0.000431,0.008932
11341000,0.0324,0.013523,0.002678,0.000431,0.010225
11342000,0.0324,0.013523,0.002678,0.000431,0.010460
11343000,0.0324,0.013523,0.002678,0.000431,0.008815
11344000,0.0324,0.013523,0.002678,0.000431,0.009755
11345000,0.0324,0.013523,0.002678,0.000431,0.009050
11346000,0.0324,0.013523,0.002678,0.000431,0.009167
11347000,0.0324,0.013523,0.002678,0.000431,0.009872
11348000,0.0324,0.013523,0.002678,0.000431,0.010695
11349000,0.0324,0.013523,0.002678,0.000431,0.010225
11350000,0.0324,0.013523,0.002678,0.000431,0.008815
11351000,0.0324,0.013523,0.002678,0.000431,0.008815
11352000,0.0324,0.013523,0.002678,0.000431,0.010107
11353000,0.0324,0.013523,0.002678,0.000431,0.009755
11354000,0.0324,0.013523,0.002678,0.000431,0.008580
11355000,0.0324,0.013523,0.002678,0.000431,0.010107
11356000,0.0324,0.013523,0.002678,0.000431,0.009050
11357000,0.0324,0.013523,0.002678,0.000431,0.009520
11358000,0.0324,0.013523,0.002678,0.000431,0.010107
11359000,0.0324,0.013523,0.002678,0.000431,0.008580
11360000,0.0324,0.013523,0.002678,0.000431,0.009285
11361000,0.0324,0.013523,0.002678,0.000431,0.010813
11362000,0.0324,0.013523,0.002678,0.000431,0.009637
11363000,0.0324,0.013523,0.002678,0.000431,0.009402
11364000,0.0324,0.013523,0.002678,0.000431,0.010342
11365000,0.0324,0.013523,0.002678,0.000431,0.010225
11366000,0.0324,0.013523,0.002678,0.000431,0.009167
11367000,0.0324,0.013523,0.002678,0.000431,0.010930
11368000,0.0324,0.013523,0.002678,0.000431,0.009402
11369000,0.0324,0.013523,0.002678,0.000431,0.008932
11370000,0.0324,0.013523,0.002678,0.000431,0.009520
11371000,0.0324,0.013523,0.002678,0.000431,0.010107
11372000,0.0324,0.013523,0.002678,0.000431,0.008815
11373000,0.0324,0.013523,0.002678,0.000431,0.010695
11374000,0.0324,0.013523,0.002678,0.000431,0.009402
11375000,0.0324,0.013523,0.002678,0.000431,0.008697
11376000,0.0324,0.013523,0.002678,0.000431,0.010930
11377000,0.0324,0.013523,0.002678,0.000431,0.009167
11378000,0.0324,0.013523,0.002678,0.000431,0.009285
11379000,0.0324,0.013523,0.002678,0.000431,0.010930
11380000,0.0324,0.013523,0.002678,0.000431,0.008932
11381000,0.0324,0.013523,0.002678,0.000431,0.009050
11382000,0.0324,0.013523,0.002678,0.000431,0.010107
11383000,0.0324,0.013523,0.002678,0.000431,0.009520
11384000,0.0324,0.013523,0.002678,0.000431,0.007992
11385000,0.0324,0.013523,0.002678,0.000431,0.010930
11386000,0.0324,0.013523,0.002678,0.000431,0.009872
11387000,0.0324,0.013523,0.002678,0.000431,0.009285
11388000,0.0324,0.013523,0.002678,0.000431,0.010107
11389000,0.0324,0.013523,0.002678,0.000431,0.009167
11390000,0.0324,0.013523,0.002678,0.000431,0.009872
11391000,0.0324,0.013523,0.002678,0.000431,0.010225
11392000,0.0324,0.013523,0.002678,0.000431,0.010930
11393000,0.0324,0.013523,0.002678,0.000431,0.008815
11394000,0.0324,0.013523,0.002678,0.000431,0.009755
11395000,0.0324,0.013523,0.002678,0.000431,0.010342
11396000,0.0324,0.013523,0.002678,0.000431,0.009520
11397000,0.0324,0.013523,0.002678,0.000431,0.009755
11398000,0.0324,0.013523,0.002678,0.000431,0.010225
11399000,0.0324,0.013523,0.002678,0.000431,0.009285
11400000,0.0324,0.013523,0.002678,0.000431,0.009050
11401000,0.0324,0.013523,0.002678,0.000431,0.010107
11402000,0.0324,0.013523,0.002678,0.000431,0.009402
11403000,0.0324,0.013523,0.002678,0.000431,0.009285
11404000,0.0324,0.013523,0.002678,0.000431,0.009990
11405000,0.0324,0.013523,0.002678,0.000431,0.009285
11406000,0.0324,0.013523,0.002678,0.000431,0.009167
11407000,0.0324,0.013523,0.002678,0.000431,0.009755
11408000,0.0324,0.013523,0.002678,0.000431,0.008932
11409000,0.0324,0.013523,0.002678,0.000431,0.010342
11410000,0.0324,0.013523,0.002678,0.000431,0.009990
11411000,0.0324,0.013523,0.002678,0.000431,0.010813
11412000,0.0324,0.013523,0.002678,0.000431,0.009637
11413000,0.0324,0.013523,0.002678,0.000431,0.009637
11414000,0.0324,0.013523,0.002678,0.000431,0.009755
11415000,0.0324,0.013523,0.002678,0.000431,0.010225
11416000,0.0324,0.013523,0.002678,0.000431,0.009285
11417000,0.0324,0.013523,0.002678,0.000431,0.010107
11418000,0.0324,0.013523,0.002678,0.000431,0.009872
11419000,0.0324,0.013523,0.002678,0.000431,0.008580
11420000,0.0324,0.013523,0.002678,0.000431,0.010225
11421000,0.0324,0.013523,0.002678,0.000431,0.010107
11422000,0.0324,0.013523,0.002678,0.000431,0.009285
11423000,0.0324,0.013523,0.002678,0.000431,0.009050
11424000,0.0324,0.013523,0.002678,0.000431,0.010107
11425000,0.0324,0.013523,0.002678,0.000431,0.009990
11426000,0.0324,0.013523,0.002678,0.000431,0.009990
11427000,0.0324,0.013523,0.002678,0.000431,0.010342
11428000,0.0324,0.013523,0.002678,0.000431,0.008109
11429000,0.0324,0.013523,0.002678,0.000431,0.009402
11430000,0.0324,0.013523,0.002678,0.000431,0.009637
11431000,0.0324,0.013523,0.002678,0.000431,0.009285
11432000,0.0324,0.013523,0.002678,0.000431,0.010225
11433000,0.0324,0.013523,0.002678,0.000431,0.009520
11434000,0.0324,0.013523,0.002678,0.000431,0.008815
11435000,0.0324,0.013523,0.002678,0.000431,0.009285
11436000,0.0324,0.013523,0.002678,0.000431,0.010695
11437000,0.0324,0.013523,0.002678,0.000431,0.009167
11438000,0.0324,0.013523,0.002678,0.000431,0.008462
11439000,0.0324,0.013523,0.002678,0.000431,0.010578
11440000,0.0324,0.013523,0.002678,0.000431,0.009285
11441000,0.0324,0.013523,0.002678,0.000431,0.008580
11442000,0.0324,0.013523,0.002678,0.000431,0.010930
11443000,0.0324,0.013523,0.002678,0.000431,0.009050
11444000,0.0324,0.013523,0.002678,0.000431,0.009520
11445000,0.0324,0.013523,0.002678,0.000431,0.010342
11446000,0.0324,0.013523,0.002678,0.000431,0.009402
11447000,0.0324,0.013523,0.002678,0.000431,0.009285
11448000,0.0324,0.013523,0.002678,0.000431,0.010930
11449000,0.0324,0.013523,0.002678,0.000431,0.009402
11450000,0.0324,0.013523,0.002678,0.000431,0.009402
11451000,0.0324,0.013523,0.002678,0.000431,0.011165
11452000,0.0324,0.013523,0.002678,0.000431,0.008932
11453000,0.0324,0.013523,0.002678,0.000431,0.009402
11454000,0.0324,0.013523,0.002678,0.000431,0.009872
11455000,0.0324,0.013523,0.002678,0.000431,0.009990
11456000,0.0324,0.013523,0.002678,0.000431,0.010460
11457000,0.0324,0.013523,0.002678,0.000431,0.009990
11458000,0.0324,0.013523,0.002678,0.000431,0.009637
11459000,0.0324,0.013523,0.002678,0.000431,0.009990
11460000,0.0324,0.013523,0.002678,0.000431,0.009872
11461000,0.0324,0.013523,0.002678,0.000431,0.009755
11462000,0.0324,0.013523,0.002678,0.000431,0.009402
11463000,0.0324,0.013523,0.002678,0.000431,0.009872
11464000,0.0324,0.013523,0.002678,0.000431,0.010342
11465000,0.0324,0.013523,0.002678,0.000431,0.009050
11466000,0.0324,0.013523,0.002678,0.000431,0.010930
11467000,0.0324,0.013523,0.002678,0.000431,0.008815
11468000,0.0324,0.013523,0.002678,0.000431,0.009167
11469000,0.0324,0.013523,0.002678,0.000431,0.010107
11470000,0.0324,0.013523,0.002678,0.000431,0.010225
11471000,0.0324,0.013523,0.002678,0.000431,0.008815
11472000,0.0324,0.013523,0.002678,0.000431,0.008580
11473000,0.0324,0.013523,0.002678,0.000431,0.010342
11474000,0.0324,0.013523,0.002678,0.000431,0.010460
11475000,0.0324,0.013523,0.002678,0.000431,0.008345
11476000,0.0324,0.013523,0.002678,0.000431,0.009637
11477000,0.0324,0.013523,0.002678,0.000431,0.009755
11478000,0.0324,0.013523,0.002678,0.000431,0.009402
11479000,0.0324,0.013523,0.002678,0.000431,0.009402
11480000,0.0324,0.013523,0.002678,0.000431,0.010695
11481000,0.0324,0.013523,0.002678,0.000431,0.009637
11482000,0.0324,0.013523,0.002678,0.000431,0.009285
11483000,0.0324,0.013523,0.002678,0.000431,0.009872
11484000,0.0324,0.013523,0.002678,0.000431,0.009167
11485000,0.0324,0.013523,0.002678,0.000431,0.009167
11486000,0.0324,0.013523,0.002678,0.000431,0.009755
11487000,0.0324,0.013523,0.002678,0.000431,0.009402
11488000,0.0324,0.013523,0.002678,0.000431,0.009402
11489000,0.0324,0.013523,0.002678,0.000431,0.009755
11490000,0.0324,0.013523,0.002678,0.000431,0.009167
11491000,0.0324,0.013523,0.002678,0.000431,0.009872
11492000,0.0324,0.013523,0.002678,0.000431,0.008932
11493000,0.0324,0.013523,0.002678,0.000431,0.009755
11494000,0.0324,0.013523,0.002678,0.000431,0.009520
11495000,0.0324,0.013523,0.002678,0.000431,0.008345
11496000,0.0324,0.013523,0.002678,0.000431,0.009990
11497000,0.0324,0.013523,0.002678,0.000431,0.009402
11498000,0.0324,0.013523,0.002678,0.000431,0.009050
11499000,0.0324,0.013523,0.002678,0.000431,0.010107
11500000,0.0324,0.013523,0.002678,0.000431,0.010225
11501000,0.0324,0.013523,0.002678,0.000431,0.009755
11502000,0.0324,0.013523,0.002678,0.000431,0.009637
11503000,0.0324,0.013523,0.002678,0.000431,0.009520
11504000,0.0324,0.013523,0.002678,0.000431,0.009402
11505000,0.0324,0.013523,0.002678,0.000431,0.010342
11506000,0.0324,0.013523,0.002678,0.000431,0.009990
11507000,0.0324,0.013523,0.002678,0.000431,0.008815
11508000,0.0324,0.013523,0.002678,0.000431,0.011048
11509000,0.0324,0.013523,0.002678,0.000431,0.009050
11510000,0.0324,0.013523,0.002678,0.000431,0.009990
11511000,0.0324,0.013523,0.002678,0.000431,0.011165
11512000,0.0324,0.013523,0.002678,0.000431,0.009520
11513000,0.0324,0.013523,0.002678,0.000431,0.007992
11514000,0.0324,0.013523,0.002678,0.000431,0.010813
11515000,0.0324,0.013523,0.002678,0.000431,0.009402
11516000,0.0324,0.013523,0.002678,0.000431,0.009050
11517000,0.0324,0.013523,0.002678,0.000431,0.009872
11518000,0.0324,0.013523,0.002678,0.000431,0.009637
11519000,0.0324,0.013523,0.002678,0.000431,0.008815
11520000,0.0324,0.013523,0.002678,0.000431,0.009637
11521000,0.0324,0.013523,0.002678,0.000431,0.010225
11522000,0.0324,0.013523,0.002678,0.000431,0.009755
11523000,0.0324,0.013523,0.002678,0.000431,0.008580
11524000,0.0324,0.013523,0.002678,0.000431,0.010225
11525000,0.0324,0.013523,0.002678,0.000431,0.008697
11526000,0.0324,0.013523,0.002678,0.000431,0.010107
11527000,0.0324,0.013523,0.002678,0.000431,0.009990
11528000,0.0324,0.013523,0.002678,0.000431,0.009167
11529000,0.0324,0.013523,0.002678,0.000431,0.008697
11530000,0.0324,0.013523,0.002678,0.000431,0.009990
11531000,0.0324,0.013523,0.002678,0.000431,0.008815
11532000,0.0324,0.013523,0.002678,0.000431,0.009285
11533000,0.0324,0.013523,0.002678,0.000431,0.010342
11534000,0.0324,0.013523,0.002678,0.000431,0.010225
11535000,0.0324,0.013523,0.002678,0.000431,0.009167
11536000,0.0324,0.013523,0.002678,0.000431,0.009050
11537000,0.0324,0.013523,0.002678,0.000431,0.009990
11538000,0.0324,0.013523,0.002678,0.000431,0.009520
11539000,0.0324,0.013523,0.002678,0.000431,0.010342
11540000,0.0324,0.013523,0.002678,0.000431,0.008462
11541000,0.0324,0.013523,0.002678,0.000431,0.008815
11542000,0.0324,0.013523,0.002678,0.000431,0.010578
11543000,0.0324,0.013523,0.002678,0.000431,0.009050
11544000,0.0324,0.013523,0.002678,0.000431,0.009520
11545000,0.0324,0.013523,0.002678,0.000431,0.010695
11546000,0.0324,0.013523,0.002678,0.000431,0.009637
11547000,0.0324,0.013523,0.002678,0.000431,0.008932
11548000,0.0324,0.013523,0.002678,0.000431,0.010342
11549000,0.0324,0.013523,0.002678,0.000431,0.009520
11550000,0.0324,0.013523,0.002678,0.000431,0.009050
11551000,0.0324,0.013523,0.002678,0.000431,0.010695
11552000,0.0324,0.013523,0.002678,0.000431,0.009285
11553000,0.0324,0.013523,0.002678,0.000431,0.008697
11554000,0.0324,0.013523,0.002678,0.000431,0.009990
11555000,0.0324,0.013523,0.002678,0.000431,0.009637
11556000,0.0324,0.013523,0.002678,0.000431,0.009402
11557000,0.0324,0.013523,0.002678,0.000431,0.009402
11558000,0.0324,0.013523,0.002678,0.000431,0.009755
11559000,0.0324,0.013523,0.002678,0.000431,0.009990
11560000,0.0324,0.013523,0.002678,0.000431,0.010460
11561000,0.0324,0.013523,0.002678,0.000431,0.009520
11562000,0.0324,0.013523,0.002678,0.000431,0.009755
11563000,0.0324,0.013523,0.002678,0.000431,0.009402
11564000,0.0324,0.013523,0.002678,0.000431,0.009285
11565000,0.0324,0.013523,0.002678,0.000431,0.009050
11566000,0.0324,0.013523,0.002678,0.000431,0.010225
11567000,0.0324,0.013523,0.002678,0.000431,0.009755
11568000,0.0324,0.013523,0.002678,0.000431,0.009167
11569000,0.0324,0.013523,0.002678,0.000431,0.008815
11570000,0.0324,0.013523,0.002678,0.000431,0.009520
11571000,0.0324,0.013523,0.002678,0.000431,0.008462
11572000,0.0324,0.013523,0.002678,0.000431,0.010695
11573000,0.0324,0.013523,0.002678,0.000431,0.009990
11574000,0.0324,0.013523,0.002678,0.000431,0.008345
11575000,0.0324,0.013523,0.002678,0.000431,0.009167
11576000,0.0324,0.013523,0.002678,0.000431,0.009872
11577000,0.0324,0.013523,0.002678,0.000431,0.009402
11578000,0.0324,0.013523,0.002678,0.000431,0.009167
11579000,0.0324,0.013523,0.002678,0.000431,0.010225
11580000,0.0324,0.013523,0.002678,0.000431,0.010107
11581000,0.0324,0.013523,0.002678,0.000431,0.009167
11582000,0.0324,0.013523,0.002678,0.000431,0.010460
11583000,0.0324,0.013523,0.002678,0.000431,0.009637
11584000,0.0324,0.013523,0.002678,0.000431,0.008815
11585000,0.0324,0.013523,0.002678,0.000431,0.010930
11586000,0.0324,0.013523,0.002678,0.000431,0.009285
11587000,0.0324,0.013523,0.002678,0.000431,0.008462
11588000,0.0324,0.013523,0.002678,0.000431,0.009402
11589000,0.0324,0.013523,0.002678,0.000431,0.010107
11590000,0.0324,0.013523,0.002678,0.000431,0.009402
11591000,0.0324,0.013523,0.002678,0.000431,0.009637
11592000,0.0324,0.013523,0.002678,0.000431,0.009167
11593000,0.0324,0.013523,0.002678,0.000431,0.009990
11594000,0.0324,0.013523,0.002678,0.000431,0.007757
11595000,0.0324,0.013523,0.002678,0.000431,0.010578
11596000,0.0324,0.013523,0.002678,0.000431,0.010107
11597000,0.0324,0.013523,0.002678,0.000431,0.009402
11598000,0.0324,0.013523,0.002678,0.000431,0.009990
11599000,0.0324,0.013523,0.002678,0.000431,0.009167
11600000,0.0324,0.013523,0.002678,0.000431,0.009872
11601000,0.0324,0.013523,0.002678,0.000431,0.010578
11602000,0.0324,0.013523,0.002678,0.000431,0.009990
11603000,0.0324,0.013523,0.002678,0.000431,0.009285
11604000,0.0324,0.013523,0.002678,0.000431,0.010342
11605000,0.0324,0.013523,0.002678,0.000431,0.008345
11606000,0.0324,0.013523,0.002678,0.000431,0.009167
11607000,0.0324,0.013523,0.002678,0.000431,0.010460
11608000,0.0324,0.013523,0.002678,0.000431,0.009167
11609000,0.0324,0.013523,0.002678,0.000431,0.010225
11610000,0.0324,0.013523,0.002678,0.000431,0.009755
11611000,0.0324,0.013523,0.002678,0.000431,0.009990
11612000,0.0324,0.013523,0.002678,0.000431,0.009285
11613000,0.0324,0.013523,0.002678,0.000431,0.010578
11614000,0.0324,0.013523,0.002678,0.000431,0.008227
11615000,0.0324,0.013523,0.002678,0.000431,0.009872
11616000,0.0324,0.013523,0.002678,0.000431,0.009402
11617000,0.0324,0.013523,0.002678,0.000431,0.010930
11618000,0.0324,0.013523,0.002678,0.000431,0.009050
11619000,0.0324,0.013523,0.002678,0.000431,0.009755
11620000,0.0324,0.013523,0.002678,0.000431,0.010225
11621000,0.0324,0.013523,0.002678,0.000431,0.008345
11622000,0.0324,0.013523,0.002678,0.000431,0.009520
11623000,0.0324,0.013523,0.002678,0.000431,0.009520
11624000,0.0324,0.013523,0.002678,0.000431,0.009520
11625000,0.0324,0.013523,0.002678,0.000431,0.009167
11626000,0.0324,0.013523,0.002678,0.000431,0.010578
11627000,0.0324,0.013523,0.002678,0.000431,0.008462
11628000,0.0324,0.013523,0.002678,0.000431,0.008815
11629000,0.0324,0.013523,0.002678,0.000431,0.010460
11630000,0.0324,0.013523,0.002678,0.000431,0.009520
11631000,0.0324,0.013523,0.002678,0.000431,0.009402
11632000,0.0324,0.013523,0.002678,0.000431,0.009167
11633000,0.0324,0.013523,0.002678,0.000431,0.009872
11634000,0.0324,0.013523,0.002678,0.000431,0.009285
11635000,0.0324,0.013523,0.002678,0.000431,0.010342
11636000,0.0324,0.013523,0.002678,0.000431,0.009402
11637000,0.0324,0.013523,0.002678,0.000431,0.008932
11638000,0.0324,0.013523,0.002678,0.000431,0.010107
11639000,0.0324,0.013523,0.002678,0.000431,0.009990
11640000,0.0324,0.013523,0.002678,0.000431,0.008932
11641000,0.0324,0.013523,0.002678,0.000431,0.010342
11642000,0.0324,0.013523,0.002678,0.000431,0.009402
11643000,0.0324,0.013523,0.002678,0.000431,0.009872
11644000,0.0324,0.013523,0.002678,0.000431,0.009167
11645000,0.0324,0.013523,0.002678,0.000431,0.010813
11646000,0.0324,0.013523,0.002678,0.000431,0.009285
11647000,0.0324,0.013523,0.002678,0.000431,0.008932
11648000,0.0324,0.013523,0.002678,0.000431,0.011870
11649000,0.0324,0.013523,0.002678,0.000431,0.008345
11650000,0.0324,0.013523,0.002678,0.000431,0.009520
11651000,0.0324,0.013523,0.002678,0.000431,0.010107
11652000,0.0324,0.013523,0.002678,0.000431,0.009050
11653000,0.0324,0.013523,0.002678,0.000431,0.009402
11654000,0.0324,0.013523,0.002678,0.000431,0.009637
11655000,0.0324,0.013523,0.002678,0.000431,0.009285
11656000,0.0324,0.013523,0.002678,0.000431,0.008815
11657000,0.0324,0.013523,0.002678,0.000431,0.010107
11658000,0.0324,0.013523,0.002678,0.000431,0.009990
11659000,0.0324,0.013523,0.002678,0.000431,0.009285
11660000,0.0324,0.013523,0.002678,0.000431,0.009285
11661000,0.0324,0.013523,0.002678,0.000431,0.009990
11662000,0.0324,0.013523,0.002678,0.000431,0.009285
11663000,0.0324,0.013523,0.002678,0.000431,0.009520
11664000,0.0324,0.013523,0.002678,0.000431,0.010460
11665000,0.0324,0.013523,0.002678,0.000431,0.009755
11666000,0.0324,0.013523,0.002678,0.000431,0.009520
11667000,0.0324,0.013523,0.002678,0.000431,0.009285
11668000,0.0324,0.013523,0.002678,0.000431,0.009520
11669000,0.0324,0.013523,0.002678,0.000431,0.009285
11670000,0.0324,0.013523,0.002678,0.000431,0.010107
11671000,0.0324,0.013523,0.002678,0.000431,0.009872
11672000,0.0324,0.013523,0.002678,0.000431,0.009990
11673000,0.0324,0.013523,0.002678,0.000431,0.009167
11674000,0.0324,0.013523,0.002678,0.000431,0.009402
11675000,0.0324,0.013523,0.002678,0.000431,0.009637
11676000,0.0324,0.013523,0.002678,0.000431,0.009402
11677000,0.0324,0.013523,0.002678,0.000431,0.009872
11678000,0.0324,0.013523,0.002678,0.000431,0.009285
11679000,0.0324,0.013523,0.002678,0.000431,0.009285
11680000,0.0324,0.013523,0.002678,0.000431,0.010107
11681000,0.0324,0.013523,0.002678,0.000431,0.009402
11682000,0.0324,0.013523,0.002678,0.000431,0.009520
11683000,0.0324,0.013523,0.002678,0.000431,0.009990
11684000,0.0324,0.013523,0.002678,0.000431,0.008932
11685000,0.0324,0.013523,0.002678,0.000431,0.008932
11686000,0.0324,0.013523,0.002678,0.000431,0.009167
11687000,0.0324,0.013523,0.002678,0.000431,0.009520
11688000,0.0324,0.013523,0.002678,0.000431,0.009285
11689000,0.0324,0.013523,0.002678,0.000431,0.009755
11690000,0.0324,0.013523,0.002678,0.000431,0.009520
11691000,0.0324,0.013523,0.002678,0.000431,0.008580
11692000,0.0324,0.013523,0.002678,0.000431,0.010225
11693000,0.0324,0.013523,0.002678,0.000431,0.009285
11694000,0.0324,0.013523,0.002678,0.000431,0.009167
11695000,0.0324,0.013523,0.002678,0.000431,0.011283
11696000,0.0324,0.013523,0.002678,0.000431,0.008932
11697000,0.0324,0.013523,0.002678,0.000431,0.010107
11698000,0.0324,0.013523,0.002678,0.000431,0.010107
11699000,0.0324,0.013523,0.002678,0.000431,0.010107
11700000,0.0324,0.013523,0.002678,0.000431,0.009285
11701000,0.0324,0.013523,0.002678,0.000431,0.010225
11702000,0.0324,0.013523,0.002678,0.000431,0.009167
11703000,0.0324,0.013523,0.002678,0.000431,0.009755
11704000,0.0324,0.013523,0.002678,0.000431,0.009872
11705000,0.0324,0.013523,0.002678,0.000431,0.009285
11706000,0.0324,0.013523,0.002678,0.000431,0.009637
11707000,0.0324,0.013523,0.002678,0.000431,0.009872
11708000,0.0324,0.013523,0.002678,0.000431,0.009990
11709000,0.0324,0.013523,0.002678,0.000431,0.009402
11710000,0.0324,0.013523,0.002678,0.000431,0.010813
11711000,0.0324,0.013523,0.002678,0.000431,0.009755
11712000,0.0324,0.013523,0.002678,0.000431,0.008580
11713000,0.0324,0.013523,0.002678,0.000431,0.010695
11714000,0.0324,0.013523,0.002678,0.000431,0.009167
11715000,0.0324,0.013523,0.002678,0.000431,0.009872
11716000,0.0324,0.013523,0.002678,0.000431,0.009990
11717000,0.0324,0.013523,0.002678,0.000431,0.009167
11718000,0.0324,0.013523,0.002678,0.000431,0.009520
11719000,0.0324,0.013523,0.002678,0.000431,0.010225
11720000,0.0324,0.013523,0.002678,0.000431,0.009050
11721000,0.0324,0.013523,0.002678,0.000431,0.009050
11722000,0.0324,0.013523,0.002678,0.000431,0.009402
11723000,0.0324,0.013523,0.002678,0.000431,0.010225
11724000,0.0324,0.013523,0.002678,0.000431,0.008932
11725000,0.0324,0.013523,0.002678,0.000431,0.009520
11726000,0.0324,0.013523,0.002678,0.000431,0.010107
11727000,0.0324,0.013523,0.002678,0.000431,0.009050
11728000,0.0324,0.013523,0.002678,0.000431,0.008932
11729000,0.0324,0.013523,0.002678,0.000431,0.010578
11730000,0.0324,0.013523,0.002678,0.000431,0.008932
11731000,0.0324,0.013523,0.002678,0.000431,0.009637
11732000,0.0324,0.013523,0.002678,0.000431,0.010107
11733000,0.0324,0.013523,0.002678,0.000431,0.009755
11734000,0.0324,0.013523,0.002678,0.000431,0.009167
11735000,0.0324,0.013523,0.002678,0.000431,0.009990
11736000,0.0324,0.013523,0.002678,0.000431,0.009050
11737000,0.0324,0.013523,0.002678,0.000431,0.009285
11738000,0.0324,0.013523,0.002678,0.000431,0.009637
11739000,0.0324,0.013523,0.002678,0.000431,0.010107
11740000,0.0324,0.013523,0.002678,0.000431,0.009520
11741000,0.0324,0.013523,0.002678,0.000431,0.009402
11742000,0.0324,0.013523,0.002678,0.000431,0.010225
11743000,0.0324,0.013523,0.002678,0.000431,0.009990
11744000,0.0324,0.013523,0.002678,0.000431,0.007874
11745000,0.0324,0.013523,0.002678,0.000431,0.009990
11746000,0.0324,0.013523,0.002678,0.000431,0.009755
11747000,0.0324,0.013523,0.002678,0.000431,0.009872
11748000,0.0324,0.013523,0.002678,0.000431,0.010578
11749000,0.0324,0.013523,0.002678,0.000431,0.008932
11750000,0.0324,0.013523,0.002678,0.000431,0.009402
11751000,0.0324,0.013523,0.002678,0.000431,0.009990
11752000,0.0324,0.013523,0.002678,0.000431,0.008697
11753000,0.0324,0.013523,0.002678,0.000431,0.008932
11754000,0.0324,0.013523,0.002678,0.000431,0.010578
11755000,0.0324,0.013523,0.002678,0.000431,0.009167
11756000,0.0324,0.013523,0.002678,0.000431,0.009872
11757000,0.0324,0.013523,0.002678,0.000431,0.010578
11758000,0.0324,0.013523,0.002678,0.000431,0.009872
11759000,0.0324,0.013523,0.002678,0.000431,0.010107
11760000,0.0324,0.013523,0.002678,0.000431,0.009755
11761000,0.0324,0.013523,0.002678,0.000431,0.009402
11762000,0.0324,0.013523,0.002678,0.000431,0.010107
11763000,0.0324,0.013523,0.002678,0.000431,0.009285
11764000,0.0324,0.013523,0.002678,0.000431,0.009402
11765000,0.0324,0.013523,0.002678,0.000431,0.009050
11766000,0.0324,0.013523,0.002678,0.000431,0.010578
11767000,0.0324,0.013523,0.002678,0.000431,0.009990
11768000,0.0324,0.013523,0.002678,0.000431,0.009872
11769000,0.0324,0.013523,0.002678,0.000431,0.009872
11770000,0.0324,0.013523,0.002678,0.000431,0.010225
11771000,0.0324,0.013523,0.002678,0.000431,0.008227
11772000,0.0324,0.013523,0.002678,0.000431,0.010578
11773000,0.0324,0.013523,0.002678,0.000431,0.010107
11774000,0.0324,0.013523,0.002678,0.000431,0.009285
11775000,0.0324,0.013523,0.002678,0.000431,0.010107
11776000,0.0324,0.013523,0.002678,0.000431,0.008815
11777000,0.0324,0.013523,0.002678,0.000431,0.009285
11778000,0.0324,0.013523,0.002678,0.000431,0.009872
11779000,0.0324,0.013523,0.002678,0.000431,0.009872
11780000,0.0324,0.013523,0.002678,0.000431,0.009285
11781000,0.0324,0.013523,0.002678,0.000431,0.009637
11782000,0.0324,0.013523,0.002678,0.000431,0.010342
11783000,0.0324,0.013523,0.002678,0.000431,0.009520
11784000,0.0324,0.013523,0.002678,0.000431,0.009402
11785000,0.0324,0.013523,0.002678,0.000431,0.008697
11786000,0.0324,0.013523,0.002678,0.000431,0.009755
11787000,0.0324,0.013523,0.002678,0.000431,0.008932
11788000,0.0324,0.013523,0.002678,0.000431,0.010460
11789000,0.0324,0.013523,0.002678,0.000431,0.009285
11790000,0.0324,0.013523,0.002678,0.000431,0.009755
11791000,0.0324,0.013523,0.002678,0.000431,0.010225
11792000,0.0324,0.013523,0.002678,0.000431,0.008932
11793000,0.0324,0.013523,0.002678,0.000431,0.009637
11794000,0.0324,0.013523,0.002678,0.000431,0.009872
11795000,0.0324,0.013523,0.002678,0.000431,0.009755
11796000,0.0324,0.013523,0.002678,0.000431,0.009990
11797000,0.0324,0.013523,0.002678,0.000431,0.009990
11798000,0.0324,0.013523,0.002678,0.000431,0.010225
11799000,0.0324,0.013523,0.002678,0.000431,0.008815
11800000,0.0324,0.013523,0.002678,0.000431,0.010225
11801000,0.0324,0.013523,0.002678,0.000431,0.008932
11802000,0.0324,0.013523,0.002678,0.000431,0.009637
11803000,0.0324,0.013523,0.002678,0.000431,0.009285
11804000,0.0324,0.013523,0.002678,0.000431,0.009755
11805000,0.0324,0.013523,0.002678,0.000431,0.008932
11806000,0.0324,0.013523,0.002678,0.000431,0.009167
11807000,0.0324,0.013523,0.002678,0.000431,0.009050
11808000,0.0324,0.013523,0.002678,0.000431,0.010342
11809000,0.0324,0.013523,0.002678,0.000431,0.009637
11810000,0.0324,0.013523,0.002678,0.000431,0.009755
11811000,0.0324,0.013523,0.002678,0.000431,0.009402
11812000,0.0324,0.013523,0.002678,0.000431,0.009872
11813000,0.0324,0.013523,0.002678,0.000431,0.008932
11814000,0.0324,0.013523,0.002678,0.000431,0.009990
11815000,0.0324,0.013523,0.002678,0.000431,0.009520
11816000,0.0324,0.013523,0.002678,0.000431,0.009167
11817000,0.0324,0.013523,0.002678,0.000431,0.008815
11818000,0.0324,0.013523,0.002678,0.000431,0.008462
11819000,0.0324,0.013523,0.002678,0.000431,0.008815
11820000,0.0324,0.013523,0.002678,0.000431,0.009520
11821000,0.0324,0.013523,0.002678,0.000431,0.008697
11822000,0.0324,0.013523,0.002678,0.000431,0.010107
11823000,0.0324,0.013523,0.002678,0.000431,0.009050
11824000,0.0324,0.013523,0.002678,0.000431,0.008697
11825000,0.0324,0.013523,0.002678,0.000431,0.009990
11826000,0.0324,0.013523,0.002678,0.000431,0.009755
11827000,0.0324,0.013523,0.002678,0.000431,0.008932
11828000,0.0324,0.013523,0.002678,0.000431,0.008932
11829000,0.0324,0.013523,0.002678,0.000431,0.008345
11830000,0.0324,0.013523,0.002678,0.000431,0.010225
11831000,0.0324,0.013523,0.002678,0.000431,0.009755
11832000,0.0324,0.013523,0.002678,0.000431,0.009637
11833000,0.0324,0.013523,0.002678,0.000431,0.009990
11834000,0.0324,0.013523,0.002678,0.000431,0.008932
11835000,0.0324,0.013523,0.002678,0.000431,0.009637
11836000,0.0324,0.013523,0.002678,0.000431,0.008815
11837000,0.0324,0.013523,0.002678,0.000431,0.009050
11838000,0.0324,0.013523,0.002678,0.000431,0.010225
11839000,0.0324,0.013523,0.002678,0.000431,0.009990
11840000,0.0324,0.013523,0.002678,0.000431,0.008815
11841000,0.0324,0.013523,0.002678,0.000431,0.009520
11842000,0.0324,0.013523,0.002678,0.000431,0.009755
11843000,0.0324,0.013523,0.002678,0.000431,0.009402
11844000,0.0324,0.013523,0.002678,0.000431,0.009050
11845000,0.0324,0.013523,0.002678,0.000431,0.010342
11846000,0.0324,0.013523,0.002678,0.000431,0.008580
11847000,0.0324,0.013523,0.002678,0.000431,0.009285
11848000,0.0324,0.013523,0.002678,0.000431,0.009990
11849000,0.0324,0.013523,0.002678,0.000431,0.009050
11850000,0.0324,0.013523,0.002678,0.000431,0.009402
11851000,0.0324,0.013523,0.002678,0.000431,0.008815
11852000,0.0324,0.013523,0.002678,0.000431,0.009637
11853000,0.0324,0.013523,0.002678,0.000431,0.009637
11854000,0.0324,0.013523,0.002678,0.000431,0.009990
11855000,0.0324,0.013523,0.002678,0.000431,0.008932
11856000,0.0324,0.013523,0.002678,0.000431,0.009402
11857000,0.0324,0.013523,0.002678,0.000431,0.008580
11858000,0.0324,0.013523,0.002678,0.000431,0.009990
11859000,0.0324,0.013523,0.002678,0.000431,0.009872
11860000,0.0324,0.013523,0.002678,0.000431,0.009637
11861000,0.0324,0.013523,0.002678,0.000431,0.010460
11862000,0.0324,0.013523,0.002678,0.000431,0.009990
11863000,0.0324,0.013523,0.002678,0.000431,0.008697
11864000,0.0324,0.013523,0.002678,0.000431,0.009520
11865000,0.0324,0.013523,0.002678,0.000431,0.009402
11866000,0.0324,0.013523,0.002678,0.000431,0.009167
11867000,0.0324,0.013523,0.002678,0.000431,0.010107
11868000,0.0324,0.013523,0.002678,0.000431,0.009520
11869000,0.0324,0.013523,0.002678,0.000431,0.009637
11870000,0.0324,0.013523,0.002678,0.000431,0.009050
11871000,0.0324,0.013523,0.002678,0.000431,0.009637
11872000,0.0324,0.013523,0.002678,0.000431,0.009520
11873000,0.0324,0.013523,0.002678,0.000431,0.009520
11874000,0.0324,0.013523,0.002678,0.000431,0.009285
11875000,0.0324,0.013523,0.002678,0.000431,0.008932
11876000,0.0324,0.013523,0.002678,0.000431,0.010107
11877000,0.0324,0.013523,0.002678,0.000431,0.010107
11878000,0.0324,0.013523,0.002678,0.000431,0.008815
11879000,0.0324,0.013523,0.002678,0.000431,0.009872
11880000,0.0324,0.013523,0.002678,0.000431,0.010342
11881000,0.0324,0.013523,0.002678,0.000431,0.008697
11882000,0.0324,0.013523,0.002678,0.000431,0.009402
11883000,0.0324,0.013523,0.002678,0.000431,0.010460
11884000,0.0324,0.013523,0.002678,0.000431,0.009755
11885000,0.0324,0.013523,0.002678,0.000431,0.009050
11886000,0.0324,0.013523,0.002678,0.000431,0.009637
11887000,0.0324,0.013523,0.002678,0.000431,0.009167
11888000,0.0324,0.013523,0.002678,0.000431,0.009872
11889000,0.0324,0.013523,0.002678,0.000431,0.009637
11890000,0.0324,0.013523,0.002678,0.000431,0.009520
11891000,0.0324,0.013523,0.002678,0.000431,0.008580
11892000,0.0324,0.013523,0.002678,0.000431,0.009402
11893000,0.0324,0.013523,0.002678,0.000431,0.009167
11894000,0.0324,0.013523,0.002678,0.000431,0.009050
11895000,0.0324,0.013523,0.002678,0.000431,0.009050
11896000,0.0324,0.013523,0.002678,0.000431,0.010107
11897000,0.0324,0.013523,0.002678,0.000431,0.010107
11898000,0.0324,0.013523,0.002678,0.000431,0.009050
11899000,0.0324,0.013523,0.002678,0.000431,0.010578
11900000,0.0324,0.013523,0.002678,0.000431,0.009755
11901000,0.0324,0.013523,0.002678,0.000431,0.008697
11902000,0.0324,0.013523,0.002678,0.000431,0.009872
11903000,0.0324,0.013523,0.002678,0.000431,0.009755
11904000,0.0324,0.013523,0.002678,0.000431,0.009050
11905000,0.0324,0.013523,0.002678,0.000431,0.010342
11906000,0.0324,0.013523,0.002678,0.000431,0.009637
11907000,0.0324,0.013523,0.002678,0.000431,0.009167
11908000,0.0324,0.013523,0.002678,0.000431,0.008697
11909000,0.0324,0.013523,0.002678,0.000431,0.009285
11910000,0.0324,0.013523,0.002678,0.000431,0.011283
11911000,0.0324,0.013523,0.002678,0.000431,0.009167
11912000,0.0324,0.013523,0.002678,0.000431,0.009402
11913000,0.0324,0.013523,0.002678,0.000431,0.009285
11914000,0.0324,0.013523,0.002678,0.000431,0.009872
11915000,0.0324,0.013523,0.002678,0.000431,0.009637
11916000,0.0324,0.013523,0.002678,0.000431,0.009285
11917000,0.0324,0.013523,0.002678,0.000431,0.009990
11918000,0.0324,0.013523,0.002678,0.000431,0.009050
11919000,0.0324,0.013523,0.002678,0.000431,0.009872
11920000,0.0324,0.013523,0.002678,0.000431,0.008815
11921000,0.0324,0.013523,0.002678,0.000431,0.009402
11922000,0.0324,0.013523,0.002678,0.000431,0.009520
11923000,0.0324,0.013523,0.002678,0.000431,0.010225
11924000,0.0324,0.013523,0.002678,0.000431,0.009637
11925000,0.0324,0.013523,0.002678,0.000431,0.009167
11926000,0.0324,0.013523,0.002678,0.000431,0.009755
11927000,0.0324,0.013523,0.002678,0.000431,0.009637
11928000,0.0324,0.013523,0.002678,0.000431,0.009402
11929000,0.0324,0.013523,0.002678,0.000431,0.009167
11930000,0.0324,0.013523,0.002678,0.000431,0.008815
11931000,0.0324,0.013523,0.002678,0.000431,0.009755
11932000,0.0324,0.013523,0.002678,0.000431,0.009285
11933000,0.0324,0.013523,0.002678,0.000431,0.008815
11934000,0.0324,0.013523,0.002678,0.000431,0.010930
11935000,0.0324,0.013523,0.002678,0.000431,0.009402
11936000,0.0324,0.013523,0.002678,0.000431,0.009402
11937000,0.0324,0.013523,0.002678,0.000431,0.009990
11938000,0.0324,0.013523,0.002678,0.000431,0.008697
11939000,0.0324,0.013523,0.002678,0.000431,0.009872
11940000,0.0324,0.013523,0.002678,0.000431,0.009637
11941000,0.0324,0.013523,0.002678,0.000431,0.010342
11942000,0.0324,0.013523,0.002678,0.000431,0.009755
11943000,0.0324,0.013523,0.002678,0.000431,0.008697
11944000,0.0324,0.013523,0.002678,0.000431,0.009872
11945000,0.0324,0.013523,0.002678,0.000431,0.009167
11946000,0.0324,0.013523,0.002678,0.000431,0.009520
11947000,0.0324,0.013523,0.002678,0.000431,0.010460
11948000,0.0324,0.013523,0.002678,0.000431,0.009520
11949000,0.0324,0.013523,0.002678,0.000431,0.009167
11950000,0.0324,0.013523,0.002678,0.000431,0.009637
11951000,0.0324,0.013523,0.002678,0.000431,0.010225
11952000,0.0324,0.013523,0.002678,0.000431,0.008580
11953000,0.0324,0.013523,0.002678,0.000431,0.009755
11954000,0.0324,0.013523,0.002678,0.000431,0.008932
11955000,0.0324,0.013523,0.002678,0.000431,0.009637
11956000,0.0324,0.013523,0.002678,0.000431,0.009755
11957000,0.0324,0.013523,0.002678,0.000431,0.009872
11958000,0.0324,0.013523,0.002678,0.000431,0.009872
11959000,0.0324,0.013523,0.002678,0.000431,0.007992
11960000,0.0324,0.013523,0.002678,0.000431,0.009872
11961000,0.0324,0.013523,0.002678,0.000431,0.009167
11962000,0.0324,0.013523,0.002678,0.000431,0.008697
11963000,0.0324,0.013523,0.002678,0.000431,0.009755
11964000,0.0324,0.013523,0.002678,0.000431,0.010107
11965000,0.0324,0.013523,0.002678,0.000431,0.009167
11966000,0.0324,0.013523,0.002678,0.000431,0.009520
11967000,0.0324,0.013523,0.002678,0.000431,0.009637
11968000,0.0324,0.013523,0.002678,0.000431,0.009872
11969000,0.0324,0.013523,0.002678,0.000431,0.009990
11970000,0.0324,0.013523,0.002678,0.000431,0.009520
11971000,0.0324,0.013523,0.002678,0.000431,0.009872
11972000,0.0324,0.013523,0.002678,0.000431,0.008697
11973000,0.0324,0.013523,0.002678,0.000431,0.008580
11974000,0.0324,0.013523,0.002678,0.000431,0.007757
11975000,0.0324,0.013523,0.002678,0.000431,0.009637
11976000,0.0324,0.013523,0.002678,0.000431,0.009402
11977000,0.0324,0.013523,0.002678,0.000431,0.007522
11978000,0.0324,0.013523,0.002678,0.000431,0.009755
11979000,0.0324,0.013523,0.002678,0.000431,0.009755
11980000,0.0324,0.013523,0.002678,0.000431,0.008462
11981000,0.0324,0.013523,0.002678,0.000431,0.008815
11982000,0.0324,0.013523,0.002678,0.000431,0.009872
11983000,0.0324,0.013523,0.002678,0.000431,0.008345
11984000,0.0324,0.013523,0.002678,0.000431,0.007757
11985000,0.0324,0.013523,0.002678,0.000431,0.009167
11986000,0.0324,0.013523,0.002678,0.000431,0.009167
11987000,0.0324,0.013523,0.002678,0.000431,0.008227
11988000,0.0324,0.013523,0.002678,0.000431,0.008815
11989000,0.0324,0.013523,0.002678,0.000431,0.007874
11990000,0.0324,0.013523,0.002678,0.000431,0.008109
11991000,0.0324,0.013523,0.002678,0.000431,0.009520
11992000,0.0324,0.013523,0.002678,0.000431,0.008932
11993000,0.0324,0.013523,0.002678,0.000431,0.008462
11994000,0.0324,0.013523,0.002678,0.000431,0.009050
11995000,0.0324,0.013523,0.002678,0.000431,0.008815
11996000,0.0324,0.013523,0.002678,0.000431,0.008345
11997000,0.0324,0.013523,0.002678,0.000431,0.008932
11998000,0.0324,0.013523,0.002678,0.000431,0.008932
11999000,0.0324,0.013523,0.002678,0.000431,0.008227
