Cycle,Area(mm^2),PeakDynamic(W),SubthresholdLeakage(W),GateLeakage(W),RunTimeDynamic(W)
7000000,0.0324,0.013523,0.002678,0.000431,0.023036
7001000,0.0324,0.013523,0.002678,0.000431,0.022213
7002000,0.0324,0.013523,0.002678,0.000431,0.024798
7003000,0.0324,0.013523,0.002678,0.000431,0.021978
7004000,0.0324,0.013523,0.002678,0.000431,0.024093
7005000,0.0324,0.013523,0.002678,0.000431,0.025269
7006000,0.0324,0.013523,0.002678,0.000431,0.022800
7007000,0.0324,0.013523,0.002678,0.000431,0.024093
7008000,0.0324,0.013523,0.002678,0.000431,0.025034
7009000,0.0324,0.013523,0.002678,0.000431,0.024446
7010000,0.0324,0.013523,0.002678,0.000431,0.023506
7011000,0.0324,0.013523,0.002678,0.000431,0.024798
7012000,0.0324,0.013523,0.002678,0.000431,0.023858
7013000,0.0324,0.013523,0.002678,0.000431,0.022918
7014000,0.0324,0.013523,0.002678,0.000431,0.024916
7015000,0.0324,0.013523,0.002678,0.000431,0.024328
7016000,0.0324,0.013523,0.002678,0.000431,0.023271
7017000,0.0324,0.013523,0.002678,0.000431,0.023976
7018000,0.0324,0.013523,0.002678,0.000431,0.025034
7019000,0.0324,0.013523,0.002678,0.000431,0.024681
7020000,0.0324,0.013523,0.002678,0.000431,0.021625
7021000,0.0324,0.013523,0.002678,0.000431,0.024798
7022000,0.0324,0.013523,0.002678,0.000431,0.025856
7023000,0.0324,0.013523,0.002678,0.000431,0.021743
7024000,0.0324,0.013523,0.002678,0.000431,0.024916
7025000,0.0324,0.013523,0.002678,0.000431,0.023388
7026000,0.0324,0.013523,0.002678,0.000431,0.022800
7027000,0.0324,0.013523,0.002678,0.000431,0.023741
7028000,0.0324,0.013523,0.002678,0.000431,0.023506
7029000,0.0324,0.013523,0.002678,0.000431,0.022918
7030000,0.0324,0.013523,0.002678,0.000431,0.024211
7031000,0.0324,0.013523,0.002678,0.000431,0.023858
7032000,0.0324,0.013523,0.002678,0.000431,0.024093
7033000,0.0324,0.013523,0.002678,0.000431,0.023623
7034000,0.0324,0.013523,0.002678,0.000431,0.024563
7035000,0.0324,0.013523,0.002678,0.000431,0.023271
7036000,0.0324,0.013523,0.002678,0.000431,0.025151
7037000,0.0324,0.013523,0.002678,0.000431,0.023623
7038000,0.0324,0.013523,0.002678,0.000431,0.023741
7039000,0.0324,0.013523,0.002678,0.000431,0.024681
7040000,0.0324,0.013523,0.002678,0.000431,0.024328
7041000,0.0324,0.013523,0.002678,0.000431,0.023506
7042000,0.0324,0.013523,0.002678,0.000431,0.022800
7043000,0.0324,0.013523,0.002678,0.000431,0.024211
7044000,0.0324,0.013523,0.002678,0.000431,0.024798
7045000,0.0324,0.013523,0.002678,0.000431,0.024211
7046000,0.0324,0.013523,0.002678,0.000431,0.024211
7047000,0.0324,0.013523,0.002678,0.000431,0.024328
7048000,0.0324,0.013523,0.002678,0.000431,0.022683
7049000,0.0324,0.013523,0.002678,0.000431,0.023506
7050000,0.0324,0.013523,0.002678,0.000431,0.022918
7051000,0.0324,0.013523,0.002678,0.000431,0.022565
7052000,0.0324,0.013523,0.002678,0.000431,0.023976
7053000,0.0324,0.013523,0.002678,0.000431,0.024446
7054000,0.0324,0.013523,0.002678,0.000431,0.023741
7055000,0.0324,0.013523,0.002678,0.000431,0.022683
7056000,0.0324,0.013523,0.002678,0.000431,0.023506
7057000,0.0324,0.013523,0.002678,0.000431,0.023976
7058000,0.0324,0.013523,0.002678,0.000431,0.024681
7059000,0.0324,0.013523,0.002678,0.000431,0.023153
7060000,0.0324,0.013523,0.002678,0.000431,0.024328
7061000,0.0324,0.013523,0.002678,0.000431,0.023741
7062000,0.0324,0.013523,0.002678,0.000431,0.023741
7063000,0.0324,0.013523,0.002678,0.000431,0.023976
7064000,0.0324,0.013523,0.002678,0.000431,0.023976
7065000,0.0324,0.013523,0.002678,0.000431,0.023153
7066000,0.0324,0.013523,0.002678,0.000431,0.023976
7067000,0.0324,0.013523,0.002678,0.000431,0.022683
7068000,0.0324,0.013523,0.002678,0.000431,0.022918
7069000,0.0324,0.013523,0.002678,0.000431,0.024563
7070000,0.0324,0.013523,0.002678,0.000431,0.021743
7071000,0.0324,0.013523,0.002678,0.000431,0.021860
7072000,0.0324,0.013523,0.002678,0.000431,0.025504
7073000,0.0324,0.013523,0.002678,0.000431,0.023271
7074000,0.0324,0.013523,0.002678,0.000431,0.020920
7075000,0.0324,0.013523,0.002678,0.000431,0.023036
7076000,0.0324,0.013523,0.002678,0.000431,0.022213
7077000,0.0324,0.013523,0.002678,0.000431,0.022800
7078000,0.0324,0.013523,0.002678,0.000431,0.021508
7079000,0.0324,0.013523,0.002678,0.000431,0.023153
7080000,0.0324,0.013523,0.002678,0.000431,0.022213
7081000,0.0324,0.013523,0.002678,0.000431,0.021038
7082000,0.0324,0.013523,0.002678,0.000431,0.022330
7083000,0.0324,0.013523,0.002678,0.000431,0.023153
7084000,0.0324,0.013523,0.002678,0.000431,0.023741
7085000,0.0324,0.013523,0.002678,0.000431,0.021625
7086000,0.0324,0.013523,0.002678,0.000431,0.021743
7087000,0.0324,0.013523,0.002678,0.000431,0.024211
7088000,0.0324,0.013523,0.002678,0.000431,0.021743
7089000,0.0324,0.013523,0.002678,0.000431,0.021860
7090000,0.0324,0.013523,0.002678,0.000431,0.022683
7091000,0.0324,0.013523,0.002678,0.000431,0.022095
7092000,0.0324,0.013523,0.002678,0.000431,0.021155
7093000,0.0324,0.013523,0.002678,0.000431,0.025504
7094000,0.0324,0.013523,0.002678,0.000431,0.021038
7095000,0.0324,0.013523,0.002678,0.000431,0.023741
7096000,0.0324,0.013523,0.002678,0.000431,0.021625
7097000,0.0324,0.013523,0.002678,0.000431,0.022565
7098000,0.0324,0.013523,0.002678,0.000431,0.022683
7099000,0.0324,0.013523,0.002678,0.000431,0.022213
7100000,0.0324,0.013523,0.002678,0.000431,0.023623
7101000,0.0324,0.013523,0.002678,0.000431,0.019745
7102000,0.0324,0.013523,0.002678,0.000431,0.022095
7103000,0.0324,0.013523,0.002678,0.000431,0.022565
7104000,0.0324,0.013523,0.002678,0.000431,0.023388
7105000,0.0324,0.013523,0.002678,0.000431,0.021860
7106000,0.0324,0.013523,0.002678,0.000431,0.023623
7107000,0.0324,0.013523,0.002678,0.000431,0.022213
7108000,0.0324,0.013523,0.002678,0.000431,0.022565
7109000,0.0324,0.013523,0.002678,0.000431,0.022330
7110000,0.0324,0.013523,0.002678,0.000431,0.022330
7111000,0.0324,0.013523,0.002678,0.000431,0.022565
7112000,0.0324,0.013523,0.002678,0.000431,0.022565
7113000,0.0324,0.013523,0.002678,0.000431,0.020567
7114000,0.0324,0.013523,0.002678,0.000431,0.024798
7115000,0.0324,0.013523,0.002678,0.000431,0.023271
7116000,0.0324,0.013523,0.002678,0.000431,0.020567
7117000,0.0324,0.013523,0.002678,0.000431,0.023271
7118000,0.0324,0.013523,0.002678,0.000431,0.022683
7119000,0.0324,0.013523,0.002678,0.000431,0.022448
7120000,0.0324,0.013523,0.002678,0.000431,0.022683
7121000,0.0324,0.013523,0.002678,0.000431,0.022213
7122000,0.0324,0.013523,0.002678,0.000431,0.020920
7123000,0.0324,0.013523,0.002678,0.000431,0.021743
7124000,0.0324,0.013523,0.002678,0.000431,0.023388
7125000,0.0324,0.013523,0.002678,0.000431,0.022448
7126000,0.0324,0.013523,0.002678,0.000431,0.022565
7127000,0.0324,0.013523,0.002678,0.000431,0.021390
7128000,0.0324,0.013523,0.002678,0.000431,0.022213
7129000,0.0324,0.013523,0.002678,0.000431,0.021743
7130000,0.0324,0.013523,0.002678,0.000431,0.023036
7131000,0.0324,0.013523,0.002678,0.000431,0.022800
7132000,0.0324,0.013523,0.002678,0.000431,0.022095
7133000,0.0324,0.013523,0.002678,0.000431,0.022800
7134000,0.0324,0.013523,0.002678,0.000431,0.020450
7135000,0.0324,0.013523,0.002678,0.000431,0.023976
7136000,0.0324,0.013523,0.002678,0.000431,0.021978
7137000,0.0324,0.013523,0.002678,0.000431,0.023153
7138000,0.0324,0.013523,0.002678,0.000431,0.022095
7139000,0.0324,0.013523,0.002678,0.000431,0.023153
7140000,0.0324,0.013523,0.002678,0.000431,0.023388
7141000,0.0324,0.013523,0.002678,0.000431,0.021978
7142000,0.0324,0.013523,0.002678,0.000431,0.021860
7143000,0.0324,0.013523,0.002678,0.000431,0.022448
7144000,0.0324,0.013523,0.002678,0.000431,0.022683
7145000,0.0324,0.013523,0.002678,0.000431,0.023506
7146000,0.0324,0.013523,0.002678,0.000431,0.022213
7147000,0.0324,0.013523,0.002678,0.000431,0.023976
7148000,0.0324,0.013523,0.002678,0.000431,0.022213
7149000,0.0324,0.013523,0.002678,0.000431,0.021508
7150000,0.0324,0.013523,0.002678,0.000431,0.021625
7151000,0.0324,0.013523,0.002678,0.000431,0.023153
7152000,0.0324,0.013523,0.002678,0.000431,0.021038
7153000,0.0324,0.013523,0.002678,0.000431,0.022565
7154000,0.0324,0.013523,0.002678,0.000431,0.021625
7155000,0.0324,0.013523,0.002678,0.000431,0.022565
7156000,0.0324,0.013523,0.002678,0.000431,0.021743
7157000,0.0324,0.013523,0.002678,0.000431,0.023036
7158000,0.0324,0.013523,0.002678,0.000431,0.021743
7159000,0.0324,0.013523,0.002678,0.000431,0.021508
7160000,0.0324,0.013523,0.002678,0.000431,0.022095
7161000,0.0324,0.013523,0.002678,0.000431,0.022918
7162000,0.0324,0.013523,0.002678,0.000431,0.023858
7163000,0.0324,0.013523,0.002678,0.000431,0.021038
7164000,0.0324,0.013523,0.002678,0.000431,0.021273
7165000,0.0324,0.013523,0.002678,0.000431,0.022800
7166000,0.0324,0.013523,0.002678,0.000431,0.020332
7167000,0.0324,0.013523,0.002678,0.000431,0.022213
7168000,0.0324,0.013523,0.002678,0.000431,0.023271
7169000,0.0324,0.013523,0.002678,0.000431,0.022213
7170000,0.0324,0.013523,0.002678,0.000431,0.021743
7171000,0.0324,0.013523,0.002678,0.000431,0.022213
7172000,0.0324,0.013523,0.002678,0.000431,0.023036
7173000,0.0324,0.013523,0.002678,0.000431,0.020802
7174000,0.0324,0.013523,0.002678,0.000431,0.023036
7175000,0.0324,0.013523,0.002678,0.000431,0.023623
7176000,0.0324,0.013523,0.002678,0.000431,0.023388
7177000,0.0324,0.013523,0.002678,0.000431,0.022448
7178000,0.0324,0.013523,0.002678,0.000431,0.021625
7179000,0.0324,0.013523,0.002678,0.000431,0.022918
7180000,0.0324,0.013523,0.002678,0.000431,0.021273
7181000,0.0324,0.013523,0.002678,0.000431,0.022683
7182000,0.0324,0.013523,0.002678,0.000431,0.022330
7183000,0.0324,0.013523,0.002678,0.000431,0.021978
7184000,0.0324,0.013523,0.002678,0.000431,0.022800
7185000,0.0324,0.013523,0.002678,0.000431,0.023036
7186000,0.0324,0.013523,0.002678,0.000431,0.022095
7187000,0.0324,0.013523,0.002678,0.000431,0.022565
7188000,0.0324,0.013523,0.002678,0.000431,0.023388
7189000,0.0324,0.013523,0.002678,0.000431,0.021273
7190000,0.0324,0.013523,0.002678,0.000431,0.021978
7191000,0.0324,0.013523,0.002678,0.000431,0.024093
7192000,0.0324,0.013523,0.002678,0.000431,0.021390
7193000,0.0324,0.013523,0.002678,0.000431,0.020685
7194000,0.0324,0.013523,0.002678,0.000431,0.022800
7195000,0.0324,0.013523,0.002678,0.000431,0.023271
7196000,0.0324,0.013523,0.002678,0.000431,0.020920
7197000,0.0324,0.013523,0.002678,0.000431,0.020685
7198000,0.0324,0.013523,0.002678,0.000431,0.023623
7199000,0.0324,0.013523,0.002678,0.000431,0.020802
7200000,0.0324,0.013523,0.002678,0.000431,0.021508
7201000,0.0324,0.013523,0.002678,0.000431,0.023153
7202000,0.0324,0.013523,0.002678,0.000431,0.021038
7203000,0.0324,0.013523,0.002678,0.000431,0.021273
7204000,0.0324,0.013523,0.002678,0.000431,0.022095
7205000,0.0324,0.013523,0.002678,0.000431,0.022448
7206000,0.0324,0.013523,0.002678,0.000431,0.023741
7207000,0.0324,0.013523,0.002678,0.000431,0.021743
7208000,0.0324,0.013523,0.002678,0.000431,0.020802
7209000,0.0324,0.013523,0.002678,0.000431,0.021038
7210000,0.0324,0.013523,0.002678,0.000431,0.020920
7211000,0.0324,0.013523,0.002678,0.000431,0.021978
7212000,0.0324,0.013523,0.002678,0.000431,0.022448
7213000,0.0324,0.013523,0.002678,0.000431,0.022330
7214000,0.0324,0.013523,0.002678,0.000431,0.022683
7215000,0.0324,0.013523,0.002678,0.000431,0.021155
7216000,0.0324,0.013523,0.002678,0.000431,0.022330
7217000,0.0324,0.013523,0.002678,0.000431,0.022095
7218000,0.0324,0.013523,0.002678,0.000431,0.021155
7219000,0.0324,0.013523,0.002678,0.000431,0.023271
7220000,0.0324,0.013523,0.002678,0.000431,0.021273
7221000,0.0324,0.013523,0.002678,0.000431,0.021625
7222000,0.0324,0.013523,0.002678,0.000431,0.021508
7223000,0.0324,0.013523,0.002678,0.000431,0.021390
7224000,0.0324,0.013523,0.002678,0.000431,0.021273
7225000,0.0324,0.013523,0.002678,0.000431,0.023623
7226000,0.0324,0.013523,0.002678,0.000431,0.020920
7227000,0.0324,0.013523,0.002678,0.000431,0.020450
7228000,0.0324,0.013523,0.002678,0.000431,0.019627
7229000,0.0324,0.013523,0.002678,0.000431,0.022330
7230000,0.0324,0.013523,0.002678,0.000431,0.020685
7231000,0.0324,0.013523,0.002678,0.000431,0.020802
7232000,0.0324,0.013523,0.002678,0.000431,0.023741
7233000,0.0324,0.013523,0.002678,0.000431,0.019157
7234000,0.0324,0.013523,0.002678,0.000431,0.021155
7235000,0.0324,0.013523,0.002678,0.000431,0.021390
7236000,0.0324,0.013523,0.002678,0.000431,0.021155
7237000,0.0324,0.013523,0.002678,0.000431,0.022565
7238000,0.0324,0.013523,0.002678,0.000431,0.020097
7239000,0.0324,0.013523,0.002678,0.000431,0.019040
7240000,0.0324,0.013523,0.002678,0.000431,0.023858
7241000,0.0324,0.013523,0.002678,0.000431,0.022448
7242000,0.0324,0.013523,0.002678,0.000431,0.020685
7243000,0.0324,0.013523,0.002678,0.000431,0.021743
7244000,0.0324,0.013523,0.002678,0.000431,0.020802
7245000,0.0324,0.013523,0.002678,0.000431,0.020567
7246000,0.0324,0.013523,0.002678,0.000431,0.022565
7247000,0.0324,0.013523,0.002678,0.000431,0.021508
7248000,0.0324,0.013523,0.002678,0.000431,0.021273
7249000,0.0324,0.013523,0.002678,0.000431,0.021743
7250000,0.0324,0.013523,0.002678,0.000431,0.021743
7251000,0.0324,0.013523,0.002678,0.000431,0.021978
7252000,0.0324,0.013523,0.002678,0.000431,0.020567
7253000,0.0324,0.013523,0.002678,0.000431,0.022683
7254000,0.0324,0.013523,0.002678,0.000431,0.019862
7255000,0.0324,0.013523,0.002678,0.000431,0.021155
7256000,0.0324,0.013523,0.002678,0.000431,0.023036
7257000,0.0324,0.013523,0.002678,0.000431,0.021978
7258000,0.0324,0.013523,0.002678,0.000431,0.019392
7259000,0.0324,0.013523,0.002678,0.000431,0.023036
7260000,0.0324,0.013523,0.002678,0.000431,0.020685
7261000,0.0324,0.013523,0.002678,0.000431,0.019157
7262000,0.0324,0.013523,0.002678,0.000431,0.024446
7263000,0.0324,0.013523,0.002678,0.000431,0.020685
7264000,0.0324,0.013523,0.002678,0.000431,0.019510
7265000,0.0324,0.013523,0.002678,0.000431,0.020920
7266000,0.0324,0.013523,0.002678,0.000431,0.020685
7267000,0.0324,0.013523,0.002678,0.000431,0.023858
7268000,0.0324,0.013523,0.002678,0.000431,0.022330
7269000,0.0324,0.013523,0.002678,0.000431,0.019980
7270000,0.0324,0.013523,0.002678,0.000431,0.021273
7271000,0.0324,0.013523,0.002678,0.000431,0.020450
7272000,0.0324,0.013523,0.002678,0.000431,0.023153
7273000,0.0324,0.013523,0.002678,0.000431,0.021038
7274000,0.0324,0.013523,0.002678,0.000431,0.021978
7275000,0.0324,0.013523,0.002678,0.000431,0.020097
7276000,0.0324,0.013523,0.002678,0.000431,0.021273
7277000,0.0324,0.013523,0.002678,0.000431,0.021155
7278000,0.0324,0.013523,0.002678,0.000431,0.020685
7279000,0.0324,0.013523,0.002678,0.000431,0.024211
7280000,0.0324,0.013523,0.002678,0.000431,0.021978
7281000,0.0324,0.013523,0.002678,0.000431,0.019040
7282000,0.0324,0.013523,0.002678,0.000431,0.023153
7283000,0.0324,0.013523,0.002678,0.000431,0.021860
7284000,0.0324,0.013523,0.002678,0.000431,0.020097
7285000,0.0324,0.013523,0.002678,0.000431,0.019980
7286000,0.0324,0.013523,0.002678,0.000431,0.022213
7287000,0.0324,0.013523,0.002678,0.000431,0.020332
7288000,0.0324,0.013523,0.002678,0.000431,0.020567
7289000,0.0324,0.013523,0.002678,0.000431,0.022448
7290000,0.0324,0.013523,0.002678,0.000431,0.021743
7291000,0.0324,0.013523,0.002678,0.000431,0.021038
7292000,0.0324,0.013523,0.002678,0.000431,0.021625
7293000,0.0324,0.013523,0.002678,0.000431,0.022330
7294000,0.0324,0.013523,0.002678,0.000431,0.021273
7295000,0.0324,0.013523,0.002678,0.000431,0.019627
7296000,0.0324,0.013523,0.002678,0.000431,0.021860
7297000,0.0324,0.013523,0.002678,0.000431,0.019392
7298000,0.0324,0.013523,0.002678,0.000431,0.023858
7299000,0.0324,0.013523,0.002678,0.000431,0.020332
7300000,0.0324,0.013523,0.002678,0.000431,0.021038
7301000,0.0324,0.013523,0.002678,0.000431,0.021155
7302000,0.0324,0.013523,0.002678,0.000431,0.021273
7303000,0.0324,0.013523,0.002678,0.000431,0.023036
7304000,0.0324,0.013523,0.002678,0.000431,0.020450
7305000,0.0324,0.013523,0.002678,0.000431,0.022448
7306000,0.0324,0.013523,0.002678,0.000431,0.021508
7307000,0.0324,0.013523,0.002678,0.000431,0.021508
7308000,0.0324,0.013523,0.002678,0.000431,0.021038
7309000,0.0324,0.013523,0.002678,0.000431,0.022213
7310000,0.0324,0.013523,0.002678,0.000431,0.020450
7311000,0.0324,0.013523,0.002678,0.000431,0.020215
7312000,0.0324,0.013523,0.002678,0.000431,0.020802
7313000,0.0324,0.013523,0.002678,0.000431,0.021625
7314000,0.0324,0.013523,0.002678,0.000431,0.022448
7315000,0.0324,0.013523,0.002678,0.000431,0.018569
7316000,0.0324,0.013523,0.002678,0.000431,0.023153
7317000,0.0324,0.013523,0.002678,0.000431,0.021155
7318000,0.0324,0.013523,0.002678,0.000431,0.021743
7319000,0.0324,0.013523,0.002678,0.000431,0.022918
7320000,0.0324,0.013523,0.002678,0.000431,0.020097
7321000,0.0324,0.013523,0.002678,0.000431,0.022213
7322000,0.0324,0.013523,0.002678,0.000431,0.021390
7323000,0.0324,0.013523,0.002678,0.000431,0.021978
7324000,0.0324,0.013523,0.002678,0.000431,0.021978
7325000,0.0324,0.013523,0.002678,0.000431,0.021038
7326000,0.0324,0.013523,0.002678,0.000431,0.021038
7327000,0.0324,0.013523,0.002678,0.000431,0.019980
7328000,0.0324,0.013523,0.002678,0.000431,0.023036
7329000,0.0324,0.013523,0.002678,0.000431,0.021743
7330000,0.0324,0.013523,0.002678,0.000431,0.023976
7331000,0.0324,0.013523,0.002678,0.000431,0.019627
7332000,0.0324,0.013523,0.002678,0.000431,0.019862
7333000,0.0324,0.013523,0.002678,0.000431,0.021860
7334000,0.0324,0.013523,0.002678,0.000431,0.021390
7335000,0.0324,0.013523,0.002678,0.000431,0.021273
7336000,0.0324,0.013523,0.002678,0.000431,0.019980
7337000,0.0324,0.013523,0.002678,0.000431,0.021860
7338000,0.0324,0.013523,0.002678,0.000431,0.018334
7339000,0.0324,0.013523,0.002678,0.000431,0.022448
7340000,0.0324,0.013523,0.002678,0.000431,0.020920
7341000,0.0324,0.013523,0.002678,0.000431,0.020567
7342000,0.0324,0.013523,0.002678,0.000431,0.019510
7343000,0.0324,0.013523,0.002678,0.000431,0.020215
7344000,0.0324,0.013523,0.002678,0.000431,0.021273
7345000,0.0324,0.013523,0.002678,0.000431,0.021743
7346000,0.0324,0.013523,0.002678,0.000431,0.019392
7347000,0.0324,0.013523,0.002678,0.000431,0.021273
7348000,0.0324,0.013523,0.002678,0.000431,0.020097
7349000,0.0324,0.013523,0.002678,0.000431,0.021508
7350000,0.0324,0.013523,0.002678,0.000431,0.020332
7351000,0.0324,0.013523,0.002678,0.000431,0.019392
7352000,0.0324,0.013523,0.002678,0.000431,0.021625
7353000,0.0324,0.013523,0.002678,0.000431,0.019862
7354000,0.0324,0.013523,0.002678,0.000431,0.020802
7355000,0.0324,0.013523,0.002678,0.000431,0.021155
7356000,0.0324,0.013523,0.002678,0.000431,0.021625
7357000,0.0324,0.013523,0.002678,0.000431,0.020920
7358000,0.0324,0.013523,0.002678,0.000431,0.021038
7359000,0.0324,0.013523,0.002678,0.000431,0.022800
7360000,0.0324,0.013523,0.002678,0.000431,0.020567
7361000,0.0324,0.013523,0.002678,0.000431,0.021390
7362000,0.0324,0.013523,0.002678,0.000431,0.020802
7363000,0.0324,0.013523,0.002678,0.000431,0.021273
7364000,0.0324,0.013523,0.002678,0.000431,0.022800
7365000,0.0324,0.013523,0.002678,0.000431,0.019627
7366000,0.0324,0.013523,0.002678,0.000431,0.021390
7367000,0.0324,0.013523,0.002678,0.000431,0.020685
7368000,0.0324,0.013523,0.002678,0.000431,0.022683
7369000,0.0324,0.013523,0.002678,0.000431,0.020567
7370000,0.0324,0.013523,0.002678,0.000431,0.021273
7371000,0.0324,0.013523,0.002678,0.000431,0.022918
7372000,0.0324,0.013523,0.002678,0.000431,0.020685
7373000,0.0324,0.013523,0.002678,0.000431,0.019980
7374000,0.0324,0.013523,0.002678,0.000431,0.022330
7375000,0.0324,0.013523,0.002678,0.000431,0.021508
7376000,0.0324,0.013523,0.002678,0.000431,0.021155
7377000,0.0324,0.013523,0.002678,0.000431,0.021743
7378000,0.0324,0.013523,0.002678,0.000431,0.018687
7379000,0.0324,0.013523,0.002678,0.000431,0.020685
7380000,0.0324,0.013523,0.002678,0.000431,0.021390
7381000,0.0324,0.013523,0.002678,0.000431,0.020685
7382000,0.0324,0.013523,0.002678,0.000431,0.019627
7383000,0.0324,0.013523,0.002678,0.000431,0.021978
7384000,0.0324,0.013523,0.002678,0.000431,0.020920
7385000,0.0324,0.013523,0.002678,0.000431,0.020920
7386000,0.0324,0.013523,0.002678,0.000431,0.020097
7387000,0.0324,0.013523,0.002678,0.000431,0.018569
7388000,0.0324,0.013523,0.002678,0.000431,0.020802
7389000,0.0324,0.013523,0.002678,0.000431,0.020802
7390000,0.0324,0.013523,0.002678,0.000431,0.021155
7391000,0.0324,0.013523,0.002678,0.000431,0.019862
7392000,0.0324,0.013523,0.002678,0.000431,0.019157
7393000,0.0324,0.013523,0.002678,0.000431,0.021860
7394000,0.0324,0.013523,0.002678,0.000431,0.020567
7395000,0.0324,0.013523,0.002678,0.000431,0.020685
7396000,0.0324,0.013523,0.002678,0.000431,0.021273
7397000,0.0324,0.013523,0.002678,0.000431,0.021978
7398000,0.0324,0.013523,0.002678,0.000431,0.020215
7399000,0.0324,0.013523,0.002678,0.000431,0.020097
7400000,0.0324,0.013523,0.002678,0.000431,0.020567
7401000,0.0324,0.013523,0.002678,0.000431,0.020567
7402000,0.0324,0.013523,0.002678,0.000431,0.019040
7403000,0.0324,0.013523,0.002678,0.000431,0.020097
7404000,0.0324,0.013523,0.002678,0.000431,0.020567
7405000,0.0324,0.013523,0.002678,0.000431,0.020450
7406000,0.0324,0.013523,0.002678,0.000431,0.019510
7407000,0.0324,0.013523,0.002678,0.000431,0.019392
7408000,0.0324,0.013523,0.002678,0.000431,0.018922
7409000,0.0324,0.013523,0.002678,0.000431,0.020215
7410000,0.0324,0.013523,0.002678,0.000431,0.019862
7411000,0.0324,0.013523,0.002678,0.000431,0.019392
7412000,0.0324,0.013523,0.002678,0.000431,0.019275
7413000,0.0324,0.013523,0.002678,0.000431,0.020332
7414000,0.0324,0.013523,0.002678,0.000431,0.020685
7415000,0.0324,0.013523,0.002678,0.000431,0.020097
7416000,0.0324,0.013523,0.002678,0.000431,0.021155
7417000,0.0324,0.013523,0.002678,0.000431,0.019980
7418000,0.0324,0.013523,0.002678,0.000431,0.020567
7419000,0.0324,0.013523,0.002678,0.000431,0.018687
7420000,0.0324,0.013523,0.002678,0.000431,0.021743
7421000,0.0324,0.013523,0.002678,0.000431,0.020567
7422000,0.0324,0.013523,0.002678,0.000431,0.019745
7423000,0.0324,0.013523,0.002678,0.000431,0.019862
7424000,0.0324,0.013523,0.002678,0.000431,0.018922
7425000,0.0324,0.013523,0.002678,0.000431,0.019745
7426000,0.0324,0.013523,0.002678,0.000431,0.021273
7427000,0.0324,0.013523,0.002678,0.000431,0.019510
7428000,0.0324,0.013523,0.002678,0.000431,0.018922
7429000,0.0324,0.013523,0.002678,0.000431,0.020920
7430000,0.0324,0.013523,0.002678,0.000431,0.019745
7431000,0.0324,0.013523,0.002678,0.000431,0.019980
7432000,0.0324,0.013523,0.002678,0.000431,0.020332
7433000,0.0324,0.013523,0.002678,0.000431,0.020920
7434000,0.0324,0.013523,0.002678,0.000431,0.019157
7435000,0.0324,0.013523,0.002678,0.000431,0.019627
7436000,0.0324,0.013523,0.002678,0.000431,0.019862
7437000,0.0324,0.013523,0.002678,0.000431,0.020685
7438000,0.0324,0.013523,0.002678,0.000431,0.018687
7439000,0.0324,0.013523,0.002678,0.000431,0.020097
7440000,0.0324,0.013523,0.002678,0.000431,0.017982
7441000,0.0324,0.013523,0.002678,0.000431,0.021155
7442000,0.0324,0.013523,0.002678,0.000431,0.020097
7443000,0.0324,0.013523,0.002678,0.000431,0.018922
7444000,0.0324,0.013523,0.002678,0.000431,0.020097
7445000,0.0324,0.013523,0.002678,0.000431,0.019980
7446000,0.0324,0.013523,0.002678,0.000431,0.019627
7447000,0.0324,0.013523,0.002678,0.000431,0.020332
7448000,0.0324,0.013523,0.002678,0.000431,0.018805
7449000,0.0324,0.013523,0.002678,0.000431,0.019392
7450000,0.0324,0.013523,0.002678,0.000431,0.020685
7451000,0.0324,0.013523,0.002678,0.000431,0.019980
7452000,0.0324,0.013523,0.002678,0.000431,0.018922
7453000,0.0324,0.013523,0.002678,0.000431,0.020802
7454000,0.0324,0.013523,0.002678,0.000431,0.019627
7455000,0.0324,0.013523,0.002678,0.000431,0.020685
7456000,0.0324,0.013523,0.002678,0.000431,0.021273
7457000,0.0324,0.013523,0.002678,0.000431,0.019862
7458000,0.0324,0.013523,0.002678,0.000431,0.019275
7459000,0.0324,0.013523,0.002678,0.000431,0.019980
7460000,0.0324,0.013523,0.002678,0.000431,0.019157
7461000,0.0324,0.013523,0.002678,0.000431,0.020332
7462000,0.0324,0.013523,0.002678,0.000431,0.022565
7463000,0.0324,0.013523,0.002678,0.000431,0.017864
7464000,0.0324,0.013523,0.002678,0.000431,0.019392
7465000,0.0324,0.013523,0.002678,0.000431,0.021625
7466000,0.0324,0.013523,0.002678,0.000431,0.020920
7467000,0.0324,0.013523,0.002678,0.000431,0.019392
7468000,0.0324,0.013523,0.002678,0.000431,0.019980
7469000,0.0324,0.013523,0.002678,0.000431,0.019862
7470000,0.0324,0.013523,0.002678,0.000431,0.019157
7471000,0.0324,0.013523,0.002678,0.000431,0.021860
7472000,0.0324,0.013523,0.002678,0.000431,0.019862
7473000,0.0324,0.013523,0.002678,0.000431,0.019745
7474000,0.0324,0.013523,0.002678,0.000431,0.020450
7475000,0.0324,0.013523,0.002678,0.000431,0.017629
7476000,0.0324,0.013523,0.002678,0.000431,0.021508
7477000,0.0324,0.013523,0.002678,0.000431,0.020332
7478000,0.0324,0.013523,0.002678,0.000431,0.019862
7479000,0.0324,0.013523,0.002678,0.000431,0.020215
7480000,0.0324,0.013523,0.002678,0.000431,0.019980
7481000,0.0324,0.013523,0.002678,0.000431,0.018569
7482000,0.0324,0.013523,0.002678,0.000431,0.020215
7483000,0.0324,0.013523,0.002678,0.000431,0.021390
7484000,0.0324,0.013523,0.002678,0.000431,0.020097
7485000,0.0324,0.013523,0.002678,0.000431,0.018922
7486000,0.0324,0.013523,0.002678,0.000431,0.020332
7487000,0.0324,0.013523,0.002678,0.000431,0.021390
7488000,0.0324,0.013523,0.002678,0.000431,0.018334
7489000,0.0324,0.013523,0.002678,0.000431,0.020450
7490000,0.0324,0.013523,0.002678,0.000431,0.020097
7491000,0.0324,0.013523,0.002678,0.000431,0.019157
7492000,0.0324,0.013523,0.002678,0.000431,0.020920
7493000,0.0324,0.013523,0.002678,0.000431,0.019157
7494000,0.0324,0.013523,0.002678,0.000431,0.019275
7495000,0.0324,0.013523,0.002678,0.000431,0.020215
7496000,0.0324,0.013523,0.002678,0.000431,0.020097
7497000,0.0324,0.013523,0.002678,0.000431,0.021038
7498000,0.0324,0.013523,0.002678,0.000431,0.020920
7499000,0.0324,0.013523,0.002678,0.000431,0.019392
7500000,0.0324,0.013523,0.002678,0.000431,0.019980
7501000,0.0324,0.013523,0.002678,0.000431,0.018334
7502000,0.0324,0.013523,0.002678,0.000431,0.022800
7503000,0.0324,0.013523,0.002678,0.000431,0.021625
7504000,0.0324,0.013523,0.002678,0.000431,0.020097
7505000,0.0324,0.013523,0.002678,0.000431,0.020332
7506000,0.0324,0.013523,0.002678,0.000431,0.019157
7507000,0.0324,0.013523,0.002678,0.000431,0.020097
7508000,0.0324,0.013523,0.002678,0.000431,0.020215
7509000,0.0324,0.013523,0.002678,0.000431,0.019392
7510000,0.0324,0.013523,0.002678,0.000431,0.021860
7511000,0.0324,0.013523,0.002678,0.000431,0.019862
7512000,0.0324,0.013523,0.002678,0.000431,0.019510
7513000,0.0324,0.013523,0.002678,0.000431,0.021625
7514000,0.0324,0.013523,0.002678,0.000431,0.019392
7515000,0.0324,0.013523,0.002678,0.000431,0.018922
7516000,0.0324,0.013523,0.002678,0.000431,0.019275
7517000,0.0324,0.013523,0.002678,0.000431,0.019980
7518000,0.0324,0.013523,0.002678,0.000431,0.019980
7519000,0.0324,0.013523,0.002678,0.000431,0.019980
7520000,0.0324,0.013523,0.002678,0.000431,0.020097
7521000,0.0324,0.013523,0.002678,0.000431,0.019157
7522000,0.0324,0.013523,0.002678,0.000431,0.019862
7523000,0.0324,0.013523,0.002678,0.000431,0.019275
7524000,0.0324,0.013523,0.002678,0.000431,0.020332
7525000,0.0324,0.013523,0.002678,0.000431,0.018805
7526000,0.0324,0.013523,0.002678,0.000431,0.019980
7527000,0.0324,0.013523,0.002678,0.000431,0.020450
7528000,0.0324,0.013523,0.002678,0.000431,0.021038
7529000,0.0324,0.013523,0.002678,0.000431,0.020332
7530000,0.0324,0.013523,0.002678,0.000431,0.019392
7531000,0.0324,0.013523,0.002678,0.000431,0.019510
7532000,0.0324,0.013523,0.002678,0.000431,0.020802
7533000,0.0324,0.013523,0.002678,0.000431,0.019510
7534000,0.0324,0.013523,0.002678,0.000431,0.020450
7535000,0.0324,0.013523,0.002678,0.000431,0.020215
7536000,0.0324,0.013523,0.002678,0.000431,0.019745
7537000,0.0324,0.013523,0.002678,0.000431,0.020685
7538000,0.0324,0.013523,0.002678,0.000431,0.020920
7539000,0.0324,0.013523,0.002678,0.000431,0.019980
7540000,0.0324,0.013523,0.002678,0.000431,0.018569
7541000,0.0324,0.013523,0.002678,0.000431,0.021390
7542000,0.0324,0.013523,0.002678,0.000431,0.019510
7543000,0.0324,0.013523,0.002678,0.000431,0.020450
7544000,0.0324,0.013523,0.002678,0.000431,0.020567
7545000,0.0324,0.013523,0.002678,0.000431,0.019862
7546000,0.0324,0.013523,0.002678,0.000431,0.019627
7547000,0.0324,0.013523,0.002678,0.000431,0.017864
7548000,0.0324,0.013523,0.002678,0.000431,0.020567
7549000,0.0324,0.013523,0.002678,0.000431,0.019275
7550000,0.0324,0.013523,0.002678,0.000431,0.019627
7551000,0.0324,0.013523,0.002678,0.000431,0.019862
7552000,0.0324,0.013523,0.002678,0.000431,0.018687
7553000,0.0324,0.013523,0.002678,0.000431,0.019040
7554000,0.0324,0.013523,0.002678,0.000431,0.019862
7555000,0.0324,0.013523,0.002678,0.000431,0.019040
7556000,0.0324,0.013523,0.002678,0.000431,0.016924
7557000,0.0324,0.013523,0.002678,0.000431,0.021155
7558000,0.0324,0.013523,0.002678,0.000431,0.019157
7559000,0.0324,0.013523,0.002678,0.000431,0.018334
7560000,0.0324,0.013523,0.002678,0.000431,0.021508
7561000,0.0324,0.013523,0.002678,0.000431,0.018922
7562000,0.0324,0.013523,0.002678,0.000431,0.019627
7563000,0.0324,0.013523,0.002678,0.000431,0.020450
7564000,0.0324,0.013523,0.002678,0.000431,0.019392
7565000,0.0324,0.013523,0.002678,0.000431,0.019627
7566000,0.0324,0.013523,0.002678,0.000431,0.018452
7567000,0.0324,0.013523,0.002678,0.000431,0.021273
7568000,0.0324,0.013523,0.002678,0.000431,0.019392
7569000,0.0324,0.013523,0.002678,0.000431,0.020332
7570000,0.0324,0.013523,0.002678,0.000431,0.021038
7571000,0.0324,0.013523,0.002678,0.000431,0.018687
7572000,0.0324,0.013523,0.002678,0.000431,0.019157
7573000,0.0324,0.013523,0.002678,0.000431,0.020215
7574000,0.0324,0.013523,0.002678,0.000431,0.021038
7575000,0.0324,0.013523,0.002678,0.000431,0.019862
7576000,0.0324,0.013523,0.002678,0.000431,0.019862
7577000,0.0324,0.013523,0.002678,0.000431,0.019980
7578000,0.0324,0.013523,0.002678,0.000431,0.019980
7579000,0.0324,0.013523,0.002678,0.000431,0.020685
7580000,0.0324,0.013523,0.002678,0.000431,0.019745
7581000,0.0324,0.013523,0.002678,0.000431,0.019627
7582000,0.0324,0.013523,0.002678,0.000431,0.017982
7583000,0.0324,0.013523,0.002678,0.000431,0.019510
7584000,0.0324,0.013523,0.002678,0.000431,0.021155
7585000,0.0324,0.013523,0.002678,0.000431,0.017864
7586000,0.0324,0.013523,0.002678,0.000431,0.018334
7587000,0.0324,0.013523,0.002678,0.000431,0.021155
7588000,0.0324,0.013523,0.002678,0.000431,0.019040
7589000,0.0324,0.013523,0.002678,0.000431,0.018922
7590000,0.0324,0.013523,0.002678,0.000431,0.019510
7591000,0.0324,0.013523,0.002678,0.000431,0.019510
7592000,0.0324,0.013523,0.002678,0.000431,0.018569
7593000,0.0324,0.013523,0.002678,0.000431,0.020450
7594000,0.0324,0.013523,0.002678,0.000431,0.021155
7595000,0.0324,0.013523,0.002678,0.000431,0.018569
7596000,0.0324,0.013523,0.002678,0.000431,0.020097
7597000,0.0324,0.013523,0.002678,0.000431,0.018452
7598000,0.0324,0.013523,0.002678,0.000431,0.020332
7599000,0.0324,0.013523,0.002678,0.000431,0.019157
7600000,0.0324,0.013523,0.002678,0.000431,0.021038
7601000,0.0324,0.013523,0.002678,0.000431,0.019392
7602000,0.0324,0.013523,0.002678,0.000431,0.019980
7603000,0.0324,0.013523,0.002678,0.000431,0.019862
7604000,0.0324,0.013523,0.002678,0.000431,0.019862
7605000,0.0324,0.013523,0.002678,0.000431,0.020097
7606000,0.0324,0.013523,0.002678,0.000431,0.019275
7607000,0.0324,0.013523,0.002678,0.000431,0.019040
7608000,0.0324,0.013523,0.002678,0.000431,0.018334
7609000,0.0324,0.013523,0.002678,0.000431,0.021390
7610000,0.0324,0.013523,0.002678,0.000431,0.017629
7611000,0.0324,0.013523,0.002678,0.000431,0.019157
7612000,0.0324,0.013523,0.002678,0.000431,0.019510
7613000,0.0324,0.013523,0.002678,0.000431,0.018569
7614000,0.0324,0.013523,0.002678,0.000431,0.018922
7615000,0.0324,0.013523,0.002678,0.000431,0.020567
7616000,0.0324,0.013523,0.002678,0.000431,0.018569
7617000,0.0324,0.013523,0.002678,0.000431,0.018805
7618000,0.0324,0.013523,0.002678,0.000431,0.018452
7619000,0.0324,0.013523,0.002678,0.000431,0.019510
7620000,0.0324,0.013523,0.002678,0.000431,0.020215
7621000,0.0324,0.013523,0.002678,0.000431,0.017512
7622000,0.0324,0.013523,0.002678,0.000431,0.018452
7623000,0.0324,0.013523,0.002678,0.000431,0.019275
7624000,0.0324,0.013523,0.002678,0.000431,0.018687
7625000,0.0324,0.013523,0.002678,0.000431,0.019157
7626000,0.0324,0.013523,0.002678,0.000431,0.019392
7627000,0.0324,0.013523,0.002678,0.000431,0.018099
7628000,0.0324,0.013523,0.002678,0.000431,0.018922
7629000,0.0324,0.013523,0.002678,0.000431,0.018217
7630000,0.0324,0.013523,0.002678,0.000431,0.019627
7631000,0.0324,0.013523,0.002678,0.000431,0.018099
7632000,0.0324,0.013523,0.002678,0.000431,0.020215
7633000,0.0324,0.013523,0.002678,0.000431,0.018099
7634000,0.0324,0.013523,0.002678,0.000431,0.019745
7635000,0.0324,0.013523,0.002678,0.000431,0.019392
7636000,0.0324,0.013523,0.002678,0.000431,0.019040
7637000,0.0324,0.013523,0.002678,0.000431,0.018217
7638000,0.0324,0.013523,0.002678,0.000431,0.018334
7639000,0.0324,0.013523,0.002678,0.000431,0.020450
7640000,0.0324,0.013523,0.002678,0.000431,0.019745
7641000,0.0324,0.013523,0.002678,0.000431,0.017512
7642000,0.0324,0.013523,0.002678,0.000431,0.020567
7643000,0.0324,0.013523,0.002678,0.000431,0.019157
7644000,0.0324,0.013523,0.002678,0.000431,0.018452
7645000,0.0324,0.013523,0.002678,0.000431,0.019157
7646000,0.0324,0.013523,0.002678,0.000431,0.019862
7647000,0.0324,0.013523,0.002678,0.000431,0.017747
7648000,0.0324,0.013523,0.002678,0.000431,0.019627
7649000,0.0324,0.013523,0.002678,0.000431,0.019980
7650000,0.0324,0.013523,0.002678,0.000431,0.019040
7651000,0.0324,0.013523,0.002678,0.000431,0.019745
7652000,0.0324,0.013523,0.002678,0.000431,0.019157
7653000,0.0324,0.013523,0.002678,0.000431,0.018452
7654000,0.0324,0.013523,0.002678,0.000431,0.019510
7655000,0.0324,0.013523,0.002678,0.000431,0.020332
7656000,0.0324,0.013523,0.002678,0.000431,0.018687
7657000,0.0324,0.013523,0.002678,0.000431,0.017864
7658000,0.0324,0.013523,0.002678,0.000431,0.018569
7659000,0.0324,0.013523,0.002678,0.000431,0.018922
7660000,0.0324,0.013523,0.002678,0.000431,0.019510
7661000,0.0324,0.013523,0.002678,0.000431,0.017277
7662000,0.0324,0.013523,0.002678,0.000431,0.020097
7663000,0.0324,0.013523,0.002678,0.000431,0.018334
7664000,0.0324,0.013523,0.002678,0.000431,0.017394
7665000,0.0324,0.013523,0.002678,0.000431,0.018805
7666000,0.0324,0.013523,0.002678,0.000431,0.021390
7667000,0.0324,0.013523,0.002678,0.000431,0.017042
7668000,0.0324,0.013523,0.002678,0.000431,0.017159
7669000,0.0324,0.013523,0.002678,0.000431,0.019040
7670000,0.0324,0.013523,0.002678,0.000431,0.021155
7671000,0.0324,0.013523,0.002678,0.000431,0.018805
7672000,0.0324,0.013523,0.002678,0.000431,0.019157
7673000,0.0324,0.013523,0.002678,0.000431,0.017864
7674000,0.0324,0.013523,0.002678,0.000431,0.018334
7675000,0.0324,0.013523,0.002678,0.000431,0.020567
7676000,0.0324,0.013523,0.002678,0.000431,0.018569
7677000,0.0324,0.013523,0.002678,0.000431,0.017042
7678000,0.0324,0.013523,0.002678,0.000431,0.018805
7679000,0.0324,0.013523,0.002678,0.000431,0.019745
7680000,0.0324,0.013523,0.002678,0.000431,0.019040
7681000,0.0324,0.013523,0.002678,0.000431,0.018805
7682000,0.0324,0.013523,0.002678,0.000431,0.019862
7683000,0.0324,0.013523,0.002678,0.000431,0.018452
7684000,0.0324,0.013523,0.002678,0.000431,0.018805
7685000,0.0324,0.013523,0.002678,0.000431,0.019745
7686000,0.0324,0.013523,0.002678,0.000431,0.019627
7687000,0.0324,0.013523,0.002678,0.000431,0.019040
7688000,0.0324,0.013523,0.002678,0.000431,0.019392
7689000,0.0324,0.013523,0.002678,0.000431,0.018334
7690000,0.0324,0.013523,0.002678,0.000431,0.018452
7691000,0.0324,0.013523,0.002678,0.000431,0.019862
7692000,0.0324,0.013523,0.002678,0.000431,0.017982
7693000,0.0324,0.013523,0.002678,0.000431,0.019510
7694000,0.0324,0.013523,0.002678,0.000431,0.017747
7695000,0.0324,0.013523,0.002678,0.000431,0.019275
7696000,0.0324,0.013523,0.002678,0.000431,0.018687
7697000,0.0324,0.013523,0.002678,0.000431,0.018569
7698000,0.0324,0.013523,0.002678,0.000431,0.019275
7699000,0.0324,0.013523,0.002678,0.000431,0.019392
7700000,0.0324,0.013523,0.002678,0.000431,0.019157
7701000,0.0324,0.013523,0.002678,0.000431,0.018805
7702000,0.0324,0.013523,0.002678,0.000431,0.018452
7703000,0.0324,0.013523,0.002678,0.000431,0.019510
7704000,0.0324,0.013523,0.002678,0.000431,0.019745
7705000,0.0324,0.013523,0.002678,0.000431,0.017629
7706000,0.0324,0.013523,0.002678,0.000431,0.018099
7707000,0.0324,0.013523,0.002678,0.000431,0.018334
7708000,0.0324,0.013523,0.002678,0.000431,0.018569
7709000,0.0324,0.013523,0.002678,0.000431,0.017747
7710000,0.0324,0.013523,0.002678,0.000431,0.019980
7711000,0.0324,0.013523,0.002678,0.000431,0.018569
7712000,0.0324,0.013523,0.002678,0.000431,0.018805
7713000,0.0324,0.013523,0.002678,0.000431,0.019980
7714000,0.0324,0.013523,0.002678,0.000431,0.017864
7715000,0.0324,0.013523,0.002678,0.000431,0.017982
7716000,0.0324,0.013523,0.002678,0.000431,0.019510
7717000,0.0324,0.013523,0.002678,0.000431,0.017629
7718000,0.0324,0.013523,0.002678,0.000431,0.017042
7719000,0.0324,0.013523,0.002678,0.000431,0.019862
7720000,0.0324,0.013523,0.002678,0.000431,0.018687
7721000,0.0324,0.013523,0.002678,0.000431,0.017042
7722000,0.0324,0.013523,0.002678,0.000431,0.018569
7723000,0.0324,0.013523,0.002678,0.000431,0.018805
7724000,0.0324,0.013523,0.002678,0.000431,0.017394
7725000,0.0324,0.013523,0.002678,0.000431,0.018099
7726000,0.0324,0.013523,0.002678,0.000431,0.018569
7727000,0.0324,0.013523,0.002678,0.000431,0.018805
7728000,0.0324,0.013523,0.002678,0.000431,0.017394
7729000,0.0324,0.013523,0.002678,0.000431,0.019040
7730000,0.0324,0.013523,0.002678,0.000431,0.018922
7731000,0.0324,0.013523,0.002678,0.000431,0.016807
7732000,0.0324,0.013523,0.002678,0.000431,0.020215
7733000,0.0324,0.013523,0.002678,0.000431,0.016101
7734000,0.0324,0.013523,0.002678,0.000431,0.017864
7735000,0.0324,0.013523,0.002678,0.000431,0.016689
7736000,0.0324,0.013523,0.002678,0.000431,0.018452
7737000,0.0324,0.013523,0.002678,0.000431,0.018334
7738000,0.0324,0.013523,0.002678,0.000431,0.019745
7739000,0.0324,0.013523,0.002678,0.000431,0.018569
7740000,0.0324,0.013523,0.002678,0.000431,0.017277
7741000,0.0324,0.013523,0.002678,0.000431,0.019275
7742000,0.0324,0.013523,0.002678,0.000431,0.017512
7743000,0.0324,0.013523,0.002678,0.000431,0.019157
7744000,0.0324,0.013523,0.002678,0.000431,0.019275
7745000,0.0324,0.013523,0.002678,0.000431,0.017747
7746000,0.0324,0.013523,0.002678,0.000431,0.018687
7747000,0.0324,0.013523,0.002678,0.000431,0.018687
7748000,0.0324,0.013523,0.002678,0.000431,0.018334
7749000,0.0324,0.013523,0.002678,0.000431,0.018217
7750000,0.0324,0.013523,0.002678,0.000431,0.018217
7751000,0.0324,0.013523,0.002678,0.000431,0.019040
7752000,0.0324,0.013523,0.002678,0.000431,0.018805
7753000,0.0324,0.013523,0.002678,0.000431,0.017512
7754000,0.0324,0.013523,0.002678,0.000431,0.017982
7755000,0.0324,0.013523,0.002678,0.000431,0.017629
7756000,0.0324,0.013523,0.002678,0.000431,0.016454
7757000,0.0324,0.013523,0.002678,0.000431,0.021038
7758000,0.0324,0.013523,0.002678,0.000431,0.016807
7759000,0.0324,0.013523,0.002678,0.000431,0.018217
7760000,0.0324,0.013523,0.002678,0.000431,0.020097
7761000,0.0324,0.013523,0.002678,0.000431,0.018334
7762000,0.0324,0.013523,0.002678,0.000431,0.019157
7763000,0.0324,0.013523,0.002678,0.000431,0.018687
7764000,0.0324,0.013523,0.002678,0.000431,0.019627
7765000,0.0324,0.013523,0.002678,0.000431,0.018099
7766000,0.0324,0.013523,0.002678,0.000431,0.018099
7767000,0.0324,0.013523,0.002678,0.000431,0.018569
7768000,0.0324,0.013523,0.002678,0.000431,0.018805
7769000,0.0324,0.013523,0.002678,0.000431,0.017512
7770000,0.0324,0.013523,0.002678,0.000431,0.018099
7771000,0.0324,0.013523,0.002678,0.000431,0.019157
7772000,0.0324,0.013523,0.002678,0.000431,0.017629
7773000,0.0324,0.013523,0.002678,0.000431,0.019157
7774000,0.0324,0.013523,0.002678,0.000431,0.018452
7775000,0.0324,0.013523,0.002678,0.000431,0.017629
7776000,0.0324,0.013523,0.002678,0.000431,0.018334
7777000,0.0324,0.013523,0.002678,0.000431,0.017629
7778000,0.0324,0.013523,0.002678,0.000431,0.018805
7779000,0.0324,0.013523,0.002678,0.000431,0.018687
7780000,0.0324,0.013523,0.002678,0.000431,0.018569
7781000,0.0324,0.013523,0.002678,0.000431,0.017159
7782000,0.0324,0.013523,0.002678,0.000431,0.018569
7783000,0.0324,0.013523,0.002678,0.000431,0.017159
7784000,0.0324,0.013523,0.002678,0.000431,0.019392
7785000,0.0324,0.013523,0.002678,0.000431,0.019275
7786000,0.0324,0.013523,0.002678,0.000431,0.019157
7787000,0.0324,0.013523,0.002678,0.000431,0.018099
7788000,0.0324,0.013523,0.002678,0.000431,0.019627
7789000,0.0324,0.013523,0.002678,0.000431,0.015749
7790000,0.0324,0.013523,0.002678,0.000431,0.018687
7791000,0.0324,0.013523,0.002678,0.000431,0.018099
7792000,0.0324,0.013523,0.002678,0.000431,0.019510
7793000,0.0324,0.013523,0.002678,0.000431,0.018922
7794000,0.0324,0.013523,0.002678,0.000431,0.018569
7795000,0.0324,0.013523,0.002678,0.000431,0.019510
7796000,0.0324,0.013523,0.002678,0.000431,0.015866
7797000,0.0324,0.013523,0.002678,0.000431,0.019510
7798000,0.0324,0.013523,0.002678,0.000431,0.019040
7799000,0.0324,0.013523,0.002678,0.000431,0.017042
7800000,0.0324,0.013523,0.002678,0.000431,0.016924
7801000,0.0324,0.013523,0.002678,0.000431,0.018687
7802000,0.0324,0.013523,0.002678,0.000431,0.019157
7803000,0.0324,0.013523,0.002678,0.000431,0.018805
7804000,0.0324,0.013523,0.002678,0.000431,0.018687
7805000,0.0324,0.013523,0.002678,0.000431,0.018687
7806000,0.0324,0.013523,0.002678,0.000431,0.016924
7807000,0.0324,0.013523,0.002678,0.000431,0.017512
7808000,0.0324,0.013523,0.002678,0.000431,0.018452
7809000,0.0324,0.013523,0.002678,0.000431,0.016924
7810000,0.0324,0.013523,0.002678,0.000431,0.016571
7811000,0.0324,0.013523,0.002678,0.000431,0.017629
7812000,0.0324,0.013523,0.002678,0.000431,0.018569
7813000,0.0324,0.013523,0.002678,0.000431,0.017394
7814000,0.0324,0.013523,0.002678,0.000431,0.017629
7815000,0.0324,0.013523,0.002678,0.000431,0.017042
7816000,0.0324,0.013523,0.002678,0.000431,0.018805
7817000,0.0324,0.013523,0.002678,0.000431,0.016807
7818000,0.0324,0.013523,0.002678,0.000431,0.019862
7819000,0.0324,0.013523,0.002678,0.000431,0.016689
7820000,0.0324,0.013523,0.002678,0.000431,0.017629
7821000,0.0324,0.013523,0.002678,0.000431,0.018805
7822000,0.0324,0.013523,0.002678,0.000431,0.018687
7823000,0.0324,0.013523,0.002678,0.000431,0.016924
7824000,0.0324,0.013523,0.002678,0.000431,0.017394
7825000,0.0324,0.013523,0.002678,0.000431,0.019275
7826000,0.0324,0.013523,0.002678,0.000431,0.016571
7827000,0.0324,0.013523,0.002678,0.000431,0.016924
7828000,0.0324,0.013523,0.002678,0.000431,0.019510
7829000,0.0324,0.013523,0.002678,0.000431,0.017982
7830000,0.0324,0.013523,0.002678,0.000431,0.016571
7831000,0.0324,0.013523,0.002678,0.000431,0.018099
7832000,0.0324,0.013523,0.002678,0.000431,0.018452
7833000,0.0324,0.013523,0.002678,0.000431,0.017159
7834000,0.0324,0.013523,0.002678,0.000431,0.018217
7835000,0.0324,0.013523,0.002678,0.000431,0.016454
7836000,0.0324,0.013523,0.002678,0.000431,0.016454
7837000,0.0324,0.013523,0.002678,0.000431,0.018805
7838000,0.0324,0.013523,0.002678,0.000431,0.018334
7839000,0.0324,0.013523,0.002678,0.000431,0.017982
7840000,0.0324,0.013523,0.002678,0.000431,0.017629
7841000,0.0324,0.013523,0.002678,0.000431,0.017864
7842000,0.0324,0.013523,0.002678,0.000431,0.018217
7843000,0.0324,0.013523,0.002678,0.000431,0.018569
7844000,0.0324,0.013523,0.002678,0.000431,0.017629
7845000,0.0324,0.013523,0.002678,0.000431,0.017159
7846000,0.0324,0.013523,0.002678,0.000431,0.016807
7847000,0.0324,0.013523,0.002678,0.000431,0.017747
7848000,0.0324,0.013523,0.002678,0.000431,0.017747
7849000,0.0324,0.013523,0.002678,0.000431,0.020097
7850000,0.0324,0.013523,0.002678,0.000431,0.017277
7851000,0.0324,0.013523,0.002678,0.000431,0.017394
7852000,0.0324,0.013523,0.002678,0.000431,0.017982
7853000,0.0324,0.013523,0.002678,0.000431,0.018217
7854000,0.0324,0.013523,0.002678,0.000431,0.018452
7855000,0.0324,0.013523,0.002678,0.000431,0.018452
7856000,0.0324,0.013523,0.002678,0.000431,0.017512
7857000,0.0324,0.013523,0.002678,0.000431,0.016101
7858000,0.0324,0.013523,0.002678,0.000431,0.020332
7859000,0.0324,0.013523,0.002678,0.000431,0.018569
7860000,0.0324,0.013523,0.002678,0.000431,0.017042
7861000,0.0324,0.013523,0.002678,0.000431,0.019627
7862000,0.0324,0.013523,0.002678,0.000431,0.015984
7863000,0.0324,0.013523,0.002678,0.000431,0.017747
7864000,0.0324,0.013523,0.002678,0.000431,0.016219
7865000,0.0324,0.013523,0.002678,0.000431,0.018922
7866000,0.0324,0.013523,0.002678,0.000431,0.017394
7867000,0.0324,0.013523,0.002678,0.000431,0.016924
7868000,0.0324,0.013523,0.002678,0.000431,0.018805
7869000,0.0324,0.013523,0.002678,0.000431,0.018687
7870000,0.0324,0.013523,0.002678,0.000431,0.016571
7871000,0.0324,0.013523,0.002678,0.000431,0.017277
7872000,0.0324,0.013523,0.002678,0.000431,0.017747
7873000,0.0324,0.013523,0.002678,0.000431,0.017512
7874000,0.0324,0.013523,0.002678,0.000431,0.018687
7875000,0.0324,0.013523,0.002678,0.000431,0.018334
7876000,0.0324,0.013523,0.002678,0.000431,0.015984
7877000,0.0324,0.013523,0.002678,0.000431,0.017982
7878000,0.0324,0.013523,0.002678,0.000431,0.016454
7879000,0.0324,0.013523,0.002678,0.000431,0.018687
7880000,0.0324,0.013523,0.002678,0.000431,0.016454
7881000,0.0324,0.013523,0.002678,0.000431,0.016924
7882000,0.0324,0.013523,0.002678,0.000431,0.017277
7883000,0.0324,0.013523,0.002678,0.000431,0.018217
7884000,0.0324,0.013523,0.002678,0.000431,0.018805
7885000,0.0324,0.013523,0.002678,0.000431,0.017394
7886000,0.0324,0.013523,0.002678,0.000431,0.017277
7887000,0.0324,0.013523,0.002678,0.000431,0.018217
7888000,0.0324,0.013523,0.002678,0.000431,0.017629
7889000,0.0324,0.013523,0.002678,0.000431,0.019745
7890000,0.0324,0.013523,0.002678,0.000431,0.017629
7891000,0.0324,0.013523,0.002678,0.000431,0.017864
7892000,0.0324,0.013523,0.002678,0.000431,0.017864
7893000,0.0324,0.013523,0.002678,0.000431,0.017512
7894000,0.0324,0.013523,0.002678,0.000431,0.018805
7895000,0.0324,0.013523,0.002678,0.000431,0.018217
7896000,0.0324,0.013523,0.002678,0.000431,0.018569
7897000,0.0324,0.013523,0.002678,0.000431,0.016924
7898000,0.0324,0.013523,0.002678,0.000431,0.018569
7899000,0.0324,0.013523,0.002678,0.000431,0.017394
7900000,0.0324,0.013523,0.002678,0.000431,0.020097
7901000,0.0324,0.013523,0.002678,0.000431,0.016336
7902000,0.0324,0.013523,0.002678,0.000431,0.016924
7903000,0.0324,0.013523,0.002678,0.000431,0.017747
7904000,0.0324,0.013523,0.002678,0.000431,0.017747
7905000,0.0324,0.013523,0.002678,0.000431,0.018099
7906000,0.0324,0.013523,0.002678,0.000431,0.018569
7907000,0.0324,0.013523,0.002678,0.000431,0.017159
7908000,0.0324,0.013523,0.002678,0.000431,0.016689
7909000,0.0324,0.013523,0.002678,0.000431,0.017747
7910000,0.0324,0.013523,0.002678,0.000431,0.018687
7911000,0.0324,0.013523,0.002678,0.000431,0.016689
7912000,0.0324,0.013523,0.002678,0.000431,0.017864
7913000,0.0324,0.013523,0.002678,0.000431,0.018569
7914000,0.0324,0.013523,0.002678,0.000431,0.017277
7915000,0.0324,0.013523,0.002678,0.000431,0.019980
7916000,0.0324,0.013523,0.002678,0.000431,0.017512
7917000,0.0324,0.013523,0.002678,0.000431,0.018687
7918000,0.0324,0.013523,0.002678,0.000431,0.017159
7919000,0.0324,0.013523,0.002678,0.000431,0.017747
7920000,0.0324,0.013523,0.002678,0.000431,0.018687
7921000,0.0324,0.013523,0.002678,0.000431,0.017629
7922000,0.0324,0.013523,0.002678,0.000431,0.018452
7923000,0.0324,0.013523,0.002678,0.000431,0.017629
7924000,0.0324,0.013523,0.002678,0.000431,0.017982
7925000,0.0324,0.013523,0.002678,0.000431,0.017747
7926000,0.0324,0.013523,0.002678,0.000431,0.017864
7927000,0.0324,0.013523,0.002678,0.000431,0.017629
7928000,0.0324,0.013523,0.002678,0.000431,0.019275
7929000,0.0324,0.013523,0.002678,0.000431,0.018099
7930000,0.0324,0.013523,0.002678,0.000431,0.019392
7931000,0.0324,0.013523,0.002678,0.000431,0.018805
7932000,0.0324,0.013523,0.002678,0.000431,0.017629
7933000,0.0324,0.013523,0.002678,0.000431,0.018452
7934000,0.0324,0.013523,0.002678,0.000431,0.016689
7935000,0.0324,0.013523,0.002678,0.000431,0.017982
7936000,0.0324,0.013523,0.002678,0.000431,0.019275
7937000,0.0324,0.013523,0.002678,0.000431,0.017394
7938000,0.0324,0.013523,0.002678,0.000431,0.016336
7939000,0.0324,0.013523,0.002678,0.000431,0.018334
7940000,0.0324,0.013523,0.002678,0.000431,0.017864
7941000,0.0324,0.013523,0.002678,0.000431,0.018099
7942000,0.0324,0.013523,0.002678,0.000431,0.017747
7943000,0.0324,0.013523,0.002678,0.000431,0.017747
7944000,0.0324,0.013523,0.002678,0.000431,0.016454
7945000,0.0324,0.013523,0.002678,0.000431,0.019862
7946000,0.0324,0.013523,0.002678,0.000431,0.017747
7947000,0.0324,0.013523,0.002678,0.000431,0.018099
7948000,0.0324,0.013523,0.002678,0.000431,0.017512
7949000,0.0324,0.013523,0.002678,0.000431,0.018687
7950000,0.0324,0.013523,0.002678,0.000431,0.019745
7951000,0.0324,0.013523,0.002678,0.000431,0.018452
7952000,0.0324,0.013523,0.002678,0.000431,0.017629
7953000,0.0324,0.013523,0.002678,0.000431,0.019627
7954000,0.0324,0.013523,0.002678,0.000431,0.018099
7955000,0.0324,0.013523,0.002678,0.000431,0.016807
7956000,0.0324,0.013523,0.002678,0.000431,0.018805
7957000,0.0324,0.013523,0.002678,0.000431,0.018099
7958000,0.0324,0.013523,0.002678,0.000431,0.015631
7959000,0.0324,0.013523,0.002678,0.000431,0.017277
7960000,0.0324,0.013523,0.002678,0.000431,0.018452
7961000,0.0324,0.013523,0.002678,0.000431,0.016924
7962000,0.0324,0.013523,0.002678,0.000431,0.017747
7963000,0.0324,0.013523,0.002678,0.000431,0.017394
7964000,0.0324,0.013523,0.002678,0.000431,0.016807
7965000,0.0324,0.013523,0.002678,0.000431,0.016454
7966000,0.0324,0.013523,0.002678,0.000431,0.017864
7967000,0.0324,0.013523,0.002678,0.000431,0.016924
7968000,0.0324,0.013523,0.002678,0.000431,0.017512
7969000,0.0324,0.013523,0.002678,0.000431,0.016807
7970000,0.0324,0.013523,0.002678,0.000431,0.018334
7971000,0.0324,0.013523,0.002678,0.000431,0.017629
7972000,0.0324,0.013523,0.002678,0.000431,0.017864
7973000,0.0324,0.013523,0.002678,0.000431,0.016689
7974000,0.0324,0.013523,0.002678,0.000431,0.017982
7975000,0.0324,0.013523,0.002678,0.000431,0.016924
7976000,0.0324,0.013523,0.002678,0.000431,0.017277
7977000,0.0324,0.013523,0.002678,0.000431,0.018099
7978000,0.0324,0.013523,0.002678,0.000431,0.017159
7979000,0.0324,0.013523,0.002678,0.000431,0.016454
7980000,0.0324,0.013523,0.002678,0.000431,0.017747
7981000,0.0324,0.013523,0.002678,0.000431,0.017159
7982000,0.0324,0.013523,0.002678,0.000431,0.014809
7983000,0.0324,0.013523,0.002678,0.000431,0.019627
7984000,0.0324,0.013523,0.002678,0.000431,0.018334
7985000,0.0324,0.013523,0.002678,0.000431,0.016336
7986000,0.0324,0.013523,0.002678,0.000431,0.020450
7987000,0.0324,0.013523,0.002678,0.000431,0.016336
7988000,0.0324,0.013523,0.002678,0.000431,0.017394
7989000,0.0324,0.013523,0.002678,0.000431,0.017277
7990000,0.0324,0.013523,0.002678,0.000431,0.016807
7991000,0.0324,0.013523,0.002678,0.000431,0.018217
7992000,0.0324,0.013523,0.002678,0.000431,0.016219
7993000,0.0324,0.013523,0.002678,0.000431,0.017394
7994000,0.0324,0.013523,0.002678,0.000431,0.016101
7995000,0.0324,0.013523,0.002678,0.000431,0.017629
7996000,0.0324,0.013523,0.002678,0.000431,0.018334
7997000,0.0324,0.013523,0.002678,0.000431,0.017277
7998000,0.0324,0.013523,0.002678,0.000431,0.015631
7999000,0.0324,0.013523,0.002678,0.000431,0.017629
