Cycle,Area(mm^2),PeakDynamic(W),SubthresholdLeakage(W),GateLeakage(W),RunTimeDynamic(W)
8000000,0.0324,0.013523,0.002678,0.000431,0.016689
8001000,0.0324,0.013523,0.002678,0.000431,0.018334
8002000,0.0324,0.013523,0.002678,0.000431,0.016336
8003000,0.0324,0.013523,0.002678,0.000431,0.015396
8004000,0.0324,0.013523,0.002678,0.000431,0.016571
8005000,0.0324,0.013523,0.002678,0.000431,0.018452
8006000,0.0324,0.013523,0.002678,0.000431,0.019157
8007000,0.0324,0.013523,0.002678,0.000431,0.017747
8008000,0.0324,0.013523,0.002678,0.000431,0.016807
8009000,0.0324,0.013523,0.002678,0.000431,0.016924
8010000,0.0324,0.013523,0.002678,0.000431,0.015631
8011000,0.0324,0.013523,0.002678,0.000431,0.017982
8012000,0.0324,0.013523,0.002678,0.000431,0.018334
8013000,0.0324,0.013523,0.002678,0.000431,0.016689
8014000,0.0324,0.013523,0.002678,0.000431,0.018217
8015000,0.0324,0.013523,0.002678,0.000431,0.017394
8016000,0.0324,0.013523,0.002678,0.000431,0.017042
8017000,0.0324,0.013523,0.002678,0.000431,0.018569
8018000,0.0324,0.013523,0.002678,0.000431,0.016454
8019000,0.0324,0.013523,0.002678,0.000431,0.017394
8020000,0.0324,0.013523,0.002678,0.000431,0.015984
8021000,0.0324,0.013523,0.002678,0.000431,0.018334
8022000,0.0324,0.013523,0.002678,0.000431,0.015749
8023000,0.0324,0.013523,0.002678,0.000431,0.018687
8024000,0.0324,0.013523,0.002678,0.000431,0.017042
8025000,0.0324,0.013523,0.002678,0.000431,0.018452
8026000,0.0324,0.013523,0.002678,0.000431,0.018099
8027000,0.0324,0.013523,0.002678,0.000431,0.017277
8028000,0.0324,0.013523,0.002678,0.000431,0.016219
8029000,0.0324,0.013523,0.002678,0.000431,0.018099
8030000,0.0324,0.013523,0.002678,0.000431,0.015631
8031000,0.0324,0.013523,0.002678,0.000431,0.017277
8032000,0.0324,0.013523,0.002678,0.000431,0.018687
8033000,0.0324,0.013523,0.002678,0.000431,0.016336
8034000,0.0324,0.013523,0.002678,0.000431,0.017042
8035000,0.0324,0.013523,0.002678,0.000431,0.018099
8036000,0.0324,0.013523,0.002678,0.000431,0.016689
8037000,0.0324,0.013523,0.002678,0.000431,0.017864
8038000,0.0324,0.013523,0.002678,0.000431,0.015866
8039000,0.0324,0.013523,0.002678,0.000431,0.015984
8040000,0.0324,0.013523,0.002678,0.000431,0.017982
8041000,0.0324,0.013523,0.002678,0.000431,0.015984
8042000,0.0324,0.013523,0.002678,0.000431,0.016924
8043000,0.0324,0.013523,0.002678,0.000431,0.017042
8044000,0.0324,0.013523,0.002678,0.000431,0.016454
8045000,0.0324,0.013523,0.002678,0.000431,0.018099
8046000,0.0324,0.013523,0.002678,0.000431,0.015396
8047000,0.0324,0.013523,0.002678,0.000431,0.018569
8048000,0.0324,0.013523,0.002678,0.000431,0.016454
8049000,0.0324,0.013523,0.002678,0.000431,0.016336
8050000,0.0324,0.013523,0.002678,0.000431,0.016807
8051000,0.0324,0.013523,0.002678,0.000431,0.016924
8052000,0.0324,0.013523,0.002678,0.000431,0.017512
8053000,0.0324,0.013523,0.002678,0.000431,0.016924
8054000,0.0324,0.013523,0.002678,0.000431,0.017159
8055000,0.0324,0.013523,0.002678,0.000431,0.016924
8056000,0.0324,0.013523,0.002678,0.000431,0.017512
8057000,0.0324,0.013523,0.002678,0.000431,0.016571
8058000,0.0324,0.013523,0.002678,0.000431,0.017747
8059000,0.0324,0.013523,0.002678,0.000431,0.016807
8060000,0.0324,0.013523,0.002678,0.000431,0.017629
8061000,0.0324,0.013523,0.002678,0.000431,0.017042
8062000,0.0324,0.013523,0.002678,0.000431,0.017042
8063000,0.0324,0.013523,0.002678,0.000431,0.017394
8064000,0.0324,0.013523,0.002678,0.000431,0.017864
8065000,0.0324,0.013523,0.002678,0.000431,0.015631
8066000,0.0324,0.013523,0.002678,0.000431,0.016336
8067000,0.0324,0.013523,0.002678,0.000431,0.017629
8068000,0.0324,0.013523,0.002678,0.000431,0.017747
8069000,0.0324,0.013523,0.002678,0.000431,0.017394
8070000,0.0324,0.013523,0.002678,0.000431,0.015866
8071000,0.0324,0.013523,0.002678,0.000431,0.016924
8072000,0.0324,0.013523,0.002678,0.000431,0.015984
8073000,0.0324,0.013523,0.002678,0.000431,0.016924
8074000,0.0324,0.013523,0.002678,0.000431,0.018569
8075000,0.0324,0.013523,0.002678,0.000431,0.017394
8076000,0.0324,0.013523,0.002678,0.000431,0.016571
8077000,0.0324,0.013523,0.002678,0.000431,0.016924
8078000,0.0324,0.013523,0.002678,0.000431,0.017042
8079000,0.0324,0.013523,0.002678,0.000431,0.016689
8080000,0.0324,0.013523,0.002678,0.000431,0.017159
8081000,0.0324,0.013523,0.002678,0.000431,0.018687
8082000,0.0324,0.013523,0.002678,0.000431,0.016807
8083000,0.0324,0.013523,0.002678,0.000431,0.016454
8084000,0.0324,0.013523,0.002678,0.000431,0.018452
8085000,0.0324,0.013523,0.002678,0.000431,0.017159
8086000,0.0324,0.013523,0.002678,0.000431,0.016807
8087000,0.0324,0.013523,0.002678,0.000431,0.018334
8088000,0.0324,0.013523,0.002678,0.000431,0.017982
8089000,0.0324,0.013523,0.002678,0.000431,0.017629
8090000,0.0324,0.013523,0.002678,0.000431,0.016807
8091000,0.0324,0.013523,0.002678,0.000431,0.016336
8092000,0.0324,0.013523,0.002678,0.000431,0.016689
8093000,0.0324,0.013523,0.002678,0.000431,0.017394
8094000,0.0324,0.013523,0.002678,0.000431,0.017982
8095000,0.0324,0.013523,0.002678,0.000431,0.017747
8096000,0.0324,0.013523,0.002678,0.000431,0.016219
8097000,0.0324,0.013523,0.002678,0.000431,0.016807
8098000,0.0324,0.013523,0.002678,0.000431,0.016807
8099000,0.0324,0.013523,0.002678,0.000431,0.017982
8100000,0.0324,0.013523,0.002678,0.000431,0.017864
8101000,0.0324,0.013523,0.002678,0.000431,0.016924
8102000,0.0324,0.013523,0.002678,0.000431,0.018805
8103000,0.0324,0.013523,0.002678,0.000431,0.017042
8104000,0.0324,0.013523,0.002678,0.000431,0.017042
8105000,0.0324,0.013523,0.002678,0.000431,0.015631
8106000,0.0324,0.013523,0.002678,0.000431,0.016101
8107000,0.0324,0.013523,0.002678,0.000431,0.016571
8108000,0.0324,0.013523,0.002678,0.000431,0.016924
8109000,0.0324,0.013523,0.002678,0.000431,0.017394
8110000,0.0324,0.013523,0.002678,0.000431,0.015866
8111000,0.0324,0.013523,0.002678,0.000431,0.016924
8112000,0.0324,0.013523,0.002678,0.000431,0.016101
8113000,0.0324,0.013523,0.002678,0.000431,0.015631
8114000,0.0324,0.013523,0.002678,0.000431,0.015749
8115000,0.0324,0.013523,0.002678,0.000431,0.016924
8116000,0.0324,0.013523,0.002678,0.000431,0.016336
8117000,0.0324,0.013523,0.002678,0.000431,0.014809
8118000,0.0324,0.013523,0.002678,0.000431,0.017042
8119000,0.0324,0.013523,0.002678,0.000431,0.017277
8120000,0.0324,0.013523,0.002678,0.000431,0.016924
8121000,0.0324,0.013523,0.002678,0.000431,0.016689
8122000,0.0324,0.013523,0.002678,0.000431,0.015866
8123000,0.0324,0.013523,0.002678,0.000431,0.016571
8124000,0.0324,0.013523,0.002678,0.000431,0.017747
8125000,0.0324,0.013523,0.002678,0.000431,0.017042
8126000,0.0324,0.013523,0.002678,0.000431,0.017629
8127000,0.0324,0.013523,0.002678,0.000431,0.014809
8128000,0.0324,0.013523,0.002678,0.000431,0.017864
8129000,0.0324,0.013523,0.002678,0.000431,0.017394
8130000,0.0324,0.013523,0.002678,0.000431,0.016689
8131000,0.0324,0.013523,0.002678,0.000431,0.016924
8132000,0.0324,0.013523,0.002678,0.000431,0.015984
8133000,0.0324,0.013523,0.002678,0.000431,0.015984
8134000,0.0324,0.013523,0.002678,0.000431,0.017982
8135000,0.0324,0.013523,0.002678,0.000431,0.017747
8136000,0.0324,0.013523,0.002678,0.000431,0.016807
8137000,0.0324,0.013523,0.002678,0.000431,0.017042
8138000,0.0324,0.013523,0.002678,0.000431,0.017394
8139000,0.0324,0.013523,0.002678,0.000431,0.016336
8140000,0.0324,0.013523,0.002678,0.000431,0.018334
8141000,0.0324,0.013523,0.002678,0.000431,0.015631
8142000,0.0324,0.013523,0.002678,0.000431,0.016454
8143000,0.0324,0.013523,0.002678,0.000431,0.017982
8144000,0.0324,0.013523,0.002678,0.000431,0.017982
8145000,0.0324,0.013523,0.002678,0.000431,0.017277
8146000,0.0324,0.013523,0.002678,0.000431,0.015396
8147000,0.0324,0.013523,0.002678,0.000431,0.018334
8148000,0.0324,0.013523,0.002678,0.000431,0.015866
8149000,0.0324,0.013523,0.002678,0.000431,0.015866
8150000,0.0324,0.013523,0.002678,0.000431,0.016689
8151000,0.0324,0.013523,0.002678,0.000431,0.017277
8152000,0.0324,0.013523,0.002678,0.000431,0.014221
8153000,0.0324,0.013523,0.002678,0.000431,0.018099
8154000,0.0324,0.013523,0.002678,0.000431,0.016924
8155000,0.0324,0.013523,0.002678,0.000431,0.016571
8156000,0.0324,0.013523,0.002678,0.000431,0.016454
8157000,0.0324,0.013523,0.002678,0.000431,0.016219
8158000,0.0324,0.013523,0.002678,0.000431,0.016924
8159000,0.0324,0.013523,0.002678,0.000431,0.017277
8160000,0.0324,0.013523,0.002678,0.000431,0.015514
8161000,0.0324,0.013523,0.002678,0.000431,0.017394
8162000,0.0324,0.013523,0.002678,0.000431,0.016689
8163000,0.0324,0.013523,0.002678,0.000431,0.015984
8164000,0.0324,0.013523,0.002678,0.000431,0.014809
8165000,0.0324,0.013523,0.002678,0.000431,0.018687
8166000,0.0324,0.013523,0.002678,0.000431,0.014573
8167000,0.0324,0.013523,0.002678,0.000431,0.016454
8168000,0.0324,0.013523,0.002678,0.000431,0.016101
8169000,0.0324,0.013523,0.002678,0.000431,0.016219
8170000,0.0324,0.013523,0.002678,0.000431,0.016336
8171000,0.0324,0.013523,0.002678,0.000431,0.014809
8172000,0.0324,0.013523,0.002678,0.000431,0.015631
8173000,0.0324,0.013523,0.002678,0.000431,0.014926
8174000,0.0324,0.013523,0.002678,0.000431,0.016336
8175000,0.0324,0.013523,0.002678,0.000431,0.015631
8176000,0.0324,0.013523,0.002678,0.000431,0.015866
8177000,0.0324,0.013523,0.002678,0.000431,0.016571
8178000,0.0324,0.013523,0.002678,0.000431,0.015984
8179000,0.0324,0.013523,0.002678,0.000431,0.014691
8180000,0.0324,0.013523,0.002678,0.000431,0.016807
8181000,0.0324,0.013523,0.002678,0.000431,0.015984
8182000,0.0324,0.013523,0.002678,0.000431,0.015396
8183000,0.0324,0.013523,0.002678,0.000431,0.016924
8184000,0.0324,0.013523,0.002678,0.000431,0.016454
8185000,0.0324,0.013523,0.002678,0.000431,0.015631
8186000,0.0324,0.013523,0.002678,0.000431,0.016689
8187000,0.0324,0.013523,0.002678,0.000431,0.014573
8188000,0.0324,0.013523,0.002678,0.000431,0.016689
8189000,0.0324,0.013523,0.002678,0.000431,0.017042
8190000,0.0324,0.013523,0.002678,0.000431,0.016219
8191000,0.0324,0.013523,0.002678,0.000431,0.017042
8192000,0.0324,0.013523,0.002678,0.000431,0.016101
8193000,0.0324,0.013523,0.002678,0.000431,0.014926
8194000,0.0324,0.013523,0.002678,0.000431,0.016924
8195000,0.0324,0.013523,0.002678,0.000431,0.016454
8196000,0.0324,0.013523,0.002678,0.000431,0.015044
8197000,0.0324,0.013523,0.002678,0.000431,0.015749
8198000,0.0324,0.013523,0.002678,0.000431,0.016571
8199000,0.0324,0.013523,0.002678,0.000431,0.016689
8200000,0.0324,0.013523,0.002678,0.000431,0.016807
8201000,0.0324,0.013523,0.002678,0.000431,0.015279
8202000,0.0324,0.013523,0.002678,0.000431,0.016101
8203000,0.0324,0.013523,0.002678,0.000431,0.017394
8204000,0.0324,0.013523,0.002678,0.000431,0.015279
8205000,0.0324,0.013523,0.002678,0.000431,0.016454
8206000,0.0324,0.013523,0.002678,0.000431,0.016924
8207000,0.0324,0.013523,0.002678,0.000431,0.015984
8208000,0.0324,0.013523,0.002678,0.000431,0.015396
8209000,0.0324,0.013523,0.002678,0.000431,0.015514
8210000,0.0324,0.013523,0.002678,0.000431,0.016571
8211000,0.0324,0.013523,0.002678,0.000431,0.016807
8212000,0.0324,0.013523,0.002678,0.000431,0.015396
8213000,0.0324,0.013523,0.002678,0.000431,0.016454
8214000,0.0324,0.013523,0.002678,0.000431,0.015631
8215000,0.0324,0.013523,0.002678,0.000431,0.015396
8216000,0.0324,0.013523,0.002678,0.000431,0.017277
8217000,0.0324,0.013523,0.002678,0.000431,0.014691
8218000,0.0324,0.013523,0.002678,0.000431,0.015514
8219000,0.0324,0.013523,0.002678,0.000431,0.015631
8220000,0.0324,0.013523,0.002678,0.000431,0.017042
8221000,0.0324,0.013523,0.002678,0.000431,0.015749
8222000,0.0324,0.013523,0.002678,0.000431,0.015514
8223000,0.0324,0.013523,0.002678,0.000431,0.015866
8224000,0.0324,0.013523,0.002678,0.000431,0.016924
8225000,0.0324,0.013523,0.002678,0.000431,0.016219
8226000,0.0324,0.013523,0.002678,0.000431,0.015749
8227000,0.0324,0.013523,0.002678,0.000431,0.016689
8228000,0.0324,0.013523,0.002678,0.000431,0.015514
8229000,0.0324,0.013523,0.002678,0.000431,0.015044
8230000,0.0324,0.013523,0.002678,0.000431,0.017277
8231000,0.0324,0.013523,0.002678,0.000431,0.016219
8232000,0.0324,0.013523,0.002678,0.000431,0.016336
8233000,0.0324,0.013523,0.002678,0.000431,0.016219
8234000,0.0324,0.013523,0.002678,0.000431,0.015984
8235000,0.0324,0.013523,0.002678,0.000431,0.014809
8236000,0.0324,0.013523,0.002678,0.000431,0.017277
8237000,0.0324,0.013523,0.002678,0.000431,0.016336
8238000,0.0324,0.013523,0.002678,0.000431,0.016101
8239000,0.0324,0.013523,0.002678,0.000431,0.016571
8240000,0.0324,0.013523,0.002678,0.000431,0.017512
8241000,0.0324,0.013523,0.002678,0.000431,0.016336
8242000,0.0324,0.013523,0.002678,0.000431,0.016219
8243000,0.0324,0.013523,0.002678,0.000431,0.015984
8244000,0.0324,0.013523,0.002678,0.000431,0.015514
8245000,0.0324,0.013523,0.002678,0.000431,0.016336
8246000,0.0324,0.013523,0.002678,0.000431,0.017394
8247000,0.0324,0.013523,0.002678,0.000431,0.015984
8248000,0.0324,0.013523,0.002678,0.000431,0.016454
8249000,0.0324,0.013523,0.002678,0.000431,0.015984
8250000,0.0324,0.013523,0.002678,0.000431,0.015631
8251000,0.0324,0.013523,0.002678,0.000431,0.016924
8252000,0.0324,0.013523,0.002678,0.000431,0.016454
8253000,0.0324,0.013523,0.002678,0.000431,0.016101
8254000,0.0324,0.013523,0.002678,0.000431,0.015984
8255000,0.0324,0.013523,0.002678,0.000431,0.018569
8256000,0.0324,0.013523,0.002678,0.000431,0.017629
8257000,0.0324,0.013523,0.002678,0.000431,0.014338
8258000,0.0324,0.013523,0.002678,0.000431,0.017629
8259000,0.0324,0.013523,0.002678,0.000431,0.014691
8260000,0.0324,0.013523,0.002678,0.000431,0.017982
8261000,0.0324,0.013523,0.002678,0.000431,0.016924
8262000,0.0324,0.013523,0.002678,0.000431,0.015161
8263000,0.0324,0.013523,0.002678,0.000431,0.015396
8264000,0.0324,0.013523,0.002678,0.000431,0.016807
8265000,0.0324,0.013523,0.002678,0.000431,0.015044
8266000,0.0324,0.013523,0.002678,0.000431,0.015749
8267000,0.0324,0.013523,0.002678,0.000431,0.015044
8268000,0.0324,0.013523,0.002678,0.000431,0.016924
8269000,0.0324,0.013523,0.002678,0.000431,0.014221
8270000,0.0324,0.013523,0.002678,0.000431,0.016807
8271000,0.0324,0.013523,0.002678,0.000431,0.016101
8272000,0.0324,0.013523,0.002678,0.000431,0.014926
8273000,0.0324,0.013523,0.002678,0.000431,0.016336
8274000,0.0324,0.013523,0.002678,0.000431,0.014926
8275000,0.0324,0.013523,0.002678,0.000431,0.016336
8276000,0.0324,0.013523,0.002678,0.000431,0.015749
8277000,0.0324,0.013523,0.002678,0.000431,0.015514
8278000,0.0324,0.013523,0.002678,0.000431,0.017042
8279000,0.0324,0.013523,0.002678,0.000431,0.015044
8280000,0.0324,0.013523,0.002678,0.000431,0.015161
8281000,0.0324,0.013523,0.002678,0.000431,0.017512
8282000,0.0324,0.013523,0.002678,0.000431,0.015514
8283000,0.0324,0.013523,0.002678,0.000431,0.014338
8284000,0.0324,0.013523,0.002678,0.000431,0.015984
8285000,0.0324,0.013523,0.002678,0.000431,0.015749
8286000,0.0324,0.013523,0.002678,0.000431,0.015396
8287000,0.0324,0.013523,0.002678,0.000431,0.017042
8288000,0.0324,0.013523,0.002678,0.000431,0.015631
8289000,0.0324,0.013523,0.002678,0.000431,0.016219
8290000,0.0324,0.013523,0.002678,0.000431,0.015514
8291000,0.0324,0.013523,0.002678,0.000431,0.016454
8292000,0.0324,0.013523,0.002678,0.000431,0.016689
8293000,0.0324,0.013523,0.002678,0.000431,0.015984
8294000,0.0324,0.013523,0.002678,0.000431,0.015279
8295000,0.0324,0.013523,0.002678,0.000431,0.016807
8296000,0.0324,0.013523,0.002678,0.000431,0.017042
8297000,0.0324,0.013523,0.002678,0.000431,0.014809
8298000,0.0324,0.013523,0.002678,0.000431,0.015984
8299000,0.0324,0.013523,0.002678,0.000431,0.015866
8300000,0.0324,0.013523,0.002678,0.000431,0.014456
8301000,0.0324,0.013523,0.002678,0.000431,0.016571
8302000,0.0324,0.013523,0.002678,0.000431,0.016219
8303000,0.0324,0.013523,0.002678,0.000431,0.014221
8304000,0.0324,0.013523,0.002678,0.000431,0.015866
8305000,0.0324,0.013523,0.002678,0.000431,0.015279
8306000,0.0324,0.013523,0.002678,0.000431,0.015631
8307000,0.0324,0.013523,0.002678,0.000431,0.017394
8308000,0.0324,0.013523,0.002678,0.000431,0.015984
8309000,0.0324,0.013523,0.002678,0.000431,0.015984
8310000,0.0324,0.013523,0.002678,0.000431,0.014691
8311000,0.0324,0.013523,0.002678,0.000431,0.017394
8312000,0.0324,0.013523,0.002678,0.000431,0.015984
8313000,0.0324,0.013523,0.002678,0.000431,0.015514
8314000,0.0324,0.013523,0.002678,0.000431,0.016454
8315000,0.0324,0.013523,0.002678,0.000431,0.016807
8316000,0.0324,0.013523,0.002678,0.000431,0.014926
8317000,0.0324,0.013523,0.002678,0.000431,0.016924
8318000,0.0324,0.013523,0.002678,0.000431,0.016689
8319000,0.0324,0.013523,0.002678,0.000431,0.014573
8320000,0.0324,0.013523,0.002678,0.000431,0.015984
8321000,0.0324,0.013523,0.002678,0.000431,0.015866
8322000,0.0324,0.013523,0.002678,0.000431,0.015279
8323000,0.0324,0.013523,0.002678,0.000431,0.016454
8324000,0.0324,0.013523,0.002678,0.000431,0.013986
8325000,0.0324,0.013523,0.002678,0.000431,0.016219
8326000,0.0324,0.013523,0.002678,0.000431,0.015631
8327000,0.0324,0.013523,0.002678,0.000431,0.015514
8328000,0.0324,0.013523,0.002678,0.000431,0.014926
8329000,0.0324,0.013523,0.002678,0.000431,0.016336
8330000,0.0324,0.013523,0.002678,0.000431,0.015514
8331000,0.0324,0.013523,0.002678,0.000431,0.016101
8332000,0.0324,0.013523,0.002678,0.000431,0.016924
8333000,0.0324,0.013523,0.002678,0.000431,0.015279
8334000,0.0324,0.013523,0.002678,0.000431,0.015514
8335000,0.0324,0.013523,0.002678,0.000431,0.016807
8336000,0.0324,0.013523,0.002678,0.000431,0.015514
8337000,0.0324,0.013523,0.002678,0.000431,0.016689
8338000,0.0324,0.013523,0.002678,0.000431,0.015161
8339000,0.0324,0.013523,0.002678,0.000431,0.015396
8340000,0.0324,0.013523,0.002678,0.000431,0.015866
8341000,0.0324,0.013523,0.002678,0.000431,0.017629
8342000,0.0324,0.013523,0.002678,0.000431,0.015044
8343000,0.0324,0.013523,0.002678,0.000431,0.015866
8344000,0.0324,0.013523,0.002678,0.000431,0.016807
8345000,0.0324,0.013523,0.002678,0.000431,0.015044
8346000,0.0324,0.013523,0.002678,0.000431,0.016336
8347000,0.0324,0.013523,0.002678,0.000431,0.016101
8348000,0.0324,0.013523,0.002678,0.000431,0.017277
8349000,0.0324,0.013523,0.002678,0.000431,0.015631
8350000,0.0324,0.013523,0.002678,0.000431,0.015279
8351000,0.0324,0.013523,0.002678,0.000431,0.015984
8352000,0.0324,0.013523,0.002678,0.000431,0.016219
8353000,0.0324,0.013523,0.002678,0.000431,0.015161
8354000,0.0324,0.013523,0.002678,0.000431,0.017042
8355000,0.0324,0.013523,0.002678,0.000431,0.014691
8356000,0.0324,0.013523,0.002678,0.000431,0.015631
8357000,0.0324,0.013523,0.002678,0.000431,0.017512
8358000,0.0324,0.013523,0.002678,0.000431,0.015749
8359000,0.0324,0.013523,0.002678,0.000431,0.015866
8360000,0.0324,0.013523,0.002678,0.000431,0.015279
8361000,0.0324,0.013523,0.002678,0.000431,0.013751
8362000,0.0324,0.013523,0.002678,0.000431,0.015749
8363000,0.0324,0.013523,0.002678,0.000431,0.016807
8364000,0.0324,0.013523,0.002678,0.000431,0.014691
8365000,0.0324,0.013523,0.002678,0.000431,0.014221
8366000,0.0324,0.013523,0.002678,0.000431,0.016689
8367000,0.0324,0.013523,0.002678,0.000431,0.016924
8368000,0.0324,0.013523,0.002678,0.000431,0.015631
8369000,0.0324,0.013523,0.002678,0.000431,0.014809
8370000,0.0324,0.013523,0.002678,0.000431,0.015161
8371000,0.0324,0.013523,0.002678,0.000431,0.014103
8372000,0.0324,0.013523,0.002678,0.000431,0.016571
8373000,0.0324,0.013523,0.002678,0.000431,0.015279
8374000,0.0324,0.013523,0.002678,0.000431,0.014926
8375000,0.0324,0.013523,0.002678,0.000431,0.016336
8376000,0.0324,0.013523,0.002678,0.000431,0.015866
8377000,0.0324,0.013523,0.002678,0.000431,0.015161
8378000,0.0324,0.013523,0.002678,0.000431,0.015514
8379000,0.0324,0.013523,0.002678,0.000431,0.016454
8380000,0.0324,0.013523,0.002678,0.000431,0.016336
8381000,0.0324,0.013523,0.002678,0.000431,0.015749
8382000,0.0324,0.013523,0.002678,0.000431,0.015279
8383000,0.0324,0.013523,0.002678,0.000431,0.016924
8384000,0.0324,0.013523,0.002678,0.000431,0.016454
8385000,0.0324,0.013523,0.002678,0.000431,0.013868
8386000,0.0324,0.013523,0.002678,0.000431,0.015866
8387000,0.0324,0.013523,0.002678,0.000431,0.016336
8388000,0.0324,0.013523,0.002678,0.000431,0.016689
8389000,0.0324,0.013523,0.002678,0.000431,0.015279
8390000,0.0324,0.013523,0.002678,0.000431,0.014456
8391000,0.0324,0.013523,0.002678,0.000431,0.014809
8392000,0.0324,0.013523,0.002678,0.000431,0.016571
8393000,0.0324,0.013523,0.002678,0.000431,0.016689
8394000,0.0324,0.013523,0.002678,0.000431,0.015161
8395000,0.0324,0.013523,0.002678,0.000431,0.016689
8396000,0.0324,0.013523,0.002678,0.000431,0.014573
8397000,0.0324,0.013523,0.002678,0.000431,0.014573
8398000,0.0324,0.013523,0.002678,0.000431,0.016807
8399000,0.0324,0.013523,0.002678,0.000431,0.015044
8400000,0.0324,0.013523,0.002678,0.000431,0.014809
8401000,0.0324,0.013523,0.002678,0.000431,0.015631
8402000,0.0324,0.013523,0.002678,0.000431,0.015749
8403000,0.0324,0.013523,0.002678,0.000431,0.016571
8404000,0.0324,0.013523,0.002678,0.000431,0.016336
8405000,0.0324,0.013523,0.002678,0.000431,0.015514
8406000,0.0324,0.013523,0.002678,0.000431,0.014691
8407000,0.0324,0.013523,0.002678,0.000431,0.015631
8408000,0.0324,0.013523,0.002678,0.000431,0.016571
8409000,0.0324,0.013523,0.002678,0.000431,0.015396
8410000,0.0324,0.013523,0.002678,0.000431,0.016924
8411000,0.0324,0.013523,0.002678,0.000431,0.016101
8412000,0.0324,0.013523,0.002678,0.000431,0.014691
8413000,0.0324,0.013523,0.002678,0.000431,0.015984
8414000,0.0324,0.013523,0.002678,0.000431,0.016101
8415000,0.0324,0.013523,0.002678,0.000431,0.014926
8416000,0.0324,0.013523,0.002678,0.000431,0.016101
8417000,0.0324,0.013523,0.002678,0.000431,0.014338
8418000,0.0324,0.013523,0.002678,0.000431,0.016689
8419000,0.0324,0.013523,0.002678,0.000431,0.017864
8420000,0.0324,0.013523,0.002678,0.000431,0.014809
8421000,0.0324,0.013523,0.002678,0.000431,0.014809
8422000,0.0324,0.013523,0.002678,0.000431,0.016454
8423000,0.0324,0.013523,0.002678,0.000431,0.014573
8424000,0.0324,0.013523,0.002678,0.000431,0.017042
8425000,0.0324,0.013523,0.002678,0.000431,0.015984
8426000,0.0324,0.013523,0.002678,0.000431,0.016336
8427000,0.0324,0.013523,0.002678,0.000431,0.015396
8428000,0.0324,0.013523,0.002678,0.000431,0.016101
8429000,0.0324,0.013523,0.002678,0.000431,0.014809
8430000,0.0324,0.013523,0.002678,0.000431,0.015396
8431000,0.0324,0.013523,0.002678,0.000431,0.014926
8432000,0.0324,0.013523,0.002678,0.000431,0.015631
8433000,0.0324,0.013523,0.002678,0.000431,0.015396
8434000,0.0324,0.013523,0.002678,0.000431,0.016924
8435000,0.0324,0.013523,0.002678,0.000431,0.015866
8436000,0.0324,0.013523,0.002678,0.000431,0.015749
8437000,0.0324,0.013523,0.002678,0.000431,0.015279
8438000,0.0324,0.013523,0.002678,0.000431,0.015514
8439000,0.0324,0.013523,0.002678,0.000431,0.015279
8440000,0.0324,0.013523,0.002678,0.000431,0.015396
8441000,0.0324,0.013523,0.002678,0.000431,0.016571
8442000,0.0324,0.013523,0.002678,0.000431,0.015044
8443000,0.0324,0.013523,0.002678,0.000431,0.016807
8444000,0.0324,0.013523,0.002678,0.000431,0.015866
8445000,0.0324,0.013523,0.002678,0.000431,0.014809
8446000,0.0324,0.013523,0.002678,0.000431,0.014221
8447000,0.0324,0.013523,0.002678,0.000431,0.016101
8448000,0.0324,0.013523,0.002678,0.000431,0.014926
8449000,0.0324,0.013523,0.002678,0.000431,0.017629
8450000,0.0324,0.013523,0.002678,0.000431,0.015984
8451000,0.0324,0.013523,0.002678,0.000431,0.015279
8452000,0.0324,0.013523,0.002678,0.000431,0.016101
8453000,0.0324,0.013523,0.002678,0.000431,0.015279
8454000,0.0324,0.013523,0.002678,0.000431,0.018099
8455000,0.0324,0.013523,0.002678,0.000431,0.015866
8456000,0.0324,0.013523,0.002678,0.000431,0.015044
8457000,0.0324,0.013523,0.002678,0.000431,0.015044
8458000,0.0324,0.013523,0.002678,0.000431,0.016807
8459000,0.0324,0.013523,0.002678,0.000431,0.016454
8460000,0.0324,0.013523,0.002678,0.000431,0.015984
8461000,0.0324,0.013523,0.002678,0.000431,0.016219
8462000,0.0324,0.013523,0.002678,0.000431,0.014221
8463000,0.0324,0.013523,0.002678,0.000431,0.015749
8464000,0.0324,0.013523,0.002678,0.000431,0.017512
8465000,0.0324,0.013523,0.002678,0.000431,0.014573
8466000,0.0324,0.013523,0.002678,0.000431,0.015514
8467000,0.0324,0.013523,0.002678,0.000431,0.016571
8468000,0.0324,0.013523,0.002678,0.000431,0.015866
8469000,0.0324,0.013523,0.002678,0.000431,0.015984
8470000,0.0324,0.013523,0.002678,0.000431,0.016101
8471000,0.0324,0.013523,0.002678,0.000431,0.017982
8472000,0.0324,0.013523,0.002678,0.000431,0.014456
8473000,0.0324,0.013523,0.002678,0.000431,0.015514
8474000,0.0324,0.013523,0.002678,0.000431,0.017512
8475000,0.0324,0.013523,0.002678,0.000431,0.015279
8476000,0.0324,0.013523,0.002678,0.000431,0.015044
8477000,0.0324,0.013523,0.002678,0.000431,0.015866
8478000,0.0324,0.013523,0.002678,0.000431,0.014809
8479000,0.0324,0.013523,0.002678,0.000431,0.015866
8480000,0.0324,0.013523,0.002678,0.000431,0.017277
8481000,0.0324,0.013523,0.002678,0.000431,0.015631
8482000,0.0324,0.013523,0.002678,0.000431,0.014221
8483000,0.0324,0.013523,0.002678,0.000431,0.015984
8484000,0.0324,0.013523,0.002678,0.000431,0.016101
8485000,0.0324,0.013523,0.002678,0.000431,0.016454
8486000,0.0324,0.013523,0.002678,0.000431,0.016101
8487000,0.0324,0.013523,0.002678,0.000431,0.015044
8488000,0.0324,0.013523,0.002678,0.000431,0.014456
8489000,0.0324,0.013523,0.002678,0.000431,0.016689
8490000,0.0324,0.013523,0.002678,0.000431,0.016454
8491000,0.0324,0.013523,0.002678,0.000431,0.015279
8492000,0.0324,0.013523,0.002678,0.000431,0.015866
8493000,0.0324,0.013523,0.002678,0.000431,0.015984
8494000,0.0324,0.013523,0.002678,0.000431,0.015279
8495000,0.0324,0.013523,0.002678,0.000431,0.017042
8496000,0.0324,0.013523,0.002678,0.000431,0.014809
8497000,0.0324,0.013523,0.002678,0.000431,0.015396
8498000,0.0324,0.013523,0.002678,0.000431,0.016924
8499000,0.0324,0.013523,0.002678,0.000431,0.015866
8500000,0.0324,0.013523,0.002678,0.000431,0.015631
8501000,0.0324,0.013523,0.002678,0.000431,0.016807
8502000,0.0324,0.013523,0.002678,0.000431,0.015631
8503000,0.0324,0.013523,0.002678,0.000431,0.016807
8504000,0.0324,0.013523,0.002678,0.000431,0.015396
8505000,0.0324,0.013523,0.002678,0.000431,0.017394
8506000,0.0324,0.013523,0.002678,0.000431,0.013986
8507000,0.0324,0.013523,0.002678,0.000431,0.016571
8508000,0.0324,0.013523,0.002678,0.000431,0.015984
8509000,0.0324,0.013523,0.002678,0.000431,0.015514
8510000,0.0324,0.013523,0.002678,0.000431,0.017394
8511000,0.0324,0.013523,0.002678,0.000431,0.015396
8512000,0.0324,0.013523,0.002678,0.000431,0.015984
8513000,0.0324,0.013523,0.002678,0.000431,0.015984
8514000,0.0324,0.013523,0.002678,0.000431,0.014456
8515000,0.0324,0.013523,0.002678,0.000431,0.017277
8516000,0.0324,0.013523,0.002678,0.000431,0.015866
8517000,0.0324,0.013523,0.002678,0.000431,0.014338
8518000,0.0324,0.013523,0.002678,0.000431,0.014926
8519000,0.0324,0.013523,0.002678,0.000431,0.016924
8520000,0.0324,0.013523,0.002678,0.000431,0.016924
8521000,0.0324,0.013523,0.002678,0.000431,0.015984
8522000,0.0324,0.013523,0.002678,0.000431,0.015396
8523000,0.0324,0.013523,0.002678,0.000431,0.015631
8524000,0.0324,0.013523,0.002678,0.000431,0.013986
8525000,0.0324,0.013523,0.002678,0.000431,0.016924
8526000,0.0324,0.013523,0.002678,0.000431,0.015514
8527000,0.0324,0.013523,0.002678,0.000431,0.014338
8528000,0.0324,0.013523,0.002678,0.000431,0.017042
8529000,0.0324,0.013523,0.002678,0.000431,0.015161
8530000,0.0324,0.013523,0.002678,0.000431,0.015044
8531000,0.0324,0.013523,0.002678,0.000431,0.017747
8532000,0.0324,0.013523,0.002678,0.000431,0.016689
8533000,0.0324,0.013523,0.002678,0.000431,0.014573
8534000,0.0324,0.013523,0.002678,0.000431,0.015161
8535000,0.0324,0.013523,0.002678,0.000431,0.016454
8536000,0.0324,0.013523,0.002678,0.000431,0.017042
8537000,0.0324,0.013523,0.002678,0.000431,0.014926
8538000,0.0324,0.013523,0.002678,0.000431,0.015984
8539000,0.0324,0.013523,0.002678,0.000431,0.014926
8540000,0.0324,0.013523,0.002678,0.000431,0.016101
8541000,0.0324,0.013523,0.002678,0.000431,0.017159
8542000,0.0324,0.013523,0.002678,0.000431,0.014926
8543000,0.0324,0.013523,0.002678,0.000431,0.016689
8544000,0.0324,0.013523,0.002678,0.000431,0.015396
8545000,0.0324,0.013523,0.002678,0.000431,0.014573
8546000,0.0324,0.013523,0.002678,0.000431,0.015514
8547000,0.0324,0.013523,0.002678,0.000431,0.015866
8548000,0.0324,0.013523,0.002678,0.000431,0.014809
8549000,0.0324,0.013523,0.002678,0.000431,0.016336
8550000,0.0324,0.013523,0.002678,0.000431,0.017277
8551000,0.0324,0.013523,0.002678,0.000431,0.015866
8552000,0.0324,0.013523,0.002678,0.000431,0.015866
8553000,0.0324,0.013523,0.002678,0.000431,0.016454
8554000,0.0324,0.013523,0.002678,0.000431,0.014573
8555000,0.0324,0.013523,0.002678,0.000431,0.014338
8556000,0.0324,0.013523,0.002678,0.000431,0.018099
8557000,0.0324,0.013523,0.002678,0.000431,0.014809
8558000,0.0324,0.013523,0.002678,0.000431,0.015279
8559000,0.0324,0.013523,0.002678,0.000431,0.015984
8560000,0.0324,0.013523,0.002678,0.000431,0.014221
8561000,0.0324,0.013523,0.002678,0.000431,0.016336
8562000,0.0324,0.013523,0.002678,0.000431,0.016219
8563000,0.0324,0.013523,0.002678,0.000431,0.016219
8564000,0.0324,0.013523,0.002678,0.000431,0.014573
8565000,0.0324,0.013523,0.002678,0.000431,0.016454
8566000,0.0324,0.013523,0.002678,0.000431,0.016689
8567000,0.0324,0.013523,0.002678,0.000431,0.015396
8568000,0.0324,0.013523,0.002678,0.000431,0.017159
8569000,0.0324,0.013523,0.002678,0.000431,0.015396
8570000,0.0324,0.013523,0.002678,0.000431,0.014103
8571000,0.0324,0.013523,0.002678,0.000431,0.017042
8572000,0.0324,0.013523,0.002678,0.000431,0.015631
8573000,0.0324,0.013523,0.002678,0.000431,0.015396
8574000,0.0324,0.013523,0.002678,0.000431,0.015396
8575000,0.0324,0.013523,0.002678,0.000431,0.016219
8576000,0.0324,0.013523,0.002678,0.000431,0.016924
8577000,0.0324,0.013523,0.002678,0.000431,0.016336
8578000,0.0324,0.013523,0.002678,0.000431,0.014809
8579000,0.0324,0.013523,0.002678,0.000431,0.015279
8580000,0.0324,0.013523,0.002678,0.000431,0.017512
8581000,0.0324,0.013523,0.002678,0.000431,0.013868
8582000,0.0324,0.013523,0.002678,0.000431,0.016571
8583000,0.0324,0.013523,0.002678,0.000431,0.015749
8584000,0.0324,0.013523,0.002678,0.000431,0.015279
8585000,0.0324,0.013523,0.002678,0.000431,0.016101
8586000,0.0324,0.013523,0.002678,0.000431,0.016807
8587000,0.0324,0.013523,0.002678,0.000431,0.016101
8588000,0.0324,0.013523,0.002678,0.000431,0.014338
8589000,0.0324,0.013523,0.002678,0.000431,0.016101
8590000,0.0324,0.013523,0.002678,0.000431,0.015279
8591000,0.0324,0.013523,0.002678,0.000431,0.015984
8592000,0.0324,0.013523,0.002678,0.000431,0.016689
8593000,0.0324,0.013523,0.002678,0.000431,0.016101
8594000,0.0324,0.013523,0.002678,0.000431,0.014103
8595000,0.0324,0.013523,0.002678,0.000431,0.016689
8596000,0.0324,0.013523,0.002678,0.000431,0.015984
8597000,0.0324,0.013523,0.002678,0.000431,0.014926
8598000,0.0324,0.013523,0.002678,0.000431,0.016454
8599000,0.0324,0.013523,0.002678,0.000431,0.015866
8600000,0.0324,0.013523,0.002678,0.000431,0.014456
8601000,0.0324,0.013523,0.002678,0.000431,0.015866
8602000,0.0324,0.013523,0.002678,0.000431,0.015396
8603000,0.0324,0.013523,0.002678,0.000431,0.015514
8604000,0.0324,0.013523,0.002678,0.000431,0.014456
8605000,0.0324,0.013523,0.002678,0.000431,0.014809
8606000,0.0324,0.013523,0.002678,0.000431,0.015631
8607000,0.0324,0.013523,0.002678,0.000431,0.017277
8608000,0.0324,0.013523,0.002678,0.000431,0.014338
8609000,0.0324,0.013523,0.002678,0.000431,0.015749
8610000,0.0324,0.013523,0.002678,0.000431,0.016454
8611000,0.0324,0.013523,0.002678,0.000431,0.015514
8612000,0.0324,0.013523,0.002678,0.000431,0.015396
8613000,0.0324,0.013523,0.002678,0.000431,0.015631
8614000,0.0324,0.013523,0.002678,0.000431,0.016219
8615000,0.0324,0.013523,0.002678,0.000431,0.015161
8616000,0.0324,0.013523,0.002678,0.000431,0.016689
8617000,0.0324,0.013523,0.002678,0.000431,0.017277
8618000,0.0324,0.013523,0.002678,0.000431,0.014103
8619000,0.0324,0.013523,0.002678,0.000431,0.014573
8620000,0.0324,0.013523,0.002678,0.000431,0.016807
8621000,0.0324,0.013523,0.002678,0.000431,0.015161
8622000,0.0324,0.013523,0.002678,0.000431,0.015984
8623000,0.0324,0.013523,0.002678,0.000431,0.016689
8624000,0.0324,0.013523,0.002678,0.000431,0.015161
8625000,0.0324,0.013523,0.002678,0.000431,0.014691
8626000,0.0324,0.013523,0.002678,0.000431,0.016336
8627000,0.0324,0.013523,0.002678,0.000431,0.017512
8628000,0.0324,0.013523,0.002678,0.000431,0.016454
8629000,0.0324,0.013523,0.002678,0.000431,0.015984
8630000,0.0324,0.013523,0.002678,0.000431,0.015984
8631000,0.0324,0.013523,0.002678,0.000431,0.015514
8632000,0.0324,0.013523,0.002678,0.000431,0.017042
8633000,0.0324,0.013523,0.002678,0.000431,0.016924
8634000,0.0324,0.013523,0.002678,0.000431,0.015866
8635000,0.0324,0.013523,0.002678,0.000431,0.015984
8636000,0.0324,0.013523,0.002678,0.000431,0.016689
8637000,0.0324,0.013523,0.002678,0.000431,0.015749
8638000,0.0324,0.013523,0.002678,0.000431,0.015866
8639000,0.0324,0.013523,0.002678,0.000431,0.015044
8640000,0.0324,0.013523,0.002678,0.000431,0.014573
8641000,0.0324,0.013523,0.002678,0.000431,0.015279
8642000,0.0324,0.013523,0.002678,0.000431,0.015984
8643000,0.0324,0.013523,0.002678,0.000431,0.016454
8644000,0.0324,0.013523,0.002678,0.000431,0.014456
8645000,0.0324,0.013523,0.002678,0.000431,0.016101
8646000,0.0324,0.013523,0.002678,0.000431,0.013398
8647000,0.0324,0.013523,0.002678,0.000431,0.015514
8648000,0.0324,0.013523,0.002678,0.000431,0.015749
8649000,0.0324,0.013523,0.002678,0.000431,0.015279
8650000,0.0324,0.013523,0.002678,0.000431,0.014926
8651000,0.0324,0.013523,0.002678,0.000431,0.015279
8652000,0.0324,0.013523,0.002678,0.000431,0.015396
8653000,0.0324,0.013523,0.002678,0.000431,0.014809
8654000,0.0324,0.013523,0.002678,0.000431,0.015514
8655000,0.0324,0.013523,0.002678,0.000431,0.015984
8656000,0.0324,0.013523,0.002678,0.000431,0.014573
8657000,0.0324,0.013523,0.002678,0.000431,0.015866
8658000,0.0324,0.013523,0.002678,0.000431,0.015631
8659000,0.0324,0.013523,0.002678,0.000431,0.015044
8660000,0.0324,0.013523,0.002678,0.000431,0.013516
8661000,0.0324,0.013523,0.002678,0.000431,0.015514
8662000,0.0324,0.013523,0.002678,0.000431,0.015044
8663000,0.0324,0.013523,0.002678,0.000431,0.015044
8664000,0.0324,0.013523,0.002678,0.000431,0.015984
8665000,0.0324,0.013523,0.002678,0.000431,0.014456
8666000,0.0324,0.013523,0.002678,0.000431,0.014809
8667000,0.0324,0.013523,0.002678,0.000431,0.014573
8668000,0.0324,0.013523,0.002678,0.000431,0.015514
8669000,0.0324,0.013523,0.002678,0.000431,0.015279
8670000,0.0324,0.013523,0.002678,0.000431,0.015396
8671000,0.0324,0.013523,0.002678,0.000431,0.014456
8672000,0.0324,0.013523,0.002678,0.000431,0.013868
8673000,0.0324,0.013523,0.002678,0.000431,0.015396
8674000,0.0324,0.013523,0.002678,0.000431,0.015984
8675000,0.0324,0.013523,0.002678,0.000431,0.014221
8676000,0.0324,0.013523,0.002678,0.000431,0.015749
8677000,0.0324,0.013523,0.002678,0.000431,0.015514
8678000,0.0324,0.013523,0.002678,0.000431,0.015984
8679000,0.0324,0.013523,0.002678,0.000431,0.014221
8680000,0.0324,0.013523,0.002678,0.000431,0.016219
8681000,0.0324,0.013523,0.002678,0.000431,0.014809
8682000,0.0324,0.013523,0.002678,0.000431,0.014338
8683000,0.0324,0.013523,0.002678,0.000431,0.016571
8684000,0.0324,0.013523,0.002678,0.000431,0.014691
8685000,0.0324,0.013523,0.002678,0.000431,0.015279
8686000,0.0324,0.013523,0.002678,0.000431,0.015044
8687000,0.0324,0.013523,0.002678,0.000431,0.015161
8688000,0.0324,0.013523,0.002678,0.000431,0.015631
8689000,0.0324,0.013523,0.002678,0.000431,0.015279
8690000,0.0324,0.013523,0.002678,0.000431,0.015279
8691000,0.0324,0.013523,0.002678,0.000431,0.015749
8692000,0.0324,0.013523,0.002678,0.000431,0.015279
8693000,0.0324,0.013523,0.002678,0.000431,0.015514
8694000,0.0324,0.013523,0.002678,0.000431,0.014691
8695000,0.0324,0.013523,0.002678,0.000431,0.016219
8696000,0.0324,0.013523,0.002678,0.000431,0.015044
8697000,0.0324,0.013523,0.002678,0.000431,0.014338
8698000,0.0324,0.013523,0.002678,0.000431,0.015631
8699000,0.0324,0.013523,0.002678,0.000431,0.017747
8700000,0.0324,0.013523,0.002678,0.000431,0.015161
8701000,0.0324,0.013523,0.002678,0.000431,0.014809
8702000,0.0324,0.013523,0.002678,0.000431,0.016101
8703000,0.0324,0.013523,0.002678,0.000431,0.014103
8704000,0.0324,0.013523,0.002678,0.000431,0.015984
8705000,0.0324,0.013523,0.002678,0.000431,0.015161
8706000,0.0324,0.013523,0.002678,0.000431,0.014809
8707000,0.0324,0.013523,0.002678,0.000431,0.015866
8708000,0.0324,0.013523,0.002678,0.000431,0.014926
8709000,0.0324,0.013523,0.002678,0.000431,0.015044
8710000,0.0324,0.013523,0.002678,0.000431,0.016219
8711000,0.0324,0.013523,0.002678,0.000431,0.015279
8712000,0.0324,0.013523,0.002678,0.000431,0.015279
8713000,0.0324,0.013523,0.002678,0.000431,0.015396
8714000,0.0324,0.013523,0.002678,0.000431,0.015749
8715000,0.0324,0.013523,0.002678,0.000431,0.015044
8716000,0.0324,0.013523,0.002678,0.000431,0.015866
8717000,0.0324,0.013523,0.002678,0.000431,0.014221
8718000,0.0324,0.013523,0.002678,0.000431,0.015161
8719000,0.0324,0.013523,0.002678,0.000431,0.016807
8720000,0.0324,0.013523,0.002678,0.000431,0.015866
8721000,0.0324,0.013523,0.002678,0.000431,0.014456
8722000,0.0324,0.013523,0.002678,0.000431,0.015631
8723000,0.0324,0.013523,0.002678,0.000431,0.015396
8724000,0.0324,0.013523,0.002678,0.000431,0.015631
8725000,0.0324,0.013523,0.002678,0.000431,0.016807
8726000,0.0324,0.013523,0.002678,0.000431,0.015279
8727000,0.0324,0.013523,0.002678,0.000431,0.014926
8728000,0.0324,0.013523,0.002678,0.000431,0.015631
8729000,0.0324,0.013523,0.002678,0.000431,0.016219
8730000,0.0324,0.013523,0.002678,0.000431,0.015514
8731000,0.0324,0.013523,0.002678,0.000431,0.016101
8732000,0.0324,0.013523,0.002678,0.000431,0.014338
8733000,0.0324,0.013523,0.002678,0.000431,0.013516
8734000,0.0324,0.013523,0.002678,0.000431,0.017394
8735000,0.0324,0.013523,0.002678,0.000431,0.015631
8736000,0.0324,0.013523,0.002678,0.000431,0.015514
8737000,0.0324,0.013523,0.002678,0.000431,0.014456
8738000,0.0324,0.013523,0.002678,0.000431,0.015396
8739000,0.0324,0.013523,0.002678,0.000431,0.015631
8740000,0.0324,0.013523,0.002678,0.000431,0.016101
8741000,0.0324,0.013523,0.002678,0.000431,0.014221
8742000,0.0324,0.013523,0.002678,0.000431,0.016101
8743000,0.0324,0.013523,0.002678,0.000431,0.015514
8744000,0.0324,0.013523,0.002678,0.000431,0.015161
8745000,0.0324,0.013523,0.002678,0.000431,0.015984
8746000,0.0324,0.013523,0.002678,0.000431,0.015984
8747000,0.0324,0.013523,0.002678,0.000431,0.015161
8748000,0.0324,0.013523,0.002678,0.000431,0.015044
8749000,0.0324,0.013523,0.002678,0.000431,0.015161
8750000,0.0324,0.013523,0.002678,0.000431,0.016219
8751000,0.0324,0.013523,0.002678,0.000431,0.014338
8752000,0.0324,0.013523,0.002678,0.000431,0.015279
8753000,0.0324,0.013523,0.002678,0.000431,0.015279
8754000,0.0324,0.013523,0.002678,0.000431,0.014926
8755000,0.0324,0.013523,0.002678,0.000431,0.017042
8756000,0.0324,0.013523,0.002678,0.000431,0.014809
8757000,0.0324,0.013523,0.002678,0.000431,0.015161
8758000,0.0324,0.013523,0.002678,0.000431,0.014809
8759000,0.0324,0.013523,0.002678,0.000431,0.015161
8760000,0.0324,0.013523,0.002678,0.000431,0.014809
8761000,0.0324,0.013523,0.002678,0.000431,0.014809
8762000,0.0324,0.013523,0.002678,0.000431,0.014456
8763000,0.0324,0.013523,0.002678,0.000431,0.014691
8764000,0.0324,0.013523,0.002678,0.000431,0.015514
8765000,0.0324,0.013523,0.002678,0.000431,0.015279
8766000,0.0324,0.013523,0.002678,0.000431,0.013516
8767000,0.0324,0.013523,0.002678,0.000431,0.015631
8768000,0.0324,0.013523,0.002678,0.000431,0.014338
8769000,0.0324,0.013523,0.002678,0.000431,0.013516
8770000,0.0324,0.013523,0.002678,0.000431,0.016101
8771000,0.0324,0.013523,0.002678,0.000431,0.013633
8772000,0.0324,0.013523,0.002678,0.000431,0.014809
8773000,0.0324,0.013523,0.002678,0.000431,0.015161
8774000,0.0324,0.013523,0.002678,0.000431,0.014221
8775000,0.0324,0.013523,0.002678,0.000431,0.015514
8776000,0.0324,0.013523,0.002678,0.000431,0.015514
8777000,0.0324,0.013523,0.002678,0.000431,0.013986
8778000,0.0324,0.013523,0.002678,0.000431,0.014691
8779000,0.0324,0.013523,0.002678,0.000431,0.015161
8780000,0.0324,0.013523,0.002678,0.000431,0.015279
8781000,0.0324,0.013523,0.002678,0.000431,0.015279
8782000,0.0324,0.013523,0.002678,0.000431,0.014691
8783000,0.0324,0.013523,0.002678,0.000431,0.014103
8784000,0.0324,0.013523,0.002678,0.000431,0.015044
8785000,0.0324,0.013523,0.002678,0.000431,0.016454
8786000,0.0324,0.013523,0.002678,0.000431,0.014926
8787000,0.0324,0.013523,0.002678,0.000431,0.013398
8788000,0.0324,0.013523,0.002678,0.000431,0.014691
8789000,0.0324,0.013523,0.002678,0.000431,0.013868
8790000,0.0324,0.013523,0.002678,0.000431,0.016101
8791000,0.0324,0.013523,0.002678,0.000431,0.014691
8792000,0.0324,0.013523,0.002678,0.000431,0.014691
8793000,0.0324,0.013523,0.002678,0.000431,0.014573
8794000,0.0324,0.013523,0.002678,0.000431,0.014809
8795000,0.0324,0.013523,0.002678,0.000431,0.015514
8796000,0.0324,0.013523,0.002678,0.000431,0.014691
8797000,0.0324,0.013523,0.002678,0.000431,0.015161
8798000,0.0324,0.013523,0.002678,0.000431,0.014809
8799000,0.0324,0.013523,0.002678,0.000431,0.014456
8800000,0.0324,0.013523,0.002678,0.000431,0.016219
8801000,0.0324,0.013523,0.002678,0.000431,0.014573
8802000,0.0324,0.013523,0.002678,0.000431,0.013398
8803000,0.0324,0.013523,0.002678,0.000431,0.014691
8804000,0.0324,0.013523,0.002678,0.000431,0.013868
8805000,0.0324,0.013523,0.002678,0.000431,0.015044
8806000,0.0324,0.013523,0.002678,0.000431,0.016571
8807000,0.0324,0.013523,0.002678,0.000431,0.013633
8808000,0.0324,0.013523,0.002678,0.000431,0.015749
8809000,0.0324,0.013523,0.002678,0.000431,0.015396
8810000,0.0324,0.013523,0.002678,0.000431,0.014691
8811000,0.0324,0.013523,0.002678,0.000431,0.014103
8812000,0.0324,0.013523,0.002678,0.000431,0.016924
8813000,0.0324,0.013523,0.002678,0.000431,0.013986
8814000,0.0324,0.013523,0.002678,0.000431,0.014573
8815000,0.0324,0.013523,0.002678,0.000431,0.016101
8816000,0.0324,0.013523,0.002678,0.000431,0.015396
8817000,0.0324,0.013523,0.002678,0.000431,0.015396
8818000,0.0324,0.013523,0.002678,0.000431,0.015984
8819000,0.0324,0.013523,0.002678,0.000431,0.014338
8820000,0.0324,0.013523,0.002678,0.000431,0.014221
8821000,0.0324,0.013523,0.002678,0.000431,0.016101
8822000,0.0324,0.013523,0.002678,0.000431,0.014809
8823000,0.0324,0.013523,0.002678,0.000431,0.014573
8824000,0.0324,0.013523,0.002678,0.000431,0.015514
8825000,0.0324,0.013523,0.002678,0.000431,0.013986
8826000,0.0324,0.013523,0.002678,0.000431,0.015396
8827000,0.0324,0.013523,0.002678,0.000431,0.015161
8828000,0.0324,0.013523,0.002678,0.000431,0.015279
8829000,0.0324,0.013523,0.002678,0.000431,0.013163
8830000,0.0324,0.013523,0.002678,0.000431,0.016219
8831000,0.0324,0.013523,0.002678,0.000431,0.015044
8832000,0.0324,0.013523,0.002678,0.000431,0.015396
8833000,0.0324,0.013523,0.002678,0.000431,0.016336
8834000,0.0324,0.013523,0.002678,0.000431,0.013633
8835000,0.0324,0.013523,0.002678,0.000431,0.014338
8836000,0.0324,0.013523,0.002678,0.000431,0.015984
8837000,0.0324,0.013523,0.002678,0.000431,0.015279
8838000,0.0324,0.013523,0.002678,0.000431,0.014809
8839000,0.0324,0.013523,0.002678,0.000431,0.013163
8840000,0.0324,0.013523,0.002678,0.000431,0.015631
8841000,0.0324,0.013523,0.002678,0.000431,0.014691
8842000,0.0324,0.013523,0.002678,0.000431,0.015866
8843000,0.0324,0.013523,0.002678,0.000431,0.014926
8844000,0.0324,0.013523,0.002678,0.000431,0.014338
8845000,0.0324,0.013523,0.002678,0.000431,0.013281
8846000,0.0324,0.013523,0.002678,0.000431,0.015984
8847000,0.0324,0.013523,0.002678,0.000431,0.014691
8848000,0.0324,0.013523,0.002678,0.000431,0.014103
8849000,0.0324,0.013523,0.002678,0.000431,0.013516
8850000,0.0324,0.013523,0.002678,0.000431,0.013868
8851000,0.0324,0.013523,0.002678,0.000431,0.014573
8852000,0.0324,0.013523,0.002678,0.000431,0.016336
8853000,0.0324,0.013523,0.002678,0.000431,0.013633
8854000,0.0324,0.013523,0.002678,0.000431,0.015984
8855000,0.0324,0.013523,0.002678,0.000431,0.016454
8856000,0.0324,0.013523,0.002678,0.000431,0.015161
8857000,0.0324,0.013523,0.002678,0.000431,0.015161
8858000,0.0324,0.013523,0.002678,0.000431,0.014456
8859000,0.0324,0.013523,0.002678,0.000431,0.013868
8860000,0.0324,0.013523,0.002678,0.000431,0.014809
8861000,0.0324,0.013523,0.002678,0.000431,0.014691
8862000,0.0324,0.013523,0.002678,0.000431,0.016101
8863000,0.0324,0.013523,0.002678,0.000431,0.014221
8864000,0.0324,0.013523,0.002678,0.000431,0.014809
8865000,0.0324,0.013523,0.002678,0.000431,0.014338
8866000,0.0324,0.013523,0.002678,0.000431,0.016101
8867000,0.0324,0.013523,0.002678,0.000431,0.015279
8868000,0.0324,0.013523,0.002678,0.000431,0.014103
8869000,0.0324,0.013523,0.002678,0.000431,0.014103
8870000,0.0324,0.013523,0.002678,0.000431,0.015514
8871000,0.0324,0.013523,0.002678,0.000431,0.014338
8872000,0.0324,0.013523,0.002678,0.000431,0.015866
8873000,0.0324,0.013523,0.002678,0.000431,0.014456
8874000,0.0324,0.013523,0.002678,0.000431,0.015749
8875000,0.0324,0.013523,0.002678,0.000431,0.013868
8876000,0.0324,0.013523,0.002678,0.000431,0.016219
8877000,0.0324,0.013523,0.002678,0.000431,0.015044
8878000,0.0324,0.013523,0.002678,0.000431,0.014338
8879000,0.0324,0.013523,0.002678,0.000431,0.014338
8880000,0.0324,0.013523,0.002678,0.000431,0.014691
8881000,0.0324,0.013523,0.002678,0.000431,0.013751
8882000,0.0324,0.013523,0.002678,0.000431,0.014809
8883000,0.0324,0.013523,0.002678,0.000431,0.014573
8884000,0.0324,0.013523,0.002678,0.000431,0.015044
8885000,0.0324,0.013523,0.002678,0.000431,0.014926
8886000,0.0324,0.013523,0.002678,0.000431,0.014573
8887000,0.0324,0.013523,0.002678,0.000431,0.015514
8888000,0.0324,0.013523,0.002678,0.000431,0.014573
8889000,0.0324,0.013523,0.002678,0.000431,0.014926
8890000,0.0324,0.013523,0.002678,0.000431,0.014926
8891000,0.0324,0.013523,0.002678,0.000431,0.015631
8892000,0.0324,0.013523,0.002678,0.000431,0.014573
8893000,0.0324,0.013523,0.002678,0.000431,0.013986
8894000,0.0324,0.013523,0.002678,0.000431,0.016571
8895000,0.0324,0.013523,0.002678,0.000431,0.015161
8896000,0.0324,0.013523,0.002678,0.000431,0.013633
8897000,0.0324,0.013523,0.002678,0.000431,0.016807
8898000,0.0324,0.013523,0.002678,0.000431,0.014809
8899000,0.0324,0.013523,0.002678,0.000431,0.015161
8900000,0.0324,0.013523,0.002678,0.000431,0.014809
8901000,0.0324,0.013523,0.002678,0.000431,0.012928
8902000,0.0324,0.013523,0.002678,0.000431,0.016336
8903000,0.0324,0.013523,0.002678,0.000431,0.014691
8904000,0.0324,0.013523,0.002678,0.000431,0.014573
8905000,0.0324,0.013523,0.002678,0.000431,0.014691
8906000,0.0324,0.013523,0.002678,0.000431,0.013986
8907000,0.0324,0.013523,0.002678,0.000431,0.016336
8908000,0.0324,0.013523,0.002678,0.000431,0.014456
8909000,0.0324,0.013523,0.002678,0.000431,0.014456
8910000,0.0324,0.013523,0.002678,0.000431,0.014691
8911000,0.0324,0.013523,0.002678,0.000431,0.015044
8912000,0.0324,0.013523,0.002678,0.000431,0.015396
8913000,0.0324,0.013523,0.002678,0.000431,0.014456
8914000,0.0324,0.013523,0.002678,0.000431,0.014926
8915000,0.0324,0.013523,0.002678,0.000431,0.015279
8916000,0.0324,0.013523,0.002678,0.000431,0.015161
8917000,0.0324,0.013523,0.002678,0.000431,0.014809
8918000,0.0324,0.013523,0.002678,0.000431,0.015514
8919000,0.0324,0.013523,0.002678,0.000431,0.014456
8920000,0.0324,0.013523,0.002678,0.000431,0.014573
8921000,0.0324,0.013523,0.002678,0.000431,0.015631
8922000,0.0324,0.013523,0.002678,0.000431,0.015279
8923000,0.0324,0.013523,0.002678,0.000431,0.014456
8924000,0.0324,0.013523,0.002678,0.000431,0.015631
8925000,0.0324,0.013523,0.002678,0.000431,0.014691
8926000,0.0324,0.013523,0.002678,0.000431,0.013986
8927000,0.0324,0.013523,0.002678,0.000431,0.014573
8928000,0.0324,0.013523,0.002678,0.000431,0.015984
8929000,0.0324,0.013523,0.002678,0.000431,0.015514
8930000,0.0324,0.013523,0.002678,0.000431,0.013633
8931000,0.0324,0.013523,0.002678,0.000431,0.013986
8932000,0.0324,0.013523,0.002678,0.000431,0.014103
8933000,0.0324,0.013523,0.002678,0.000431,0.016336
8934000,0.0324,0.013523,0.002678,0.000431,0.013986
8935000,0.0324,0.013523,0.002678,0.000431,0.014691
8936000,0.0324,0.013523,0.002678,0.000431,0.014926
8937000,0.0324,0.013523,0.002678,0.000431,0.014573
8938000,0.0324,0.013523,0.002678,0.000431,0.015749
8939000,0.0324,0.013523,0.002678,0.000431,0.015161
8940000,0.0324,0.013523,0.002678,0.000431,0.014809
8941000,0.0324,0.013523,0.002678,0.000431,0.013868
8942000,0.0324,0.013523,0.002678,0.000431,0.015279
8943000,0.0324,0.013523,0.002678,0.000431,0.015984
8944000,0.0324,0.013523,0.002678,0.000431,0.015631
8945000,0.0324,0.013523,0.002678,0.000431,0.014103
8946000,0.0324,0.013523,0.002678,0.000431,0.014221
8947000,0.0324,0.013523,0.002678,0.000431,0.015044
8948000,0.0324,0.013523,0.002678,0.000431,0.016101
8949000,0.0324,0.013523,0.002678,0.000431,0.014456
8950000,0.0324,0.013523,0.002678,0.000431,0.014456
8951000,0.0324,0.013523,0.002678,0.000431,0.015161
8952000,0.0324,0.013523,0.002678,0.000431,0.013633
8953000,0.0324,0.013523,0.002678,0.000431,0.015396
8954000,0.0324,0.013523,0.002678,0.000431,0.014809
8955000,0.0324,0.013523,0.002678,0.000431,0.013516
8956000,0.0324,0.013523,0.002678,0.000431,0.014456
8957000,0.0324,0.013523,0.002678,0.000431,0.014221
8958000,0.0324,0.013523,0.002678,0.000431,0.015279
8959000,0.0324,0.013523,0.002678,0.000431,0.014573
8960000,0.0324,0.013523,0.002678,0.000431,0.014809
8961000,0.0324,0.013523,0.002678,0.000431,0.013516
8962000,0.0324,0.013523,0.002678,0.000431,0.016219
8963000,0.0324,0.013523,0.002678,0.000431,0.014338
8964000,0.0324,0.013523,0.002678,0.000431,0.015044
8965000,0.0324,0.013523,0.002678,0.000431,0.015044
8966000,0.0324,0.013523,0.002678,0.000431,0.013633
8967000,0.0324,0.013523,0.002678,0.000431,0.013633
8968000,0.0324,0.013523,0.002678,0.000431,0.015396
8969000,0.0324,0.013523,0.002678,0.000431,0.015044
8970000,0.0324,0.013523,0.002678,0.000431,0.013633
8971000,0.0324,0.013523,0.002678,0.000431,0.013986
8972000,0.0324,0.013523,0.002678,0.000431,0.015866
8973000,0.0324,0.013523,0.002678,0.000431,0.015749
8974000,0.0324,0.013523,0.002678,0.000431,0.014338
8975000,0.0324,0.013523,0.002678,0.000431,0.015514
8976000,0.0324,0.013523,0.002678,0.000431,0.014691
8977000,0.0324,0.013523,0.002678,0.000431,0.014573
8978000,0.0324,0.013523,0.002678,0.000431,0.015749
8979000,0.0324,0.013523,0.002678,0.000431,0.014926
8980000,0.0324,0.013523,0.002678,0.000431,0.014573
8981000,0.0324,0.013523,0.002678,0.000431,0.014809
8982000,0.0324,0.013523,0.002678,0.000431,0.014338
8983000,0.0324,0.013523,0.002678,0.000431,0.015396
8984000,0.0324,0.013523,0.002678,0.000431,0.014691
8985000,0.0324,0.013523,0.002678,0.000431,0.015866
8986000,0.0324,0.013523,0.002678,0.000431,0.014456
8987000,0.0324,0.013523,0.002678,0.000431,0.015044
8988000,0.0324,0.013523,0.002678,0.000431,0.015866
8989000,0.0324,0.013523,0.002678,0.000431,0.015044
8990000,0.0324,0.013523,0.002678,0.000431,0.015866
8991000,0.0324,0.013523,0.002678,0.000431,0.013633
8992000,0.0324,0.013523,0.002678,0.000431,0.015279
8993000,0.0324,0.013523,0.002678,0.000431,0.015749
8994000,0.0324,0.013523,0.002678,0.000431,0.014691
8995000,0.0324,0.013523,0.002678,0.000431,0.014338
8996000,0.0324,0.013523,0.002678,0.000431,0.016219
8997000,0.0324,0.013523,0.002678,0.000431,0.013163
8998000,0.0324,0.013523,0.002678,0.000431,0.013516
8999000,0.0324,0.013523,0.002678,0.000431,0.016219
