Cycle,Area(mm^2),PeakDynamic(W),SubthresholdLeakage(W),GateLeakage(W),RunTimeDynamic(W)
19000000,0.0324,0.013523,0.002678,0.000431,0.000353
19001000,0.0324,0.013523,0.002678,0.000431,0.000235
19002000,0.0324,0.013523,0.002678,0.000431,0.000353
19003000,0.0324,0.013523,0.002678,0.000431,0.000470
19004000,0.0324,0.013523,0.002678,0.000431,0.000235
19005000,0.0324,0.013523,0.002678,0.000431,0.000235
19006000,0.0324,0.013523,0.002678,0.000431,0.000470
19007000,0.0324,0.013523,0.002678,0.000431,0.000353
19008000,0.0324,0.013523,0.002678,0.000431,0.000235
19009000,0.0324,0.013523,0.002678,0.000431,0.000353
19010000,0.0324,0.013523,0.002678,0.000431,0.000470
19011000,0.0324,0.013523,0.002678,0.000431,0.000235
19012000,0.0324,0.013523,0.002678,0.000431,0.000235
19013000,0.0324,0.013523,0.002678,0.000431,0.000470
19014000,0.0324,0.013523,0.002678,0.000431,0.000353
19015000,0.0324,0.013523,0.002678,0.000431,0.000235
19016000,0.0324,0.013523,0.002678,0.000431,0.000353
19017000,0.0324,0.013523,0.002678,0.000431,0.000470
19018000,0.0324,0.013523,0.002678,0.000431,0.000235
19019000,0.0324,0.013523,0.002678,0.000431,0.000235
19020000,0.0324,0.013523,0.002678,0.000431,0.000470
19021000,0.0324,0.013523,0.002678,0.000431,0.000353
19022000,0.0324,0.013523,0.002678,0.000431,0.000235
19023000,0.0324,0.013523,0.002678,0.000431,0.000353
19024000,0.0324,0.013523,0.002678,0.000431,0.000470
19025000,0.0324,0.013523,0.002678,0.000431,0.000235
19026000,0.0324,0.013523,0.002678,0.000431,0.000235
19027000,0.0324,0.013523,0.002678,0.000431,0.000470
19028000,0.0324,0.013523,0.002678,0.000431,0.000353
19029000,0.0324,0.013523,0.002678,0.000431,0.000235
19030000,0.0324,0.013523,0.002678,0.000431,0.000353
19031000,0.0324,0.013523,0.002678,0.000431,0.000470
19032000,0.0324,0.013523,0.002678,0.000431,0.000118
19033000,0.0324,0.013523,0.002678,0.000431,0.000353
19034000,0.0324,0.013523,0.002678,0.000431,0.000470
19035000,0.0324,0.013523,0.002678,0.000431,0.000353
19036000,0.0324,0.013523,0.002678,0.000431,0.000235
19037000,0.0324,0.013523,0.002678,0.000431,0.000353
19038000,0.0324,0.013523,0.002678,0.000431,0.000470
19039000,0.0324,0.013523,0.002678,0.000431,0.000118
19040000,0.0324,0.013523,0.002678,0.000431,0.000353
19041000,0.0324,0.013523,0.002678,0.000431,0.000470
19042000,0.0324,0.013523,0.002678,0.000431,0.000353
19043000,0.0324,0.013523,0.002678,0.000431,0.000235
19044000,0.0324,0.013523,0.002678,0.000431,0.000353
19045000,0.0324,0.013523,0.002678,0.000431,0.000470
19046000,0.0324,0.013523,0.002678,0.000431,0.000118
19047000,0.0324,0.013523,0.002678,0.000431,0.000353
19048000,0.0324,0.013523,0.002678,0.000431,0.000470
19049000,0.0324,0.013523,0.002678,0.000431,0.000353
19050000,0.0324,0.013523,0.002678,0.000431,0.000235
19051000,0.0324,0.013523,0.002678,0.000431,0.000353
19052000,0.0324,0.013523,0.002678,0.000431,0.000353
19053000,0.0324,0.013523,0.002678,0.000431,0.000235
19054000,0.0324,0.013523,0.002678,0.000431,0.000353
19055000,0.0324,0.013523,0.002678,0.000431,0.000470
19056000,0.0324,0.013523,0.002678,0.000431,0.000353
19057000,0.0324,0.013523,0.002678,0.000431,0.000235
19058000,0.0324,0.013523,0.002678,0.000431,0.000353
19059000,0.0324,0.013523,0.002678,0.000431,0.000353
19060000,0.0324,0.013523,0.002678,0.000431,0.000235
19061000,0.0324,0.013523,0.002678,0.000431,0.000353
19062000,0.0324,0.013523,0.002678,0.000431,0.000470
19063000,0.0324,0.013523,0.002678,0.000431,0.000353
19064000,0.0324,0.013523,0.002678,0.000431,0.000235
19065000,0.0324,0.013523,0.002678,0.000431,0.000353
19066000,0.0324,0.013523,0.002678,0.000431,0.000353
19067000,0.0324,0.013523,0.002678,0.000431,0.000235
19068000,0.0324,0.013523,0.002678,0.000431,0.000353
19069000,0.0324,0.013523,0.002678,0.000431,0.000470
19070000,0.0324,0.013523,0.002678,0.000431,0.000353
19071000,0.0324,0.013523,0.002678,0.000431,0.000235
19072000,0.0324,0.013523,0.002678,0.000431,0.000353
19073000,0.0324,0.013523,0.002678,0.000431,0.000353
19074000,0.0324,0.013523,0.002678,0.000431,0.000235
19075000,0.0324,0.013523,0.002678,0.000431,0.000353
19076000,0.0324,0.013523,0.002678,0.000431,0.000470
19077000,0.0324,0.013523,0.002678,0.000431,0.000353
19078000,0.0324,0.013523,0.002678,0.000431,0.000235
19079000,0.0324,0.013523,0.002678,0.000431,0.000353
19080000,0.0324,0.013523,0.002678,0.000431,0.000353
19081000,0.0324,0.013523,0.002678,0.000431,0.000235
19082000,0.0324,0.013523,0.002678,0.000431,0.000353
19083000,0.0324,0.013523,0.002678,0.000431,0.000470
19084000,0.0324,0.013523,0.002678,0.000431,0.000353
19085000,0.0324,0.013523,0.002678,0.000431,0.000235
19086000,0.0324,0.013523,0.002678,0.000431,0.000353
19087000,0.0324,0.013523,0.002678,0.000431,0.000353
19088000,0.0324,0.013523,0.002678,0.000431,0.000235
19089000,0.0324,0.013523,0.002678,0.000431,0.000353
19090000,0.0324,0.013523,0.002678,0.000431,0.000470
19091000,0.0324,0.013523,0.002678,0.000431,0.000353
19092000,0.0324,0.013523,0.002678,0.000431,0.000235
19093000,0.0324,0.013523,0.002678,0.000431,0.000353
19094000,0.0324,0.013523,0.002678,0.000431,0.000353
19095000,0.0324,0.013523,0.002678,0.000431,0.000235
19096000,0.0324,0.013523,0.002678,0.000431,0.000353
19097000,0.0324,0.013523,0.002678,0.000431,0.000470
19098000,0.0324,0.013523,0.002678,0.000431,0.000353
19099000,0.0324,0.013523,0.002678,0.000431,0.000235
19100000,0.0324,0.013523,0.002678,0.000431,0.000353
19101000,0.0324,0.013523,0.002678,0.000431,0.000353
19102000,0.0324,0.013523,0.002678,0.000431,0.000235
19103000,0.0324,0.013523,0.002678,0.000431,0.000353
19104000,0.0324,0.013523,0.002678,0.000431,0.000470
19105000,0.0324,0.013523,0.002678,0.000431,0.000353
19106000,0.0324,0.013523,0.002678,0.000431,0.000118
19107000,0.0324,0.013523,0.002678,0.000431,0.000470
19108000,0.0324,0.013523,0.002678,0.000431,0.000353
19109000,0.0324,0.013523,0.002678,0.000431,0.000235
19110000,0.0324,0.013523,0.002678,0.000431,0.000353
19111000,0.0324,0.013523,0.002678,0.000431,0.000470
19112000,0.0324,0.013523,0.002678,0.000431,0.000353
19113000,0.0324,0.013523,0.002678,0.000431,0.000118
19114000,0.0324,0.013523,0.002678,0.000431,0.000470
19115000,0.0324,0.013523,0.002678,0.000431,0.000353
19116000,0.0324,0.013523,0.002678,0.000431,0.000235
19117000,0.0324,0.013523,0.002678,0.000431,0.000353
19118000,0.0324,0.013523,0.002678,0.000431,0.000470
19119000,0.0324,0.013523,0.002678,0.000431,0.000353
19120000,0.0324,0.013523,0.002678,0.000431,0.000118
19121000,0.0324,0.013523,0.002678,0.000431,0.000470
19122000,0.0324,0.013523,0.002678,0.000431,0.000353
19123000,0.0324,0.013523,0.002678,0.000431,0.000235
19124000,0.0324,0.013523,0.002678,0.000431,0.000353
19125000,0.0324,0.013523,0.002678,0.000431,0.000470
19126000,0.0324,0.013523,0.002678,0.000431,0.000235
19127000,0.0324,0.013523,0.002678,0.000431,0.000235
19128000,0.0324,0.013523,0.002678,0.000431,0.000470
19129000,0.0324,0.013523,0.002678,0.000431,0.000353
19130000,0.0324,0.013523,0.002678,0.000431,0.000235
19131000,0.0324,0.013523,0.002678,0.000431,0.000353
19132000,0.0324,0.013523,0.002678,0.000431,0.000470
19133000,0.0324,0.013523,0.002678,0.000431,0.000235
19134000,0.0324,0.013523,0.002678,0.000431,0.000235
19135000,0.0324,0.013523,0.002678,0.000431,0.000470
19136000,0.0324,0.013523,0.002678,0.000431,0.000353
19137000,0.0324,0.013523,0.002678,0.000431,0.000235
19138000,0.0324,0.013523,0.002678,0.000431,0.000353
19139000,0.0324,0.013523,0.002678,0.000431,0.000470
19140000,0.0324,0.013523,0.002678,0.000431,0.000235
19141000,0.0324,0.013523,0.002678,0.000431,0.000235
19142000,0.0324,0.013523,0.002678,0.000431,0.000470
19143000,0.0324,0.013523,0.002678,0.000431,0.000353
19144000,0.0324,0.013523,0.002678,0.000431,0.000235
19145000,0.0324,0.013523,0.002678,0.000431,0.000353
19146000,0.0324,0.013523,0.002678,0.000431,0.000470
19147000,0.0324,0.013523,0.002678,0.000431,0.000235
19148000,0.0324,0.013523,0.002678,0.000431,0.000235
19149000,0.0324,0.013523,0.002678,0.000431,0.000470
19150000,0.0324,0.013523,0.002678,0.000431,0.000353
19151000,0.0324,0.013523,0.002678,0.000431,0.000235
19152000,0.0324,0.013523,0.002678,0.000431,0.000353
19153000,0.0324,0.013523,0.002678,0.000431,0.000470
19154000,0.0324,0.013523,0.002678,0.000431,0.000235
19155000,0.0324,0.013523,0.002678,0.000431,0.000235
19156000,0.0324,0.013523,0.002678,0.000431,0.000470
19157000,0.0324,0.013523,0.002678,0.000431,0.000353
19158000,0.0324,0.013523,0.002678,0.000431,0.000235
19159000,0.0324,0.013523,0.002678,0.000431,0.000353
19160000,0.0324,0.013523,0.002678,0.000431,0.000470
19161000,0.0324,0.013523,0.002678,0.000431,0.000235
19162000,0.0324,0.013523,0.002678,0.000431,0.000235
19163000,0.0324,0.013523,0.002678,0.000431,0.000470
19164000,0.0324,0.013523,0.002678,0.000431,0.000353
19165000,0.0324,0.013523,0.002678,0.000431,0.000235
19166000,0.0324,0.013523,0.002678,0.000431,0.000353
19167000,0.0324,0.013523,0.002678,0.000431,0.000470
19168000,0.0324,0.013523,0.002678,0.000431,0.000118
19169000,0.0324,0.013523,0.002678,0.000431,0.000353
19170000,0.0324,0.013523,0.002678,0.000431,0.000470
19171000,0.0324,0.013523,0.002678,0.000431,0.000353
19172000,0.0324,0.013523,0.002678,0.000431,0.000235
19173000,0.0324,0.013523,0.002678,0.000431,0.000353
19174000,0.0324,0.013523,0.002678,0.000431,0.000470
19175000,0.0324,0.013523,0.002678,0.000431,0.000118
19176000,0.0324,0.013523,0.002678,0.000431,0.000353
19177000,0.0324,0.013523,0.002678,0.000431,0.000470
19178000,0.0324,0.013523,0.002678,0.000431,0.000353
19179000,0.0324,0.013523,0.002678,0.000431,0.000235
19180000,0.0324,0.013523,0.002678,0.000431,0.000353
19181000,0.0324,0.013523,0.002678,0.000431,0.000353
19182000,0.0324,0.013523,0.002678,0.000431,0.000235
19183000,0.0324,0.013523,0.002678,0.000431,0.000353
19184000,0.0324,0.013523,0.002678,0.000431,0.000470
19185000,0.0324,0.013523,0.002678,0.000431,0.000353
19186000,0.0324,0.013523,0.002678,0.000431,0.000235
19187000,0.0324,0.013523,0.002678,0.000431,0.000353
19188000,0.0324,0.013523,0.002678,0.000431,0.000353
19189000,0.0324,0.013523,0.002678,0.000431,0.000235
19190000,0.0324,0.013523,0.002678,0.000431,0.000353
19191000,0.0324,0.013523,0.002678,0.000431,0.000470
19192000,0.0324,0.013523,0.002678,0.000431,0.000353
19193000,0.0324,0.013523,0.002678,0.000431,0.000118
19194000,0.0324,0.013523,0.002678,0.000431,0.000470
19195000,0.0324,0.013523,0.002678,0.000431,0.000353
19196000,0.0324,0.013523,0.002678,0.000431,0.000235
19197000,0.0324,0.013523,0.002678,0.000431,0.000353
19198000,0.0324,0.013523,0.002678,0.000431,0.000470
19199000,0.0324,0.013523,0.002678,0.000431,0.000353
19200000,0.0324,0.013523,0.002678,0.000431,0.000118
19201000,0.0324,0.013523,0.002678,0.000431,0.000470
19202000,0.0324,0.013523,0.002678,0.000431,0.000353
19203000,0.0324,0.013523,0.002678,0.000431,0.000235
19204000,0.0324,0.013523,0.002678,0.000431,0.000353
19205000,0.0324,0.013523,0.002678,0.000431,0.000470
19206000,0.0324,0.013523,0.002678,0.000431,0.000235
19207000,0.0324,0.013523,0.002678,0.000431,0.000235
19208000,0.0324,0.013523,0.002678,0.000431,0.000470
19209000,0.0324,0.013523,0.002678,0.000431,0.000353
19210000,0.0324,0.013523,0.002678,0.000431,0.000235
19211000,0.0324,0.013523,0.002678,0.000431,0.000353
19212000,0.0324,0.013523,0.002678,0.000431,0.000470
19213000,0.0324,0.013523,0.002678,0.000431,0.000118
19214000,0.0324,0.013523,0.002678,0.000431,0.000353
19215000,0.0324,0.013523,0.002678,0.000431,0.000470
19216000,0.0324,0.013523,0.002678,0.000431,0.000353
19217000,0.0324,0.013523,0.002678,0.000431,0.000235
19218000,0.0324,0.013523,0.002678,0.000431,0.000353
19219000,0.0324,0.013523,0.002678,0.000431,0.000353
19220000,0.0324,0.013523,0.002678,0.000431,0.000235
19221000,0.0324,0.013523,0.002678,0.000431,0.000353
19222000,0.0324,0.013523,0.002678,0.000431,0.000470
19223000,0.0324,0.013523,0.002678,0.000431,0.000353
19224000,0.0324,0.013523,0.002678,0.000431,0.000235
19225000,0.0324,0.013523,0.002678,0.000431,0.000353
19226000,0.0324,0.013523,0.002678,0.000431,0.000353
19227000,0.0324,0.013523,0.002678,0.000431,0.000235
19228000,0.0324,0.013523,0.002678,0.000431,0.000353
19229000,0.0324,0.013523,0.002678,0.000431,0.000470
19230000,0.0324,0.013523,0.002678,0.000431,0.000353
19231000,0.0324,0.013523,0.002678,0.000431,0.000235
19232000,0.0324,0.013523,0.002678,0.000431,0.000353
19233000,0.0324,0.013523,0.002678,0.000431,0.000353
19234000,0.0324,0.013523,0.002678,0.000431,0.000235
19235000,0.0324,0.013523,0.002678,0.000431,0.000353
19236000,0.0324,0.013523,0.002678,0.000431,0.000470
19237000,0.0324,0.013523,0.002678,0.000431,0.000353
19238000,0.0324,0.013523,0.002678,0.000431,0.000118
19239000,0.0324,0.013523,0.002678,0.000431,0.000470
19240000,0.0324,0.013523,0.002678,0.000431,0.000353
19241000,0.0324,0.013523,0.002678,0.000431,0.000235
19242000,0.0324,0.013523,0.002678,0.000431,0.000353
19243000,0.0324,0.013523,0.002678,0.000431,0.000470
19244000,0.0324,0.013523,0.002678,0.000431,0.000235
19245000,0.0324,0.013523,0.002678,0.000431,0.000235
19246000,0.0324,0.013523,0.002678,0.000431,0.000470
19247000,0.0324,0.013523,0.002678,0.000431,0.000353
19248000,0.0324,0.013523,0.002678,0.000431,0.000235
19249000,0.0324,0.013523,0.002678,0.000431,0.000353
19250000,0.0324,0.013523,0.002678,0.000431,0.000470
19251000,0.0324,0.013523,0.002678,0.000431,0.000235
19252000,0.0324,0.013523,0.002678,0.000431,0.000235
19253000,0.0324,0.013523,0.002678,0.000431,0.000470
19254000,0.0324,0.013523,0.002678,0.000431,0.000353
19255000,0.0324,0.013523,0.002678,0.000431,0.000235
19256000,0.0324,0.013523,0.002678,0.000431,0.000353
19257000,0.0324,0.013523,0.002678,0.000431,0.000470
19258000,0.0324,0.013523,0.002678,0.000431,0.000118
19259000,0.0324,0.013523,0.002678,0.000431,0.000353
19260000,0.0324,0.013523,0.002678,0.000431,0.000470
19261000,0.0324,0.013523,0.002678,0.000431,0.000353
19262000,0.0324,0.013523,0.002678,0.000431,0.000235
19263000,0.0324,0.013523,0.002678,0.000431,0.000353
19264000,0.0324,0.013523,0.002678,0.000431,0.000353
19265000,0.0324,0.013523,0.002678,0.000431,0.000235
19266000,0.0324,0.013523,0.002678,0.000431,0.000353
19267000,0.0324,0.013523,0.002678,0.000431,0.000470
19268000,0.0324,0.013523,0.002678,0.000431,0.000353
19269000,0.0324,0.013523,0.002678,0.000431,0.000235
19270000,0.0324,0.013523,0.002678,0.000431,0.000353
19271000,0.0324,0.013523,0.002678,0.000431,0.000353
19272000,0.0324,0.013523,0.002678,0.000431,0.000235
19273000,0.0324,0.013523,0.002678,0.000431,0.000353
19274000,0.0324,0.013523,0.002678,0.000431,0.000470
19275000,0.0324,0.013523,0.002678,0.000431,0.000353
19276000,0.0324,0.013523,0.002678,0.000431,0.000118
19277000,0.0324,0.013523,0.002678,0.000431,0.000470
19278000,0.0324,0.013523,0.002678,0.000431,0.000353
19279000,0.0324,0.013523,0.002678,0.000431,0.000235
19280000,0.0324,0.013523,0.002678,0.000431,0.000353
19281000,0.0324,0.013523,0.002678,0.000431,0.000470
19282000,0.0324,0.013523,0.002678,0.000431,0.000353
19283000,0.0324,0.013523,0.002678,0.000431,0.000118
19284000,0.0324,0.013523,0.002678,0.000431,0.000470
19285000,0.0324,0.013523,0.002678,0.000431,0.000353
19286000,0.0324,0.013523,0.002678,0.000431,0.000235
19287000,0.0324,0.013523,0.002678,0.000431,0.000353
19288000,0.0324,0.013523,0.002678,0.000431,0.000470
19289000,0.0324,0.013523,0.002678,0.000431,0.000235
19290000,0.0324,0.013523,0.002678,0.000431,0.000235
19291000,0.0324,0.013523,0.002678,0.000431,0.000470
19292000,0.0324,0.013523,0.002678,0.000431,0.000353
19293000,0.0324,0.013523,0.002678,0.000431,0.000235
19294000,0.0324,0.013523,0.002678,0.000431,0.000353
19295000,0.0324,0.013523,0.002678,0.000431,0.000470
19296000,0.0324,0.013523,0.002678,0.000431,0.000235
19297000,0.0324,0.013523,0.002678,0.000431,0.000235
19298000,0.0324,0.013523,0.002678,0.000431,0.000470
19299000,0.0324,0.013523,0.002678,0.000431,0.000353
19300000,0.0324,0.013523,0.002678,0.000431,0.000235
19301000,0.0324,0.013523,0.002678,0.000431,0.000353
19302000,0.0324,0.013523,0.002678,0.000431,0.000353
19303000,0.0324,0.013523,0.002678,0.000431,0.000235
19304000,0.0324,0.013523,0.002678,0.000431,0.000353
19305000,0.0324,0.013523,0.002678,0.000431,0.000470
19306000,0.0324,0.013523,0.002678,0.000431,0.000353
19307000,0.0324,0.013523,0.002678,0.000431,0.000235
19308000,0.0324,0.013523,0.002678,0.000431,0.000353
19309000,0.0324,0.013523,0.002678,0.000431,0.000353
19310000,0.0324,0.013523,0.002678,0.000431,0.000235
19311000,0.0324,0.013523,0.002678,0.000431,0.000353
19312000,0.0324,0.013523,0.002678,0.000431,0.000470
19313000,0.0324,0.013523,0.002678,0.000431,0.000353
19314000,0.0324,0.013523,0.002678,0.000431,0.000235
19315000,0.0324,0.013523,0.002678,0.000431,0.000353
19316000,0.0324,0.013523,0.002678,0.000431,0.000353
19317000,0.0324,0.013523,0.002678,0.000431,0.000235
19318000,0.0324,0.013523,0.002678,0.000431,0.000353
19319000,0.0324,0.013523,0.002678,0.000431,0.000470
19320000,0.0324,0.013523,0.002678,0.000431,0.000353
19321000,0.0324,0.013523,0.002678,0.000431,0.000235
19322000,0.0324,0.013523,0.002678,0.000431,0.000353
19323000,0.0324,0.013523,0.002678,0.000431,0.000353
19324000,0.0324,0.013523,0.002678,0.000431,0.000235
19325000,0.0324,0.013523,0.002678,0.000431,0.000353
19326000,0.0324,0.013523,0.002678,0.000431,0.000470
19327000,0.0324,0.013523,0.002678,0.000431,0.000353
19328000,0.0324,0.013523,0.002678,0.000431,0.000235
19329000,0.0324,0.013523,0.002678,0.000431,0.000353
19330000,0.0324,0.013523,0.002678,0.000431,0.000353
19331000,0.0324,0.013523,0.002678,0.000431,0.000235
19332000,0.0324,0.013523,0.002678,0.000431,0.000353
19333000,0.0324,0.013523,0.002678,0.000431,0.000470
19334000,0.0324,0.013523,0.002678,0.000431,0.000353
19335000,0.0324,0.013523,0.002678,0.000431,0.000235
19336000,0.0324,0.013523,0.002678,0.000431,0.000353
19337000,0.0324,0.013523,0.002678,0.000431,0.000353
19338000,0.0324,0.013523,0.002678,0.000431,0.000235
19339000,0.0324,0.013523,0.002678,0.000431,0.000353
19340000,0.0324,0.013523,0.002678,0.000431,0.000470
19341000,0.0324,0.013523,0.002678,0.000431,0.000353
19342000,0.0324,0.013523,0.002678,0.000431,0.000235
19343000,0.0324,0.013523,0.002678,0.000431,0.000353
19344000,0.0324,0.013523,0.002678,0.000431,0.000353
19345000,0.0324,0.013523,0.002678,0.000431,0.000235
19346000,0.0324,0.013523,0.002678,0.000431,0.000353
19347000,0.0324,0.013523,0.002678,0.000431,0.000470
19348000,0.0324,0.013523,0.002678,0.000431,0.000353
19349000,0.0324,0.013523,0.002678,0.000431,0.000235
19350000,0.0324,0.013523,0.002678,0.000431,0.000353
19351000,0.0324,0.013523,0.002678,0.000431,0.000353
19352000,0.0324,0.013523,0.002678,0.000431,0.000235
19353000,0.0324,0.013523,0.002678,0.000431,0.000353
19354000,0.0324,0.013523,0.002678,0.000431,0.000470
19355000,0.0324,0.013523,0.002678,0.000431,0.000353
19356000,0.0324,0.013523,0.002678,0.000431,0.000118
19357000,0.0324,0.013523,0.002678,0.000431,0.000470
19358000,0.0324,0.013523,0.002678,0.000431,0.000353
19359000,0.0324,0.013523,0.002678,0.000431,0.000235
19360000,0.0324,0.013523,0.002678,0.000431,0.000353
19361000,0.0324,0.013523,0.002678,0.000431,0.000470
19362000,0.0324,0.013523,0.002678,0.000431,0.000353
19363000,0.0324,0.013523,0.002678,0.000431,0.000118
19364000,0.0324,0.013523,0.002678,0.000431,0.000470
19365000,0.0324,0.013523,0.002678,0.000431,0.000353
19366000,0.0324,0.013523,0.002678,0.000431,0.000235
19367000,0.0324,0.013523,0.002678,0.000431,0.000353
19368000,0.0324,0.013523,0.002678,0.000431,0.000470
19369000,0.0324,0.013523,0.002678,0.000431,0.000353
19370000,0.0324,0.013523,0.002678,0.000431,0.000118
19371000,0.0324,0.013523,0.002678,0.000431,0.000470
19372000,0.0324,0.013523,0.002678,0.000431,0.000353
19373000,0.0324,0.013523,0.002678,0.000431,0.000235
19374000,0.0324,0.013523,0.002678,0.000431,0.000353
19375000,0.0324,0.013523,0.002678,0.000431,0.000470
19376000,0.0324,0.013523,0.002678,0.000431,0.000235
19377000,0.0324,0.013523,0.002678,0.000431,0.000235
19378000,0.0324,0.013523,0.002678,0.000431,0.000470
19379000,0.0324,0.013523,0.002678,0.000431,0.000353
19380000,0.0324,0.013523,0.002678,0.000431,0.000235
19381000,0.0324,0.013523,0.002678,0.000431,0.000353
19382000,0.0324,0.013523,0.002678,0.000431,0.000470
19383000,0.0324,0.013523,0.002678,0.000431,0.000235
19384000,0.0324,0.013523,0.002678,0.000431,0.000235
19385000,0.0324,0.013523,0.002678,0.000431,0.000470
19386000,0.0324,0.013523,0.002678,0.000431,0.000353
19387000,0.0324,0.013523,0.002678,0.000431,0.000235
19388000,0.0324,0.013523,0.002678,0.000431,0.000353
19389000,0.0324,0.013523,0.002678,0.000431,0.000470
19390000,0.0324,0.013523,0.002678,0.000431,0.000235
19391000,0.0324,0.013523,0.002678,0.000431,0.000235
19392000,0.0324,0.013523,0.002678,0.000431,0.000470
19393000,0.0324,0.013523,0.002678,0.000431,0.000353
19394000,0.0324,0.013523,0.002678,0.000431,0.000235
19395000,0.0324,0.013523,0.002678,0.000431,0.000353
19396000,0.0324,0.013523,0.002678,0.000431,0.000470
19397000,0.0324,0.013523,0.002678,0.000431,0.000235
19398000,0.0324,0.013523,0.002678,0.000431,0.000235
19399000,0.0324,0.013523,0.002678,0.000431,0.000470
19400000,0.0324,0.013523,0.002678,0.000431,0.000353
19401000,0.0324,0.013523,0.002678,0.000431,0.000235
19402000,0.0324,0.013523,0.002678,0.000431,0.000353
19403000,0.0324,0.013523,0.002678,0.000431,0.000470
19404000,0.0324,0.013523,0.002678,0.000431,0.000235
19405000,0.0324,0.013523,0.002678,0.000431,0.000235
19406000,0.0324,0.013523,0.002678,0.000431,0.000470
19407000,0.0324,0.013523,0.002678,0.000431,0.000353
19408000,0.0324,0.013523,0.002678,0.000431,0.000235
19409000,0.0324,0.013523,0.002678,0.000431,0.000353
19410000,0.0324,0.013523,0.002678,0.000431,0.000470
19411000,0.0324,0.013523,0.002678,0.000431,0.000235
19412000,0.0324,0.013523,0.002678,0.000431,0.000235
19413000,0.0324,0.013523,0.002678,0.000431,0.000470
19414000,0.0324,0.013523,0.002678,0.000431,0.000353
19415000,0.0324,0.013523,0.002678,0.000431,0.000235
19416000,0.0324,0.013523,0.002678,0.000431,0.000353
19417000,0.0324,0.013523,0.002678,0.000431,0.000470
19418000,0.0324,0.013523,0.002678,0.000431,0.000118
19419000,0.0324,0.013523,0.002678,0.000431,0.000353
19420000,0.0324,0.013523,0.002678,0.000431,0.000470
19421000,0.0324,0.013523,0.002678,0.000431,0.000353
19422000,0.0324,0.013523,0.002678,0.000431,0.000235
19423000,0.0324,0.013523,0.002678,0.000431,0.000353
19424000,0.0324,0.013523,0.002678,0.000431,0.000470
19425000,0.0324,0.013523,0.002678,0.000431,0.000118
19426000,0.0324,0.013523,0.002678,0.000431,0.000353
19427000,0.0324,0.013523,0.002678,0.000431,0.000470
19428000,0.0324,0.013523,0.002678,0.000431,0.000353
19429000,0.0324,0.013523,0.002678,0.000431,0.000235
19430000,0.0324,0.013523,0.002678,0.000431,0.000353
19431000,0.0324,0.013523,0.002678,0.000431,0.000470
19432000,0.0324,0.013523,0.002678,0.000431,0.000118
19433000,0.0324,0.013523,0.002678,0.000431,0.000353
19434000,0.0324,0.013523,0.002678,0.000431,0.000470
19435000,0.0324,0.013523,0.002678,0.000431,0.000353
19436000,0.0324,0.013523,0.002678,0.000431,0.000235
19437000,0.0324,0.013523,0.002678,0.000431,0.000353
19438000,0.0324,0.013523,0.002678,0.000431,0.000470
19439000,0.0324,0.013523,0.002678,0.000431,0.000118
19440000,0.0324,0.013523,0.002678,0.000431,0.000353
19441000,0.0324,0.013523,0.002678,0.000431,0.000470
19442000,0.0324,0.013523,0.002678,0.000431,0.000353
19443000,0.0324,0.013523,0.002678,0.000431,0.000235
19444000,0.0324,0.013523,0.002678,0.000431,0.000353
19445000,0.0324,0.013523,0.002678,0.000431,0.000353
19446000,0.0324,0.013523,0.002678,0.000431,0.000235
19447000,0.0324,0.013523,0.002678,0.000431,0.000353
19448000,0.0324,0.013523,0.002678,0.000431,0.000470
19449000,0.0324,0.013523,0.002678,0.000431,0.000353
19450000,0.0324,0.013523,0.002678,0.000431,0.000235
19451000,0.0324,0.013523,0.002678,0.000431,0.000353
19452000,0.0324,0.013523,0.002678,0.000431,0.000353
19453000,0.0324,0.013523,0.002678,0.000431,0.000235
19454000,0.0324,0.013523,0.002678,0.000431,0.000353
19455000,0.0324,0.013523,0.002678,0.000431,0.000470
19456000,0.0324,0.013523,0.002678,0.000431,0.000353
19457000,0.0324,0.013523,0.002678,0.000431,0.000235
19458000,0.0324,0.013523,0.002678,0.000431,0.000353
19459000,0.0324,0.013523,0.002678,0.000431,0.000353
19460000,0.0324,0.013523,0.002678,0.000431,0.000235
19461000,0.0324,0.013523,0.002678,0.000431,0.000353
19462000,0.0324,0.013523,0.002678,0.000431,0.000470
19463000,0.0324,0.013523,0.002678,0.000431,0.000353
19464000,0.0324,0.013523,0.002678,0.000431,0.000235
19465000,0.0324,0.013523,0.002678,0.000431,0.000353
19466000,0.0324,0.013523,0.002678,0.000431,0.000353
19467000,0.0324,0.013523,0.002678,0.000431,0.000235
19468000,0.0324,0.013523,0.002678,0.000431,0.000353
19469000,0.0324,0.013523,0.002678,0.000431,0.000470
19470000,0.0324,0.013523,0.002678,0.000431,0.000235
19471000,0.0324,0.013523,0.002678,0.000431,0.000235
19472000,0.0324,0.013523,0.002678,0.000431,0.000470
19473000,0.0324,0.013523,0.002678,0.000431,0.000353
19474000,0.0324,0.013523,0.002678,0.000431,0.000235
19475000,0.0324,0.013523,0.002678,0.000431,0.000353
19476000,0.0324,0.013523,0.002678,0.000431,0.000470
19477000,0.0324,0.013523,0.002678,0.000431,0.000235
19478000,0.0324,0.013523,0.002678,0.000431,0.000235
19479000,0.0324,0.013523,0.002678,0.000431,0.000470
19480000,0.0324,0.013523,0.002678,0.000431,0.000353
19481000,0.0324,0.013523,0.002678,0.000431,0.000235
19482000,0.0324,0.013523,0.002678,0.000431,0.000353
19483000,0.0324,0.013523,0.002678,0.000431,0.000470
19484000,0.0324,0.013523,0.002678,0.000431,0.000118
19485000,0.0324,0.013523,0.002678,0.000431,0.000353
19486000,0.0324,0.013523,0.002678,0.000431,0.000470
19487000,0.0324,0.013523,0.002678,0.000431,0.000353
19488000,0.0324,0.013523,0.002678,0.000431,0.000235
19489000,0.0324,0.013523,0.002678,0.000431,0.000353
19490000,0.0324,0.013523,0.002678,0.000431,0.000353
19491000,0.0324,0.013523,0.002678,0.000431,0.000235
19492000,0.0324,0.013523,0.002678,0.000431,0.000353
19493000,0.0324,0.013523,0.002678,0.000431,0.000470
19494000,0.0324,0.013523,0.002678,0.000431,0.000353
19495000,0.0324,0.013523,0.002678,0.000431,0.000235
19496000,0.0324,0.013523,0.002678,0.000431,0.000353
19497000,0.0324,0.013523,0.002678,0.000431,0.000353
19498000,0.0324,0.013523,0.002678,0.000431,0.000235
19499000,0.0324,0.013523,0.002678,0.000431,0.000353
19500000,0.0324,0.013523,0.002678,0.000431,0.000470
19501000,0.0324,0.013523,0.002678,0.000431,0.000353
19502000,0.0324,0.013523,0.002678,0.000431,0.000235
19503000,0.0324,0.013523,0.002678,0.000431,0.000353
19504000,0.0324,0.013523,0.002678,0.000431,0.000353
19505000,0.0324,0.013523,0.002678,0.000431,0.000235
19506000,0.0324,0.013523,0.002678,0.000431,0.000353
19507000,0.0324,0.013523,0.002678,0.000431,0.000470
19508000,0.0324,0.013523,0.002678,0.000431,0.000353
19509000,0.0324,0.013523,0.002678,0.000431,0.000118
19510000,0.0324,0.013523,0.002678,0.000431,0.000470
19511000,0.0324,0.013523,0.002678,0.000431,0.000353
19512000,0.0324,0.013523,0.002678,0.000431,0.000235
19513000,0.0324,0.013523,0.002678,0.000431,0.000353
19514000,0.0324,0.013523,0.002678,0.000431,0.000470
19515000,0.0324,0.013523,0.002678,0.000431,0.000235
19516000,0.0324,0.013523,0.002678,0.000431,0.000235
19517000,0.0324,0.013523,0.002678,0.000431,0.000470
19518000,0.0324,0.013523,0.002678,0.000431,0.000353
19519000,0.0324,0.013523,0.002678,0.000431,0.000235
19520000,0.0324,0.013523,0.002678,0.000431,0.000353
19521000,0.0324,0.013523,0.002678,0.000431,0.000470
19522000,0.0324,0.013523,0.002678,0.000431,0.000235
19523000,0.0324,0.013523,0.002678,0.000431,0.000235
19524000,0.0324,0.013523,0.002678,0.000431,0.000470
19525000,0.0324,0.013523,0.002678,0.000431,0.000353
19526000,0.0324,0.013523,0.002678,0.000431,0.000235
19527000,0.0324,0.013523,0.002678,0.000431,0.000353
19528000,0.0324,0.013523,0.002678,0.000431,0.000470
19529000,0.0324,0.013523,0.002678,0.000431,0.000118
19530000,0.0324,0.013523,0.002678,0.000431,0.000353
19531000,0.0324,0.013523,0.002678,0.000431,0.000470
19532000,0.0324,0.013523,0.002678,0.000431,0.000353
19533000,0.0324,0.013523,0.002678,0.000431,0.000235
19534000,0.0324,0.013523,0.002678,0.000431,0.000353
19535000,0.0324,0.013523,0.002678,0.000431,0.000353
19536000,0.0324,0.013523,0.002678,0.000431,0.000235
19537000,0.0324,0.013523,0.002678,0.000431,0.000353
19538000,0.0324,0.013523,0.002678,0.000431,0.000470
19539000,0.0324,0.013523,0.002678,0.000431,0.000353
19540000,0.0324,0.013523,0.002678,0.000431,0.000235
19541000,0.0324,0.013523,0.002678,0.000431,0.000353
19542000,0.0324,0.013523,0.002678,0.000431,0.000353
19543000,0.0324,0.013523,0.002678,0.000431,0.000235
19544000,0.0324,0.013523,0.002678,0.000431,0.000353
19545000,0.0324,0.013523,0.002678,0.000431,0.000470
19546000,0.0324,0.013523,0.002678,0.000431,0.000353
19547000,0.0324,0.013523,0.002678,0.000431,0.000235
19548000,0.0324,0.013523,0.002678,0.000431,0.000353
19549000,0.0324,0.013523,0.002678,0.000431,0.000353
19550000,0.0324,0.013523,0.002678,0.000431,0.000235
19551000,0.0324,0.013523,0.002678,0.000431,0.000353
19552000,0.0324,0.013523,0.002678,0.000431,0.000470
19553000,0.0324,0.013523,0.002678,0.000431,0.000353
19554000,0.0324,0.013523,0.002678,0.000431,0.000118
19555000,0.0324,0.013523,0.002678,0.000431,0.000470
19556000,0.0324,0.013523,0.002678,0.000431,0.000353
19557000,0.0324,0.013523,0.002678,0.000431,0.000235
19558000,0.0324,0.013523,0.002678,0.000431,0.000353
19559000,0.0324,0.013523,0.002678,0.000431,0.000470
19560000,0.0324,0.013523,0.002678,0.000431,0.000235
19561000,0.0324,0.013523,0.002678,0.000431,0.000235
19562000,0.0324,0.013523,0.002678,0.000431,0.000470
19563000,0.0324,0.013523,0.002678,0.000431,0.000353
19564000,0.0324,0.013523,0.002678,0.000431,0.000235
19565000,0.0324,0.013523,0.002678,0.000431,0.000353
19566000,0.0324,0.013523,0.002678,0.000431,0.000470
19567000,0.0324,0.013523,0.002678,0.000431,0.000118
19568000,0.0324,0.013523,0.002678,0.000431,0.000353
19569000,0.0324,0.013523,0.002678,0.000431,0.000470
19570000,0.0324,0.013523,0.002678,0.000431,0.000353
19571000,0.0324,0.013523,0.002678,0.000431,0.000235
19572000,0.0324,0.013523,0.002678,0.000431,0.000353
19573000,0.0324,0.013523,0.002678,0.000431,0.000470
19574000,0.0324,0.013523,0.002678,0.000431,0.000118
19575000,0.0324,0.013523,0.002678,0.000431,0.000353
19576000,0.0324,0.013523,0.002678,0.000431,0.000470
19577000,0.0324,0.013523,0.002678,0.000431,0.000353
19578000,0.0324,0.013523,0.002678,0.000431,0.000235
19579000,0.0324,0.013523,0.002678,0.000431,0.000353
19580000,0.0324,0.013523,0.002678,0.000431,0.000353
19581000,0.0324,0.013523,0.002678,0.000431,0.000235
19582000,0.0324,0.013523,0.002678,0.000431,0.000353
19583000,0.0324,0.013523,0.002678,0.000431,0.000470
19584000,0.0324,0.013523,0.002678,0.000431,0.000353
19585000,0.0324,0.013523,0.002678,0.000431,0.000235
19586000,0.0324,0.013523,0.002678,0.000431,0.000353
19587000,0.0324,0.013523,0.002678,0.000431,0.000353
19588000,0.0324,0.013523,0.002678,0.000431,0.000235
19589000,0.0324,0.013523,0.002678,0.000431,0.000353
19590000,0.0324,0.013523,0.002678,0.000431,0.000470
19591000,0.0324,0.013523,0.002678,0.000431,0.000353
19592000,0.0324,0.013523,0.002678,0.000431,0.000235
19593000,0.0324,0.013523,0.002678,0.000431,0.000353
19594000,0.0324,0.013523,0.002678,0.000431,0.000353
19595000,0.0324,0.013523,0.002678,0.000431,0.000235
19596000,0.0324,0.013523,0.002678,0.000431,0.000353
19597000,0.0324,0.013523,0.002678,0.000431,0.000470
19598000,0.0324,0.013523,0.002678,0.000431,0.000353
19599000,0.0324,0.013523,0.002678,0.000431,0.000235
19600000,0.0324,0.013523,0.002678,0.000431,0.000353
19601000,0.0324,0.013523,0.002678,0.000431,0.000353
19602000,0.0324,0.013523,0.002678,0.000431,0.000235
19603000,0.0324,0.013523,0.002678,0.000431,0.000353
19604000,0.0324,0.013523,0.002678,0.000431,0.000470
19605000,0.0324,0.013523,0.002678,0.000431,0.000353
19606000,0.0324,0.013523,0.002678,0.000431,0.000118
19607000,0.0324,0.013523,0.002678,0.000431,0.000470
19608000,0.0324,0.013523,0.002678,0.000431,0.000353
19609000,0.0324,0.013523,0.002678,0.000431,0.000235
19610000,0.0324,0.013523,0.002678,0.000431,0.000353
19611000,0.0324,0.013523,0.002678,0.000431,0.000470
19612000,0.0324,0.013523,0.002678,0.000431,0.000353
19613000,0.0324,0.013523,0.002678,0.000431,0.000118
19614000,0.0324,0.013523,0.002678,0.000431,0.000470
19615000,0.0324,0.013523,0.002678,0.000431,0.000353
19616000,0.0324,0.013523,0.002678,0.000431,0.000235
19617000,0.0324,0.013523,0.002678,0.000431,0.000353
19618000,0.0324,0.013523,0.002678,0.000431,0.000470
19619000,0.0324,0.013523,0.002678,0.000431,0.000353
19620000,0.0324,0.013523,0.002678,0.000431,0.000118
19621000,0.0324,0.013523,0.002678,0.000431,0.000470
19622000,0.0324,0.013523,0.002678,0.000431,0.000353
19623000,0.0324,0.013523,0.002678,0.000431,0.000235
19624000,0.0324,0.013523,0.002678,0.000431,0.000353
19625000,0.0324,0.013523,0.002678,0.000431,0.000470
19626000,0.0324,0.013523,0.002678,0.000431,0.000235
19627000,0.0324,0.013523,0.002678,0.000431,0.000235
19628000,0.0324,0.013523,0.002678,0.000431,0.000470
19629000,0.0324,0.013523,0.002678,0.000431,0.000353
19630000,0.0324,0.013523,0.002678,0.000431,0.000235
19631000,0.0324,0.013523,0.002678,0.000431,0.000353
19632000,0.0324,0.013523,0.002678,0.000431,0.000470
19633000,0.0324,0.013523,0.002678,0.000431,0.000235
19634000,0.0324,0.013523,0.002678,0.000431,0.000235
19635000,0.0324,0.013523,0.002678,0.000431,0.000470
19636000,0.0324,0.013523,0.002678,0.000431,0.000353
19637000,0.0324,0.013523,0.002678,0.000431,0.000235
19638000,0.0324,0.013523,0.002678,0.000431,0.000353
19639000,0.0324,0.013523,0.002678,0.000431,0.000470
19640000,0.0324,0.013523,0.002678,0.000431,0.000235
19641000,0.0324,0.013523,0.002678,0.000431,0.000235
19642000,0.0324,0.013523,0.002678,0.000431,0.000470
19643000,0.0324,0.013523,0.002678,0.000431,0.000353
19644000,0.0324,0.013523,0.002678,0.000431,0.000235
19645000,0.0324,0.013523,0.002678,0.000431,0.000353
19646000,0.0324,0.013523,0.002678,0.000431,0.000470
19647000,0.0324,0.013523,0.002678,0.000431,0.000235
19648000,0.0324,0.013523,0.002678,0.000431,0.000235
19649000,0.0324,0.013523,0.002678,0.000431,0.000470
19650000,0.0324,0.013523,0.002678,0.000431,0.000353
19651000,0.0324,0.013523,0.002678,0.000431,0.000235
19652000,0.0324,0.013523,0.002678,0.000431,0.000353
19653000,0.0324,0.013523,0.002678,0.000431,0.000470
19654000,0.0324,0.013523,0.002678,0.000431,0.000235
19655000,0.0324,0.013523,0.002678,0.000431,0.000235
19656000,0.0324,0.013523,0.002678,0.000431,0.000470
19657000,0.0324,0.013523,0.002678,0.000431,0.000353
19658000,0.0324,0.013523,0.002678,0.000431,0.000235
19659000,0.0324,0.013523,0.002678,0.000431,0.000353
19660000,0.0324,0.013523,0.002678,0.000431,0.000470
19661000,0.0324,0.013523,0.002678,0.000431,0.000235
19662000,0.0324,0.013523,0.002678,0.000431,0.000235
19663000,0.0324,0.013523,0.002678,0.000431,0.000470
19664000,0.0324,0.013523,0.002678,0.000431,0.000353
19665000,0.0324,0.013523,0.002678,0.000431,0.000235
19666000,0.0324,0.013523,0.002678,0.000431,0.000353
19667000,0.0324,0.013523,0.002678,0.000431,0.000470
19668000,0.0324,0.013523,0.002678,0.000431,0.000118
19669000,0.0324,0.013523,0.002678,0.000431,0.000353
19670000,0.0324,0.013523,0.002678,0.000431,0.000470
19671000,0.0324,0.013523,0.002678,0.000431,0.000353
19672000,0.0324,0.013523,0.002678,0.000431,0.000235
19673000,0.0324,0.013523,0.002678,0.000431,0.000353
19674000,0.0324,0.013523,0.002678,0.000431,0.000470
19675000,0.0324,0.013523,0.002678,0.000431,0.000118
19676000,0.0324,0.013523,0.002678,0.000431,0.000353
19677000,0.0324,0.013523,0.002678,0.000431,0.000470
19678000,0.0324,0.013523,0.002678,0.000431,0.000353
19679000,0.0324,0.013523,0.002678,0.000431,0.000235
19680000,0.0324,0.013523,0.002678,0.000431,0.000353
19681000,0.0324,0.013523,0.002678,0.000431,0.000470
19682000,0.0324,0.013523,0.002678,0.000431,0.000118
19683000,0.0324,0.013523,0.002678,0.000431,0.000353
19684000,0.0324,0.013523,0.002678,0.000431,0.000470
19685000,0.0324,0.013523,0.002678,0.000431,0.000353
19686000,0.0324,0.013523,0.002678,0.000431,0.000235
19687000,0.0324,0.013523,0.002678,0.000431,0.000353
19688000,0.0324,0.013523,0.002678,0.000431,0.000470
19689000,0.0324,0.013523,0.002678,0.000431,0.000118
19690000,0.0324,0.013523,0.002678,0.000431,0.000353
19691000,0.0324,0.013523,0.002678,0.000431,0.000470
19692000,0.0324,0.013523,0.002678,0.000431,0.000353
19693000,0.0324,0.013523,0.002678,0.000431,0.000235
19694000,0.0324,0.013523,0.002678,0.000431,0.000353
19695000,0.0324,0.013523,0.002678,0.000431,0.000353
19696000,0.0324,0.013523,0.002678,0.000431,0.000235
19697000,0.0324,0.013523,0.002678,0.000431,0.000353
19698000,0.0324,0.013523,0.002678,0.000431,0.000470
19699000,0.0324,0.013523,0.002678,0.000431,0.000353
19700000,0.0324,0.013523,0.002678,0.000431,0.000235
19701000,0.0324,0.013523,0.002678,0.000431,0.000353
19702000,0.0324,0.013523,0.002678,0.000431,0.000353
19703000,0.0324,0.013523,0.002678,0.000431,0.000235
19704000,0.0324,0.013523,0.002678,0.000431,0.000353
19705000,0.0324,0.013523,0.002678,0.000431,0.000470
19706000,0.0324,0.013523,0.002678,0.000431,0.000353
19707000,0.0324,0.013523,0.002678,0.000431,0.000235
19708000,0.0324,0.013523,0.002678,0.000431,0.000353
19709000,0.0324,0.013523,0.002678,0.000431,0.000353
19710000,0.0324,0.013523,0.002678,0.000431,0.000235
19711000,0.0324,0.013523,0.002678,0.000431,0.000353
19712000,0.0324,0.013523,0.002678,0.000431,0.000470
19713000,0.0324,0.013523,0.002678,0.000431,0.000353
19714000,0.0324,0.013523,0.002678,0.000431,0.000235
19715000,0.0324,0.013523,0.002678,0.000431,0.000353
19716000,0.0324,0.013523,0.002678,0.000431,0.000353
19717000,0.0324,0.013523,0.002678,0.000431,0.000235
19718000,0.0324,0.013523,0.002678,0.000431,0.000353
19719000,0.0324,0.013523,0.002678,0.000431,0.000470
19720000,0.0324,0.013523,0.002678,0.000431,0.000353
19721000,0.0324,0.013523,0.002678,0.000431,0.000235
19722000,0.0324,0.013523,0.002678,0.000431,0.000353
19723000,0.0324,0.013523,0.002678,0.000431,0.000353
19724000,0.0324,0.013523,0.002678,0.000431,0.000235
19725000,0.0324,0.013523,0.002678,0.000431,0.000353
19726000,0.0324,0.013523,0.002678,0.000431,0.000470
19727000,0.0324,0.013523,0.002678,0.000431,0.000353
19728000,0.0324,0.013523,0.002678,0.000431,0.000235
19729000,0.0324,0.013523,0.002678,0.000431,0.000353
19730000,0.0324,0.013523,0.002678,0.000431,0.000353
19731000,0.0324,0.013523,0.002678,0.000431,0.000235
19732000,0.0324,0.013523,0.002678,0.000431,0.000353
19733000,0.0324,0.013523,0.002678,0.000431,0.000470
19734000,0.0324,0.013523,0.002678,0.000431,0.000353
19735000,0.0324,0.013523,0.002678,0.000431,0.000235
19736000,0.0324,0.013523,0.002678,0.000431,0.000353
19737000,0.0324,0.013523,0.002678,0.000431,0.000353
19738000,0.0324,0.013523,0.002678,0.000431,0.000235
19739000,0.0324,0.013523,0.002678,0.000431,0.000353
19740000,0.0324,0.013523,0.002678,0.000431,0.000470
19741000,0.0324,0.013523,0.002678,0.000431,0.000353
19742000,0.0324,0.013523,0.002678,0.000431,0.000118
19743000,0.0324,0.013523,0.002678,0.000431,0.000470
19744000,0.0324,0.013523,0.002678,0.000431,0.000353
19745000,0.0324,0.013523,0.002678,0.000431,0.000235
19746000,0.0324,0.013523,0.002678,0.000431,0.000353
19747000,0.0324,0.013523,0.002678,0.000431,0.000470
19748000,0.0324,0.013523,0.002678,0.000431,0.000353
19749000,0.0324,0.013523,0.002678,0.000431,0.000118
19750000,0.0324,0.013523,0.002678,0.000431,0.000470
19751000,0.0324,0.013523,0.002678,0.000431,0.000353
19752000,0.0324,0.013523,0.002678,0.000431,0.000235
19753000,0.0324,0.013523,0.002678,0.000431,0.000353
19754000,0.0324,0.013523,0.002678,0.000431,0.000470
19755000,0.0324,0.013523,0.002678,0.000431,0.000353
19756000,0.0324,0.013523,0.002678,0.000431,0.000118
19757000,0.0324,0.013523,0.002678,0.000431,0.000470
19758000,0.0324,0.013523,0.002678,0.000431,0.000353
19759000,0.0324,0.013523,0.002678,0.000431,0.000235
19760000,0.0324,0.013523,0.002678,0.000431,0.000353
19761000,0.0324,0.013523,0.002678,0.000431,0.000470
19762000,0.0324,0.013523,0.002678,0.000431,0.000353
19763000,0.0324,0.013523,0.002678,0.000431,0.000118
19764000,0.0324,0.013523,0.002678,0.000431,0.000470
19765000,0.0324,0.013523,0.002678,0.000431,0.000353
19766000,0.0324,0.013523,0.002678,0.000431,0.000235
19767000,0.0324,0.013523,0.002678,0.000431,0.000353
19768000,0.0324,0.013523,0.002678,0.000431,0.000470
19769000,0.0324,0.013523,0.002678,0.000431,0.000235
19770000,0.0324,0.013523,0.002678,0.000431,0.000235
19771000,0.0324,0.013523,0.002678,0.000431,0.000470
19772000,0.0324,0.013523,0.002678,0.000431,0.000353
19773000,0.0324,0.013523,0.002678,0.000431,0.000235
19774000,0.0324,0.013523,0.002678,0.000431,0.000353
19775000,0.0324,0.013523,0.002678,0.000431,0.000470
19776000,0.0324,0.013523,0.002678,0.000431,0.000235
19777000,0.0324,0.013523,0.002678,0.000431,0.000235
19778000,0.0324,0.013523,0.002678,0.000431,0.000470
19779000,0.0324,0.013523,0.002678,0.000431,0.000353
19780000,0.0324,0.013523,0.002678,0.000431,0.000235
19781000,0.0324,0.013523,0.002678,0.000431,0.000353
19782000,0.0324,0.013523,0.002678,0.000431,0.000470
19783000,0.0324,0.013523,0.002678,0.000431,0.000235
19784000,0.0324,0.013523,0.002678,0.000431,0.000235
19785000,0.0324,0.013523,0.002678,0.000431,0.000470
19786000,0.0324,0.013523,0.002678,0.000431,0.000353
19787000,0.0324,0.013523,0.002678,0.000431,0.000235
19788000,0.0324,0.013523,0.002678,0.000431,0.000353
19789000,0.0324,0.013523,0.002678,0.000431,0.000470
19790000,0.0324,0.013523,0.002678,0.000431,0.000235
19791000,0.0324,0.013523,0.002678,0.000431,0.000235
19792000,0.0324,0.013523,0.002678,0.000431,0.000470
19793000,0.0324,0.013523,0.002678,0.000431,0.000353
19794000,0.0324,0.013523,0.002678,0.000431,0.000235
19795000,0.0324,0.013523,0.002678,0.000431,0.000353
19796000,0.0324,0.013523,0.002678,0.000431,0.000470
19797000,0.0324,0.013523,0.002678,0.000431,0.000235
19798000,0.0324,0.013523,0.002678,0.000431,0.000235
19799000,0.0324,0.013523,0.002678,0.000431,0.000470
19800000,0.0324,0.013523,0.002678,0.000431,0.000353
19801000,0.0324,0.013523,0.002678,0.000431,0.000235
19802000,0.0324,0.013523,0.002678,0.000431,0.000353
19803000,0.0324,0.013523,0.002678,0.000431,0.000470
19804000,0.0324,0.013523,0.002678,0.000431,0.000235
19805000,0.0324,0.013523,0.002678,0.000431,0.000235
19806000,0.0324,0.013523,0.002678,0.000431,0.000470
19807000,0.0324,0.013523,0.002678,0.000431,0.000353
19808000,0.0324,0.013523,0.002678,0.000431,0.000235
19809000,0.0324,0.013523,0.002678,0.000431,0.000353
19810000,0.0324,0.013523,0.002678,0.000431,0.000470
19811000,0.0324,0.013523,0.002678,0.000431,0.000118
19812000,0.0324,0.013523,0.002678,0.000431,0.000353
19813000,0.0324,0.013523,0.002678,0.000431,0.000470
19814000,0.0324,0.013523,0.002678,0.000431,0.000353
19815000,0.0324,0.013523,0.002678,0.000431,0.000235
19816000,0.0324,0.013523,0.002678,0.000431,0.000353
19817000,0.0324,0.013523,0.002678,0.000431,0.000470
19818000,0.0324,0.013523,0.002678,0.000431,0.000118
19819000,0.0324,0.013523,0.002678,0.000431,0.000353
19820000,0.0324,0.013523,0.002678,0.000431,0.000470
19821000,0.0324,0.013523,0.002678,0.000431,0.000353
19822000,0.0324,0.013523,0.002678,0.000431,0.000235
19823000,0.0324,0.013523,0.002678,0.000431,0.000353
19824000,0.0324,0.013523,0.002678,0.000431,0.000470
19825000,0.0324,0.013523,0.002678,0.000431,0.000118
19826000,0.0324,0.013523,0.002678,0.000431,0.000353
19827000,0.0324,0.013523,0.002678,0.000431,0.000470
19828000,0.0324,0.013523,0.002678,0.000431,0.000353
19829000,0.0324,0.013523,0.002678,0.000431,0.000235
19830000,0.0324,0.013523,0.002678,0.000431,0.000353
19831000,0.0324,0.013523,0.002678,0.000431,0.000353
19832000,0.0324,0.013523,0.002678,0.000431,0.000235
19833000,0.0324,0.013523,0.002678,0.000431,0.000353
19834000,0.0324,0.013523,0.002678,0.000431,0.000470
19835000,0.0324,0.013523,0.002678,0.000431,0.000353
19836000,0.0324,0.013523,0.002678,0.000431,0.000235
19837000,0.0324,0.013523,0.002678,0.000431,0.000353
19838000,0.0324,0.013523,0.002678,0.000431,0.000353
19839000,0.0324,0.013523,0.002678,0.000431,0.000235
19840000,0.0324,0.013523,0.002678,0.000431,0.000353
19841000,0.0324,0.013523,0.002678,0.000431,0.000470
19842000,0.0324,0.013523,0.002678,0.000431,0.000353
19843000,0.0324,0.013523,0.002678,0.000431,0.000235
19844000,0.0324,0.013523,0.002678,0.000431,0.000353
19845000,0.0324,0.013523,0.002678,0.000431,0.000353
19846000,0.0324,0.013523,0.002678,0.000431,0.000235
19847000,0.0324,0.013523,0.002678,0.000431,0.000353
19848000,0.0324,0.013523,0.002678,0.000431,0.000470
19849000,0.0324,0.013523,0.002678,0.000431,0.000353
19850000,0.0324,0.013523,0.002678,0.000431,0.000235
19851000,0.0324,0.013523,0.002678,0.000431,0.000353
19852000,0.0324,0.013523,0.002678,0.000431,0.000353
19853000,0.0324,0.013523,0.002678,0.000431,0.000235
19854000,0.0324,0.013523,0.002678,0.000431,0.000353
19855000,0.0324,0.013523,0.002678,0.000431,0.000470
19856000,0.0324,0.013523,0.002678,0.000431,0.000353
19857000,0.0324,0.013523,0.002678,0.000431,0.000235
19858000,0.0324,0.013523,0.002678,0.000431,0.000353
19859000,0.0324,0.013523,0.002678,0.000431,0.000353
19860000,0.0324,0.013523,0.002678,0.000431,0.000235
19861000,0.0324,0.013523,0.002678,0.000431,0.000353
19862000,0.0324,0.013523,0.002678,0.000431,0.000470
19863000,0.0324,0.013523,0.002678,0.000431,0.000353
19864000,0.0324,0.013523,0.002678,0.000431,0.000235
19865000,0.0324,0.013523,0.002678,0.000431,0.000353
19866000,0.0324,0.013523,0.002678,0.000431,0.000353
19867000,0.0324,0.013523,0.002678,0.000431,0.000235
19868000,0.0324,0.013523,0.002678,0.000431,0.000353
19869000,0.0324,0.013523,0.002678,0.000431,0.000470
19870000,0.0324,0.013523,0.002678,0.000431,0.000353
19871000,0.0324,0.013523,0.002678,0.000431,0.000235
19872000,0.0324,0.013523,0.002678,0.000431,0.000353
19873000,0.0324,0.013523,0.002678,0.000431,0.000353
19874000,0.0324,0.013523,0.002678,0.000431,0.000235
19875000,0.0324,0.013523,0.002678,0.000431,0.000353
19876000,0.0324,0.013523,0.002678,0.000431,0.000470
19877000,0.0324,0.013523,0.002678,0.000431,0.000353
19878000,0.0324,0.013523,0.002678,0.000431,0.000235
19879000,0.0324,0.013523,0.002678,0.000431,0.000353
19880000,0.0324,0.013523,0.002678,0.000431,0.000353
19881000,0.0324,0.013523,0.002678,0.000431,0.000235
19882000,0.0324,0.013523,0.002678,0.000431,0.000353
19883000,0.0324,0.013523,0.002678,0.000431,0.000470
19884000,0.0324,0.013523,0.002678,0.000431,0.000353
19885000,0.0324,0.013523,0.002678,0.000431,0.000118
19886000,0.0324,0.013523,0.002678,0.000431,0.000470
19887000,0.0324,0.013523,0.002678,0.000431,0.000353
19888000,0.0324,0.013523,0.002678,0.000431,0.000235
19889000,0.0324,0.013523,0.002678,0.000431,0.000353
19890000,0.0324,0.013523,0.002678,0.000431,0.000470
19891000,0.0324,0.013523,0.002678,0.000431,0.000353
19892000,0.0324,0.013523,0.002678,0.000431,0.000118
19893000,0.0324,0.013523,0.002678,0.000431,0.000470
19894000,0.0324,0.013523,0.002678,0.000431,0.000353
19895000,0.0324,0.013523,0.002678,0.000431,0.000235
19896000,0.0324,0.013523,0.002678,0.000431,0.000353
19897000,0.0324,0.013523,0.002678,0.000431,0.000470
19898000,0.0324,0.013523,0.002678,0.000431,0.000353
19899000,0.0324,0.013523,0.002678,0.000431,0.000118
19900000,0.0324,0.013523,0.002678,0.000431,0.000470
19901000,0.0324,0.013523,0.002678,0.000431,0.000353
19902000,0.0324,0.013523,0.002678,0.000431,0.000235
19903000,0.0324,0.013523,0.002678,0.000431,0.000353
19904000,0.0324,0.013523,0.002678,0.000431,0.000470
19905000,0.0324,0.013523,0.002678,0.000431,0.000235
19906000,0.0324,0.013523,0.002678,0.000431,0.000235
19907000,0.0324,0.013523,0.002678,0.000431,0.000470
19908000,0.0324,0.013523,0.002678,0.000431,0.000353
19909000,0.0324,0.013523,0.002678,0.000431,0.000235
19910000,0.0324,0.013523,0.002678,0.000431,0.000353
19911000,0.0324,0.013523,0.002678,0.000431,0.000470
19912000,0.0324,0.013523,0.002678,0.000431,0.000235
19913000,0.0324,0.013523,0.002678,0.000431,0.000235
19914000,0.0324,0.013523,0.002678,0.000431,0.000470
19915000,0.0324,0.013523,0.002678,0.000431,0.000353
19916000,0.0324,0.013523,0.002678,0.000431,0.000235
19917000,0.0324,0.013523,0.002678,0.000431,0.000353
19918000,0.0324,0.013523,0.002678,0.000431,0.000470
19919000,0.0324,0.013523,0.002678,0.000431,0.000235
19920000,0.0324,0.013523,0.002678,0.000431,0.000235
19921000,0.0324,0.013523,0.002678,0.000431,0.000470
19922000,0.0324,0.013523,0.002678,0.000431,0.000353
19923000,0.0324,0.013523,0.002678,0.000431,0.000235
19924000,0.0324,0.013523,0.002678,0.000431,0.000353
19925000,0.0324,0.013523,0.002678,0.000431,0.000470
19926000,0.0324,0.013523,0.002678,0.000431,0.000235
19927000,0.0324,0.013523,0.002678,0.000431,0.000235
19928000,0.0324,0.013523,0.002678,0.000431,0.000470
19929000,0.0324,0.013523,0.002678,0.000431,0.000353
19930000,0.0324,0.013523,0.002678,0.000431,0.000235
19931000,0.0324,0.013523,0.002678,0.000431,0.000353
19932000,0.0324,0.013523,0.002678,0.000431,0.000470
19933000,0.0324,0.013523,0.002678,0.000431,0.000235
19934000,0.0324,0.013523,0.002678,0.000431,0.000235
19935000,0.0324,0.013523,0.002678,0.000431,0.000470
19936000,0.0324,0.013523,0.002678,0.000431,0.000353
19937000,0.0324,0.013523,0.002678,0.000431,0.000235
19938000,0.0324,0.013523,0.002678,0.000431,0.000353
19939000,0.0324,0.013523,0.002678,0.000431,0.000470
19940000,0.0324,0.013523,0.002678,0.000431,0.000235
19941000,0.0324,0.013523,0.002678,0.000431,0.000235
19942000,0.0324,0.013523,0.002678,0.000431,0.000470
19943000,0.0324,0.013523,0.002678,0.000431,0.000353
19944000,0.0324,0.013523,0.002678,0.000431,0.000235
19945000,0.0324,0.013523,0.002678,0.000431,0.000353
19946000,0.0324,0.013523,0.002678,0.000431,0.000470
19947000,0.0324,0.013523,0.002678,0.000431,0.000118
19948000,0.0324,0.013523,0.002678,0.000431,0.000353
19949000,0.0324,0.013523,0.002678,0.000431,0.000470
19950000,0.0324,0.013523,0.002678,0.000431,0.000353
19951000,0.0324,0.013523,0.002678,0.000431,0.000235
19952000,0.0324,0.013523,0.002678,0.000431,0.000353
19953000,0.0324,0.013523,0.002678,0.000431,0.000470
19954000,0.0324,0.013523,0.002678,0.000431,0.000118
19955000,0.0324,0.013523,0.002678,0.000431,0.000353
19956000,0.0324,0.013523,0.002678,0.000431,0.000470
19957000,0.0324,0.013523,0.002678,0.000431,0.000353
19958000,0.0324,0.013523,0.002678,0.000431,0.000235
19959000,0.0324,0.013523,0.002678,0.000431,0.000353
19960000,0.0324,0.013523,0.002678,0.000431,0.000470
19961000,0.0324,0.013523,0.002678,0.000431,0.000118
19962000,0.0324,0.013523,0.002678,0.000431,0.000353
19963000,0.0324,0.013523,0.002678,0.000431,0.000470
19964000,0.0324,0.013523,0.002678,0.000431,0.000353
19965000,0.0324,0.013523,0.002678,0.000431,0.000235
19966000,0.0324,0.013523,0.002678,0.000431,0.000353
19967000,0.0324,0.013523,0.002678,0.000431,0.000470
19968000,0.0324,0.013523,0.002678,0.000431,0.000118
19969000,0.0324,0.013523,0.002678,0.000431,0.000353
19970000,0.0324,0.013523,0.002678,0.000431,0.000470
19971000,0.0324,0.013523,0.002678,0.000431,0.000353
19972000,0.0324,0.013523,0.002678,0.000431,0.000235
19973000,0.0324,0.013523,0.002678,0.000431,0.000353
19974000,0.0324,0.013523,0.002678,0.000431,0.000353
19975000,0.0324,0.013523,0.002678,0.000431,0.000235
19976000,0.0324,0.013523,0.002678,0.000431,0.000353
19977000,0.0324,0.013523,0.002678,0.000431,0.000470
19978000,0.0324,0.013523,0.002678,0.000431,0.000353
19979000,0.0324,0.013523,0.002678,0.000431,0.000235
19980000,0.0324,0.013523,0.002678,0.000431,0.000353
19981000,0.0324,0.013523,0.002678,0.000431,0.000353
19982000,0.0324,0.013523,0.002678,0.000431,0.000235
19983000,0.0324,0.013523,0.002678,0.000431,0.000353
19984000,0.0324,0.013523,0.002678,0.000431,0.000470
19985000,0.0324,0.013523,0.002678,0.000431,0.000353
19986000,0.0324,0.013523,0.002678,0.000431,0.000235
19987000,0.0324,0.013523,0.002678,0.000431,0.000353
19988000,0.0324,0.013523,0.002678,0.000431,0.000353
19989000,0.0324,0.013523,0.002678,0.000431,0.000235
19990000,0.0324,0.013523,0.002678,0.000431,0.000353
19991000,0.0324,0.013523,0.002678,0.000431,0.000470
19992000,0.0324,0.013523,0.002678,0.000431,0.000353
19993000,0.0324,0.013523,0.002678,0.000431,0.000235
19994000,0.0324,0.013523,0.002678,0.000431,0.000353
19995000,0.0324,0.013523,0.002678,0.000431,0.000353
19996000,0.0324,0.013523,0.002678,0.000431,0.000235
19997000,0.0324,0.013523,0.002678,0.000431,0.000353
19998000,0.0324,0.013523,0.002678,0.000431,0.000470
19999000,0.0324,0.013523,0.002678,0.000431,0.000353
