Cycle,Area(mm^2),PeakDynamic(W),SubthresholdLeakage(W),GateLeakage(W),RunTimeDynamic(W)
14000000,0.0324,0.013523,0.002678,0.000431,0.000353
14001000,0.0324,0.013523,0.002678,0.000431,0.000353
14002000,0.0324,0.013523,0.002678,0.000431,0.000235
14003000,0.0324,0.013523,0.002678,0.000431,0.000353
14004000,0.0324,0.013523,0.002678,0.000431,0.000470
14005000,0.0324,0.013523,0.002678,0.000431,0.000353
14006000,0.0324,0.013523,0.002678,0.000431,0.000118
14007000,0.0324,0.013523,0.002678,0.000431,0.000470
14008000,0.0324,0.013523,0.002678,0.000431,0.000353
14009000,0.0324,0.013523,0.002678,0.000431,0.000235
14010000,0.0324,0.013523,0.002678,0.000431,0.000353
14011000,0.0324,0.013523,0.002678,0.000431,0.000470
14012000,0.0324,0.013523,0.002678,0.000431,0.000353
14013000,0.0324,0.013523,0.002678,0.000431,0.000118
14014000,0.0324,0.013523,0.002678,0.000431,0.000470
14015000,0.0324,0.013523,0.002678,0.000431,0.000353
14016000,0.0324,0.013523,0.002678,0.000431,0.000235
14017000,0.0324,0.013523,0.002678,0.000431,0.000353
14018000,0.0324,0.013523,0.002678,0.000431,0.000470
14019000,0.0324,0.013523,0.002678,0.000431,0.000353
14020000,0.0324,0.013523,0.002678,0.000431,0.000118
14021000,0.0324,0.013523,0.002678,0.000431,0.000470
14022000,0.0324,0.013523,0.002678,0.000431,0.000353
14023000,0.0324,0.013523,0.002678,0.000431,0.000235
14024000,0.0324,0.013523,0.002678,0.000431,0.000353
14025000,0.0324,0.013523,0.002678,0.000431,0.000470
14026000,0.0324,0.013523,0.002678,0.000431,0.000353
14027000,0.0324,0.013523,0.002678,0.000431,0.000118
14028000,0.0324,0.013523,0.002678,0.000431,0.000470
14029000,0.0324,0.013523,0.002678,0.000431,0.000353
14030000,0.0324,0.013523,0.002678,0.000431,0.000235
14031000,0.0324,0.013523,0.002678,0.000431,0.000353
14032000,0.0324,0.013523,0.002678,0.000431,0.000470
14033000,0.0324,0.013523,0.002678,0.000431,0.000235
14034000,0.0324,0.013523,0.002678,0.000431,0.000235
14035000,0.0324,0.013523,0.002678,0.000431,0.000470
14036000,0.0324,0.013523,0.002678,0.000431,0.000353
14037000,0.0324,0.013523,0.002678,0.000431,0.000235
14038000,0.0324,0.013523,0.002678,0.000431,0.000353
14039000,0.0324,0.013523,0.002678,0.000431,0.000470
14040000,0.0324,0.013523,0.002678,0.000431,0.000235
14041000,0.0324,0.013523,0.002678,0.000431,0.000235
14042000,0.0324,0.013523,0.002678,0.000431,0.000470
14043000,0.0324,0.013523,0.002678,0.000431,0.000353
14044000,0.0324,0.013523,0.002678,0.000431,0.000235
14045000,0.0324,0.013523,0.002678,0.000431,0.000353
14046000,0.0324,0.013523,0.002678,0.000431,0.000470
14047000,0.0324,0.013523,0.002678,0.000431,0.000235
14048000,0.0324,0.013523,0.002678,0.000431,0.000235
14049000,0.0324,0.013523,0.002678,0.000431,0.000470
14050000,0.0324,0.013523,0.002678,0.000431,0.000353
14051000,0.0324,0.013523,0.002678,0.000431,0.000235
14052000,0.0324,0.013523,0.002678,0.000431,0.000353
14053000,0.0324,0.013523,0.002678,0.000431,0.000470
14054000,0.0324,0.013523,0.002678,0.000431,0.000235
14055000,0.0324,0.013523,0.002678,0.000431,0.000235
14056000,0.0324,0.013523,0.002678,0.000431,0.000470
14057000,0.0324,0.013523,0.002678,0.000431,0.000353
14058000,0.0324,0.013523,0.002678,0.000431,0.000235
14059000,0.0324,0.013523,0.002678,0.000431,0.000353
14060000,0.0324,0.013523,0.002678,0.000431,0.000470
14061000,0.0324,0.013523,0.002678,0.000431,0.000235
14062000,0.0324,0.013523,0.002678,0.000431,0.000235
14063000,0.0324,0.013523,0.002678,0.000431,0.000470
14064000,0.0324,0.013523,0.002678,0.000431,0.000353
14065000,0.0324,0.013523,0.002678,0.000431,0.000235
14066000,0.0324,0.013523,0.002678,0.000431,0.000353
14067000,0.0324,0.013523,0.002678,0.000431,0.000470
14068000,0.0324,0.013523,0.002678,0.000431,0.000235
14069000,0.0324,0.013523,0.002678,0.000431,0.000235
14070000,0.0324,0.013523,0.002678,0.000431,0.000470
14071000,0.0324,0.013523,0.002678,0.000431,0.000353
14072000,0.0324,0.013523,0.002678,0.000431,0.000235
14073000,0.0324,0.013523,0.002678,0.000431,0.000353
14074000,0.0324,0.013523,0.002678,0.000431,0.000470
14075000,0.0324,0.013523,0.002678,0.000431,0.000118
14076000,0.0324,0.013523,0.002678,0.000431,0.000353
14077000,0.0324,0.013523,0.002678,0.000431,0.000470
14078000,0.0324,0.013523,0.002678,0.000431,0.000353
14079000,0.0324,0.013523,0.002678,0.000431,0.000235
14080000,0.0324,0.013523,0.002678,0.000431,0.000353
14081000,0.0324,0.013523,0.002678,0.000431,0.000470
14082000,0.0324,0.013523,0.002678,0.000431,0.000118
14083000,0.0324,0.013523,0.002678,0.000431,0.000353
14084000,0.0324,0.013523,0.002678,0.000431,0.000470
14085000,0.0324,0.013523,0.002678,0.000431,0.000353
14086000,0.0324,0.013523,0.002678,0.000431,0.000235
14087000,0.0324,0.013523,0.002678,0.000431,0.000353
14088000,0.0324,0.013523,0.002678,0.000431,0.000470
14089000,0.0324,0.013523,0.002678,0.000431,0.000118
14090000,0.0324,0.013523,0.002678,0.000431,0.000353
14091000,0.0324,0.013523,0.002678,0.000431,0.000470
14092000,0.0324,0.013523,0.002678,0.000431,0.000353
14093000,0.0324,0.013523,0.002678,0.000431,0.000235
14094000,0.0324,0.013523,0.002678,0.000431,0.000353
14095000,0.0324,0.013523,0.002678,0.000431,0.000353
14096000,0.0324,0.013523,0.002678,0.000431,0.000235
14097000,0.0324,0.013523,0.002678,0.000431,0.000353
14098000,0.0324,0.013523,0.002678,0.000431,0.000470
14099000,0.0324,0.013523,0.002678,0.000431,0.000353
14100000,0.0324,0.013523,0.002678,0.000431,0.000235
14101000,0.0324,0.013523,0.002678,0.000431,0.000353
14102000,0.0324,0.013523,0.002678,0.000431,0.000353
14103000,0.0324,0.013523,0.002678,0.000431,0.000235
14104000,0.0324,0.013523,0.002678,0.000431,0.000353
14105000,0.0324,0.013523,0.002678,0.000431,0.000470
14106000,0.0324,0.013523,0.002678,0.000431,0.000353
14107000,0.0324,0.013523,0.002678,0.000431,0.000235
14108000,0.0324,0.013523,0.002678,0.000431,0.000353
14109000,0.0324,0.013523,0.002678,0.000431,0.000353
14110000,0.0324,0.013523,0.002678,0.000431,0.000235
14111000,0.0324,0.013523,0.002678,0.000431,0.000353
14112000,0.0324,0.013523,0.002678,0.000431,0.000470
14113000,0.0324,0.013523,0.002678,0.000431,0.000353
14114000,0.0324,0.013523,0.002678,0.000431,0.000235
14115000,0.0324,0.013523,0.002678,0.000431,0.000353
14116000,0.0324,0.013523,0.002678,0.000431,0.000353
14117000,0.0324,0.013523,0.002678,0.000431,0.000235
14118000,0.0324,0.013523,0.002678,0.000431,0.000353
14119000,0.0324,0.013523,0.002678,0.000431,0.000470
14120000,0.0324,0.013523,0.002678,0.000431,0.000353
14121000,0.0324,0.013523,0.002678,0.000431,0.000235
14122000,0.0324,0.013523,0.002678,0.000431,0.000353
14123000,0.0324,0.013523,0.002678,0.000431,0.000353
14124000,0.0324,0.013523,0.002678,0.000431,0.000235
14125000,0.0324,0.013523,0.002678,0.000431,0.000353
14126000,0.0324,0.013523,0.002678,0.000431,0.000470
14127000,0.0324,0.013523,0.002678,0.000431,0.000353
14128000,0.0324,0.013523,0.002678,0.000431,0.000235
14129000,0.0324,0.013523,0.002678,0.000431,0.000353
14130000,0.0324,0.013523,0.002678,0.000431,0.000353
14131000,0.0324,0.013523,0.002678,0.000431,0.000235
14132000,0.0324,0.013523,0.002678,0.000431,0.000353
14133000,0.0324,0.013523,0.002678,0.000431,0.000470
14134000,0.0324,0.013523,0.002678,0.000431,0.000353
14135000,0.0324,0.013523,0.002678,0.000431,0.000235
14136000,0.0324,0.013523,0.002678,0.000431,0.000353
14137000,0.0324,0.013523,0.002678,0.000431,0.000353
14138000,0.0324,0.013523,0.002678,0.000431,0.000235
14139000,0.0324,0.013523,0.002678,0.000431,0.000353
14140000,0.0324,0.013523,0.002678,0.000431,0.000470
14141000,0.0324,0.013523,0.002678,0.000431,0.000353
14142000,0.0324,0.013523,0.002678,0.000431,0.000235
14143000,0.0324,0.013523,0.002678,0.000431,0.000353
14144000,0.0324,0.013523,0.002678,0.000431,0.000353
14145000,0.0324,0.013523,0.002678,0.000431,0.000235
14146000,0.0324,0.013523,0.002678,0.000431,0.000353
14147000,0.0324,0.013523,0.002678,0.000431,0.000470
14148000,0.0324,0.013523,0.002678,0.000431,0.000353
14149000,0.0324,0.013523,0.002678,0.000431,0.000118
14150000,0.0324,0.013523,0.002678,0.000431,0.000470
14151000,0.0324,0.013523,0.002678,0.000431,0.000353
14152000,0.0324,0.013523,0.002678,0.000431,0.000235
14153000,0.0324,0.013523,0.002678,0.000431,0.000353
14154000,0.0324,0.013523,0.002678,0.000431,0.000470
14155000,0.0324,0.013523,0.002678,0.000431,0.000353
14156000,0.0324,0.013523,0.002678,0.000431,0.000118
14157000,0.0324,0.013523,0.002678,0.000431,0.000470
14158000,0.0324,0.013523,0.002678,0.000431,0.000353
14159000,0.0324,0.013523,0.002678,0.000431,0.000235
14160000,0.0324,0.013523,0.002678,0.000431,0.000353
14161000,0.0324,0.013523,0.002678,0.000431,0.000470
14162000,0.0324,0.013523,0.002678,0.000431,0.000353
14163000,0.0324,0.013523,0.002678,0.000431,0.000118
14164000,0.0324,0.013523,0.002678,0.000431,0.000470
14165000,0.0324,0.013523,0.002678,0.000431,0.000353
14166000,0.0324,0.013523,0.002678,0.000431,0.000235
14167000,0.0324,0.013523,0.002678,0.000431,0.000353
14168000,0.0324,0.013523,0.002678,0.000431,0.000470
14169000,0.0324,0.013523,0.002678,0.000431,0.000353
14170000,0.0324,0.013523,0.002678,0.000431,0.000118
14171000,0.0324,0.013523,0.002678,0.000431,0.000470
14172000,0.0324,0.013523,0.002678,0.000431,0.000353
14173000,0.0324,0.013523,0.002678,0.000431,0.000235
14174000,0.0324,0.013523,0.002678,0.000431,0.000353
14175000,0.0324,0.013523,0.002678,0.000431,0.000470
14176000,0.0324,0.013523,0.002678,0.000431,0.000235
14177000,0.0324,0.013523,0.002678,0.000431,0.000235
14178000,0.0324,0.013523,0.002678,0.000431,0.000470
14179000,0.0324,0.013523,0.002678,0.000431,0.000353
14180000,0.0324,0.013523,0.002678,0.000431,0.000235
14181000,0.0324,0.013523,0.002678,0.000431,0.000353
14182000,0.0324,0.013523,0.002678,0.000431,0.000470
14183000,0.0324,0.013523,0.002678,0.000431,0.000235
14184000,0.0324,0.013523,0.002678,0.000431,0.000235
14185000,0.0324,0.013523,0.002678,0.000431,0.000470
14186000,0.0324,0.013523,0.002678,0.000431,0.000353
14187000,0.0324,0.013523,0.002678,0.000431,0.000235
14188000,0.0324,0.013523,0.002678,0.000431,0.000353
14189000,0.0324,0.013523,0.002678,0.000431,0.000470
14190000,0.0324,0.013523,0.002678,0.000431,0.000235
14191000,0.0324,0.013523,0.002678,0.000431,0.000235
14192000,0.0324,0.013523,0.002678,0.000431,0.000470
14193000,0.0324,0.013523,0.002678,0.000431,0.000353
14194000,0.0324,0.013523,0.002678,0.000431,0.000235
14195000,0.0324,0.013523,0.002678,0.000431,0.000353
14196000,0.0324,0.013523,0.002678,0.000431,0.000470
14197000,0.0324,0.013523,0.002678,0.000431,0.000235
14198000,0.0324,0.013523,0.002678,0.000431,0.000235
14199000,0.0324,0.013523,0.002678,0.000431,0.000470
14200000,0.0324,0.013523,0.002678,0.000431,0.000353
14201000,0.0324,0.013523,0.002678,0.000431,0.000235
14202000,0.0324,0.013523,0.002678,0.000431,0.000353
14203000,0.0324,0.013523,0.002678,0.000431,0.000470
14204000,0.0324,0.013523,0.002678,0.000431,0.000235
14205000,0.0324,0.013523,0.002678,0.000431,0.000235
14206000,0.0324,0.013523,0.002678,0.000431,0.000470
14207000,0.0324,0.013523,0.002678,0.000431,0.000353
14208000,0.0324,0.013523,0.002678,0.000431,0.000235
14209000,0.0324,0.013523,0.002678,0.000431,0.000353
14210000,0.0324,0.013523,0.002678,0.000431,0.000470
14211000,0.0324,0.013523,0.002678,0.000431,0.000118
14212000,0.0324,0.013523,0.002678,0.000431,0.000353
14213000,0.0324,0.013523,0.002678,0.000431,0.000470
14214000,0.0324,0.013523,0.002678,0.000431,0.000353
14215000,0.0324,0.013523,0.002678,0.000431,0.000235
14216000,0.0324,0.013523,0.002678,0.000431,0.000353
14217000,0.0324,0.013523,0.002678,0.000431,0.000470
14218000,0.0324,0.013523,0.002678,0.000431,0.000118
14219000,0.0324,0.013523,0.002678,0.000431,0.000353
14220000,0.0324,0.013523,0.002678,0.000431,0.000470
14221000,0.0324,0.013523,0.002678,0.000431,0.000353
14222000,0.0324,0.013523,0.002678,0.000431,0.000235
14223000,0.0324,0.013523,0.002678,0.000431,0.000353
14224000,0.0324,0.013523,0.002678,0.000431,0.000470
14225000,0.0324,0.013523,0.002678,0.000431,0.000118
14226000,0.0324,0.013523,0.002678,0.000431,0.000353
14227000,0.0324,0.013523,0.002678,0.000431,0.000470
14228000,0.0324,0.013523,0.002678,0.000431,0.000353
14229000,0.0324,0.013523,0.002678,0.000431,0.000235
14230000,0.0324,0.013523,0.002678,0.000431,0.000353
14231000,0.0324,0.013523,0.002678,0.000431,0.000470
14232000,0.0324,0.013523,0.002678,0.000431,0.000118
14233000,0.0324,0.013523,0.002678,0.000431,0.000353
14234000,0.0324,0.013523,0.002678,0.000431,0.000470
14235000,0.0324,0.013523,0.002678,0.000431,0.000353
14236000,0.0324,0.013523,0.002678,0.000431,0.000235
14237000,0.0324,0.013523,0.002678,0.000431,0.000353
14238000,0.0324,0.013523,0.002678,0.000431,0.000353
14239000,0.0324,0.013523,0.002678,0.000431,0.000235
14240000,0.0324,0.013523,0.002678,0.000431,0.000353
14241000,0.0324,0.013523,0.002678,0.000431,0.000470
14242000,0.0324,0.013523,0.002678,0.000431,0.000353
14243000,0.0324,0.013523,0.002678,0.000431,0.000235
14244000,0.0324,0.013523,0.002678,0.000431,0.000353
14245000,0.0324,0.013523,0.002678,0.000431,0.000353
14246000,0.0324,0.013523,0.002678,0.000431,0.000235
14247000,0.0324,0.013523,0.002678,0.000431,0.000353
14248000,0.0324,0.013523,0.002678,0.000431,0.000470
14249000,0.0324,0.013523,0.002678,0.000431,0.000353
14250000,0.0324,0.013523,0.002678,0.000431,0.000235
14251000,0.0324,0.013523,0.002678,0.000431,0.000353
14252000,0.0324,0.013523,0.002678,0.000431,0.000353
14253000,0.0324,0.013523,0.002678,0.000431,0.000235
14254000,0.0324,0.013523,0.002678,0.000431,0.000353
14255000,0.0324,0.013523,0.002678,0.000431,0.000470
14256000,0.0324,0.013523,0.002678,0.000431,0.000353
14257000,0.0324,0.013523,0.002678,0.000431,0.000235
14258000,0.0324,0.013523,0.002678,0.000431,0.000353
14259000,0.0324,0.013523,0.002678,0.000431,0.000353
14260000,0.0324,0.013523,0.002678,0.000431,0.000235
14261000,0.0324,0.013523,0.002678,0.000431,0.000353
14262000,0.0324,0.013523,0.002678,0.000431,0.000470
14263000,0.0324,0.013523,0.002678,0.000431,0.000353
14264000,0.0324,0.013523,0.002678,0.000431,0.000235
14265000,0.0324,0.013523,0.002678,0.000431,0.000353
14266000,0.0324,0.013523,0.002678,0.000431,0.000353
14267000,0.0324,0.013523,0.002678,0.000431,0.000235
14268000,0.0324,0.013523,0.002678,0.000431,0.000353
14269000,0.0324,0.013523,0.002678,0.000431,0.000470
14270000,0.0324,0.013523,0.002678,0.000431,0.000353
14271000,0.0324,0.013523,0.002678,0.000431,0.000235
14272000,0.0324,0.013523,0.002678,0.000431,0.000353
14273000,0.0324,0.013523,0.002678,0.000431,0.000353
14274000,0.0324,0.013523,0.002678,0.000431,0.000235
14275000,0.0324,0.013523,0.002678,0.000431,0.000353
14276000,0.0324,0.013523,0.002678,0.000431,0.000470
14277000,0.0324,0.013523,0.002678,0.000431,0.000353
14278000,0.0324,0.013523,0.002678,0.000431,0.000235
14279000,0.0324,0.013523,0.002678,0.000431,0.000353
14280000,0.0324,0.013523,0.002678,0.000431,0.000353
14281000,0.0324,0.013523,0.002678,0.000431,0.000235
14282000,0.0324,0.013523,0.002678,0.000431,0.000353
14283000,0.0324,0.013523,0.002678,0.000431,0.000470
14284000,0.0324,0.013523,0.002678,0.000431,0.000353
14285000,0.0324,0.013523,0.002678,0.000431,0.000235
14286000,0.0324,0.013523,0.002678,0.000431,0.000353
14287000,0.0324,0.013523,0.002678,0.000431,0.000353
14288000,0.0324,0.013523,0.002678,0.000431,0.000235
14289000,0.0324,0.013523,0.002678,0.000431,0.000353
14290000,0.0324,0.013523,0.002678,0.000431,0.000470
14291000,0.0324,0.013523,0.002678,0.000431,0.000353
14292000,0.0324,0.013523,0.002678,0.000431,0.000118
14293000,0.0324,0.013523,0.002678,0.000431,0.000470
14294000,0.0324,0.013523,0.002678,0.000431,0.000353
14295000,0.0324,0.013523,0.002678,0.000431,0.000235
14296000,0.0324,0.013523,0.002678,0.000431,0.000353
14297000,0.0324,0.013523,0.002678,0.000431,0.000470
14298000,0.0324,0.013523,0.002678,0.000431,0.000353
14299000,0.0324,0.013523,0.002678,0.000431,0.000118
14300000,0.0324,0.013523,0.002678,0.000431,0.000470
14301000,0.0324,0.013523,0.002678,0.000431,0.000353
14302000,0.0324,0.013523,0.002678,0.000431,0.000235
14303000,0.0324,0.013523,0.002678,0.000431,0.000353
14304000,0.0324,0.013523,0.002678,0.000431,0.000470
14305000,0.0324,0.013523,0.002678,0.000431,0.000353
14306000,0.0324,0.013523,0.002678,0.000431,0.000118
14307000,0.0324,0.013523,0.002678,0.000431,0.000470
14308000,0.0324,0.013523,0.002678,0.000431,0.000353
14309000,0.0324,0.013523,0.002678,0.000431,0.000235
14310000,0.0324,0.013523,0.002678,0.000431,0.000353
14311000,0.0324,0.013523,0.002678,0.000431,0.000470
14312000,0.0324,0.013523,0.002678,0.000431,0.000235
14313000,0.0324,0.013523,0.002678,0.000431,0.000235
14314000,0.0324,0.013523,0.002678,0.000431,0.000470
14315000,0.0324,0.013523,0.002678,0.000431,0.000353
14316000,0.0324,0.013523,0.002678,0.000431,0.000235
14317000,0.0324,0.013523,0.002678,0.000431,0.000353
14318000,0.0324,0.013523,0.002678,0.000431,0.000470
14319000,0.0324,0.013523,0.002678,0.000431,0.000235
14320000,0.0324,0.013523,0.002678,0.000431,0.000235
14321000,0.0324,0.013523,0.002678,0.000431,0.000470
14322000,0.0324,0.013523,0.002678,0.000431,0.000353
14323000,0.0324,0.013523,0.002678,0.000431,0.000235
14324000,0.0324,0.013523,0.002678,0.000431,0.000353
14325000,0.0324,0.013523,0.002678,0.000431,0.000470
14326000,0.0324,0.013523,0.002678,0.000431,0.000235
14327000,0.0324,0.013523,0.002678,0.000431,0.000235
14328000,0.0324,0.013523,0.002678,0.000431,0.000470
14329000,0.0324,0.013523,0.002678,0.000431,0.000353
14330000,0.0324,0.013523,0.002678,0.000431,0.000235
14331000,0.0324,0.013523,0.002678,0.000431,0.000353
14332000,0.0324,0.013523,0.002678,0.000431,0.000470
14333000,0.0324,0.013523,0.002678,0.000431,0.000235
14334000,0.0324,0.013523,0.002678,0.000431,0.000235
14335000,0.0324,0.013523,0.002678,0.000431,0.000470
14336000,0.0324,0.013523,0.002678,0.000431,0.000353
14337000,0.0324,0.013523,0.002678,0.000431,0.000235
14338000,0.0324,0.013523,0.002678,0.000431,0.000353
14339000,0.0324,0.013523,0.002678,0.000431,0.000470
14340000,0.0324,0.013523,0.002678,0.000431,0.000235
14341000,0.0324,0.013523,0.002678,0.000431,0.000235
14342000,0.0324,0.013523,0.002678,0.000431,0.000470
14343000,0.0324,0.013523,0.002678,0.000431,0.000353
14344000,0.0324,0.013523,0.002678,0.000431,0.000235
14345000,0.0324,0.013523,0.002678,0.000431,0.000353
14346000,0.0324,0.013523,0.002678,0.000431,0.000470
14347000,0.0324,0.013523,0.002678,0.000431,0.000235
14348000,0.0324,0.013523,0.002678,0.000431,0.000235
14349000,0.0324,0.013523,0.002678,0.000431,0.000470
14350000,0.0324,0.013523,0.002678,0.000431,0.000353
14351000,0.0324,0.013523,0.002678,0.000431,0.000235
14352000,0.0324,0.013523,0.002678,0.000431,0.000353
14353000,0.0324,0.013523,0.002678,0.000431,0.000470
14354000,0.0324,0.013523,0.002678,0.000431,0.000118
14355000,0.0324,0.013523,0.002678,0.000431,0.000353
14356000,0.0324,0.013523,0.002678,0.000431,0.000470
14357000,0.0324,0.013523,0.002678,0.000431,0.000353
14358000,0.0324,0.013523,0.002678,0.000431,0.000235
14359000,0.0324,0.013523,0.002678,0.000431,0.000353
14360000,0.0324,0.013523,0.002678,0.000431,0.000470
14361000,0.0324,0.013523,0.002678,0.000431,0.000118
14362000,0.0324,0.013523,0.002678,0.000431,0.000353
14363000,0.0324,0.013523,0.002678,0.000431,0.000470
14364000,0.0324,0.013523,0.002678,0.000431,0.000353
14365000,0.0324,0.013523,0.002678,0.000431,0.000235
14366000,0.0324,0.013523,0.002678,0.000431,0.000353
14367000,0.0324,0.013523,0.002678,0.000431,0.000470
14368000,0.0324,0.013523,0.002678,0.000431,0.000118
14369000,0.0324,0.013523,0.002678,0.000431,0.000353
14370000,0.0324,0.013523,0.002678,0.000431,0.000470
14371000,0.0324,0.013523,0.002678,0.000431,0.000353
14372000,0.0324,0.013523,0.002678,0.000431,0.000235
14373000,0.0324,0.013523,0.002678,0.000431,0.000353
14374000,0.0324,0.013523,0.002678,0.000431,0.000470
14375000,0.0324,0.013523,0.002678,0.000431,0.000118
14376000,0.0324,0.013523,0.002678,0.000431,0.000353
14377000,0.0324,0.013523,0.002678,0.000431,0.000470
14378000,0.0324,0.013523,0.002678,0.000431,0.000353
14379000,0.0324,0.013523,0.002678,0.000431,0.000235
14380000,0.0324,0.013523,0.002678,0.000431,0.000353
14381000,0.0324,0.013523,0.002678,0.000431,0.000353
14382000,0.0324,0.013523,0.002678,0.000431,0.000235
14383000,0.0324,0.013523,0.002678,0.000431,0.000353
14384000,0.0324,0.013523,0.002678,0.000431,0.000470
14385000,0.0324,0.013523,0.002678,0.000431,0.000353
14386000,0.0324,0.013523,0.002678,0.000431,0.000235
14387000,0.0324,0.013523,0.002678,0.000431,0.000353
14388000,0.0324,0.013523,0.002678,0.000431,0.000353
14389000,0.0324,0.013523,0.002678,0.000431,0.000235
14390000,0.0324,0.013523,0.002678,0.000431,0.000353
14391000,0.0324,0.013523,0.002678,0.000431,0.000470
14392000,0.0324,0.013523,0.002678,0.000431,0.000353
14393000,0.0324,0.013523,0.002678,0.000431,0.000235
14394000,0.0324,0.013523,0.002678,0.000431,0.000353
14395000,0.0324,0.013523,0.002678,0.000431,0.000353
14396000,0.0324,0.013523,0.002678,0.000431,0.000235
14397000,0.0324,0.013523,0.002678,0.000431,0.000353
14398000,0.0324,0.013523,0.002678,0.000431,0.000470
14399000,0.0324,0.013523,0.002678,0.000431,0.000353
14400000,0.0324,0.013523,0.002678,0.000431,0.000235
14401000,0.0324,0.013523,0.002678,0.000431,0.000353
14402000,0.0324,0.013523,0.002678,0.000431,0.000353
14403000,0.0324,0.013523,0.002678,0.000431,0.000235
14404000,0.0324,0.013523,0.002678,0.000431,0.000353
14405000,0.0324,0.013523,0.002678,0.000431,0.000470
14406000,0.0324,0.013523,0.002678,0.000431,0.000353
14407000,0.0324,0.013523,0.002678,0.000431,0.000235
14408000,0.0324,0.013523,0.002678,0.000431,0.000353
14409000,0.0324,0.013523,0.002678,0.000431,0.000353
14410000,0.0324,0.013523,0.002678,0.000431,0.000235
14411000,0.0324,0.013523,0.002678,0.000431,0.000353
14412000,0.0324,0.013523,0.002678,0.000431,0.000470
14413000,0.0324,0.013523,0.002678,0.000431,0.000353
14414000,0.0324,0.013523,0.002678,0.000431,0.000235
14415000,0.0324,0.013523,0.002678,0.000431,0.000353
14416000,0.0324,0.013523,0.002678,0.000431,0.000353
14417000,0.0324,0.013523,0.002678,0.000431,0.000235
14418000,0.0324,0.013523,0.002678,0.000431,0.000353
14419000,0.0324,0.013523,0.002678,0.000431,0.000470
14420000,0.0324,0.013523,0.002678,0.000431,0.000353
14421000,0.0324,0.013523,0.002678,0.000431,0.000235
14422000,0.0324,0.013523,0.002678,0.000431,0.000353
14423000,0.0324,0.013523,0.002678,0.000431,0.000353
14424000,0.0324,0.013523,0.002678,0.000431,0.000235
14425000,0.0324,0.013523,0.002678,0.000431,0.000353
14426000,0.0324,0.013523,0.002678,0.000431,0.000470
14427000,0.0324,0.013523,0.002678,0.000431,0.000353
14428000,0.0324,0.013523,0.002678,0.000431,0.000118
14429000,0.0324,0.013523,0.002678,0.000431,0.000470
14430000,0.0324,0.013523,0.002678,0.000431,0.000353
14431000,0.0324,0.013523,0.002678,0.000431,0.000235
14432000,0.0324,0.013523,0.002678,0.000431,0.000353
14433000,0.0324,0.013523,0.002678,0.000431,0.000470
14434000,0.0324,0.013523,0.002678,0.000431,0.000353
14435000,0.0324,0.013523,0.002678,0.000431,0.000118
14436000,0.0324,0.013523,0.002678,0.000431,0.000470
14437000,0.0324,0.013523,0.002678,0.000431,0.000353
14438000,0.0324,0.013523,0.002678,0.000431,0.000235
14439000,0.0324,0.013523,0.002678,0.000431,0.000353
14440000,0.0324,0.013523,0.002678,0.000431,0.000470
14441000,0.0324,0.013523,0.002678,0.000431,0.000353
14442000,0.0324,0.013523,0.002678,0.000431,0.000118
14443000,0.0324,0.013523,0.002678,0.000431,0.000470
14444000,0.0324,0.013523,0.002678,0.000431,0.000353
14445000,0.0324,0.013523,0.002678,0.000431,0.000235
14446000,0.0324,0.013523,0.002678,0.000431,0.000353
14447000,0.0324,0.013523,0.002678,0.000431,0.000470
14448000,0.0324,0.013523,0.002678,0.000431,0.000353
14449000,0.0324,0.013523,0.002678,0.000431,0.000118
14450000,0.0324,0.013523,0.002678,0.000431,0.000470
14451000,0.0324,0.013523,0.002678,0.000431,0.000353
14452000,0.0324,0.013523,0.002678,0.000431,0.000235
14453000,0.0324,0.013523,0.002678,0.000431,0.000353
14454000,0.0324,0.013523,0.002678,0.000431,0.000470
14455000,0.0324,0.013523,0.002678,0.000431,0.000235
14456000,0.0324,0.013523,0.002678,0.000431,0.000235
14457000,0.0324,0.013523,0.002678,0.000431,0.000470
14458000,0.0324,0.013523,0.002678,0.000431,0.000353
14459000,0.0324,0.013523,0.002678,0.000431,0.000235
14460000,0.0324,0.013523,0.002678,0.000431,0.000353
14461000,0.0324,0.013523,0.002678,0.000431,0.000470
14462000,0.0324,0.013523,0.002678,0.000431,0.000235
14463000,0.0324,0.013523,0.002678,0.000431,0.000235
14464000,0.0324,0.013523,0.002678,0.000431,0.000470
14465000,0.0324,0.013523,0.002678,0.000431,0.000353
14466000,0.0324,0.013523,0.002678,0.000431,0.000235
14467000,0.0324,0.013523,0.002678,0.000431,0.000353
14468000,0.0324,0.013523,0.002678,0.000431,0.000470
14469000,0.0324,0.013523,0.002678,0.000431,0.000235
14470000,0.0324,0.013523,0.002678,0.000431,0.000235
14471000,0.0324,0.013523,0.002678,0.000431,0.000470
14472000,0.0324,0.013523,0.002678,0.000431,0.000353
14473000,0.0324,0.013523,0.002678,0.000431,0.000235
14474000,0.0324,0.013523,0.002678,0.000431,0.000353
14475000,0.0324,0.013523,0.002678,0.000431,0.000470
14476000,0.0324,0.013523,0.002678,0.000431,0.000235
14477000,0.0324,0.013523,0.002678,0.000431,0.000235
14478000,0.0324,0.013523,0.002678,0.000431,0.000470
14479000,0.0324,0.013523,0.002678,0.000431,0.000353
14480000,0.0324,0.013523,0.002678,0.000431,0.000235
14481000,0.0324,0.013523,0.002678,0.000431,0.000353
14482000,0.0324,0.013523,0.002678,0.000431,0.000470
14483000,0.0324,0.013523,0.002678,0.000431,0.000235
14484000,0.0324,0.013523,0.002678,0.000431,0.000235
14485000,0.0324,0.013523,0.002678,0.000431,0.000470
14486000,0.0324,0.013523,0.002678,0.000431,0.000353
14487000,0.0324,0.013523,0.002678,0.000431,0.000235
14488000,0.0324,0.013523,0.002678,0.000431,0.000353
14489000,0.0324,0.013523,0.002678,0.000431,0.000470
14490000,0.0324,0.013523,0.002678,0.000431,0.000235
14491000,0.0324,0.013523,0.002678,0.000431,0.000235
14492000,0.0324,0.013523,0.002678,0.000431,0.000470
14493000,0.0324,0.013523,0.002678,0.000431,0.000353
14494000,0.0324,0.013523,0.002678,0.000431,0.000235
14495000,0.0324,0.013523,0.002678,0.000431,0.000353
14496000,0.0324,0.013523,0.002678,0.000431,0.000470
14497000,0.0324,0.013523,0.002678,0.000431,0.000118
14498000,0.0324,0.013523,0.002678,0.000431,0.000353
14499000,0.0324,0.013523,0.002678,0.000431,0.000470
14500000,0.0324,0.013523,0.002678,0.000431,0.000353
14501000,0.0324,0.013523,0.002678,0.000431,0.000235
14502000,0.0324,0.013523,0.002678,0.000431,0.000353
14503000,0.0324,0.013523,0.002678,0.000431,0.000470
14504000,0.0324,0.013523,0.002678,0.000431,0.000118
14505000,0.0324,0.013523,0.002678,0.000431,0.000353
14506000,0.0324,0.013523,0.002678,0.000431,0.000470
14507000,0.0324,0.013523,0.002678,0.000431,0.000353
14508000,0.0324,0.013523,0.002678,0.000431,0.000235
14509000,0.0324,0.013523,0.002678,0.000431,0.000353
14510000,0.0324,0.013523,0.002678,0.000431,0.000470
14511000,0.0324,0.013523,0.002678,0.000431,0.000118
14512000,0.0324,0.013523,0.002678,0.000431,0.000353
14513000,0.0324,0.013523,0.002678,0.000431,0.000470
14514000,0.0324,0.013523,0.002678,0.000431,0.000353
14515000,0.0324,0.013523,0.002678,0.000431,0.000235
14516000,0.0324,0.013523,0.002678,0.000431,0.000353
14517000,0.0324,0.013523,0.002678,0.000431,0.000353
14518000,0.0324,0.013523,0.002678,0.000431,0.000235
14519000,0.0324,0.013523,0.002678,0.000431,0.000353
14520000,0.0324,0.013523,0.002678,0.000431,0.000470
14521000,0.0324,0.013523,0.002678,0.000431,0.000353
14522000,0.0324,0.013523,0.002678,0.000431,0.000235
14523000,0.0324,0.013523,0.002678,0.000431,0.000353
14524000,0.0324,0.013523,0.002678,0.000431,0.000353
14525000,0.0324,0.013523,0.002678,0.000431,0.000235
14526000,0.0324,0.013523,0.002678,0.000431,0.000353
14527000,0.0324,0.013523,0.002678,0.000431,0.000470
14528000,0.0324,0.013523,0.002678,0.000431,0.000353
14529000,0.0324,0.013523,0.002678,0.000431,0.000235
14530000,0.0324,0.013523,0.002678,0.000431,0.000353
14531000,0.0324,0.013523,0.002678,0.000431,0.000353
14532000,0.0324,0.013523,0.002678,0.000431,0.000235
14533000,0.0324,0.013523,0.002678,0.000431,0.000353
14534000,0.0324,0.013523,0.002678,0.000431,0.000470
14535000,0.0324,0.013523,0.002678,0.000431,0.000353
14536000,0.0324,0.013523,0.002678,0.000431,0.000235
14537000,0.0324,0.013523,0.002678,0.000431,0.000353
14538000,0.0324,0.013523,0.002678,0.000431,0.000353
14539000,0.0324,0.013523,0.002678,0.000431,0.000235
14540000,0.0324,0.013523,0.002678,0.000431,0.000353
14541000,0.0324,0.013523,0.002678,0.000431,0.000470
14542000,0.0324,0.013523,0.002678,0.000431,0.000353
14543000,0.0324,0.013523,0.002678,0.000431,0.000235
14544000,0.0324,0.013523,0.002678,0.000431,0.000353
14545000,0.0324,0.013523,0.002678,0.000431,0.000353
14546000,0.0324,0.013523,0.002678,0.000431,0.000235
14547000,0.0324,0.013523,0.002678,0.000431,0.000353
14548000,0.0324,0.013523,0.002678,0.000431,0.000470
14549000,0.0324,0.013523,0.002678,0.000431,0.000353
14550000,0.0324,0.013523,0.002678,0.000431,0.000235
14551000,0.0324,0.013523,0.002678,0.000431,0.000353
14552000,0.0324,0.013523,0.002678,0.000431,0.000353
14553000,0.0324,0.013523,0.002678,0.000431,0.000235
14554000,0.0324,0.013523,0.002678,0.000431,0.000353
14555000,0.0324,0.013523,0.002678,0.000431,0.000470
14556000,0.0324,0.013523,0.002678,0.000431,0.000353
14557000,0.0324,0.013523,0.002678,0.000431,0.000235
14558000,0.0324,0.013523,0.002678,0.000431,0.000353
14559000,0.0324,0.013523,0.002678,0.000431,0.000353
14560000,0.0324,0.013523,0.002678,0.000431,0.000235
14561000,0.0324,0.013523,0.002678,0.000431,0.000353
14562000,0.0324,0.013523,0.002678,0.000431,0.000470
14563000,0.0324,0.013523,0.002678,0.000431,0.000353
14564000,0.0324,0.013523,0.002678,0.000431,0.000235
14565000,0.0324,0.013523,0.002678,0.000431,0.000353
14566000,0.0324,0.013523,0.002678,0.000431,0.000353
14567000,0.0324,0.013523,0.002678,0.000431,0.000235
14568000,0.0324,0.013523,0.002678,0.000431,0.000353
14569000,0.0324,0.013523,0.002678,0.000431,0.000470
14570000,0.0324,0.013523,0.002678,0.000431,0.000353
14571000,0.0324,0.013523,0.002678,0.000431,0.000118
14572000,0.0324,0.013523,0.002678,0.000431,0.000470
14573000,0.0324,0.013523,0.002678,0.000431,0.000353
14574000,0.0324,0.013523,0.002678,0.000431,0.000235
14575000,0.0324,0.013523,0.002678,0.000431,0.000353
14576000,0.0324,0.013523,0.002678,0.000431,0.000470
14577000,0.0324,0.013523,0.002678,0.000431,0.000353
14578000,0.0324,0.013523,0.002678,0.000431,0.000118
14579000,0.0324,0.013523,0.002678,0.000431,0.000470
14580000,0.0324,0.013523,0.002678,0.000431,0.000353
14581000,0.0324,0.013523,0.002678,0.000431,0.000235
14582000,0.0324,0.013523,0.002678,0.000431,0.000353
14583000,0.0324,0.013523,0.002678,0.000431,0.000470
14584000,0.0324,0.013523,0.002678,0.000431,0.000353
14585000,0.0324,0.013523,0.002678,0.000431,0.000118
14586000,0.0324,0.013523,0.002678,0.000431,0.000470
14587000,0.0324,0.013523,0.002678,0.000431,0.000353
14588000,0.0324,0.013523,0.002678,0.000431,0.000235
14589000,0.0324,0.013523,0.002678,0.000431,0.000353
14590000,0.0324,0.013523,0.002678,0.000431,0.000470
14591000,0.0324,0.013523,0.002678,0.000431,0.000235
14592000,0.0324,0.013523,0.002678,0.000431,0.000235
14593000,0.0324,0.013523,0.002678,0.000431,0.000470
14594000,0.0324,0.013523,0.002678,0.000431,0.000353
14595000,0.0324,0.013523,0.002678,0.000431,0.000235
14596000,0.0324,0.013523,0.002678,0.000431,0.000353
14597000,0.0324,0.013523,0.002678,0.000431,0.000470
14598000,0.0324,0.013523,0.002678,0.000431,0.000235
14599000,0.0324,0.013523,0.002678,0.000431,0.000235
14600000,0.0324,0.013523,0.002678,0.000431,0.000470
14601000,0.0324,0.013523,0.002678,0.000431,0.000353
14602000,0.0324,0.013523,0.002678,0.000431,0.000235
14603000,0.0324,0.013523,0.002678,0.000431,0.000353
14604000,0.0324,0.013523,0.002678,0.000431,0.000470
14605000,0.0324,0.013523,0.002678,0.000431,0.000235
14606000,0.0324,0.013523,0.002678,0.000431,0.000235
14607000,0.0324,0.013523,0.002678,0.000431,0.000470
14608000,0.0324,0.013523,0.002678,0.000431,0.000353
14609000,0.0324,0.013523,0.002678,0.000431,0.000235
14610000,0.0324,0.013523,0.002678,0.000431,0.000353
14611000,0.0324,0.013523,0.002678,0.000431,0.000470
14612000,0.0324,0.013523,0.002678,0.000431,0.000235
14613000,0.0324,0.013523,0.002678,0.000431,0.000235
14614000,0.0324,0.013523,0.002678,0.000431,0.000470
14615000,0.0324,0.013523,0.002678,0.000431,0.000353
14616000,0.0324,0.013523,0.002678,0.000431,0.000235
14617000,0.0324,0.013523,0.002678,0.000431,0.000353
14618000,0.0324,0.013523,0.002678,0.000431,0.000470
14619000,0.0324,0.013523,0.002678,0.000431,0.000235
14620000,0.0324,0.013523,0.002678,0.000431,0.000235
14621000,0.0324,0.013523,0.002678,0.000431,0.000470
14622000,0.0324,0.013523,0.002678,0.000431,0.000353
14623000,0.0324,0.013523,0.002678,0.000431,0.000235
14624000,0.0324,0.013523,0.002678,0.000431,0.000353
14625000,0.0324,0.013523,0.002678,0.000431,0.000470
14626000,0.0324,0.013523,0.002678,0.000431,0.000235
14627000,0.0324,0.013523,0.002678,0.000431,0.000235
14628000,0.0324,0.013523,0.002678,0.000431,0.000470
14629000,0.0324,0.013523,0.002678,0.000431,0.000353
14630000,0.0324,0.013523,0.002678,0.000431,0.000235
14631000,0.0324,0.013523,0.002678,0.000431,0.000353
14632000,0.0324,0.013523,0.002678,0.000431,0.000470
14633000,0.0324,0.013523,0.002678,0.000431,0.000118
14634000,0.0324,0.013523,0.002678,0.000431,0.000353
14635000,0.0324,0.013523,0.002678,0.000431,0.000470
14636000,0.0324,0.013523,0.002678,0.000431,0.000353
14637000,0.0324,0.013523,0.002678,0.000431,0.000235
14638000,0.0324,0.013523,0.002678,0.000431,0.000353
14639000,0.0324,0.013523,0.002678,0.000431,0.000470
14640000,0.0324,0.013523,0.002678,0.000431,0.000118
14641000,0.0324,0.013523,0.002678,0.000431,0.000353
14642000,0.0324,0.013523,0.002678,0.000431,0.000470
14643000,0.0324,0.013523,0.002678,0.000431,0.000353
14644000,0.0324,0.013523,0.002678,0.000431,0.000235
14645000,0.0324,0.013523,0.002678,0.000431,0.000353
14646000,0.0324,0.013523,0.002678,0.000431,0.000470
14647000,0.0324,0.013523,0.002678,0.000431,0.000118
14648000,0.0324,0.013523,0.002678,0.000431,0.000353
14649000,0.0324,0.013523,0.002678,0.000431,0.000470
14650000,0.0324,0.013523,0.002678,0.000431,0.000353
14651000,0.0324,0.013523,0.002678,0.000431,0.000235
14652000,0.0324,0.013523,0.002678,0.000431,0.000353
14653000,0.0324,0.013523,0.002678,0.000431,0.000470
14654000,0.0324,0.013523,0.002678,0.000431,0.000118
14655000,0.0324,0.013523,0.002678,0.000431,0.000353
14656000,0.0324,0.013523,0.002678,0.000431,0.000470
14657000,0.0324,0.013523,0.002678,0.000431,0.000353
14658000,0.0324,0.013523,0.002678,0.000431,0.000235
14659000,0.0324,0.013523,0.002678,0.000431,0.000353
14660000,0.0324,0.013523,0.002678,0.000431,0.000353
14661000,0.0324,0.013523,0.002678,0.000431,0.000235
14662000,0.0324,0.013523,0.002678,0.000431,0.000353
14663000,0.0324,0.013523,0.002678,0.000431,0.000470
14664000,0.0324,0.013523,0.002678,0.000431,0.000353
14665000,0.0324,0.013523,0.002678,0.000431,0.000235
14666000,0.0324,0.013523,0.002678,0.000431,0.000353
14667000,0.0324,0.013523,0.002678,0.000431,0.000353
14668000,0.0324,0.013523,0.002678,0.000431,0.000235
14669000,0.0324,0.013523,0.002678,0.000431,0.000353
14670000,0.0324,0.013523,0.002678,0.000431,0.000470
14671000,0.0324,0.013523,0.002678,0.000431,0.000353
14672000,0.0324,0.013523,0.002678,0.000431,0.000235
14673000,0.0324,0.013523,0.002678,0.000431,0.000353
14674000,0.0324,0.013523,0.002678,0.000431,0.000353
14675000,0.0324,0.013523,0.002678,0.000431,0.000235
14676000,0.0324,0.013523,0.002678,0.000431,0.000353
14677000,0.0324,0.013523,0.002678,0.000431,0.000470
14678000,0.0324,0.013523,0.002678,0.000431,0.000353
14679000,0.0324,0.013523,0.002678,0.000431,0.000235
14680000,0.0324,0.013523,0.002678,0.000431,0.000353
14681000,0.0324,0.013523,0.002678,0.000431,0.000353
14682000,0.0324,0.013523,0.002678,0.000431,0.000235
14683000,0.0324,0.013523,0.002678,0.000431,0.000353
14684000,0.0324,0.013523,0.002678,0.000431,0.000470
14685000,0.0324,0.013523,0.002678,0.000431,0.000353
14686000,0.0324,0.013523,0.002678,0.000431,0.000235
14687000,0.0324,0.013523,0.002678,0.000431,0.000353
14688000,0.0324,0.013523,0.002678,0.000431,0.000353
14689000,0.0324,0.013523,0.002678,0.000431,0.000235
14690000,0.0324,0.013523,0.002678,0.000431,0.000353
14691000,0.0324,0.013523,0.002678,0.000431,0.000470
14692000,0.0324,0.013523,0.002678,0.000431,0.000353
14693000,0.0324,0.013523,0.002678,0.000431,0.000235
14694000,0.0324,0.013523,0.002678,0.000431,0.000353
14695000,0.0324,0.013523,0.002678,0.000431,0.000353
14696000,0.0324,0.013523,0.002678,0.000431,0.000235
14697000,0.0324,0.013523,0.002678,0.000431,0.000353
14698000,0.0324,0.013523,0.002678,0.000431,0.000470
14699000,0.0324,0.013523,0.002678,0.000431,0.000353
14700000,0.0324,0.013523,0.002678,0.000431,0.000235
14701000,0.0324,0.013523,0.002678,0.000431,0.000353
14702000,0.0324,0.013523,0.002678,0.000431,0.000353
14703000,0.0324,0.013523,0.002678,0.000431,0.000235
14704000,0.0324,0.013523,0.002678,0.000431,0.000353
14705000,0.0324,0.013523,0.002678,0.000431,0.000470
14706000,0.0324,0.013523,0.002678,0.000431,0.000353
14707000,0.0324,0.013523,0.002678,0.000431,0.000118
14708000,0.0324,0.013523,0.002678,0.000431,0.000470
14709000,0.0324,0.013523,0.002678,0.000431,0.000353
14710000,0.0324,0.013523,0.002678,0.000431,0.000235
14711000,0.0324,0.013523,0.002678,0.000431,0.000353
14712000,0.0324,0.013523,0.002678,0.000431,0.000470
14713000,0.0324,0.013523,0.002678,0.000431,0.000353
14714000,0.0324,0.013523,0.002678,0.000431,0.000118
14715000,0.0324,0.013523,0.002678,0.000431,0.000470
14716000,0.0324,0.013523,0.002678,0.000431,0.000353
14717000,0.0324,0.013523,0.002678,0.000431,0.000235
14718000,0.0324,0.013523,0.002678,0.000431,0.000353
14719000,0.0324,0.013523,0.002678,0.000431,0.000470
14720000,0.0324,0.013523,0.002678,0.000431,0.000353
14721000,0.0324,0.013523,0.002678,0.000431,0.000118
14722000,0.0324,0.013523,0.002678,0.000431,0.000470
14723000,0.0324,0.013523,0.002678,0.000431,0.000353
14724000,0.0324,0.013523,0.002678,0.000431,0.000235
14725000,0.0324,0.013523,0.002678,0.000431,0.000353
14726000,0.0324,0.013523,0.002678,0.000431,0.000470
14727000,0.0324,0.013523,0.002678,0.000431,0.000353
14728000,0.0324,0.013523,0.002678,0.000431,0.000118
14729000,0.0324,0.013523,0.002678,0.000431,0.000470
14730000,0.0324,0.013523,0.002678,0.000431,0.000353
14731000,0.0324,0.013523,0.002678,0.000431,0.000235
14732000,0.0324,0.013523,0.002678,0.000431,0.000353
14733000,0.0324,0.013523,0.002678,0.000431,0.000470
14734000,0.0324,0.013523,0.002678,0.000431,0.000235
14735000,0.0324,0.013523,0.002678,0.000431,0.000235
14736000,0.0324,0.013523,0.002678,0.000431,0.000470
14737000,0.0324,0.013523,0.002678,0.000431,0.000353
14738000,0.0324,0.013523,0.002678,0.000431,0.000235
14739000,0.0324,0.013523,0.002678,0.000431,0.000353
14740000,0.0324,0.013523,0.002678,0.000431,0.000470
14741000,0.0324,0.013523,0.002678,0.000431,0.000235
14742000,0.0324,0.013523,0.002678,0.000431,0.000235
14743000,0.0324,0.013523,0.002678,0.000431,0.000470
14744000,0.0324,0.013523,0.002678,0.000431,0.000353
14745000,0.0324,0.013523,0.002678,0.000431,0.000235
14746000,0.0324,0.013523,0.002678,0.000431,0.000353
14747000,0.0324,0.013523,0.002678,0.000431,0.000470
14748000,0.0324,0.013523,0.002678,0.000431,0.000235
14749000,0.0324,0.013523,0.002678,0.000431,0.000235
14750000,0.0324,0.013523,0.002678,0.000431,0.000470
14751000,0.0324,0.013523,0.002678,0.000431,0.000353
14752000,0.0324,0.013523,0.002678,0.000431,0.000235
14753000,0.0324,0.013523,0.002678,0.000431,0.000353
14754000,0.0324,0.013523,0.002678,0.000431,0.000470
14755000,0.0324,0.013523,0.002678,0.000431,0.000235
14756000,0.0324,0.013523,0.002678,0.000431,0.000235
14757000,0.0324,0.013523,0.002678,0.000431,0.000470
14758000,0.0324,0.013523,0.002678,0.000431,0.000353
14759000,0.0324,0.013523,0.002678,0.000431,0.000235
14760000,0.0324,0.013523,0.002678,0.000431,0.000353
14761000,0.0324,0.013523,0.002678,0.000431,0.000470
14762000,0.0324,0.013523,0.002678,0.000431,0.000235
14763000,0.0324,0.013523,0.002678,0.000431,0.000235
14764000,0.0324,0.013523,0.002678,0.000431,0.000470
14765000,0.0324,0.013523,0.002678,0.000431,0.000353
14766000,0.0324,0.013523,0.002678,0.000431,0.000235
14767000,0.0324,0.013523,0.002678,0.000431,0.000353
14768000,0.0324,0.013523,0.002678,0.000431,0.000470
14769000,0.0324,0.013523,0.002678,0.000431,0.000235
14770000,0.0324,0.013523,0.002678,0.000431,0.000235
14771000,0.0324,0.013523,0.002678,0.000431,0.000470
14772000,0.0324,0.013523,0.002678,0.000431,0.000353
14773000,0.0324,0.013523,0.002678,0.000431,0.000235
14774000,0.0324,0.013523,0.002678,0.000431,0.000353
14775000,0.0324,0.013523,0.002678,0.000431,0.000470
14776000,0.0324,0.013523,0.002678,0.000431,0.000118
14777000,0.0324,0.013523,0.002678,0.000431,0.000353
14778000,0.0324,0.013523,0.002678,0.000431,0.000470
14779000,0.0324,0.013523,0.002678,0.000431,0.000353
14780000,0.0324,0.013523,0.002678,0.000431,0.000235
14781000,0.0324,0.013523,0.002678,0.000431,0.000353
14782000,0.0324,0.013523,0.002678,0.000431,0.000470
14783000,0.0324,0.013523,0.002678,0.000431,0.000118
14784000,0.0324,0.013523,0.002678,0.000431,0.000353
14785000,0.0324,0.013523,0.002678,0.000431,0.000470
14786000,0.0324,0.013523,0.002678,0.000431,0.000353
14787000,0.0324,0.013523,0.002678,0.000431,0.000235
14788000,0.0324,0.013523,0.002678,0.000431,0.000353
14789000,0.0324,0.013523,0.002678,0.000431,0.000470
14790000,0.0324,0.013523,0.002678,0.000431,0.000118
14791000,0.0324,0.013523,0.002678,0.000431,0.000353
14792000,0.0324,0.013523,0.002678,0.000431,0.000470
14793000,0.0324,0.013523,0.002678,0.000431,0.000353
14794000,0.0324,0.013523,0.002678,0.000431,0.000235
14795000,0.0324,0.013523,0.002678,0.000431,0.000353
14796000,0.0324,0.013523,0.002678,0.000431,0.000353
14797000,0.0324,0.013523,0.002678,0.000431,0.000235
14798000,0.0324,0.013523,0.002678,0.000431,0.000353
14799000,0.0324,0.013523,0.002678,0.000431,0.000470
14800000,0.0324,0.013523,0.002678,0.000431,0.000353
14801000,0.0324,0.013523,0.002678,0.000431,0.000235
14802000,0.0324,0.013523,0.002678,0.000431,0.000353
14803000,0.0324,0.013523,0.002678,0.000431,0.000353
14804000,0.0324,0.013523,0.002678,0.000431,0.000235
14805000,0.0324,0.013523,0.002678,0.000431,0.000353
14806000,0.0324,0.013523,0.002678,0.000431,0.000470
14807000,0.0324,0.013523,0.002678,0.000431,0.000353
14808000,0.0324,0.013523,0.002678,0.000431,0.000235
14809000,0.0324,0.013523,0.002678,0.000431,0.000353
14810000,0.0324,0.013523,0.002678,0.000431,0.000353
14811000,0.0324,0.013523,0.002678,0.000431,0.000235
14812000,0.0324,0.013523,0.002678,0.000431,0.000353
14813000,0.0324,0.013523,0.002678,0.000431,0.000470
14814000,0.0324,0.013523,0.002678,0.000431,0.000353
14815000,0.0324,0.013523,0.002678,0.000431,0.000235
14816000,0.0324,0.013523,0.002678,0.000431,0.000353
14817000,0.0324,0.013523,0.002678,0.000431,0.000353
14818000,0.0324,0.013523,0.002678,0.000431,0.000235
14819000,0.0324,0.013523,0.002678,0.000431,0.000353
14820000,0.0324,0.013523,0.002678,0.000431,0.000470
14821000,0.0324,0.013523,0.002678,0.000431,0.000353
14822000,0.0324,0.013523,0.002678,0.000431,0.000235
14823000,0.0324,0.013523,0.002678,0.000431,0.000353
14824000,0.0324,0.013523,0.002678,0.000431,0.000353
14825000,0.0324,0.013523,0.002678,0.000431,0.000235
14826000,0.0324,0.013523,0.002678,0.000431,0.000353
14827000,0.0324,0.013523,0.002678,0.000431,0.000470
14828000,0.0324,0.013523,0.002678,0.000431,0.000353
14829000,0.0324,0.013523,0.002678,0.000431,0.000235
14830000,0.0324,0.013523,0.002678,0.000431,0.000353
14831000,0.0324,0.013523,0.002678,0.000431,0.000353
14832000,0.0324,0.013523,0.002678,0.000431,0.000235
14833000,0.0324,0.013523,0.002678,0.000431,0.000353
14834000,0.0324,0.013523,0.002678,0.000431,0.000470
14835000,0.0324,0.013523,0.002678,0.000431,0.000353
14836000,0.0324,0.013523,0.002678,0.000431,0.000235
14837000,0.0324,0.013523,0.002678,0.000431,0.000353
14838000,0.0324,0.013523,0.002678,0.000431,0.000353
14839000,0.0324,0.013523,0.002678,0.000431,0.000235
14840000,0.0324,0.013523,0.002678,0.000431,0.000353
14841000,0.0324,0.013523,0.002678,0.000431,0.000470
14842000,0.0324,0.013523,0.002678,0.000431,0.000353
14843000,0.0324,0.013523,0.002678,0.000431,0.000235
14844000,0.0324,0.013523,0.002678,0.000431,0.000353
14845000,0.0324,0.013523,0.002678,0.000431,0.000353
14846000,0.0324,0.013523,0.002678,0.000431,0.000235
14847000,0.0324,0.013523,0.002678,0.000431,0.000353
14848000,0.0324,0.013523,0.002678,0.000431,0.000470
14849000,0.0324,0.013523,0.002678,0.000431,0.000353
14850000,0.0324,0.013523,0.002678,0.000431,0.000118
14851000,0.0324,0.013523,0.002678,0.000431,0.000470
14852000,0.0324,0.013523,0.002678,0.000431,0.000353
14853000,0.0324,0.013523,0.002678,0.000431,0.000235
14854000,0.0324,0.013523,0.002678,0.000431,0.000353
14855000,0.0324,0.013523,0.002678,0.000431,0.000470
14856000,0.0324,0.013523,0.002678,0.000431,0.000353
14857000,0.0324,0.013523,0.002678,0.000431,0.000118
14858000,0.0324,0.013523,0.002678,0.000431,0.000470
14859000,0.0324,0.013523,0.002678,0.000431,0.000353
14860000,0.0324,0.013523,0.002678,0.000431,0.000235
14861000,0.0324,0.013523,0.002678,0.000431,0.000353
14862000,0.0324,0.013523,0.002678,0.000431,0.000470
14863000,0.0324,0.013523,0.002678,0.000431,0.000353
14864000,0.0324,0.013523,0.002678,0.000431,0.000118
14865000,0.0324,0.013523,0.002678,0.000431,0.000470
14866000,0.0324,0.013523,0.002678,0.000431,0.000353
14867000,0.0324,0.013523,0.002678,0.000431,0.000235
14868000,0.0324,0.013523,0.002678,0.000431,0.000353
14869000,0.0324,0.013523,0.002678,0.000431,0.000470
14870000,0.0324,0.013523,0.002678,0.000431,0.000235
14871000,0.0324,0.013523,0.002678,0.000431,0.000235
14872000,0.0324,0.013523,0.002678,0.000431,0.000470
14873000,0.0324,0.013523,0.002678,0.000431,0.000353
14874000,0.0324,0.013523,0.002678,0.000431,0.000235
14875000,0.0324,0.013523,0.002678,0.000431,0.000353
14876000,0.0324,0.013523,0.002678,0.000431,0.000470
14877000,0.0324,0.013523,0.002678,0.000431,0.000118
14878000,0.0324,0.013523,0.002678,0.000431,0.000353
14879000,0.0324,0.013523,0.002678,0.000431,0.000470
14880000,0.0324,0.013523,0.002678,0.000431,0.000353
14881000,0.0324,0.013523,0.002678,0.000431,0.000235
14882000,0.0324,0.013523,0.002678,0.000431,0.000353
14883000,0.0324,0.013523,0.002678,0.000431,0.000470
14884000,0.0324,0.013523,0.002678,0.000431,0.000118
14885000,0.0324,0.013523,0.002678,0.000431,0.000353
14886000,0.0324,0.013523,0.002678,0.000431,0.000470
14887000,0.0324,0.013523,0.002678,0.000431,0.000353
14888000,0.0324,0.013523,0.002678,0.000431,0.000235
14889000,0.0324,0.013523,0.002678,0.000431,0.000353
14890000,0.0324,0.013523,0.002678,0.000431,0.000353
14891000,0.0324,0.013523,0.002678,0.000431,0.000235
14892000,0.0324,0.013523,0.002678,0.000431,0.000353
14893000,0.0324,0.013523,0.002678,0.000431,0.000470
14894000,0.0324,0.013523,0.002678,0.000431,0.000353
14895000,0.0324,0.013523,0.002678,0.000431,0.000235
14896000,0.0324,0.013523,0.002678,0.000431,0.000353
14897000,0.0324,0.013523,0.002678,0.000431,0.000353
14898000,0.0324,0.013523,0.002678,0.000431,0.000235
14899000,0.0324,0.013523,0.002678,0.000431,0.000353
14900000,0.0324,0.013523,0.002678,0.000431,0.000470
14901000,0.0324,0.013523,0.002678,0.000431,0.000353
14902000,0.0324,0.013523,0.002678,0.000431,0.000118
14903000,0.0324,0.013523,0.002678,0.000431,0.000470
14904000,0.0324,0.013523,0.002678,0.000431,0.000353
14905000,0.0324,0.013523,0.002678,0.000431,0.000235
14906000,0.0324,0.013523,0.002678,0.000431,0.000353
14907000,0.0324,0.013523,0.002678,0.000431,0.000470
14908000,0.0324,0.013523,0.002678,0.000431,0.000235
14909000,0.0324,0.013523,0.002678,0.000431,0.000235
14910000,0.0324,0.013523,0.002678,0.000431,0.000470
14911000,0.0324,0.013523,0.002678,0.000431,0.000353
14912000,0.0324,0.013523,0.002678,0.000431,0.000235
14913000,0.0324,0.013523,0.002678,0.000431,0.000353
14914000,0.0324,0.013523,0.002678,0.000431,0.000470
14915000,0.0324,0.013523,0.002678,0.000431,0.000235
14916000,0.0324,0.013523,0.002678,0.000431,0.000235
14917000,0.0324,0.013523,0.002678,0.000431,0.000470
14918000,0.0324,0.013523,0.002678,0.000431,0.000353
14919000,0.0324,0.013523,0.002678,0.000431,0.000235
14920000,0.0324,0.013523,0.002678,0.000431,0.000353
14921000,0.0324,0.013523,0.002678,0.000431,0.000470
14922000,0.0324,0.013523,0.002678,0.000431,0.000118
14923000,0.0324,0.013523,0.002678,0.000431,0.000353
14924000,0.0324,0.013523,0.002678,0.000431,0.000470
14925000,0.0324,0.013523,0.002678,0.000431,0.000353
14926000,0.0324,0.013523,0.002678,0.000431,0.000235
14927000,0.0324,0.013523,0.002678,0.000431,0.000353
14928000,0.0324,0.013523,0.002678,0.000431,0.000353
14929000,0.0324,0.013523,0.002678,0.000431,0.000235
14930000,0.0324,0.013523,0.002678,0.000431,0.000353
14931000,0.0324,0.013523,0.002678,0.000431,0.000470
14932000,0.0324,0.013523,0.002678,0.000431,0.000353
14933000,0.0324,0.013523,0.002678,0.000431,0.000235
14934000,0.0324,0.013523,0.002678,0.000431,0.000353
14935000,0.0324,0.013523,0.002678,0.000431,0.000353
14936000,0.0324,0.013523,0.002678,0.000431,0.000235
14937000,0.0324,0.013523,0.002678,0.000431,0.000353
14938000,0.0324,0.013523,0.002678,0.000431,0.000470
14939000,0.0324,0.013523,0.002678,0.000431,0.000353
14940000,0.0324,0.013523,0.002678,0.000431,0.000235
14941000,0.0324,0.013523,0.002678,0.000431,0.000353
14942000,0.0324,0.013523,0.002678,0.000431,0.000353
14943000,0.0324,0.013523,0.002678,0.000431,0.000235
14944000,0.0324,0.013523,0.002678,0.000431,0.000353
14945000,0.0324,0.013523,0.002678,0.000431,0.000470
14946000,0.0324,0.013523,0.002678,0.000431,0.000353
14947000,0.0324,0.013523,0.002678,0.000431,0.000118
14948000,0.0324,0.013523,0.002678,0.000431,0.000470
14949000,0.0324,0.013523,0.002678,0.000431,0.000353
14950000,0.0324,0.013523,0.002678,0.000431,0.000235
14951000,0.0324,0.013523,0.002678,0.000431,0.000353
14952000,0.0324,0.013523,0.002678,0.000431,0.000470
14953000,0.0324,0.013523,0.002678,0.000431,0.000235
14954000,0.0324,0.013523,0.002678,0.000431,0.000235
14955000,0.0324,0.013523,0.002678,0.000431,0.000470
14956000,0.0324,0.013523,0.002678,0.000431,0.000353
14957000,0.0324,0.013523,0.002678,0.000431,0.000235
14958000,0.0324,0.013523,0.002678,0.000431,0.000353
14959000,0.0324,0.013523,0.002678,0.000431,0.000470
14960000,0.0324,0.013523,0.002678,0.000431,0.000118
14961000,0.0324,0.013523,0.002678,0.000431,0.000353
14962000,0.0324,0.013523,0.002678,0.000431,0.000470
14963000,0.0324,0.013523,0.002678,0.000431,0.000353
14964000,0.0324,0.013523,0.002678,0.000431,0.000235
14965000,0.0324,0.013523,0.002678,0.000431,0.000353
14966000,0.0324,0.013523,0.002678,0.000431,0.000470
14967000,0.0324,0.013523,0.002678,0.000431,0.000118
14968000,0.0324,0.013523,0.002678,0.000431,0.000353
14969000,0.0324,0.013523,0.002678,0.000431,0.000470
14970000,0.0324,0.013523,0.002678,0.000431,0.000353
14971000,0.0324,0.013523,0.002678,0.000431,0.000235
14972000,0.0324,0.013523,0.002678,0.000431,0.000353
14973000,0.0324,0.013523,0.002678,0.000431,0.000353
14974000,0.0324,0.013523,0.002678,0.000431,0.000235
14975000,0.0324,0.013523,0.002678,0.000431,0.000353
14976000,0.0324,0.013523,0.002678,0.000431,0.000470
14977000,0.0324,0.013523,0.002678,0.000431,0.000353
14978000,0.0324,0.013523,0.002678,0.000431,0.000235
14979000,0.0324,0.013523,0.002678,0.000431,0.000353
14980000,0.0324,0.013523,0.002678,0.000431,0.000353
14981000,0.0324,0.013523,0.002678,0.000431,0.000235
14982000,0.0324,0.013523,0.002678,0.000431,0.000353
14983000,0.0324,0.013523,0.002678,0.000431,0.000470
14984000,0.0324,0.013523,0.002678,0.000431,0.000353
14985000,0.0324,0.013523,0.002678,0.000431,0.000118
14986000,0.0324,0.013523,0.002678,0.000431,0.000470
14987000,0.0324,0.013523,0.002678,0.000431,0.000353
14988000,0.0324,0.013523,0.002678,0.000431,0.000235
14989000,0.0324,0.013523,0.002678,0.000431,0.000353
14990000,0.0324,0.013523,0.002678,0.000431,0.000470
14991000,0.0324,0.013523,0.002678,0.000431,0.000353
14992000,0.0324,0.013523,0.002678,0.000431,0.000118
14993000,0.0324,0.013523,0.002678,0.000431,0.000470
14994000,0.0324,0.013523,0.002678,0.000431,0.000353
14995000,0.0324,0.013523,0.002678,0.000431,0.000235
14996000,0.0324,0.013523,0.002678,0.000431,0.000353
14997000,0.0324,0.013523,0.002678,0.000431,0.000470
14998000,0.0324,0.013523,0.002678,0.000431,0.000235
14999000,0.0324,0.013523,0.002678,0.000431,0.000235
