Cycle,Area(mm^2),PeakDynamic(W),SubthresholdLeakage(W),GateLeakage(W),RunTimeDynamic(W)
1000000,0.0324,0.013523,0.002678,0.000431,0.000353
1001000,0.0324,0.013523,0.002678,0.000431,0.000235
1002000,0.0324,0.013523,0.002678,0.000431,0.000353
1003000,0.0324,0.013523,0.002678,0.000431,0.000470
1004000,0.0324,0.013523,0.002678,0.000431,0.000118
1005000,0.0324,0.013523,0.002678,0.000431,0.000353
1006000,0.0324,0.013523,0.002678,0.000431,0.000470
1007000,0.0324,0.013523,0.002678,0.000431,0.000353
1008000,0.0324,0.013523,0.002678,0.000431,0.000235
1009000,0.0324,0.013523,0.002678,0.000431,0.000353
1010000,0.0324,0.013523,0.002678,0.000431,0.000470
1011000,0.0324,0.013523,0.002678,0.000431,0.000118
1012000,0.0324,0.013523,0.002678,0.000431,0.000353
1013000,0.0324,0.013523,0.002678,0.000431,0.000470
1014000,0.0324,0.013523,0.002678,0.000431,0.000353
1015000,0.0324,0.013523,0.002678,0.000431,0.000235
1016000,0.0324,0.013523,0.002678,0.000431,0.000353
1017000,0.0324,0.013523,0.002678,0.000431,0.000353
1018000,0.0324,0.013523,0.002678,0.000431,0.000235
1019000,0.0324,0.013523,0.002678,0.000431,0.000353
1020000,0.0324,0.013523,0.002678,0.000431,0.000470
1021000,0.0324,0.013523,0.002678,0.000431,0.000353
1022000,0.0324,0.013523,0.002678,0.000431,0.000235
1023000,0.0324,0.013523,0.002678,0.000431,0.000353
1024000,0.0324,0.013523,0.002678,0.000431,0.000353
1025000,0.0324,0.013523,0.002678,0.000431,0.000235
1026000,0.0324,0.013523,0.002678,0.000431,0.000353
1027000,0.0324,0.013523,0.002678,0.000431,0.000470
1028000,0.0324,0.013523,0.002678,0.000431,0.000353
1029000,0.0324,0.013523,0.002678,0.000431,0.000235
1030000,0.0324,0.013523,0.002678,0.000431,0.000353
1031000,0.0324,0.013523,0.002678,0.000431,0.000353
1032000,0.0324,0.013523,0.002678,0.000431,0.000235
1033000,0.0324,0.013523,0.002678,0.000431,0.000353
1034000,0.0324,0.013523,0.002678,0.000431,0.000470
1035000,0.0324,0.013523,0.002678,0.000431,0.000353
1036000,0.0324,0.013523,0.002678,0.000431,0.000235
1037000,0.0324,0.013523,0.002678,0.000431,0.000353
1038000,0.0324,0.013523,0.002678,0.000431,0.000353
1039000,0.0324,0.013523,0.002678,0.000431,0.000235
1040000,0.0324,0.013523,0.002678,0.000431,0.000353
1041000,0.0324,0.013523,0.002678,0.000431,0.000470
1042000,0.0324,0.013523,0.002678,0.000431,0.000353
1043000,0.0324,0.013523,0.002678,0.000431,0.000235
1044000,0.0324,0.013523,0.002678,0.000431,0.000353
1045000,0.0324,0.013523,0.002678,0.000431,0.000353
1046000,0.0324,0.013523,0.002678,0.000431,0.000235
1047000,0.0324,0.013523,0.002678,0.000431,0.000353
1048000,0.0324,0.013523,0.002678,0.000431,0.000470
1049000,0.0324,0.013523,0.002678,0.000431,0.000353
1050000,0.0324,0.013523,0.002678,0.000431,0.000235
1051000,0.0324,0.013523,0.002678,0.000431,0.000353
1052000,0.0324,0.013523,0.002678,0.000431,0.000353
1053000,0.0324,0.013523,0.002678,0.000431,0.000235
1054000,0.0324,0.013523,0.002678,0.000431,0.000353
1055000,0.0324,0.013523,0.002678,0.000431,0.000470
1056000,0.0324,0.013523,0.002678,0.000431,0.000353
1057000,0.0324,0.013523,0.002678,0.000431,0.000235
1058000,0.0324,0.013523,0.002678,0.000431,0.000353
1059000,0.0324,0.013523,0.002678,0.000431,0.000353
1060000,0.0324,0.013523,0.002678,0.000431,0.000235
1061000,0.0324,0.013523,0.002678,0.000431,0.000353
1062000,0.0324,0.013523,0.002678,0.000431,0.000470
1063000,0.0324,0.013523,0.002678,0.000431,0.000353
1064000,0.0324,0.013523,0.002678,0.000431,0.000235
1065000,0.0324,0.013523,0.002678,0.000431,0.000353
1066000,0.0324,0.013523,0.002678,0.000431,0.000353
1067000,0.0324,0.013523,0.002678,0.000431,0.000235
1068000,0.0324,0.013523,0.002678,0.000431,0.000353
1069000,0.0324,0.013523,0.002678,0.000431,0.000470
1070000,0.0324,0.013523,0.002678,0.000431,0.000353
1071000,0.0324,0.013523,0.002678,0.000431,0.000118
1072000,0.0324,0.013523,0.002678,0.000431,0.000470
1073000,0.0324,0.013523,0.002678,0.000431,0.000353
1074000,0.0324,0.013523,0.002678,0.000431,0.000235
1075000,0.0324,0.013523,0.002678,0.000431,0.000353
1076000,0.0324,0.013523,0.002678,0.000431,0.000470
1077000,0.0324,0.013523,0.002678,0.000431,0.000353
1078000,0.0324,0.013523,0.002678,0.000431,0.000118
1079000,0.0324,0.013523,0.002678,0.000431,0.000470
1080000,0.0324,0.013523,0.002678,0.000431,0.000353
1081000,0.0324,0.013523,0.002678,0.000431,0.000235
1082000,0.0324,0.013523,0.002678,0.000431,0.000353
1083000,0.0324,0.013523,0.002678,0.000431,0.000470
1084000,0.0324,0.013523,0.002678,0.000431,0.000353
1085000,0.0324,0.013523,0.002678,0.000431,0.000118
1086000,0.0324,0.013523,0.002678,0.000431,0.000470
1087000,0.0324,0.013523,0.002678,0.000431,0.000353
1088000,0.0324,0.013523,0.002678,0.000431,0.000235
1089000,0.0324,0.013523,0.002678,0.000431,0.000353
1090000,0.0324,0.013523,0.002678,0.000431,0.000470
1091000,0.0324,0.013523,0.002678,0.000431,0.000235
1092000,0.0324,0.013523,0.002678,0.000431,0.000235
1093000,0.0324,0.013523,0.002678,0.000431,0.000470
1094000,0.0324,0.013523,0.002678,0.000431,0.000353
1095000,0.0324,0.013523,0.002678,0.000431,0.000235
1096000,0.0324,0.013523,0.002678,0.000431,0.000353
1097000,0.0324,0.013523,0.002678,0.000431,0.000470
1098000,0.0324,0.013523,0.002678,0.000431,0.000235
1099000,0.0324,0.013523,0.002678,0.000431,0.000235
1100000,0.0324,0.013523,0.002678,0.000431,0.000470
1101000,0.0324,0.013523,0.002678,0.000431,0.000353
1102000,0.0324,0.013523,0.002678,0.000431,0.000235
1103000,0.0324,0.013523,0.002678,0.000431,0.000353
1104000,0.0324,0.013523,0.002678,0.000431,0.000470
1105000,0.0324,0.013523,0.002678,0.000431,0.000235
1106000,0.0324,0.013523,0.002678,0.000431,0.000235
1107000,0.0324,0.013523,0.002678,0.000431,0.000470
1108000,0.0324,0.013523,0.002678,0.000431,0.000353
1109000,0.0324,0.013523,0.002678,0.000431,0.000235
1110000,0.0324,0.013523,0.002678,0.000431,0.000353
1111000,0.0324,0.013523,0.002678,0.000431,0.000470
1112000,0.0324,0.013523,0.002678,0.000431,0.000235
1113000,0.0324,0.013523,0.002678,0.000431,0.000235
1114000,0.0324,0.013523,0.002678,0.000431,0.000470
1115000,0.0324,0.013523,0.002678,0.000431,0.000353
1116000,0.0324,0.013523,0.002678,0.000431,0.000235
1117000,0.0324,0.013523,0.002678,0.000431,0.000353
1118000,0.0324,0.013523,0.002678,0.000431,0.000470
1119000,0.0324,0.013523,0.002678,0.000431,0.000235
1120000,0.0324,0.013523,0.002678,0.000431,0.000235
1121000,0.0324,0.013523,0.002678,0.000431,0.000470
1122000,0.0324,0.013523,0.002678,0.000431,0.000353
1123000,0.0324,0.013523,0.002678,0.000431,0.000235
1124000,0.0324,0.013523,0.002678,0.000431,0.000353
1125000,0.0324,0.013523,0.002678,0.000431,0.000470
1126000,0.0324,0.013523,0.002678,0.000431,0.000235
1127000,0.0324,0.013523,0.002678,0.000431,0.000235
1128000,0.0324,0.013523,0.002678,0.000431,0.000470
1129000,0.0324,0.013523,0.002678,0.000431,0.000353
1130000,0.0324,0.013523,0.002678,0.000431,0.000235
1131000,0.0324,0.013523,0.002678,0.000431,0.000353
1132000,0.0324,0.013523,0.002678,0.000431,0.000470
1133000,0.0324,0.013523,0.002678,0.000431,0.000118
1134000,0.0324,0.013523,0.002678,0.000431,0.000353
1135000,0.0324,0.013523,0.002678,0.000431,0.000470
1136000,0.0324,0.013523,0.002678,0.000431,0.000353
1137000,0.0324,0.013523,0.002678,0.000431,0.000235
1138000,0.0324,0.013523,0.002678,0.000431,0.000353
1139000,0.0324,0.013523,0.002678,0.000431,0.000470
1140000,0.0324,0.013523,0.002678,0.000431,0.000118
1141000,0.0324,0.013523,0.002678,0.000431,0.000353
1142000,0.0324,0.013523,0.002678,0.000431,0.000470
1143000,0.0324,0.013523,0.002678,0.000431,0.000353
1144000,0.0324,0.013523,0.002678,0.000431,0.000235
1145000,0.0324,0.013523,0.002678,0.000431,0.000353
1146000,0.0324,0.013523,0.002678,0.000431,0.000470
1147000,0.0324,0.013523,0.002678,0.000431,0.000118
1148000,0.0324,0.013523,0.002678,0.000431,0.000353
1149000,0.0324,0.013523,0.002678,0.000431,0.000470
1150000,0.0324,0.013523,0.002678,0.000431,0.000353
1151000,0.0324,0.013523,0.002678,0.000431,0.000235
1152000,0.0324,0.013523,0.002678,0.000431,0.000353
1153000,0.0324,0.013523,0.002678,0.000431,0.000470
1154000,0.0324,0.013523,0.002678,0.000431,0.000118
1155000,0.0324,0.013523,0.002678,0.000431,0.000353
1156000,0.0324,0.013523,0.002678,0.000431,0.000470
1157000,0.0324,0.013523,0.002678,0.000431,0.000353
1158000,0.0324,0.013523,0.002678,0.000431,0.000235
1159000,0.0324,0.013523,0.002678,0.000431,0.000353
1160000,0.0324,0.013523,0.002678,0.000431,0.000353
1161000,0.0324,0.013523,0.002678,0.000431,0.000235
1162000,0.0324,0.013523,0.002678,0.000431,0.000353
1163000,0.0324,0.013523,0.002678,0.000431,0.000470
1164000,0.0324,0.013523,0.002678,0.000431,0.000353
1165000,0.0324,0.013523,0.002678,0.000431,0.000235
1166000,0.0324,0.013523,0.002678,0.000431,0.000353
1167000,0.0324,0.013523,0.002678,0.000431,0.000353
1168000,0.0324,0.013523,0.002678,0.000431,0.000235
1169000,0.0324,0.013523,0.002678,0.000431,0.000353
1170000,0.0324,0.013523,0.002678,0.000431,0.000470
1171000,0.0324,0.013523,0.002678,0.000431,0.000353
1172000,0.0324,0.013523,0.002678,0.000431,0.000235
1173000,0.0324,0.013523,0.002678,0.000431,0.000353
1174000,0.0324,0.013523,0.002678,0.000431,0.000353
1175000,0.0324,0.013523,0.002678,0.000431,0.000235
1176000,0.0324,0.013523,0.002678,0.000431,0.000353
1177000,0.0324,0.013523,0.002678,0.000431,0.000470
1178000,0.0324,0.013523,0.002678,0.000431,0.000353
1179000,0.0324,0.013523,0.002678,0.000431,0.000235
1180000,0.0324,0.013523,0.002678,0.000431,0.000353
1181000,0.0324,0.013523,0.002678,0.000431,0.000353
1182000,0.0324,0.013523,0.002678,0.000431,0.000235
1183000,0.0324,0.013523,0.002678,0.000431,0.000353
1184000,0.0324,0.013523,0.002678,0.000431,0.000470
1185000,0.0324,0.013523,0.002678,0.000431,0.000353
1186000,0.0324,0.013523,0.002678,0.000431,0.000235
1187000,0.0324,0.013523,0.002678,0.000431,0.000353
1188000,0.0324,0.013523,0.002678,0.000431,0.000353
1189000,0.0324,0.013523,0.002678,0.000431,0.000235
1190000,0.0324,0.013523,0.002678,0.000431,0.000353
1191000,0.0324,0.013523,0.002678,0.000431,0.000470
1192000,0.0324,0.013523,0.002678,0.000431,0.000353
1193000,0.0324,0.013523,0.002678,0.000431,0.000235
1194000,0.0324,0.013523,0.002678,0.000431,0.000353
1195000,0.0324,0.013523,0.002678,0.000431,0.000353
1196000,0.0324,0.013523,0.002678,0.000431,0.000235
1197000,0.0324,0.013523,0.002678,0.000431,0.000353
1198000,0.0324,0.013523,0.002678,0.000431,0.000470
1199000,0.0324,0.013523,0.002678,0.000431,0.000353
1200000,0.0324,0.013523,0.002678,0.000431,0.000235
1201000,0.0324,0.013523,0.002678,0.000431,0.000353
1202000,0.0324,0.013523,0.002678,0.000431,0.000353
1203000,0.0324,0.013523,0.002678,0.000431,0.000235
1204000,0.0324,0.013523,0.002678,0.000431,0.000353
1205000,0.0324,0.013523,0.002678,0.000431,0.000470
1206000,0.0324,0.013523,0.002678,0.000431,0.000353
1207000,0.0324,0.013523,0.002678,0.000431,0.000235
1208000,0.0324,0.013523,0.002678,0.000431,0.000353
1209000,0.0324,0.013523,0.002678,0.000431,0.000353
1210000,0.0324,0.013523,0.002678,0.000431,0.000235
1211000,0.0324,0.013523,0.002678,0.000431,0.000353
1212000,0.0324,0.013523,0.002678,0.000431,0.000470
1213000,0.0324,0.013523,0.002678,0.000431,0.000353
1214000,0.0324,0.013523,0.002678,0.000431,0.000118
1215000,0.0324,0.013523,0.002678,0.000431,0.000470
1216000,0.0324,0.013523,0.002678,0.000431,0.000353
1217000,0.0324,0.013523,0.002678,0.000431,0.000235
1218000,0.0324,0.013523,0.002678,0.000431,0.000353
1219000,0.0324,0.013523,0.002678,0.000431,0.000470
1220000,0.0324,0.013523,0.002678,0.000431,0.000353
1221000,0.0324,0.013523,0.002678,0.000431,0.000118
1222000,0.0324,0.013523,0.002678,0.000431,0.000470
1223000,0.0324,0.013523,0.002678,0.000431,0.000353
1224000,0.0324,0.013523,0.002678,0.000431,0.000235
1225000,0.0324,0.013523,0.002678,0.000431,0.000353
1226000,0.0324,0.013523,0.002678,0.000431,0.000470
1227000,0.0324,0.013523,0.002678,0.000431,0.000353
1228000,0.0324,0.013523,0.002678,0.000431,0.000118
1229000,0.0324,0.013523,0.002678,0.000431,0.000470
1230000,0.0324,0.013523,0.002678,0.000431,0.000353
1231000,0.0324,0.013523,0.002678,0.000431,0.000235
1232000,0.0324,0.013523,0.002678,0.000431,0.000353
1233000,0.0324,0.013523,0.002678,0.000431,0.000470
1234000,0.0324,0.013523,0.002678,0.000431,0.000235
1235000,0.0324,0.013523,0.002678,0.000431,0.000235
1236000,0.0324,0.013523,0.002678,0.000431,0.000470
1237000,0.0324,0.013523,0.002678,0.000431,0.000353
1238000,0.0324,0.013523,0.002678,0.000431,0.000235
1239000,0.0324,0.013523,0.002678,0.000431,0.000353
1240000,0.0324,0.013523,0.002678,0.000431,0.000470
1241000,0.0324,0.013523,0.002678,0.000431,0.000235
1242000,0.0324,0.013523,0.002678,0.000431,0.000235
1243000,0.0324,0.013523,0.002678,0.000431,0.000470
1244000,0.0324,0.013523,0.002678,0.000431,0.000353
1245000,0.0324,0.013523,0.002678,0.000431,0.000235
1246000,0.0324,0.013523,0.002678,0.000431,0.000353
1247000,0.0324,0.013523,0.002678,0.000431,0.000470
1248000,0.0324,0.013523,0.002678,0.000431,0.000235
1249000,0.0324,0.013523,0.002678,0.000431,0.000235
1250000,0.0324,0.013523,0.002678,0.000431,0.000470
1251000,0.0324,0.013523,0.002678,0.000431,0.000353
1252000,0.0324,0.013523,0.002678,0.000431,0.000235
1253000,0.0324,0.013523,0.002678,0.000431,0.000353
1254000,0.0324,0.013523,0.002678,0.000431,0.000470
1255000,0.0324,0.013523,0.002678,0.000431,0.000235
1256000,0.0324,0.013523,0.002678,0.000431,0.000235
1257000,0.0324,0.013523,0.002678,0.000431,0.000470
1258000,0.0324,0.013523,0.002678,0.000431,0.000353
1259000,0.0324,0.013523,0.002678,0.000431,0.000235
1260000,0.0324,0.013523,0.002678,0.000431,0.000353
1261000,0.0324,0.013523,0.002678,0.000431,0.000470
1262000,0.0324,0.013523,0.002678,0.000431,0.000235
1263000,0.0324,0.013523,0.002678,0.000431,0.000235
1264000,0.0324,0.013523,0.002678,0.000431,0.000470
1265000,0.0324,0.013523,0.002678,0.000431,0.000353
1266000,0.0324,0.013523,0.002678,0.000431,0.000235
1267000,0.0324,0.013523,0.002678,0.000431,0.000353
1268000,0.0324,0.013523,0.002678,0.000431,0.000470
1269000,0.0324,0.013523,0.002678,0.000431,0.000235
1270000,0.0324,0.013523,0.002678,0.000431,0.000235
1271000,0.0324,0.013523,0.002678,0.000431,0.000470
1272000,0.0324,0.013523,0.002678,0.000431,0.000353
1273000,0.0324,0.013523,0.002678,0.000431,0.000235
1274000,0.0324,0.013523,0.002678,0.000431,0.000353
1275000,0.0324,0.013523,0.002678,0.000431,0.000470
1276000,0.0324,0.013523,0.002678,0.000431,0.000118
1277000,0.0324,0.013523,0.002678,0.000431,0.000353
1278000,0.0324,0.013523,0.002678,0.000431,0.000470
1279000,0.0324,0.013523,0.002678,0.000431,0.000353
1280000,0.0324,0.013523,0.002678,0.000431,0.000235
1281000,0.0324,0.013523,0.002678,0.000431,0.000353
1282000,0.0324,0.013523,0.002678,0.000431,0.000470
1283000,0.0324,0.013523,0.002678,0.000431,0.000118
1284000,0.0324,0.013523,0.002678,0.000431,0.000353
1285000,0.0324,0.013523,0.002678,0.000431,0.000470
1286000,0.0324,0.013523,0.002678,0.000431,0.000353
1287000,0.0324,0.013523,0.002678,0.000431,0.000235
1288000,0.0324,0.013523,0.002678,0.000431,0.000353
1289000,0.0324,0.013523,0.002678,0.000431,0.000470
1290000,0.0324,0.013523,0.002678,0.000431,0.000118
1291000,0.0324,0.013523,0.002678,0.000431,0.000353
1292000,0.0324,0.013523,0.002678,0.000431,0.000470
1293000,0.0324,0.013523,0.002678,0.000431,0.000353
1294000,0.0324,0.013523,0.002678,0.000431,0.000235
1295000,0.0324,0.013523,0.002678,0.000431,0.000353
1296000,0.0324,0.013523,0.002678,0.000431,0.000353
1297000,0.0324,0.013523,0.002678,0.000431,0.000235
1298000,0.0324,0.013523,0.002678,0.000431,0.000353
1299000,0.0324,0.013523,0.002678,0.000431,0.000470
1300000,0.0324,0.013523,0.002678,0.000431,0.000353
1301000,0.0324,0.013523,0.002678,0.000431,0.000235
1302000,0.0324,0.013523,0.002678,0.000431,0.000353
1303000,0.0324,0.013523,0.002678,0.000431,0.000353
1304000,0.0324,0.013523,0.002678,0.000431,0.000235
1305000,0.0324,0.013523,0.002678,0.000431,0.000353
1306000,0.0324,0.013523,0.002678,0.000431,0.000470
1307000,0.0324,0.013523,0.002678,0.000431,0.000353
1308000,0.0324,0.013523,0.002678,0.000431,0.000235
1309000,0.0324,0.013523,0.002678,0.000431,0.000353
1310000,0.0324,0.013523,0.002678,0.000431,0.000353
1311000,0.0324,0.013523,0.002678,0.000431,0.000235
1312000,0.0324,0.013523,0.002678,0.000431,0.000353
1313000,0.0324,0.013523,0.002678,0.000431,0.000470
1314000,0.0324,0.013523,0.002678,0.000431,0.000353
1315000,0.0324,0.013523,0.002678,0.000431,0.000235
1316000,0.0324,0.013523,0.002678,0.000431,0.000353
1317000,0.0324,0.013523,0.002678,0.000431,0.000353
1318000,0.0324,0.013523,0.002678,0.000431,0.000235
1319000,0.0324,0.013523,0.002678,0.000431,0.000353
1320000,0.0324,0.013523,0.002678,0.000431,0.000470
1321000,0.0324,0.013523,0.002678,0.000431,0.000353
1322000,0.0324,0.013523,0.002678,0.000431,0.000235
1323000,0.0324,0.013523,0.002678,0.000431,0.000353
1324000,0.0324,0.013523,0.002678,0.000431,0.000353
1325000,0.0324,0.013523,0.002678,0.000431,0.000235
1326000,0.0324,0.013523,0.002678,0.000431,0.000353
1327000,0.0324,0.013523,0.002678,0.000431,0.000470
1328000,0.0324,0.013523,0.002678,0.000431,0.000353
1329000,0.0324,0.013523,0.002678,0.000431,0.000235
1330000,0.0324,0.013523,0.002678,0.000431,0.000353
1331000,0.0324,0.013523,0.002678,0.000431,0.000353
1332000,0.0324,0.013523,0.002678,0.000431,0.000235
1333000,0.0324,0.013523,0.002678,0.000431,0.000353
1334000,0.0324,0.013523,0.002678,0.000431,0.000470
1335000,0.0324,0.013523,0.002678,0.000431,0.000353
1336000,0.0324,0.013523,0.002678,0.000431,0.000235
1337000,0.0324,0.013523,0.002678,0.000431,0.000353
1338000,0.0324,0.013523,0.002678,0.000431,0.000353
1339000,0.0324,0.013523,0.002678,0.000431,0.000235
1340000,0.0324,0.013523,0.002678,0.000431,0.000353
1341000,0.0324,0.013523,0.002678,0.000431,0.000470
1342000,0.0324,0.013523,0.002678,0.000431,0.000353
1343000,0.0324,0.013523,0.002678,0.000431,0.000235
1344000,0.0324,0.013523,0.002678,0.000431,0.000353
1345000,0.0324,0.013523,0.002678,0.000431,0.000353
1346000,0.0324,0.013523,0.002678,0.000431,0.000235
1347000,0.0324,0.013523,0.002678,0.000431,0.000353
1348000,0.0324,0.013523,0.002678,0.000431,0.000470
1349000,0.0324,0.013523,0.002678,0.000431,0.000353
1350000,0.0324,0.013523,0.002678,0.000431,0.000118
1351000,0.0324,0.013523,0.002678,0.000431,0.000470
1352000,0.0324,0.013523,0.002678,0.000431,0.000353
1353000,0.0324,0.013523,0.002678,0.000431,0.000235
1354000,0.0324,0.013523,0.002678,0.000431,0.000353
1355000,0.0324,0.013523,0.002678,0.000431,0.000470
1356000,0.0324,0.013523,0.002678,0.000431,0.000353
1357000,0.0324,0.013523,0.002678,0.000431,0.000118
1358000,0.0324,0.013523,0.002678,0.000431,0.000470
1359000,0.0324,0.013523,0.002678,0.000431,0.000353
1360000,0.0324,0.013523,0.002678,0.000431,0.000235
1361000,0.0324,0.013523,0.002678,0.000431,0.000353
1362000,0.0324,0.013523,0.002678,0.000431,0.000470
1363000,0.0324,0.013523,0.002678,0.000431,0.000353
1364000,0.0324,0.013523,0.002678,0.000431,0.000118
1365000,0.0324,0.013523,0.002678,0.000431,0.000470
1366000,0.0324,0.013523,0.002678,0.000431,0.000353
1367000,0.0324,0.013523,0.002678,0.000431,0.000235
1368000,0.0324,0.013523,0.002678,0.000431,0.000353
1369000,0.0324,0.013523,0.002678,0.000431,0.000470
1370000,0.0324,0.013523,0.002678,0.000431,0.000353
1371000,0.0324,0.013523,0.002678,0.000431,0.000118
1372000,0.0324,0.013523,0.002678,0.000431,0.000470
1373000,0.0324,0.013523,0.002678,0.000431,0.000353
1374000,0.0324,0.013523,0.002678,0.000431,0.000235
1375000,0.0324,0.013523,0.002678,0.000431,0.000353
1376000,0.0324,0.013523,0.002678,0.000431,0.000470
1377000,0.0324,0.013523,0.002678,0.000431,0.000235
1378000,0.0324,0.013523,0.002678,0.000431,0.000235
1379000,0.0324,0.013523,0.002678,0.000431,0.000470
1380000,0.0324,0.013523,0.002678,0.000431,0.000353
1381000,0.0324,0.013523,0.002678,0.000431,0.000235
1382000,0.0324,0.013523,0.002678,0.000431,0.000353
1383000,0.0324,0.013523,0.002678,0.000431,0.000470
1384000,0.0324,0.013523,0.002678,0.000431,0.000235
1385000,0.0324,0.013523,0.002678,0.000431,0.000235
1386000,0.0324,0.013523,0.002678,0.000431,0.000470
1387000,0.0324,0.013523,0.002678,0.000431,0.000353
1388000,0.0324,0.013523,0.002678,0.000431,0.000235
1389000,0.0324,0.013523,0.002678,0.000431,0.000353
1390000,0.0324,0.013523,0.002678,0.000431,0.000470
1391000,0.0324,0.013523,0.002678,0.000431,0.000235
1392000,0.0324,0.013523,0.002678,0.000431,0.000235
1393000,0.0324,0.013523,0.002678,0.000431,0.000470
1394000,0.0324,0.013523,0.002678,0.000431,0.000353
1395000,0.0324,0.013523,0.002678,0.000431,0.000235
1396000,0.0324,0.013523,0.002678,0.000431,0.000353
1397000,0.0324,0.013523,0.002678,0.000431,0.000470
1398000,0.0324,0.013523,0.002678,0.000431,0.000235
1399000,0.0324,0.013523,0.002678,0.000431,0.000235
1400000,0.0324,0.013523,0.002678,0.000431,0.000470
1401000,0.0324,0.013523,0.002678,0.000431,0.000353
1402000,0.0324,0.013523,0.002678,0.000431,0.000235
1403000,0.0324,0.013523,0.002678,0.000431,0.000353
1404000,0.0324,0.013523,0.002678,0.000431,0.000470
1405000,0.0324,0.013523,0.002678,0.000431,0.000235
1406000,0.0324,0.013523,0.002678,0.000431,0.000235
1407000,0.0324,0.013523,0.002678,0.000431,0.000470
1408000,0.0324,0.013523,0.002678,0.000431,0.000353
1409000,0.0324,0.013523,0.002678,0.000431,0.000235
1410000,0.0324,0.013523,0.002678,0.000431,0.000353
1411000,0.0324,0.013523,0.002678,0.000431,0.000470
1412000,0.0324,0.013523,0.002678,0.000431,0.000235
1413000,0.0324,0.013523,0.002678,0.000431,0.000235
1414000,0.0324,0.013523,0.002678,0.000431,0.000470
1415000,0.0324,0.013523,0.002678,0.000431,0.000353
1416000,0.0324,0.013523,0.002678,0.000431,0.000235
1417000,0.0324,0.013523,0.002678,0.000431,0.000353
1418000,0.0324,0.013523,0.002678,0.000431,0.000470
1419000,0.0324,0.013523,0.002678,0.000431,0.000118
1420000,0.0324,0.013523,0.002678,0.000431,0.000353
1421000,0.0324,0.013523,0.002678,0.000431,0.000470
1422000,0.0324,0.013523,0.002678,0.000431,0.000353
1423000,0.0324,0.013523,0.002678,0.000431,0.000235
1424000,0.0324,0.013523,0.002678,0.000431,0.000353
1425000,0.0324,0.013523,0.002678,0.000431,0.000470
1426000,0.0324,0.013523,0.002678,0.000431,0.000118
1427000,0.0324,0.013523,0.002678,0.000431,0.000353
1428000,0.0324,0.013523,0.002678,0.000431,0.000470
1429000,0.0324,0.013523,0.002678,0.000431,0.000353
1430000,0.0324,0.013523,0.002678,0.000431,0.000235
1431000,0.0324,0.013523,0.002678,0.000431,0.000353
1432000,0.0324,0.013523,0.002678,0.000431,0.000470
1433000,0.0324,0.013523,0.002678,0.000431,0.000118
1434000,0.0324,0.013523,0.002678,0.000431,0.000353
1435000,0.0324,0.013523,0.002678,0.000431,0.000470
1436000,0.0324,0.013523,0.002678,0.000431,0.000353
1437000,0.0324,0.013523,0.002678,0.000431,0.000235
1438000,0.0324,0.013523,0.002678,0.000431,0.000353
1439000,0.0324,0.013523,0.002678,0.000431,0.000353
1440000,0.0324,0.013523,0.002678,0.000431,0.000235
1441000,0.0324,0.013523,0.002678,0.000431,0.000353
1442000,0.0324,0.013523,0.002678,0.000431,0.000470
1443000,0.0324,0.013523,0.002678,0.000431,0.000353
1444000,0.0324,0.013523,0.002678,0.000431,0.000235
1445000,0.0324,0.013523,0.002678,0.000431,0.000353
1446000,0.0324,0.013523,0.002678,0.000431,0.000353
1447000,0.0324,0.013523,0.002678,0.000431,0.000235
1448000,0.0324,0.013523,0.002678,0.000431,0.000353
1449000,0.0324,0.013523,0.002678,0.000431,0.000470
1450000,0.0324,0.013523,0.002678,0.000431,0.000353
1451000,0.0324,0.013523,0.002678,0.000431,0.000235
1452000,0.0324,0.013523,0.002678,0.000431,0.000353
1453000,0.0324,0.013523,0.002678,0.000431,0.000353
1454000,0.0324,0.013523,0.002678,0.000431,0.000235
1455000,0.0324,0.013523,0.002678,0.000431,0.000353
1456000,0.0324,0.013523,0.002678,0.000431,0.000470
1457000,0.0324,0.013523,0.002678,0.000431,0.000353
1458000,0.0324,0.013523,0.002678,0.000431,0.000235
1459000,0.0324,0.013523,0.002678,0.000431,0.000353
1460000,0.0324,0.013523,0.002678,0.000431,0.000353
1461000,0.0324,0.013523,0.002678,0.000431,0.000235
1462000,0.0324,0.013523,0.002678,0.000431,0.000353
1463000,0.0324,0.013523,0.002678,0.000431,0.000470
1464000,0.0324,0.013523,0.002678,0.000431,0.000353
1465000,0.0324,0.013523,0.002678,0.000431,0.000235
1466000,0.0324,0.013523,0.002678,0.000431,0.000353
1467000,0.0324,0.013523,0.002678,0.000431,0.000353
1468000,0.0324,0.013523,0.002678,0.000431,0.000235
1469000,0.0324,0.013523,0.002678,0.000431,0.000353
1470000,0.0324,0.013523,0.002678,0.000431,0.000470
1471000,0.0324,0.013523,0.002678,0.000431,0.000353
1472000,0.0324,0.013523,0.002678,0.000431,0.000235
1473000,0.0324,0.013523,0.002678,0.000431,0.000353
1474000,0.0324,0.013523,0.002678,0.000431,0.000353
1475000,0.0324,0.013523,0.002678,0.000431,0.000235
1476000,0.0324,0.013523,0.002678,0.000431,0.000353
1477000,0.0324,0.013523,0.002678,0.000431,0.000470
1478000,0.0324,0.013523,0.002678,0.000431,0.000353
1479000,0.0324,0.013523,0.002678,0.000431,0.000235
1480000,0.0324,0.013523,0.002678,0.000431,0.000353
1481000,0.0324,0.013523,0.002678,0.000431,0.000353
1482000,0.0324,0.013523,0.002678,0.000431,0.000235
1483000,0.0324,0.013523,0.002678,0.000431,0.000353
1484000,0.0324,0.013523,0.002678,0.000431,0.000470
1485000,0.0324,0.013523,0.002678,0.000431,0.000353
1486000,0.0324,0.013523,0.002678,0.000431,0.000235
1487000,0.0324,0.013523,0.002678,0.000431,0.000353
1488000,0.0324,0.013523,0.002678,0.000431,0.000353
1489000,0.0324,0.013523,0.002678,0.000431,0.000235
1490000,0.0324,0.013523,0.002678,0.000431,0.000353
1491000,0.0324,0.013523,0.002678,0.000431,0.000470
1492000,0.0324,0.013523,0.002678,0.000431,0.000353
1493000,0.0324,0.013523,0.002678,0.000431,0.000118
1494000,0.0324,0.013523,0.002678,0.000431,0.000470
1495000,0.0324,0.013523,0.002678,0.000431,0.000353
1496000,0.0324,0.013523,0.002678,0.000431,0.000235
1497000,0.0324,0.013523,0.002678,0.000431,0.000353
1498000,0.0324,0.013523,0.002678,0.000431,0.000470
1499000,0.0324,0.013523,0.002678,0.000431,0.000353
1500000,0.0324,0.013523,0.002678,0.000431,0.000118
1501000,0.0324,0.013523,0.002678,0.000431,0.000470
1502000,0.0324,0.013523,0.002678,0.000431,0.000353
1503000,0.0324,0.013523,0.002678,0.000431,0.000235
1504000,0.0324,0.013523,0.002678,0.000431,0.000353
1505000,0.0324,0.013523,0.002678,0.000431,0.000470
1506000,0.0324,0.013523,0.002678,0.000431,0.000353
1507000,0.0324,0.013523,0.002678,0.000431,0.000118
1508000,0.0324,0.013523,0.002678,0.000431,0.000470
1509000,0.0324,0.013523,0.002678,0.000431,0.000353
1510000,0.0324,0.013523,0.002678,0.000431,0.000235
1511000,0.0324,0.013523,0.002678,0.000431,0.000353
1512000,0.0324,0.013523,0.002678,0.000431,0.000470
1513000,0.0324,0.013523,0.002678,0.000431,0.000235
1514000,0.0324,0.013523,0.002678,0.000431,0.000235
1515000,0.0324,0.013523,0.002678,0.000431,0.000470
1516000,0.0324,0.013523,0.002678,0.000431,0.000353
1517000,0.0324,0.013523,0.002678,0.000431,0.000235
1518000,0.0324,0.013523,0.002678,0.000431,0.000353
1519000,0.0324,0.013523,0.002678,0.000431,0.000470
1520000,0.0324,0.013523,0.002678,0.000431,0.000235
1521000,0.0324,0.013523,0.002678,0.000431,0.000235
1522000,0.0324,0.013523,0.002678,0.000431,0.000470
1523000,0.0324,0.013523,0.002678,0.000431,0.000353
1524000,0.0324,0.013523,0.002678,0.000431,0.000235
1525000,0.0324,0.013523,0.002678,0.000431,0.000353
1526000,0.0324,0.013523,0.002678,0.000431,0.000470
1527000,0.0324,0.013523,0.002678,0.000431,0.000118
1528000,0.0324,0.013523,0.002678,0.000431,0.000353
1529000,0.0324,0.013523,0.002678,0.000431,0.000470
1530000,0.0324,0.013523,0.002678,0.000431,0.000353
1531000,0.0324,0.013523,0.002678,0.000431,0.000235
1532000,0.0324,0.013523,0.002678,0.000431,0.000353
1533000,0.0324,0.013523,0.002678,0.000431,0.000470
1534000,0.0324,0.013523,0.002678,0.000431,0.000118
1535000,0.0324,0.013523,0.002678,0.000431,0.000353
1536000,0.0324,0.013523,0.002678,0.000431,0.000470
1537000,0.0324,0.013523,0.002678,0.000431,0.000353
1538000,0.0324,0.013523,0.002678,0.000431,0.000235
1539000,0.0324,0.013523,0.002678,0.000431,0.000353
1540000,0.0324,0.013523,0.002678,0.000431,0.000470
1541000,0.0324,0.013523,0.002678,0.000431,0.000118
1542000,0.0324,0.013523,0.002678,0.000431,0.000353
1543000,0.0324,0.013523,0.002678,0.000431,0.000470
1544000,0.0324,0.013523,0.002678,0.000431,0.000353
1545000,0.0324,0.013523,0.002678,0.000431,0.000235
1546000,0.0324,0.013523,0.002678,0.000431,0.000353
1547000,0.0324,0.013523,0.002678,0.000431,0.000470
1548000,0.0324,0.013523,0.002678,0.000431,0.000118
1549000,0.0324,0.013523,0.002678,0.000431,0.000353
1550000,0.0324,0.013523,0.002678,0.000431,0.000470
1551000,0.0324,0.013523,0.002678,0.000431,0.000353
1552000,0.0324,0.013523,0.002678,0.000431,0.000235
1553000,0.0324,0.013523,0.002678,0.000431,0.000353
1554000,0.0324,0.013523,0.002678,0.000431,0.000353
1555000,0.0324,0.013523,0.002678,0.000431,0.000235
1556000,0.0324,0.013523,0.002678,0.000431,0.000353
1557000,0.0324,0.013523,0.002678,0.000431,0.000470
1558000,0.0324,0.013523,0.002678,0.000431,0.000353
1559000,0.0324,0.013523,0.002678,0.000431,0.000235
1560000,0.0324,0.013523,0.002678,0.000431,0.000353
1561000,0.0324,0.013523,0.002678,0.000431,0.000353
1562000,0.0324,0.013523,0.002678,0.000431,0.000235
1563000,0.0324,0.013523,0.002678,0.000431,0.000353
1564000,0.0324,0.013523,0.002678,0.000431,0.000470
1565000,0.0324,0.013523,0.002678,0.000431,0.000353
1566000,0.0324,0.013523,0.002678,0.000431,0.000235
1567000,0.0324,0.013523,0.002678,0.000431,0.000353
1568000,0.0324,0.013523,0.002678,0.000431,0.000353
1569000,0.0324,0.013523,0.002678,0.000431,0.000235
1570000,0.0324,0.013523,0.002678,0.000431,0.000353
1571000,0.0324,0.013523,0.002678,0.000431,0.000470
1572000,0.0324,0.013523,0.002678,0.000431,0.000353
1573000,0.0324,0.013523,0.002678,0.000431,0.000235
1574000,0.0324,0.013523,0.002678,0.000431,0.000353
1575000,0.0324,0.013523,0.002678,0.000431,0.000353
1576000,0.0324,0.013523,0.002678,0.000431,0.000235
1577000,0.0324,0.013523,0.002678,0.000431,0.000353
1578000,0.0324,0.013523,0.002678,0.000431,0.000470
1579000,0.0324,0.013523,0.002678,0.000431,0.000353
1580000,0.0324,0.013523,0.002678,0.000431,0.000235
1581000,0.0324,0.013523,0.002678,0.000431,0.000353
1582000,0.0324,0.013523,0.002678,0.000431,0.000353
1583000,0.0324,0.013523,0.002678,0.000431,0.000235
1584000,0.0324,0.013523,0.002678,0.000431,0.000353
1585000,0.0324,0.013523,0.002678,0.000431,0.000470
1586000,0.0324,0.013523,0.002678,0.000431,0.000353
1587000,0.0324,0.013523,0.002678,0.000431,0.000235
1588000,0.0324,0.013523,0.002678,0.000431,0.000353
1589000,0.0324,0.013523,0.002678,0.000431,0.000353
1590000,0.0324,0.013523,0.002678,0.000431,0.000235
1591000,0.0324,0.013523,0.002678,0.000431,0.000353
1592000,0.0324,0.013523,0.002678,0.000431,0.000470
1593000,0.0324,0.013523,0.002678,0.000431,0.000353
1594000,0.0324,0.013523,0.002678,0.000431,0.000235
1595000,0.0324,0.013523,0.002678,0.000431,0.000353
1596000,0.0324,0.013523,0.002678,0.000431,0.000353
1597000,0.0324,0.013523,0.002678,0.000431,0.000235
1598000,0.0324,0.013523,0.002678,0.000431,0.000353
1599000,0.0324,0.013523,0.002678,0.000431,0.000470
1600000,0.0324,0.013523,0.002678,0.000431,0.000353
1601000,0.0324,0.013523,0.002678,0.000431,0.000235
1602000,0.0324,0.013523,0.002678,0.000431,0.000353
1603000,0.0324,0.013523,0.002678,0.000431,0.000353
1604000,0.0324,0.013523,0.002678,0.000431,0.000235
1605000,0.0324,0.013523,0.002678,0.000431,0.000353
1606000,0.0324,0.013523,0.002678,0.000431,0.000470
1607000,0.0324,0.013523,0.002678,0.000431,0.000353
1608000,0.0324,0.013523,0.002678,0.000431,0.000118
1609000,0.0324,0.013523,0.002678,0.000431,0.000470
1610000,0.0324,0.013523,0.002678,0.000431,0.000353
1611000,0.0324,0.013523,0.002678,0.000431,0.000235
1612000,0.0324,0.013523,0.002678,0.000431,0.000353
1613000,0.0324,0.013523,0.002678,0.000431,0.000470
1614000,0.0324,0.013523,0.002678,0.000431,0.000353
1615000,0.0324,0.013523,0.002678,0.000431,0.000118
1616000,0.0324,0.013523,0.002678,0.000431,0.000470
1617000,0.0324,0.013523,0.002678,0.000431,0.000353
1618000,0.0324,0.013523,0.002678,0.000431,0.000235
1619000,0.0324,0.013523,0.002678,0.000431,0.000353
1620000,0.0324,0.013523,0.002678,0.000431,0.000470
1621000,0.0324,0.013523,0.002678,0.000431,0.000353
1622000,0.0324,0.013523,0.002678,0.000431,0.000118
1623000,0.0324,0.013523,0.002678,0.000431,0.000470
1624000,0.0324,0.013523,0.002678,0.000431,0.000353
1625000,0.0324,0.013523,0.002678,0.000431,0.000235
1626000,0.0324,0.013523,0.002678,0.000431,0.000353
1627000,0.0324,0.013523,0.002678,0.000431,0.000470
1628000,0.0324,0.013523,0.002678,0.000431,0.000235
1629000,0.0324,0.013523,0.002678,0.000431,0.000235
1630000,0.0324,0.013523,0.002678,0.000431,0.000470
1631000,0.0324,0.013523,0.002678,0.000431,0.000353
1632000,0.0324,0.013523,0.002678,0.000431,0.000235
1633000,0.0324,0.013523,0.002678,0.000431,0.000353
1634000,0.0324,0.013523,0.002678,0.000431,0.000470
1635000,0.0324,0.013523,0.002678,0.000431,0.000235
1636000,0.0324,0.013523,0.002678,0.000431,0.000235
1637000,0.0324,0.013523,0.002678,0.000431,0.000470
1638000,0.0324,0.013523,0.002678,0.000431,0.000353
1639000,0.0324,0.013523,0.002678,0.000431,0.000235
1640000,0.0324,0.013523,0.002678,0.000431,0.000353
1641000,0.0324,0.013523,0.002678,0.000431,0.000470
1642000,0.0324,0.013523,0.002678,0.000431,0.000235
1643000,0.0324,0.013523,0.002678,0.000431,0.000235
1644000,0.0324,0.013523,0.002678,0.000431,0.000470
1645000,0.0324,0.013523,0.002678,0.000431,0.000353
1646000,0.0324,0.013523,0.002678,0.000431,0.000235
1647000,0.0324,0.013523,0.002678,0.000431,0.000353
1648000,0.0324,0.013523,0.002678,0.000431,0.000470
1649000,0.0324,0.013523,0.002678,0.000431,0.000235
1650000,0.0324,0.013523,0.002678,0.000431,0.000235
1651000,0.0324,0.013523,0.002678,0.000431,0.000470
1652000,0.0324,0.013523,0.002678,0.000431,0.000353
1653000,0.0324,0.013523,0.002678,0.000431,0.000235
1654000,0.0324,0.013523,0.002678,0.000431,0.000353
1655000,0.0324,0.013523,0.002678,0.000431,0.000470
1656000,0.0324,0.013523,0.002678,0.000431,0.000235
1657000,0.0324,0.013523,0.002678,0.000431,0.000235
1658000,0.0324,0.013523,0.002678,0.000431,0.000470
1659000,0.0324,0.013523,0.002678,0.000431,0.000353
1660000,0.0324,0.013523,0.002678,0.000431,0.000235
1661000,0.0324,0.013523,0.002678,0.000431,0.000353
1662000,0.0324,0.013523,0.002678,0.000431,0.000470
1663000,0.0324,0.013523,0.002678,0.000431,0.000235
1664000,0.0324,0.013523,0.002678,0.000431,0.000235
1665000,0.0324,0.013523,0.002678,0.000431,0.000470
1666000,0.0324,0.013523,0.002678,0.000431,0.000353
1667000,0.0324,0.013523,0.002678,0.000431,0.000235
1668000,0.0324,0.013523,0.002678,0.000431,0.000353
1669000,0.0324,0.013523,0.002678,0.000431,0.000470
1670000,0.0324,0.013523,0.002678,0.000431,0.000118
1671000,0.0324,0.013523,0.002678,0.000431,0.000353
1672000,0.0324,0.013523,0.002678,0.000431,0.000470
1673000,0.0324,0.013523,0.002678,0.000431,0.000353
1674000,0.0324,0.013523,0.002678,0.000431,0.000235
1675000,0.0324,0.013523,0.002678,0.000431,0.000353
1676000,0.0324,0.013523,0.002678,0.000431,0.000470
1677000,0.0324,0.013523,0.002678,0.000431,0.000118
1678000,0.0324,0.013523,0.002678,0.000431,0.000353
1679000,0.0324,0.013523,0.002678,0.000431,0.000470
1680000,0.0324,0.013523,0.002678,0.000431,0.000353
1681000,0.0324,0.013523,0.002678,0.000431,0.000235
1682000,0.0324,0.013523,0.002678,0.000431,0.000353
1683000,0.0324,0.013523,0.002678,0.000431,0.000470
1684000,0.0324,0.013523,0.002678,0.000431,0.000118
1685000,0.0324,0.013523,0.002678,0.000431,0.000353
1686000,0.0324,0.013523,0.002678,0.000431,0.000470
1687000,0.0324,0.013523,0.002678,0.000431,0.000353
1688000,0.0324,0.013523,0.002678,0.000431,0.000235
1689000,0.0324,0.013523,0.002678,0.000431,0.000353
1690000,0.0324,0.013523,0.002678,0.000431,0.000470
1691000,0.0324,0.013523,0.002678,0.000431,0.000118
1692000,0.0324,0.013523,0.002678,0.000431,0.000353
1693000,0.0324,0.013523,0.002678,0.000431,0.000470
1694000,0.0324,0.013523,0.002678,0.000431,0.000353
1695000,0.0324,0.013523,0.002678,0.000431,0.000235
1696000,0.0324,0.013523,0.002678,0.000431,0.000353
1697000,0.0324,0.013523,0.002678,0.000431,0.000353
1698000,0.0324,0.013523,0.002678,0.000431,0.000235
1699000,0.0324,0.013523,0.002678,0.000431,0.000353
1700000,0.0324,0.013523,0.002678,0.000431,0.000470
1701000,0.0324,0.013523,0.002678,0.000431,0.000353
1702000,0.0324,0.013523,0.002678,0.000431,0.000235
1703000,0.0324,0.013523,0.002678,0.000431,0.000353
1704000,0.0324,0.013523,0.002678,0.000431,0.000353
1705000,0.0324,0.013523,0.002678,0.000431,0.000235
1706000,0.0324,0.013523,0.002678,0.000431,0.000353
1707000,0.0324,0.013523,0.002678,0.000431,0.000470
1708000,0.0324,0.013523,0.002678,0.000431,0.000353
1709000,0.0324,0.013523,0.002678,0.000431,0.000235
1710000,0.0324,0.013523,0.002678,0.000431,0.000353
1711000,0.0324,0.013523,0.002678,0.000431,0.000353
1712000,0.0324,0.013523,0.002678,0.000431,0.000235
1713000,0.0324,0.013523,0.002678,0.000431,0.000353
1714000,0.0324,0.013523,0.002678,0.000431,0.000470
1715000,0.0324,0.013523,0.002678,0.000431,0.000353
1716000,0.0324,0.013523,0.002678,0.000431,0.000235
1717000,0.0324,0.013523,0.002678,0.000431,0.000353
1718000,0.0324,0.013523,0.002678,0.000431,0.000353
1719000,0.0324,0.013523,0.002678,0.000431,0.000235
1720000,0.0324,0.013523,0.002678,0.000431,0.000353
1721000,0.0324,0.013523,0.002678,0.000431,0.000470
1722000,0.0324,0.013523,0.002678,0.000431,0.000353
1723000,0.0324,0.013523,0.002678,0.000431,0.000235
1724000,0.0324,0.013523,0.002678,0.000431,0.000353
1725000,0.0324,0.013523,0.002678,0.000431,0.000353
1726000,0.0324,0.013523,0.002678,0.000431,0.000235
1727000,0.0324,0.013523,0.002678,0.000431,0.000353
1728000,0.0324,0.013523,0.002678,0.000431,0.000470
1729000,0.0324,0.013523,0.002678,0.000431,0.000353
1730000,0.0324,0.013523,0.002678,0.000431,0.000235
1731000,0.0324,0.013523,0.002678,0.000431,0.000353
1732000,0.0324,0.013523,0.002678,0.000431,0.000353
1733000,0.0324,0.013523,0.002678,0.000431,0.000235
1734000,0.0324,0.013523,0.002678,0.000431,0.000353
1735000,0.0324,0.013523,0.002678,0.000431,0.000470
1736000,0.0324,0.013523,0.002678,0.000431,0.000353
1737000,0.0324,0.013523,0.002678,0.000431,0.000235
1738000,0.0324,0.013523,0.002678,0.000431,0.000353
1739000,0.0324,0.013523,0.002678,0.000431,0.000353
1740000,0.0324,0.013523,0.002678,0.000431,0.000235
1741000,0.0324,0.013523,0.002678,0.000431,0.000353
1742000,0.0324,0.013523,0.002678,0.000431,0.000470
1743000,0.0324,0.013523,0.002678,0.000431,0.000353
1744000,0.0324,0.013523,0.002678,0.000431,0.000118
1745000,0.0324,0.013523,0.002678,0.000431,0.000470
1746000,0.0324,0.013523,0.002678,0.000431,0.000353
1747000,0.0324,0.013523,0.002678,0.000431,0.000235
1748000,0.0324,0.013523,0.002678,0.000431,0.000353
1749000,0.0324,0.013523,0.002678,0.000431,0.000470
1750000,0.0324,0.013523,0.002678,0.000431,0.000353
1751000,0.0324,0.013523,0.002678,0.000431,0.000118
1752000,0.0324,0.013523,0.002678,0.000431,0.000470
1753000,0.0324,0.013523,0.002678,0.000431,0.000353
1754000,0.0324,0.013523,0.002678,0.000431,0.000235
1755000,0.0324,0.013523,0.002678,0.000431,0.000353
1756000,0.0324,0.013523,0.002678,0.000431,0.000470
1757000,0.0324,0.013523,0.002678,0.000431,0.000353
1758000,0.0324,0.013523,0.002678,0.000431,0.000118
1759000,0.0324,0.013523,0.002678,0.000431,0.000470
1760000,0.0324,0.013523,0.002678,0.000431,0.000353
1761000,0.0324,0.013523,0.002678,0.000431,0.000235
1762000,0.0324,0.013523,0.002678,0.000431,0.000353
1763000,0.0324,0.013523,0.002678,0.000431,0.000470
1764000,0.0324,0.013523,0.002678,0.000431,0.000353
1765000,0.0324,0.013523,0.002678,0.000431,0.000118
1766000,0.0324,0.013523,0.002678,0.000431,0.000470
1767000,0.0324,0.013523,0.002678,0.000431,0.000353
1768000,0.0324,0.013523,0.002678,0.000431,0.000235
1769000,0.0324,0.013523,0.002678,0.000431,0.000353
1770000,0.0324,0.013523,0.002678,0.000431,0.000470
1771000,0.0324,0.013523,0.002678,0.000431,0.000235
1772000,0.0324,0.013523,0.002678,0.000431,0.000235
1773000,0.0324,0.013523,0.002678,0.000431,0.000470
1774000,0.0324,0.013523,0.002678,0.000431,0.000353
1775000,0.0324,0.013523,0.002678,0.000431,0.000235
1776000,0.0324,0.013523,0.002678,0.000431,0.000353
1777000,0.0324,0.013523,0.002678,0.000431,0.000470
1778000,0.0324,0.013523,0.002678,0.000431,0.000235
1779000,0.0324,0.013523,0.002678,0.000431,0.000235
1780000,0.0324,0.013523,0.002678,0.000431,0.000470
1781000,0.0324,0.013523,0.002678,0.000431,0.000353
1782000,0.0324,0.013523,0.002678,0.000431,0.000235
1783000,0.0324,0.013523,0.002678,0.000431,0.000353
1784000,0.0324,0.013523,0.002678,0.000431,0.000470
1785000,0.0324,0.013523,0.002678,0.000431,0.000235
1786000,0.0324,0.013523,0.002678,0.000431,0.000235
1787000,0.0324,0.013523,0.002678,0.000431,0.000470
1788000,0.0324,0.013523,0.002678,0.000431,0.000353
1789000,0.0324,0.013523,0.002678,0.000431,0.000235
1790000,0.0324,0.013523,0.002678,0.000431,0.000353
1791000,0.0324,0.013523,0.002678,0.000431,0.000470
1792000,0.0324,0.013523,0.002678,0.000431,0.000235
1793000,0.0324,0.013523,0.002678,0.000431,0.000235
1794000,0.0324,0.013523,0.002678,0.000431,0.000470
1795000,0.0324,0.013523,0.002678,0.000431,0.000353
1796000,0.0324,0.013523,0.002678,0.000431,0.000235
1797000,0.0324,0.013523,0.002678,0.000431,0.000353
1798000,0.0324,0.013523,0.002678,0.000431,0.000470
1799000,0.0324,0.013523,0.002678,0.000431,0.000235
1800000,0.0324,0.013523,0.002678,0.000431,0.000235
1801000,0.0324,0.013523,0.002678,0.000431,0.000470
1802000,0.0324,0.013523,0.002678,0.000431,0.000353
1803000,0.0324,0.013523,0.002678,0.000431,0.000235
1804000,0.0324,0.013523,0.002678,0.000431,0.000353
1805000,0.0324,0.013523,0.002678,0.000431,0.000470
1806000,0.0324,0.013523,0.002678,0.000431,0.000235
1807000,0.0324,0.013523,0.002678,0.000431,0.000235
1808000,0.0324,0.013523,0.002678,0.000431,0.000470
1809000,0.0324,0.013523,0.002678,0.000431,0.000353
1810000,0.0324,0.013523,0.002678,0.000431,0.000235
1811000,0.0324,0.013523,0.002678,0.000431,0.000353
1812000,0.0324,0.013523,0.002678,0.000431,0.000470
1813000,0.0324,0.013523,0.002678,0.000431,0.000118
1814000,0.0324,0.013523,0.002678,0.000431,0.000353
1815000,0.0324,0.013523,0.002678,0.000431,0.000470
1816000,0.0324,0.013523,0.002678,0.000431,0.000353
1817000,0.0324,0.013523,0.002678,0.000431,0.000235
1818000,0.0324,0.013523,0.002678,0.000431,0.000353
1819000,0.0324,0.013523,0.002678,0.000431,0.000353
1820000,0.0324,0.013523,0.002678,0.000431,0.000235
1821000,0.0324,0.013523,0.002678,0.000431,0.000353
1822000,0.0324,0.013523,0.002678,0.000431,0.000470
1823000,0.0324,0.013523,0.002678,0.000431,0.000353
1824000,0.0324,0.013523,0.002678,0.000431,0.000235
1825000,0.0324,0.013523,0.002678,0.000431,0.000353
1826000,0.0324,0.013523,0.002678,0.000431,0.000353
1827000,0.0324,0.013523,0.002678,0.000431,0.000235
1828000,0.0324,0.013523,0.002678,0.000431,0.000353
1829000,0.0324,0.013523,0.002678,0.000431,0.000470
1830000,0.0324,0.013523,0.002678,0.000431,0.000353
1831000,0.0324,0.013523,0.002678,0.000431,0.000235
1832000,0.0324,0.013523,0.002678,0.000431,0.000353
1833000,0.0324,0.013523,0.002678,0.000431,0.000353
1834000,0.0324,0.013523,0.002678,0.000431,0.000235
1835000,0.0324,0.013523,0.002678,0.000431,0.000353
1836000,0.0324,0.013523,0.002678,0.000431,0.000470
1837000,0.0324,0.013523,0.002678,0.000431,0.000353
1838000,0.0324,0.013523,0.002678,0.000431,0.000235
1839000,0.0324,0.013523,0.002678,0.000431,0.000353
1840000,0.0324,0.013523,0.002678,0.000431,0.000353
1841000,0.0324,0.013523,0.002678,0.000431,0.000235
1842000,0.0324,0.013523,0.002678,0.000431,0.000353
1843000,0.0324,0.013523,0.002678,0.000431,0.000470
1844000,0.0324,0.013523,0.002678,0.000431,0.000353
1845000,0.0324,0.013523,0.002678,0.000431,0.000235
1846000,0.0324,0.013523,0.002678,0.000431,0.000353
1847000,0.0324,0.013523,0.002678,0.000431,0.000353
1848000,0.0324,0.013523,0.002678,0.000431,0.000235
1849000,0.0324,0.013523,0.002678,0.000431,0.000353
1850000,0.0324,0.013523,0.002678,0.000431,0.000470
1851000,0.0324,0.013523,0.002678,0.000431,0.000353
1852000,0.0324,0.013523,0.002678,0.000431,0.000235
1853000,0.0324,0.013523,0.002678,0.000431,0.000353
1854000,0.0324,0.013523,0.002678,0.000431,0.000353
1855000,0.0324,0.013523,0.002678,0.000431,0.000235
1856000,0.0324,0.013523,0.002678,0.000431,0.000353
1857000,0.0324,0.013523,0.002678,0.000431,0.000470
1858000,0.0324,0.013523,0.002678,0.000431,0.000353
1859000,0.0324,0.013523,0.002678,0.000431,0.000118
1860000,0.0324,0.013523,0.002678,0.000431,0.000470
1861000,0.0324,0.013523,0.002678,0.000431,0.000353
1862000,0.0324,0.013523,0.002678,0.000431,0.000235
1863000,0.0324,0.013523,0.002678,0.000431,0.000353
1864000,0.0324,0.013523,0.002678,0.000431,0.000470
1865000,0.0324,0.013523,0.002678,0.000431,0.000353
1866000,0.0324,0.013523,0.002678,0.000431,0.000118
1867000,0.0324,0.013523,0.002678,0.000431,0.000470
1868000,0.0324,0.013523,0.002678,0.000431,0.000353
1869000,0.0324,0.013523,0.002678,0.000431,0.000235
1870000,0.0324,0.013523,0.002678,0.000431,0.000353
1871000,0.0324,0.013523,0.002678,0.000431,0.000470
1872000,0.0324,0.013523,0.002678,0.000431,0.000353
1873000,0.0324,0.013523,0.002678,0.000431,0.000118
1874000,0.0324,0.013523,0.002678,0.000431,0.000470
1875000,0.0324,0.013523,0.002678,0.000431,0.000353
1876000,0.0324,0.013523,0.002678,0.000431,0.000235
1877000,0.0324,0.013523,0.002678,0.000431,0.000353
1878000,0.0324,0.013523,0.002678,0.000431,0.000470
1879000,0.0324,0.013523,0.002678,0.000431,0.000353
1880000,0.0324,0.013523,0.002678,0.000431,0.000118
1881000,0.0324,0.013523,0.002678,0.000431,0.000470
1882000,0.0324,0.013523,0.002678,0.000431,0.000353
1883000,0.0324,0.013523,0.002678,0.000431,0.000235
1884000,0.0324,0.013523,0.002678,0.000431,0.000353
1885000,0.0324,0.013523,0.002678,0.000431,0.000470
1886000,0.0324,0.013523,0.002678,0.000431,0.000235
1887000,0.0324,0.013523,0.002678,0.000431,0.000235
1888000,0.0324,0.013523,0.002678,0.000431,0.000470
1889000,0.0324,0.013523,0.002678,0.000431,0.000353
1890000,0.0324,0.013523,0.002678,0.000431,0.000235
1891000,0.0324,0.013523,0.002678,0.000431,0.000353
1892000,0.0324,0.013523,0.002678,0.000431,0.000470
1893000,0.0324,0.013523,0.002678,0.000431,0.000118
1894000,0.0324,0.013523,0.002678,0.000431,0.000353
1895000,0.0324,0.013523,0.002678,0.000431,0.000470
1896000,0.0324,0.013523,0.002678,0.000431,0.000353
1897000,0.0324,0.013523,0.002678,0.000431,0.000235
1898000,0.0324,0.013523,0.002678,0.000431,0.000353
1899000,0.0324,0.013523,0.002678,0.000431,0.000470
1900000,0.0324,0.013523,0.002678,0.000431,0.000118
1901000,0.0324,0.013523,0.002678,0.000431,0.000353
1902000,0.0324,0.013523,0.002678,0.000431,0.000470
1903000,0.0324,0.013523,0.002678,0.000431,0.000353
1904000,0.0324,0.013523,0.002678,0.000431,0.000235
1905000,0.0324,0.013523,0.002678,0.000431,0.000353
1906000,0.0324,0.013523,0.002678,0.000431,0.000353
1907000,0.0324,0.013523,0.002678,0.000431,0.000235
1908000,0.0324,0.013523,0.002678,0.000431,0.000353
1909000,0.0324,0.013523,0.002678,0.000431,0.000470
1910000,0.0324,0.013523,0.002678,0.000431,0.000353
1911000,0.0324,0.013523,0.002678,0.000431,0.000235
1912000,0.0324,0.013523,0.002678,0.000431,0.000353
1913000,0.0324,0.013523,0.002678,0.000431,0.000353
1914000,0.0324,0.013523,0.002678,0.000431,0.000235
1915000,0.0324,0.013523,0.002678,0.000431,0.000353
1916000,0.0324,0.013523,0.002678,0.000431,0.000470
1917000,0.0324,0.013523,0.002678,0.000431,0.000353
1918000,0.0324,0.013523,0.002678,0.000431,0.000235
1919000,0.0324,0.013523,0.002678,0.000431,0.000353
1920000,0.0324,0.013523,0.002678,0.000431,0.000353
1921000,0.0324,0.013523,0.002678,0.000431,0.000235
1922000,0.0324,0.013523,0.002678,0.000431,0.000353
1923000,0.0324,0.013523,0.002678,0.000431,0.000470
1924000,0.0324,0.013523,0.002678,0.000431,0.000353
1925000,0.0324,0.013523,0.002678,0.000431,0.000235
1926000,0.0324,0.013523,0.002678,0.000431,0.000353
1927000,0.0324,0.013523,0.002678,0.000431,0.000353
1928000,0.0324,0.013523,0.002678,0.000431,0.000235
1929000,0.0324,0.013523,0.002678,0.000431,0.000353
1930000,0.0324,0.013523,0.002678,0.000431,0.000470
1931000,0.0324,0.013523,0.002678,0.000431,0.000353
1932000,0.0324,0.013523,0.002678,0.000431,0.000118
1933000,0.0324,0.013523,0.002678,0.000431,0.000470
1934000,0.0324,0.013523,0.002678,0.000431,0.000353
1935000,0.0324,0.013523,0.002678,0.000431,0.000235
1936000,0.0324,0.013523,0.002678,0.000431,0.000353
1937000,0.0324,0.013523,0.002678,0.000431,0.000470
1938000,0.0324,0.013523,0.002678,0.000431,0.000353
1939000,0.0324,0.013523,0.002678,0.000431,0.000118
1940000,0.0324,0.013523,0.002678,0.000431,0.000470
1941000,0.0324,0.013523,0.002678,0.000431,0.000353
1942000,0.0324,0.013523,0.002678,0.000431,0.000235
1943000,0.0324,0.013523,0.002678,0.000431,0.000353
1944000,0.0324,0.013523,0.002678,0.000431,0.000470
1945000,0.0324,0.013523,0.002678,0.000431,0.000235
1946000,0.0324,0.013523,0.002678,0.000431,0.000235
1947000,0.0324,0.013523,0.002678,0.000431,0.000470
1948000,0.0324,0.013523,0.002678,0.000431,0.000353
1949000,0.0324,0.013523,0.002678,0.000431,0.000235
1950000,0.0324,0.013523,0.002678,0.000431,0.000353
1951000,0.0324,0.013523,0.002678,0.000431,0.000470
1952000,0.0324,0.013523,0.002678,0.000431,0.000235
1953000,0.0324,0.013523,0.002678,0.000431,0.000235
1954000,0.0324,0.013523,0.002678,0.000431,0.000470
1955000,0.0324,0.013523,0.002678,0.000431,0.000353
1956000,0.0324,0.013523,0.002678,0.000431,0.000235
1957000,0.0324,0.013523,0.002678,0.000431,0.000353
1958000,0.0324,0.013523,0.002678,0.000431,0.000470
1959000,0.0324,0.013523,0.002678,0.000431,0.000118
1960000,0.0324,0.013523,0.002678,0.000431,0.000353
1961000,0.0324,0.013523,0.002678,0.000431,0.000470
1962000,0.0324,0.013523,0.002678,0.000431,0.000353
1963000,0.0324,0.013523,0.002678,0.000431,0.000235
1964000,0.0324,0.013523,0.002678,0.000431,0.000353
1965000,0.0324,0.013523,0.002678,0.000431,0.000353
1966000,0.0324,0.013523,0.002678,0.000431,0.000235
1967000,0.0324,0.013523,0.002678,0.000431,0.000353
1968000,0.0324,0.013523,0.002678,0.000431,0.000470
1969000,0.0324,0.013523,0.002678,0.000431,0.000353
1970000,0.0324,0.013523,0.002678,0.000431,0.000235
1971000,0.0324,0.013523,0.002678,0.000431,0.000353
1972000,0.0324,0.013523,0.002678,0.000431,0.000353
1973000,0.0324,0.013523,0.002678,0.000431,0.000235
1974000,0.0324,0.013523,0.002678,0.000431,0.000353
1975000,0.0324,0.013523,0.002678,0.000431,0.000470
1976000,0.0324,0.013523,0.002678,0.000431,0.000353
1977000,0.0324,0.013523,0.002678,0.000431,0.000118
1978000,0.0324,0.013523,0.002678,0.000431,0.000470
1979000,0.0324,0.013523,0.002678,0.000431,0.000353
1980000,0.0324,0.013523,0.002678,0.000431,0.000235
1981000,0.0324,0.013523,0.002678,0.000431,0.000353
1982000,0.0324,0.013523,0.002678,0.000431,0.000470
1983000,0.0324,0.013523,0.002678,0.000431,0.000235
1984000,0.0324,0.013523,0.002678,0.000431,0.000235
1985000,0.0324,0.013523,0.002678,0.000431,0.000470
1986000,0.0324,0.013523,0.002678,0.000431,0.000353
1987000,0.0324,0.013523,0.002678,0.000431,0.000235
1988000,0.0324,0.013523,0.002678,0.000431,0.000353
1989000,0.0324,0.013523,0.002678,0.000431,0.000470
1990000,0.0324,0.013523,0.002678,0.000431,0.000235
1991000,0.0324,0.013523,0.002678,0.000431,0.000235
1992000,0.0324,0.013523,0.002678,0.000431,0.000470
1993000,0.0324,0.013523,0.002678,0.000431,0.000353
1994000,0.0324,0.013523,0.002678,0.000431,0.000235
1995000,0.0324,0.013523,0.002678,0.000431,0.000353
1996000,0.0324,0.013523,0.002678,0.000431,0.000470
1997000,0.0324,0.013523,0.002678,0.000431,0.000118
1998000,0.0324,0.013523,0.002678,0.000431,0.000353
1999000,0.0324,0.013523,0.002678,0.000431,0.000470
