Cycle,Area(mm^2),PeakDynamic(W),SubthresholdLeakage(W),GateLeakage(W),RunTimeDynamic(W)
5000000,0.0324,0.013523,0.002678,0.000431,0.000235
5001000,0.0324,0.013523,0.002678,0.000431,0.000353
5002000,0.0324,0.013523,0.002678,0.000431,0.000353
5003000,0.0324,0.013523,0.002678,0.000431,0.000235
5004000,0.0324,0.013523,0.002678,0.000431,0.000353
5005000,0.0324,0.013523,0.002678,0.000431,0.000470
5006000,0.0324,0.013523,0.002678,0.000431,0.000353
5007000,0.0324,0.013523,0.002678,0.000431,0.000235
5008000,0.0324,0.013523,0.002678,0.000431,0.000353
5009000,0.0324,0.013523,0.002678,0.000431,0.000353
5010000,0.0324,0.013523,0.002678,0.000431,0.000235
5011000,0.0324,0.013523,0.002678,0.000431,0.000353
5012000,0.0324,0.013523,0.002678,0.000431,0.000470
5013000,0.0324,0.013523,0.002678,0.000431,0.000353
5014000,0.0324,0.013523,0.002678,0.000431,0.000235
5015000,0.0324,0.013523,0.002678,0.000431,0.000353
5016000,0.0324,0.013523,0.002678,0.000431,0.000353
5017000,0.0324,0.013523,0.002678,0.000431,0.000235
5018000,0.0324,0.013523,0.002678,0.000431,0.000353
5019000,0.0324,0.013523,0.002678,0.000431,0.000470
5020000,0.0324,0.013523,0.002678,0.000431,0.000353
5021000,0.0324,0.013523,0.002678,0.000431,0.000235
5022000,0.0324,0.013523,0.002678,0.000431,0.000353
5023000,0.0324,0.013523,0.002678,0.000431,0.000353
5024000,0.0324,0.013523,0.002678,0.000431,0.000235
5025000,0.0324,0.013523,0.002678,0.000431,0.000353
5026000,0.0324,0.013523,0.002678,0.000431,0.000470
5027000,0.0324,0.013523,0.002678,0.000431,0.000353
5028000,0.0324,0.013523,0.002678,0.000431,0.000235
5029000,0.0324,0.013523,0.002678,0.000431,0.000353
5030000,0.0324,0.013523,0.002678,0.000431,0.000353
5031000,0.0324,0.013523,0.002678,0.000431,0.000235
5032000,0.0324,0.013523,0.002678,0.000431,0.000353
5033000,0.0324,0.013523,0.002678,0.000431,0.000470
5034000,0.0324,0.013523,0.002678,0.000431,0.000353
5035000,0.0324,0.013523,0.002678,0.000431,0.000118
5036000,0.0324,0.013523,0.002678,0.000431,0.000470
5037000,0.0324,0.013523,0.002678,0.000431,0.000353
5038000,0.0324,0.013523,0.002678,0.000431,0.000235
5039000,0.0324,0.013523,0.002678,0.000431,0.000353
5040000,0.0324,0.013523,0.002678,0.000431,0.000470
5041000,0.0324,0.013523,0.002678,0.000431,0.000353
5042000,0.0324,0.013523,0.002678,0.000431,0.000118
5043000,0.0324,0.013523,0.002678,0.000431,0.000470
5044000,0.0324,0.013523,0.002678,0.000431,0.000353
5045000,0.0324,0.013523,0.002678,0.000431,0.000235
5046000,0.0324,0.013523,0.002678,0.000431,0.000353
5047000,0.0324,0.013523,0.002678,0.000431,0.000470
5048000,0.0324,0.013523,0.002678,0.000431,0.000353
5049000,0.0324,0.013523,0.002678,0.000431,0.000118
5050000,0.0324,0.013523,0.002678,0.000431,0.000470
5051000,0.0324,0.013523,0.002678,0.000431,0.000353
5052000,0.0324,0.013523,0.002678,0.000431,0.000235
5053000,0.0324,0.013523,0.002678,0.000431,0.000353
5054000,0.0324,0.013523,0.002678,0.000431,0.000470
5055000,0.0324,0.013523,0.002678,0.000431,0.000353
5056000,0.0324,0.013523,0.002678,0.000431,0.000118
5057000,0.0324,0.013523,0.002678,0.000431,0.000470
5058000,0.0324,0.013523,0.002678,0.000431,0.000353
5059000,0.0324,0.013523,0.002678,0.000431,0.000235
5060000,0.0324,0.013523,0.002678,0.000431,0.000353
5061000,0.0324,0.013523,0.002678,0.000431,0.000470
5062000,0.0324,0.013523,0.002678,0.000431,0.000235
5063000,0.0324,0.013523,0.002678,0.000431,0.000235
5064000,0.0324,0.013523,0.002678,0.000431,0.000470
5065000,0.0324,0.013523,0.002678,0.000431,0.000353
5066000,0.0324,0.013523,0.002678,0.000431,0.000235
5067000,0.0324,0.013523,0.002678,0.000431,0.000353
5068000,0.0324,0.013523,0.002678,0.000431,0.000470
5069000,0.0324,0.013523,0.002678,0.000431,0.000235
5070000,0.0324,0.013523,0.002678,0.000431,0.000235
5071000,0.0324,0.013523,0.002678,0.000431,0.000470
5072000,0.0324,0.013523,0.002678,0.000431,0.000353
5073000,0.0324,0.013523,0.002678,0.000431,0.000235
5074000,0.0324,0.013523,0.002678,0.000431,0.000353
5075000,0.0324,0.013523,0.002678,0.000431,0.000470
5076000,0.0324,0.013523,0.002678,0.000431,0.000235
5077000,0.0324,0.013523,0.002678,0.000431,0.000235
5078000,0.0324,0.013523,0.002678,0.000431,0.000470
5079000,0.0324,0.013523,0.002678,0.000431,0.000353
5080000,0.0324,0.013523,0.002678,0.000431,0.000235
5081000,0.0324,0.013523,0.002678,0.000431,0.000353
5082000,0.0324,0.013523,0.002678,0.000431,0.000470
5083000,0.0324,0.013523,0.002678,0.000431,0.000235
5084000,0.0324,0.013523,0.002678,0.000431,0.000235
5085000,0.0324,0.013523,0.002678,0.000431,0.000470
5086000,0.0324,0.013523,0.002678,0.000431,0.000353
5087000,0.0324,0.013523,0.002678,0.000431,0.000235
5088000,0.0324,0.013523,0.002678,0.000431,0.000353
5089000,0.0324,0.013523,0.002678,0.000431,0.000470
5090000,0.0324,0.013523,0.002678,0.000431,0.000235
5091000,0.0324,0.013523,0.002678,0.000431,0.000235
5092000,0.0324,0.013523,0.002678,0.000431,0.000470
5093000,0.0324,0.013523,0.002678,0.000431,0.000353
5094000,0.0324,0.013523,0.002678,0.000431,0.000235
5095000,0.0324,0.013523,0.002678,0.000431,0.000353
5096000,0.0324,0.013523,0.002678,0.000431,0.000470
5097000,0.0324,0.013523,0.002678,0.000431,0.000118
5098000,0.0324,0.013523,0.002678,0.000431,0.000353
5099000,0.0324,0.013523,0.002678,0.000431,0.000470
5100000,0.0324,0.013523,0.002678,0.000431,0.000353
5101000,0.0324,0.013523,0.002678,0.000431,0.000235
5102000,0.0324,0.013523,0.002678,0.000431,0.000353
5103000,0.0324,0.013523,0.002678,0.000431,0.000470
5104000,0.0324,0.013523,0.002678,0.000431,0.000118
5105000,0.0324,0.013523,0.002678,0.000431,0.000353
5106000,0.0324,0.013523,0.002678,0.000431,0.000470
5107000,0.0324,0.013523,0.002678,0.000431,0.000353
5108000,0.0324,0.013523,0.002678,0.000431,0.000235
5109000,0.0324,0.013523,0.002678,0.000431,0.000353
5110000,0.0324,0.013523,0.002678,0.000431,0.000470
5111000,0.0324,0.013523,0.002678,0.000431,0.000118
5112000,0.0324,0.013523,0.002678,0.000431,0.000353
5113000,0.0324,0.013523,0.002678,0.000431,0.000470
5114000,0.0324,0.013523,0.002678,0.000431,0.000353
5115000,0.0324,0.013523,0.002678,0.000431,0.000235
5116000,0.0324,0.013523,0.002678,0.000431,0.000353
5117000,0.0324,0.013523,0.002678,0.000431,0.000470
5118000,0.0324,0.013523,0.002678,0.000431,0.000118
5119000,0.0324,0.013523,0.002678,0.000431,0.000353
5120000,0.0324,0.013523,0.002678,0.000431,0.000470
5121000,0.0324,0.013523,0.002678,0.000431,0.000353
5122000,0.0324,0.013523,0.002678,0.000431,0.000235
5123000,0.0324,0.013523,0.002678,0.000431,0.000353
5124000,0.0324,0.013523,0.002678,0.000431,0.000353
5125000,0.0324,0.013523,0.002678,0.000431,0.000235
5126000,0.0324,0.013523,0.002678,0.000431,0.000353
5127000,0.0324,0.013523,0.002678,0.000431,0.000470
5128000,0.0324,0.013523,0.002678,0.000431,0.000353
5129000,0.0324,0.013523,0.002678,0.000431,0.000235
5130000,0.0324,0.013523,0.002678,0.000431,0.000353
5131000,0.0324,0.013523,0.002678,0.000431,0.000353
5132000,0.0324,0.013523,0.002678,0.000431,0.000235
5133000,0.0324,0.013523,0.002678,0.000431,0.000353
5134000,0.0324,0.013523,0.002678,0.000431,0.000470
5135000,0.0324,0.013523,0.002678,0.000431,0.000353
5136000,0.0324,0.013523,0.002678,0.000431,0.000235
5137000,0.0324,0.013523,0.002678,0.000431,0.000353
5138000,0.0324,0.013523,0.002678,0.000431,0.000353
5139000,0.0324,0.013523,0.002678,0.000431,0.000235
5140000,0.0324,0.013523,0.002678,0.000431,0.000353
5141000,0.0324,0.013523,0.002678,0.000431,0.000470
5142000,0.0324,0.013523,0.002678,0.000431,0.000353
5143000,0.0324,0.013523,0.002678,0.000431,0.000235
5144000,0.0324,0.013523,0.002678,0.000431,0.000353
5145000,0.0324,0.013523,0.002678,0.000431,0.000353
5146000,0.0324,0.013523,0.002678,0.000431,0.000235
5147000,0.0324,0.013523,0.002678,0.000431,0.000353
5148000,0.0324,0.013523,0.002678,0.000431,0.000470
5149000,0.0324,0.013523,0.002678,0.000431,0.000353
5150000,0.0324,0.013523,0.002678,0.000431,0.000235
5151000,0.0324,0.013523,0.002678,0.000431,0.000353
5152000,0.0324,0.013523,0.002678,0.000431,0.000353
5153000,0.0324,0.013523,0.002678,0.000431,0.000235
5154000,0.0324,0.013523,0.002678,0.000431,0.000353
5155000,0.0324,0.013523,0.002678,0.000431,0.000470
5156000,0.0324,0.013523,0.002678,0.000431,0.000353
5157000,0.0324,0.013523,0.002678,0.000431,0.000235
5158000,0.0324,0.013523,0.002678,0.000431,0.000353
5159000,0.0324,0.013523,0.002678,0.000431,0.000353
5160000,0.0324,0.013523,0.002678,0.000431,0.000235
5161000,0.0324,0.013523,0.002678,0.000431,0.000353
5162000,0.0324,0.013523,0.002678,0.000431,0.000470
5163000,0.0324,0.013523,0.002678,0.000431,0.000353
5164000,0.0324,0.013523,0.002678,0.000431,0.000235
5165000,0.0324,0.013523,0.002678,0.000431,0.000353
5166000,0.0324,0.013523,0.002678,0.000431,0.000353
5167000,0.0324,0.013523,0.002678,0.000431,0.000235
5168000,0.0324,0.013523,0.002678,0.000431,0.000353
5169000,0.0324,0.013523,0.002678,0.000431,0.000470
5170000,0.0324,0.013523,0.002678,0.000431,0.000353
5171000,0.0324,0.013523,0.002678,0.000431,0.000235
5172000,0.0324,0.013523,0.002678,0.000431,0.000353
5173000,0.0324,0.013523,0.002678,0.000431,0.000353
5174000,0.0324,0.013523,0.002678,0.000431,0.000235
5175000,0.0324,0.013523,0.002678,0.000431,0.000353
5176000,0.0324,0.013523,0.002678,0.000431,0.000470
5177000,0.0324,0.013523,0.002678,0.000431,0.000353
5178000,0.0324,0.013523,0.002678,0.000431,0.000118
5179000,0.0324,0.013523,0.002678,0.000431,0.000470
5180000,0.0324,0.013523,0.002678,0.000431,0.000353
5181000,0.0324,0.013523,0.002678,0.000431,0.000235
5182000,0.0324,0.013523,0.002678,0.000431,0.000353
5183000,0.0324,0.013523,0.002678,0.000431,0.000470
5184000,0.0324,0.013523,0.002678,0.000431,0.000353
5185000,0.0324,0.013523,0.002678,0.000431,0.000118
5186000,0.0324,0.013523,0.002678,0.000431,0.000470
5187000,0.0324,0.013523,0.002678,0.000431,0.000353
5188000,0.0324,0.013523,0.002678,0.000431,0.000235
5189000,0.0324,0.013523,0.002678,0.000431,0.000353
5190000,0.0324,0.013523,0.002678,0.000431,0.000470
5191000,0.0324,0.013523,0.002678,0.000431,0.000353
5192000,0.0324,0.013523,0.002678,0.000431,0.000118
5193000,0.0324,0.013523,0.002678,0.000431,0.000470
5194000,0.0324,0.013523,0.002678,0.000431,0.000353
5195000,0.0324,0.013523,0.002678,0.000431,0.000235
5196000,0.0324,0.013523,0.002678,0.000431,0.000353
5197000,0.0324,0.013523,0.002678,0.000431,0.000470
5198000,0.0324,0.013523,0.002678,0.000431,0.000235
5199000,0.0324,0.013523,0.002678,0.000431,0.000235
5200000,0.0324,0.013523,0.002678,0.000431,0.000470
5201000,0.0324,0.013523,0.002678,0.000431,0.000353
5202000,0.0324,0.013523,0.002678,0.000431,0.000235
5203000,0.0324,0.013523,0.002678,0.000431,0.000353
5204000,0.0324,0.013523,0.002678,0.000431,0.000470
5205000,0.0324,0.013523,0.002678,0.000431,0.000235
5206000,0.0324,0.013523,0.002678,0.000431,0.000235
5207000,0.0324,0.013523,0.002678,0.000431,0.000470
5208000,0.0324,0.013523,0.002678,0.000431,0.000353
5209000,0.0324,0.013523,0.002678,0.000431,0.000235
5210000,0.0324,0.013523,0.002678,0.000431,0.000353
5211000,0.0324,0.013523,0.002678,0.000431,0.000470
5212000,0.0324,0.013523,0.002678,0.000431,0.000235
5213000,0.0324,0.013523,0.002678,0.000431,0.000235
5214000,0.0324,0.013523,0.002678,0.000431,0.000470
5215000,0.0324,0.013523,0.002678,0.000431,0.000353
5216000,0.0324,0.013523,0.002678,0.000431,0.000235
5217000,0.0324,0.013523,0.002678,0.000431,0.000353
5218000,0.0324,0.013523,0.002678,0.000431,0.000470
5219000,0.0324,0.013523,0.002678,0.000431,0.000235
5220000,0.0324,0.013523,0.002678,0.000431,0.000235
5221000,0.0324,0.013523,0.002678,0.000431,0.000470
5222000,0.0324,0.013523,0.002678,0.000431,0.000353
5223000,0.0324,0.013523,0.002678,0.000431,0.000235
5224000,0.0324,0.013523,0.002678,0.000431,0.000353
5225000,0.0324,0.013523,0.002678,0.000431,0.000470
5226000,0.0324,0.013523,0.002678,0.000431,0.000235
5227000,0.0324,0.013523,0.002678,0.000431,0.000235
5228000,0.0324,0.013523,0.002678,0.000431,0.000470
5229000,0.0324,0.013523,0.002678,0.000431,0.000353
5230000,0.0324,0.013523,0.002678,0.000431,0.000235
5231000,0.0324,0.013523,0.002678,0.000431,0.000353
5232000,0.0324,0.013523,0.002678,0.000431,0.000470
5233000,0.0324,0.013523,0.002678,0.000431,0.000235
5234000,0.0324,0.013523,0.002678,0.000431,0.000235
5235000,0.0324,0.013523,0.002678,0.000431,0.000470
5236000,0.0324,0.013523,0.002678,0.000431,0.000353
5237000,0.0324,0.013523,0.002678,0.000431,0.000235
5238000,0.0324,0.013523,0.002678,0.000431,0.000353
5239000,0.0324,0.013523,0.002678,0.000431,0.000470
5240000,0.0324,0.013523,0.002678,0.000431,0.000118
5241000,0.0324,0.013523,0.002678,0.000431,0.000353
5242000,0.0324,0.013523,0.002678,0.000431,0.000470
5243000,0.0324,0.013523,0.002678,0.000431,0.000353
5244000,0.0324,0.013523,0.002678,0.000431,0.000235
5245000,0.0324,0.013523,0.002678,0.000431,0.000353
5246000,0.0324,0.013523,0.002678,0.000431,0.000470
5247000,0.0324,0.013523,0.002678,0.000431,0.000118
5248000,0.0324,0.013523,0.002678,0.000431,0.000353
5249000,0.0324,0.013523,0.002678,0.000431,0.000470
5250000,0.0324,0.013523,0.002678,0.000431,0.000353
5251000,0.0324,0.013523,0.002678,0.000431,0.000235
5252000,0.0324,0.013523,0.002678,0.000431,0.000353
5253000,0.0324,0.013523,0.002678,0.000431,0.000470
5254000,0.0324,0.013523,0.002678,0.000431,0.000118
5255000,0.0324,0.013523,0.002678,0.000431,0.000353
5256000,0.0324,0.013523,0.002678,0.000431,0.000470
5257000,0.0324,0.013523,0.002678,0.000431,0.000353
5258000,0.0324,0.013523,0.002678,0.000431,0.000235
5259000,0.0324,0.013523,0.002678,0.000431,0.000353
5260000,0.0324,0.013523,0.002678,0.000431,0.000470
5261000,0.0324,0.013523,0.002678,0.000431,0.000118
5262000,0.0324,0.013523,0.002678,0.000431,0.000353
5263000,0.0324,0.013523,0.002678,0.000431,0.000470
5264000,0.0324,0.013523,0.002678,0.000431,0.000353
5265000,0.0324,0.013523,0.002678,0.000431,0.000235
5266000,0.0324,0.013523,0.002678,0.000431,0.000353
5267000,0.0324,0.013523,0.002678,0.000431,0.000353
5268000,0.0324,0.013523,0.002678,0.000431,0.000235
5269000,0.0324,0.013523,0.002678,0.000431,0.000353
5270000,0.0324,0.013523,0.002678,0.000431,0.000470
5271000,0.0324,0.013523,0.002678,0.000431,0.000353
5272000,0.0324,0.013523,0.002678,0.000431,0.000235
5273000,0.0324,0.013523,0.002678,0.000431,0.000353
5274000,0.0324,0.013523,0.002678,0.000431,0.000353
5275000,0.0324,0.013523,0.002678,0.000431,0.000235
5276000,0.0324,0.013523,0.002678,0.000431,0.000353
5277000,0.0324,0.013523,0.002678,0.000431,0.000470
5278000,0.0324,0.013523,0.002678,0.000431,0.000353
5279000,0.0324,0.013523,0.002678,0.000431,0.000235
5280000,0.0324,0.013523,0.002678,0.000431,0.000353
5281000,0.0324,0.013523,0.002678,0.000431,0.000353
5282000,0.0324,0.013523,0.002678,0.000431,0.000235
5283000,0.0324,0.013523,0.002678,0.000431,0.000353
5284000,0.0324,0.013523,0.002678,0.000431,0.000470
5285000,0.0324,0.013523,0.002678,0.000431,0.000353
5286000,0.0324,0.013523,0.002678,0.000431,0.000235
5287000,0.0324,0.013523,0.002678,0.000431,0.000353
5288000,0.0324,0.013523,0.002678,0.000431,0.000353
5289000,0.0324,0.013523,0.002678,0.000431,0.000235
5290000,0.0324,0.013523,0.002678,0.000431,0.000353
5291000,0.0324,0.013523,0.002678,0.000431,0.000470
5292000,0.0324,0.013523,0.002678,0.000431,0.000353
5293000,0.0324,0.013523,0.002678,0.000431,0.000235
5294000,0.0324,0.013523,0.002678,0.000431,0.000353
5295000,0.0324,0.013523,0.002678,0.000431,0.000353
5296000,0.0324,0.013523,0.002678,0.000431,0.000235
5297000,0.0324,0.013523,0.002678,0.000431,0.000353
5298000,0.0324,0.013523,0.002678,0.000431,0.000470
5299000,0.0324,0.013523,0.002678,0.000431,0.000353
5300000,0.0324,0.013523,0.002678,0.000431,0.000235
5301000,0.0324,0.013523,0.002678,0.000431,0.000353
5302000,0.0324,0.013523,0.002678,0.000431,0.000353
5303000,0.0324,0.013523,0.002678,0.000431,0.000235
5304000,0.0324,0.013523,0.002678,0.000431,0.000353
5305000,0.0324,0.013523,0.002678,0.000431,0.000470
5306000,0.0324,0.013523,0.002678,0.000431,0.000353
5307000,0.0324,0.013523,0.002678,0.000431,0.000235
5308000,0.0324,0.013523,0.002678,0.000431,0.000353
5309000,0.0324,0.013523,0.002678,0.000431,0.000353
5310000,0.0324,0.013523,0.002678,0.000431,0.000235
5311000,0.0324,0.013523,0.002678,0.000431,0.000353
5312000,0.0324,0.013523,0.002678,0.000431,0.000470
5313000,0.0324,0.013523,0.002678,0.000431,0.000353
5314000,0.0324,0.013523,0.002678,0.000431,0.000118
5315000,0.0324,0.013523,0.002678,0.000431,0.000470
5316000,0.0324,0.013523,0.002678,0.000431,0.000353
5317000,0.0324,0.013523,0.002678,0.000431,0.000235
5318000,0.0324,0.013523,0.002678,0.000431,0.000353
5319000,0.0324,0.013523,0.002678,0.000431,0.000470
5320000,0.0324,0.013523,0.002678,0.000431,0.000353
5321000,0.0324,0.013523,0.002678,0.000431,0.000118
5322000,0.0324,0.013523,0.002678,0.000431,0.000470
5323000,0.0324,0.013523,0.002678,0.000431,0.000353
5324000,0.0324,0.013523,0.002678,0.000431,0.000235
5325000,0.0324,0.013523,0.002678,0.000431,0.000353
5326000,0.0324,0.013523,0.002678,0.000431,0.000470
5327000,0.0324,0.013523,0.002678,0.000431,0.000353
5328000,0.0324,0.013523,0.002678,0.000431,0.000118
5329000,0.0324,0.013523,0.002678,0.000431,0.000470
5330000,0.0324,0.013523,0.002678,0.000431,0.000353
5331000,0.0324,0.013523,0.002678,0.000431,0.000235
5332000,0.0324,0.013523,0.002678,0.000431,0.000353
5333000,0.0324,0.013523,0.002678,0.000431,0.000470
5334000,0.0324,0.013523,0.002678,0.000431,0.000353
5335000,0.0324,0.013523,0.002678,0.000431,0.000118
5336000,0.0324,0.013523,0.002678,0.000431,0.000470
5337000,0.0324,0.013523,0.002678,0.000431,0.000353
5338000,0.0324,0.013523,0.002678,0.000431,0.000235
5339000,0.0324,0.013523,0.002678,0.000431,0.000353
5340000,0.0324,0.013523,0.002678,0.000431,0.000470
5341000,0.0324,0.013523,0.002678,0.000431,0.000235
5342000,0.0324,0.013523,0.002678,0.000431,0.000235
5343000,0.0324,0.013523,0.002678,0.000431,0.000470
5344000,0.0324,0.013523,0.002678,0.000431,0.000353
5345000,0.0324,0.013523,0.002678,0.000431,0.000235
5346000,0.0324,0.013523,0.002678,0.000431,0.000353
5347000,0.0324,0.013523,0.002678,0.000431,0.000470
5348000,0.0324,0.013523,0.002678,0.000431,0.000235
5349000,0.0324,0.013523,0.002678,0.000431,0.000235
5350000,0.0324,0.013523,0.002678,0.000431,0.000470
5351000,0.0324,0.013523,0.002678,0.000431,0.000353
5352000,0.0324,0.013523,0.002678,0.000431,0.000235
5353000,0.0324,0.013523,0.002678,0.000431,0.000353
5354000,0.0324,0.013523,0.002678,0.000431,0.000470
5355000,0.0324,0.013523,0.002678,0.000431,0.000235
5356000,0.0324,0.013523,0.002678,0.000431,0.000235
5357000,0.0324,0.013523,0.002678,0.000431,0.000470
5358000,0.0324,0.013523,0.002678,0.000431,0.000353
5359000,0.0324,0.013523,0.002678,0.000431,0.000235
5360000,0.0324,0.013523,0.002678,0.000431,0.000353
5361000,0.0324,0.013523,0.002678,0.000431,0.000470
5362000,0.0324,0.013523,0.002678,0.000431,0.000235
5363000,0.0324,0.013523,0.002678,0.000431,0.000235
5364000,0.0324,0.013523,0.002678,0.000431,0.000470
5365000,0.0324,0.013523,0.002678,0.000431,0.000353
5366000,0.0324,0.013523,0.002678,0.000431,0.000235
5367000,0.0324,0.013523,0.002678,0.000431,0.000353
5368000,0.0324,0.013523,0.002678,0.000431,0.000470
5369000,0.0324,0.013523,0.002678,0.000431,0.000235
5370000,0.0324,0.013523,0.002678,0.000431,0.000235
5371000,0.0324,0.013523,0.002678,0.000431,0.000470
5372000,0.0324,0.013523,0.002678,0.000431,0.000353
5373000,0.0324,0.013523,0.002678,0.000431,0.000235
5374000,0.0324,0.013523,0.002678,0.000431,0.000353
5375000,0.0324,0.013523,0.002678,0.000431,0.000470
5376000,0.0324,0.013523,0.002678,0.000431,0.000235
5377000,0.0324,0.013523,0.002678,0.000431,0.000235
5378000,0.0324,0.013523,0.002678,0.000431,0.000470
5379000,0.0324,0.013523,0.002678,0.000431,0.000353
5380000,0.0324,0.013523,0.002678,0.000431,0.000235
5381000,0.0324,0.013523,0.002678,0.000431,0.000353
5382000,0.0324,0.013523,0.002678,0.000431,0.000470
5383000,0.0324,0.013523,0.002678,0.000431,0.000118
5384000,0.0324,0.013523,0.002678,0.000431,0.000353
5385000,0.0324,0.013523,0.002678,0.000431,0.000470
5386000,0.0324,0.013523,0.002678,0.000431,0.000353
5387000,0.0324,0.013523,0.002678,0.000431,0.000235
5388000,0.0324,0.013523,0.002678,0.000431,0.000353
5389000,0.0324,0.013523,0.002678,0.000431,0.000470
5390000,0.0324,0.013523,0.002678,0.000431,0.000118
5391000,0.0324,0.013523,0.002678,0.000431,0.000353
5392000,0.0324,0.013523,0.002678,0.000431,0.000470
5393000,0.0324,0.013523,0.002678,0.000431,0.000353
5394000,0.0324,0.013523,0.002678,0.000431,0.000235
5395000,0.0324,0.013523,0.002678,0.000431,0.000353
5396000,0.0324,0.013523,0.002678,0.000431,0.000470
5397000,0.0324,0.013523,0.002678,0.000431,0.000118
5398000,0.0324,0.013523,0.002678,0.000431,0.000353
5399000,0.0324,0.013523,0.002678,0.000431,0.000470
5400000,0.0324,0.013523,0.002678,0.000431,0.000353
5401000,0.0324,0.013523,0.002678,0.000431,0.000235
5402000,0.0324,0.013523,0.002678,0.000431,0.000353
5403000,0.0324,0.013523,0.002678,0.000431,0.000353
5404000,0.0324,0.013523,0.002678,0.000431,0.000235
5405000,0.0324,0.013523,0.002678,0.000431,0.000353
5406000,0.0324,0.013523,0.002678,0.000431,0.000470
5407000,0.0324,0.013523,0.002678,0.000431,0.000353
5408000,0.0324,0.013523,0.002678,0.000431,0.000235
5409000,0.0324,0.013523,0.002678,0.000431,0.000353
5410000,0.0324,0.013523,0.002678,0.000431,0.000353
5411000,0.0324,0.013523,0.002678,0.000431,0.000235
5412000,0.0324,0.013523,0.002678,0.000431,0.000353
5413000,0.0324,0.013523,0.002678,0.000431,0.000470
5414000,0.0324,0.013523,0.002678,0.000431,0.000353
5415000,0.0324,0.013523,0.002678,0.000431,0.000235
5416000,0.0324,0.013523,0.002678,0.000431,0.000353
5417000,0.0324,0.013523,0.002678,0.000431,0.000353
5418000,0.0324,0.013523,0.002678,0.000431,0.000235
5419000,0.0324,0.013523,0.002678,0.000431,0.000353
5420000,0.0324,0.013523,0.002678,0.000431,0.000470
5421000,0.0324,0.013523,0.002678,0.000431,0.000353
5422000,0.0324,0.013523,0.002678,0.000431,0.000235
5423000,0.0324,0.013523,0.002678,0.000431,0.000353
5424000,0.0324,0.013523,0.002678,0.000431,0.000353
5425000,0.0324,0.013523,0.002678,0.000431,0.000235
5426000,0.0324,0.013523,0.002678,0.000431,0.000353
5427000,0.0324,0.013523,0.002678,0.000431,0.000470
5428000,0.0324,0.013523,0.002678,0.000431,0.000353
5429000,0.0324,0.013523,0.002678,0.000431,0.000235
5430000,0.0324,0.013523,0.002678,0.000431,0.000353
5431000,0.0324,0.013523,0.002678,0.000431,0.000353
5432000,0.0324,0.013523,0.002678,0.000431,0.000235
5433000,0.0324,0.013523,0.002678,0.000431,0.000353
5434000,0.0324,0.013523,0.002678,0.000431,0.000470
5435000,0.0324,0.013523,0.002678,0.000431,0.000353
5436000,0.0324,0.013523,0.002678,0.000431,0.000235
5437000,0.0324,0.013523,0.002678,0.000431,0.000353
5438000,0.0324,0.013523,0.002678,0.000431,0.000353
5439000,0.0324,0.013523,0.002678,0.000431,0.000235
5440000,0.0324,0.013523,0.002678,0.000431,0.000353
5441000,0.0324,0.013523,0.002678,0.000431,0.000470
5442000,0.0324,0.013523,0.002678,0.000431,0.000353
5443000,0.0324,0.013523,0.002678,0.000431,0.000235
5444000,0.0324,0.013523,0.002678,0.000431,0.000353
5445000,0.0324,0.013523,0.002678,0.000431,0.000353
5446000,0.0324,0.013523,0.002678,0.000431,0.000235
5447000,0.0324,0.013523,0.002678,0.000431,0.000353
5448000,0.0324,0.013523,0.002678,0.000431,0.000470
5449000,0.0324,0.013523,0.002678,0.000431,0.000353
5450000,0.0324,0.013523,0.002678,0.000431,0.000235
5451000,0.0324,0.013523,0.002678,0.000431,0.000353
5452000,0.0324,0.013523,0.002678,0.000431,0.000353
5453000,0.0324,0.013523,0.002678,0.000431,0.000235
5454000,0.0324,0.013523,0.002678,0.000431,0.000353
5455000,0.0324,0.013523,0.002678,0.000431,0.000470
5456000,0.0324,0.013523,0.002678,0.000431,0.000353
5457000,0.0324,0.013523,0.002678,0.000431,0.000118
5458000,0.0324,0.013523,0.002678,0.000431,0.000470
5459000,0.0324,0.013523,0.002678,0.000431,0.000353
5460000,0.0324,0.013523,0.002678,0.000431,0.000235
5461000,0.0324,0.013523,0.002678,0.000431,0.000353
5462000,0.0324,0.013523,0.002678,0.000431,0.000470
5463000,0.0324,0.013523,0.002678,0.000431,0.000353
5464000,0.0324,0.013523,0.002678,0.000431,0.000118
5465000,0.0324,0.013523,0.002678,0.000431,0.000470
5466000,0.0324,0.013523,0.002678,0.000431,0.000353
5467000,0.0324,0.013523,0.002678,0.000431,0.000235
5468000,0.0324,0.013523,0.002678,0.000431,0.000353
5469000,0.0324,0.013523,0.002678,0.000431,0.000470
5470000,0.0324,0.013523,0.002678,0.000431,0.000353
5471000,0.0324,0.013523,0.002678,0.000431,0.000118
5472000,0.0324,0.013523,0.002678,0.000431,0.000470
5473000,0.0324,0.013523,0.002678,0.000431,0.000353
5474000,0.0324,0.013523,0.002678,0.000431,0.000235
5475000,0.0324,0.013523,0.002678,0.000431,0.000353
5476000,0.0324,0.013523,0.002678,0.000431,0.000470
5477000,0.0324,0.013523,0.002678,0.000431,0.000235
5478000,0.0324,0.013523,0.002678,0.000431,0.000235
5479000,0.0324,0.013523,0.002678,0.000431,0.000470
5480000,0.0324,0.013523,0.002678,0.000431,0.000353
5481000,0.0324,0.013523,0.002678,0.000431,0.000235
5482000,0.0324,0.013523,0.002678,0.000431,0.000353
5483000,0.0324,0.013523,0.002678,0.000431,0.000470
5484000,0.0324,0.013523,0.002678,0.000431,0.000235
5485000,0.0324,0.013523,0.002678,0.000431,0.000235
5486000,0.0324,0.013523,0.002678,0.000431,0.000470
5487000,0.0324,0.013523,0.002678,0.000431,0.000353
5488000,0.0324,0.013523,0.002678,0.000431,0.000235
5489000,0.0324,0.013523,0.002678,0.000431,0.000353
5490000,0.0324,0.013523,0.002678,0.000431,0.000470
5491000,0.0324,0.013523,0.002678,0.000431,0.000235
5492000,0.0324,0.013523,0.002678,0.000431,0.000235
5493000,0.0324,0.013523,0.002678,0.000431,0.000470
5494000,0.0324,0.013523,0.002678,0.000431,0.000353
5495000,0.0324,0.013523,0.002678,0.000431,0.000235
5496000,0.0324,0.013523,0.002678,0.000431,0.000353
5497000,0.0324,0.013523,0.002678,0.000431,0.000470
5498000,0.0324,0.013523,0.002678,0.000431,0.000235
5499000,0.0324,0.013523,0.002678,0.000431,0.000235
5500000,0.0324,0.013523,0.002678,0.000431,0.000470
5501000,0.0324,0.013523,0.002678,0.000431,0.000353
5502000,0.0324,0.013523,0.002678,0.000431,0.000235
5503000,0.0324,0.013523,0.002678,0.000431,0.000353
5504000,0.0324,0.013523,0.002678,0.000431,0.000470
5505000,0.0324,0.013523,0.002678,0.000431,0.000235
5506000,0.0324,0.013523,0.002678,0.000431,0.000235
5507000,0.0324,0.013523,0.002678,0.000431,0.000470
5508000,0.0324,0.013523,0.002678,0.000431,0.000353
5509000,0.0324,0.013523,0.002678,0.000431,0.000235
5510000,0.0324,0.013523,0.002678,0.000431,0.000353
5511000,0.0324,0.013523,0.002678,0.000431,0.000470
5512000,0.0324,0.013523,0.002678,0.000431,0.000235
5513000,0.0324,0.013523,0.002678,0.000431,0.000235
5514000,0.0324,0.013523,0.002678,0.000431,0.000470
5515000,0.0324,0.013523,0.002678,0.000431,0.000353
5516000,0.0324,0.013523,0.002678,0.000431,0.000235
5517000,0.0324,0.013523,0.002678,0.000431,0.000353
5518000,0.0324,0.013523,0.002678,0.000431,0.000470
5519000,0.0324,0.013523,0.002678,0.000431,0.000118
5520000,0.0324,0.013523,0.002678,0.000431,0.000353
5521000,0.0324,0.013523,0.002678,0.000431,0.000470
5522000,0.0324,0.013523,0.002678,0.000431,0.000353
5523000,0.0324,0.013523,0.002678,0.000431,0.000235
5524000,0.0324,0.013523,0.002678,0.000431,0.000353
5525000,0.0324,0.013523,0.002678,0.000431,0.000470
5526000,0.0324,0.013523,0.002678,0.000431,0.000118
5527000,0.0324,0.013523,0.002678,0.000431,0.000353
5528000,0.0324,0.013523,0.002678,0.000431,0.000470
5529000,0.0324,0.013523,0.002678,0.000431,0.000353
5530000,0.0324,0.013523,0.002678,0.000431,0.000235
5531000,0.0324,0.013523,0.002678,0.000431,0.000353
5532000,0.0324,0.013523,0.002678,0.000431,0.000470
5533000,0.0324,0.013523,0.002678,0.000431,0.000118
5534000,0.0324,0.013523,0.002678,0.000431,0.000353
5535000,0.0324,0.013523,0.002678,0.000431,0.000470
5536000,0.0324,0.013523,0.002678,0.000431,0.000353
5537000,0.0324,0.013523,0.002678,0.000431,0.000235
5538000,0.0324,0.013523,0.002678,0.000431,0.000353
5539000,0.0324,0.013523,0.002678,0.000431,0.000470
5540000,0.0324,0.013523,0.002678,0.000431,0.000118
5541000,0.0324,0.013523,0.002678,0.000431,0.000353
5542000,0.0324,0.013523,0.002678,0.000431,0.000470
5543000,0.0324,0.013523,0.002678,0.000431,0.000353
5544000,0.0324,0.013523,0.002678,0.000431,0.000235
5545000,0.0324,0.013523,0.002678,0.000431,0.000353
5546000,0.0324,0.013523,0.002678,0.000431,0.000353
5547000,0.0324,0.013523,0.002678,0.000431,0.000235
5548000,0.0324,0.013523,0.002678,0.000431,0.000353
5549000,0.0324,0.013523,0.002678,0.000431,0.000470
5550000,0.0324,0.013523,0.002678,0.000431,0.000353
5551000,0.0324,0.013523,0.002678,0.000431,0.000235
5552000,0.0324,0.013523,0.002678,0.000431,0.000353
5553000,0.0324,0.013523,0.002678,0.000431,0.000353
5554000,0.0324,0.013523,0.002678,0.000431,0.000235
5555000,0.0324,0.013523,0.002678,0.000431,0.000353
5556000,0.0324,0.013523,0.002678,0.000431,0.000470
5557000,0.0324,0.013523,0.002678,0.000431,0.000353
5558000,0.0324,0.013523,0.002678,0.000431,0.000235
5559000,0.0324,0.013523,0.002678,0.000431,0.000353
5560000,0.0324,0.013523,0.002678,0.000431,0.000353
5561000,0.0324,0.013523,0.002678,0.000431,0.000235
5562000,0.0324,0.013523,0.002678,0.000431,0.000353
5563000,0.0324,0.013523,0.002678,0.000431,0.000470
5564000,0.0324,0.013523,0.002678,0.000431,0.000353
5565000,0.0324,0.013523,0.002678,0.000431,0.000235
5566000,0.0324,0.013523,0.002678,0.000431,0.000353
5567000,0.0324,0.013523,0.002678,0.000431,0.000353
5568000,0.0324,0.013523,0.002678,0.000431,0.000235
5569000,0.0324,0.013523,0.002678,0.000431,0.000353
5570000,0.0324,0.013523,0.002678,0.000431,0.000470
5571000,0.0324,0.013523,0.002678,0.000431,0.000353
5572000,0.0324,0.013523,0.002678,0.000431,0.000235
5573000,0.0324,0.013523,0.002678,0.000431,0.000353
5574000,0.0324,0.013523,0.002678,0.000431,0.000353
5575000,0.0324,0.013523,0.002678,0.000431,0.000235
5576000,0.0324,0.013523,0.002678,0.000431,0.000353
5577000,0.0324,0.013523,0.002678,0.000431,0.000470
5578000,0.0324,0.013523,0.002678,0.000431,0.000353
5579000,0.0324,0.013523,0.002678,0.000431,0.000235
5580000,0.0324,0.013523,0.002678,0.000431,0.000353
5581000,0.0324,0.013523,0.002678,0.000431,0.000353
5582000,0.0324,0.013523,0.002678,0.000431,0.000235
5583000,0.0324,0.013523,0.002678,0.000431,0.000353
5584000,0.0324,0.013523,0.002678,0.000431,0.000470
5585000,0.0324,0.013523,0.002678,0.000431,0.000353
5586000,0.0324,0.013523,0.002678,0.000431,0.000235
5587000,0.0324,0.013523,0.002678,0.000431,0.000353
5588000,0.0324,0.013523,0.002678,0.000431,0.000353
5589000,0.0324,0.013523,0.002678,0.000431,0.000235
5590000,0.0324,0.013523,0.002678,0.000431,0.000353
5591000,0.0324,0.013523,0.002678,0.000431,0.000470
5592000,0.0324,0.013523,0.002678,0.000431,0.000353
5593000,0.0324,0.013523,0.002678,0.000431,0.000118
5594000,0.0324,0.013523,0.002678,0.000431,0.000470
5595000,0.0324,0.013523,0.002678,0.000431,0.000353
5596000,0.0324,0.013523,0.002678,0.000431,0.000235
5597000,0.0324,0.013523,0.002678,0.000431,0.000353
5598000,0.0324,0.013523,0.002678,0.000431,0.000470
5599000,0.0324,0.013523,0.002678,0.000431,0.000353
5600000,0.0324,0.013523,0.002678,0.000431,0.000118
5601000,0.0324,0.013523,0.002678,0.000431,0.000470
5602000,0.0324,0.013523,0.002678,0.000431,0.000353
5603000,0.0324,0.013523,0.002678,0.000431,0.000235
5604000,0.0324,0.013523,0.002678,0.000431,0.000353
5605000,0.0324,0.013523,0.002678,0.000431,0.000470
5606000,0.0324,0.013523,0.002678,0.000431,0.000353
5607000,0.0324,0.013523,0.002678,0.000431,0.000118
5608000,0.0324,0.013523,0.002678,0.000431,0.000470
5609000,0.0324,0.013523,0.002678,0.000431,0.000353
5610000,0.0324,0.013523,0.002678,0.000431,0.000235
5611000,0.0324,0.013523,0.002678,0.000431,0.000353
5612000,0.0324,0.013523,0.002678,0.000431,0.000470
5613000,0.0324,0.013523,0.002678,0.000431,0.000353
5614000,0.0324,0.013523,0.002678,0.000431,0.000118
5615000,0.0324,0.013523,0.002678,0.000431,0.000470
5616000,0.0324,0.013523,0.002678,0.000431,0.000353
5617000,0.0324,0.013523,0.002678,0.000431,0.000235
5618000,0.0324,0.013523,0.002678,0.000431,0.000353
5619000,0.0324,0.013523,0.002678,0.000431,0.000470
5620000,0.0324,0.013523,0.002678,0.000431,0.000235
5621000,0.0324,0.013523,0.002678,0.000431,0.000235
5622000,0.0324,0.013523,0.002678,0.000431,0.000470
5623000,0.0324,0.013523,0.002678,0.000431,0.000353
5624000,0.0324,0.013523,0.002678,0.000431,0.000235
5625000,0.0324,0.013523,0.002678,0.000431,0.000353
5626000,0.0324,0.013523,0.002678,0.000431,0.000470
5627000,0.0324,0.013523,0.002678,0.000431,0.000235
5628000,0.0324,0.013523,0.002678,0.000431,0.000235
5629000,0.0324,0.013523,0.002678,0.000431,0.000470
5630000,0.0324,0.013523,0.002678,0.000431,0.000353
5631000,0.0324,0.013523,0.002678,0.000431,0.000235
5632000,0.0324,0.013523,0.002678,0.000431,0.000353
5633000,0.0324,0.013523,0.002678,0.000431,0.000470
5634000,0.0324,0.013523,0.002678,0.000431,0.000235
5635000,0.0324,0.013523,0.002678,0.000431,0.000235
5636000,0.0324,0.013523,0.002678,0.000431,0.000470
5637000,0.0324,0.013523,0.002678,0.000431,0.000353
5638000,0.0324,0.013523,0.002678,0.000431,0.000235
5639000,0.0324,0.013523,0.002678,0.000431,0.000353
5640000,0.0324,0.013523,0.002678,0.000431,0.000470
5641000,0.0324,0.013523,0.002678,0.000431,0.000235
5642000,0.0324,0.013523,0.002678,0.000431,0.000235
5643000,0.0324,0.013523,0.002678,0.000431,0.000470
5644000,0.0324,0.013523,0.002678,0.000431,0.000353
5645000,0.0324,0.013523,0.002678,0.000431,0.000235
5646000,0.0324,0.013523,0.002678,0.000431,0.000353
5647000,0.0324,0.013523,0.002678,0.000431,0.000470
5648000,0.0324,0.013523,0.002678,0.000431,0.000235
5649000,0.0324,0.013523,0.002678,0.000431,0.000235
5650000,0.0324,0.013523,0.002678,0.000431,0.000470
5651000,0.0324,0.013523,0.002678,0.000431,0.000353
5652000,0.0324,0.013523,0.002678,0.000431,0.000235
5653000,0.0324,0.013523,0.002678,0.000431,0.000353
5654000,0.0324,0.013523,0.002678,0.000431,0.000470
5655000,0.0324,0.013523,0.002678,0.000431,0.000235
5656000,0.0324,0.013523,0.002678,0.000431,0.000235
5657000,0.0324,0.013523,0.002678,0.000431,0.000470
5658000,0.0324,0.013523,0.002678,0.000431,0.000353
5659000,0.0324,0.013523,0.002678,0.000431,0.000235
5660000,0.0324,0.013523,0.002678,0.000431,0.000353
5661000,0.0324,0.013523,0.002678,0.000431,0.000470
5662000,0.0324,0.013523,0.002678,0.000431,0.000118
5663000,0.0324,0.013523,0.002678,0.000431,0.000353
5664000,0.0324,0.013523,0.002678,0.000431,0.000470
5665000,0.0324,0.013523,0.002678,0.000431,0.000353
5666000,0.0324,0.013523,0.002678,0.000431,0.000235
5667000,0.0324,0.013523,0.002678,0.000431,0.000353
5668000,0.0324,0.013523,0.002678,0.000431,0.000470
5669000,0.0324,0.013523,0.002678,0.000431,0.000118
5670000,0.0324,0.013523,0.002678,0.000431,0.000353
5671000,0.0324,0.013523,0.002678,0.000431,0.000470
5672000,0.0324,0.013523,0.002678,0.000431,0.000353
5673000,0.0324,0.013523,0.002678,0.000431,0.000235
5674000,0.0324,0.013523,0.002678,0.000431,0.000353
5675000,0.0324,0.013523,0.002678,0.000431,0.000470
5676000,0.0324,0.013523,0.002678,0.000431,0.000118
5677000,0.0324,0.013523,0.002678,0.000431,0.000353
5678000,0.0324,0.013523,0.002678,0.000431,0.000470
5679000,0.0324,0.013523,0.002678,0.000431,0.000353
5680000,0.0324,0.013523,0.002678,0.000431,0.000235
5681000,0.0324,0.013523,0.002678,0.000431,0.000353
5682000,0.0324,0.013523,0.002678,0.000431,0.000353
5683000,0.0324,0.013523,0.002678,0.000431,0.000235
5684000,0.0324,0.013523,0.002678,0.000431,0.000353
5685000,0.0324,0.013523,0.002678,0.000431,0.000470
5686000,0.0324,0.013523,0.002678,0.000431,0.000353
5687000,0.0324,0.013523,0.002678,0.000431,0.000235
5688000,0.0324,0.013523,0.002678,0.000431,0.000353
5689000,0.0324,0.013523,0.002678,0.000431,0.000353
5690000,0.0324,0.013523,0.002678,0.000431,0.000235
5691000,0.0324,0.013523,0.002678,0.000431,0.000353
5692000,0.0324,0.013523,0.002678,0.000431,0.000470
5693000,0.0324,0.013523,0.002678,0.000431,0.000353
5694000,0.0324,0.013523,0.002678,0.000431,0.000235
5695000,0.0324,0.013523,0.002678,0.000431,0.000353
5696000,0.0324,0.013523,0.002678,0.000431,0.000353
5697000,0.0324,0.013523,0.002678,0.000431,0.000235
5698000,0.0324,0.013523,0.002678,0.000431,0.000353
5699000,0.0324,0.013523,0.002678,0.000431,0.000470
5700000,0.0324,0.013523,0.002678,0.000431,0.000353
5701000,0.0324,0.013523,0.002678,0.000431,0.000235
5702000,0.0324,0.013523,0.002678,0.000431,0.000353
5703000,0.0324,0.013523,0.002678,0.000431,0.000353
5704000,0.0324,0.013523,0.002678,0.000431,0.000235
5705000,0.0324,0.013523,0.002678,0.000431,0.000353
5706000,0.0324,0.013523,0.002678,0.000431,0.000470
5707000,0.0324,0.013523,0.002678,0.000431,0.000353
5708000,0.0324,0.013523,0.002678,0.000431,0.000235
5709000,0.0324,0.013523,0.002678,0.000431,0.000353
5710000,0.0324,0.013523,0.002678,0.000431,0.000353
5711000,0.0324,0.013523,0.002678,0.000431,0.000235
5712000,0.0324,0.013523,0.002678,0.000431,0.000353
5713000,0.0324,0.013523,0.002678,0.000431,0.000470
5714000,0.0324,0.013523,0.002678,0.000431,0.000353
5715000,0.0324,0.013523,0.002678,0.000431,0.000235
5716000,0.0324,0.013523,0.002678,0.000431,0.000353
5717000,0.0324,0.013523,0.002678,0.000431,0.000353
5718000,0.0324,0.013523,0.002678,0.000431,0.000235
5719000,0.0324,0.013523,0.002678,0.000431,0.000353
5720000,0.0324,0.013523,0.002678,0.000431,0.000470
5721000,0.0324,0.013523,0.002678,0.000431,0.000353
5722000,0.0324,0.013523,0.002678,0.000431,0.000235
5723000,0.0324,0.013523,0.002678,0.000431,0.000353
5724000,0.0324,0.013523,0.002678,0.000431,0.000353
5725000,0.0324,0.013523,0.002678,0.000431,0.000235
5726000,0.0324,0.013523,0.002678,0.000431,0.000353
5727000,0.0324,0.013523,0.002678,0.000431,0.000470
5728000,0.0324,0.013523,0.002678,0.000431,0.000353
5729000,0.0324,0.013523,0.002678,0.000431,0.000235
5730000,0.0324,0.013523,0.002678,0.000431,0.000353
5731000,0.0324,0.013523,0.002678,0.000431,0.000353
5732000,0.0324,0.013523,0.002678,0.000431,0.000235
5733000,0.0324,0.013523,0.002678,0.000431,0.000353
5734000,0.0324,0.013523,0.002678,0.000431,0.000470
5735000,0.0324,0.013523,0.002678,0.000431,0.000353
5736000,0.0324,0.013523,0.002678,0.000431,0.000118
5737000,0.0324,0.013523,0.002678,0.000431,0.000470
5738000,0.0324,0.013523,0.002678,0.000431,0.000353
5739000,0.0324,0.013523,0.002678,0.000431,0.000235
5740000,0.0324,0.013523,0.002678,0.000431,0.000353
5741000,0.0324,0.013523,0.002678,0.000431,0.000470
5742000,0.0324,0.013523,0.002678,0.000431,0.000353
5743000,0.0324,0.013523,0.002678,0.000431,0.000118
5744000,0.0324,0.013523,0.002678,0.000431,0.000470
5745000,0.0324,0.013523,0.002678,0.000431,0.000353
5746000,0.0324,0.013523,0.002678,0.000431,0.000235
5747000,0.0324,0.013523,0.002678,0.000431,0.000353
5748000,0.0324,0.013523,0.002678,0.000431,0.000470
5749000,0.0324,0.013523,0.002678,0.000431,0.000353
5750000,0.0324,0.013523,0.002678,0.000431,0.000118
5751000,0.0324,0.013523,0.002678,0.000431,0.000470
5752000,0.0324,0.013523,0.002678,0.000431,0.000353
5753000,0.0324,0.013523,0.002678,0.000431,0.000235
5754000,0.0324,0.013523,0.002678,0.000431,0.000353
5755000,0.0324,0.013523,0.002678,0.000431,0.000470
5756000,0.0324,0.013523,0.002678,0.000431,0.000353
5757000,0.0324,0.013523,0.002678,0.000431,0.000118
5758000,0.0324,0.013523,0.002678,0.000431,0.000470
5759000,0.0324,0.013523,0.002678,0.000431,0.000353
5760000,0.0324,0.013523,0.002678,0.000431,0.000235
5761000,0.0324,0.013523,0.002678,0.000431,0.000353
5762000,0.0324,0.013523,0.002678,0.000431,0.000470
5763000,0.0324,0.013523,0.002678,0.000431,0.000235
5764000,0.0324,0.013523,0.002678,0.000431,0.000235
5765000,0.0324,0.013523,0.002678,0.000431,0.000470
5766000,0.0324,0.013523,0.002678,0.000431,0.000353
5767000,0.0324,0.013523,0.002678,0.000431,0.000235
5768000,0.0324,0.013523,0.002678,0.000431,0.000353
5769000,0.0324,0.013523,0.002678,0.000431,0.000470
5770000,0.0324,0.013523,0.002678,0.000431,0.000235
5771000,0.0324,0.013523,0.002678,0.000431,0.000235
5772000,0.0324,0.013523,0.002678,0.000431,0.000470
5773000,0.0324,0.013523,0.002678,0.000431,0.000353
5774000,0.0324,0.013523,0.002678,0.000431,0.000235
5775000,0.0324,0.013523,0.002678,0.000431,0.000353
5776000,0.0324,0.013523,0.002678,0.000431,0.000470
5777000,0.0324,0.013523,0.002678,0.000431,0.000235
5778000,0.0324,0.013523,0.002678,0.000431,0.000235
5779000,0.0324,0.013523,0.002678,0.000431,0.000470
5780000,0.0324,0.013523,0.002678,0.000431,0.000353
5781000,0.0324,0.013523,0.002678,0.000431,0.000235
5782000,0.0324,0.013523,0.002678,0.000431,0.000353
5783000,0.0324,0.013523,0.002678,0.000431,0.000470
5784000,0.0324,0.013523,0.002678,0.000431,0.000235
5785000,0.0324,0.013523,0.002678,0.000431,0.000235
5786000,0.0324,0.013523,0.002678,0.000431,0.000470
5787000,0.0324,0.013523,0.002678,0.000431,0.000353
5788000,0.0324,0.013523,0.002678,0.000431,0.000235
5789000,0.0324,0.013523,0.002678,0.000431,0.000353
5790000,0.0324,0.013523,0.002678,0.000431,0.000470
5791000,0.0324,0.013523,0.002678,0.000431,0.000235
5792000,0.0324,0.013523,0.002678,0.000431,0.000235
5793000,0.0324,0.013523,0.002678,0.000431,0.000470
5794000,0.0324,0.013523,0.002678,0.000431,0.000353
5795000,0.0324,0.013523,0.002678,0.000431,0.000235
5796000,0.0324,0.013523,0.002678,0.000431,0.000353
5797000,0.0324,0.013523,0.002678,0.000431,0.000470
5798000,0.0324,0.013523,0.002678,0.000431,0.000118
5799000,0.0324,0.013523,0.002678,0.000431,0.000353
5800000,0.0324,0.013523,0.002678,0.000431,0.000470
5801000,0.0324,0.013523,0.002678,0.000431,0.000353
5802000,0.0324,0.013523,0.002678,0.000431,0.000235
5803000,0.0324,0.013523,0.002678,0.000431,0.000353
5804000,0.0324,0.013523,0.002678,0.000431,0.000470
5805000,0.0324,0.013523,0.002678,0.000431,0.000118
5806000,0.0324,0.013523,0.002678,0.000431,0.000353
5807000,0.0324,0.013523,0.002678,0.000431,0.000470
5808000,0.0324,0.013523,0.002678,0.000431,0.000353
5809000,0.0324,0.013523,0.002678,0.000431,0.000235
5810000,0.0324,0.013523,0.002678,0.000431,0.000353
5811000,0.0324,0.013523,0.002678,0.000431,0.000470
5812000,0.0324,0.013523,0.002678,0.000431,0.000118
5813000,0.0324,0.013523,0.002678,0.000431,0.000353
5814000,0.0324,0.013523,0.002678,0.000431,0.000470
5815000,0.0324,0.013523,0.002678,0.000431,0.000353
5816000,0.0324,0.013523,0.002678,0.000431,0.000235
5817000,0.0324,0.013523,0.002678,0.000431,0.000353
5818000,0.0324,0.013523,0.002678,0.000431,0.000470
5819000,0.0324,0.013523,0.002678,0.000431,0.000118
5820000,0.0324,0.013523,0.002678,0.000431,0.000353
5821000,0.0324,0.013523,0.002678,0.000431,0.000470
5822000,0.0324,0.013523,0.002678,0.000431,0.000353
5823000,0.0324,0.013523,0.002678,0.000431,0.000235
5824000,0.0324,0.013523,0.002678,0.000431,0.000353
5825000,0.0324,0.013523,0.002678,0.000431,0.000353
5826000,0.0324,0.013523,0.002678,0.000431,0.000235
5827000,0.0324,0.013523,0.002678,0.000431,0.000353
5828000,0.0324,0.013523,0.002678,0.000431,0.000470
5829000,0.0324,0.013523,0.002678,0.000431,0.000353
5830000,0.0324,0.013523,0.002678,0.000431,0.000235
5831000,0.0324,0.013523,0.002678,0.000431,0.000353
5832000,0.0324,0.013523,0.002678,0.000431,0.000353
5833000,0.0324,0.013523,0.002678,0.000431,0.000235
5834000,0.0324,0.013523,0.002678,0.000431,0.000353
5835000,0.0324,0.013523,0.002678,0.000431,0.000470
5836000,0.0324,0.013523,0.002678,0.000431,0.000353
5837000,0.0324,0.013523,0.002678,0.000431,0.000235
5838000,0.0324,0.013523,0.002678,0.000431,0.000353
5839000,0.0324,0.013523,0.002678,0.000431,0.000353
5840000,0.0324,0.013523,0.002678,0.000431,0.000235
5841000,0.0324,0.013523,0.002678,0.000431,0.000353
5842000,0.0324,0.013523,0.002678,0.000431,0.000470
5843000,0.0324,0.013523,0.002678,0.000431,0.000353
5844000,0.0324,0.013523,0.002678,0.000431,0.000235
5845000,0.0324,0.013523,0.002678,0.000431,0.000353
5846000,0.0324,0.013523,0.002678,0.000431,0.000353
5847000,0.0324,0.013523,0.002678,0.000431,0.000235
5848000,0.0324,0.013523,0.002678,0.000431,0.000353
5849000,0.0324,0.013523,0.002678,0.000431,0.000470
5850000,0.0324,0.013523,0.002678,0.000431,0.000353
5851000,0.0324,0.013523,0.002678,0.000431,0.000235
5852000,0.0324,0.013523,0.002678,0.000431,0.000353
5853000,0.0324,0.013523,0.002678,0.000431,0.000353
5854000,0.0324,0.013523,0.002678,0.000431,0.000235
5855000,0.0324,0.013523,0.002678,0.000431,0.000353
5856000,0.0324,0.013523,0.002678,0.000431,0.000470
5857000,0.0324,0.013523,0.002678,0.000431,0.000353
5858000,0.0324,0.013523,0.002678,0.000431,0.000235
5859000,0.0324,0.013523,0.002678,0.000431,0.000353
5860000,0.0324,0.013523,0.002678,0.000431,0.000353
5861000,0.0324,0.013523,0.002678,0.000431,0.000235
5862000,0.0324,0.013523,0.002678,0.000431,0.000353
5863000,0.0324,0.013523,0.002678,0.000431,0.000470
5864000,0.0324,0.013523,0.002678,0.000431,0.000353
5865000,0.0324,0.013523,0.002678,0.000431,0.000235
5866000,0.0324,0.013523,0.002678,0.000431,0.000353
5867000,0.0324,0.013523,0.002678,0.000431,0.000353
5868000,0.0324,0.013523,0.002678,0.000431,0.000235
5869000,0.0324,0.013523,0.002678,0.000431,0.000353
5870000,0.0324,0.013523,0.002678,0.000431,0.000470
5871000,0.0324,0.013523,0.002678,0.000431,0.000353
5872000,0.0324,0.013523,0.002678,0.000431,0.000235
5873000,0.0324,0.013523,0.002678,0.000431,0.000353
5874000,0.0324,0.013523,0.002678,0.000431,0.000353
5875000,0.0324,0.013523,0.002678,0.000431,0.000235
5876000,0.0324,0.013523,0.002678,0.000431,0.000353
5877000,0.0324,0.013523,0.002678,0.000431,0.000470
5878000,0.0324,0.013523,0.002678,0.000431,0.000353
5879000,0.0324,0.013523,0.002678,0.000431,0.000118
5880000,0.0324,0.013523,0.002678,0.000431,0.000470
5881000,0.0324,0.013523,0.002678,0.000431,0.000353
5882000,0.0324,0.013523,0.002678,0.000431,0.000235
5883000,0.0324,0.013523,0.002678,0.000431,0.000353
5884000,0.0324,0.013523,0.002678,0.000431,0.000470
5885000,0.0324,0.013523,0.002678,0.000431,0.000353
5886000,0.0324,0.013523,0.002678,0.000431,0.000118
5887000,0.0324,0.013523,0.002678,0.000431,0.000470
5888000,0.0324,0.013523,0.002678,0.000431,0.000353
5889000,0.0324,0.013523,0.002678,0.000431,0.000235
5890000,0.0324,0.013523,0.002678,0.000431,0.000353
5891000,0.0324,0.013523,0.002678,0.000431,0.000470
5892000,0.0324,0.013523,0.002678,0.000431,0.000353
5893000,0.0324,0.013523,0.002678,0.000431,0.000118
5894000,0.0324,0.013523,0.002678,0.000431,0.000470
5895000,0.0324,0.013523,0.002678,0.000431,0.000353
5896000,0.0324,0.013523,0.002678,0.000431,0.000235
5897000,0.0324,0.013523,0.002678,0.000431,0.000353
5898000,0.0324,0.013523,0.002678,0.000431,0.000470
5899000,0.0324,0.013523,0.002678,0.000431,0.000235
5900000,0.0324,0.013523,0.002678,0.000431,0.000235
5901000,0.0324,0.013523,0.002678,0.000431,0.000470
5902000,0.0324,0.013523,0.002678,0.000431,0.000353
5903000,0.0324,0.013523,0.002678,0.000431,0.000235
5904000,0.0324,0.013523,0.002678,0.000431,0.000353
5905000,0.0324,0.013523,0.002678,0.000431,0.000470
5906000,0.0324,0.013523,0.002678,0.000431,0.000235
5907000,0.0324,0.013523,0.002678,0.000431,0.000235
5908000,0.0324,0.013523,0.002678,0.000431,0.000470
5909000,0.0324,0.013523,0.002678,0.000431,0.000353
5910000,0.0324,0.013523,0.002678,0.000431,0.000235
5911000,0.0324,0.013523,0.002678,0.000431,0.000353
5912000,0.0324,0.013523,0.002678,0.000431,0.000470
5913000,0.0324,0.013523,0.002678,0.000431,0.000235
5914000,0.0324,0.013523,0.002678,0.000431,0.000235
5915000,0.0324,0.013523,0.002678,0.000431,0.000470
5916000,0.0324,0.013523,0.002678,0.000431,0.000353
5917000,0.0324,0.013523,0.002678,0.000431,0.000235
5918000,0.0324,0.013523,0.002678,0.000431,0.000353
5919000,0.0324,0.013523,0.002678,0.000431,0.000470
5920000,0.0324,0.013523,0.002678,0.000431,0.000235
5921000,0.0324,0.013523,0.002678,0.000431,0.000235
5922000,0.0324,0.013523,0.002678,0.000431,0.000470
5923000,0.0324,0.013523,0.002678,0.000431,0.000353
5924000,0.0324,0.013523,0.002678,0.000431,0.000235
5925000,0.0324,0.013523,0.002678,0.000431,0.000353
5926000,0.0324,0.013523,0.002678,0.000431,0.000470
5927000,0.0324,0.013523,0.002678,0.000431,0.000235
5928000,0.0324,0.013523,0.002678,0.000431,0.000235
5929000,0.0324,0.013523,0.002678,0.000431,0.000470
5930000,0.0324,0.013523,0.002678,0.000431,0.000353
5931000,0.0324,0.013523,0.002678,0.000431,0.000235
5932000,0.0324,0.013523,0.002678,0.000431,0.000353
5933000,0.0324,0.013523,0.002678,0.000431,0.000470
5934000,0.0324,0.013523,0.002678,0.000431,0.000235
5935000,0.0324,0.013523,0.002678,0.000431,0.000235
5936000,0.0324,0.013523,0.002678,0.000431,0.000470
5937000,0.0324,0.013523,0.002678,0.000431,0.000353
5938000,0.0324,0.013523,0.002678,0.000431,0.000235
5939000,0.0324,0.013523,0.002678,0.000431,0.000353
5940000,0.0324,0.013523,0.002678,0.000431,0.000470
5941000,0.0324,0.013523,0.002678,0.000431,0.000118
5942000,0.0324,0.013523,0.002678,0.000431,0.000353
5943000,0.0324,0.013523,0.002678,0.000431,0.000470
5944000,0.0324,0.013523,0.002678,0.000431,0.000353
5945000,0.0324,0.013523,0.002678,0.000431,0.000235
5946000,0.0324,0.013523,0.002678,0.000431,0.000353
5947000,0.0324,0.013523,0.002678,0.000431,0.000470
5948000,0.0324,0.013523,0.002678,0.000431,0.000118
5949000,0.0324,0.013523,0.002678,0.000431,0.000353
5950000,0.0324,0.013523,0.002678,0.000431,0.000470
5951000,0.0324,0.013523,0.002678,0.000431,0.000353
5952000,0.0324,0.013523,0.002678,0.000431,0.000235
5953000,0.0324,0.013523,0.002678,0.000431,0.000353
5954000,0.0324,0.013523,0.002678,0.000431,0.000470
5955000,0.0324,0.013523,0.002678,0.000431,0.000118
5956000,0.0324,0.013523,0.002678,0.000431,0.000353
5957000,0.0324,0.013523,0.002678,0.000431,0.000470
5958000,0.0324,0.013523,0.002678,0.000431,0.000353
5959000,0.0324,0.013523,0.002678,0.000431,0.000235
5960000,0.0324,0.013523,0.002678,0.000431,0.000353
5961000,0.0324,0.013523,0.002678,0.000431,0.000470
5962000,0.0324,0.013523,0.002678,0.000431,0.000118
5963000,0.0324,0.013523,0.002678,0.000431,0.000353
5964000,0.0324,0.013523,0.002678,0.000431,0.000470
5965000,0.0324,0.013523,0.002678,0.000431,0.000353
5966000,0.0324,0.013523,0.002678,0.000431,0.000235
5967000,0.0324,0.013523,0.002678,0.000431,0.000353
5968000,0.0324,0.013523,0.002678,0.000431,0.000353
5969000,0.0324,0.013523,0.002678,0.000431,0.000235
5970000,0.0324,0.013523,0.002678,0.000431,0.000353
5971000,0.0324,0.013523,0.002678,0.000431,0.000470
5972000,0.0324,0.013523,0.002678,0.000431,0.000353
5973000,0.0324,0.013523,0.002678,0.000431,0.000235
5974000,0.0324,0.013523,0.002678,0.000431,0.000353
5975000,0.0324,0.013523,0.002678,0.000431,0.000353
5976000,0.0324,0.013523,0.002678,0.000431,0.000235
5977000,0.0324,0.013523,0.002678,0.000431,0.000353
5978000,0.0324,0.013523,0.002678,0.000431,0.000470
5979000,0.0324,0.013523,0.002678,0.000431,0.000353
5980000,0.0324,0.013523,0.002678,0.000431,0.000235
5981000,0.0324,0.013523,0.002678,0.000431,0.000353
5982000,0.0324,0.013523,0.002678,0.000431,0.000353
5983000,0.0324,0.013523,0.002678,0.000431,0.000235
5984000,0.0324,0.013523,0.002678,0.000431,0.000353
5985000,0.0324,0.013523,0.002678,0.000431,0.000470
5986000,0.0324,0.013523,0.002678,0.000431,0.000353
5987000,0.0324,0.013523,0.002678,0.000431,0.000235
5988000,0.0324,0.013523,0.002678,0.000431,0.000353
5989000,0.0324,0.013523,0.002678,0.000431,0.000353
5990000,0.0324,0.013523,0.002678,0.000431,0.000235
5991000,0.0324,0.013523,0.002678,0.000431,0.000353
5992000,0.0324,0.013523,0.002678,0.000431,0.000470
5993000,0.0324,0.013523,0.002678,0.000431,0.000353
5994000,0.0324,0.013523,0.002678,0.000431,0.000235
5995000,0.0324,0.013523,0.002678,0.000431,0.000353
5996000,0.0324,0.013523,0.002678,0.000431,0.000353
5997000,0.0324,0.013523,0.002678,0.000431,0.000235
5998000,0.0324,0.013523,0.002678,0.000431,0.000353
5999000,0.0324,0.013523,0.002678,0.000431,0.000470
