Cycle,Area(mm^2),PeakDynamic(W),SubthresholdLeakage(W),GateLeakage(W),RunTimeDynamic(W)
28000000,0.0324,0.013523,0.002678,0.000431,0.000353
28001000,0.0324,0.013523,0.002678,0.000431,0.000470
28002000,0.0324,0.013523,0.002678,0.000431,0.000353
28003000,0.0324,0.013523,0.002678,0.000431,0.000235
28004000,0.0324,0.013523,0.002678,0.000431,0.000353
28005000,0.0324,0.013523,0.002678,0.000431,0.000353
28006000,0.0324,0.013523,0.002678,0.000431,0.000235
28007000,0.0324,0.013523,0.002678,0.000431,0.000353
28008000,0.0324,0.013523,0.002678,0.000431,0.000470
28009000,0.0324,0.013523,0.002678,0.000431,0.000353
28010000,0.0324,0.013523,0.002678,0.000431,0.000235
28011000,0.0324,0.013523,0.002678,0.000431,0.000353
28012000,0.0324,0.013523,0.002678,0.000431,0.000353
28013000,0.0324,0.013523,0.002678,0.000431,0.000235
28014000,0.0324,0.013523,0.002678,0.000431,0.000353
28015000,0.0324,0.013523,0.002678,0.000431,0.000470
28016000,0.0324,0.013523,0.002678,0.000431,0.000353
28017000,0.0324,0.013523,0.002678,0.000431,0.000235
28018000,0.0324,0.013523,0.002678,0.000431,0.000353
28019000,0.0324,0.013523,0.002678,0.000431,0.000353
28020000,0.0324,0.013523,0.002678,0.000431,0.000235
28021000,0.0324,0.013523,0.002678,0.000431,0.000353
28022000,0.0324,0.013523,0.002678,0.000431,0.000470
28023000,0.0324,0.013523,0.002678,0.000431,0.000353
28024000,0.0324,0.013523,0.002678,0.000431,0.000235
28025000,0.0324,0.013523,0.002678,0.000431,0.000353
28026000,0.0324,0.013523,0.002678,0.000431,0.000353
28027000,0.0324,0.013523,0.002678,0.000431,0.000235
28028000,0.0324,0.013523,0.002678,0.000431,0.000353
28029000,0.0324,0.013523,0.002678,0.000431,0.000470
28030000,0.0324,0.013523,0.002678,0.000431,0.000353
28031000,0.0324,0.013523,0.002678,0.000431,0.000235
28032000,0.0324,0.013523,0.002678,0.000431,0.000353
28033000,0.0324,0.013523,0.002678,0.000431,0.000353
28034000,0.0324,0.013523,0.002678,0.000431,0.000235
28035000,0.0324,0.013523,0.002678,0.000431,0.000353
28036000,0.0324,0.013523,0.002678,0.000431,0.000470
28037000,0.0324,0.013523,0.002678,0.000431,0.000353
28038000,0.0324,0.013523,0.002678,0.000431,0.000235
28039000,0.0324,0.013523,0.002678,0.000431,0.000353
28040000,0.0324,0.013523,0.002678,0.000431,0.000353
28041000,0.0324,0.013523,0.002678,0.000431,0.000235
28042000,0.0324,0.013523,0.002678,0.000431,0.000353
28043000,0.0324,0.013523,0.002678,0.000431,0.000470
28044000,0.0324,0.013523,0.002678,0.000431,0.000353
28045000,0.0324,0.013523,0.002678,0.000431,0.000235
28046000,0.0324,0.013523,0.002678,0.000431,0.000353
28047000,0.0324,0.013523,0.002678,0.000431,0.000353
28048000,0.0324,0.013523,0.002678,0.000431,0.000235
28049000,0.0324,0.013523,0.002678,0.000431,0.000353
28050000,0.0324,0.013523,0.002678,0.000431,0.000470
28051000,0.0324,0.013523,0.002678,0.000431,0.000353
28052000,0.0324,0.013523,0.002678,0.000431,0.000118
28053000,0.0324,0.013523,0.002678,0.000431,0.000470
28054000,0.0324,0.013523,0.002678,0.000431,0.000353
28055000,0.0324,0.013523,0.002678,0.000431,0.000235
28056000,0.0324,0.013523,0.002678,0.000431,0.000353
28057000,0.0324,0.013523,0.002678,0.000431,0.000470
28058000,0.0324,0.013523,0.002678,0.000431,0.000353
28059000,0.0324,0.013523,0.002678,0.000431,0.000118
28060000,0.0324,0.013523,0.002678,0.000431,0.000470
28061000,0.0324,0.013523,0.002678,0.000431,0.000353
28062000,0.0324,0.013523,0.002678,0.000431,0.000235
28063000,0.0324,0.013523,0.002678,0.000431,0.000353
28064000,0.0324,0.013523,0.002678,0.000431,0.000470
28065000,0.0324,0.013523,0.002678,0.000431,0.000353
28066000,0.0324,0.013523,0.002678,0.000431,0.000118
28067000,0.0324,0.013523,0.002678,0.000431,0.000470
28068000,0.0324,0.013523,0.002678,0.000431,0.000353
28069000,0.0324,0.013523,0.002678,0.000431,0.000235
28070000,0.0324,0.013523,0.002678,0.000431,0.000353
28071000,0.0324,0.013523,0.002678,0.000431,0.000470
28072000,0.0324,0.013523,0.002678,0.000431,0.000235
28073000,0.0324,0.013523,0.002678,0.000431,0.000235
28074000,0.0324,0.013523,0.002678,0.000431,0.000470
28075000,0.0324,0.013523,0.002678,0.000431,0.000353
28076000,0.0324,0.013523,0.002678,0.000431,0.000235
28077000,0.0324,0.013523,0.002678,0.000431,0.000353
28078000,0.0324,0.013523,0.002678,0.000431,0.000470
28079000,0.0324,0.013523,0.002678,0.000431,0.000235
28080000,0.0324,0.013523,0.002678,0.000431,0.000235
28081000,0.0324,0.013523,0.002678,0.000431,0.000470
28082000,0.0324,0.013523,0.002678,0.000431,0.000353
28083000,0.0324,0.013523,0.002678,0.000431,0.000235
28084000,0.0324,0.013523,0.002678,0.000431,0.000353
28085000,0.0324,0.013523,0.002678,0.000431,0.000470
28086000,0.0324,0.013523,0.002678,0.000431,0.000118
28087000,0.0324,0.013523,0.002678,0.000431,0.000353
28088000,0.0324,0.013523,0.002678,0.000431,0.000470
28089000,0.0324,0.013523,0.002678,0.000431,0.000353
28090000,0.0324,0.013523,0.002678,0.000431,0.000235
28091000,0.0324,0.013523,0.002678,0.000431,0.000353
28092000,0.0324,0.013523,0.002678,0.000431,0.000353
28093000,0.0324,0.013523,0.002678,0.000431,0.000235
28094000,0.0324,0.013523,0.002678,0.000431,0.000353
28095000,0.0324,0.013523,0.002678,0.000431,0.000470
28096000,0.0324,0.013523,0.002678,0.000431,0.000353
28097000,0.0324,0.013523,0.002678,0.000431,0.000235
28098000,0.0324,0.013523,0.002678,0.000431,0.000353
28099000,0.0324,0.013523,0.002678,0.000431,0.000353
28100000,0.0324,0.013523,0.002678,0.000431,0.000235
28101000,0.0324,0.013523,0.002678,0.000431,0.000353
28102000,0.0324,0.013523,0.002678,0.000431,0.000470
28103000,0.0324,0.013523,0.002678,0.000431,0.000353
28104000,0.0324,0.013523,0.002678,0.000431,0.000235
28105000,0.0324,0.013523,0.002678,0.000431,0.000353
28106000,0.0324,0.013523,0.002678,0.000431,0.000353
28107000,0.0324,0.013523,0.002678,0.000431,0.000235
28108000,0.0324,0.013523,0.002678,0.000431,0.000353
28109000,0.0324,0.013523,0.002678,0.000431,0.000470
28110000,0.0324,0.013523,0.002678,0.000431,0.000235
28111000,0.0324,0.013523,0.002678,0.000431,0.000235
28112000,0.0324,0.013523,0.002678,0.000431,0.000470
28113000,0.0324,0.013523,0.002678,0.000431,0.000353
28114000,0.0324,0.013523,0.002678,0.000431,0.000235
28115000,0.0324,0.013523,0.002678,0.000431,0.000353
28116000,0.0324,0.013523,0.002678,0.000431,0.000470
28117000,0.0324,0.013523,0.002678,0.000431,0.000235
28118000,0.0324,0.013523,0.002678,0.000431,0.000235
28119000,0.0324,0.013523,0.002678,0.000431,0.000470
28120000,0.0324,0.013523,0.002678,0.000431,0.000353
28121000,0.0324,0.013523,0.002678,0.000431,0.000235
28122000,0.0324,0.013523,0.002678,0.000431,0.000353
28123000,0.0324,0.013523,0.002678,0.000431,0.000470
28124000,0.0324,0.013523,0.002678,0.000431,0.000235
28125000,0.0324,0.013523,0.002678,0.000431,0.000235
28126000,0.0324,0.013523,0.002678,0.000431,0.000470
28127000,0.0324,0.013523,0.002678,0.000431,0.000353
28128000,0.0324,0.013523,0.002678,0.000431,0.000235
28129000,0.0324,0.013523,0.002678,0.000431,0.000353
28130000,0.0324,0.013523,0.002678,0.000431,0.000470
28131000,0.0324,0.013523,0.002678,0.000431,0.000118
28132000,0.0324,0.013523,0.002678,0.000431,0.000353
28133000,0.0324,0.013523,0.002678,0.000431,0.000470
28134000,0.0324,0.013523,0.002678,0.000431,0.000353
28135000,0.0324,0.013523,0.002678,0.000431,0.000235
28136000,0.0324,0.013523,0.002678,0.000431,0.000353
28137000,0.0324,0.013523,0.002678,0.000431,0.000353
28138000,0.0324,0.013523,0.002678,0.000431,0.000235
28139000,0.0324,0.013523,0.002678,0.000431,0.000353
28140000,0.0324,0.013523,0.002678,0.000431,0.000470
28141000,0.0324,0.013523,0.002678,0.000431,0.000353
28142000,0.0324,0.013523,0.002678,0.000431,0.000235
28143000,0.0324,0.013523,0.002678,0.000431,0.000353
28144000,0.0324,0.013523,0.002678,0.000431,0.000353
28145000,0.0324,0.013523,0.002678,0.000431,0.000235
28146000,0.0324,0.013523,0.002678,0.000431,0.000353
28147000,0.0324,0.013523,0.002678,0.000431,0.000470
28148000,0.0324,0.013523,0.002678,0.000431,0.000353
28149000,0.0324,0.013523,0.002678,0.000431,0.000118
28150000,0.0324,0.013523,0.002678,0.000431,0.000470
28151000,0.0324,0.013523,0.002678,0.000431,0.000353
28152000,0.0324,0.013523,0.002678,0.000431,0.000235
28153000,0.0324,0.013523,0.002678,0.000431,0.000353
28154000,0.0324,0.013523,0.002678,0.000431,0.000470
28155000,0.0324,0.013523,0.002678,0.000431,0.000235
28156000,0.0324,0.013523,0.002678,0.000431,0.000235
28157000,0.0324,0.013523,0.002678,0.000431,0.000470
28158000,0.0324,0.013523,0.002678,0.000431,0.000353
28159000,0.0324,0.013523,0.002678,0.000431,0.000235
28160000,0.0324,0.013523,0.002678,0.000431,0.000353
28161000,0.0324,0.013523,0.002678,0.000431,0.000470
28162000,0.0324,0.013523,0.002678,0.000431,0.000235
28163000,0.0324,0.013523,0.002678,0.000431,0.000235
28164000,0.0324,0.013523,0.002678,0.000431,0.000470
28165000,0.0324,0.013523,0.002678,0.000431,0.000353
28166000,0.0324,0.013523,0.002678,0.000431,0.000235
28167000,0.0324,0.013523,0.002678,0.000431,0.000353
28168000,0.0324,0.013523,0.002678,0.000431,0.000470
28169000,0.0324,0.013523,0.002678,0.000431,0.000118
28170000,0.0324,0.013523,0.002678,0.000431,0.000353
28171000,0.0324,0.013523,0.002678,0.000431,0.000470
28172000,0.0324,0.013523,0.002678,0.000431,0.000353
28173000,0.0324,0.013523,0.002678,0.000431,0.000235
28174000,0.0324,0.013523,0.002678,0.000431,0.000353
28175000,0.0324,0.013523,0.002678,0.000431,0.000353
28176000,0.0324,0.013523,0.002678,0.000431,0.000235
28177000,0.0324,0.013523,0.002678,0.000431,0.000353
28178000,0.0324,0.013523,0.002678,0.000431,0.000470
28179000,0.0324,0.013523,0.002678,0.000431,0.000353
28180000,0.0324,0.013523,0.002678,0.000431,0.000235
28181000,0.0324,0.013523,0.002678,0.000431,0.000353
28182000,0.0324,0.013523,0.002678,0.000431,0.000353
28183000,0.0324,0.013523,0.002678,0.000431,0.000235
28184000,0.0324,0.013523,0.002678,0.000431,0.000353
28185000,0.0324,0.013523,0.002678,0.000431,0.000470
28186000,0.0324,0.013523,0.002678,0.000431,0.000353
28187000,0.0324,0.013523,0.002678,0.000431,0.000235
28188000,0.0324,0.013523,0.002678,0.000431,0.000353
28189000,0.0324,0.013523,0.002678,0.000431,0.000353
28190000,0.0324,0.013523,0.002678,0.000431,0.000235
28191000,0.0324,0.013523,0.002678,0.000431,0.000353
28192000,0.0324,0.013523,0.002678,0.000431,0.000470
28193000,0.0324,0.013523,0.002678,0.000431,0.000353
28194000,0.0324,0.013523,0.002678,0.000431,0.000118
28195000,0.0324,0.013523,0.002678,0.000431,0.000470
28196000,0.0324,0.013523,0.002678,0.000431,0.000353
28197000,0.0324,0.013523,0.002678,0.000431,0.000235
28198000,0.0324,0.013523,0.002678,0.000431,0.000353
28199000,0.0324,0.013523,0.002678,0.000431,0.000470
28200000,0.0324,0.013523,0.002678,0.000431,0.000235
28201000,0.0324,0.013523,0.002678,0.000431,0.000235
28202000,0.0324,0.013523,0.002678,0.000431,0.000470
28203000,0.0324,0.013523,0.002678,0.000431,0.000353
28204000,0.0324,0.013523,0.002678,0.000431,0.000235
28205000,0.0324,0.013523,0.002678,0.000431,0.000353
28206000,0.0324,0.013523,0.002678,0.000431,0.000470
28207000,0.0324,0.013523,0.002678,0.000431,0.000235
28208000,0.0324,0.013523,0.002678,0.000431,0.000235
28209000,0.0324,0.013523,0.002678,0.000431,0.000470
28210000,0.0324,0.013523,0.002678,0.000431,0.000353
28211000,0.0324,0.013523,0.002678,0.000431,0.000235
28212000,0.0324,0.013523,0.002678,0.000431,0.000353
28213000,0.0324,0.013523,0.002678,0.000431,0.000470
28214000,0.0324,0.013523,0.002678,0.000431,0.000235
28215000,0.0324,0.013523,0.002678,0.000431,0.000235
28216000,0.0324,0.013523,0.002678,0.000431,0.000470
28217000,0.0324,0.013523,0.002678,0.000431,0.000353
28218000,0.0324,0.013523,0.002678,0.000431,0.000235
28219000,0.0324,0.013523,0.002678,0.000431,0.000353
28220000,0.0324,0.013523,0.002678,0.000431,0.000470
28221000,0.0324,0.013523,0.002678,0.000431,0.000235
28222000,0.0324,0.013523,0.002678,0.000431,0.000235
28223000,0.0324,0.013523,0.002678,0.000431,0.000470
28224000,0.0324,0.013523,0.002678,0.000431,0.000353
28225000,0.0324,0.013523,0.002678,0.000431,0.000235
28226000,0.0324,0.013523,0.002678,0.000431,0.000353
28227000,0.0324,0.013523,0.002678,0.000431,0.000470
28228000,0.0324,0.013523,0.002678,0.000431,0.000118
28229000,0.0324,0.013523,0.002678,0.000431,0.000353
28230000,0.0324,0.013523,0.002678,0.000431,0.000470
28231000,0.0324,0.013523,0.002678,0.000431,0.000353
28232000,0.0324,0.013523,0.002678,0.000431,0.000235
28233000,0.0324,0.013523,0.002678,0.000431,0.000353
28234000,0.0324,0.013523,0.002678,0.000431,0.000470
28235000,0.0324,0.013523,0.002678,0.000431,0.000118
28236000,0.0324,0.013523,0.002678,0.000431,0.000353
28237000,0.0324,0.013523,0.002678,0.000431,0.000470
28238000,0.0324,0.013523,0.002678,0.000431,0.000353
28239000,0.0324,0.013523,0.002678,0.000431,0.000235
28240000,0.0324,0.013523,0.002678,0.000431,0.000353
28241000,0.0324,0.013523,0.002678,0.000431,0.000470
28242000,0.0324,0.013523,0.002678,0.000431,0.000118
28243000,0.0324,0.013523,0.002678,0.000431,0.000353
28244000,0.0324,0.013523,0.002678,0.000431,0.000470
28245000,0.0324,0.013523,0.002678,0.000431,0.000353
28246000,0.0324,0.013523,0.002678,0.000431,0.000235
28247000,0.0324,0.013523,0.002678,0.000431,0.000353
28248000,0.0324,0.013523,0.002678,0.000431,0.000353
28249000,0.0324,0.013523,0.002678,0.000431,0.000235
28250000,0.0324,0.013523,0.002678,0.000431,0.000353
28251000,0.0324,0.013523,0.002678,0.000431,0.000470
28252000,0.0324,0.013523,0.002678,0.000431,0.000353
28253000,0.0324,0.013523,0.002678,0.000431,0.000235
28254000,0.0324,0.013523,0.002678,0.000431,0.000353
28255000,0.0324,0.013523,0.002678,0.000431,0.000353
28256000,0.0324,0.013523,0.002678,0.000431,0.000235
28257000,0.0324,0.013523,0.002678,0.000431,0.000353
28258000,0.0324,0.013523,0.002678,0.000431,0.000470
28259000,0.0324,0.013523,0.002678,0.000431,0.000353
28260000,0.0324,0.013523,0.002678,0.000431,0.000235
28261000,0.0324,0.013523,0.002678,0.000431,0.000353
28262000,0.0324,0.013523,0.002678,0.000431,0.000353
28263000,0.0324,0.013523,0.002678,0.000431,0.000235
28264000,0.0324,0.013523,0.002678,0.000431,0.000353
28265000,0.0324,0.013523,0.002678,0.000431,0.000470
28266000,0.0324,0.013523,0.002678,0.000431,0.000353
28267000,0.0324,0.013523,0.002678,0.000431,0.000235
28268000,0.0324,0.013523,0.002678,0.000431,0.000353
28269000,0.0324,0.013523,0.002678,0.000431,0.000353
28270000,0.0324,0.013523,0.002678,0.000431,0.000235
28271000,0.0324,0.013523,0.002678,0.000431,0.000353
28272000,0.0324,0.013523,0.002678,0.000431,0.000470
28273000,0.0324,0.013523,0.002678,0.000431,0.000353
28274000,0.0324,0.013523,0.002678,0.000431,0.000235
28275000,0.0324,0.013523,0.002678,0.000431,0.000353
28276000,0.0324,0.013523,0.002678,0.000431,0.000353
28277000,0.0324,0.013523,0.002678,0.000431,0.000235
28278000,0.0324,0.013523,0.002678,0.000431,0.000353
28279000,0.0324,0.013523,0.002678,0.000431,0.000470
28280000,0.0324,0.013523,0.002678,0.000431,0.000353
28281000,0.0324,0.013523,0.002678,0.000431,0.000235
28282000,0.0324,0.013523,0.002678,0.000431,0.000353
28283000,0.0324,0.013523,0.002678,0.000431,0.000353
28284000,0.0324,0.013523,0.002678,0.000431,0.000235
28285000,0.0324,0.013523,0.002678,0.000431,0.000353
28286000,0.0324,0.013523,0.002678,0.000431,0.000470
28287000,0.0324,0.013523,0.002678,0.000431,0.000353
28288000,0.0324,0.013523,0.002678,0.000431,0.000235
28289000,0.0324,0.013523,0.002678,0.000431,0.000353
28290000,0.0324,0.013523,0.002678,0.000431,0.000353
28291000,0.0324,0.013523,0.002678,0.000431,0.000235
28292000,0.0324,0.013523,0.002678,0.000431,0.000353
28293000,0.0324,0.013523,0.002678,0.000431,0.000470
28294000,0.0324,0.013523,0.002678,0.000431,0.000353
28295000,0.0324,0.013523,0.002678,0.000431,0.000235
28296000,0.0324,0.013523,0.002678,0.000431,0.000353
28297000,0.0324,0.013523,0.002678,0.000431,0.000353
28298000,0.0324,0.013523,0.002678,0.000431,0.000235
28299000,0.0324,0.013523,0.002678,0.000431,0.000353
28300000,0.0324,0.013523,0.002678,0.000431,0.000470
28301000,0.0324,0.013523,0.002678,0.000431,0.000353
28302000,0.0324,0.013523,0.002678,0.000431,0.000118
28303000,0.0324,0.013523,0.002678,0.000431,0.000470
28304000,0.0324,0.013523,0.002678,0.000431,0.000353
28305000,0.0324,0.013523,0.002678,0.000431,0.000235
28306000,0.0324,0.013523,0.002678,0.000431,0.000353
28307000,0.0324,0.013523,0.002678,0.000431,0.000470
28308000,0.0324,0.013523,0.002678,0.000431,0.000353
28309000,0.0324,0.013523,0.002678,0.000431,0.000118
28310000,0.0324,0.013523,0.002678,0.000431,0.000470
28311000,0.0324,0.013523,0.002678,0.000431,0.000353
28312000,0.0324,0.013523,0.002678,0.000431,0.000235
28313000,0.0324,0.013523,0.002678,0.000431,0.000353
28314000,0.0324,0.013523,0.002678,0.000431,0.000470
28315000,0.0324,0.013523,0.002678,0.000431,0.000353
28316000,0.0324,0.013523,0.002678,0.000431,0.000118
28317000,0.0324,0.013523,0.002678,0.000431,0.000470
28318000,0.0324,0.013523,0.002678,0.000431,0.000353
28319000,0.0324,0.013523,0.002678,0.000431,0.000235
28320000,0.0324,0.013523,0.002678,0.000431,0.000353
28321000,0.0324,0.013523,0.002678,0.000431,0.000470
28322000,0.0324,0.013523,0.002678,0.000431,0.000353
28323000,0.0324,0.013523,0.002678,0.000431,0.000118
28324000,0.0324,0.013523,0.002678,0.000431,0.000470
28325000,0.0324,0.013523,0.002678,0.000431,0.000353
28326000,0.0324,0.013523,0.002678,0.000431,0.000235
28327000,0.0324,0.013523,0.002678,0.000431,0.000353
28328000,0.0324,0.013523,0.002678,0.000431,0.000470
28329000,0.0324,0.013523,0.002678,0.000431,0.000235
28330000,0.0324,0.013523,0.002678,0.000431,0.000235
28331000,0.0324,0.013523,0.002678,0.000431,0.000470
28332000,0.0324,0.013523,0.002678,0.000431,0.000353
28333000,0.0324,0.013523,0.002678,0.000431,0.000235
28334000,0.0324,0.013523,0.002678,0.000431,0.000353
28335000,0.0324,0.013523,0.002678,0.000431,0.000470
28336000,0.0324,0.013523,0.002678,0.000431,0.000235
28337000,0.0324,0.013523,0.002678,0.000431,0.000235
28338000,0.0324,0.013523,0.002678,0.000431,0.000470
28339000,0.0324,0.013523,0.002678,0.000431,0.000353
28340000,0.0324,0.013523,0.002678,0.000431,0.000235
28341000,0.0324,0.013523,0.002678,0.000431,0.000353
28342000,0.0324,0.013523,0.002678,0.000431,0.000470
28343000,0.0324,0.013523,0.002678,0.000431,0.000235
28344000,0.0324,0.013523,0.002678,0.000431,0.000235
28345000,0.0324,0.013523,0.002678,0.000431,0.000470
28346000,0.0324,0.013523,0.002678,0.000431,0.000353
28347000,0.0324,0.013523,0.002678,0.000431,0.000235
28348000,0.0324,0.013523,0.002678,0.000431,0.000353
28349000,0.0324,0.013523,0.002678,0.000431,0.000470
28350000,0.0324,0.013523,0.002678,0.000431,0.000235
28351000,0.0324,0.013523,0.002678,0.000431,0.000235
28352000,0.0324,0.013523,0.002678,0.000431,0.000470
28353000,0.0324,0.013523,0.002678,0.000431,0.000353
28354000,0.0324,0.013523,0.002678,0.000431,0.000235
28355000,0.0324,0.013523,0.002678,0.000431,0.000353
28356000,0.0324,0.013523,0.002678,0.000431,0.000470
28357000,0.0324,0.013523,0.002678,0.000431,0.000235
28358000,0.0324,0.013523,0.002678,0.000431,0.000235
28359000,0.0324,0.013523,0.002678,0.000431,0.000470
28360000,0.0324,0.013523,0.002678,0.000431,0.000353
28361000,0.0324,0.013523,0.002678,0.000431,0.000235
28362000,0.0324,0.013523,0.002678,0.000431,0.000353
28363000,0.0324,0.013523,0.002678,0.000431,0.000470
28364000,0.0324,0.013523,0.002678,0.000431,0.000118
28365000,0.0324,0.013523,0.002678,0.000431,0.000353
28366000,0.0324,0.013523,0.002678,0.000431,0.000470
28367000,0.0324,0.013523,0.002678,0.000431,0.000353
28368000,0.0324,0.013523,0.002678,0.000431,0.000235
28369000,0.0324,0.013523,0.002678,0.000431,0.000353
28370000,0.0324,0.013523,0.002678,0.000431,0.000470
28371000,0.0324,0.013523,0.002678,0.000431,0.000118
28372000,0.0324,0.013523,0.002678,0.000431,0.000353
28373000,0.0324,0.013523,0.002678,0.000431,0.000470
28374000,0.0324,0.013523,0.002678,0.000431,0.000353
28375000,0.0324,0.013523,0.002678,0.000431,0.000235
28376000,0.0324,0.013523,0.002678,0.000431,0.000353
28377000,0.0324,0.013523,0.002678,0.000431,0.000470
28378000,0.0324,0.013523,0.002678,0.000431,0.000118
28379000,0.0324,0.013523,0.002678,0.000431,0.000353
28380000,0.0324,0.013523,0.002678,0.000431,0.000470
28381000,0.0324,0.013523,0.002678,0.000431,0.000353
28382000,0.0324,0.013523,0.002678,0.000431,0.000235
28383000,0.0324,0.013523,0.002678,0.000431,0.000353
28384000,0.0324,0.013523,0.002678,0.000431,0.000470
28385000,0.0324,0.013523,0.002678,0.000431,0.000118
28386000,0.0324,0.013523,0.002678,0.000431,0.000353
28387000,0.0324,0.013523,0.002678,0.000431,0.000470
28388000,0.0324,0.013523,0.002678,0.000431,0.000353
28389000,0.0324,0.013523,0.002678,0.000431,0.000235
28390000,0.0324,0.013523,0.002678,0.000431,0.000353
28391000,0.0324,0.013523,0.002678,0.000431,0.000353
28392000,0.0324,0.013523,0.002678,0.000431,0.000235
28393000,0.0324,0.013523,0.002678,0.000431,0.000353
28394000,0.0324,0.013523,0.002678,0.000431,0.000470
28395000,0.0324,0.013523,0.002678,0.000431,0.000353
28396000,0.0324,0.013523,0.002678,0.000431,0.000235
28397000,0.0324,0.013523,0.002678,0.000431,0.000353
28398000,0.0324,0.013523,0.002678,0.000431,0.000353
28399000,0.0324,0.013523,0.002678,0.000431,0.000235
28400000,0.0324,0.013523,0.002678,0.000431,0.000353
28401000,0.0324,0.013523,0.002678,0.000431,0.000470
28402000,0.0324,0.013523,0.002678,0.000431,0.000353
28403000,0.0324,0.013523,0.002678,0.000431,0.000235
28404000,0.0324,0.013523,0.002678,0.000431,0.000353
28405000,0.0324,0.013523,0.002678,0.000431,0.000353
28406000,0.0324,0.013523,0.002678,0.000431,0.000235
28407000,0.0324,0.013523,0.002678,0.000431,0.000353
28408000,0.0324,0.013523,0.002678,0.000431,0.000470
28409000,0.0324,0.013523,0.002678,0.000431,0.000353
28410000,0.0324,0.013523,0.002678,0.000431,0.000235
28411000,0.0324,0.013523,0.002678,0.000431,0.000353
28412000,0.0324,0.013523,0.002678,0.000431,0.000353
28413000,0.0324,0.013523,0.002678,0.000431,0.000235
28414000,0.0324,0.013523,0.002678,0.000431,0.000353
28415000,0.0324,0.013523,0.002678,0.000431,0.000470
28416000,0.0324,0.013523,0.002678,0.000431,0.000353
28417000,0.0324,0.013523,0.002678,0.000431,0.000235
28418000,0.0324,0.013523,0.002678,0.000431,0.000353
28419000,0.0324,0.013523,0.002678,0.000431,0.000353
28420000,0.0324,0.013523,0.002678,0.000431,0.000235
28421000,0.0324,0.013523,0.002678,0.000431,0.000353
28422000,0.0324,0.013523,0.002678,0.000431,0.000470
28423000,0.0324,0.013523,0.002678,0.000431,0.000353
28424000,0.0324,0.013523,0.002678,0.000431,0.000235
28425000,0.0324,0.013523,0.002678,0.000431,0.000353
28426000,0.0324,0.013523,0.002678,0.000431,0.000353
28427000,0.0324,0.013523,0.002678,0.000431,0.000235
28428000,0.0324,0.013523,0.002678,0.000431,0.000353
28429000,0.0324,0.013523,0.002678,0.000431,0.000470
28430000,0.0324,0.013523,0.002678,0.000431,0.000353
28431000,0.0324,0.013523,0.002678,0.000431,0.000235
28432000,0.0324,0.013523,0.002678,0.000431,0.000353
28433000,0.0324,0.013523,0.002678,0.000431,0.000353
28434000,0.0324,0.013523,0.002678,0.000431,0.000235
28435000,0.0324,0.013523,0.002678,0.000431,0.000353
28436000,0.0324,0.013523,0.002678,0.000431,0.000470
28437000,0.0324,0.013523,0.002678,0.000431,0.000353
28438000,0.0324,0.013523,0.002678,0.000431,0.000235
28439000,0.0324,0.013523,0.002678,0.000431,0.000353
28440000,0.0324,0.013523,0.002678,0.000431,0.000353
28441000,0.0324,0.013523,0.002678,0.000431,0.000235
28442000,0.0324,0.013523,0.002678,0.000431,0.000353
28443000,0.0324,0.013523,0.002678,0.000431,0.000470
28444000,0.0324,0.013523,0.002678,0.000431,0.000353
28445000,0.0324,0.013523,0.002678,0.000431,0.000118
28446000,0.0324,0.013523,0.002678,0.000431,0.000470
28447000,0.0324,0.013523,0.002678,0.000431,0.000353
28448000,0.0324,0.013523,0.002678,0.000431,0.000235
28449000,0.0324,0.013523,0.002678,0.000431,0.000353
28450000,0.0324,0.013523,0.002678,0.000431,0.000470
28451000,0.0324,0.013523,0.002678,0.000431,0.000353
28452000,0.0324,0.013523,0.002678,0.000431,0.000118
28453000,0.0324,0.013523,0.002678,0.000431,0.000470
28454000,0.0324,0.013523,0.002678,0.000431,0.000353
28455000,0.0324,0.013523,0.002678,0.000431,0.000235
28456000,0.0324,0.013523,0.002678,0.000431,0.000353
28457000,0.0324,0.013523,0.002678,0.000431,0.000470
28458000,0.0324,0.013523,0.002678,0.000431,0.000353
28459000,0.0324,0.013523,0.002678,0.000431,0.000118
28460000,0.0324,0.013523,0.002678,0.000431,0.000470
28461000,0.0324,0.013523,0.002678,0.000431,0.000353
28462000,0.0324,0.013523,0.002678,0.000431,0.000235
28463000,0.0324,0.013523,0.002678,0.000431,0.000353
28464000,0.0324,0.013523,0.002678,0.000431,0.000470
28465000,0.0324,0.013523,0.002678,0.000431,0.000235
28466000,0.0324,0.013523,0.002678,0.000431,0.000235
28467000,0.0324,0.013523,0.002678,0.000431,0.000470
28468000,0.0324,0.013523,0.002678,0.000431,0.000353
28469000,0.0324,0.013523,0.002678,0.000431,0.000235
28470000,0.0324,0.013523,0.002678,0.000431,0.000353
28471000,0.0324,0.013523,0.002678,0.000431,0.000470
28472000,0.0324,0.013523,0.002678,0.000431,0.000235
28473000,0.0324,0.013523,0.002678,0.000431,0.000235
28474000,0.0324,0.013523,0.002678,0.000431,0.000470
28475000,0.0324,0.013523,0.002678,0.000431,0.000353
28476000,0.0324,0.013523,0.002678,0.000431,0.000235
28477000,0.0324,0.013523,0.002678,0.000431,0.000353
28478000,0.0324,0.013523,0.002678,0.000431,0.000470
28479000,0.0324,0.013523,0.002678,0.000431,0.000235
28480000,0.0324,0.013523,0.002678,0.000431,0.000235
28481000,0.0324,0.013523,0.002678,0.000431,0.000470
28482000,0.0324,0.013523,0.002678,0.000431,0.000353
28483000,0.0324,0.013523,0.002678,0.000431,0.000235
28484000,0.0324,0.013523,0.002678,0.000431,0.000353
28485000,0.0324,0.013523,0.002678,0.000431,0.000470
28486000,0.0324,0.013523,0.002678,0.000431,0.000235
28487000,0.0324,0.013523,0.002678,0.000431,0.000235
28488000,0.0324,0.013523,0.002678,0.000431,0.000470
28489000,0.0324,0.013523,0.002678,0.000431,0.000353
28490000,0.0324,0.013523,0.002678,0.000431,0.000235
28491000,0.0324,0.013523,0.002678,0.000431,0.000353
28492000,0.0324,0.013523,0.002678,0.000431,0.000470
28493000,0.0324,0.013523,0.002678,0.000431,0.000235
28494000,0.0324,0.013523,0.002678,0.000431,0.000235
28495000,0.0324,0.013523,0.002678,0.000431,0.000470
28496000,0.0324,0.013523,0.002678,0.000431,0.000353
28497000,0.0324,0.013523,0.002678,0.000431,0.000235
28498000,0.0324,0.013523,0.002678,0.000431,0.000353
28499000,0.0324,0.013523,0.002678,0.000431,0.000470
28500000,0.0324,0.013523,0.002678,0.000431,0.000235
28501000,0.0324,0.013523,0.002678,0.000431,0.000235
28502000,0.0324,0.013523,0.002678,0.000431,0.000470
28503000,0.0324,0.013523,0.002678,0.000431,0.000353
28504000,0.0324,0.013523,0.002678,0.000431,0.000235
28505000,0.0324,0.013523,0.002678,0.000431,0.000353
28506000,0.0324,0.013523,0.002678,0.000431,0.000470
28507000,0.0324,0.013523,0.002678,0.000431,0.000118
28508000,0.0324,0.013523,0.002678,0.000431,0.000353
28509000,0.0324,0.013523,0.002678,0.000431,0.000470
28510000,0.0324,0.013523,0.002678,0.000431,0.000353
28511000,0.0324,0.013523,0.002678,0.000431,0.000235
28512000,0.0324,0.013523,0.002678,0.000431,0.000353
28513000,0.0324,0.013523,0.002678,0.000431,0.000470
28514000,0.0324,0.013523,0.002678,0.000431,0.000118
28515000,0.0324,0.013523,0.002678,0.000431,0.000353
28516000,0.0324,0.013523,0.002678,0.000431,0.000470
28517000,0.0324,0.013523,0.002678,0.000431,0.000353
28518000,0.0324,0.013523,0.002678,0.000431,0.000235
28519000,0.0324,0.013523,0.002678,0.000431,0.000353
28520000,0.0324,0.013523,0.002678,0.000431,0.000470
28521000,0.0324,0.013523,0.002678,0.000431,0.000118
28522000,0.0324,0.013523,0.002678,0.000431,0.000353
28523000,0.0324,0.013523,0.002678,0.000431,0.000470
28524000,0.0324,0.013523,0.002678,0.000431,0.000353
28525000,0.0324,0.013523,0.002678,0.000431,0.000235
28526000,0.0324,0.013523,0.002678,0.000431,0.000353
28527000,0.0324,0.013523,0.002678,0.000431,0.000470
28528000,0.0324,0.013523,0.002678,0.000431,0.000118
28529000,0.0324,0.013523,0.002678,0.000431,0.000353
28530000,0.0324,0.013523,0.002678,0.000431,0.000470
28531000,0.0324,0.013523,0.002678,0.000431,0.000353
28532000,0.0324,0.013523,0.002678,0.000431,0.000235
28533000,0.0324,0.013523,0.002678,0.000431,0.000353
28534000,0.0324,0.013523,0.002678,0.000431,0.000353
28535000,0.0324,0.013523,0.002678,0.000431,0.000235
28536000,0.0324,0.013523,0.002678,0.000431,0.000353
28537000,0.0324,0.013523,0.002678,0.000431,0.000470
28538000,0.0324,0.013523,0.002678,0.000431,0.000353
28539000,0.0324,0.013523,0.002678,0.000431,0.000235
28540000,0.0324,0.013523,0.002678,0.000431,0.000353
28541000,0.0324,0.013523,0.002678,0.000431,0.000353
28542000,0.0324,0.013523,0.002678,0.000431,0.000235
28543000,0.0324,0.013523,0.002678,0.000431,0.000353
28544000,0.0324,0.013523,0.002678,0.000431,0.000470
28545000,0.0324,0.013523,0.002678,0.000431,0.000353
28546000,0.0324,0.013523,0.002678,0.000431,0.000235
28547000,0.0324,0.013523,0.002678,0.000431,0.000353
28548000,0.0324,0.013523,0.002678,0.000431,0.000353
28549000,0.0324,0.013523,0.002678,0.000431,0.000235
28550000,0.0324,0.013523,0.002678,0.000431,0.000353
28551000,0.0324,0.013523,0.002678,0.000431,0.000470
28552000,0.0324,0.013523,0.002678,0.000431,0.000353
28553000,0.0324,0.013523,0.002678,0.000431,0.000235
28554000,0.0324,0.013523,0.002678,0.000431,0.000353
28555000,0.0324,0.013523,0.002678,0.000431,0.000353
28556000,0.0324,0.013523,0.002678,0.000431,0.000235
28557000,0.0324,0.013523,0.002678,0.000431,0.000353
28558000,0.0324,0.013523,0.002678,0.000431,0.000470
28559000,0.0324,0.013523,0.002678,0.000431,0.000353
28560000,0.0324,0.013523,0.002678,0.000431,0.000235
28561000,0.0324,0.013523,0.002678,0.000431,0.000353
28562000,0.0324,0.013523,0.002678,0.000431,0.000353
28563000,0.0324,0.013523,0.002678,0.000431,0.000235
28564000,0.0324,0.013523,0.002678,0.000431,0.000353
28565000,0.0324,0.013523,0.002678,0.000431,0.000470
28566000,0.0324,0.013523,0.002678,0.000431,0.000353
28567000,0.0324,0.013523,0.002678,0.000431,0.000235
28568000,0.0324,0.013523,0.002678,0.000431,0.000353
28569000,0.0324,0.013523,0.002678,0.000431,0.000353
28570000,0.0324,0.013523,0.002678,0.000431,0.000235
28571000,0.0324,0.013523,0.002678,0.000431,0.000353
28572000,0.0324,0.013523,0.002678,0.000431,0.000470
28573000,0.0324,0.013523,0.002678,0.000431,0.000353
28574000,0.0324,0.013523,0.002678,0.000431,0.000235
28575000,0.0324,0.013523,0.002678,0.000431,0.000353
28576000,0.0324,0.013523,0.002678,0.000431,0.000353
28577000,0.0324,0.013523,0.002678,0.000431,0.000235
28578000,0.0324,0.013523,0.002678,0.000431,0.000353
28579000,0.0324,0.013523,0.002678,0.000431,0.000470
28580000,0.0324,0.013523,0.002678,0.000431,0.000353
28581000,0.0324,0.013523,0.002678,0.000431,0.000118
28582000,0.0324,0.013523,0.002678,0.000431,0.000470
28583000,0.0324,0.013523,0.002678,0.000431,0.000353
28584000,0.0324,0.013523,0.002678,0.000431,0.000235
28585000,0.0324,0.013523,0.002678,0.000431,0.000353
28586000,0.0324,0.013523,0.002678,0.000431,0.000470
28587000,0.0324,0.013523,0.002678,0.000431,0.000353
28588000,0.0324,0.013523,0.002678,0.000431,0.000118
28589000,0.0324,0.013523,0.002678,0.000431,0.000470
28590000,0.0324,0.013523,0.002678,0.000431,0.000353
28591000,0.0324,0.013523,0.002678,0.000431,0.000235
28592000,0.0324,0.013523,0.002678,0.000431,0.000353
28593000,0.0324,0.013523,0.002678,0.000431,0.000470
28594000,0.0324,0.013523,0.002678,0.000431,0.000353
28595000,0.0324,0.013523,0.002678,0.000431,0.000118
28596000,0.0324,0.013523,0.002678,0.000431,0.000470
28597000,0.0324,0.013523,0.002678,0.000431,0.000353
28598000,0.0324,0.013523,0.002678,0.000431,0.000235
28599000,0.0324,0.013523,0.002678,0.000431,0.000353
28600000,0.0324,0.013523,0.002678,0.000431,0.000470
28601000,0.0324,0.013523,0.002678,0.000431,0.000353
28602000,0.0324,0.013523,0.002678,0.000431,0.000118
28603000,0.0324,0.013523,0.002678,0.000431,0.000470
28604000,0.0324,0.013523,0.002678,0.000431,0.000353
28605000,0.0324,0.013523,0.002678,0.000431,0.000235
28606000,0.0324,0.013523,0.002678,0.000431,0.000353
28607000,0.0324,0.013523,0.002678,0.000431,0.000470
28608000,0.0324,0.013523,0.002678,0.000431,0.000235
28609000,0.0324,0.013523,0.002678,0.000431,0.000235
28610000,0.0324,0.013523,0.002678,0.000431,0.000470
28611000,0.0324,0.013523,0.002678,0.000431,0.000353
28612000,0.0324,0.013523,0.002678,0.000431,0.000235
28613000,0.0324,0.013523,0.002678,0.000431,0.000353
28614000,0.0324,0.013523,0.002678,0.000431,0.000470
28615000,0.0324,0.013523,0.002678,0.000431,0.000235
28616000,0.0324,0.013523,0.002678,0.000431,0.000235
28617000,0.0324,0.013523,0.002678,0.000431,0.000470
28618000,0.0324,0.013523,0.002678,0.000431,0.000353
28619000,0.0324,0.013523,0.002678,0.000431,0.000235
28620000,0.0324,0.013523,0.002678,0.000431,0.000353
28621000,0.0324,0.013523,0.002678,0.000431,0.000470
28622000,0.0324,0.013523,0.002678,0.000431,0.000235
28623000,0.0324,0.013523,0.002678,0.000431,0.000235
28624000,0.0324,0.013523,0.002678,0.000431,0.000470
28625000,0.0324,0.013523,0.002678,0.000431,0.000353
28626000,0.0324,0.013523,0.002678,0.000431,0.000235
28627000,0.0324,0.013523,0.002678,0.000431,0.000353
28628000,0.0324,0.013523,0.002678,0.000431,0.000470
28629000,0.0324,0.013523,0.002678,0.000431,0.000235
28630000,0.0324,0.013523,0.002678,0.000431,0.000235
28631000,0.0324,0.013523,0.002678,0.000431,0.000470
28632000,0.0324,0.013523,0.002678,0.000431,0.000353
28633000,0.0324,0.013523,0.002678,0.000431,0.000235
28634000,0.0324,0.013523,0.002678,0.000431,0.000353
28635000,0.0324,0.013523,0.002678,0.000431,0.000470
28636000,0.0324,0.013523,0.002678,0.000431,0.000235
28637000,0.0324,0.013523,0.002678,0.000431,0.000235
28638000,0.0324,0.013523,0.002678,0.000431,0.000470
28639000,0.0324,0.013523,0.002678,0.000431,0.000353
28640000,0.0324,0.013523,0.002678,0.000431,0.000235
28641000,0.0324,0.013523,0.002678,0.000431,0.000353
28642000,0.0324,0.013523,0.002678,0.000431,0.000470
28643000,0.0324,0.013523,0.002678,0.000431,0.000235
28644000,0.0324,0.013523,0.002678,0.000431,0.000235
28645000,0.0324,0.013523,0.002678,0.000431,0.000470
28646000,0.0324,0.013523,0.002678,0.000431,0.000353
28647000,0.0324,0.013523,0.002678,0.000431,0.000235
28648000,0.0324,0.013523,0.002678,0.000431,0.000353
28649000,0.0324,0.013523,0.002678,0.000431,0.000470
28650000,0.0324,0.013523,0.002678,0.000431,0.000118
28651000,0.0324,0.013523,0.002678,0.000431,0.000353
28652000,0.0324,0.013523,0.002678,0.000431,0.000470
28653000,0.0324,0.013523,0.002678,0.000431,0.000353
28654000,0.0324,0.013523,0.002678,0.000431,0.000235
28655000,0.0324,0.013523,0.002678,0.000431,0.000353
28656000,0.0324,0.013523,0.002678,0.000431,0.000470
28657000,0.0324,0.013523,0.002678,0.000431,0.000118
28658000,0.0324,0.013523,0.002678,0.000431,0.000353
28659000,0.0324,0.013523,0.002678,0.000431,0.000470
28660000,0.0324,0.013523,0.002678,0.000431,0.000353
28661000,0.0324,0.013523,0.002678,0.000431,0.000235
28662000,0.0324,0.013523,0.002678,0.000431,0.000353
28663000,0.0324,0.013523,0.002678,0.000431,0.000470
28664000,0.0324,0.013523,0.002678,0.000431,0.000118
28665000,0.0324,0.013523,0.002678,0.000431,0.000353
28666000,0.0324,0.013523,0.002678,0.000431,0.000470
28667000,0.0324,0.013523,0.002678,0.000431,0.000353
28668000,0.0324,0.013523,0.002678,0.000431,0.000235
28669000,0.0324,0.013523,0.002678,0.000431,0.000353
28670000,0.0324,0.013523,0.002678,0.000431,0.000353
28671000,0.0324,0.013523,0.002678,0.000431,0.000235
28672000,0.0324,0.013523,0.002678,0.000431,0.000353
28673000,0.0324,0.013523,0.002678,0.000431,0.000470
28674000,0.0324,0.013523,0.002678,0.000431,0.000353
28675000,0.0324,0.013523,0.002678,0.000431,0.000235
28676000,0.0324,0.013523,0.002678,0.000431,0.000353
28677000,0.0324,0.013523,0.002678,0.000431,0.000353
28678000,0.0324,0.013523,0.002678,0.000431,0.000235
28679000,0.0324,0.013523,0.002678,0.000431,0.000353
28680000,0.0324,0.013523,0.002678,0.000431,0.000470
28681000,0.0324,0.013523,0.002678,0.000431,0.000353
28682000,0.0324,0.013523,0.002678,0.000431,0.000235
28683000,0.0324,0.013523,0.002678,0.000431,0.000353
28684000,0.0324,0.013523,0.002678,0.000431,0.000353
28685000,0.0324,0.013523,0.002678,0.000431,0.000235
28686000,0.0324,0.013523,0.002678,0.000431,0.000353
28687000,0.0324,0.013523,0.002678,0.000431,0.000470
28688000,0.0324,0.013523,0.002678,0.000431,0.000353
28689000,0.0324,0.013523,0.002678,0.000431,0.000235
28690000,0.0324,0.013523,0.002678,0.000431,0.000353
28691000,0.0324,0.013523,0.002678,0.000431,0.000353
28692000,0.0324,0.013523,0.002678,0.000431,0.000235
28693000,0.0324,0.013523,0.002678,0.000431,0.000353
28694000,0.0324,0.013523,0.002678,0.000431,0.000470
28695000,0.0324,0.013523,0.002678,0.000431,0.000353
28696000,0.0324,0.013523,0.002678,0.000431,0.000235
28697000,0.0324,0.013523,0.002678,0.000431,0.000353
28698000,0.0324,0.013523,0.002678,0.000431,0.000353
28699000,0.0324,0.013523,0.002678,0.000431,0.000235
28700000,0.0324,0.013523,0.002678,0.000431,0.000353
28701000,0.0324,0.013523,0.002678,0.000431,0.000470
28702000,0.0324,0.013523,0.002678,0.000431,0.000353
28703000,0.0324,0.013523,0.002678,0.000431,0.000235
28704000,0.0324,0.013523,0.002678,0.000431,0.000353
28705000,0.0324,0.013523,0.002678,0.000431,0.000353
28706000,0.0324,0.013523,0.002678,0.000431,0.000235
28707000,0.0324,0.013523,0.002678,0.000431,0.000353
28708000,0.0324,0.013523,0.002678,0.000431,0.000470
28709000,0.0324,0.013523,0.002678,0.000431,0.000353
28710000,0.0324,0.013523,0.002678,0.000431,0.000235
28711000,0.0324,0.013523,0.002678,0.000431,0.000353
28712000,0.0324,0.013523,0.002678,0.000431,0.000353
28713000,0.0324,0.013523,0.002678,0.000431,0.000235
28714000,0.0324,0.013523,0.002678,0.000431,0.000353
28715000,0.0324,0.013523,0.002678,0.000431,0.000470
28716000,0.0324,0.013523,0.002678,0.000431,0.000353
28717000,0.0324,0.013523,0.002678,0.000431,0.000235
28718000,0.0324,0.013523,0.002678,0.000431,0.000353
28719000,0.0324,0.013523,0.002678,0.000431,0.000353
28720000,0.0324,0.013523,0.002678,0.000431,0.000235
28721000,0.0324,0.013523,0.002678,0.000431,0.000353
28722000,0.0324,0.013523,0.002678,0.000431,0.000470
28723000,0.0324,0.013523,0.002678,0.000431,0.000353
28724000,0.0324,0.013523,0.002678,0.000431,0.000118
28725000,0.0324,0.013523,0.002678,0.000431,0.000470
28726000,0.0324,0.013523,0.002678,0.000431,0.000353
28727000,0.0324,0.013523,0.002678,0.000431,0.000235
28728000,0.0324,0.013523,0.002678,0.000431,0.000353
28729000,0.0324,0.013523,0.002678,0.000431,0.000470
28730000,0.0324,0.013523,0.002678,0.000431,0.000353
28731000,0.0324,0.013523,0.002678,0.000431,0.000118
28732000,0.0324,0.013523,0.002678,0.000431,0.000470
28733000,0.0324,0.013523,0.002678,0.000431,0.000353
28734000,0.0324,0.013523,0.002678,0.000431,0.000235
28735000,0.0324,0.013523,0.002678,0.000431,0.000353
28736000,0.0324,0.013523,0.002678,0.000431,0.000470
28737000,0.0324,0.013523,0.002678,0.000431,0.000353
28738000,0.0324,0.013523,0.002678,0.000431,0.000118
28739000,0.0324,0.013523,0.002678,0.000431,0.000470
28740000,0.0324,0.013523,0.002678,0.000431,0.000353
28741000,0.0324,0.013523,0.002678,0.000431,0.000235
28742000,0.0324,0.013523,0.002678,0.000431,0.000353
28743000,0.0324,0.013523,0.002678,0.000431,0.000470
28744000,0.0324,0.013523,0.002678,0.000431,0.000235
28745000,0.0324,0.013523,0.002678,0.000431,0.000235
28746000,0.0324,0.013523,0.002678,0.000431,0.000470
28747000,0.0324,0.013523,0.002678,0.000431,0.000353
28748000,0.0324,0.013523,0.002678,0.000431,0.000235
28749000,0.0324,0.013523,0.002678,0.000431,0.000353
28750000,0.0324,0.013523,0.002678,0.000431,0.000470
28751000,0.0324,0.013523,0.002678,0.000431,0.000235
28752000,0.0324,0.013523,0.002678,0.000431,0.000235
28753000,0.0324,0.013523,0.002678,0.000431,0.000470
28754000,0.0324,0.013523,0.002678,0.000431,0.000353
28755000,0.0324,0.013523,0.002678,0.000431,0.000235
28756000,0.0324,0.013523,0.002678,0.000431,0.000353
28757000,0.0324,0.013523,0.002678,0.000431,0.000470
28758000,0.0324,0.013523,0.002678,0.000431,0.000235
28759000,0.0324,0.013523,0.002678,0.000431,0.000235
28760000,0.0324,0.013523,0.002678,0.000431,0.000470
28761000,0.0324,0.013523,0.002678,0.000431,0.000353
28762000,0.0324,0.013523,0.002678,0.000431,0.000235
28763000,0.0324,0.013523,0.002678,0.000431,0.000353
28764000,0.0324,0.013523,0.002678,0.000431,0.000470
28765000,0.0324,0.013523,0.002678,0.000431,0.000235
28766000,0.0324,0.013523,0.002678,0.000431,0.000235
28767000,0.0324,0.013523,0.002678,0.000431,0.000470
28768000,0.0324,0.013523,0.002678,0.000431,0.000353
28769000,0.0324,0.013523,0.002678,0.000431,0.000235
28770000,0.0324,0.013523,0.002678,0.000431,0.000353
28771000,0.0324,0.013523,0.002678,0.000431,0.000470
28772000,0.0324,0.013523,0.002678,0.000431,0.000235
28773000,0.0324,0.013523,0.002678,0.000431,0.000235
28774000,0.0324,0.013523,0.002678,0.000431,0.000470
28775000,0.0324,0.013523,0.002678,0.000431,0.000353
28776000,0.0324,0.013523,0.002678,0.000431,0.000235
28777000,0.0324,0.013523,0.002678,0.000431,0.000353
28778000,0.0324,0.013523,0.002678,0.000431,0.000470
28779000,0.0324,0.013523,0.002678,0.000431,0.000235
28780000,0.0324,0.013523,0.002678,0.000431,0.000235
28781000,0.0324,0.013523,0.002678,0.000431,0.000470
28782000,0.0324,0.013523,0.002678,0.000431,0.000353
28783000,0.0324,0.013523,0.002678,0.000431,0.000235
28784000,0.0324,0.013523,0.002678,0.000431,0.000353
28785000,0.0324,0.013523,0.002678,0.000431,0.000470
28786000,0.0324,0.013523,0.002678,0.000431,0.000118
28787000,0.0324,0.013523,0.002678,0.000431,0.000353
28788000,0.0324,0.013523,0.002678,0.000431,0.000470
28789000,0.0324,0.013523,0.002678,0.000431,0.000353
28790000,0.0324,0.013523,0.002678,0.000431,0.000235
28791000,0.0324,0.013523,0.002678,0.000431,0.000353
28792000,0.0324,0.013523,0.002678,0.000431,0.000470
28793000,0.0324,0.013523,0.002678,0.000431,0.000118
28794000,0.0324,0.013523,0.002678,0.000431,0.000353
28795000,0.0324,0.013523,0.002678,0.000431,0.000470
28796000,0.0324,0.013523,0.002678,0.000431,0.000353
28797000,0.0324,0.013523,0.002678,0.000431,0.000235
28798000,0.0324,0.013523,0.002678,0.000431,0.000353
28799000,0.0324,0.013523,0.002678,0.000431,0.000470
28800000,0.0324,0.013523,0.002678,0.000431,0.000118
28801000,0.0324,0.013523,0.002678,0.000431,0.000353
28802000,0.0324,0.013523,0.002678,0.000431,0.000470
28803000,0.0324,0.013523,0.002678,0.000431,0.000353
28804000,0.0324,0.013523,0.002678,0.000431,0.000235
28805000,0.0324,0.013523,0.002678,0.000431,0.000353
28806000,0.0324,0.013523,0.002678,0.000431,0.000470
28807000,0.0324,0.013523,0.002678,0.000431,0.000118
28808000,0.0324,0.013523,0.002678,0.000431,0.000353
28809000,0.0324,0.013523,0.002678,0.000431,0.000470
28810000,0.0324,0.013523,0.002678,0.000431,0.000353
28811000,0.0324,0.013523,0.002678,0.000431,0.000235
28812000,0.0324,0.013523,0.002678,0.000431,0.000353
28813000,0.0324,0.013523,0.002678,0.000431,0.000353
28814000,0.0324,0.013523,0.002678,0.000431,0.000235
28815000,0.0324,0.013523,0.002678,0.000431,0.000353
28816000,0.0324,0.013523,0.002678,0.000431,0.000470
28817000,0.0324,0.013523,0.002678,0.000431,0.000353
28818000,0.0324,0.013523,0.002678,0.000431,0.000235
28819000,0.0324,0.013523,0.002678,0.000431,0.000353
28820000,0.0324,0.013523,0.002678,0.000431,0.000353
28821000,0.0324,0.013523,0.002678,0.000431,0.000235
28822000,0.0324,0.013523,0.002678,0.000431,0.000353
28823000,0.0324,0.013523,0.002678,0.000431,0.000470
28824000,0.0324,0.013523,0.002678,0.000431,0.000353
28825000,0.0324,0.013523,0.002678,0.000431,0.000235
28826000,0.0324,0.013523,0.002678,0.000431,0.000353
28827000,0.0324,0.013523,0.002678,0.000431,0.000353
28828000,0.0324,0.013523,0.002678,0.000431,0.000235
28829000,0.0324,0.013523,0.002678,0.000431,0.000353
28830000,0.0324,0.013523,0.002678,0.000431,0.000470
28831000,0.0324,0.013523,0.002678,0.000431,0.000353
28832000,0.0324,0.013523,0.002678,0.000431,0.000235
28833000,0.0324,0.013523,0.002678,0.000431,0.000353
28834000,0.0324,0.013523,0.002678,0.000431,0.000353
28835000,0.0324,0.013523,0.002678,0.000431,0.000235
28836000,0.0324,0.013523,0.002678,0.000431,0.000353
28837000,0.0324,0.013523,0.002678,0.000431,0.000470
28838000,0.0324,0.013523,0.002678,0.000431,0.000353
28839000,0.0324,0.013523,0.002678,0.000431,0.000235
28840000,0.0324,0.013523,0.002678,0.000431,0.000353
28841000,0.0324,0.013523,0.002678,0.000431,0.000353
28842000,0.0324,0.013523,0.002678,0.000431,0.000235
28843000,0.0324,0.013523,0.002678,0.000431,0.000353
28844000,0.0324,0.013523,0.002678,0.000431,0.000470
28845000,0.0324,0.013523,0.002678,0.000431,0.000353
28846000,0.0324,0.013523,0.002678,0.000431,0.000235
28847000,0.0324,0.013523,0.002678,0.000431,0.000353
28848000,0.0324,0.013523,0.002678,0.000431,0.000353
28849000,0.0324,0.013523,0.002678,0.000431,0.000235
28850000,0.0324,0.013523,0.002678,0.000431,0.000353
28851000,0.0324,0.013523,0.002678,0.000431,0.000470
28852000,0.0324,0.013523,0.002678,0.000431,0.000353
28853000,0.0324,0.013523,0.002678,0.000431,0.000235
28854000,0.0324,0.013523,0.002678,0.000431,0.000353
28855000,0.0324,0.013523,0.002678,0.000431,0.000353
28856000,0.0324,0.013523,0.002678,0.000431,0.000235
28857000,0.0324,0.013523,0.002678,0.000431,0.000353
28858000,0.0324,0.013523,0.002678,0.000431,0.000470
28859000,0.0324,0.013523,0.002678,0.000431,0.000353
28860000,0.0324,0.013523,0.002678,0.000431,0.000118
28861000,0.0324,0.013523,0.002678,0.000431,0.000470
28862000,0.0324,0.013523,0.002678,0.000431,0.000353
28863000,0.0324,0.013523,0.002678,0.000431,0.000235
28864000,0.0324,0.013523,0.002678,0.000431,0.000353
28865000,0.0324,0.013523,0.002678,0.000431,0.000470
28866000,0.0324,0.013523,0.002678,0.000431,0.000353
28867000,0.0324,0.013523,0.002678,0.000431,0.000118
28868000,0.0324,0.013523,0.002678,0.000431,0.000470
28869000,0.0324,0.013523,0.002678,0.000431,0.000353
28870000,0.0324,0.013523,0.002678,0.000431,0.000235
28871000,0.0324,0.013523,0.002678,0.000431,0.000353
28872000,0.0324,0.013523,0.002678,0.000431,0.000470
28873000,0.0324,0.013523,0.002678,0.000431,0.000353
28874000,0.0324,0.013523,0.002678,0.000431,0.000118
28875000,0.0324,0.013523,0.002678,0.000431,0.000470
28876000,0.0324,0.013523,0.002678,0.000431,0.000353
28877000,0.0324,0.013523,0.002678,0.000431,0.000235
28878000,0.0324,0.013523,0.002678,0.000431,0.000353
28879000,0.0324,0.013523,0.002678,0.000431,0.000470
28880000,0.0324,0.013523,0.002678,0.000431,0.000353
28881000,0.0324,0.013523,0.002678,0.000431,0.000118
28882000,0.0324,0.013523,0.002678,0.000431,0.000470
28883000,0.0324,0.013523,0.002678,0.000431,0.000353
28884000,0.0324,0.013523,0.002678,0.000431,0.000235
28885000,0.0324,0.013523,0.002678,0.000431,0.000353
28886000,0.0324,0.013523,0.002678,0.000431,0.000470
28887000,0.0324,0.013523,0.002678,0.000431,0.000235
28888000,0.0324,0.013523,0.002678,0.000431,0.000235
28889000,0.0324,0.013523,0.002678,0.000431,0.000470
28890000,0.0324,0.013523,0.002678,0.000431,0.000353
28891000,0.0324,0.013523,0.002678,0.000431,0.000235
28892000,0.0324,0.013523,0.002678,0.000431,0.000353
28893000,0.0324,0.013523,0.002678,0.000431,0.000470
28894000,0.0324,0.013523,0.002678,0.000431,0.000235
28895000,0.0324,0.013523,0.002678,0.000431,0.000235
28896000,0.0324,0.013523,0.002678,0.000431,0.000470
28897000,0.0324,0.013523,0.002678,0.000431,0.000353
28898000,0.0324,0.013523,0.002678,0.000431,0.000235
28899000,0.0324,0.013523,0.002678,0.000431,0.000353
28900000,0.0324,0.013523,0.002678,0.000431,0.000470
28901000,0.0324,0.013523,0.002678,0.000431,0.000235
28902000,0.0324,0.013523,0.002678,0.000431,0.000235
28903000,0.0324,0.013523,0.002678,0.000431,0.000470
28904000,0.0324,0.013523,0.002678,0.000431,0.000353
28905000,0.0324,0.013523,0.002678,0.000431,0.000235
28906000,0.0324,0.013523,0.002678,0.000431,0.000353
28907000,0.0324,0.013523,0.002678,0.000431,0.000470
28908000,0.0324,0.013523,0.002678,0.000431,0.000235
28909000,0.0324,0.013523,0.002678,0.000431,0.000235
28910000,0.0324,0.013523,0.002678,0.000431,0.000470
28911000,0.0324,0.013523,0.002678,0.000431,0.000353
28912000,0.0324,0.013523,0.002678,0.000431,0.000235
28913000,0.0324,0.013523,0.002678,0.000431,0.000353
28914000,0.0324,0.013523,0.002678,0.000431,0.000470
28915000,0.0324,0.013523,0.002678,0.000431,0.000235
28916000,0.0324,0.013523,0.002678,0.000431,0.000235
28917000,0.0324,0.013523,0.002678,0.000431,0.000470
28918000,0.0324,0.013523,0.002678,0.000431,0.000353
28919000,0.0324,0.013523,0.002678,0.000431,0.000235
28920000,0.0324,0.013523,0.002678,0.000431,0.000353
28921000,0.0324,0.013523,0.002678,0.000431,0.000470
28922000,0.0324,0.013523,0.002678,0.000431,0.000235
28923000,0.0324,0.013523,0.002678,0.000431,0.000235
28924000,0.0324,0.013523,0.002678,0.000431,0.000470
28925000,0.0324,0.013523,0.002678,0.000431,0.000353
28926000,0.0324,0.013523,0.002678,0.000431,0.000235
28927000,0.0324,0.013523,0.002678,0.000431,0.000353
28928000,0.0324,0.013523,0.002678,0.000431,0.000470
28929000,0.0324,0.013523,0.002678,0.000431,0.000118
28930000,0.0324,0.013523,0.002678,0.000431,0.000353
28931000,0.0324,0.013523,0.002678,0.000431,0.000470
28932000,0.0324,0.013523,0.002678,0.000431,0.000353
28933000,0.0324,0.013523,0.002678,0.000431,0.000235
28934000,0.0324,0.013523,0.002678,0.000431,0.000353
28935000,0.0324,0.013523,0.002678,0.000431,0.000470
28936000,0.0324,0.013523,0.002678,0.000431,0.000118
28937000,0.0324,0.013523,0.002678,0.000431,0.000353
28938000,0.0324,0.013523,0.002678,0.000431,0.000470
28939000,0.0324,0.013523,0.002678,0.000431,0.000353
28940000,0.0324,0.013523,0.002678,0.000431,0.000235
28941000,0.0324,0.013523,0.002678,0.000431,0.000353
28942000,0.0324,0.013523,0.002678,0.000431,0.000470
28943000,0.0324,0.013523,0.002678,0.000431,0.000118
28944000,0.0324,0.013523,0.002678,0.000431,0.000353
28945000,0.0324,0.013523,0.002678,0.000431,0.000470
28946000,0.0324,0.013523,0.002678,0.000431,0.000353
28947000,0.0324,0.013523,0.002678,0.000431,0.000235
28948000,0.0324,0.013523,0.002678,0.000431,0.000353
28949000,0.0324,0.013523,0.002678,0.000431,0.000353
28950000,0.0324,0.013523,0.002678,0.000431,0.000235
28951000,0.0324,0.013523,0.002678,0.000431,0.000353
28952000,0.0324,0.013523,0.002678,0.000431,0.000470
28953000,0.0324,0.013523,0.002678,0.000431,0.000353
28954000,0.0324,0.013523,0.002678,0.000431,0.000235
28955000,0.0324,0.013523,0.002678,0.000431,0.000353
28956000,0.0324,0.013523,0.002678,0.000431,0.000353
28957000,0.0324,0.013523,0.002678,0.000431,0.000235
28958000,0.0324,0.013523,0.002678,0.000431,0.000353
28959000,0.0324,0.013523,0.002678,0.000431,0.000470
28960000,0.0324,0.013523,0.002678,0.000431,0.000353
28961000,0.0324,0.013523,0.002678,0.000431,0.000235
28962000,0.0324,0.013523,0.002678,0.000431,0.000353
28963000,0.0324,0.013523,0.002678,0.000431,0.000353
28964000,0.0324,0.013523,0.002678,0.000431,0.000235
28965000,0.0324,0.013523,0.002678,0.000431,0.000353
28966000,0.0324,0.013523,0.002678,0.000431,0.000470
28967000,0.0324,0.013523,0.002678,0.000431,0.000353
28968000,0.0324,0.013523,0.002678,0.000431,0.000235
28969000,0.0324,0.013523,0.002678,0.000431,0.000353
28970000,0.0324,0.013523,0.002678,0.000431,0.000353
28971000,0.0324,0.013523,0.002678,0.000431,0.000235
28972000,0.0324,0.013523,0.002678,0.000431,0.000353
28973000,0.0324,0.013523,0.002678,0.000431,0.000470
28974000,0.0324,0.013523,0.002678,0.000431,0.000353
28975000,0.0324,0.013523,0.002678,0.000431,0.000235
28976000,0.0324,0.013523,0.002678,0.000431,0.000353
28977000,0.0324,0.013523,0.002678,0.000431,0.000353
28978000,0.0324,0.013523,0.002678,0.000431,0.000235
28979000,0.0324,0.013523,0.002678,0.000431,0.000353
28980000,0.0324,0.013523,0.002678,0.000431,0.000470
28981000,0.0324,0.013523,0.002678,0.000431,0.000353
28982000,0.0324,0.013523,0.002678,0.000431,0.000235
28983000,0.0324,0.013523,0.002678,0.000431,0.000353
28984000,0.0324,0.013523,0.002678,0.000431,0.000353
28985000,0.0324,0.013523,0.002678,0.000431,0.000235
28986000,0.0324,0.013523,0.002678,0.000431,0.000353
28987000,0.0324,0.013523,0.002678,0.000431,0.000470
28988000,0.0324,0.013523,0.002678,0.000431,0.000353
28989000,0.0324,0.013523,0.002678,0.000431,0.000235
28990000,0.0324,0.013523,0.002678,0.000431,0.000353
28991000,0.0324,0.013523,0.002678,0.000431,0.000353
28992000,0.0324,0.013523,0.002678,0.000431,0.000235
28993000,0.0324,0.013523,0.002678,0.000431,0.000353
28994000,0.0324,0.013523,0.002678,0.000431,0.000470
28995000,0.0324,0.013523,0.002678,0.000431,0.000353
28996000,0.0324,0.013523,0.002678,0.000431,0.000235
28997000,0.0324,0.013523,0.002678,0.000431,0.000353
28998000,0.0324,0.013523,0.002678,0.000431,0.000353
28999000,0.0324,0.013523,0.002678,0.000431,0.000235
