Cycle,Area(mm^2),PeakDynamic(W),SubthresholdLeakage(W),GateLeakage(W),RunTimeDynamic(W)
1000,0.0324,0.013523,0.002678,0.000431,0.000000
2000,0.0324,0.013523,0.002678,0.000431,0.000000
3000,0.0324,0.013523,0.002678,0.000431,0.000000
4000,0.0324,0.013523,0.002678,0.000431,0.000000
5000,0.0324,0.013523,0.002678,0.000431,0.000000
6000,0.0324,0.013523,0.002678,0.000431,1.746704
7000,0.0324,0.013523,0.002678,0.000431,1.298216
8000,0.0324,0.013523,0.002678,0.000431,1.901253
9000,0.0324,0.013523,0.002678,0.000431,1.020497
10000,0.0324,0.013523,0.002678,0.000431,0.918248
11000,0.0324,0.013523,0.002678,0.000431,1.418683
12000,0.0324,0.013523,0.002678,0.000431,1.206662
13000,0.0324,0.013523,0.002678,0.000431,1.266601
14000,0.0324,0.013523,0.002678,0.000431,1.284818
15000,0.0324,0.013523,0.002678,0.000431,1.317961
16000,0.0324,0.013523,0.002678,0.000431,1.274241
17000,0.0324,0.013523,0.002678,0.000431,1.323132
18000,0.0324,0.013523,0.002678,0.000431,1.424207
19000,0.0324,0.013523,0.002678,0.000431,1.491433
20000,0.0324,0.013523,0.002678,0.000431,1.493548
21000,0.0324,0.013523,0.002678,0.000431,1.563360
22000,0.0324,0.013523,0.002678,0.000431,1.650801
23000,0.0324,0.013523,0.002678,0.000431,1.606845
24000,0.0324,0.013523,0.002678,0.000431,1.440778
25000,0.0324,0.013523,0.002678,0.000431,1.611781
26000,0.0324,0.013523,0.002678,0.000431,1.643044
27000,0.0324,0.013523,0.002678,0.000431,1.460053
28000,0.0324,0.013523,0.002678,0.000431,1.553958
29000,0.0324,0.013523,0.002678,0.000431,1.598031
30000,0.0324,0.013523,0.002678,0.000431,1.460523
31000,0.0324,0.013523,0.002678,0.000431,1.480267
32000,0.0324,0.013523,0.002678,0.000431,1.612957
33000,0.0324,0.013523,0.002678,0.000431,1.565475
34000,0.0324,0.013523,0.002678,0.000431,1.546906
35000,0.0324,0.013523,0.002678,0.000431,1.655737
36000,0.0324,0.013523,0.002678,0.000431,1.579344
37000,0.0324,0.013523,0.002678,0.000431,1.681006
38000,0.0324,0.013523,0.002678,0.000431,1.764803
39000,0.0324,0.013523,0.002678,0.000431,1.762805
40000,0.0324,0.013523,0.002678,0.000431,1.781257
41000,0.0324,0.013523,0.002678,0.000431,1.645630
42000,0.0324,0.013523,0.002678,0.000431,1.599911
43000,0.0324,0.013523,0.002678,0.000431,1.728252
44000,0.0324,0.013523,0.002678,0.000431,1.515173
45000,0.0324,0.013523,0.002678,0.000431,1.650566
46000,0.0324,0.013523,0.002678,0.000431,1.812285
47000,0.0324,0.013523,0.002678,0.000431,1.543850
48000,0.0324,0.013523,0.002678,0.000431,1.581929
49000,0.0324,0.013523,0.002678,0.000431,1.869991
50000,0.0324,0.013523,0.002678,0.000431,1.640576
51000,0.0324,0.013523,0.002678,0.000431,1.566181
52000,0.0324,0.013523,0.002678,0.000431,1.789954
53000,0.0324,0.013523,0.002678,0.000431,1.965424
54000,0.0324,0.013523,0.002678,0.000431,1.709447
55000,0.0324,0.013523,0.002678,0.000431,1.721435
56000,0.0324,0.013523,0.002678,0.000431,1.777966
57000,0.0324,0.013523,0.002678,0.000431,1.569706
58000,0.0324,0.013523,0.002678,0.000431,1.730132
59000,0.0324,0.013523,0.002678,0.000431,1.955904
60000,0.0324,0.013523,0.002678,0.000431,1.438075
61000,0.0324,0.013523,0.002678,0.000431,1.563712
62000,0.0324,0.013523,0.002678,0.000431,1.866935
63000,0.0324,0.013523,0.002678,0.000431,1.806878
64000,0.0324,0.013523,0.002678,0.000431,1.707097
65000,0.0324,0.013523,0.002678,0.000431,1.928167
66000,0.0324,0.013523,0.002678,0.000431,1.824508
67000,0.0324,0.013523,0.002678,0.000431,1.364150
68000,0.0324,0.013523,0.002678,0.000431,0.501610
69000,0.0324,0.013523,0.002678,0.000431,0.011165
70000,0.0324,0.013523,0.002678,0.000431,0.007052
71000,0.0324,0.013523,0.002678,0.000431,0.004936
72000,0.0324,0.013523,0.002678,0.000431,0.003056
73000,0.0324,0.013523,0.002678,0.000431,0.002468
74000,0.0324,0.013523,0.002678,0.000431,0.001998
75000,0.0324,0.013523,0.002678,0.000431,0.001645
76000,0.0324,0.013523,0.002678,0.000431,0.001528
77000,0.0324,0.013523,0.002678,0.000431,0.001528
78000,0.0324,0.013523,0.002678,0.000431,0.001293
79000,0.0324,0.013523,0.002678,0.000431,0.001175
80000,0.0324,0.013523,0.002678,0.000431,0.001410
81000,0.0324,0.013523,0.002678,0.000431,0.001175
82000,0.0324,0.013523,0.002678,0.000431,0.001058
83000,0.0324,0.013523,0.002678,0.000431,0.001410
84000,0.0324,0.013523,0.002678,0.000431,0.001645
85000,0.0324,0.013523,0.002678,0.000431,0.000235
86000,0.0324,0.013523,0.002678,0.000431,0.000235
87000,0.0324,0.013523,0.002678,0.000431,0.000470
88000,0.0324,0.013523,0.002678,0.000431,0.000353
89000,0.0324,0.013523,0.002678,0.000431,0.000235
90000,0.0324,0.013523,0.002678,0.000431,0.000353
91000,0.0324,0.013523,0.002678,0.000431,0.000470
92000,0.0324,0.013523,0.002678,0.000431,0.000118
93000,0.0324,0.013523,0.002678,0.000431,0.000353
94000,0.0324,0.013523,0.002678,0.000431,0.000470
95000,0.0324,0.013523,0.002678,0.000431,0.000353
96000,0.0324,0.013523,0.002678,0.000431,0.000235
97000,0.0324,0.013523,0.002678,0.000431,0.000353
98000,0.0324,0.013523,0.002678,0.000431,0.000353
99000,0.0324,0.013523,0.002678,0.000431,0.000235
100000,0.0324,0.013523,0.002678,0.000431,0.000353
101000,0.0324,0.013523,0.002678,0.000431,0.000470
102000,0.0324,0.013523,0.002678,0.000431,0.000353
103000,0.0324,0.013523,0.002678,0.000431,0.000235
104000,0.0324,0.013523,0.002678,0.000431,0.000353
105000,0.0324,0.013523,0.002678,0.000431,0.000353
106000,0.0324,0.013523,0.002678,0.000431,0.000235
107000,0.0324,0.013523,0.002678,0.000431,0.000353
108000,0.0324,0.013523,0.002678,0.000431,0.000470
109000,0.0324,0.013523,0.002678,0.000431,0.000235
110000,0.0324,0.013523,0.002678,0.000431,0.000235
111000,0.0324,0.013523,0.002678,0.000431,0.000470
112000,0.0324,0.013523,0.002678,0.000431,0.000353
113000,0.0324,0.013523,0.002678,0.000431,0.000235
114000,0.0324,0.013523,0.002678,0.000431,0.000353
115000,0.0324,0.013523,0.002678,0.000431,0.000470
116000,0.0324,0.013523,0.002678,0.000431,0.000118
117000,0.0324,0.013523,0.002678,0.000431,0.000353
118000,0.0324,0.013523,0.002678,0.000431,0.000470
119000,0.0324,0.013523,0.002678,0.000431,0.000353
120000,0.0324,0.013523,0.002678,0.000431,0.000235
121000,0.0324,0.013523,0.002678,0.000431,0.000353
122000,0.0324,0.013523,0.002678,0.000431,0.000353
123000,0.0324,0.013523,0.002678,0.000431,0.000235
124000,0.0324,0.013523,0.002678,0.000431,0.000353
125000,0.0324,0.013523,0.002678,0.000431,0.000470
126000,0.0324,0.013523,0.002678,0.000431,0.000353
127000,0.0324,0.013523,0.002678,0.000431,0.000235
128000,0.0324,0.013523,0.002678,0.000431,0.000353
129000,0.0324,0.013523,0.002678,0.000431,0.000353
130000,0.0324,0.013523,0.002678,0.000431,0.000235
131000,0.0324,0.013523,0.002678,0.000431,0.000353
132000,0.0324,0.013523,0.002678,0.000431,0.000470
133000,0.0324,0.013523,0.002678,0.000431,0.000353
134000,0.0324,0.013523,0.002678,0.000431,0.000118
135000,0.0324,0.013523,0.002678,0.000431,0.000470
136000,0.0324,0.013523,0.002678,0.000431,0.000353
137000,0.0324,0.013523,0.002678,0.000431,0.000235
138000,0.0324,0.013523,0.002678,0.000431,0.000353
139000,0.0324,0.013523,0.002678,0.000431,0.000470
140000,0.0324,0.013523,0.002678,0.000431,0.000235
141000,0.0324,0.013523,0.002678,0.000431,0.000235
142000,0.0324,0.013523,0.002678,0.000431,0.000470
143000,0.0324,0.013523,0.002678,0.000431,0.000353
144000,0.0324,0.013523,0.002678,0.000431,0.000235
145000,0.0324,0.013523,0.002678,0.000431,0.000353
146000,0.0324,0.013523,0.002678,0.000431,0.000470
147000,0.0324,0.013523,0.002678,0.000431,0.000118
148000,0.0324,0.013523,0.002678,0.000431,0.000353
149000,0.0324,0.013523,0.002678,0.000431,0.000470
150000,0.0324,0.013523,0.002678,0.000431,0.000353
151000,0.0324,0.013523,0.002678,0.000431,0.000235
152000,0.0324,0.013523,0.002678,0.000431,0.000353
153000,0.0324,0.013523,0.002678,0.000431,0.000353
154000,0.0324,0.013523,0.002678,0.000431,0.000235
155000,0.0324,0.013523,0.002678,0.000431,0.000353
156000,0.0324,0.013523,0.002678,0.000431,0.000470
157000,0.0324,0.013523,0.002678,0.000431,0.000353
158000,0.0324,0.013523,0.002678,0.000431,0.000118
159000,0.0324,0.013523,0.002678,0.000431,0.000470
160000,0.0324,0.013523,0.002678,0.000431,0.000353
161000,0.0324,0.013523,0.002678,0.000431,0.000235
162000,0.0324,0.013523,0.002678,0.000431,0.000353
163000,0.0324,0.013523,0.002678,0.000431,0.000470
164000,0.0324,0.013523,0.002678,0.000431,0.000235
165000,0.0324,0.013523,0.002678,0.000431,0.000235
166000,0.0324,0.013523,0.002678,0.000431,0.000470
167000,0.0324,0.013523,0.002678,0.000431,0.000353
168000,0.0324,0.013523,0.002678,0.000431,0.000235
169000,0.0324,0.013523,0.002678,0.000431,0.000353
170000,0.0324,0.013523,0.002678,0.000431,0.000353
171000,0.0324,0.013523,0.002678,0.000431,0.000235
172000,0.0324,0.013523,0.002678,0.000431,0.000353
173000,0.0324,0.013523,0.002678,0.000431,0.000470
174000,0.0324,0.013523,0.002678,0.000431,0.000353
175000,0.0324,0.013523,0.002678,0.000431,0.000235
176000,0.0324,0.013523,0.002678,0.000431,0.000353
177000,0.0324,0.013523,0.002678,0.000431,0.000353
178000,0.0324,0.013523,0.002678,0.000431,0.000235
179000,0.0324,0.013523,0.002678,0.000431,0.000353
180000,0.0324,0.013523,0.002678,0.000431,0.000470
181000,0.0324,0.013523,0.002678,0.000431,0.000353
182000,0.0324,0.013523,0.002678,0.000431,0.000118
183000,0.0324,0.013523,0.002678,0.000431,0.000470
184000,0.0324,0.013523,0.002678,0.000431,0.000353
185000,0.0324,0.013523,0.002678,0.000431,0.000235
186000,0.0324,0.013523,0.002678,0.000431,0.000353
187000,0.0324,0.013523,0.002678,0.000431,0.000470
188000,0.0324,0.013523,0.002678,0.000431,0.000235
189000,0.0324,0.013523,0.002678,0.000431,0.000235
190000,0.0324,0.013523,0.002678,0.000431,0.000470
191000,0.0324,0.013523,0.002678,0.000431,0.000353
192000,0.0324,0.013523,0.002678,0.000431,0.000235
193000,0.0324,0.013523,0.002678,0.000431,0.000353
194000,0.0324,0.013523,0.002678,0.000431,0.000353
195000,0.0324,0.013523,0.002678,0.000431,0.000235
196000,0.0324,0.013523,0.002678,0.000431,0.000353
197000,0.0324,0.013523,0.002678,0.000431,0.000470
198000,0.0324,0.013523,0.002678,0.000431,0.000353
199000,0.0324,0.013523,0.002678,0.000431,0.000235
200000,0.0324,0.013523,0.002678,0.000431,0.000353
201000,0.0324,0.013523,0.002678,0.000431,0.000353
202000,0.0324,0.013523,0.002678,0.000431,0.000235
203000,0.0324,0.013523,0.002678,0.000431,0.000353
204000,0.0324,0.013523,0.002678,0.000431,0.000470
205000,0.0324,0.013523,0.002678,0.000431,0.000353
206000,0.0324,0.013523,0.002678,0.000431,0.000235
207000,0.0324,0.013523,0.002678,0.000431,0.000353
208000,0.0324,0.013523,0.002678,0.000431,0.000353
209000,0.0324,0.013523,0.002678,0.000431,0.000235
210000,0.0324,0.013523,0.002678,0.000431,0.000353
211000,0.0324,0.013523,0.002678,0.000431,0.000470
212000,0.0324,0.013523,0.002678,0.000431,0.000353
213000,0.0324,0.013523,0.002678,0.000431,0.000235
214000,0.0324,0.013523,0.002678,0.000431,0.000353
215000,0.0324,0.013523,0.002678,0.000431,0.000353
216000,0.0324,0.013523,0.002678,0.000431,0.000235
217000,0.0324,0.013523,0.002678,0.000431,0.000353
218000,0.0324,0.013523,0.002678,0.000431,0.000470
219000,0.0324,0.013523,0.002678,0.000431,0.000353
220000,0.0324,0.013523,0.002678,0.000431,0.000235
221000,0.0324,0.013523,0.002678,0.000431,0.000353
222000,0.0324,0.013523,0.002678,0.000431,0.000353
223000,0.0324,0.013523,0.002678,0.000431,0.000235
224000,0.0324,0.013523,0.002678,0.000431,0.000353
225000,0.0324,0.013523,0.002678,0.000431,0.000470
226000,0.0324,0.013523,0.002678,0.000431,0.000353
227000,0.0324,0.013523,0.002678,0.000431,0.000118
228000,0.0324,0.013523,0.002678,0.000431,0.000470
229000,0.0324,0.013523,0.002678,0.000431,0.000353
230000,0.0324,0.013523,0.002678,0.000431,0.000235
231000,0.0324,0.013523,0.002678,0.000431,0.000353
232000,0.0324,0.013523,0.002678,0.000431,0.000470
233000,0.0324,0.013523,0.002678,0.000431,0.000353
234000,0.0324,0.013523,0.002678,0.000431,0.000118
235000,0.0324,0.013523,0.002678,0.000431,0.000470
236000,0.0324,0.013523,0.002678,0.000431,0.000353
237000,0.0324,0.013523,0.002678,0.000431,0.000235
238000,0.0324,0.013523,0.002678,0.000431,0.000353
239000,0.0324,0.013523,0.002678,0.000431,0.000470
240000,0.0324,0.013523,0.002678,0.000431,0.000353
241000,0.0324,0.013523,0.002678,0.000431,0.000118
242000,0.0324,0.013523,0.002678,0.000431,0.000470
243000,0.0324,0.013523,0.002678,0.000431,0.000353
244000,0.0324,0.013523,0.002678,0.000431,0.000235
245000,0.0324,0.013523,0.002678,0.000431,0.000353
246000,0.0324,0.013523,0.002678,0.000431,0.000470
247000,0.0324,0.013523,0.002678,0.000431,0.000353
248000,0.0324,0.013523,0.002678,0.000431,0.000118
249000,0.0324,0.013523,0.002678,0.000431,0.000470
250000,0.0324,0.013523,0.002678,0.000431,0.000353
251000,0.0324,0.013523,0.002678,0.000431,0.000235
252000,0.0324,0.013523,0.002678,0.000431,0.000353
253000,0.0324,0.013523,0.002678,0.000431,0.000470
254000,0.0324,0.013523,0.002678,0.000431,0.000235
255000,0.0324,0.013523,0.002678,0.000431,0.000235
256000,0.0324,0.013523,0.002678,0.000431,0.000470
257000,0.0324,0.013523,0.002678,0.000431,0.000353
258000,0.0324,0.013523,0.002678,0.000431,0.000235
259000,0.0324,0.013523,0.002678,0.000431,0.000353
260000,0.0324,0.013523,0.002678,0.000431,0.000470
261000,0.0324,0.013523,0.002678,0.000431,0.000235
262000,0.0324,0.013523,0.002678,0.000431,0.000235
263000,0.0324,0.013523,0.002678,0.000431,0.000470
264000,0.0324,0.013523,0.002678,0.000431,0.000353
265000,0.0324,0.013523,0.002678,0.000431,0.000235
266000,0.0324,0.013523,0.002678,0.000431,0.000353
267000,0.0324,0.013523,0.002678,0.000431,0.000470
268000,0.0324,0.013523,0.002678,0.000431,0.000235
269000,0.0324,0.013523,0.002678,0.000431,0.000235
270000,0.0324,0.013523,0.002678,0.000431,0.000470
271000,0.0324,0.013523,0.002678,0.000431,0.000353
272000,0.0324,0.013523,0.002678,0.000431,0.000235
273000,0.0324,0.013523,0.002678,0.000431,0.000353
274000,0.0324,0.013523,0.002678,0.000431,0.000470
275000,0.0324,0.013523,0.002678,0.000431,0.000235
276000,0.0324,0.013523,0.002678,0.000431,0.000235
277000,0.0324,0.013523,0.002678,0.000431,0.000470
278000,0.0324,0.013523,0.002678,0.000431,0.000353
279000,0.0324,0.013523,0.002678,0.000431,0.000235
280000,0.0324,0.013523,0.002678,0.000431,0.000353
281000,0.0324,0.013523,0.002678,0.000431,0.000470
282000,0.0324,0.013523,0.002678,0.000431,0.000235
283000,0.0324,0.013523,0.002678,0.000431,0.000235
284000,0.0324,0.013523,0.002678,0.000431,0.000470
285000,0.0324,0.013523,0.002678,0.000431,0.000353
286000,0.0324,0.013523,0.002678,0.000431,0.000235
287000,0.0324,0.013523,0.002678,0.000431,0.000353
288000,0.0324,0.013523,0.002678,0.000431,0.000470
289000,0.0324,0.013523,0.002678,0.000431,0.000235
290000,0.0324,0.013523,0.002678,0.000431,0.000235
291000,0.0324,0.013523,0.002678,0.000431,0.000470
292000,0.0324,0.013523,0.002678,0.000431,0.000353
293000,0.0324,0.013523,0.002678,0.000431,0.000235
294000,0.0324,0.013523,0.002678,0.000431,0.000353
295000,0.0324,0.013523,0.002678,0.000431,0.000470
296000,0.0324,0.013523,0.002678,0.000431,0.000118
297000,0.0324,0.013523,0.002678,0.000431,0.000353
298000,0.0324,0.013523,0.002678,0.000431,0.000470
299000,0.0324,0.013523,0.002678,0.000431,0.000353
300000,0.0324,0.013523,0.002678,0.000431,0.000235
301000,0.0324,0.013523,0.002678,0.000431,0.000353
302000,0.0324,0.013523,0.002678,0.000431,0.000470
303000,0.0324,0.013523,0.002678,0.000431,0.000118
304000,0.0324,0.013523,0.002678,0.000431,0.000353
305000,0.0324,0.013523,0.002678,0.000431,0.000470
306000,0.0324,0.013523,0.002678,0.000431,0.000353
307000,0.0324,0.013523,0.002678,0.000431,0.000235
308000,0.0324,0.013523,0.002678,0.000431,0.000353
309000,0.0324,0.013523,0.002678,0.000431,0.000470
310000,0.0324,0.013523,0.002678,0.000431,0.000118
311000,0.0324,0.013523,0.002678,0.000431,0.000353
312000,0.0324,0.013523,0.002678,0.000431,0.000470
313000,0.0324,0.013523,0.002678,0.000431,0.000353
314000,0.0324,0.013523,0.002678,0.000431,0.000235
315000,0.0324,0.013523,0.002678,0.000431,0.000353
316000,0.0324,0.013523,0.002678,0.000431,0.000353
317000,0.0324,0.013523,0.002678,0.000431,0.000235
318000,0.0324,0.013523,0.002678,0.000431,0.000353
319000,0.0324,0.013523,0.002678,0.000431,0.000470
320000,0.0324,0.013523,0.002678,0.000431,0.000353
321000,0.0324,0.013523,0.002678,0.000431,0.000235
322000,0.0324,0.013523,0.002678,0.000431,0.000353
323000,0.0324,0.013523,0.002678,0.000431,0.000353
324000,0.0324,0.013523,0.002678,0.000431,0.000235
325000,0.0324,0.013523,0.002678,0.000431,0.000353
326000,0.0324,0.013523,0.002678,0.000431,0.000470
327000,0.0324,0.013523,0.002678,0.000431,0.000353
328000,0.0324,0.013523,0.002678,0.000431,0.000235
329000,0.0324,0.013523,0.002678,0.000431,0.000353
330000,0.0324,0.013523,0.002678,0.000431,0.000353
331000,0.0324,0.013523,0.002678,0.000431,0.000235
332000,0.0324,0.013523,0.002678,0.000431,0.000353
333000,0.0324,0.013523,0.002678,0.000431,0.000470
334000,0.0324,0.013523,0.002678,0.000431,0.000353
335000,0.0324,0.013523,0.002678,0.000431,0.000235
336000,0.0324,0.013523,0.002678,0.000431,0.000353
337000,0.0324,0.013523,0.002678,0.000431,0.000353
338000,0.0324,0.013523,0.002678,0.000431,0.000235
339000,0.0324,0.013523,0.002678,0.000431,0.000353
340000,0.0324,0.013523,0.002678,0.000431,0.000470
341000,0.0324,0.013523,0.002678,0.000431,0.000353
342000,0.0324,0.013523,0.002678,0.000431,0.000235
343000,0.0324,0.013523,0.002678,0.000431,0.000353
344000,0.0324,0.013523,0.002678,0.000431,0.000353
345000,0.0324,0.013523,0.002678,0.000431,0.000235
346000,0.0324,0.013523,0.002678,0.000431,0.000353
347000,0.0324,0.013523,0.002678,0.000431,0.000470
348000,0.0324,0.013523,0.002678,0.000431,0.000353
349000,0.0324,0.013523,0.002678,0.000431,0.000235
350000,0.0324,0.013523,0.002678,0.000431,0.000353
351000,0.0324,0.013523,0.002678,0.000431,0.000353
352000,0.0324,0.013523,0.002678,0.000431,0.000235
353000,0.0324,0.013523,0.002678,0.000431,0.000353
354000,0.0324,0.013523,0.002678,0.000431,0.000470
355000,0.0324,0.013523,0.002678,0.000431,0.000353
356000,0.0324,0.013523,0.002678,0.000431,0.000235
357000,0.0324,0.013523,0.002678,0.000431,0.000353
358000,0.0324,0.013523,0.002678,0.000431,0.000353
359000,0.0324,0.013523,0.002678,0.000431,0.000235
360000,0.0324,0.013523,0.002678,0.000431,0.000353
361000,0.0324,0.013523,0.002678,0.000431,0.000470
362000,0.0324,0.013523,0.002678,0.000431,0.000353
363000,0.0324,0.013523,0.002678,0.000431,0.000235
364000,0.0324,0.013523,0.002678,0.000431,0.000353
365000,0.0324,0.013523,0.002678,0.000431,0.000353
366000,0.0324,0.013523,0.002678,0.000431,0.000235
367000,0.0324,0.013523,0.002678,0.000431,0.000353
368000,0.0324,0.013523,0.002678,0.000431,0.000470
369000,0.0324,0.013523,0.002678,0.000431,0.000353
370000,0.0324,0.013523,0.002678,0.000431,0.000118
371000,0.0324,0.013523,0.002678,0.000431,0.000470
372000,0.0324,0.013523,0.002678,0.000431,0.000353
373000,0.0324,0.013523,0.002678,0.000431,0.000235
374000,0.0324,0.013523,0.002678,0.000431,0.000353
375000,0.0324,0.013523,0.002678,0.000431,0.000470
376000,0.0324,0.013523,0.002678,0.000431,0.000353
377000,0.0324,0.013523,0.002678,0.000431,0.000118
378000,0.0324,0.013523,0.002678,0.000431,0.000470
379000,0.0324,0.013523,0.002678,0.000431,0.000353
380000,0.0324,0.013523,0.002678,0.000431,0.000235
381000,0.0324,0.013523,0.002678,0.000431,0.000353
382000,0.0324,0.013523,0.002678,0.000431,0.000470
383000,0.0324,0.013523,0.002678,0.000431,0.000353
384000,0.0324,0.013523,0.002678,0.000431,0.000118
385000,0.0324,0.013523,0.002678,0.000431,0.000470
386000,0.0324,0.013523,0.002678,0.000431,0.000353
387000,0.0324,0.013523,0.002678,0.000431,0.000235
388000,0.0324,0.013523,0.002678,0.000431,0.000353
389000,0.0324,0.013523,0.002678,0.000431,0.000470
390000,0.0324,0.013523,0.002678,0.000431,0.000235
391000,0.0324,0.013523,0.002678,0.000431,0.000235
392000,0.0324,0.013523,0.002678,0.000431,0.000470
393000,0.0324,0.013523,0.002678,0.000431,0.000353
394000,0.0324,0.013523,0.002678,0.000431,0.000235
395000,0.0324,0.013523,0.002678,0.000431,0.000353
396000,0.0324,0.013523,0.002678,0.000431,0.000470
397000,0.0324,0.013523,0.002678,0.000431,0.000235
398000,0.0324,0.013523,0.002678,0.000431,0.000235
399000,0.0324,0.013523,0.002678,0.000431,0.000470
400000,0.0324,0.013523,0.002678,0.000431,0.000353
401000,0.0324,0.013523,0.002678,0.000431,0.000235
402000,0.0324,0.013523,0.002678,0.000431,0.000353
403000,0.0324,0.013523,0.002678,0.000431,0.000470
404000,0.0324,0.013523,0.002678,0.000431,0.000235
405000,0.0324,0.013523,0.002678,0.000431,0.000235
406000,0.0324,0.013523,0.002678,0.000431,0.000470
407000,0.0324,0.013523,0.002678,0.000431,0.000353
408000,0.0324,0.013523,0.002678,0.000431,0.000235
409000,0.0324,0.013523,0.002678,0.000431,0.000353
410000,0.0324,0.013523,0.002678,0.000431,0.000470
411000,0.0324,0.013523,0.002678,0.000431,0.000235
412000,0.0324,0.013523,0.002678,0.000431,0.000235
413000,0.0324,0.013523,0.002678,0.000431,0.000470
414000,0.0324,0.013523,0.002678,0.000431,0.000353
415000,0.0324,0.013523,0.002678,0.000431,0.000235
416000,0.0324,0.013523,0.002678,0.000431,0.000353
417000,0.0324,0.013523,0.002678,0.000431,0.000470
418000,0.0324,0.013523,0.002678,0.000431,0.000235
419000,0.0324,0.013523,0.002678,0.000431,0.000235
420000,0.0324,0.013523,0.002678,0.000431,0.000470
421000,0.0324,0.013523,0.002678,0.000431,0.000353
422000,0.0324,0.013523,0.002678,0.000431,0.000235
423000,0.0324,0.013523,0.002678,0.000431,0.000353
424000,0.0324,0.013523,0.002678,0.000431,0.000470
425000,0.0324,0.013523,0.002678,0.000431,0.000235
426000,0.0324,0.013523,0.002678,0.000431,0.000235
427000,0.0324,0.013523,0.002678,0.000431,0.000470
428000,0.0324,0.013523,0.002678,0.000431,0.000353
429000,0.0324,0.013523,0.002678,0.000431,0.000235
430000,0.0324,0.013523,0.002678,0.000431,0.000353
431000,0.0324,0.013523,0.002678,0.000431,0.000470
432000,0.0324,0.013523,0.002678,0.000431,0.000118
433000,0.0324,0.013523,0.002678,0.000431,0.000353
434000,0.0324,0.013523,0.002678,0.000431,0.000470
435000,0.0324,0.013523,0.002678,0.000431,0.000353
436000,0.0324,0.013523,0.002678,0.000431,0.000235
437000,0.0324,0.013523,0.002678,0.000431,0.000353
438000,0.0324,0.013523,0.002678,0.000431,0.000470
439000,0.0324,0.013523,0.002678,0.000431,0.000118
440000,0.0324,0.013523,0.002678,0.000431,0.000353
441000,0.0324,0.013523,0.002678,0.000431,0.000470
442000,0.0324,0.013523,0.002678,0.000431,0.000353
443000,0.0324,0.013523,0.002678,0.000431,0.000235
444000,0.0324,0.013523,0.002678,0.000431,0.000353
445000,0.0324,0.013523,0.002678,0.000431,0.000470
446000,0.0324,0.013523,0.002678,0.000431,0.000118
447000,0.0324,0.013523,0.002678,0.000431,0.000353
448000,0.0324,0.013523,0.002678,0.000431,0.000470
449000,0.0324,0.013523,0.002678,0.000431,0.000353
450000,0.0324,0.013523,0.002678,0.000431,0.000235
451000,0.0324,0.013523,0.002678,0.000431,0.000353
452000,0.0324,0.013523,0.002678,0.000431,0.000470
453000,0.0324,0.013523,0.002678,0.000431,0.000118
454000,0.0324,0.013523,0.002678,0.000431,0.000353
455000,0.0324,0.013523,0.002678,0.000431,0.000470
456000,0.0324,0.013523,0.002678,0.000431,0.000353
457000,0.0324,0.013523,0.002678,0.000431,0.000235
458000,0.0324,0.013523,0.002678,0.000431,0.000353
459000,0.0324,0.013523,0.002678,0.000431,0.000353
460000,0.0324,0.013523,0.002678,0.000431,0.000235
461000,0.0324,0.013523,0.002678,0.000431,0.000353
462000,0.0324,0.013523,0.002678,0.000431,0.000470
463000,0.0324,0.013523,0.002678,0.000431,0.000353
464000,0.0324,0.013523,0.002678,0.000431,0.000235
465000,0.0324,0.013523,0.002678,0.000431,0.000353
466000,0.0324,0.013523,0.002678,0.000431,0.000353
467000,0.0324,0.013523,0.002678,0.000431,0.000235
468000,0.0324,0.013523,0.002678,0.000431,0.000353
469000,0.0324,0.013523,0.002678,0.000431,0.000470
470000,0.0324,0.013523,0.002678,0.000431,0.000353
471000,0.0324,0.013523,0.002678,0.000431,0.000235
472000,0.0324,0.013523,0.002678,0.000431,0.000353
473000,0.0324,0.013523,0.002678,0.000431,0.000353
474000,0.0324,0.013523,0.002678,0.000431,0.000235
475000,0.0324,0.013523,0.002678,0.000431,0.000353
476000,0.0324,0.013523,0.002678,0.000431,0.000470
477000,0.0324,0.013523,0.002678,0.000431,0.000353
478000,0.0324,0.013523,0.002678,0.000431,0.000235
479000,0.0324,0.013523,0.002678,0.000431,0.000353
480000,0.0324,0.013523,0.002678,0.000431,0.000353
481000,0.0324,0.013523,0.002678,0.000431,0.000235
482000,0.0324,0.013523,0.002678,0.000431,0.000353
483000,0.0324,0.013523,0.002678,0.000431,0.000470
484000,0.0324,0.013523,0.002678,0.000431,0.000353
485000,0.0324,0.013523,0.002678,0.000431,0.000235
486000,0.0324,0.013523,0.002678,0.000431,0.000353
487000,0.0324,0.013523,0.002678,0.000431,0.000353
488000,0.0324,0.013523,0.002678,0.000431,0.000235
489000,0.0324,0.013523,0.002678,0.000431,0.000353
490000,0.0324,0.013523,0.002678,0.000431,0.000470
491000,0.0324,0.013523,0.002678,0.000431,0.000353
492000,0.0324,0.013523,0.002678,0.000431,0.000235
493000,0.0324,0.013523,0.002678,0.000431,0.000353
494000,0.0324,0.013523,0.002678,0.000431,0.000353
495000,0.0324,0.013523,0.002678,0.000431,0.000235
496000,0.0324,0.013523,0.002678,0.000431,0.000353
497000,0.0324,0.013523,0.002678,0.000431,0.000470
498000,0.0324,0.013523,0.002678,0.000431,0.000353
499000,0.0324,0.013523,0.002678,0.000431,0.000235
500000,0.0324,0.013523,0.002678,0.000431,0.000353
501000,0.0324,0.013523,0.002678,0.000431,0.000353
502000,0.0324,0.013523,0.002678,0.000431,0.000235
503000,0.0324,0.013523,0.002678,0.000431,0.000353
504000,0.0324,0.013523,0.002678,0.000431,0.000470
505000,0.0324,0.013523,0.002678,0.000431,0.000353
506000,0.0324,0.013523,0.002678,0.000431,0.000235
507000,0.0324,0.013523,0.002678,0.000431,0.000353
508000,0.0324,0.013523,0.002678,0.000431,0.000353
509000,0.0324,0.013523,0.002678,0.000431,0.000235
510000,0.0324,0.013523,0.002678,0.000431,0.000353
511000,0.0324,0.013523,0.002678,0.000431,0.000470
512000,0.0324,0.013523,0.002678,0.000431,0.000353
513000,0.0324,0.013523,0.002678,0.000431,0.000118
514000,0.0324,0.013523,0.002678,0.000431,0.000470
515000,0.0324,0.013523,0.002678,0.000431,0.000353
516000,0.0324,0.013523,0.002678,0.000431,0.000235
517000,0.0324,0.013523,0.002678,0.000431,0.000353
518000,0.0324,0.013523,0.002678,0.000431,0.000470
519000,0.0324,0.013523,0.002678,0.000431,0.000353
520000,0.0324,0.013523,0.002678,0.000431,0.000118
521000,0.0324,0.013523,0.002678,0.000431,0.000470
522000,0.0324,0.013523,0.002678,0.000431,0.000353
523000,0.0324,0.013523,0.002678,0.000431,0.000235
524000,0.0324,0.013523,0.002678,0.000431,0.000353
525000,0.0324,0.013523,0.002678,0.000431,0.000470
526000,0.0324,0.013523,0.002678,0.000431,0.000353
527000,0.0324,0.013523,0.002678,0.000431,0.000118
528000,0.0324,0.013523,0.002678,0.000431,0.000470
529000,0.0324,0.013523,0.002678,0.000431,0.000353
530000,0.0324,0.013523,0.002678,0.000431,0.000235
531000,0.0324,0.013523,0.002678,0.000431,0.000353
532000,0.0324,0.013523,0.002678,0.000431,0.000470
533000,0.0324,0.013523,0.002678,0.000431,0.000235
534000,0.0324,0.013523,0.002678,0.000431,0.000235
535000,0.0324,0.013523,0.002678,0.000431,0.000470
536000,0.0324,0.013523,0.002678,0.000431,0.000353
537000,0.0324,0.013523,0.002678,0.000431,0.000235
538000,0.0324,0.013523,0.002678,0.000431,0.000353
539000,0.0324,0.013523,0.002678,0.000431,0.000470
540000,0.0324,0.013523,0.002678,0.000431,0.000235
541000,0.0324,0.013523,0.002678,0.000431,0.000235
542000,0.0324,0.013523,0.002678,0.000431,0.000470
543000,0.0324,0.013523,0.002678,0.000431,0.000353
544000,0.0324,0.013523,0.002678,0.000431,0.000235
545000,0.0324,0.013523,0.002678,0.000431,0.000353
546000,0.0324,0.013523,0.002678,0.000431,0.000470
547000,0.0324,0.013523,0.002678,0.000431,0.000235
548000,0.0324,0.013523,0.002678,0.000431,0.000235
549000,0.0324,0.013523,0.002678,0.000431,0.000470
550000,0.0324,0.013523,0.002678,0.000431,0.000353
551000,0.0324,0.013523,0.002678,0.000431,0.000235
552000,0.0324,0.013523,0.002678,0.000431,0.000353
553000,0.0324,0.013523,0.002678,0.000431,0.000470
554000,0.0324,0.013523,0.002678,0.000431,0.000235
555000,0.0324,0.013523,0.002678,0.000431,0.000235
556000,0.0324,0.013523,0.002678,0.000431,0.000470
557000,0.0324,0.013523,0.002678,0.000431,0.000353
558000,0.0324,0.013523,0.002678,0.000431,0.000235
559000,0.0324,0.013523,0.002678,0.000431,0.000353
560000,0.0324,0.013523,0.002678,0.000431,0.000470
561000,0.0324,0.013523,0.002678,0.000431,0.000235
562000,0.0324,0.013523,0.002678,0.000431,0.000235
563000,0.0324,0.013523,0.002678,0.000431,0.000470
564000,0.0324,0.013523,0.002678,0.000431,0.000353
565000,0.0324,0.013523,0.002678,0.000431,0.000235
566000,0.0324,0.013523,0.002678,0.000431,0.000353
567000,0.0324,0.013523,0.002678,0.000431,0.000470
568000,0.0324,0.013523,0.002678,0.000431,0.000235
569000,0.0324,0.013523,0.002678,0.000431,0.000235
570000,0.0324,0.013523,0.002678,0.000431,0.000470
571000,0.0324,0.013523,0.002678,0.000431,0.000353
572000,0.0324,0.013523,0.002678,0.000431,0.000235
573000,0.0324,0.013523,0.002678,0.000431,0.000353
574000,0.0324,0.013523,0.002678,0.000431,0.000470
575000,0.0324,0.013523,0.002678,0.000431,0.000118
576000,0.0324,0.013523,0.002678,0.000431,0.000353
577000,0.0324,0.013523,0.002678,0.000431,0.000470
578000,0.0324,0.013523,0.002678,0.000431,0.000353
579000,0.0324,0.013523,0.002678,0.000431,0.000235
580000,0.0324,0.013523,0.002678,0.000431,0.000353
581000,0.0324,0.013523,0.002678,0.000431,0.000470
582000,0.0324,0.013523,0.002678,0.000431,0.000118
583000,0.0324,0.013523,0.002678,0.000431,0.000353
584000,0.0324,0.013523,0.002678,0.000431,0.000470
585000,0.0324,0.013523,0.002678,0.000431,0.000353
586000,0.0324,0.013523,0.002678,0.000431,0.000235
587000,0.0324,0.013523,0.002678,0.000431,0.000353
588000,0.0324,0.013523,0.002678,0.000431,0.000470
589000,0.0324,0.013523,0.002678,0.000431,0.000118
590000,0.0324,0.013523,0.002678,0.000431,0.000353
591000,0.0324,0.013523,0.002678,0.000431,0.000470
592000,0.0324,0.013523,0.002678,0.000431,0.000353
593000,0.0324,0.013523,0.002678,0.000431,0.000235
594000,0.0324,0.013523,0.002678,0.000431,0.000353
595000,0.0324,0.013523,0.002678,0.000431,0.000353
596000,0.0324,0.013523,0.002678,0.000431,0.000235
597000,0.0324,0.013523,0.002678,0.000431,0.000353
598000,0.0324,0.013523,0.002678,0.000431,0.000470
599000,0.0324,0.013523,0.002678,0.000431,0.000353
600000,0.0324,0.013523,0.002678,0.000431,0.000235
601000,0.0324,0.013523,0.002678,0.000431,0.000353
602000,0.0324,0.013523,0.002678,0.000431,0.000353
603000,0.0324,0.013523,0.002678,0.000431,0.000235
604000,0.0324,0.013523,0.002678,0.000431,0.000353
605000,0.0324,0.013523,0.002678,0.000431,0.000470
606000,0.0324,0.013523,0.002678,0.000431,0.000353
607000,0.0324,0.013523,0.002678,0.000431,0.000235
608000,0.0324,0.013523,0.002678,0.000431,0.000353
609000,0.0324,0.013523,0.002678,0.000431,0.000353
610000,0.0324,0.013523,0.002678,0.000431,0.000235
611000,0.0324,0.013523,0.002678,0.000431,0.000353
612000,0.0324,0.013523,0.002678,0.000431,0.000470
613000,0.0324,0.013523,0.002678,0.000431,0.000353
614000,0.0324,0.013523,0.002678,0.000431,0.000235
615000,0.0324,0.013523,0.002678,0.000431,0.000353
616000,0.0324,0.013523,0.002678,0.000431,0.000353
617000,0.0324,0.013523,0.002678,0.000431,0.000235
618000,0.0324,0.013523,0.002678,0.000431,0.000353
619000,0.0324,0.013523,0.002678,0.000431,0.000470
620000,0.0324,0.013523,0.002678,0.000431,0.000353
621000,0.0324,0.013523,0.002678,0.000431,0.000235
622000,0.0324,0.013523,0.002678,0.000431,0.000353
623000,0.0324,0.013523,0.002678,0.000431,0.000353
624000,0.0324,0.013523,0.002678,0.000431,0.000235
625000,0.0324,0.013523,0.002678,0.000431,0.000353
626000,0.0324,0.013523,0.002678,0.000431,0.000470
627000,0.0324,0.013523,0.002678,0.000431,0.000353
628000,0.0324,0.013523,0.002678,0.000431,0.000235
629000,0.0324,0.013523,0.002678,0.000431,0.000353
630000,0.0324,0.013523,0.002678,0.000431,0.000353
631000,0.0324,0.013523,0.002678,0.000431,0.000235
632000,0.0324,0.013523,0.002678,0.000431,0.000353
633000,0.0324,0.013523,0.002678,0.000431,0.000470
634000,0.0324,0.013523,0.002678,0.000431,0.000353
635000,0.0324,0.013523,0.002678,0.000431,0.000235
636000,0.0324,0.013523,0.002678,0.000431,0.000353
637000,0.0324,0.013523,0.002678,0.000431,0.000353
638000,0.0324,0.013523,0.002678,0.000431,0.000235
639000,0.0324,0.013523,0.002678,0.000431,0.000353
640000,0.0324,0.013523,0.002678,0.000431,0.000470
641000,0.0324,0.013523,0.002678,0.000431,0.000353
642000,0.0324,0.013523,0.002678,0.000431,0.000235
643000,0.0324,0.013523,0.002678,0.000431,0.000353
644000,0.0324,0.013523,0.002678,0.000431,0.000353
645000,0.0324,0.013523,0.002678,0.000431,0.000235
646000,0.0324,0.013523,0.002678,0.000431,0.000353
647000,0.0324,0.013523,0.002678,0.000431,0.000470
648000,0.0324,0.013523,0.002678,0.000431,0.000353
649000,0.0324,0.013523,0.002678,0.000431,0.000118
650000,0.0324,0.013523,0.002678,0.000431,0.000470
651000,0.0324,0.013523,0.002678,0.000431,0.000353
652000,0.0324,0.013523,0.002678,0.000431,0.000235
653000,0.0324,0.013523,0.002678,0.000431,0.000353
654000,0.0324,0.013523,0.002678,0.000431,0.000470
655000,0.0324,0.013523,0.002678,0.000431,0.000353
656000,0.0324,0.013523,0.002678,0.000431,0.000118
657000,0.0324,0.013523,0.002678,0.000431,0.000470
658000,0.0324,0.013523,0.002678,0.000431,0.000353
659000,0.0324,0.013523,0.002678,0.000431,0.000235
660000,0.0324,0.013523,0.002678,0.000431,0.000353
661000,0.0324,0.013523,0.002678,0.000431,0.000470
662000,0.0324,0.013523,0.002678,0.000431,0.000353
663000,0.0324,0.013523,0.002678,0.000431,0.000118
664000,0.0324,0.013523,0.002678,0.000431,0.000470
665000,0.0324,0.013523,0.002678,0.000431,0.000353
666000,0.0324,0.013523,0.002678,0.000431,0.000235
667000,0.0324,0.013523,0.002678,0.000431,0.000353
668000,0.0324,0.013523,0.002678,0.000431,0.000470
669000,0.0324,0.013523,0.002678,0.000431,0.000353
670000,0.0324,0.013523,0.002678,0.000431,0.000118
671000,0.0324,0.013523,0.002678,0.000431,0.000470
672000,0.0324,0.013523,0.002678,0.000431,0.000353
673000,0.0324,0.013523,0.002678,0.000431,0.000235
674000,0.0324,0.013523,0.002678,0.000431,0.000353
675000,0.0324,0.013523,0.002678,0.000431,0.000470
676000,0.0324,0.013523,0.002678,0.000431,0.000235
677000,0.0324,0.013523,0.002678,0.000431,0.000235
678000,0.0324,0.013523,0.002678,0.000431,0.000470
679000,0.0324,0.013523,0.002678,0.000431,0.000353
680000,0.0324,0.013523,0.002678,0.000431,0.000235
681000,0.0324,0.013523,0.002678,0.000431,0.000353
682000,0.0324,0.013523,0.002678,0.000431,0.000470
683000,0.0324,0.013523,0.002678,0.000431,0.000235
684000,0.0324,0.013523,0.002678,0.000431,0.000235
685000,0.0324,0.013523,0.002678,0.000431,0.000470
686000,0.0324,0.013523,0.002678,0.000431,0.000353
687000,0.0324,0.013523,0.002678,0.000431,0.000235
688000,0.0324,0.013523,0.002678,0.000431,0.000353
689000,0.0324,0.013523,0.002678,0.000431,0.000470
690000,0.0324,0.013523,0.002678,0.000431,0.000235
691000,0.0324,0.013523,0.002678,0.000431,0.000235
692000,0.0324,0.013523,0.002678,0.000431,0.000470
693000,0.0324,0.013523,0.002678,0.000431,0.000353
694000,0.0324,0.013523,0.002678,0.000431,0.000235
695000,0.0324,0.013523,0.002678,0.000431,0.000353
696000,0.0324,0.013523,0.002678,0.000431,0.000470
697000,0.0324,0.013523,0.002678,0.000431,0.000235
698000,0.0324,0.013523,0.002678,0.000431,0.000235
699000,0.0324,0.013523,0.002678,0.000431,0.000470
700000,0.0324,0.013523,0.002678,0.000431,0.000353
701000,0.0324,0.013523,0.002678,0.000431,0.000235
702000,0.0324,0.013523,0.002678,0.000431,0.000353
703000,0.0324,0.013523,0.002678,0.000431,0.000470
704000,0.0324,0.013523,0.002678,0.000431,0.000235
705000,0.0324,0.013523,0.002678,0.000431,0.000235
706000,0.0324,0.013523,0.002678,0.000431,0.000470
707000,0.0324,0.013523,0.002678,0.000431,0.000353
708000,0.0324,0.013523,0.002678,0.000431,0.000235
709000,0.0324,0.013523,0.002678,0.000431,0.000353
710000,0.0324,0.013523,0.002678,0.000431,0.000470
711000,0.0324,0.013523,0.002678,0.000431,0.000235
712000,0.0324,0.013523,0.002678,0.000431,0.000235
713000,0.0324,0.013523,0.002678,0.000431,0.000470
714000,0.0324,0.013523,0.002678,0.000431,0.000353
715000,0.0324,0.013523,0.002678,0.000431,0.000235
716000,0.0324,0.013523,0.002678,0.000431,0.000353
717000,0.0324,0.013523,0.002678,0.000431,0.000470
718000,0.0324,0.013523,0.002678,0.000431,0.000118
719000,0.0324,0.013523,0.002678,0.000431,0.000353
720000,0.0324,0.013523,0.002678,0.000431,0.000470
721000,0.0324,0.013523,0.002678,0.000431,0.000353
722000,0.0324,0.013523,0.002678,0.000431,0.000235
723000,0.0324,0.013523,0.002678,0.000431,0.000353
724000,0.0324,0.013523,0.002678,0.000431,0.000470
725000,0.0324,0.013523,0.002678,0.000431,0.000118
726000,0.0324,0.013523,0.002678,0.000431,0.000353
727000,0.0324,0.013523,0.002678,0.000431,0.000470
728000,0.0324,0.013523,0.002678,0.000431,0.000353
729000,0.0324,0.013523,0.002678,0.000431,0.000235
730000,0.0324,0.013523,0.002678,0.000431,0.000353
731000,0.0324,0.013523,0.002678,0.000431,0.000470
732000,0.0324,0.013523,0.002678,0.000431,0.000118
733000,0.0324,0.013523,0.002678,0.000431,0.000353
734000,0.0324,0.013523,0.002678,0.000431,0.000470
735000,0.0324,0.013523,0.002678,0.000431,0.000353
736000,0.0324,0.013523,0.002678,0.000431,0.000235
737000,0.0324,0.013523,0.002678,0.000431,0.000353
738000,0.0324,0.013523,0.002678,0.000431,0.000353
739000,0.0324,0.013523,0.002678,0.000431,0.000235
740000,0.0324,0.013523,0.002678,0.000431,0.000353
741000,0.0324,0.013523,0.002678,0.000431,0.000470
742000,0.0324,0.013523,0.002678,0.000431,0.000353
743000,0.0324,0.013523,0.002678,0.000431,0.000235
744000,0.0324,0.013523,0.002678,0.000431,0.000353
745000,0.0324,0.013523,0.002678,0.000431,0.000353
746000,0.0324,0.013523,0.002678,0.000431,0.000235
747000,0.0324,0.013523,0.002678,0.000431,0.000353
748000,0.0324,0.013523,0.002678,0.000431,0.000470
749000,0.0324,0.013523,0.002678,0.000431,0.000353
750000,0.0324,0.013523,0.002678,0.000431,0.000235
751000,0.0324,0.013523,0.002678,0.000431,0.000353
752000,0.0324,0.013523,0.002678,0.000431,0.000353
753000,0.0324,0.013523,0.002678,0.000431,0.000235
754000,0.0324,0.013523,0.002678,0.000431,0.000353
755000,0.0324,0.013523,0.002678,0.000431,0.000470
756000,0.0324,0.013523,0.002678,0.000431,0.000353
757000,0.0324,0.013523,0.002678,0.000431,0.000235
758000,0.0324,0.013523,0.002678,0.000431,0.000353
759000,0.0324,0.013523,0.002678,0.000431,0.000353
760000,0.0324,0.013523,0.002678,0.000431,0.000235
761000,0.0324,0.013523,0.002678,0.000431,0.000353
762000,0.0324,0.013523,0.002678,0.000431,0.000470
763000,0.0324,0.013523,0.002678,0.000431,0.000353
764000,0.0324,0.013523,0.002678,0.000431,0.000235
765000,0.0324,0.013523,0.002678,0.000431,0.000353
766000,0.0324,0.013523,0.002678,0.000431,0.000353
767000,0.0324,0.013523,0.002678,0.000431,0.000235
768000,0.0324,0.013523,0.002678,0.000431,0.000353
769000,0.0324,0.013523,0.002678,0.000431,0.000470
770000,0.0324,0.013523,0.002678,0.000431,0.000353
771000,0.0324,0.013523,0.002678,0.000431,0.000235
772000,0.0324,0.013523,0.002678,0.000431,0.000353
773000,0.0324,0.013523,0.002678,0.000431,0.000353
774000,0.0324,0.013523,0.002678,0.000431,0.000235
775000,0.0324,0.013523,0.002678,0.000431,0.000353
776000,0.0324,0.013523,0.002678,0.000431,0.000470
777000,0.0324,0.013523,0.002678,0.000431,0.000353
778000,0.0324,0.013523,0.002678,0.000431,0.000235
779000,0.0324,0.013523,0.002678,0.000431,0.000353
780000,0.0324,0.013523,0.002678,0.000431,0.000353
781000,0.0324,0.013523,0.002678,0.000431,0.000235
782000,0.0324,0.013523,0.002678,0.000431,0.000353
783000,0.0324,0.013523,0.002678,0.000431,0.000470
784000,0.0324,0.013523,0.002678,0.000431,0.000353
785000,0.0324,0.013523,0.002678,0.000431,0.000235
786000,0.0324,0.013523,0.002678,0.000431,0.000353
787000,0.0324,0.013523,0.002678,0.000431,0.000353
788000,0.0324,0.013523,0.002678,0.000431,0.000235
789000,0.0324,0.013523,0.002678,0.000431,0.000353
790000,0.0324,0.013523,0.002678,0.000431,0.000470
791000,0.0324,0.013523,0.002678,0.000431,0.000353
792000,0.0324,0.013523,0.002678,0.000431,0.000118
793000,0.0324,0.013523,0.002678,0.000431,0.000470
794000,0.0324,0.013523,0.002678,0.000431,0.000353
795000,0.0324,0.013523,0.002678,0.000431,0.000235
796000,0.0324,0.013523,0.002678,0.000431,0.000353
797000,0.0324,0.013523,0.002678,0.000431,0.000470
798000,0.0324,0.013523,0.002678,0.000431,0.000353
799000,0.0324,0.013523,0.002678,0.000431,0.000118
800000,0.0324,0.013523,0.002678,0.000431,0.000470
801000,0.0324,0.013523,0.002678,0.000431,0.000353
802000,0.0324,0.013523,0.002678,0.000431,0.000235
803000,0.0324,0.013523,0.002678,0.000431,0.000353
804000,0.0324,0.013523,0.002678,0.000431,0.000470
805000,0.0324,0.013523,0.002678,0.000431,0.000353
806000,0.0324,0.013523,0.002678,0.000431,0.000118
807000,0.0324,0.013523,0.002678,0.000431,0.000470
808000,0.0324,0.013523,0.002678,0.000431,0.000353
809000,0.0324,0.013523,0.002678,0.000431,0.000235
810000,0.0324,0.013523,0.002678,0.000431,0.000353
811000,0.0324,0.013523,0.002678,0.000431,0.000470
812000,0.0324,0.013523,0.002678,0.000431,0.000235
813000,0.0324,0.013523,0.002678,0.000431,0.000235
814000,0.0324,0.013523,0.002678,0.000431,0.000470
815000,0.0324,0.013523,0.002678,0.000431,0.000353
816000,0.0324,0.013523,0.002678,0.000431,0.000235
817000,0.0324,0.013523,0.002678,0.000431,0.000353
818000,0.0324,0.013523,0.002678,0.000431,0.000470
819000,0.0324,0.013523,0.002678,0.000431,0.000235
820000,0.0324,0.013523,0.002678,0.000431,0.000235
821000,0.0324,0.013523,0.002678,0.000431,0.000470
822000,0.0324,0.013523,0.002678,0.000431,0.000353
823000,0.0324,0.013523,0.002678,0.000431,0.000235
824000,0.0324,0.013523,0.002678,0.000431,0.000353
825000,0.0324,0.013523,0.002678,0.000431,0.000470
826000,0.0324,0.013523,0.002678,0.000431,0.000235
827000,0.0324,0.013523,0.002678,0.000431,0.000235
828000,0.0324,0.013523,0.002678,0.000431,0.000470
829000,0.0324,0.013523,0.002678,0.000431,0.000353
830000,0.0324,0.013523,0.002678,0.000431,0.000235
831000,0.0324,0.013523,0.002678,0.000431,0.000353
832000,0.0324,0.013523,0.002678,0.000431,0.000470
833000,0.0324,0.013523,0.002678,0.000431,0.000235
834000,0.0324,0.013523,0.002678,0.000431,0.000235
835000,0.0324,0.013523,0.002678,0.000431,0.000470
836000,0.0324,0.013523,0.002678,0.000431,0.000353
837000,0.0324,0.013523,0.002678,0.000431,0.000235
838000,0.0324,0.013523,0.002678,0.000431,0.000353
839000,0.0324,0.013523,0.002678,0.000431,0.000470
840000,0.0324,0.013523,0.002678,0.000431,0.000235
841000,0.0324,0.013523,0.002678,0.000431,0.000235
842000,0.0324,0.013523,0.002678,0.000431,0.000470
843000,0.0324,0.013523,0.002678,0.000431,0.000353
844000,0.0324,0.013523,0.002678,0.000431,0.000235
845000,0.0324,0.013523,0.002678,0.000431,0.000353
846000,0.0324,0.013523,0.002678,0.000431,0.000470
847000,0.0324,0.013523,0.002678,0.000431,0.000235
848000,0.0324,0.013523,0.002678,0.000431,0.000235
849000,0.0324,0.013523,0.002678,0.000431,0.000470
850000,0.0324,0.013523,0.002678,0.000431,0.000353
851000,0.0324,0.013523,0.002678,0.000431,0.000235
852000,0.0324,0.013523,0.002678,0.000431,0.000353
853000,0.0324,0.013523,0.002678,0.000431,0.000470
854000,0.0324,0.013523,0.002678,0.000431,0.000118
855000,0.0324,0.013523,0.002678,0.000431,0.000353
856000,0.0324,0.013523,0.002678,0.000431,0.000470
857000,0.0324,0.013523,0.002678,0.000431,0.000353
858000,0.0324,0.013523,0.002678,0.000431,0.000235
859000,0.0324,0.013523,0.002678,0.000431,0.000353
860000,0.0324,0.013523,0.002678,0.000431,0.000470
861000,0.0324,0.013523,0.002678,0.000431,0.000118
862000,0.0324,0.013523,0.002678,0.000431,0.000353
863000,0.0324,0.013523,0.002678,0.000431,0.000470
864000,0.0324,0.013523,0.002678,0.000431,0.000353
865000,0.0324,0.013523,0.002678,0.000431,0.000235
866000,0.0324,0.013523,0.002678,0.000431,0.000353
867000,0.0324,0.013523,0.002678,0.000431,0.000470
868000,0.0324,0.013523,0.002678,0.000431,0.000118
869000,0.0324,0.013523,0.002678,0.000431,0.000353
870000,0.0324,0.013523,0.002678,0.000431,0.000470
871000,0.0324,0.013523,0.002678,0.000431,0.000353
872000,0.0324,0.013523,0.002678,0.000431,0.000235
873000,0.0324,0.013523,0.002678,0.000431,0.000353
874000,0.0324,0.013523,0.002678,0.000431,0.000470
875000,0.0324,0.013523,0.002678,0.000431,0.000118
876000,0.0324,0.013523,0.002678,0.000431,0.000353
877000,0.0324,0.013523,0.002678,0.000431,0.000470
878000,0.0324,0.013523,0.002678,0.000431,0.000353
879000,0.0324,0.013523,0.002678,0.000431,0.000235
880000,0.0324,0.013523,0.002678,0.000431,0.000353
881000,0.0324,0.013523,0.002678,0.000431,0.000353
882000,0.0324,0.013523,0.002678,0.000431,0.000235
883000,0.0324,0.013523,0.002678,0.000431,0.000353
884000,0.0324,0.013523,0.002678,0.000431,0.000470
885000,0.0324,0.013523,0.002678,0.000431,0.000353
886000,0.0324,0.013523,0.002678,0.000431,0.000235
887000,0.0324,0.013523,0.002678,0.000431,0.000353
888000,0.0324,0.013523,0.002678,0.000431,0.000353
889000,0.0324,0.013523,0.002678,0.000431,0.000235
890000,0.0324,0.013523,0.002678,0.000431,0.000353
891000,0.0324,0.013523,0.002678,0.000431,0.000470
892000,0.0324,0.013523,0.002678,0.000431,0.000353
893000,0.0324,0.013523,0.002678,0.000431,0.000235
894000,0.0324,0.013523,0.002678,0.000431,0.000353
895000,0.0324,0.013523,0.002678,0.000431,0.000353
896000,0.0324,0.013523,0.002678,0.000431,0.000235
897000,0.0324,0.013523,0.002678,0.000431,0.000353
898000,0.0324,0.013523,0.002678,0.000431,0.000470
899000,0.0324,0.013523,0.002678,0.000431,0.000353
900000,0.0324,0.013523,0.002678,0.000431,0.000235
901000,0.0324,0.013523,0.002678,0.000431,0.000353
902000,0.0324,0.013523,0.002678,0.000431,0.000353
903000,0.0324,0.013523,0.002678,0.000431,0.000235
904000,0.0324,0.013523,0.002678,0.000431,0.000353
905000,0.0324,0.013523,0.002678,0.000431,0.000470
906000,0.0324,0.013523,0.002678,0.000431,0.000353
907000,0.0324,0.013523,0.002678,0.000431,0.000235
908000,0.0324,0.013523,0.002678,0.000431,0.000353
909000,0.0324,0.013523,0.002678,0.000431,0.000353
910000,0.0324,0.013523,0.002678,0.000431,0.000235
911000,0.0324,0.013523,0.002678,0.000431,0.000353
912000,0.0324,0.013523,0.002678,0.000431,0.000470
913000,0.0324,0.013523,0.002678,0.000431,0.000353
914000,0.0324,0.013523,0.002678,0.000431,0.000235
915000,0.0324,0.013523,0.002678,0.000431,0.000353
916000,0.0324,0.013523,0.002678,0.000431,0.000353
917000,0.0324,0.013523,0.002678,0.000431,0.000235
918000,0.0324,0.013523,0.002678,0.000431,0.000353
919000,0.0324,0.013523,0.002678,0.000431,0.000470
920000,0.0324,0.013523,0.002678,0.000431,0.000353
921000,0.0324,0.013523,0.002678,0.000431,0.000235
922000,0.0324,0.013523,0.002678,0.000431,0.000353
923000,0.0324,0.013523,0.002678,0.000431,0.000353
924000,0.0324,0.013523,0.002678,0.000431,0.000235
925000,0.0324,0.013523,0.002678,0.000431,0.000353
926000,0.0324,0.013523,0.002678,0.000431,0.000470
927000,0.0324,0.013523,0.002678,0.000431,0.000353
928000,0.0324,0.013523,0.002678,0.000431,0.000118
929000,0.0324,0.013523,0.002678,0.000431,0.000470
930000,0.0324,0.013523,0.002678,0.000431,0.000353
931000,0.0324,0.013523,0.002678,0.000431,0.000235
932000,0.0324,0.013523,0.002678,0.000431,0.000353
933000,0.0324,0.013523,0.002678,0.000431,0.000470
934000,0.0324,0.013523,0.002678,0.000431,0.000353
935000,0.0324,0.013523,0.002678,0.000431,0.000118
936000,0.0324,0.013523,0.002678,0.000431,0.000470
937000,0.0324,0.013523,0.002678,0.000431,0.000353
938000,0.0324,0.013523,0.002678,0.000431,0.000235
939000,0.0324,0.013523,0.002678,0.000431,0.000353
940000,0.0324,0.013523,0.002678,0.000431,0.000470
941000,0.0324,0.013523,0.002678,0.000431,0.000353
942000,0.0324,0.013523,0.002678,0.000431,0.000118
943000,0.0324,0.013523,0.002678,0.000431,0.000470
944000,0.0324,0.013523,0.002678,0.000431,0.000353
945000,0.0324,0.013523,0.002678,0.000431,0.000235
946000,0.0324,0.013523,0.002678,0.000431,0.000353
947000,0.0324,0.013523,0.002678,0.000431,0.000470
948000,0.0324,0.013523,0.002678,0.000431,0.000353
949000,0.0324,0.013523,0.002678,0.000431,0.000118
950000,0.0324,0.013523,0.002678,0.000431,0.000470
951000,0.0324,0.013523,0.002678,0.000431,0.000353
952000,0.0324,0.013523,0.002678,0.000431,0.000235
953000,0.0324,0.013523,0.002678,0.000431,0.000353
954000,0.0324,0.013523,0.002678,0.000431,0.000470
955000,0.0324,0.013523,0.002678,0.000431,0.000235
956000,0.0324,0.013523,0.002678,0.000431,0.000235
957000,0.0324,0.013523,0.002678,0.000431,0.000470
958000,0.0324,0.013523,0.002678,0.000431,0.000353
959000,0.0324,0.013523,0.002678,0.000431,0.000235
960000,0.0324,0.013523,0.002678,0.000431,0.000353
961000,0.0324,0.013523,0.002678,0.000431,0.000470
962000,0.0324,0.013523,0.002678,0.000431,0.000235
963000,0.0324,0.013523,0.002678,0.000431,0.000235
964000,0.0324,0.013523,0.002678,0.000431,0.000470
965000,0.0324,0.013523,0.002678,0.000431,0.000353
966000,0.0324,0.013523,0.002678,0.000431,0.000235
967000,0.0324,0.013523,0.002678,0.000431,0.000353
968000,0.0324,0.013523,0.002678,0.000431,0.000470
969000,0.0324,0.013523,0.002678,0.000431,0.000235
970000,0.0324,0.013523,0.002678,0.000431,0.000235
971000,0.0324,0.013523,0.002678,0.000431,0.000470
972000,0.0324,0.013523,0.002678,0.000431,0.000353
973000,0.0324,0.013523,0.002678,0.000431,0.000235
974000,0.0324,0.013523,0.002678,0.000431,0.000353
975000,0.0324,0.013523,0.002678,0.000431,0.000470
976000,0.0324,0.013523,0.002678,0.000431,0.000235
977000,0.0324,0.013523,0.002678,0.000431,0.000235
978000,0.0324,0.013523,0.002678,0.000431,0.000470
979000,0.0324,0.013523,0.002678,0.000431,0.000353
980000,0.0324,0.013523,0.002678,0.000431,0.000235
981000,0.0324,0.013523,0.002678,0.000431,0.000353
982000,0.0324,0.013523,0.002678,0.000431,0.000470
983000,0.0324,0.013523,0.002678,0.000431,0.000235
984000,0.0324,0.013523,0.002678,0.000431,0.000235
985000,0.0324,0.013523,0.002678,0.000431,0.000470
986000,0.0324,0.013523,0.002678,0.000431,0.000353
987000,0.0324,0.013523,0.002678,0.000431,0.000235
988000,0.0324,0.013523,0.002678,0.000431,0.000353
989000,0.0324,0.013523,0.002678,0.000431,0.000470
990000,0.0324,0.013523,0.002678,0.000431,0.000235
991000,0.0324,0.013523,0.002678,0.000431,0.000235
992000,0.0324,0.013523,0.002678,0.000431,0.000470
993000,0.0324,0.013523,0.002678,0.000431,0.000353
994000,0.0324,0.013523,0.002678,0.000431,0.000235
995000,0.0324,0.013523,0.002678,0.000431,0.000353
996000,0.0324,0.013523,0.002678,0.000431,0.000470
997000,0.0324,0.013523,0.002678,0.000431,0.000118
998000,0.0324,0.013523,0.002678,0.000431,0.000353
999000,0.0324,0.013523,0.002678,0.000431,0.000470
