Cycle,Area(mm^2),PeakDynamic(W),SubthresholdLeakage(W),GateLeakage(W),RunTimeDynamic(W)
15000000,0.0324,0.013523,0.002678,0.000431,0.000470
15001000,0.0324,0.013523,0.002678,0.000431,0.000353
15002000,0.0324,0.013523,0.002678,0.000431,0.000235
15003000,0.0324,0.013523,0.002678,0.000431,0.000353
15004000,0.0324,0.013523,0.002678,0.000431,0.000470
15005000,0.0324,0.013523,0.002678,0.000431,0.000235
15006000,0.0324,0.013523,0.002678,0.000431,0.000235
15007000,0.0324,0.013523,0.002678,0.000431,0.000470
15008000,0.0324,0.013523,0.002678,0.000431,0.000353
15009000,0.0324,0.013523,0.002678,0.000431,0.000235
15010000,0.0324,0.013523,0.002678,0.000431,0.000353
15011000,0.0324,0.013523,0.002678,0.000431,0.000470
15012000,0.0324,0.013523,0.002678,0.000431,0.000235
15013000,0.0324,0.013523,0.002678,0.000431,0.000235
15014000,0.0324,0.013523,0.002678,0.000431,0.000470
15015000,0.0324,0.013523,0.002678,0.000431,0.000353
15016000,0.0324,0.013523,0.002678,0.000431,0.000235
15017000,0.0324,0.013523,0.002678,0.000431,0.000353
15018000,0.0324,0.013523,0.002678,0.000431,0.000470
15019000,0.0324,0.013523,0.002678,0.000431,0.000235
15020000,0.0324,0.013523,0.002678,0.000431,0.000235
15021000,0.0324,0.013523,0.002678,0.000431,0.000470
15022000,0.0324,0.013523,0.002678,0.000431,0.000353
15023000,0.0324,0.013523,0.002678,0.000431,0.000235
15024000,0.0324,0.013523,0.002678,0.000431,0.000353
15025000,0.0324,0.013523,0.002678,0.000431,0.000470
15026000,0.0324,0.013523,0.002678,0.000431,0.000118
15027000,0.0324,0.013523,0.002678,0.000431,0.000353
15028000,0.0324,0.013523,0.002678,0.000431,0.000470
15029000,0.0324,0.013523,0.002678,0.000431,0.000353
15030000,0.0324,0.013523,0.002678,0.000431,0.000235
15031000,0.0324,0.013523,0.002678,0.000431,0.000353
15032000,0.0324,0.013523,0.002678,0.000431,0.000470
15033000,0.0324,0.013523,0.002678,0.000431,0.000118
15034000,0.0324,0.013523,0.002678,0.000431,0.000353
15035000,0.0324,0.013523,0.002678,0.000431,0.000470
15036000,0.0324,0.013523,0.002678,0.000431,0.000353
15037000,0.0324,0.013523,0.002678,0.000431,0.000235
15038000,0.0324,0.013523,0.002678,0.000431,0.000353
15039000,0.0324,0.013523,0.002678,0.000431,0.000470
15040000,0.0324,0.013523,0.002678,0.000431,0.000118
15041000,0.0324,0.013523,0.002678,0.000431,0.000353
15042000,0.0324,0.013523,0.002678,0.000431,0.000470
15043000,0.0324,0.013523,0.002678,0.000431,0.000353
15044000,0.0324,0.013523,0.002678,0.000431,0.000235
15045000,0.0324,0.013523,0.002678,0.000431,0.000353
15046000,0.0324,0.013523,0.002678,0.000431,0.000353
15047000,0.0324,0.013523,0.002678,0.000431,0.000235
15048000,0.0324,0.013523,0.002678,0.000431,0.000353
15049000,0.0324,0.013523,0.002678,0.000431,0.000470
15050000,0.0324,0.013523,0.002678,0.000431,0.000353
15051000,0.0324,0.013523,0.002678,0.000431,0.000235
15052000,0.0324,0.013523,0.002678,0.000431,0.000353
15053000,0.0324,0.013523,0.002678,0.000431,0.000353
15054000,0.0324,0.013523,0.002678,0.000431,0.000235
15055000,0.0324,0.013523,0.002678,0.000431,0.000353
15056000,0.0324,0.013523,0.002678,0.000431,0.000470
15057000,0.0324,0.013523,0.002678,0.000431,0.000353
15058000,0.0324,0.013523,0.002678,0.000431,0.000235
15059000,0.0324,0.013523,0.002678,0.000431,0.000353
15060000,0.0324,0.013523,0.002678,0.000431,0.000353
15061000,0.0324,0.013523,0.002678,0.000431,0.000235
15062000,0.0324,0.013523,0.002678,0.000431,0.000353
15063000,0.0324,0.013523,0.002678,0.000431,0.000470
15064000,0.0324,0.013523,0.002678,0.000431,0.000353
15065000,0.0324,0.013523,0.002678,0.000431,0.000235
15066000,0.0324,0.013523,0.002678,0.000431,0.000353
15067000,0.0324,0.013523,0.002678,0.000431,0.000353
15068000,0.0324,0.013523,0.002678,0.000431,0.000235
15069000,0.0324,0.013523,0.002678,0.000431,0.000353
15070000,0.0324,0.013523,0.002678,0.000431,0.000470
15071000,0.0324,0.013523,0.002678,0.000431,0.000353
15072000,0.0324,0.013523,0.002678,0.000431,0.000235
15073000,0.0324,0.013523,0.002678,0.000431,0.000353
15074000,0.0324,0.013523,0.002678,0.000431,0.000353
15075000,0.0324,0.013523,0.002678,0.000431,0.000235
15076000,0.0324,0.013523,0.002678,0.000431,0.000353
15077000,0.0324,0.013523,0.002678,0.000431,0.000470
15078000,0.0324,0.013523,0.002678,0.000431,0.000353
15079000,0.0324,0.013523,0.002678,0.000431,0.000235
15080000,0.0324,0.013523,0.002678,0.000431,0.000353
15081000,0.0324,0.013523,0.002678,0.000431,0.000353
15082000,0.0324,0.013523,0.002678,0.000431,0.000235
15083000,0.0324,0.013523,0.002678,0.000431,0.000353
15084000,0.0324,0.013523,0.002678,0.000431,0.000470
15085000,0.0324,0.013523,0.002678,0.000431,0.000353
15086000,0.0324,0.013523,0.002678,0.000431,0.000235
15087000,0.0324,0.013523,0.002678,0.000431,0.000353
15088000,0.0324,0.013523,0.002678,0.000431,0.000353
15089000,0.0324,0.013523,0.002678,0.000431,0.000235
15090000,0.0324,0.013523,0.002678,0.000431,0.000353
15091000,0.0324,0.013523,0.002678,0.000431,0.000470
15092000,0.0324,0.013523,0.002678,0.000431,0.000353
15093000,0.0324,0.013523,0.002678,0.000431,0.000235
15094000,0.0324,0.013523,0.002678,0.000431,0.000353
15095000,0.0324,0.013523,0.002678,0.000431,0.000353
15096000,0.0324,0.013523,0.002678,0.000431,0.000235
15097000,0.0324,0.013523,0.002678,0.000431,0.000353
15098000,0.0324,0.013523,0.002678,0.000431,0.000470
15099000,0.0324,0.013523,0.002678,0.000431,0.000353
15100000,0.0324,0.013523,0.002678,0.000431,0.000118
15101000,0.0324,0.013523,0.002678,0.000431,0.000470
15102000,0.0324,0.013523,0.002678,0.000431,0.000353
15103000,0.0324,0.013523,0.002678,0.000431,0.000235
15104000,0.0324,0.013523,0.002678,0.000431,0.000353
15105000,0.0324,0.013523,0.002678,0.000431,0.000470
15106000,0.0324,0.013523,0.002678,0.000431,0.000353
15107000,0.0324,0.013523,0.002678,0.000431,0.000118
15108000,0.0324,0.013523,0.002678,0.000431,0.000470
15109000,0.0324,0.013523,0.002678,0.000431,0.000353
15110000,0.0324,0.013523,0.002678,0.000431,0.000235
15111000,0.0324,0.013523,0.002678,0.000431,0.000353
15112000,0.0324,0.013523,0.002678,0.000431,0.000470
15113000,0.0324,0.013523,0.002678,0.000431,0.000353
15114000,0.0324,0.013523,0.002678,0.000431,0.000118
15115000,0.0324,0.013523,0.002678,0.000431,0.000470
15116000,0.0324,0.013523,0.002678,0.000431,0.000353
15117000,0.0324,0.013523,0.002678,0.000431,0.000235
15118000,0.0324,0.013523,0.002678,0.000431,0.000353
15119000,0.0324,0.013523,0.002678,0.000431,0.000470
15120000,0.0324,0.013523,0.002678,0.000431,0.000235
15121000,0.0324,0.013523,0.002678,0.000431,0.000235
15122000,0.0324,0.013523,0.002678,0.000431,0.000470
15123000,0.0324,0.013523,0.002678,0.000431,0.000353
15124000,0.0324,0.013523,0.002678,0.000431,0.000235
15125000,0.0324,0.013523,0.002678,0.000431,0.000353
15126000,0.0324,0.013523,0.002678,0.000431,0.000470
15127000,0.0324,0.013523,0.002678,0.000431,0.000235
15128000,0.0324,0.013523,0.002678,0.000431,0.000235
15129000,0.0324,0.013523,0.002678,0.000431,0.000470
15130000,0.0324,0.013523,0.002678,0.000431,0.000353
15131000,0.0324,0.013523,0.002678,0.000431,0.000235
15132000,0.0324,0.013523,0.002678,0.000431,0.000353
15133000,0.0324,0.013523,0.002678,0.000431,0.000470
15134000,0.0324,0.013523,0.002678,0.000431,0.000235
15135000,0.0324,0.013523,0.002678,0.000431,0.000235
15136000,0.0324,0.013523,0.002678,0.000431,0.000470
15137000,0.0324,0.013523,0.002678,0.000431,0.000353
15138000,0.0324,0.013523,0.002678,0.000431,0.000235
15139000,0.0324,0.013523,0.002678,0.000431,0.000353
15140000,0.0324,0.013523,0.002678,0.000431,0.000470
15141000,0.0324,0.013523,0.002678,0.000431,0.000235
15142000,0.0324,0.013523,0.002678,0.000431,0.000235
15143000,0.0324,0.013523,0.002678,0.000431,0.000470
15144000,0.0324,0.013523,0.002678,0.000431,0.000353
15145000,0.0324,0.013523,0.002678,0.000431,0.000235
15146000,0.0324,0.013523,0.002678,0.000431,0.000353
15147000,0.0324,0.013523,0.002678,0.000431,0.000470
15148000,0.0324,0.013523,0.002678,0.000431,0.000118
15149000,0.0324,0.013523,0.002678,0.000431,0.000353
15150000,0.0324,0.013523,0.002678,0.000431,0.000470
15151000,0.0324,0.013523,0.002678,0.000431,0.000353
15152000,0.0324,0.013523,0.002678,0.000431,0.000235
15153000,0.0324,0.013523,0.002678,0.000431,0.000353
15154000,0.0324,0.013523,0.002678,0.000431,0.000470
15155000,0.0324,0.013523,0.002678,0.000431,0.000118
15156000,0.0324,0.013523,0.002678,0.000431,0.000353
15157000,0.0324,0.013523,0.002678,0.000431,0.000470
15158000,0.0324,0.013523,0.002678,0.000431,0.000353
15159000,0.0324,0.013523,0.002678,0.000431,0.000235
15160000,0.0324,0.013523,0.002678,0.000431,0.000353
15161000,0.0324,0.013523,0.002678,0.000431,0.000353
15162000,0.0324,0.013523,0.002678,0.000431,0.000235
15163000,0.0324,0.013523,0.002678,0.000431,0.000353
15164000,0.0324,0.013523,0.002678,0.000431,0.000470
15165000,0.0324,0.013523,0.002678,0.000431,0.000353
15166000,0.0324,0.013523,0.002678,0.000431,0.000235
15167000,0.0324,0.013523,0.002678,0.000431,0.000353
15168000,0.0324,0.013523,0.002678,0.000431,0.000353
15169000,0.0324,0.013523,0.002678,0.000431,0.000235
15170000,0.0324,0.013523,0.002678,0.000431,0.000353
15171000,0.0324,0.013523,0.002678,0.000431,0.000470
15172000,0.0324,0.013523,0.002678,0.000431,0.000353
15173000,0.0324,0.013523,0.002678,0.000431,0.000118
15174000,0.0324,0.013523,0.002678,0.000431,0.000470
15175000,0.0324,0.013523,0.002678,0.000431,0.000353
15176000,0.0324,0.013523,0.002678,0.000431,0.000235
15177000,0.0324,0.013523,0.002678,0.000431,0.000353
15178000,0.0324,0.013523,0.002678,0.000431,0.000470
15179000,0.0324,0.013523,0.002678,0.000431,0.000235
15180000,0.0324,0.013523,0.002678,0.000431,0.000235
15181000,0.0324,0.013523,0.002678,0.000431,0.000470
15182000,0.0324,0.013523,0.002678,0.000431,0.000353
15183000,0.0324,0.013523,0.002678,0.000431,0.000235
15184000,0.0324,0.013523,0.002678,0.000431,0.000353
15185000,0.0324,0.013523,0.002678,0.000431,0.000470
15186000,0.0324,0.013523,0.002678,0.000431,0.000235
15187000,0.0324,0.013523,0.002678,0.000431,0.000235
15188000,0.0324,0.013523,0.002678,0.000431,0.000470
15189000,0.0324,0.013523,0.002678,0.000431,0.000353
15190000,0.0324,0.013523,0.002678,0.000431,0.000235
15191000,0.0324,0.013523,0.002678,0.000431,0.000353
15192000,0.0324,0.013523,0.002678,0.000431,0.000470
15193000,0.0324,0.013523,0.002678,0.000431,0.000118
15194000,0.0324,0.013523,0.002678,0.000431,0.000353
15195000,0.0324,0.013523,0.002678,0.000431,0.000470
15196000,0.0324,0.013523,0.002678,0.000431,0.000353
15197000,0.0324,0.013523,0.002678,0.000431,0.000235
15198000,0.0324,0.013523,0.002678,0.000431,0.000353
15199000,0.0324,0.013523,0.002678,0.000431,0.000353
15200000,0.0324,0.013523,0.002678,0.000431,0.000235
15201000,0.0324,0.013523,0.002678,0.000431,0.000353
15202000,0.0324,0.013523,0.002678,0.000431,0.000470
15203000,0.0324,0.013523,0.002678,0.000431,0.000353
15204000,0.0324,0.013523,0.002678,0.000431,0.000235
15205000,0.0324,0.013523,0.002678,0.000431,0.000353
15206000,0.0324,0.013523,0.002678,0.000431,0.000353
15207000,0.0324,0.013523,0.002678,0.000431,0.000235
15208000,0.0324,0.013523,0.002678,0.000431,0.000353
15209000,0.0324,0.013523,0.002678,0.000431,0.000470
15210000,0.0324,0.013523,0.002678,0.000431,0.000353
15211000,0.0324,0.013523,0.002678,0.000431,0.000235
15212000,0.0324,0.013523,0.002678,0.000431,0.000353
15213000,0.0324,0.013523,0.002678,0.000431,0.000353
15214000,0.0324,0.013523,0.002678,0.000431,0.000235
15215000,0.0324,0.013523,0.002678,0.000431,0.000353
15216000,0.0324,0.013523,0.002678,0.000431,0.000470
15217000,0.0324,0.013523,0.002678,0.000431,0.000353
15218000,0.0324,0.013523,0.002678,0.000431,0.000118
15219000,0.0324,0.013523,0.002678,0.000431,0.000470
15220000,0.0324,0.013523,0.002678,0.000431,0.000353
15221000,0.0324,0.013523,0.002678,0.000431,0.000235
15222000,0.0324,0.013523,0.002678,0.000431,0.000353
15223000,0.0324,0.013523,0.002678,0.000431,0.000470
15224000,0.0324,0.013523,0.002678,0.000431,0.000235
15225000,0.0324,0.013523,0.002678,0.000431,0.000235
15226000,0.0324,0.013523,0.002678,0.000431,0.000470
15227000,0.0324,0.013523,0.002678,0.000431,0.000353
15228000,0.0324,0.013523,0.002678,0.000431,0.000235
15229000,0.0324,0.013523,0.002678,0.000431,0.000353
15230000,0.0324,0.013523,0.002678,0.000431,0.000470
15231000,0.0324,0.013523,0.002678,0.000431,0.000235
15232000,0.0324,0.013523,0.002678,0.000431,0.000235
15233000,0.0324,0.013523,0.002678,0.000431,0.000470
15234000,0.0324,0.013523,0.002678,0.000431,0.000353
15235000,0.0324,0.013523,0.002678,0.000431,0.000235
15236000,0.0324,0.013523,0.002678,0.000431,0.000353
15237000,0.0324,0.013523,0.002678,0.000431,0.000470
15238000,0.0324,0.013523,0.002678,0.000431,0.000118
15239000,0.0324,0.013523,0.002678,0.000431,0.000353
15240000,0.0324,0.013523,0.002678,0.000431,0.000470
15241000,0.0324,0.013523,0.002678,0.000431,0.000353
15242000,0.0324,0.013523,0.002678,0.000431,0.000235
15243000,0.0324,0.013523,0.002678,0.000431,0.000353
15244000,0.0324,0.013523,0.002678,0.000431,0.000353
15245000,0.0324,0.013523,0.002678,0.000431,0.000235
15246000,0.0324,0.013523,0.002678,0.000431,0.000353
15247000,0.0324,0.013523,0.002678,0.000431,0.000470
15248000,0.0324,0.013523,0.002678,0.000431,0.000353
15249000,0.0324,0.013523,0.002678,0.000431,0.000235
15250000,0.0324,0.013523,0.002678,0.000431,0.000353
15251000,0.0324,0.013523,0.002678,0.000431,0.000353
15252000,0.0324,0.013523,0.002678,0.000431,0.000235
15253000,0.0324,0.013523,0.002678,0.000431,0.000353
15254000,0.0324,0.013523,0.002678,0.000431,0.000470
15255000,0.0324,0.013523,0.002678,0.000431,0.000353
15256000,0.0324,0.013523,0.002678,0.000431,0.000235
15257000,0.0324,0.013523,0.002678,0.000431,0.000353
15258000,0.0324,0.013523,0.002678,0.000431,0.000353
15259000,0.0324,0.013523,0.002678,0.000431,0.000235
15260000,0.0324,0.013523,0.002678,0.000431,0.000353
15261000,0.0324,0.013523,0.002678,0.000431,0.000470
15262000,0.0324,0.013523,0.002678,0.000431,0.000235
15263000,0.0324,0.013523,0.002678,0.000431,0.000235
15264000,0.0324,0.013523,0.002678,0.000431,0.000470
15265000,0.0324,0.013523,0.002678,0.000431,0.000353
15266000,0.0324,0.013523,0.002678,0.000431,0.000235
15267000,0.0324,0.013523,0.002678,0.000431,0.000353
15268000,0.0324,0.013523,0.002678,0.000431,0.000470
15269000,0.0324,0.013523,0.002678,0.000431,0.000235
15270000,0.0324,0.013523,0.002678,0.000431,0.000235
15271000,0.0324,0.013523,0.002678,0.000431,0.000470
15272000,0.0324,0.013523,0.002678,0.000431,0.000353
15273000,0.0324,0.013523,0.002678,0.000431,0.000235
15274000,0.0324,0.013523,0.002678,0.000431,0.000353
15275000,0.0324,0.013523,0.002678,0.000431,0.000470
15276000,0.0324,0.013523,0.002678,0.000431,0.000118
15277000,0.0324,0.013523,0.002678,0.000431,0.000353
15278000,0.0324,0.013523,0.002678,0.000431,0.000470
15279000,0.0324,0.013523,0.002678,0.000431,0.000353
15280000,0.0324,0.013523,0.002678,0.000431,0.000235
15281000,0.0324,0.013523,0.002678,0.000431,0.000353
15282000,0.0324,0.013523,0.002678,0.000431,0.000470
15283000,0.0324,0.013523,0.002678,0.000431,0.000118
15284000,0.0324,0.013523,0.002678,0.000431,0.000353
15285000,0.0324,0.013523,0.002678,0.000431,0.000470
15286000,0.0324,0.013523,0.002678,0.000431,0.000353
15287000,0.0324,0.013523,0.002678,0.000431,0.000235
15288000,0.0324,0.013523,0.002678,0.000431,0.000353
15289000,0.0324,0.013523,0.002678,0.000431,0.000470
15290000,0.0324,0.013523,0.002678,0.000431,0.000118
15291000,0.0324,0.013523,0.002678,0.000431,0.000353
15292000,0.0324,0.013523,0.002678,0.000431,0.000470
15293000,0.0324,0.013523,0.002678,0.000431,0.000353
15294000,0.0324,0.013523,0.002678,0.000431,0.000235
15295000,0.0324,0.013523,0.002678,0.000431,0.000353
15296000,0.0324,0.013523,0.002678,0.000431,0.000353
15297000,0.0324,0.013523,0.002678,0.000431,0.000235
15298000,0.0324,0.013523,0.002678,0.000431,0.000353
15299000,0.0324,0.013523,0.002678,0.000431,0.000470
15300000,0.0324,0.013523,0.002678,0.000431,0.000353
15301000,0.0324,0.013523,0.002678,0.000431,0.000235
15302000,0.0324,0.013523,0.002678,0.000431,0.000353
15303000,0.0324,0.013523,0.002678,0.000431,0.000353
15304000,0.0324,0.013523,0.002678,0.000431,0.000235
15305000,0.0324,0.013523,0.002678,0.000431,0.000353
15306000,0.0324,0.013523,0.002678,0.000431,0.000470
15307000,0.0324,0.013523,0.002678,0.000431,0.000353
15308000,0.0324,0.013523,0.002678,0.000431,0.000235
15309000,0.0324,0.013523,0.002678,0.000431,0.000353
15310000,0.0324,0.013523,0.002678,0.000431,0.000353
15311000,0.0324,0.013523,0.002678,0.000431,0.000235
15312000,0.0324,0.013523,0.002678,0.000431,0.000353
15313000,0.0324,0.013523,0.002678,0.000431,0.000470
15314000,0.0324,0.013523,0.002678,0.000431,0.000353
15315000,0.0324,0.013523,0.002678,0.000431,0.000235
15316000,0.0324,0.013523,0.002678,0.000431,0.000353
15317000,0.0324,0.013523,0.002678,0.000431,0.000353
15318000,0.0324,0.013523,0.002678,0.000431,0.000235
15319000,0.0324,0.013523,0.002678,0.000431,0.000353
15320000,0.0324,0.013523,0.002678,0.000431,0.000470
15321000,0.0324,0.013523,0.002678,0.000431,0.000353
15322000,0.0324,0.013523,0.002678,0.000431,0.000235
15323000,0.0324,0.013523,0.002678,0.000431,0.000353
15324000,0.0324,0.013523,0.002678,0.000431,0.000353
15325000,0.0324,0.013523,0.002678,0.000431,0.000235
15326000,0.0324,0.013523,0.002678,0.000431,0.000353
15327000,0.0324,0.013523,0.002678,0.000431,0.000470
15328000,0.0324,0.013523,0.002678,0.000431,0.000353
15329000,0.0324,0.013523,0.002678,0.000431,0.000235
15330000,0.0324,0.013523,0.002678,0.000431,0.000353
15331000,0.0324,0.013523,0.002678,0.000431,0.000353
15332000,0.0324,0.013523,0.002678,0.000431,0.000235
15333000,0.0324,0.013523,0.002678,0.000431,0.000353
15334000,0.0324,0.013523,0.002678,0.000431,0.000470
15335000,0.0324,0.013523,0.002678,0.000431,0.000353
15336000,0.0324,0.013523,0.002678,0.000431,0.000235
15337000,0.0324,0.013523,0.002678,0.000431,0.000353
15338000,0.0324,0.013523,0.002678,0.000431,0.000353
15339000,0.0324,0.013523,0.002678,0.000431,0.000235
15340000,0.0324,0.013523,0.002678,0.000431,0.000353
15341000,0.0324,0.013523,0.002678,0.000431,0.000470
15342000,0.0324,0.013523,0.002678,0.000431,0.000353
15343000,0.0324,0.013523,0.002678,0.000431,0.000235
15344000,0.0324,0.013523,0.002678,0.000431,0.000353
15345000,0.0324,0.013523,0.002678,0.000431,0.000353
15346000,0.0324,0.013523,0.002678,0.000431,0.000235
15347000,0.0324,0.013523,0.002678,0.000431,0.000353
15348000,0.0324,0.013523,0.002678,0.000431,0.000470
15349000,0.0324,0.013523,0.002678,0.000431,0.000353
15350000,0.0324,0.013523,0.002678,0.000431,0.000118
15351000,0.0324,0.013523,0.002678,0.000431,0.000470
15352000,0.0324,0.013523,0.002678,0.000431,0.000353
15353000,0.0324,0.013523,0.002678,0.000431,0.000235
15354000,0.0324,0.013523,0.002678,0.000431,0.000353
15355000,0.0324,0.013523,0.002678,0.000431,0.000470
15356000,0.0324,0.013523,0.002678,0.000431,0.000353
15357000,0.0324,0.013523,0.002678,0.000431,0.000118
15358000,0.0324,0.013523,0.002678,0.000431,0.000470
15359000,0.0324,0.013523,0.002678,0.000431,0.000353
15360000,0.0324,0.013523,0.002678,0.000431,0.000235
15361000,0.0324,0.013523,0.002678,0.000431,0.000353
15362000,0.0324,0.013523,0.002678,0.000431,0.000470
15363000,0.0324,0.013523,0.002678,0.000431,0.000353
15364000,0.0324,0.013523,0.002678,0.000431,0.000118
15365000,0.0324,0.013523,0.002678,0.000431,0.000470
15366000,0.0324,0.013523,0.002678,0.000431,0.000353
15367000,0.0324,0.013523,0.002678,0.000431,0.000235
15368000,0.0324,0.013523,0.002678,0.000431,0.000353
15369000,0.0324,0.013523,0.002678,0.000431,0.000470
15370000,0.0324,0.013523,0.002678,0.000431,0.000235
15371000,0.0324,0.013523,0.002678,0.000431,0.000235
15372000,0.0324,0.013523,0.002678,0.000431,0.000470
15373000,0.0324,0.013523,0.002678,0.000431,0.000353
15374000,0.0324,0.013523,0.002678,0.000431,0.000235
15375000,0.0324,0.013523,0.002678,0.000431,0.000353
15376000,0.0324,0.013523,0.002678,0.000431,0.000470
15377000,0.0324,0.013523,0.002678,0.000431,0.000235
15378000,0.0324,0.013523,0.002678,0.000431,0.000235
15379000,0.0324,0.013523,0.002678,0.000431,0.000470
15380000,0.0324,0.013523,0.002678,0.000431,0.000353
15381000,0.0324,0.013523,0.002678,0.000431,0.000235
15382000,0.0324,0.013523,0.002678,0.000431,0.000353
15383000,0.0324,0.013523,0.002678,0.000431,0.000470
15384000,0.0324,0.013523,0.002678,0.000431,0.000235
15385000,0.0324,0.013523,0.002678,0.000431,0.000235
15386000,0.0324,0.013523,0.002678,0.000431,0.000470
15387000,0.0324,0.013523,0.002678,0.000431,0.000353
15388000,0.0324,0.013523,0.002678,0.000431,0.000235
15389000,0.0324,0.013523,0.002678,0.000431,0.000353
15390000,0.0324,0.013523,0.002678,0.000431,0.000470
15391000,0.0324,0.013523,0.002678,0.000431,0.000235
15392000,0.0324,0.013523,0.002678,0.000431,0.000235
15393000,0.0324,0.013523,0.002678,0.000431,0.000470
15394000,0.0324,0.013523,0.002678,0.000431,0.000353
15395000,0.0324,0.013523,0.002678,0.000431,0.000235
15396000,0.0324,0.013523,0.002678,0.000431,0.000353
15397000,0.0324,0.013523,0.002678,0.000431,0.000470
15398000,0.0324,0.013523,0.002678,0.000431,0.000235
15399000,0.0324,0.013523,0.002678,0.000431,0.000235
15400000,0.0324,0.013523,0.002678,0.000431,0.000470
15401000,0.0324,0.013523,0.002678,0.000431,0.000353
15402000,0.0324,0.013523,0.002678,0.000431,0.000235
15403000,0.0324,0.013523,0.002678,0.000431,0.000353
15404000,0.0324,0.013523,0.002678,0.000431,0.000470
15405000,0.0324,0.013523,0.002678,0.000431,0.000235
15406000,0.0324,0.013523,0.002678,0.000431,0.000235
15407000,0.0324,0.013523,0.002678,0.000431,0.000470
15408000,0.0324,0.013523,0.002678,0.000431,0.000353
15409000,0.0324,0.013523,0.002678,0.000431,0.000235
15410000,0.0324,0.013523,0.002678,0.000431,0.000353
15411000,0.0324,0.013523,0.002678,0.000431,0.000470
15412000,0.0324,0.013523,0.002678,0.000431,0.000118
15413000,0.0324,0.013523,0.002678,0.000431,0.000353
15414000,0.0324,0.013523,0.002678,0.000431,0.000470
15415000,0.0324,0.013523,0.002678,0.000431,0.000353
15416000,0.0324,0.013523,0.002678,0.000431,0.000235
15417000,0.0324,0.013523,0.002678,0.000431,0.000353
15418000,0.0324,0.013523,0.002678,0.000431,0.000470
15419000,0.0324,0.013523,0.002678,0.000431,0.000118
15420000,0.0324,0.013523,0.002678,0.000431,0.000353
15421000,0.0324,0.013523,0.002678,0.000431,0.000470
15422000,0.0324,0.013523,0.002678,0.000431,0.000353
15423000,0.0324,0.013523,0.002678,0.000431,0.000235
15424000,0.0324,0.013523,0.002678,0.000431,0.000353
15425000,0.0324,0.013523,0.002678,0.000431,0.000470
15426000,0.0324,0.013523,0.002678,0.000431,0.000118
15427000,0.0324,0.013523,0.002678,0.000431,0.000353
15428000,0.0324,0.013523,0.002678,0.000431,0.000470
15429000,0.0324,0.013523,0.002678,0.000431,0.000353
15430000,0.0324,0.013523,0.002678,0.000431,0.000235
15431000,0.0324,0.013523,0.002678,0.000431,0.000353
15432000,0.0324,0.013523,0.002678,0.000431,0.000470
15433000,0.0324,0.013523,0.002678,0.000431,0.000118
15434000,0.0324,0.013523,0.002678,0.000431,0.000353
15435000,0.0324,0.013523,0.002678,0.000431,0.000470
15436000,0.0324,0.013523,0.002678,0.000431,0.000353
15437000,0.0324,0.013523,0.002678,0.000431,0.000235
15438000,0.0324,0.013523,0.002678,0.000431,0.000353
15439000,0.0324,0.013523,0.002678,0.000431,0.000353
15440000,0.0324,0.013523,0.002678,0.000431,0.000235
15441000,0.0324,0.013523,0.002678,0.000431,0.000353
15442000,0.0324,0.013523,0.002678,0.000431,0.000470
15443000,0.0324,0.013523,0.002678,0.000431,0.000353
15444000,0.0324,0.013523,0.002678,0.000431,0.000235
15445000,0.0324,0.013523,0.002678,0.000431,0.000353
15446000,0.0324,0.013523,0.002678,0.000431,0.000353
15447000,0.0324,0.013523,0.002678,0.000431,0.000235
15448000,0.0324,0.013523,0.002678,0.000431,0.000353
15449000,0.0324,0.013523,0.002678,0.000431,0.000470
15450000,0.0324,0.013523,0.002678,0.000431,0.000353
15451000,0.0324,0.013523,0.002678,0.000431,0.000235
15452000,0.0324,0.013523,0.002678,0.000431,0.000353
15453000,0.0324,0.013523,0.002678,0.000431,0.000353
15454000,0.0324,0.013523,0.002678,0.000431,0.000235
15455000,0.0324,0.013523,0.002678,0.000431,0.000353
15456000,0.0324,0.013523,0.002678,0.000431,0.000470
15457000,0.0324,0.013523,0.002678,0.000431,0.000353
15458000,0.0324,0.013523,0.002678,0.000431,0.000235
15459000,0.0324,0.013523,0.002678,0.000431,0.000353
15460000,0.0324,0.013523,0.002678,0.000431,0.000353
15461000,0.0324,0.013523,0.002678,0.000431,0.000235
15462000,0.0324,0.013523,0.002678,0.000431,0.000353
15463000,0.0324,0.013523,0.002678,0.000431,0.000470
15464000,0.0324,0.013523,0.002678,0.000431,0.000353
15465000,0.0324,0.013523,0.002678,0.000431,0.000235
15466000,0.0324,0.013523,0.002678,0.000431,0.000353
15467000,0.0324,0.013523,0.002678,0.000431,0.000353
15468000,0.0324,0.013523,0.002678,0.000431,0.000235
15469000,0.0324,0.013523,0.002678,0.000431,0.000353
15470000,0.0324,0.013523,0.002678,0.000431,0.000470
15471000,0.0324,0.013523,0.002678,0.000431,0.000353
15472000,0.0324,0.013523,0.002678,0.000431,0.000235
15473000,0.0324,0.013523,0.002678,0.000431,0.000353
15474000,0.0324,0.013523,0.002678,0.000431,0.000353
15475000,0.0324,0.013523,0.002678,0.000431,0.000235
15476000,0.0324,0.013523,0.002678,0.000431,0.000353
15477000,0.0324,0.013523,0.002678,0.000431,0.000470
15478000,0.0324,0.013523,0.002678,0.000431,0.000353
15479000,0.0324,0.013523,0.002678,0.000431,0.000235
15480000,0.0324,0.013523,0.002678,0.000431,0.000353
15481000,0.0324,0.013523,0.002678,0.000431,0.000353
15482000,0.0324,0.013523,0.002678,0.000431,0.000235
15483000,0.0324,0.013523,0.002678,0.000431,0.000353
15484000,0.0324,0.013523,0.002678,0.000431,0.000470
15485000,0.0324,0.013523,0.002678,0.000431,0.000353
15486000,0.0324,0.013523,0.002678,0.000431,0.000118
15487000,0.0324,0.013523,0.002678,0.000431,0.000470
15488000,0.0324,0.013523,0.002678,0.000431,0.000353
15489000,0.0324,0.013523,0.002678,0.000431,0.000235
15490000,0.0324,0.013523,0.002678,0.000431,0.000353
15491000,0.0324,0.013523,0.002678,0.000431,0.000470
15492000,0.0324,0.013523,0.002678,0.000431,0.000353
15493000,0.0324,0.013523,0.002678,0.000431,0.000118
15494000,0.0324,0.013523,0.002678,0.000431,0.000470
15495000,0.0324,0.013523,0.002678,0.000431,0.000353
15496000,0.0324,0.013523,0.002678,0.000431,0.000235
15497000,0.0324,0.013523,0.002678,0.000431,0.000353
15498000,0.0324,0.013523,0.002678,0.000431,0.000470
15499000,0.0324,0.013523,0.002678,0.000431,0.000353
15500000,0.0324,0.013523,0.002678,0.000431,0.000118
15501000,0.0324,0.013523,0.002678,0.000431,0.000470
15502000,0.0324,0.013523,0.002678,0.000431,0.000353
15503000,0.0324,0.013523,0.002678,0.000431,0.000235
15504000,0.0324,0.013523,0.002678,0.000431,0.000353
15505000,0.0324,0.013523,0.002678,0.000431,0.000470
15506000,0.0324,0.013523,0.002678,0.000431,0.000353
15507000,0.0324,0.013523,0.002678,0.000431,0.000118
15508000,0.0324,0.013523,0.002678,0.000431,0.000470
15509000,0.0324,0.013523,0.002678,0.000431,0.000353
15510000,0.0324,0.013523,0.002678,0.000431,0.000235
15511000,0.0324,0.013523,0.002678,0.000431,0.000353
15512000,0.0324,0.013523,0.002678,0.000431,0.000470
15513000,0.0324,0.013523,0.002678,0.000431,0.000235
15514000,0.0324,0.013523,0.002678,0.000431,0.000235
15515000,0.0324,0.013523,0.002678,0.000431,0.000470
15516000,0.0324,0.013523,0.002678,0.000431,0.000353
15517000,0.0324,0.013523,0.002678,0.000431,0.000235
15518000,0.0324,0.013523,0.002678,0.000431,0.000353
15519000,0.0324,0.013523,0.002678,0.000431,0.000470
15520000,0.0324,0.013523,0.002678,0.000431,0.000235
15521000,0.0324,0.013523,0.002678,0.000431,0.000235
15522000,0.0324,0.013523,0.002678,0.000431,0.000470
15523000,0.0324,0.013523,0.002678,0.000431,0.000353
15524000,0.0324,0.013523,0.002678,0.000431,0.000235
15525000,0.0324,0.013523,0.002678,0.000431,0.000353
15526000,0.0324,0.013523,0.002678,0.000431,0.000470
15527000,0.0324,0.013523,0.002678,0.000431,0.000235
15528000,0.0324,0.013523,0.002678,0.000431,0.000235
15529000,0.0324,0.013523,0.002678,0.000431,0.000470
15530000,0.0324,0.013523,0.002678,0.000431,0.000353
15531000,0.0324,0.013523,0.002678,0.000431,0.000235
15532000,0.0324,0.013523,0.002678,0.000431,0.000353
15533000,0.0324,0.013523,0.002678,0.000431,0.000470
15534000,0.0324,0.013523,0.002678,0.000431,0.000235
15535000,0.0324,0.013523,0.002678,0.000431,0.000235
15536000,0.0324,0.013523,0.002678,0.000431,0.000470
15537000,0.0324,0.013523,0.002678,0.000431,0.000353
15538000,0.0324,0.013523,0.002678,0.000431,0.000235
15539000,0.0324,0.013523,0.002678,0.000431,0.000353
15540000,0.0324,0.013523,0.002678,0.000431,0.000470
15541000,0.0324,0.013523,0.002678,0.000431,0.000235
15542000,0.0324,0.013523,0.002678,0.000431,0.000235
15543000,0.0324,0.013523,0.002678,0.000431,0.000470
15544000,0.0324,0.013523,0.002678,0.000431,0.000353
15545000,0.0324,0.013523,0.002678,0.000431,0.000235
15546000,0.0324,0.013523,0.002678,0.000431,0.000353
15547000,0.0324,0.013523,0.002678,0.000431,0.000470
15548000,0.0324,0.013523,0.002678,0.000431,0.000235
15549000,0.0324,0.013523,0.002678,0.000431,0.000235
15550000,0.0324,0.013523,0.002678,0.000431,0.000470
15551000,0.0324,0.013523,0.002678,0.000431,0.000353
15552000,0.0324,0.013523,0.002678,0.000431,0.000235
15553000,0.0324,0.013523,0.002678,0.000431,0.000353
15554000,0.0324,0.013523,0.002678,0.000431,0.000470
15555000,0.0324,0.013523,0.002678,0.000431,0.000118
15556000,0.0324,0.013523,0.002678,0.000431,0.000353
15557000,0.0324,0.013523,0.002678,0.000431,0.000470
15558000,0.0324,0.013523,0.002678,0.000431,0.000353
15559000,0.0324,0.013523,0.002678,0.000431,0.000235
15560000,0.0324,0.013523,0.002678,0.000431,0.000353
15561000,0.0324,0.013523,0.002678,0.000431,0.000470
15562000,0.0324,0.013523,0.002678,0.000431,0.000118
15563000,0.0324,0.013523,0.002678,0.000431,0.000353
15564000,0.0324,0.013523,0.002678,0.000431,0.000470
15565000,0.0324,0.013523,0.002678,0.000431,0.000353
15566000,0.0324,0.013523,0.002678,0.000431,0.000235
15567000,0.0324,0.013523,0.002678,0.000431,0.000353
15568000,0.0324,0.013523,0.002678,0.000431,0.000470
15569000,0.0324,0.013523,0.002678,0.000431,0.000118
15570000,0.0324,0.013523,0.002678,0.000431,0.000353
15571000,0.0324,0.013523,0.002678,0.000431,0.000470
15572000,0.0324,0.013523,0.002678,0.000431,0.000353
15573000,0.0324,0.013523,0.002678,0.000431,0.000235
15574000,0.0324,0.013523,0.002678,0.000431,0.000353
15575000,0.0324,0.013523,0.002678,0.000431,0.000353
15576000,0.0324,0.013523,0.002678,0.000431,0.000235
15577000,0.0324,0.013523,0.002678,0.000431,0.000353
15578000,0.0324,0.013523,0.002678,0.000431,0.000470
15579000,0.0324,0.013523,0.002678,0.000431,0.000353
15580000,0.0324,0.013523,0.002678,0.000431,0.000235
15581000,0.0324,0.013523,0.002678,0.000431,0.000353
15582000,0.0324,0.013523,0.002678,0.000431,0.000353
15583000,0.0324,0.013523,0.002678,0.000431,0.000235
15584000,0.0324,0.013523,0.002678,0.000431,0.000353
15585000,0.0324,0.013523,0.002678,0.000431,0.000470
15586000,0.0324,0.013523,0.002678,0.000431,0.000353
15587000,0.0324,0.013523,0.002678,0.000431,0.000235
15588000,0.0324,0.013523,0.002678,0.000431,0.000353
15589000,0.0324,0.013523,0.002678,0.000431,0.000353
15590000,0.0324,0.013523,0.002678,0.000431,0.000235
15591000,0.0324,0.013523,0.002678,0.000431,0.000353
15592000,0.0324,0.013523,0.002678,0.000431,0.000470
15593000,0.0324,0.013523,0.002678,0.000431,0.000353
15594000,0.0324,0.013523,0.002678,0.000431,0.000235
15595000,0.0324,0.013523,0.002678,0.000431,0.000353
15596000,0.0324,0.013523,0.002678,0.000431,0.000353
15597000,0.0324,0.013523,0.002678,0.000431,0.000235
15598000,0.0324,0.013523,0.002678,0.000431,0.000353
15599000,0.0324,0.013523,0.002678,0.000431,0.000470
15600000,0.0324,0.013523,0.002678,0.000431,0.000353
15601000,0.0324,0.013523,0.002678,0.000431,0.000235
15602000,0.0324,0.013523,0.002678,0.000431,0.000353
15603000,0.0324,0.013523,0.002678,0.000431,0.000353
15604000,0.0324,0.013523,0.002678,0.000431,0.000235
15605000,0.0324,0.013523,0.002678,0.000431,0.000353
15606000,0.0324,0.013523,0.002678,0.000431,0.000470
15607000,0.0324,0.013523,0.002678,0.000431,0.000353
15608000,0.0324,0.013523,0.002678,0.000431,0.000235
15609000,0.0324,0.013523,0.002678,0.000431,0.000353
15610000,0.0324,0.013523,0.002678,0.000431,0.000353
15611000,0.0324,0.013523,0.002678,0.000431,0.000235
15612000,0.0324,0.013523,0.002678,0.000431,0.000353
15613000,0.0324,0.013523,0.002678,0.000431,0.000470
15614000,0.0324,0.013523,0.002678,0.000431,0.000353
15615000,0.0324,0.013523,0.002678,0.000431,0.000235
15616000,0.0324,0.013523,0.002678,0.000431,0.000353
15617000,0.0324,0.013523,0.002678,0.000431,0.000353
15618000,0.0324,0.013523,0.002678,0.000431,0.000235
15619000,0.0324,0.013523,0.002678,0.000431,0.000353
15620000,0.0324,0.013523,0.002678,0.000431,0.000470
15621000,0.0324,0.013523,0.002678,0.000431,0.000353
15622000,0.0324,0.013523,0.002678,0.000431,0.000235
15623000,0.0324,0.013523,0.002678,0.000431,0.000353
15624000,0.0324,0.013523,0.002678,0.000431,0.000353
15625000,0.0324,0.013523,0.002678,0.000431,0.000235
15626000,0.0324,0.013523,0.002678,0.000431,0.000353
15627000,0.0324,0.013523,0.002678,0.000431,0.000470
15628000,0.0324,0.013523,0.002678,0.000431,0.000353
15629000,0.0324,0.013523,0.002678,0.000431,0.000118
15630000,0.0324,0.013523,0.002678,0.000431,0.000470
15631000,0.0324,0.013523,0.002678,0.000431,0.000353
15632000,0.0324,0.013523,0.002678,0.000431,0.000235
15633000,0.0324,0.013523,0.002678,0.000431,0.000353
15634000,0.0324,0.013523,0.002678,0.000431,0.000470
15635000,0.0324,0.013523,0.002678,0.000431,0.000353
15636000,0.0324,0.013523,0.002678,0.000431,0.000118
15637000,0.0324,0.013523,0.002678,0.000431,0.000470
15638000,0.0324,0.013523,0.002678,0.000431,0.000353
15639000,0.0324,0.013523,0.002678,0.000431,0.000235
15640000,0.0324,0.013523,0.002678,0.000431,0.000353
15641000,0.0324,0.013523,0.002678,0.000431,0.000470
15642000,0.0324,0.013523,0.002678,0.000431,0.000353
15643000,0.0324,0.013523,0.002678,0.000431,0.000118
15644000,0.0324,0.013523,0.002678,0.000431,0.000470
15645000,0.0324,0.013523,0.002678,0.000431,0.000353
15646000,0.0324,0.013523,0.002678,0.000431,0.000235
15647000,0.0324,0.013523,0.002678,0.000431,0.000353
15648000,0.0324,0.013523,0.002678,0.000431,0.000470
15649000,0.0324,0.013523,0.002678,0.000431,0.000353
15650000,0.0324,0.013523,0.002678,0.000431,0.000118
15651000,0.0324,0.013523,0.002678,0.000431,0.000470
15652000,0.0324,0.013523,0.002678,0.000431,0.000353
15653000,0.0324,0.013523,0.002678,0.000431,0.000235
15654000,0.0324,0.013523,0.002678,0.000431,0.000353
15655000,0.0324,0.013523,0.002678,0.000431,0.000470
15656000,0.0324,0.013523,0.002678,0.000431,0.000235
15657000,0.0324,0.013523,0.002678,0.000431,0.000235
15658000,0.0324,0.013523,0.002678,0.000431,0.000470
15659000,0.0324,0.013523,0.002678,0.000431,0.000353
15660000,0.0324,0.013523,0.002678,0.000431,0.000235
15661000,0.0324,0.013523,0.002678,0.000431,0.000353
15662000,0.0324,0.013523,0.002678,0.000431,0.000470
15663000,0.0324,0.013523,0.002678,0.000431,0.000235
15664000,0.0324,0.013523,0.002678,0.000431,0.000235
15665000,0.0324,0.013523,0.002678,0.000431,0.000470
15666000,0.0324,0.013523,0.002678,0.000431,0.000353
15667000,0.0324,0.013523,0.002678,0.000431,0.000235
15668000,0.0324,0.013523,0.002678,0.000431,0.000353
15669000,0.0324,0.013523,0.002678,0.000431,0.000470
15670000,0.0324,0.013523,0.002678,0.000431,0.000235
15671000,0.0324,0.013523,0.002678,0.000431,0.000235
15672000,0.0324,0.013523,0.002678,0.000431,0.000470
15673000,0.0324,0.013523,0.002678,0.000431,0.000353
15674000,0.0324,0.013523,0.002678,0.000431,0.000235
15675000,0.0324,0.013523,0.002678,0.000431,0.000353
15676000,0.0324,0.013523,0.002678,0.000431,0.000470
15677000,0.0324,0.013523,0.002678,0.000431,0.000235
15678000,0.0324,0.013523,0.002678,0.000431,0.000235
15679000,0.0324,0.013523,0.002678,0.000431,0.000470
15680000,0.0324,0.013523,0.002678,0.000431,0.000353
15681000,0.0324,0.013523,0.002678,0.000431,0.000235
15682000,0.0324,0.013523,0.002678,0.000431,0.000353
15683000,0.0324,0.013523,0.002678,0.000431,0.000470
15684000,0.0324,0.013523,0.002678,0.000431,0.000235
15685000,0.0324,0.013523,0.002678,0.000431,0.000235
15686000,0.0324,0.013523,0.002678,0.000431,0.000470
15687000,0.0324,0.013523,0.002678,0.000431,0.000353
15688000,0.0324,0.013523,0.002678,0.000431,0.000235
15689000,0.0324,0.013523,0.002678,0.000431,0.000353
15690000,0.0324,0.013523,0.002678,0.000431,0.000470
15691000,0.0324,0.013523,0.002678,0.000431,0.000118
15692000,0.0324,0.013523,0.002678,0.000431,0.000353
15693000,0.0324,0.013523,0.002678,0.000431,0.000470
15694000,0.0324,0.013523,0.002678,0.000431,0.000353
15695000,0.0324,0.013523,0.002678,0.000431,0.000235
15696000,0.0324,0.013523,0.002678,0.000431,0.000353
15697000,0.0324,0.013523,0.002678,0.000431,0.000470
15698000,0.0324,0.013523,0.002678,0.000431,0.000118
15699000,0.0324,0.013523,0.002678,0.000431,0.000353
15700000,0.0324,0.013523,0.002678,0.000431,0.000470
15701000,0.0324,0.013523,0.002678,0.000431,0.000353
15702000,0.0324,0.013523,0.002678,0.000431,0.000235
15703000,0.0324,0.013523,0.002678,0.000431,0.000353
15704000,0.0324,0.013523,0.002678,0.000431,0.000470
15705000,0.0324,0.013523,0.002678,0.000431,0.000118
15706000,0.0324,0.013523,0.002678,0.000431,0.000353
15707000,0.0324,0.013523,0.002678,0.000431,0.000470
15708000,0.0324,0.013523,0.002678,0.000431,0.000353
15709000,0.0324,0.013523,0.002678,0.000431,0.000235
15710000,0.0324,0.013523,0.002678,0.000431,0.000353
15711000,0.0324,0.013523,0.002678,0.000431,0.000470
15712000,0.0324,0.013523,0.002678,0.000431,0.000118
15713000,0.0324,0.013523,0.002678,0.000431,0.000353
15714000,0.0324,0.013523,0.002678,0.000431,0.000470
15715000,0.0324,0.013523,0.002678,0.000431,0.000353
15716000,0.0324,0.013523,0.002678,0.000431,0.000235
15717000,0.0324,0.013523,0.002678,0.000431,0.000353
15718000,0.0324,0.013523,0.002678,0.000431,0.000353
15719000,0.0324,0.013523,0.002678,0.000431,0.000235
15720000,0.0324,0.013523,0.002678,0.000431,0.000353
15721000,0.0324,0.013523,0.002678,0.000431,0.000470
15722000,0.0324,0.013523,0.002678,0.000431,0.000353
15723000,0.0324,0.013523,0.002678,0.000431,0.000235
15724000,0.0324,0.013523,0.002678,0.000431,0.000353
15725000,0.0324,0.013523,0.002678,0.000431,0.000353
15726000,0.0324,0.013523,0.002678,0.000431,0.000235
15727000,0.0324,0.013523,0.002678,0.000431,0.000353
15728000,0.0324,0.013523,0.002678,0.000431,0.000470
15729000,0.0324,0.013523,0.002678,0.000431,0.000353
15730000,0.0324,0.013523,0.002678,0.000431,0.000235
15731000,0.0324,0.013523,0.002678,0.000431,0.000353
15732000,0.0324,0.013523,0.002678,0.000431,0.000353
15733000,0.0324,0.013523,0.002678,0.000431,0.000235
15734000,0.0324,0.013523,0.002678,0.000431,0.000353
15735000,0.0324,0.013523,0.002678,0.000431,0.000470
15736000,0.0324,0.013523,0.002678,0.000431,0.000353
15737000,0.0324,0.013523,0.002678,0.000431,0.000235
15738000,0.0324,0.013523,0.002678,0.000431,0.000353
15739000,0.0324,0.013523,0.002678,0.000431,0.000353
15740000,0.0324,0.013523,0.002678,0.000431,0.000235
15741000,0.0324,0.013523,0.002678,0.000431,0.000353
15742000,0.0324,0.013523,0.002678,0.000431,0.000470
15743000,0.0324,0.013523,0.002678,0.000431,0.000353
15744000,0.0324,0.013523,0.002678,0.000431,0.000235
15745000,0.0324,0.013523,0.002678,0.000431,0.000353
15746000,0.0324,0.013523,0.002678,0.000431,0.000353
15747000,0.0324,0.013523,0.002678,0.000431,0.000235
15748000,0.0324,0.013523,0.002678,0.000431,0.000353
15749000,0.0324,0.013523,0.002678,0.000431,0.000470
15750000,0.0324,0.013523,0.002678,0.000431,0.000353
15751000,0.0324,0.013523,0.002678,0.000431,0.000235
15752000,0.0324,0.013523,0.002678,0.000431,0.000353
15753000,0.0324,0.013523,0.002678,0.000431,0.000353
15754000,0.0324,0.013523,0.002678,0.000431,0.000235
15755000,0.0324,0.013523,0.002678,0.000431,0.000353
15756000,0.0324,0.013523,0.002678,0.000431,0.000470
15757000,0.0324,0.013523,0.002678,0.000431,0.000353
15758000,0.0324,0.013523,0.002678,0.000431,0.000235
15759000,0.0324,0.013523,0.002678,0.000431,0.000353
15760000,0.0324,0.013523,0.002678,0.000431,0.000353
15761000,0.0324,0.013523,0.002678,0.000431,0.000235
15762000,0.0324,0.013523,0.002678,0.000431,0.000353
15763000,0.0324,0.013523,0.002678,0.000431,0.000470
15764000,0.0324,0.013523,0.002678,0.000431,0.000353
15765000,0.0324,0.013523,0.002678,0.000431,0.000235
15766000,0.0324,0.013523,0.002678,0.000431,0.000353
15767000,0.0324,0.013523,0.002678,0.000431,0.000353
15768000,0.0324,0.013523,0.002678,0.000431,0.000235
15769000,0.0324,0.013523,0.002678,0.000431,0.000353
15770000,0.0324,0.013523,0.002678,0.000431,0.000470
15771000,0.0324,0.013523,0.002678,0.000431,0.000353
15772000,0.0324,0.013523,0.002678,0.000431,0.000118
15773000,0.0324,0.013523,0.002678,0.000431,0.000470
15774000,0.0324,0.013523,0.002678,0.000431,0.000353
15775000,0.0324,0.013523,0.002678,0.000431,0.000235
15776000,0.0324,0.013523,0.002678,0.000431,0.000353
15777000,0.0324,0.013523,0.002678,0.000431,0.000470
15778000,0.0324,0.013523,0.002678,0.000431,0.000353
15779000,0.0324,0.013523,0.002678,0.000431,0.000118
15780000,0.0324,0.013523,0.002678,0.000431,0.000470
15781000,0.0324,0.013523,0.002678,0.000431,0.000353
15782000,0.0324,0.013523,0.002678,0.000431,0.000235
15783000,0.0324,0.013523,0.002678,0.000431,0.000353
15784000,0.0324,0.013523,0.002678,0.000431,0.000470
15785000,0.0324,0.013523,0.002678,0.000431,0.000353
15786000,0.0324,0.013523,0.002678,0.000431,0.000118
15787000,0.0324,0.013523,0.002678,0.000431,0.000470
15788000,0.0324,0.013523,0.002678,0.000431,0.000353
15789000,0.0324,0.013523,0.002678,0.000431,0.000235
15790000,0.0324,0.013523,0.002678,0.000431,0.000353
15791000,0.0324,0.013523,0.002678,0.000431,0.000470
15792000,0.0324,0.013523,0.002678,0.000431,0.000235
15793000,0.0324,0.013523,0.002678,0.000431,0.000235
15794000,0.0324,0.013523,0.002678,0.000431,0.000470
15795000,0.0324,0.013523,0.002678,0.000431,0.000353
15796000,0.0324,0.013523,0.002678,0.000431,0.000235
15797000,0.0324,0.013523,0.002678,0.000431,0.000353
15798000,0.0324,0.013523,0.002678,0.000431,0.000470
15799000,0.0324,0.013523,0.002678,0.000431,0.000235
15800000,0.0324,0.013523,0.002678,0.000431,0.000235
15801000,0.0324,0.013523,0.002678,0.000431,0.000470
15802000,0.0324,0.013523,0.002678,0.000431,0.000353
15803000,0.0324,0.013523,0.002678,0.000431,0.000235
15804000,0.0324,0.013523,0.002678,0.000431,0.000353
15805000,0.0324,0.013523,0.002678,0.000431,0.000470
15806000,0.0324,0.013523,0.002678,0.000431,0.000235
15807000,0.0324,0.013523,0.002678,0.000431,0.000235
15808000,0.0324,0.013523,0.002678,0.000431,0.000470
15809000,0.0324,0.013523,0.002678,0.000431,0.000353
15810000,0.0324,0.013523,0.002678,0.000431,0.000235
15811000,0.0324,0.013523,0.002678,0.000431,0.000353
15812000,0.0324,0.013523,0.002678,0.000431,0.000470
15813000,0.0324,0.013523,0.002678,0.000431,0.000235
15814000,0.0324,0.013523,0.002678,0.000431,0.000235
15815000,0.0324,0.013523,0.002678,0.000431,0.000470
15816000,0.0324,0.013523,0.002678,0.000431,0.000353
15817000,0.0324,0.013523,0.002678,0.000431,0.000235
15818000,0.0324,0.013523,0.002678,0.000431,0.000353
15819000,0.0324,0.013523,0.002678,0.000431,0.000470
15820000,0.0324,0.013523,0.002678,0.000431,0.000235
15821000,0.0324,0.013523,0.002678,0.000431,0.000235
15822000,0.0324,0.013523,0.002678,0.000431,0.000470
15823000,0.0324,0.013523,0.002678,0.000431,0.000353
15824000,0.0324,0.013523,0.002678,0.000431,0.000235
15825000,0.0324,0.013523,0.002678,0.000431,0.000353
15826000,0.0324,0.013523,0.002678,0.000431,0.000470
15827000,0.0324,0.013523,0.002678,0.000431,0.000235
15828000,0.0324,0.013523,0.002678,0.000431,0.000235
15829000,0.0324,0.013523,0.002678,0.000431,0.000470
15830000,0.0324,0.013523,0.002678,0.000431,0.000353
15831000,0.0324,0.013523,0.002678,0.000431,0.000235
15832000,0.0324,0.013523,0.002678,0.000431,0.000353
15833000,0.0324,0.013523,0.002678,0.000431,0.000470
15834000,0.0324,0.013523,0.002678,0.000431,0.000118
15835000,0.0324,0.013523,0.002678,0.000431,0.000353
15836000,0.0324,0.013523,0.002678,0.000431,0.000470
15837000,0.0324,0.013523,0.002678,0.000431,0.000353
15838000,0.0324,0.013523,0.002678,0.000431,0.000235
15839000,0.0324,0.013523,0.002678,0.000431,0.000353
15840000,0.0324,0.013523,0.002678,0.000431,0.000470
15841000,0.0324,0.013523,0.002678,0.000431,0.000118
15842000,0.0324,0.013523,0.002678,0.000431,0.000353
15843000,0.0324,0.013523,0.002678,0.000431,0.000470
15844000,0.0324,0.013523,0.002678,0.000431,0.000353
15845000,0.0324,0.013523,0.002678,0.000431,0.000235
15846000,0.0324,0.013523,0.002678,0.000431,0.000353
15847000,0.0324,0.013523,0.002678,0.000431,0.000470
15848000,0.0324,0.013523,0.002678,0.000431,0.000118
15849000,0.0324,0.013523,0.002678,0.000431,0.000353
15850000,0.0324,0.013523,0.002678,0.000431,0.000470
15851000,0.0324,0.013523,0.002678,0.000431,0.000353
15852000,0.0324,0.013523,0.002678,0.000431,0.000235
15853000,0.0324,0.013523,0.002678,0.000431,0.000353
15854000,0.0324,0.013523,0.002678,0.000431,0.000470
15855000,0.0324,0.013523,0.002678,0.000431,0.000118
15856000,0.0324,0.013523,0.002678,0.000431,0.000353
15857000,0.0324,0.013523,0.002678,0.000431,0.000470
15858000,0.0324,0.013523,0.002678,0.000431,0.000353
15859000,0.0324,0.013523,0.002678,0.000431,0.000235
15860000,0.0324,0.013523,0.002678,0.000431,0.000353
15861000,0.0324,0.013523,0.002678,0.000431,0.000353
15862000,0.0324,0.013523,0.002678,0.000431,0.000235
15863000,0.0324,0.013523,0.002678,0.000431,0.000353
15864000,0.0324,0.013523,0.002678,0.000431,0.000470
15865000,0.0324,0.013523,0.002678,0.000431,0.000353
15866000,0.0324,0.013523,0.002678,0.000431,0.000235
15867000,0.0324,0.013523,0.002678,0.000431,0.000353
15868000,0.0324,0.013523,0.002678,0.000431,0.000353
15869000,0.0324,0.013523,0.002678,0.000431,0.000235
15870000,0.0324,0.013523,0.002678,0.000431,0.000353
15871000,0.0324,0.013523,0.002678,0.000431,0.000470
15872000,0.0324,0.013523,0.002678,0.000431,0.000353
15873000,0.0324,0.013523,0.002678,0.000431,0.000235
15874000,0.0324,0.013523,0.002678,0.000431,0.000353
15875000,0.0324,0.013523,0.002678,0.000431,0.000353
15876000,0.0324,0.013523,0.002678,0.000431,0.000235
15877000,0.0324,0.013523,0.002678,0.000431,0.000353
15878000,0.0324,0.013523,0.002678,0.000431,0.000470
15879000,0.0324,0.013523,0.002678,0.000431,0.000353
15880000,0.0324,0.013523,0.002678,0.000431,0.000235
15881000,0.0324,0.013523,0.002678,0.000431,0.000353
15882000,0.0324,0.013523,0.002678,0.000431,0.000353
15883000,0.0324,0.013523,0.002678,0.000431,0.000235
15884000,0.0324,0.013523,0.002678,0.000431,0.000353
15885000,0.0324,0.013523,0.002678,0.000431,0.000470
15886000,0.0324,0.013523,0.002678,0.000431,0.000353
15887000,0.0324,0.013523,0.002678,0.000431,0.000235
15888000,0.0324,0.013523,0.002678,0.000431,0.000353
15889000,0.0324,0.013523,0.002678,0.000431,0.000353
15890000,0.0324,0.013523,0.002678,0.000431,0.000235
15891000,0.0324,0.013523,0.002678,0.000431,0.000353
15892000,0.0324,0.013523,0.002678,0.000431,0.000470
15893000,0.0324,0.013523,0.002678,0.000431,0.000353
15894000,0.0324,0.013523,0.002678,0.000431,0.000235
15895000,0.0324,0.013523,0.002678,0.000431,0.000353
15896000,0.0324,0.013523,0.002678,0.000431,0.000353
15897000,0.0324,0.013523,0.002678,0.000431,0.000235
15898000,0.0324,0.013523,0.002678,0.000431,0.000353
15899000,0.0324,0.013523,0.002678,0.000431,0.000470
15900000,0.0324,0.013523,0.002678,0.000431,0.000353
15901000,0.0324,0.013523,0.002678,0.000431,0.000235
15902000,0.0324,0.013523,0.002678,0.000431,0.000353
15903000,0.0324,0.013523,0.002678,0.000431,0.000353
15904000,0.0324,0.013523,0.002678,0.000431,0.000235
15905000,0.0324,0.013523,0.002678,0.000431,0.000353
15906000,0.0324,0.013523,0.002678,0.000431,0.000470
15907000,0.0324,0.013523,0.002678,0.000431,0.000353
15908000,0.0324,0.013523,0.002678,0.000431,0.000118
15909000,0.0324,0.013523,0.002678,0.000431,0.000470
15910000,0.0324,0.013523,0.002678,0.000431,0.000353
15911000,0.0324,0.013523,0.002678,0.000431,0.000235
15912000,0.0324,0.013523,0.002678,0.000431,0.000353
15913000,0.0324,0.013523,0.002678,0.000431,0.000470
15914000,0.0324,0.013523,0.002678,0.000431,0.000353
15915000,0.0324,0.013523,0.002678,0.000431,0.000118
15916000,0.0324,0.013523,0.002678,0.000431,0.000470
15917000,0.0324,0.013523,0.002678,0.000431,0.000353
15918000,0.0324,0.013523,0.002678,0.000431,0.000235
15919000,0.0324,0.013523,0.002678,0.000431,0.000353
15920000,0.0324,0.013523,0.002678,0.000431,0.000470
15921000,0.0324,0.013523,0.002678,0.000431,0.000353
15922000,0.0324,0.013523,0.002678,0.000431,0.000118
15923000,0.0324,0.013523,0.002678,0.000431,0.000470
15924000,0.0324,0.013523,0.002678,0.000431,0.000353
15925000,0.0324,0.013523,0.002678,0.000431,0.000235
15926000,0.0324,0.013523,0.002678,0.000431,0.000353
15927000,0.0324,0.013523,0.002678,0.000431,0.000470
15928000,0.0324,0.013523,0.002678,0.000431,0.000353
15929000,0.0324,0.013523,0.002678,0.000431,0.000118
15930000,0.0324,0.013523,0.002678,0.000431,0.000470
15931000,0.0324,0.013523,0.002678,0.000431,0.000353
15932000,0.0324,0.013523,0.002678,0.000431,0.000235
15933000,0.0324,0.013523,0.002678,0.000431,0.000353
15934000,0.0324,0.013523,0.002678,0.000431,0.000470
15935000,0.0324,0.013523,0.002678,0.000431,0.000235
15936000,0.0324,0.013523,0.002678,0.000431,0.000235
15937000,0.0324,0.013523,0.002678,0.000431,0.000470
15938000,0.0324,0.013523,0.002678,0.000431,0.000353
15939000,0.0324,0.013523,0.002678,0.000431,0.000235
15940000,0.0324,0.013523,0.002678,0.000431,0.000353
15941000,0.0324,0.013523,0.002678,0.000431,0.000470
15942000,0.0324,0.013523,0.002678,0.000431,0.000235
15943000,0.0324,0.013523,0.002678,0.000431,0.000235
15944000,0.0324,0.013523,0.002678,0.000431,0.000470
15945000,0.0324,0.013523,0.002678,0.000431,0.000353
15946000,0.0324,0.013523,0.002678,0.000431,0.000235
15947000,0.0324,0.013523,0.002678,0.000431,0.000353
15948000,0.0324,0.013523,0.002678,0.000431,0.000470
15949000,0.0324,0.013523,0.002678,0.000431,0.000235
15950000,0.0324,0.013523,0.002678,0.000431,0.000235
15951000,0.0324,0.013523,0.002678,0.000431,0.000470
15952000,0.0324,0.013523,0.002678,0.000431,0.000353
15953000,0.0324,0.013523,0.002678,0.000431,0.000235
15954000,0.0324,0.013523,0.002678,0.000431,0.000353
15955000,0.0324,0.013523,0.002678,0.000431,0.000470
15956000,0.0324,0.013523,0.002678,0.000431,0.000235
15957000,0.0324,0.013523,0.002678,0.000431,0.000235
15958000,0.0324,0.013523,0.002678,0.000431,0.000470
15959000,0.0324,0.013523,0.002678,0.000431,0.000353
15960000,0.0324,0.013523,0.002678,0.000431,0.000235
15961000,0.0324,0.013523,0.002678,0.000431,0.000353
15962000,0.0324,0.013523,0.002678,0.000431,0.000470
15963000,0.0324,0.013523,0.002678,0.000431,0.000235
15964000,0.0324,0.013523,0.002678,0.000431,0.000235
15965000,0.0324,0.013523,0.002678,0.000431,0.000470
15966000,0.0324,0.013523,0.002678,0.000431,0.000353
15967000,0.0324,0.013523,0.002678,0.000431,0.000235
15968000,0.0324,0.013523,0.002678,0.000431,0.000353
15969000,0.0324,0.013523,0.002678,0.000431,0.000470
15970000,0.0324,0.013523,0.002678,0.000431,0.000235
15971000,0.0324,0.013523,0.002678,0.000431,0.000235
15972000,0.0324,0.013523,0.002678,0.000431,0.000470
15973000,0.0324,0.013523,0.002678,0.000431,0.000353
15974000,0.0324,0.013523,0.002678,0.000431,0.000235
15975000,0.0324,0.013523,0.002678,0.000431,0.000353
15976000,0.0324,0.013523,0.002678,0.000431,0.000470
15977000,0.0324,0.013523,0.002678,0.000431,0.000118
15978000,0.0324,0.013523,0.002678,0.000431,0.000353
15979000,0.0324,0.013523,0.002678,0.000431,0.000470
15980000,0.0324,0.013523,0.002678,0.000431,0.000353
15981000,0.0324,0.013523,0.002678,0.000431,0.000235
15982000,0.0324,0.013523,0.002678,0.000431,0.000353
15983000,0.0324,0.013523,0.002678,0.000431,0.000470
15984000,0.0324,0.013523,0.002678,0.000431,0.000118
15985000,0.0324,0.013523,0.002678,0.000431,0.000353
15986000,0.0324,0.013523,0.002678,0.000431,0.000470
15987000,0.0324,0.013523,0.002678,0.000431,0.000353
15988000,0.0324,0.013523,0.002678,0.000431,0.000235
15989000,0.0324,0.013523,0.002678,0.000431,0.000353
15990000,0.0324,0.013523,0.002678,0.000431,0.000470
15991000,0.0324,0.013523,0.002678,0.000431,0.000118
15992000,0.0324,0.013523,0.002678,0.000431,0.000353
15993000,0.0324,0.013523,0.002678,0.000431,0.000470
15994000,0.0324,0.013523,0.002678,0.000431,0.000353
15995000,0.0324,0.013523,0.002678,0.000431,0.000235
15996000,0.0324,0.013523,0.002678,0.000431,0.000353
15997000,0.0324,0.013523,0.002678,0.000431,0.000353
15998000,0.0324,0.013523,0.002678,0.000431,0.000235
15999000,0.0324,0.013523,0.002678,0.000431,0.000353
