Cycle,Area(mm^2),PeakDynamic(W),SubthresholdLeakage(W),GateLeakage(W),RunTimeDynamic(W)
38000000,0.0324,0.013523,0.002678,0.000431,0.000470
38001000,0.0324,0.013523,0.002678,0.000431,0.000353
38002000,0.0324,0.013523,0.002678,0.000431,0.000235
38003000,0.0324,0.013523,0.002678,0.000431,0.000353
38004000,0.0324,0.013523,0.002678,0.000431,0.000470
38005000,0.0324,0.013523,0.002678,0.000431,0.000235
38006000,0.0324,0.013523,0.002678,0.000431,0.000235
38007000,0.0324,0.013523,0.002678,0.000431,0.000470
38008000,0.0324,0.013523,0.002678,0.000431,0.000353
38009000,0.0324,0.013523,0.002678,0.000431,0.000235
38010000,0.0324,0.013523,0.002678,0.000431,0.000353
38011000,0.0324,0.013523,0.002678,0.000431,0.000470
38012000,0.0324,0.013523,0.002678,0.000431,0.000235
38013000,0.0324,0.013523,0.002678,0.000431,0.000235
38014000,0.0324,0.013523,0.002678,0.000431,0.000470
38015000,0.0324,0.013523,0.002678,0.000431,0.000353
38016000,0.0324,0.013523,0.002678,0.000431,0.000235
38017000,0.0324,0.013523,0.002678,0.000431,0.000353
38018000,0.0324,0.013523,0.002678,0.000431,0.000470
38019000,0.0324,0.013523,0.002678,0.000431,0.000235
38020000,0.0324,0.013523,0.002678,0.000431,0.000235
38021000,0.0324,0.013523,0.002678,0.000431,0.000470
38022000,0.0324,0.013523,0.002678,0.000431,0.000353
38023000,0.0324,0.013523,0.002678,0.000431,0.000235
38024000,0.0324,0.013523,0.002678,0.000431,0.000353
38025000,0.0324,0.013523,0.002678,0.000431,0.000470
38026000,0.0324,0.013523,0.002678,0.000431,0.000235
38027000,0.0324,0.013523,0.002678,0.000431,0.000235
38028000,0.0324,0.013523,0.002678,0.000431,0.000470
38029000,0.0324,0.013523,0.002678,0.000431,0.000353
38030000,0.0324,0.013523,0.002678,0.000431,0.000235
38031000,0.0324,0.013523,0.002678,0.000431,0.000353
38032000,0.0324,0.013523,0.002678,0.000431,0.000470
38033000,0.0324,0.013523,0.002678,0.000431,0.000235
38034000,0.0324,0.013523,0.002678,0.000431,0.000235
38035000,0.0324,0.013523,0.002678,0.000431,0.000470
38036000,0.0324,0.013523,0.002678,0.000431,0.000353
38037000,0.0324,0.013523,0.002678,0.000431,0.000235
38038000,0.0324,0.013523,0.002678,0.000431,0.000353
38039000,0.0324,0.013523,0.002678,0.000431,0.000470
38040000,0.0324,0.013523,0.002678,0.000431,0.000235
38041000,0.0324,0.013523,0.002678,0.000431,0.000235
38042000,0.0324,0.013523,0.002678,0.000431,0.000470
38043000,0.0324,0.013523,0.002678,0.000431,0.000353
38044000,0.0324,0.013523,0.002678,0.000431,0.000235
38045000,0.0324,0.013523,0.002678,0.000431,0.000353
38046000,0.0324,0.013523,0.002678,0.000431,0.000470
38047000,0.0324,0.013523,0.002678,0.000431,0.000118
38048000,0.0324,0.013523,0.002678,0.000431,0.000353
38049000,0.0324,0.013523,0.002678,0.000431,0.000470
38050000,0.0324,0.013523,0.002678,0.000431,0.000353
38051000,0.0324,0.013523,0.002678,0.000431,0.000235
38052000,0.0324,0.013523,0.002678,0.000431,0.000353
38053000,0.0324,0.013523,0.002678,0.000431,0.000470
38054000,0.0324,0.013523,0.002678,0.000431,0.000118
38055000,0.0324,0.013523,0.002678,0.000431,0.000353
38056000,0.0324,0.013523,0.002678,0.000431,0.000470
38057000,0.0324,0.013523,0.002678,0.000431,0.000353
38058000,0.0324,0.013523,0.002678,0.000431,0.000235
38059000,0.0324,0.013523,0.002678,0.000431,0.000353
38060000,0.0324,0.013523,0.002678,0.000431,0.000470
38061000,0.0324,0.013523,0.002678,0.000431,0.000118
38062000,0.0324,0.013523,0.002678,0.000431,0.000353
38063000,0.0324,0.013523,0.002678,0.000431,0.000470
38064000,0.0324,0.013523,0.002678,0.000431,0.000353
38065000,0.0324,0.013523,0.002678,0.000431,0.000235
38066000,0.0324,0.013523,0.002678,0.000431,0.000353
38067000,0.0324,0.013523,0.002678,0.000431,0.000470
38068000,0.0324,0.013523,0.002678,0.000431,0.000118
38069000,0.0324,0.013523,0.002678,0.000431,0.000353
38070000,0.0324,0.013523,0.002678,0.000431,0.000470
38071000,0.0324,0.013523,0.002678,0.000431,0.000353
38072000,0.0324,0.013523,0.002678,0.000431,0.000235
38073000,0.0324,0.013523,0.002678,0.000431,0.000353
38074000,0.0324,0.013523,0.002678,0.000431,0.000353
38075000,0.0324,0.013523,0.002678,0.000431,0.000235
38076000,0.0324,0.013523,0.002678,0.000431,0.000353
38077000,0.0324,0.013523,0.002678,0.000431,0.000470
38078000,0.0324,0.013523,0.002678,0.000431,0.000353
38079000,0.0324,0.013523,0.002678,0.000431,0.000235
38080000,0.0324,0.013523,0.002678,0.000431,0.000353
38081000,0.0324,0.013523,0.002678,0.000431,0.000353
38082000,0.0324,0.013523,0.002678,0.000431,0.000235
38083000,0.0324,0.013523,0.002678,0.000431,0.000353
38084000,0.0324,0.013523,0.002678,0.000431,0.000470
38085000,0.0324,0.013523,0.002678,0.000431,0.000353
38086000,0.0324,0.013523,0.002678,0.000431,0.000235
38087000,0.0324,0.013523,0.002678,0.000431,0.000353
38088000,0.0324,0.013523,0.002678,0.000431,0.000353
38089000,0.0324,0.013523,0.002678,0.000431,0.000235
38090000,0.0324,0.013523,0.002678,0.000431,0.000353
38091000,0.0324,0.013523,0.002678,0.000431,0.000470
38092000,0.0324,0.013523,0.002678,0.000431,0.000353
38093000,0.0324,0.013523,0.002678,0.000431,0.000235
38094000,0.0324,0.013523,0.002678,0.000431,0.000353
38095000,0.0324,0.013523,0.002678,0.000431,0.000353
38096000,0.0324,0.013523,0.002678,0.000431,0.000235
38097000,0.0324,0.013523,0.002678,0.000431,0.000353
38098000,0.0324,0.013523,0.002678,0.000431,0.000470
38099000,0.0324,0.013523,0.002678,0.000431,0.000353
38100000,0.0324,0.013523,0.002678,0.000431,0.000235
38101000,0.0324,0.013523,0.002678,0.000431,0.000353
38102000,0.0324,0.013523,0.002678,0.000431,0.000353
38103000,0.0324,0.013523,0.002678,0.000431,0.000235
38104000,0.0324,0.013523,0.002678,0.000431,0.000353
38105000,0.0324,0.013523,0.002678,0.000431,0.000470
38106000,0.0324,0.013523,0.002678,0.000431,0.000353
38107000,0.0324,0.013523,0.002678,0.000431,0.000235
38108000,0.0324,0.013523,0.002678,0.000431,0.000353
38109000,0.0324,0.013523,0.002678,0.000431,0.000353
38110000,0.0324,0.013523,0.002678,0.000431,0.000235
38111000,0.0324,0.013523,0.002678,0.000431,0.000353
38112000,0.0324,0.013523,0.002678,0.000431,0.000470
38113000,0.0324,0.013523,0.002678,0.000431,0.000353
38114000,0.0324,0.013523,0.002678,0.000431,0.000235
38115000,0.0324,0.013523,0.002678,0.000431,0.000353
38116000,0.0324,0.013523,0.002678,0.000431,0.000353
38117000,0.0324,0.013523,0.002678,0.000431,0.000235
38118000,0.0324,0.013523,0.002678,0.000431,0.000353
38119000,0.0324,0.013523,0.002678,0.000431,0.000470
38120000,0.0324,0.013523,0.002678,0.000431,0.000353
38121000,0.0324,0.013523,0.002678,0.000431,0.000118
38122000,0.0324,0.013523,0.002678,0.000431,0.000470
38123000,0.0324,0.013523,0.002678,0.000431,0.000353
38124000,0.0324,0.013523,0.002678,0.000431,0.000235
38125000,0.0324,0.013523,0.002678,0.000431,0.000353
38126000,0.0324,0.013523,0.002678,0.000431,0.000470
38127000,0.0324,0.013523,0.002678,0.000431,0.000353
38128000,0.0324,0.013523,0.002678,0.000431,0.000118
38129000,0.0324,0.013523,0.002678,0.000431,0.000470
38130000,0.0324,0.013523,0.002678,0.000431,0.000353
38131000,0.0324,0.013523,0.002678,0.000431,0.000235
38132000,0.0324,0.013523,0.002678,0.000431,0.000353
38133000,0.0324,0.013523,0.002678,0.000431,0.000470
38134000,0.0324,0.013523,0.002678,0.000431,0.000353
38135000,0.0324,0.013523,0.002678,0.000431,0.000118
38136000,0.0324,0.013523,0.002678,0.000431,0.000470
38137000,0.0324,0.013523,0.002678,0.000431,0.000353
38138000,0.0324,0.013523,0.002678,0.000431,0.000235
38139000,0.0324,0.013523,0.002678,0.000431,0.000353
38140000,0.0324,0.013523,0.002678,0.000431,0.000470
38141000,0.0324,0.013523,0.002678,0.000431,0.000353
38142000,0.0324,0.013523,0.002678,0.000431,0.000118
38143000,0.0324,0.013523,0.002678,0.000431,0.000470
38144000,0.0324,0.013523,0.002678,0.000431,0.000353
38145000,0.0324,0.013523,0.002678,0.000431,0.000235
38146000,0.0324,0.013523,0.002678,0.000431,0.000353
38147000,0.0324,0.013523,0.002678,0.000431,0.000470
38148000,0.0324,0.013523,0.002678,0.000431,0.000235
38149000,0.0324,0.013523,0.002678,0.000431,0.000235
38150000,0.0324,0.013523,0.002678,0.000431,0.000470
38151000,0.0324,0.013523,0.002678,0.000431,0.000353
38152000,0.0324,0.013523,0.002678,0.000431,0.000235
38153000,0.0324,0.013523,0.002678,0.000431,0.000353
38154000,0.0324,0.013523,0.002678,0.000431,0.000470
38155000,0.0324,0.013523,0.002678,0.000431,0.000235
38156000,0.0324,0.013523,0.002678,0.000431,0.000235
38157000,0.0324,0.013523,0.002678,0.000431,0.000470
38158000,0.0324,0.013523,0.002678,0.000431,0.000353
38159000,0.0324,0.013523,0.002678,0.000431,0.000235
38160000,0.0324,0.013523,0.002678,0.000431,0.000353
38161000,0.0324,0.013523,0.002678,0.000431,0.000470
38162000,0.0324,0.013523,0.002678,0.000431,0.000235
38163000,0.0324,0.013523,0.002678,0.000431,0.000235
38164000,0.0324,0.013523,0.002678,0.000431,0.000470
38165000,0.0324,0.013523,0.002678,0.000431,0.000353
38166000,0.0324,0.013523,0.002678,0.000431,0.000235
38167000,0.0324,0.013523,0.002678,0.000431,0.000353
38168000,0.0324,0.013523,0.002678,0.000431,0.000470
38169000,0.0324,0.013523,0.002678,0.000431,0.000235
38170000,0.0324,0.013523,0.002678,0.000431,0.000235
38171000,0.0324,0.013523,0.002678,0.000431,0.000470
38172000,0.0324,0.013523,0.002678,0.000431,0.000353
38173000,0.0324,0.013523,0.002678,0.000431,0.000235
38174000,0.0324,0.013523,0.002678,0.000431,0.000353
38175000,0.0324,0.013523,0.002678,0.000431,0.000470
38176000,0.0324,0.013523,0.002678,0.000431,0.000235
38177000,0.0324,0.013523,0.002678,0.000431,0.000235
38178000,0.0324,0.013523,0.002678,0.000431,0.000470
38179000,0.0324,0.013523,0.002678,0.000431,0.000353
38180000,0.0324,0.013523,0.002678,0.000431,0.000235
38181000,0.0324,0.013523,0.002678,0.000431,0.000353
38182000,0.0324,0.013523,0.002678,0.000431,0.000470
38183000,0.0324,0.013523,0.002678,0.000431,0.000235
38184000,0.0324,0.013523,0.002678,0.000431,0.000235
38185000,0.0324,0.013523,0.002678,0.000431,0.000470
38186000,0.0324,0.013523,0.002678,0.000431,0.000353
38187000,0.0324,0.013523,0.002678,0.000431,0.000235
38188000,0.0324,0.013523,0.002678,0.000431,0.000353
38189000,0.0324,0.013523,0.002678,0.000431,0.000470
38190000,0.0324,0.013523,0.002678,0.000431,0.000118
38191000,0.0324,0.013523,0.002678,0.000431,0.000353
38192000,0.0324,0.013523,0.002678,0.000431,0.000470
38193000,0.0324,0.013523,0.002678,0.000431,0.000353
38194000,0.0324,0.013523,0.002678,0.000431,0.000235
38195000,0.0324,0.013523,0.002678,0.000431,0.000353
38196000,0.0324,0.013523,0.002678,0.000431,0.000470
38197000,0.0324,0.013523,0.002678,0.000431,0.000118
38198000,0.0324,0.013523,0.002678,0.000431,0.000353
38199000,0.0324,0.013523,0.002678,0.000431,0.000470
38200000,0.0324,0.013523,0.002678,0.000431,0.000353
38201000,0.0324,0.013523,0.002678,0.000431,0.000235
38202000,0.0324,0.013523,0.002678,0.000431,0.000353
38203000,0.0324,0.013523,0.002678,0.000431,0.000470
38204000,0.0324,0.013523,0.002678,0.000431,0.000118
38205000,0.0324,0.013523,0.002678,0.000431,0.000353
38206000,0.0324,0.013523,0.002678,0.000431,0.000470
38207000,0.0324,0.013523,0.002678,0.000431,0.000353
38208000,0.0324,0.013523,0.002678,0.000431,0.000235
38209000,0.0324,0.013523,0.002678,0.000431,0.000353
38210000,0.0324,0.013523,0.002678,0.000431,0.000353
38211000,0.0324,0.013523,0.002678,0.000431,0.000235
38212000,0.0324,0.013523,0.002678,0.000431,0.000353
38213000,0.0324,0.013523,0.002678,0.000431,0.000470
38214000,0.0324,0.013523,0.002678,0.000431,0.000353
38215000,0.0324,0.013523,0.002678,0.000431,0.000235
38216000,0.0324,0.013523,0.002678,0.000431,0.000353
38217000,0.0324,0.013523,0.002678,0.000431,0.000353
38218000,0.0324,0.013523,0.002678,0.000431,0.000235
38219000,0.0324,0.013523,0.002678,0.000431,0.000353
38220000,0.0324,0.013523,0.002678,0.000431,0.000470
38221000,0.0324,0.013523,0.002678,0.000431,0.000353
38222000,0.0324,0.013523,0.002678,0.000431,0.000235
38223000,0.0324,0.013523,0.002678,0.000431,0.000353
38224000,0.0324,0.013523,0.002678,0.000431,0.000353
38225000,0.0324,0.013523,0.002678,0.000431,0.000235
38226000,0.0324,0.013523,0.002678,0.000431,0.000353
38227000,0.0324,0.013523,0.002678,0.000431,0.000470
38228000,0.0324,0.013523,0.002678,0.000431,0.000353
38229000,0.0324,0.013523,0.002678,0.000431,0.000235
38230000,0.0324,0.013523,0.002678,0.000431,0.000353
38231000,0.0324,0.013523,0.002678,0.000431,0.000353
38232000,0.0324,0.013523,0.002678,0.000431,0.000235
38233000,0.0324,0.013523,0.002678,0.000431,0.000353
38234000,0.0324,0.013523,0.002678,0.000431,0.000470
38235000,0.0324,0.013523,0.002678,0.000431,0.000353
38236000,0.0324,0.013523,0.002678,0.000431,0.000235
38237000,0.0324,0.013523,0.002678,0.000431,0.000353
38238000,0.0324,0.013523,0.002678,0.000431,0.000353
38239000,0.0324,0.013523,0.002678,0.000431,0.000235
38240000,0.0324,0.013523,0.002678,0.000431,0.000353
38241000,0.0324,0.013523,0.002678,0.000431,0.000470
38242000,0.0324,0.013523,0.002678,0.000431,0.000353
38243000,0.0324,0.013523,0.002678,0.000431,0.000235
38244000,0.0324,0.013523,0.002678,0.000431,0.000353
38245000,0.0324,0.013523,0.002678,0.000431,0.000353
38246000,0.0324,0.013523,0.002678,0.000431,0.000235
38247000,0.0324,0.013523,0.002678,0.000431,0.000353
38248000,0.0324,0.013523,0.002678,0.000431,0.000470
38249000,0.0324,0.013523,0.002678,0.000431,0.000353
38250000,0.0324,0.013523,0.002678,0.000431,0.000235
38251000,0.0324,0.013523,0.002678,0.000431,0.000353
38252000,0.0324,0.013523,0.002678,0.000431,0.000353
38253000,0.0324,0.013523,0.002678,0.000431,0.000235
38254000,0.0324,0.013523,0.002678,0.000431,0.000353
38255000,0.0324,0.013523,0.002678,0.000431,0.000470
38256000,0.0324,0.013523,0.002678,0.000431,0.000353
38257000,0.0324,0.013523,0.002678,0.000431,0.000235
38258000,0.0324,0.013523,0.002678,0.000431,0.000353
38259000,0.0324,0.013523,0.002678,0.000431,0.000353
38260000,0.0324,0.013523,0.002678,0.000431,0.000235
38261000,0.0324,0.013523,0.002678,0.000431,0.000353
38262000,0.0324,0.013523,0.002678,0.000431,0.000470
38263000,0.0324,0.013523,0.002678,0.000431,0.000353
38264000,0.0324,0.013523,0.002678,0.000431,0.000118
38265000,0.0324,0.013523,0.002678,0.000431,0.000470
38266000,0.0324,0.013523,0.002678,0.000431,0.000353
38267000,0.0324,0.013523,0.002678,0.000431,0.000235
38268000,0.0324,0.013523,0.002678,0.000431,0.000353
38269000,0.0324,0.013523,0.002678,0.000431,0.000470
38270000,0.0324,0.013523,0.002678,0.000431,0.000353
38271000,0.0324,0.013523,0.002678,0.000431,0.000118
38272000,0.0324,0.013523,0.002678,0.000431,0.000470
38273000,0.0324,0.013523,0.002678,0.000431,0.000353
38274000,0.0324,0.013523,0.002678,0.000431,0.000235
38275000,0.0324,0.013523,0.002678,0.000431,0.000353
38276000,0.0324,0.013523,0.002678,0.000431,0.000470
38277000,0.0324,0.013523,0.002678,0.000431,0.000353
38278000,0.0324,0.013523,0.002678,0.000431,0.000118
38279000,0.0324,0.013523,0.002678,0.000431,0.000470
38280000,0.0324,0.013523,0.002678,0.000431,0.000353
38281000,0.0324,0.013523,0.002678,0.000431,0.000235
38282000,0.0324,0.013523,0.002678,0.000431,0.000353
38283000,0.0324,0.013523,0.002678,0.000431,0.000470
38284000,0.0324,0.013523,0.002678,0.000431,0.000235
38285000,0.0324,0.013523,0.002678,0.000431,0.000235
38286000,0.0324,0.013523,0.002678,0.000431,0.000470
38287000,0.0324,0.013523,0.002678,0.000431,0.000353
38288000,0.0324,0.013523,0.002678,0.000431,0.000235
38289000,0.0324,0.013523,0.002678,0.000431,0.000353
38290000,0.0324,0.013523,0.002678,0.000431,0.000470
38291000,0.0324,0.013523,0.002678,0.000431,0.000235
38292000,0.0324,0.013523,0.002678,0.000431,0.000235
38293000,0.0324,0.013523,0.002678,0.000431,0.000470
38294000,0.0324,0.013523,0.002678,0.000431,0.000353
38295000,0.0324,0.013523,0.002678,0.000431,0.000235
38296000,0.0324,0.013523,0.002678,0.000431,0.000353
38297000,0.0324,0.013523,0.002678,0.000431,0.000470
38298000,0.0324,0.013523,0.002678,0.000431,0.000235
38299000,0.0324,0.013523,0.002678,0.000431,0.000235
38300000,0.0324,0.013523,0.002678,0.000431,0.000470
38301000,0.0324,0.013523,0.002678,0.000431,0.000353
38302000,0.0324,0.013523,0.002678,0.000431,0.000235
38303000,0.0324,0.013523,0.002678,0.000431,0.000353
38304000,0.0324,0.013523,0.002678,0.000431,0.000470
38305000,0.0324,0.013523,0.002678,0.000431,0.000235
38306000,0.0324,0.013523,0.002678,0.000431,0.000235
38307000,0.0324,0.013523,0.002678,0.000431,0.000470
38308000,0.0324,0.013523,0.002678,0.000431,0.000353
38309000,0.0324,0.013523,0.002678,0.000431,0.000235
38310000,0.0324,0.013523,0.002678,0.000431,0.000353
38311000,0.0324,0.013523,0.002678,0.000431,0.000470
38312000,0.0324,0.013523,0.002678,0.000431,0.000235
38313000,0.0324,0.013523,0.002678,0.000431,0.000235
38314000,0.0324,0.013523,0.002678,0.000431,0.000470
38315000,0.0324,0.013523,0.002678,0.000431,0.000353
38316000,0.0324,0.013523,0.002678,0.000431,0.000235
38317000,0.0324,0.013523,0.002678,0.000431,0.000353
38318000,0.0324,0.013523,0.002678,0.000431,0.000470
38319000,0.0324,0.013523,0.002678,0.000431,0.000235
38320000,0.0324,0.013523,0.002678,0.000431,0.000235
38321000,0.0324,0.013523,0.002678,0.000431,0.000470
38322000,0.0324,0.013523,0.002678,0.000431,0.000353
38323000,0.0324,0.013523,0.002678,0.000431,0.000235
38324000,0.0324,0.013523,0.002678,0.000431,0.000353
38325000,0.0324,0.013523,0.002678,0.000431,0.000470
38326000,0.0324,0.013523,0.002678,0.000431,0.000118
38327000,0.0324,0.013523,0.002678,0.000431,0.000353
38328000,0.0324,0.013523,0.002678,0.000431,0.000470
38329000,0.0324,0.013523,0.002678,0.000431,0.000353
38330000,0.0324,0.013523,0.002678,0.000431,0.000235
38331000,0.0324,0.013523,0.002678,0.000431,0.000353
38332000,0.0324,0.013523,0.002678,0.000431,0.000470
38333000,0.0324,0.013523,0.002678,0.000431,0.000118
38334000,0.0324,0.013523,0.002678,0.000431,0.000353
38335000,0.0324,0.013523,0.002678,0.000431,0.000470
38336000,0.0324,0.013523,0.002678,0.000431,0.000353
38337000,0.0324,0.013523,0.002678,0.000431,0.000235
38338000,0.0324,0.013523,0.002678,0.000431,0.000353
38339000,0.0324,0.013523,0.002678,0.000431,0.000470
38340000,0.0324,0.013523,0.002678,0.000431,0.000118
38341000,0.0324,0.013523,0.002678,0.000431,0.000353
38342000,0.0324,0.013523,0.002678,0.000431,0.000470
38343000,0.0324,0.013523,0.002678,0.000431,0.000353
38344000,0.0324,0.013523,0.002678,0.000431,0.000235
38345000,0.0324,0.013523,0.002678,0.000431,0.000353
38346000,0.0324,0.013523,0.002678,0.000431,0.000470
38347000,0.0324,0.013523,0.002678,0.000431,0.000118
38348000,0.0324,0.013523,0.002678,0.000431,0.000353
38349000,0.0324,0.013523,0.002678,0.000431,0.000470
38350000,0.0324,0.013523,0.002678,0.000431,0.000353
38351000,0.0324,0.013523,0.002678,0.000431,0.000235
38352000,0.0324,0.013523,0.002678,0.000431,0.000353
38353000,0.0324,0.013523,0.002678,0.000431,0.000353
38354000,0.0324,0.013523,0.002678,0.000431,0.000235
38355000,0.0324,0.013523,0.002678,0.000431,0.000353
38356000,0.0324,0.013523,0.002678,0.000431,0.000470
38357000,0.0324,0.013523,0.002678,0.000431,0.000353
38358000,0.0324,0.013523,0.002678,0.000431,0.000235
38359000,0.0324,0.013523,0.002678,0.000431,0.000353
38360000,0.0324,0.013523,0.002678,0.000431,0.000353
38361000,0.0324,0.013523,0.002678,0.000431,0.000235
38362000,0.0324,0.013523,0.002678,0.000431,0.000353
38363000,0.0324,0.013523,0.002678,0.000431,0.000470
38364000,0.0324,0.013523,0.002678,0.000431,0.000353
38365000,0.0324,0.013523,0.002678,0.000431,0.000235
38366000,0.0324,0.013523,0.002678,0.000431,0.000353
38367000,0.0324,0.013523,0.002678,0.000431,0.000353
38368000,0.0324,0.013523,0.002678,0.000431,0.000235
38369000,0.0324,0.013523,0.002678,0.000431,0.000353
38370000,0.0324,0.013523,0.002678,0.000431,0.000470
38371000,0.0324,0.013523,0.002678,0.000431,0.000353
38372000,0.0324,0.013523,0.002678,0.000431,0.000235
38373000,0.0324,0.013523,0.002678,0.000431,0.000353
38374000,0.0324,0.013523,0.002678,0.000431,0.000353
38375000,0.0324,0.013523,0.002678,0.000431,0.000235
38376000,0.0324,0.013523,0.002678,0.000431,0.000353
38377000,0.0324,0.013523,0.002678,0.000431,0.000470
38378000,0.0324,0.013523,0.002678,0.000431,0.000353
38379000,0.0324,0.013523,0.002678,0.000431,0.000235
38380000,0.0324,0.013523,0.002678,0.000431,0.000353
38381000,0.0324,0.013523,0.002678,0.000431,0.000353
38382000,0.0324,0.013523,0.002678,0.000431,0.000235
38383000,0.0324,0.013523,0.002678,0.000431,0.000353
38384000,0.0324,0.013523,0.002678,0.000431,0.000470
38385000,0.0324,0.013523,0.002678,0.000431,0.000353
38386000,0.0324,0.013523,0.002678,0.000431,0.000235
38387000,0.0324,0.013523,0.002678,0.000431,0.000353
38388000,0.0324,0.013523,0.002678,0.000431,0.000353
38389000,0.0324,0.013523,0.002678,0.000431,0.000235
38390000,0.0324,0.013523,0.002678,0.000431,0.000353
38391000,0.0324,0.013523,0.002678,0.000431,0.000470
38392000,0.0324,0.013523,0.002678,0.000431,0.000353
38393000,0.0324,0.013523,0.002678,0.000431,0.000235
38394000,0.0324,0.013523,0.002678,0.000431,0.000353
38395000,0.0324,0.013523,0.002678,0.000431,0.000353
38396000,0.0324,0.013523,0.002678,0.000431,0.000235
38397000,0.0324,0.013523,0.002678,0.000431,0.000353
38398000,0.0324,0.013523,0.002678,0.000431,0.000470
38399000,0.0324,0.013523,0.002678,0.000431,0.000353
38400000,0.0324,0.013523,0.002678,0.000431,0.000235
38401000,0.0324,0.013523,0.002678,0.000431,0.000353
38402000,0.0324,0.013523,0.002678,0.000431,0.000353
38403000,0.0324,0.013523,0.002678,0.000431,0.000235
38404000,0.0324,0.013523,0.002678,0.000431,0.000353
38405000,0.0324,0.013523,0.002678,0.000431,0.000470
38406000,0.0324,0.013523,0.002678,0.000431,0.000353
38407000,0.0324,0.013523,0.002678,0.000431,0.000118
38408000,0.0324,0.013523,0.002678,0.000431,0.000470
38409000,0.0324,0.013523,0.002678,0.000431,0.000353
38410000,0.0324,0.013523,0.002678,0.000431,0.000235
38411000,0.0324,0.013523,0.002678,0.000431,0.000353
38412000,0.0324,0.013523,0.002678,0.000431,0.000470
38413000,0.0324,0.013523,0.002678,0.000431,0.000353
38414000,0.0324,0.013523,0.002678,0.000431,0.000118
38415000,0.0324,0.013523,0.002678,0.000431,0.000470
38416000,0.0324,0.013523,0.002678,0.000431,0.000353
38417000,0.0324,0.013523,0.002678,0.000431,0.000235
38418000,0.0324,0.013523,0.002678,0.000431,0.000353
38419000,0.0324,0.013523,0.002678,0.000431,0.000470
38420000,0.0324,0.013523,0.002678,0.000431,0.000353
38421000,0.0324,0.013523,0.002678,0.000431,0.000118
38422000,0.0324,0.013523,0.002678,0.000431,0.000470
38423000,0.0324,0.013523,0.002678,0.000431,0.000353
38424000,0.0324,0.013523,0.002678,0.000431,0.000235
38425000,0.0324,0.013523,0.002678,0.000431,0.000353
38426000,0.0324,0.013523,0.002678,0.000431,0.000470
38427000,0.0324,0.013523,0.002678,0.000431,0.000235
38428000,0.0324,0.013523,0.002678,0.000431,0.000235
38429000,0.0324,0.013523,0.002678,0.000431,0.000470
38430000,0.0324,0.013523,0.002678,0.000431,0.000353
38431000,0.0324,0.013523,0.002678,0.000431,0.000235
38432000,0.0324,0.013523,0.002678,0.000431,0.000353
38433000,0.0324,0.013523,0.002678,0.000431,0.000470
38434000,0.0324,0.013523,0.002678,0.000431,0.000235
38435000,0.0324,0.013523,0.002678,0.000431,0.000235
38436000,0.0324,0.013523,0.002678,0.000431,0.000470
38437000,0.0324,0.013523,0.002678,0.000431,0.000353
38438000,0.0324,0.013523,0.002678,0.000431,0.000235
38439000,0.0324,0.013523,0.002678,0.000431,0.000353
38440000,0.0324,0.013523,0.002678,0.000431,0.000470
38441000,0.0324,0.013523,0.002678,0.000431,0.000235
38442000,0.0324,0.013523,0.002678,0.000431,0.000235
38443000,0.0324,0.013523,0.002678,0.000431,0.000470
38444000,0.0324,0.013523,0.002678,0.000431,0.000353
38445000,0.0324,0.013523,0.002678,0.000431,0.000235
38446000,0.0324,0.013523,0.002678,0.000431,0.000353
38447000,0.0324,0.013523,0.002678,0.000431,0.000470
38448000,0.0324,0.013523,0.002678,0.000431,0.000235
38449000,0.0324,0.013523,0.002678,0.000431,0.000235
38450000,0.0324,0.013523,0.002678,0.000431,0.000470
38451000,0.0324,0.013523,0.002678,0.000431,0.000353
38452000,0.0324,0.013523,0.002678,0.000431,0.000235
38453000,0.0324,0.013523,0.002678,0.000431,0.000353
38454000,0.0324,0.013523,0.002678,0.000431,0.000470
38455000,0.0324,0.013523,0.002678,0.000431,0.000235
38456000,0.0324,0.013523,0.002678,0.000431,0.000235
38457000,0.0324,0.013523,0.002678,0.000431,0.000470
38458000,0.0324,0.013523,0.002678,0.000431,0.000353
38459000,0.0324,0.013523,0.002678,0.000431,0.000235
38460000,0.0324,0.013523,0.002678,0.000431,0.000353
38461000,0.0324,0.013523,0.002678,0.000431,0.000470
38462000,0.0324,0.013523,0.002678,0.000431,0.000235
38463000,0.0324,0.013523,0.002678,0.000431,0.000235
38464000,0.0324,0.013523,0.002678,0.000431,0.000470
38465000,0.0324,0.013523,0.002678,0.000431,0.000353
38466000,0.0324,0.013523,0.002678,0.000431,0.000235
38467000,0.0324,0.013523,0.002678,0.000431,0.000353
38468000,0.0324,0.013523,0.002678,0.000431,0.000470
38469000,0.0324,0.013523,0.002678,0.000431,0.000118
38470000,0.0324,0.013523,0.002678,0.000431,0.000353
38471000,0.0324,0.013523,0.002678,0.000431,0.000470
38472000,0.0324,0.013523,0.002678,0.000431,0.000353
38473000,0.0324,0.013523,0.002678,0.000431,0.000235
38474000,0.0324,0.013523,0.002678,0.000431,0.000353
38475000,0.0324,0.013523,0.002678,0.000431,0.000470
38476000,0.0324,0.013523,0.002678,0.000431,0.000118
38477000,0.0324,0.013523,0.002678,0.000431,0.000353
38478000,0.0324,0.013523,0.002678,0.000431,0.000470
38479000,0.0324,0.013523,0.002678,0.000431,0.000353
38480000,0.0324,0.013523,0.002678,0.000431,0.000235
38481000,0.0324,0.013523,0.002678,0.000431,0.000353
38482000,0.0324,0.013523,0.002678,0.000431,0.000470
38483000,0.0324,0.013523,0.002678,0.000431,0.000118
38484000,0.0324,0.013523,0.002678,0.000431,0.000353
38485000,0.0324,0.013523,0.002678,0.000431,0.000470
38486000,0.0324,0.013523,0.002678,0.000431,0.000353
38487000,0.0324,0.013523,0.002678,0.000431,0.000235
38488000,0.0324,0.013523,0.002678,0.000431,0.000353
38489000,0.0324,0.013523,0.002678,0.000431,0.000353
38490000,0.0324,0.013523,0.002678,0.000431,0.000235
38491000,0.0324,0.013523,0.002678,0.000431,0.000353
38492000,0.0324,0.013523,0.002678,0.000431,0.000470
38493000,0.0324,0.013523,0.002678,0.000431,0.000353
38494000,0.0324,0.013523,0.002678,0.000431,0.000235
38495000,0.0324,0.013523,0.002678,0.000431,0.000353
38496000,0.0324,0.013523,0.002678,0.000431,0.000353
38497000,0.0324,0.013523,0.002678,0.000431,0.000235
38498000,0.0324,0.013523,0.002678,0.000431,0.000353
38499000,0.0324,0.013523,0.002678,0.000431,0.000470
38500000,0.0324,0.013523,0.002678,0.000431,0.000353
38501000,0.0324,0.013523,0.002678,0.000431,0.000235
38502000,0.0324,0.013523,0.002678,0.000431,0.000353
38503000,0.0324,0.013523,0.002678,0.000431,0.000353
38504000,0.0324,0.013523,0.002678,0.000431,0.000235
38505000,0.0324,0.013523,0.002678,0.000431,0.000353
38506000,0.0324,0.013523,0.002678,0.000431,0.000470
38507000,0.0324,0.013523,0.002678,0.000431,0.000353
38508000,0.0324,0.013523,0.002678,0.000431,0.000235
38509000,0.0324,0.013523,0.002678,0.000431,0.000353
38510000,0.0324,0.013523,0.002678,0.000431,0.000353
38511000,0.0324,0.013523,0.002678,0.000431,0.000235
38512000,0.0324,0.013523,0.002678,0.000431,0.000353
38513000,0.0324,0.013523,0.002678,0.000431,0.000470
38514000,0.0324,0.013523,0.002678,0.000431,0.000353
38515000,0.0324,0.013523,0.002678,0.000431,0.000235
38516000,0.0324,0.013523,0.002678,0.000431,0.000353
38517000,0.0324,0.013523,0.002678,0.000431,0.000353
38518000,0.0324,0.013523,0.002678,0.000431,0.000235
38519000,0.0324,0.013523,0.002678,0.000431,0.000353
38520000,0.0324,0.013523,0.002678,0.000431,0.000470
38521000,0.0324,0.013523,0.002678,0.000431,0.000353
38522000,0.0324,0.013523,0.002678,0.000431,0.000235
38523000,0.0324,0.013523,0.002678,0.000431,0.000353
38524000,0.0324,0.013523,0.002678,0.000431,0.000353
38525000,0.0324,0.013523,0.002678,0.000431,0.000235
38526000,0.0324,0.013523,0.002678,0.000431,0.000353
38527000,0.0324,0.013523,0.002678,0.000431,0.000470
38528000,0.0324,0.013523,0.002678,0.000431,0.000353
38529000,0.0324,0.013523,0.002678,0.000431,0.000235
38530000,0.0324,0.013523,0.002678,0.000431,0.000353
38531000,0.0324,0.013523,0.002678,0.000431,0.000353
38532000,0.0324,0.013523,0.002678,0.000431,0.000235
38533000,0.0324,0.013523,0.002678,0.000431,0.000353
38534000,0.0324,0.013523,0.002678,0.000431,0.000470
38535000,0.0324,0.013523,0.002678,0.000431,0.000353
38536000,0.0324,0.013523,0.002678,0.000431,0.000235
38537000,0.0324,0.013523,0.002678,0.000431,0.000353
38538000,0.0324,0.013523,0.002678,0.000431,0.000353
38539000,0.0324,0.013523,0.002678,0.000431,0.000235
38540000,0.0324,0.013523,0.002678,0.000431,0.000353
38541000,0.0324,0.013523,0.002678,0.000431,0.000470
38542000,0.0324,0.013523,0.002678,0.000431,0.000353
38543000,0.0324,0.013523,0.002678,0.000431,0.000118
38544000,0.0324,0.013523,0.002678,0.000431,0.000470
38545000,0.0324,0.013523,0.002678,0.000431,0.000353
38546000,0.0324,0.013523,0.002678,0.000431,0.000235
38547000,0.0324,0.013523,0.002678,0.000431,0.000353
38548000,0.0324,0.013523,0.002678,0.000431,0.000470
38549000,0.0324,0.013523,0.002678,0.000431,0.000353
38550000,0.0324,0.013523,0.002678,0.000431,0.000118
38551000,0.0324,0.013523,0.002678,0.000431,0.000470
38552000,0.0324,0.013523,0.002678,0.000431,0.000353
38553000,0.0324,0.013523,0.002678,0.000431,0.000235
38554000,0.0324,0.013523,0.002678,0.000431,0.000353
38555000,0.0324,0.013523,0.002678,0.000431,0.000470
38556000,0.0324,0.013523,0.002678,0.000431,0.000353
38557000,0.0324,0.013523,0.002678,0.000431,0.000118
38558000,0.0324,0.013523,0.002678,0.000431,0.000470
38559000,0.0324,0.013523,0.002678,0.000431,0.000353
38560000,0.0324,0.013523,0.002678,0.000431,0.000235
38561000,0.0324,0.013523,0.002678,0.000431,0.000353
38562000,0.0324,0.013523,0.002678,0.000431,0.000470
38563000,0.0324,0.013523,0.002678,0.000431,0.000235
38564000,0.0324,0.013523,0.002678,0.000431,0.000235
38565000,0.0324,0.013523,0.002678,0.000431,0.000470
38566000,0.0324,0.013523,0.002678,0.000431,0.000353
38567000,0.0324,0.013523,0.002678,0.000431,0.000235
38568000,0.0324,0.013523,0.002678,0.000431,0.000353
38569000,0.0324,0.013523,0.002678,0.000431,0.000470
38570000,0.0324,0.013523,0.002678,0.000431,0.000235
38571000,0.0324,0.013523,0.002678,0.000431,0.000235
38572000,0.0324,0.013523,0.002678,0.000431,0.000470
38573000,0.0324,0.013523,0.002678,0.000431,0.000353
38574000,0.0324,0.013523,0.002678,0.000431,0.000235
38575000,0.0324,0.013523,0.002678,0.000431,0.000353
38576000,0.0324,0.013523,0.002678,0.000431,0.000470
38577000,0.0324,0.013523,0.002678,0.000431,0.000118
38578000,0.0324,0.013523,0.002678,0.000431,0.000353
38579000,0.0324,0.013523,0.002678,0.000431,0.000470
38580000,0.0324,0.013523,0.002678,0.000431,0.000353
38581000,0.0324,0.013523,0.002678,0.000431,0.000235
38582000,0.0324,0.013523,0.002678,0.000431,0.000353
38583000,0.0324,0.013523,0.002678,0.000431,0.000353
38584000,0.0324,0.013523,0.002678,0.000431,0.000235
38585000,0.0324,0.013523,0.002678,0.000431,0.000353
38586000,0.0324,0.013523,0.002678,0.000431,0.000470
38587000,0.0324,0.013523,0.002678,0.000431,0.000353
38588000,0.0324,0.013523,0.002678,0.000431,0.000235
38589000,0.0324,0.013523,0.002678,0.000431,0.000353
38590000,0.0324,0.013523,0.002678,0.000431,0.000353
38591000,0.0324,0.013523,0.002678,0.000431,0.000235
38592000,0.0324,0.013523,0.002678,0.000431,0.000353
38593000,0.0324,0.013523,0.002678,0.000431,0.000470
38594000,0.0324,0.013523,0.002678,0.000431,0.000353
38595000,0.0324,0.013523,0.002678,0.000431,0.000235
38596000,0.0324,0.013523,0.002678,0.000431,0.000353
38597000,0.0324,0.013523,0.002678,0.000431,0.000353
38598000,0.0324,0.013523,0.002678,0.000431,0.000235
38599000,0.0324,0.013523,0.002678,0.000431,0.000353
38600000,0.0324,0.013523,0.002678,0.000431,0.000470
38601000,0.0324,0.013523,0.002678,0.000431,0.000353
38602000,0.0324,0.013523,0.002678,0.000431,0.000118
38603000,0.0324,0.013523,0.002678,0.000431,0.000470
38604000,0.0324,0.013523,0.002678,0.000431,0.000353
38605000,0.0324,0.013523,0.002678,0.000431,0.000235
38606000,0.0324,0.013523,0.002678,0.000431,0.000353
38607000,0.0324,0.013523,0.002678,0.000431,0.000470
38608000,0.0324,0.013523,0.002678,0.000431,0.000235
38609000,0.0324,0.013523,0.002678,0.000431,0.000235
38610000,0.0324,0.013523,0.002678,0.000431,0.000470
38611000,0.0324,0.013523,0.002678,0.000431,0.000353
38612000,0.0324,0.013523,0.002678,0.000431,0.000235
38613000,0.0324,0.013523,0.002678,0.000431,0.000353
38614000,0.0324,0.013523,0.002678,0.000431,0.000470
38615000,0.0324,0.013523,0.002678,0.000431,0.000235
38616000,0.0324,0.013523,0.002678,0.000431,0.000235
38617000,0.0324,0.013523,0.002678,0.000431,0.000470
38618000,0.0324,0.013523,0.002678,0.000431,0.000353
38619000,0.0324,0.013523,0.002678,0.000431,0.000235
38620000,0.0324,0.013523,0.002678,0.000431,0.000353
38621000,0.0324,0.013523,0.002678,0.000431,0.000470
38622000,0.0324,0.013523,0.002678,0.000431,0.000118
38623000,0.0324,0.013523,0.002678,0.000431,0.000353
38624000,0.0324,0.013523,0.002678,0.000431,0.000470
38625000,0.0324,0.013523,0.002678,0.000431,0.000353
38626000,0.0324,0.013523,0.002678,0.000431,0.000235
38627000,0.0324,0.013523,0.002678,0.000431,0.000353
38628000,0.0324,0.013523,0.002678,0.000431,0.000353
38629000,0.0324,0.013523,0.002678,0.000431,0.000235
38630000,0.0324,0.013523,0.002678,0.000431,0.000353
38631000,0.0324,0.013523,0.002678,0.000431,0.000470
38632000,0.0324,0.013523,0.002678,0.000431,0.000353
38633000,0.0324,0.013523,0.002678,0.000431,0.000235
38634000,0.0324,0.013523,0.002678,0.000431,0.000353
38635000,0.0324,0.013523,0.002678,0.000431,0.000353
38636000,0.0324,0.013523,0.002678,0.000431,0.000235
38637000,0.0324,0.013523,0.002678,0.000431,0.000353
38638000,0.0324,0.013523,0.002678,0.000431,0.000470
38639000,0.0324,0.013523,0.002678,0.000431,0.000353
38640000,0.0324,0.013523,0.002678,0.000431,0.000118
38641000,0.0324,0.013523,0.002678,0.000431,0.000470
38642000,0.0324,0.013523,0.002678,0.000431,0.000353
38643000,0.0324,0.013523,0.002678,0.000431,0.000235
38644000,0.0324,0.013523,0.002678,0.000431,0.000353
38645000,0.0324,0.013523,0.002678,0.000431,0.000470
38646000,0.0324,0.013523,0.002678,0.000431,0.000353
38647000,0.0324,0.013523,0.002678,0.000431,0.000118
38648000,0.0324,0.013523,0.002678,0.000431,0.000470
38649000,0.0324,0.013523,0.002678,0.000431,0.000353
38650000,0.0324,0.013523,0.002678,0.000431,0.000235
38651000,0.0324,0.013523,0.002678,0.000431,0.000353
38652000,0.0324,0.013523,0.002678,0.000431,0.000470
38653000,0.0324,0.013523,0.002678,0.000431,0.000235
38654000,0.0324,0.013523,0.002678,0.000431,0.000235
38655000,0.0324,0.013523,0.002678,0.000431,0.000470
38656000,0.0324,0.013523,0.002678,0.000431,0.000353
38657000,0.0324,0.013523,0.002678,0.000431,0.000235
38658000,0.0324,0.013523,0.002678,0.000431,0.000353
38659000,0.0324,0.013523,0.002678,0.000431,0.000470
38660000,0.0324,0.013523,0.002678,0.000431,0.000118
38661000,0.0324,0.013523,0.002678,0.000431,0.000353
38662000,0.0324,0.013523,0.002678,0.000431,0.000470
38663000,0.0324,0.013523,0.002678,0.000431,0.000353
38664000,0.0324,0.013523,0.002678,0.000431,0.000235
38665000,0.0324,0.013523,0.002678,0.000431,0.000353
38666000,0.0324,0.013523,0.002678,0.000431,0.000353
38667000,0.0324,0.013523,0.002678,0.000431,0.000235
38668000,0.0324,0.013523,0.002678,0.000431,0.000353
38669000,0.0324,0.013523,0.002678,0.000431,0.000470
38670000,0.0324,0.013523,0.002678,0.000431,0.000353
38671000,0.0324,0.013523,0.002678,0.000431,0.000235
38672000,0.0324,0.013523,0.002678,0.000431,0.000353
38673000,0.0324,0.013523,0.002678,0.000431,0.000353
38674000,0.0324,0.013523,0.002678,0.000431,0.000235
38675000,0.0324,0.013523,0.002678,0.000431,0.000353
38676000,0.0324,0.013523,0.002678,0.000431,0.000470
38677000,0.0324,0.013523,0.002678,0.000431,0.000353
38678000,0.0324,0.013523,0.002678,0.000431,0.000235
38679000,0.0324,0.013523,0.002678,0.000431,0.000353
38680000,0.0324,0.013523,0.002678,0.000431,0.000353
38681000,0.0324,0.013523,0.002678,0.000431,0.000235
38682000,0.0324,0.013523,0.002678,0.000431,0.000353
38683000,0.0324,0.013523,0.002678,0.000431,0.000470
38684000,0.0324,0.013523,0.002678,0.000431,0.000353
38685000,0.0324,0.013523,0.002678,0.000431,0.000118
38686000,0.0324,0.013523,0.002678,0.000431,0.000470
38687000,0.0324,0.013523,0.002678,0.000431,0.000353
38688000,0.0324,0.013523,0.002678,0.000431,0.000235
38689000,0.0324,0.013523,0.002678,0.000431,0.000353
38690000,0.0324,0.013523,0.002678,0.000431,0.000470
38691000,0.0324,0.013523,0.002678,0.000431,0.000235
38692000,0.0324,0.013523,0.002678,0.000431,0.000235
38693000,0.0324,0.013523,0.002678,0.000431,0.000470
38694000,0.0324,0.013523,0.002678,0.000431,0.000353
38695000,0.0324,0.013523,0.002678,0.000431,0.000235
38696000,0.0324,0.013523,0.002678,0.000431,0.000353
38697000,0.0324,0.013523,0.002678,0.000431,0.000470
38698000,0.0324,0.013523,0.002678,0.000431,0.000235
38699000,0.0324,0.013523,0.002678,0.000431,0.000235
38700000,0.0324,0.013523,0.002678,0.000431,0.000470
38701000,0.0324,0.013523,0.002678,0.000431,0.000353
38702000,0.0324,0.013523,0.002678,0.000431,0.000235
38703000,0.0324,0.013523,0.002678,0.000431,0.000353
38704000,0.0324,0.013523,0.002678,0.000431,0.000470
38705000,0.0324,0.013523,0.002678,0.000431,0.000235
38706000,0.0324,0.013523,0.002678,0.000431,0.000235
38707000,0.0324,0.013523,0.002678,0.000431,0.000470
38708000,0.0324,0.013523,0.002678,0.000431,0.000353
38709000,0.0324,0.013523,0.002678,0.000431,0.000235
38710000,0.0324,0.013523,0.002678,0.000431,0.000353
38711000,0.0324,0.013523,0.002678,0.000431,0.000470
38712000,0.0324,0.013523,0.002678,0.000431,0.000235
38713000,0.0324,0.013523,0.002678,0.000431,0.000235
38714000,0.0324,0.013523,0.002678,0.000431,0.000470
38715000,0.0324,0.013523,0.002678,0.000431,0.000353
38716000,0.0324,0.013523,0.002678,0.000431,0.000235
38717000,0.0324,0.013523,0.002678,0.000431,0.000353
38718000,0.0324,0.013523,0.002678,0.000431,0.000470
38719000,0.0324,0.013523,0.002678,0.000431,0.000118
38720000,0.0324,0.013523,0.002678,0.000431,0.000353
38721000,0.0324,0.013523,0.002678,0.000431,0.000470
38722000,0.0324,0.013523,0.002678,0.000431,0.000353
38723000,0.0324,0.013523,0.002678,0.000431,0.000235
38724000,0.0324,0.013523,0.002678,0.000431,0.000353
38725000,0.0324,0.013523,0.002678,0.000431,0.000470
38726000,0.0324,0.013523,0.002678,0.000431,0.000118
38727000,0.0324,0.013523,0.002678,0.000431,0.000353
38728000,0.0324,0.013523,0.002678,0.000431,0.000470
38729000,0.0324,0.013523,0.002678,0.000431,0.000353
38730000,0.0324,0.013523,0.002678,0.000431,0.000235
38731000,0.0324,0.013523,0.002678,0.000431,0.000353
38732000,0.0324,0.013523,0.002678,0.000431,0.000470
38733000,0.0324,0.013523,0.002678,0.000431,0.000118
38734000,0.0324,0.013523,0.002678,0.000431,0.000353
38735000,0.0324,0.013523,0.002678,0.000431,0.000470
38736000,0.0324,0.013523,0.002678,0.000431,0.000353
38737000,0.0324,0.013523,0.002678,0.000431,0.000235
38738000,0.0324,0.013523,0.002678,0.000431,0.000353
38739000,0.0324,0.013523,0.002678,0.000431,0.000353
38740000,0.0324,0.013523,0.002678,0.000431,0.000235
38741000,0.0324,0.013523,0.002678,0.000431,0.000353
38742000,0.0324,0.013523,0.002678,0.000431,0.000470
38743000,0.0324,0.013523,0.002678,0.000431,0.000353
38744000,0.0324,0.013523,0.002678,0.000431,0.000235
38745000,0.0324,0.013523,0.002678,0.000431,0.000353
38746000,0.0324,0.013523,0.002678,0.000431,0.000353
38747000,0.0324,0.013523,0.002678,0.000431,0.000235
38748000,0.0324,0.013523,0.002678,0.000431,0.000353
38749000,0.0324,0.013523,0.002678,0.000431,0.000470
38750000,0.0324,0.013523,0.002678,0.000431,0.000353
38751000,0.0324,0.013523,0.002678,0.000431,0.000235
38752000,0.0324,0.013523,0.002678,0.000431,0.000353
38753000,0.0324,0.013523,0.002678,0.000431,0.000353
38754000,0.0324,0.013523,0.002678,0.000431,0.000235
38755000,0.0324,0.013523,0.002678,0.000431,0.000353
38756000,0.0324,0.013523,0.002678,0.000431,0.000470
38757000,0.0324,0.013523,0.002678,0.000431,0.000353
38758000,0.0324,0.013523,0.002678,0.000431,0.000235
38759000,0.0324,0.013523,0.002678,0.000431,0.000353
38760000,0.0324,0.013523,0.002678,0.000431,0.000353
38761000,0.0324,0.013523,0.002678,0.000431,0.000235
38762000,0.0324,0.013523,0.002678,0.000431,0.000353
38763000,0.0324,0.013523,0.002678,0.000431,0.000470
38764000,0.0324,0.013523,0.002678,0.000431,0.000353
38765000,0.0324,0.013523,0.002678,0.000431,0.000235
38766000,0.0324,0.013523,0.002678,0.000431,0.000353
38767000,0.0324,0.013523,0.002678,0.000431,0.000353
38768000,0.0324,0.013523,0.002678,0.000431,0.000235
38769000,0.0324,0.013523,0.002678,0.000431,0.000353
38770000,0.0324,0.013523,0.002678,0.000431,0.000470
38771000,0.0324,0.013523,0.002678,0.000431,0.000353
38772000,0.0324,0.013523,0.002678,0.000431,0.000235
38773000,0.0324,0.013523,0.002678,0.000431,0.000353
38774000,0.0324,0.013523,0.002678,0.000431,0.000353
38775000,0.0324,0.013523,0.002678,0.000431,0.000235
38776000,0.0324,0.013523,0.002678,0.000431,0.000353
38777000,0.0324,0.013523,0.002678,0.000431,0.000470
38778000,0.0324,0.013523,0.002678,0.000431,0.000353
38779000,0.0324,0.013523,0.002678,0.000431,0.000235
38780000,0.0324,0.013523,0.002678,0.000431,0.000353
38781000,0.0324,0.013523,0.002678,0.000431,0.000353
38782000,0.0324,0.013523,0.002678,0.000431,0.000235
38783000,0.0324,0.013523,0.002678,0.000431,0.000353
38784000,0.0324,0.013523,0.002678,0.000431,0.000470
38785000,0.0324,0.013523,0.002678,0.000431,0.000353
38786000,0.0324,0.013523,0.002678,0.000431,0.000235
38787000,0.0324,0.013523,0.002678,0.000431,0.000353
38788000,0.0324,0.013523,0.002678,0.000431,0.000353
38789000,0.0324,0.013523,0.002678,0.000431,0.000235
38790000,0.0324,0.013523,0.002678,0.000431,0.000353
38791000,0.0324,0.013523,0.002678,0.000431,0.000470
38792000,0.0324,0.013523,0.002678,0.000431,0.000353
38793000,0.0324,0.013523,0.002678,0.000431,0.000118
38794000,0.0324,0.013523,0.002678,0.000431,0.000470
38795000,0.0324,0.013523,0.002678,0.000431,0.000353
38796000,0.0324,0.013523,0.002678,0.000431,0.000235
38797000,0.0324,0.013523,0.002678,0.000431,0.000353
38798000,0.0324,0.013523,0.002678,0.000431,0.000470
38799000,0.0324,0.013523,0.002678,0.000431,0.000353
38800000,0.0324,0.013523,0.002678,0.000431,0.000118
38801000,0.0324,0.013523,0.002678,0.000431,0.000470
38802000,0.0324,0.013523,0.002678,0.000431,0.000353
38803000,0.0324,0.013523,0.002678,0.000431,0.000235
38804000,0.0324,0.013523,0.002678,0.000431,0.000353
38805000,0.0324,0.013523,0.002678,0.000431,0.000470
38806000,0.0324,0.013523,0.002678,0.000431,0.000353
38807000,0.0324,0.013523,0.002678,0.000431,0.000118
38808000,0.0324,0.013523,0.002678,0.000431,0.000470
38809000,0.0324,0.013523,0.002678,0.000431,0.000353
38810000,0.0324,0.013523,0.002678,0.000431,0.000235
38811000,0.0324,0.013523,0.002678,0.000431,0.000353
38812000,0.0324,0.013523,0.002678,0.000431,0.000470
38813000,0.0324,0.013523,0.002678,0.000431,0.000353
38814000,0.0324,0.013523,0.002678,0.000431,0.000118
38815000,0.0324,0.013523,0.002678,0.000431,0.000470
38816000,0.0324,0.013523,0.002678,0.000431,0.000353
38817000,0.0324,0.013523,0.002678,0.000431,0.000235
38818000,0.0324,0.013523,0.002678,0.000431,0.000353
38819000,0.0324,0.013523,0.002678,0.000431,0.000470
38820000,0.0324,0.013523,0.002678,0.000431,0.000235
38821000,0.0324,0.013523,0.002678,0.000431,0.000235
38822000,0.0324,0.013523,0.002678,0.000431,0.000470
38823000,0.0324,0.013523,0.002678,0.000431,0.000353
38824000,0.0324,0.013523,0.002678,0.000431,0.000235
38825000,0.0324,0.013523,0.002678,0.000431,0.000353
38826000,0.0324,0.013523,0.002678,0.000431,0.000470
38827000,0.0324,0.013523,0.002678,0.000431,0.000235
38828000,0.0324,0.013523,0.002678,0.000431,0.000235
38829000,0.0324,0.013523,0.002678,0.000431,0.000470
38830000,0.0324,0.013523,0.002678,0.000431,0.000353
38831000,0.0324,0.013523,0.002678,0.000431,0.000235
38832000,0.0324,0.013523,0.002678,0.000431,0.000353
38833000,0.0324,0.013523,0.002678,0.000431,0.000470
38834000,0.0324,0.013523,0.002678,0.000431,0.000235
38835000,0.0324,0.013523,0.002678,0.000431,0.000235
38836000,0.0324,0.013523,0.002678,0.000431,0.000470
38837000,0.0324,0.013523,0.002678,0.000431,0.000353
38838000,0.0324,0.013523,0.002678,0.000431,0.000235
38839000,0.0324,0.013523,0.002678,0.000431,0.000353
38840000,0.0324,0.013523,0.002678,0.000431,0.000470
38841000,0.0324,0.013523,0.002678,0.000431,0.000235
38842000,0.0324,0.013523,0.002678,0.000431,0.000235
38843000,0.0324,0.013523,0.002678,0.000431,0.000470
38844000,0.0324,0.013523,0.002678,0.000431,0.000353
38845000,0.0324,0.013523,0.002678,0.000431,0.000235
38846000,0.0324,0.013523,0.002678,0.000431,0.000353
38847000,0.0324,0.013523,0.002678,0.000431,0.000470
38848000,0.0324,0.013523,0.002678,0.000431,0.000118
38849000,0.0324,0.013523,0.002678,0.000431,0.000353
38850000,0.0324,0.013523,0.002678,0.000431,0.000470
38851000,0.0324,0.013523,0.002678,0.000431,0.000353
38852000,0.0324,0.013523,0.002678,0.000431,0.000235
38853000,0.0324,0.013523,0.002678,0.000431,0.000353
38854000,0.0324,0.013523,0.002678,0.000431,0.000353
38855000,0.0324,0.013523,0.002678,0.000431,0.000235
38856000,0.0324,0.013523,0.002678,0.000431,0.000353
38857000,0.0324,0.013523,0.002678,0.000431,0.000470
38858000,0.0324,0.013523,0.002678,0.000431,0.000353
38859000,0.0324,0.013523,0.002678,0.000431,0.000235
38860000,0.0324,0.013523,0.002678,0.000431,0.000353
38861000,0.0324,0.013523,0.002678,0.000431,0.000353
38862000,0.0324,0.013523,0.002678,0.000431,0.000235
38863000,0.0324,0.013523,0.002678,0.000431,0.000353
38864000,0.0324,0.013523,0.002678,0.000431,0.000470
38865000,0.0324,0.013523,0.002678,0.000431,0.000353
38866000,0.0324,0.013523,0.002678,0.000431,0.000118
38867000,0.0324,0.013523,0.002678,0.000431,0.000470
38868000,0.0324,0.013523,0.002678,0.000431,0.000353
38869000,0.0324,0.013523,0.002678,0.000431,0.000235
38870000,0.0324,0.013523,0.002678,0.000431,0.000353
38871000,0.0324,0.013523,0.002678,0.000431,0.000470
38872000,0.0324,0.013523,0.002678,0.000431,0.000353
38873000,0.0324,0.013523,0.002678,0.000431,0.000118
38874000,0.0324,0.013523,0.002678,0.000431,0.000470
38875000,0.0324,0.013523,0.002678,0.000431,0.000353
38876000,0.0324,0.013523,0.002678,0.000431,0.000235
38877000,0.0324,0.013523,0.002678,0.000431,0.000353
38878000,0.0324,0.013523,0.002678,0.000431,0.000470
38879000,0.0324,0.013523,0.002678,0.000431,0.000235
38880000,0.0324,0.013523,0.002678,0.000431,0.000235
38881000,0.0324,0.013523,0.002678,0.000431,0.000470
38882000,0.0324,0.013523,0.002678,0.000431,0.000353
38883000,0.0324,0.013523,0.002678,0.000431,0.000235
38884000,0.0324,0.013523,0.002678,0.000431,0.000353
38885000,0.0324,0.013523,0.002678,0.000431,0.000470
38886000,0.0324,0.013523,0.002678,0.000431,0.000235
38887000,0.0324,0.013523,0.002678,0.000431,0.000235
38888000,0.0324,0.013523,0.002678,0.000431,0.000470
38889000,0.0324,0.013523,0.002678,0.000431,0.000353
38890000,0.0324,0.013523,0.002678,0.000431,0.000235
38891000,0.0324,0.013523,0.002678,0.000431,0.000353
38892000,0.0324,0.013523,0.002678,0.000431,0.000470
38893000,0.0324,0.013523,0.002678,0.000431,0.000118
38894000,0.0324,0.013523,0.002678,0.000431,0.000353
38895000,0.0324,0.013523,0.002678,0.000431,0.000470
38896000,0.0324,0.013523,0.002678,0.000431,0.000353
38897000,0.0324,0.013523,0.002678,0.000431,0.000235
38898000,0.0324,0.013523,0.002678,0.000431,0.000353
38899000,0.0324,0.013523,0.002678,0.000431,0.000353
38900000,0.0324,0.013523,0.002678,0.000431,0.000235
38901000,0.0324,0.013523,0.002678,0.000431,0.000353
38902000,0.0324,0.013523,0.002678,0.000431,0.000470
38903000,0.0324,0.013523,0.002678,0.000431,0.000353
38904000,0.0324,0.013523,0.002678,0.000431,0.000235
38905000,0.0324,0.013523,0.002678,0.000431,0.000353
38906000,0.0324,0.013523,0.002678,0.000431,0.000353
38907000,0.0324,0.013523,0.002678,0.000431,0.000235
38908000,0.0324,0.013523,0.002678,0.000431,0.000353
38909000,0.0324,0.013523,0.002678,0.000431,0.000470
38910000,0.0324,0.013523,0.002678,0.000431,0.000353
38911000,0.0324,0.013523,0.002678,0.000431,0.000118
38912000,0.0324,0.013523,0.002678,0.000431,0.000470
38913000,0.0324,0.013523,0.002678,0.000431,0.000353
38914000,0.0324,0.013523,0.002678,0.000431,0.000235
38915000,0.0324,0.013523,0.002678,0.000431,0.000353
38916000,0.0324,0.013523,0.002678,0.000431,0.000470
38917000,0.0324,0.013523,0.002678,0.000431,0.000235
38918000,0.0324,0.013523,0.002678,0.000431,0.000235
38919000,0.0324,0.013523,0.002678,0.000431,0.000470
38920000,0.0324,0.013523,0.002678,0.000431,0.000353
38921000,0.0324,0.013523,0.002678,0.000431,0.000235
38922000,0.0324,0.013523,0.002678,0.000431,0.000353
38923000,0.0324,0.013523,0.002678,0.000431,0.000470
38924000,0.0324,0.013523,0.002678,0.000431,0.000235
38925000,0.0324,0.013523,0.002678,0.000431,0.000235
38926000,0.0324,0.013523,0.002678,0.000431,0.000470
38927000,0.0324,0.013523,0.002678,0.000431,0.000353
38928000,0.0324,0.013523,0.002678,0.000431,0.000235
38929000,0.0324,0.013523,0.002678,0.000431,0.000353
38930000,0.0324,0.013523,0.002678,0.000431,0.000470
38931000,0.0324,0.013523,0.002678,0.000431,0.000118
38932000,0.0324,0.013523,0.002678,0.000431,0.000353
38933000,0.0324,0.013523,0.002678,0.000431,0.000470
38934000,0.0324,0.013523,0.002678,0.000431,0.000353
38935000,0.0324,0.013523,0.002678,0.000431,0.000235
38936000,0.0324,0.013523,0.002678,0.000431,0.000353
38937000,0.0324,0.013523,0.002678,0.000431,0.000470
38938000,0.0324,0.013523,0.002678,0.000431,0.000118
38939000,0.0324,0.013523,0.002678,0.000431,0.000353
38940000,0.0324,0.013523,0.002678,0.000431,0.000470
38941000,0.0324,0.013523,0.002678,0.000431,0.000353
38942000,0.0324,0.013523,0.002678,0.000431,0.000235
38943000,0.0324,0.013523,0.002678,0.000431,0.000353
38944000,0.0324,0.013523,0.002678,0.000431,0.000353
38945000,0.0324,0.013523,0.002678,0.000431,0.000235
38946000,0.0324,0.013523,0.002678,0.000431,0.000353
38947000,0.0324,0.013523,0.002678,0.000431,0.000470
38948000,0.0324,0.013523,0.002678,0.000431,0.000353
38949000,0.0324,0.013523,0.002678,0.000431,0.000235
38950000,0.0324,0.013523,0.002678,0.000431,0.000353
38951000,0.0324,0.013523,0.002678,0.000431,0.000353
38952000,0.0324,0.013523,0.002678,0.000431,0.000235
38953000,0.0324,0.013523,0.002678,0.000431,0.000353
38954000,0.0324,0.013523,0.002678,0.000431,0.000470
38955000,0.0324,0.013523,0.002678,0.000431,0.000353
38956000,0.0324,0.013523,0.002678,0.000431,0.000118
38957000,0.0324,0.013523,0.002678,0.000431,0.000470
38958000,0.0324,0.013523,0.002678,0.000431,0.000353
38959000,0.0324,0.013523,0.002678,0.000431,0.000235
38960000,0.0324,0.013523,0.002678,0.000431,0.000353
38961000,0.0324,0.013523,0.002678,0.000431,0.000470
38962000,0.0324,0.013523,0.002678,0.000431,0.000235
38963000,0.0324,0.013523,0.002678,0.000431,0.000235
38964000,0.0324,0.013523,0.002678,0.000431,0.000470
38965000,0.0324,0.013523,0.002678,0.000431,0.000353
38966000,0.0324,0.013523,0.002678,0.000431,0.000235
38967000,0.0324,0.013523,0.002678,0.000431,0.000353
38968000,0.0324,0.013523,0.002678,0.000431,0.000470
38969000,0.0324,0.013523,0.002678,0.000431,0.000235
38970000,0.0324,0.013523,0.002678,0.000431,0.000235
38971000,0.0324,0.013523,0.002678,0.000431,0.000470
38972000,0.0324,0.013523,0.002678,0.000431,0.000353
38973000,0.0324,0.013523,0.002678,0.000431,0.000235
38974000,0.0324,0.013523,0.002678,0.000431,0.000353
38975000,0.0324,0.013523,0.002678,0.000431,0.000470
38976000,0.0324,0.013523,0.002678,0.000431,0.000118
38977000,0.0324,0.013523,0.002678,0.000431,0.000353
38978000,0.0324,0.013523,0.002678,0.000431,0.000470
38979000,0.0324,0.013523,0.002678,0.000431,0.000353
38980000,0.0324,0.013523,0.002678,0.000431,0.000235
38981000,0.0324,0.013523,0.002678,0.000431,0.000353
38982000,0.0324,0.013523,0.002678,0.000431,0.000470
38983000,0.0324,0.013523,0.002678,0.000431,0.000118
38984000,0.0324,0.013523,0.002678,0.000431,0.000353
38985000,0.0324,0.013523,0.002678,0.000431,0.000470
38986000,0.0324,0.013523,0.002678,0.000431,0.000353
38987000,0.0324,0.013523,0.002678,0.000431,0.000235
38988000,0.0324,0.013523,0.002678,0.000431,0.000353
38989000,0.0324,0.013523,0.002678,0.000431,0.000353
38990000,0.0324,0.013523,0.002678,0.000431,0.000235
38991000,0.0324,0.013523,0.002678,0.000431,0.000353
38992000,0.0324,0.013523,0.002678,0.000431,0.000470
38993000,0.0324,0.013523,0.002678,0.000431,0.000353
38994000,0.0324,0.013523,0.002678,0.000431,0.000235
38995000,0.0324,0.013523,0.002678,0.000431,0.000353
38996000,0.0324,0.013523,0.002678,0.000431,0.000353
38997000,0.0324,0.013523,0.002678,0.000431,0.000235
38998000,0.0324,0.013523,0.002678,0.000431,0.000353
38999000,0.0324,0.013523,0.002678,0.000431,0.000470
