Cycle,Area(mm^2),PeakDynamic(W),SubthresholdLeakage(W),GateLeakage(W),RunTimeDynamic(W)
42000000,0.0324,0.013523,0.002678,0.000431,0.000118
42001000,0.0324,0.013523,0.002678,0.000431,0.000470
42002000,0.0324,0.013523,0.002678,0.000431,0.000353
42003000,0.0324,0.013523,0.002678,0.000431,0.000235
42004000,0.0324,0.013523,0.002678,0.000431,0.000353
42005000,0.0324,0.013523,0.002678,0.000431,0.000470
42006000,0.0324,0.013523,0.002678,0.000431,0.000235
42007000,0.0324,0.013523,0.002678,0.000431,0.000235
42008000,0.0324,0.013523,0.002678,0.000431,0.000470
42009000,0.0324,0.013523,0.002678,0.000431,0.000353
42010000,0.0324,0.013523,0.002678,0.000431,0.000235
42011000,0.0324,0.013523,0.002678,0.000431,0.000353
42012000,0.0324,0.013523,0.002678,0.000431,0.000470
42013000,0.0324,0.013523,0.002678,0.000431,0.000235
42014000,0.0324,0.013523,0.002678,0.000431,0.000235
42015000,0.0324,0.013523,0.002678,0.000431,0.000470
42016000,0.0324,0.013523,0.002678,0.000431,0.000353
42017000,0.0324,0.013523,0.002678,0.000431,0.000235
42018000,0.0324,0.013523,0.002678,0.000431,0.000353
42019000,0.0324,0.013523,0.002678,0.000431,0.000470
42020000,0.0324,0.013523,0.002678,0.000431,0.000235
42021000,0.0324,0.013523,0.002678,0.000431,0.000235
42022000,0.0324,0.013523,0.002678,0.000431,0.000470
42023000,0.0324,0.013523,0.002678,0.000431,0.000353
42024000,0.0324,0.013523,0.002678,0.000431,0.000235
42025000,0.0324,0.013523,0.002678,0.000431,0.000353
42026000,0.0324,0.013523,0.002678,0.000431,0.000470
42027000,0.0324,0.013523,0.002678,0.000431,0.000235
42028000,0.0324,0.013523,0.002678,0.000431,0.000235
42029000,0.0324,0.013523,0.002678,0.000431,0.000470
42030000,0.0324,0.013523,0.002678,0.000431,0.000353
42031000,0.0324,0.013523,0.002678,0.000431,0.000235
42032000,0.0324,0.013523,0.002678,0.000431,0.000353
42033000,0.0324,0.013523,0.002678,0.000431,0.000470
42034000,0.0324,0.013523,0.002678,0.000431,0.000235
42035000,0.0324,0.013523,0.002678,0.000431,0.000235
42036000,0.0324,0.013523,0.002678,0.000431,0.000470
42037000,0.0324,0.013523,0.002678,0.000431,0.000353
42038000,0.0324,0.013523,0.002678,0.000431,0.000235
42039000,0.0324,0.013523,0.002678,0.000431,0.000353
42040000,0.0324,0.013523,0.002678,0.000431,0.000470
42041000,0.0324,0.013523,0.002678,0.000431,0.000235
42042000,0.0324,0.013523,0.002678,0.000431,0.000235
42043000,0.0324,0.013523,0.002678,0.000431,0.000470
42044000,0.0324,0.013523,0.002678,0.000431,0.000353
42045000,0.0324,0.013523,0.002678,0.000431,0.000235
42046000,0.0324,0.013523,0.002678,0.000431,0.000353
42047000,0.0324,0.013523,0.002678,0.000431,0.000470
42048000,0.0324,0.013523,0.002678,0.000431,0.000118
42049000,0.0324,0.013523,0.002678,0.000431,0.000353
42050000,0.0324,0.013523,0.002678,0.000431,0.000470
42051000,0.0324,0.013523,0.002678,0.000431,0.000353
42052000,0.0324,0.013523,0.002678,0.000431,0.000235
42053000,0.0324,0.013523,0.002678,0.000431,0.000353
42054000,0.0324,0.013523,0.002678,0.000431,0.000470
42055000,0.0324,0.013523,0.002678,0.000431,0.000118
42056000,0.0324,0.013523,0.002678,0.000431,0.000353
42057000,0.0324,0.013523,0.002678,0.000431,0.000470
42058000,0.0324,0.013523,0.002678,0.000431,0.000353
42059000,0.0324,0.013523,0.002678,0.000431,0.000235
42060000,0.0324,0.013523,0.002678,0.000431,0.000353
42061000,0.0324,0.013523,0.002678,0.000431,0.000470
42062000,0.0324,0.013523,0.002678,0.000431,0.000118
42063000,0.0324,0.013523,0.002678,0.000431,0.000353
42064000,0.0324,0.013523,0.002678,0.000431,0.000470
42065000,0.0324,0.013523,0.002678,0.000431,0.000353
42066000,0.0324,0.013523,0.002678,0.000431,0.000235
42067000,0.0324,0.013523,0.002678,0.000431,0.000353
42068000,0.0324,0.013523,0.002678,0.000431,0.000353
42069000,0.0324,0.013523,0.002678,0.000431,0.000235
42070000,0.0324,0.013523,0.002678,0.000431,0.000353
42071000,0.0324,0.013523,0.002678,0.000431,0.000470
42072000,0.0324,0.013523,0.002678,0.000431,0.000353
42073000,0.0324,0.013523,0.002678,0.000431,0.000235
42074000,0.0324,0.013523,0.002678,0.000431,0.000353
42075000,0.0324,0.013523,0.002678,0.000431,0.000353
42076000,0.0324,0.013523,0.002678,0.000431,0.000235
42077000,0.0324,0.013523,0.002678,0.000431,0.000353
42078000,0.0324,0.013523,0.002678,0.000431,0.000470
42079000,0.0324,0.013523,0.002678,0.000431,0.000353
42080000,0.0324,0.013523,0.002678,0.000431,0.000235
42081000,0.0324,0.013523,0.002678,0.000431,0.000353
42082000,0.0324,0.013523,0.002678,0.000431,0.000353
42083000,0.0324,0.013523,0.002678,0.000431,0.000235
42084000,0.0324,0.013523,0.002678,0.000431,0.000353
42085000,0.0324,0.013523,0.002678,0.000431,0.000470
42086000,0.0324,0.013523,0.002678,0.000431,0.000353
42087000,0.0324,0.013523,0.002678,0.000431,0.000235
42088000,0.0324,0.013523,0.002678,0.000431,0.000353
42089000,0.0324,0.013523,0.002678,0.000431,0.000353
42090000,0.0324,0.013523,0.002678,0.000431,0.000235
42091000,0.0324,0.013523,0.002678,0.000431,0.000353
42092000,0.0324,0.013523,0.002678,0.000431,0.000470
42093000,0.0324,0.013523,0.002678,0.000431,0.000353
42094000,0.0324,0.013523,0.002678,0.000431,0.000235
42095000,0.0324,0.013523,0.002678,0.000431,0.000353
42096000,0.0324,0.013523,0.002678,0.000431,0.000353
42097000,0.0324,0.013523,0.002678,0.000431,0.000235
42098000,0.0324,0.013523,0.002678,0.000431,0.000353
42099000,0.0324,0.013523,0.002678,0.000431,0.000470
42100000,0.0324,0.013523,0.002678,0.000431,0.000353
42101000,0.0324,0.013523,0.002678,0.000431,0.000235
42102000,0.0324,0.013523,0.002678,0.000431,0.000353
42103000,0.0324,0.013523,0.002678,0.000431,0.000353
42104000,0.0324,0.013523,0.002678,0.000431,0.000235
42105000,0.0324,0.013523,0.002678,0.000431,0.000353
42106000,0.0324,0.013523,0.002678,0.000431,0.000470
42107000,0.0324,0.013523,0.002678,0.000431,0.000353
42108000,0.0324,0.013523,0.002678,0.000431,0.000235
42109000,0.0324,0.013523,0.002678,0.000431,0.000353
42110000,0.0324,0.013523,0.002678,0.000431,0.000353
42111000,0.0324,0.013523,0.002678,0.000431,0.000235
42112000,0.0324,0.013523,0.002678,0.000431,0.000353
42113000,0.0324,0.013523,0.002678,0.000431,0.000470
42114000,0.0324,0.013523,0.002678,0.000431,0.000353
42115000,0.0324,0.013523,0.002678,0.000431,0.000235
42116000,0.0324,0.013523,0.002678,0.000431,0.000353
42117000,0.0324,0.013523,0.002678,0.000431,0.000353
42118000,0.0324,0.013523,0.002678,0.000431,0.000235
42119000,0.0324,0.013523,0.002678,0.000431,0.000353
42120000,0.0324,0.013523,0.002678,0.000431,0.000470
42121000,0.0324,0.013523,0.002678,0.000431,0.000353
42122000,0.0324,0.013523,0.002678,0.000431,0.000118
42123000,0.0324,0.013523,0.002678,0.000431,0.000470
42124000,0.0324,0.013523,0.002678,0.000431,0.000353
42125000,0.0324,0.013523,0.002678,0.000431,0.000235
42126000,0.0324,0.013523,0.002678,0.000431,0.000353
42127000,0.0324,0.013523,0.002678,0.000431,0.000470
42128000,0.0324,0.013523,0.002678,0.000431,0.000353
42129000,0.0324,0.013523,0.002678,0.000431,0.000118
42130000,0.0324,0.013523,0.002678,0.000431,0.000470
42131000,0.0324,0.013523,0.002678,0.000431,0.000353
42132000,0.0324,0.013523,0.002678,0.000431,0.000235
42133000,0.0324,0.013523,0.002678,0.000431,0.000353
42134000,0.0324,0.013523,0.002678,0.000431,0.000470
42135000,0.0324,0.013523,0.002678,0.000431,0.000353
42136000,0.0324,0.013523,0.002678,0.000431,0.000118
42137000,0.0324,0.013523,0.002678,0.000431,0.000470
42138000,0.0324,0.013523,0.002678,0.000431,0.000353
42139000,0.0324,0.013523,0.002678,0.000431,0.000235
42140000,0.0324,0.013523,0.002678,0.000431,0.000353
42141000,0.0324,0.013523,0.002678,0.000431,0.000470
42142000,0.0324,0.013523,0.002678,0.000431,0.000235
42143000,0.0324,0.013523,0.002678,0.000431,0.000235
42144000,0.0324,0.013523,0.002678,0.000431,0.000470
42145000,0.0324,0.013523,0.002678,0.000431,0.000353
42146000,0.0324,0.013523,0.002678,0.000431,0.000235
42147000,0.0324,0.013523,0.002678,0.000431,0.000353
42148000,0.0324,0.013523,0.002678,0.000431,0.000470
42149000,0.0324,0.013523,0.002678,0.000431,0.000235
42150000,0.0324,0.013523,0.002678,0.000431,0.000235
42151000,0.0324,0.013523,0.002678,0.000431,0.000470
42152000,0.0324,0.013523,0.002678,0.000431,0.000353
42153000,0.0324,0.013523,0.002678,0.000431,0.000235
42154000,0.0324,0.013523,0.002678,0.000431,0.000353
42155000,0.0324,0.013523,0.002678,0.000431,0.000470
42156000,0.0324,0.013523,0.002678,0.000431,0.000235
42157000,0.0324,0.013523,0.002678,0.000431,0.000235
42158000,0.0324,0.013523,0.002678,0.000431,0.000470
42159000,0.0324,0.013523,0.002678,0.000431,0.000353
42160000,0.0324,0.013523,0.002678,0.000431,0.000235
42161000,0.0324,0.013523,0.002678,0.000431,0.000353
42162000,0.0324,0.013523,0.002678,0.000431,0.000470
42163000,0.0324,0.013523,0.002678,0.000431,0.000235
42164000,0.0324,0.013523,0.002678,0.000431,0.000235
42165000,0.0324,0.013523,0.002678,0.000431,0.000470
42166000,0.0324,0.013523,0.002678,0.000431,0.000353
42167000,0.0324,0.013523,0.002678,0.000431,0.000235
42168000,0.0324,0.013523,0.002678,0.000431,0.000353
42169000,0.0324,0.013523,0.002678,0.000431,0.000470
42170000,0.0324,0.013523,0.002678,0.000431,0.000235
42171000,0.0324,0.013523,0.002678,0.000431,0.000235
42172000,0.0324,0.013523,0.002678,0.000431,0.000470
42173000,0.0324,0.013523,0.002678,0.000431,0.000353
42174000,0.0324,0.013523,0.002678,0.000431,0.000235
42175000,0.0324,0.013523,0.002678,0.000431,0.000353
42176000,0.0324,0.013523,0.002678,0.000431,0.000470
42177000,0.0324,0.013523,0.002678,0.000431,0.000235
42178000,0.0324,0.013523,0.002678,0.000431,0.000235
42179000,0.0324,0.013523,0.002678,0.000431,0.000470
42180000,0.0324,0.013523,0.002678,0.000431,0.000353
42181000,0.0324,0.013523,0.002678,0.000431,0.000235
42182000,0.0324,0.013523,0.002678,0.000431,0.000353
42183000,0.0324,0.013523,0.002678,0.000431,0.000470
42184000,0.0324,0.013523,0.002678,0.000431,0.000118
42185000,0.0324,0.013523,0.002678,0.000431,0.000353
42186000,0.0324,0.013523,0.002678,0.000431,0.000470
42187000,0.0324,0.013523,0.002678,0.000431,0.000353
42188000,0.0324,0.013523,0.002678,0.000431,0.000235
42189000,0.0324,0.013523,0.002678,0.000431,0.000353
42190000,0.0324,0.013523,0.002678,0.000431,0.000470
42191000,0.0324,0.013523,0.002678,0.000431,0.000118
42192000,0.0324,0.013523,0.002678,0.000431,0.000353
42193000,0.0324,0.013523,0.002678,0.000431,0.000470
42194000,0.0324,0.013523,0.002678,0.000431,0.000353
42195000,0.0324,0.013523,0.002678,0.000431,0.000235
42196000,0.0324,0.013523,0.002678,0.000431,0.000353
42197000,0.0324,0.013523,0.002678,0.000431,0.000470
42198000,0.0324,0.013523,0.002678,0.000431,0.000118
42199000,0.0324,0.013523,0.002678,0.000431,0.000353
42200000,0.0324,0.013523,0.002678,0.000431,0.000470
42201000,0.0324,0.013523,0.002678,0.000431,0.000353
42202000,0.0324,0.013523,0.002678,0.000431,0.000235
42203000,0.0324,0.013523,0.002678,0.000431,0.000353
42204000,0.0324,0.013523,0.002678,0.000431,0.000470
42205000,0.0324,0.013523,0.002678,0.000431,0.000118
42206000,0.0324,0.013523,0.002678,0.000431,0.000353
42207000,0.0324,0.013523,0.002678,0.000431,0.000470
42208000,0.0324,0.013523,0.002678,0.000431,0.000353
42209000,0.0324,0.013523,0.002678,0.000431,0.000235
42210000,0.0324,0.013523,0.002678,0.000431,0.000353
42211000,0.0324,0.013523,0.002678,0.000431,0.000353
42212000,0.0324,0.013523,0.002678,0.000431,0.000235
42213000,0.0324,0.013523,0.002678,0.000431,0.000353
42214000,0.0324,0.013523,0.002678,0.000431,0.000470
42215000,0.0324,0.013523,0.002678,0.000431,0.000353
42216000,0.0324,0.013523,0.002678,0.000431,0.000235
42217000,0.0324,0.013523,0.002678,0.000431,0.000353
42218000,0.0324,0.013523,0.002678,0.000431,0.000353
42219000,0.0324,0.013523,0.002678,0.000431,0.000235
42220000,0.0324,0.013523,0.002678,0.000431,0.000353
42221000,0.0324,0.013523,0.002678,0.000431,0.000470
42222000,0.0324,0.013523,0.002678,0.000431,0.000353
42223000,0.0324,0.013523,0.002678,0.000431,0.000235
42224000,0.0324,0.013523,0.002678,0.000431,0.000353
42225000,0.0324,0.013523,0.002678,0.000431,0.000353
42226000,0.0324,0.013523,0.002678,0.000431,0.000235
42227000,0.0324,0.013523,0.002678,0.000431,0.000353
42228000,0.0324,0.013523,0.002678,0.000431,0.000470
42229000,0.0324,0.013523,0.002678,0.000431,0.000353
42230000,0.0324,0.013523,0.002678,0.000431,0.000235
42231000,0.0324,0.013523,0.002678,0.000431,0.000353
42232000,0.0324,0.013523,0.002678,0.000431,0.000353
42233000,0.0324,0.013523,0.002678,0.000431,0.000235
42234000,0.0324,0.013523,0.002678,0.000431,0.000353
42235000,0.0324,0.013523,0.002678,0.000431,0.000470
42236000,0.0324,0.013523,0.002678,0.000431,0.000353
42237000,0.0324,0.013523,0.002678,0.000431,0.000235
42238000,0.0324,0.013523,0.002678,0.000431,0.000353
42239000,0.0324,0.013523,0.002678,0.000431,0.000353
42240000,0.0324,0.013523,0.002678,0.000431,0.000235
42241000,0.0324,0.013523,0.002678,0.000431,0.000353
42242000,0.0324,0.013523,0.002678,0.000431,0.000470
42243000,0.0324,0.013523,0.002678,0.000431,0.000353
42244000,0.0324,0.013523,0.002678,0.000431,0.000235
42245000,0.0324,0.013523,0.002678,0.000431,0.000353
42246000,0.0324,0.013523,0.002678,0.000431,0.000353
42247000,0.0324,0.013523,0.002678,0.000431,0.000235
42248000,0.0324,0.013523,0.002678,0.000431,0.000353
42249000,0.0324,0.013523,0.002678,0.000431,0.000470
42250000,0.0324,0.013523,0.002678,0.000431,0.000353
42251000,0.0324,0.013523,0.002678,0.000431,0.000235
42252000,0.0324,0.013523,0.002678,0.000431,0.000353
42253000,0.0324,0.013523,0.002678,0.000431,0.000353
42254000,0.0324,0.013523,0.002678,0.000431,0.000235
42255000,0.0324,0.013523,0.002678,0.000431,0.000353
42256000,0.0324,0.013523,0.002678,0.000431,0.000470
42257000,0.0324,0.013523,0.002678,0.000431,0.000353
42258000,0.0324,0.013523,0.002678,0.000431,0.000235
42259000,0.0324,0.013523,0.002678,0.000431,0.000353
42260000,0.0324,0.013523,0.002678,0.000431,0.000353
42261000,0.0324,0.013523,0.002678,0.000431,0.000235
42262000,0.0324,0.013523,0.002678,0.000431,0.000353
42263000,0.0324,0.013523,0.002678,0.000431,0.000470
42264000,0.0324,0.013523,0.002678,0.000431,0.000353
42265000,0.0324,0.013523,0.002678,0.000431,0.000118
42266000,0.0324,0.013523,0.002678,0.000431,0.000470
42267000,0.0324,0.013523,0.002678,0.000431,0.000353
42268000,0.0324,0.013523,0.002678,0.000431,0.000235
42269000,0.0324,0.013523,0.002678,0.000431,0.000353
42270000,0.0324,0.013523,0.002678,0.000431,0.000470
42271000,0.0324,0.013523,0.002678,0.000431,0.000353
42272000,0.0324,0.013523,0.002678,0.000431,0.000118
42273000,0.0324,0.013523,0.002678,0.000431,0.000470
42274000,0.0324,0.013523,0.002678,0.000431,0.000353
42275000,0.0324,0.013523,0.002678,0.000431,0.000235
42276000,0.0324,0.013523,0.002678,0.000431,0.000353
42277000,0.0324,0.013523,0.002678,0.000431,0.000470
42278000,0.0324,0.013523,0.002678,0.000431,0.000353
42279000,0.0324,0.013523,0.002678,0.000431,0.000118
42280000,0.0324,0.013523,0.002678,0.000431,0.000470
42281000,0.0324,0.013523,0.002678,0.000431,0.000353
42282000,0.0324,0.013523,0.002678,0.000431,0.000235
42283000,0.0324,0.013523,0.002678,0.000431,0.000353
42284000,0.0324,0.013523,0.002678,0.000431,0.000470
42285000,0.0324,0.013523,0.002678,0.000431,0.000235
42286000,0.0324,0.013523,0.002678,0.000431,0.000235
42287000,0.0324,0.013523,0.002678,0.000431,0.000470
42288000,0.0324,0.013523,0.002678,0.000431,0.000353
42289000,0.0324,0.013523,0.002678,0.000431,0.000235
42290000,0.0324,0.013523,0.002678,0.000431,0.000353
42291000,0.0324,0.013523,0.002678,0.000431,0.000470
42292000,0.0324,0.013523,0.002678,0.000431,0.000235
42293000,0.0324,0.013523,0.002678,0.000431,0.000235
42294000,0.0324,0.013523,0.002678,0.000431,0.000470
42295000,0.0324,0.013523,0.002678,0.000431,0.000353
42296000,0.0324,0.013523,0.002678,0.000431,0.000235
42297000,0.0324,0.013523,0.002678,0.000431,0.000353
42298000,0.0324,0.013523,0.002678,0.000431,0.000470
42299000,0.0324,0.013523,0.002678,0.000431,0.000235
42300000,0.0324,0.013523,0.002678,0.000431,0.000235
42301000,0.0324,0.013523,0.002678,0.000431,0.000470
42302000,0.0324,0.013523,0.002678,0.000431,0.000353
42303000,0.0324,0.013523,0.002678,0.000431,0.000235
42304000,0.0324,0.013523,0.002678,0.000431,0.000353
42305000,0.0324,0.013523,0.002678,0.000431,0.000470
42306000,0.0324,0.013523,0.002678,0.000431,0.000235
42307000,0.0324,0.013523,0.002678,0.000431,0.000235
42308000,0.0324,0.013523,0.002678,0.000431,0.000470
42309000,0.0324,0.013523,0.002678,0.000431,0.000353
42310000,0.0324,0.013523,0.002678,0.000431,0.000235
42311000,0.0324,0.013523,0.002678,0.000431,0.000353
42312000,0.0324,0.013523,0.002678,0.000431,0.000470
42313000,0.0324,0.013523,0.002678,0.000431,0.000235
42314000,0.0324,0.013523,0.002678,0.000431,0.000235
42315000,0.0324,0.013523,0.002678,0.000431,0.000470
42316000,0.0324,0.013523,0.002678,0.000431,0.000353
42317000,0.0324,0.013523,0.002678,0.000431,0.000235
42318000,0.0324,0.013523,0.002678,0.000431,0.000353
42319000,0.0324,0.013523,0.002678,0.000431,0.000470
42320000,0.0324,0.013523,0.002678,0.000431,0.000235
42321000,0.0324,0.013523,0.002678,0.000431,0.000235
42322000,0.0324,0.013523,0.002678,0.000431,0.000470
42323000,0.0324,0.013523,0.002678,0.000431,0.000353
42324000,0.0324,0.013523,0.002678,0.000431,0.000235
42325000,0.0324,0.013523,0.002678,0.000431,0.000353
42326000,0.0324,0.013523,0.002678,0.000431,0.000470
42327000,0.0324,0.013523,0.002678,0.000431,0.000118
42328000,0.0324,0.013523,0.002678,0.000431,0.000353
42329000,0.0324,0.013523,0.002678,0.000431,0.000470
42330000,0.0324,0.013523,0.002678,0.000431,0.000353
42331000,0.0324,0.013523,0.002678,0.000431,0.000235
42332000,0.0324,0.013523,0.002678,0.000431,0.000353
42333000,0.0324,0.013523,0.002678,0.000431,0.000470
42334000,0.0324,0.013523,0.002678,0.000431,0.000118
42335000,0.0324,0.013523,0.002678,0.000431,0.000353
42336000,0.0324,0.013523,0.002678,0.000431,0.000470
42337000,0.0324,0.013523,0.002678,0.000431,0.000353
42338000,0.0324,0.013523,0.002678,0.000431,0.000235
42339000,0.0324,0.013523,0.002678,0.000431,0.000353
42340000,0.0324,0.013523,0.002678,0.000431,0.000470
42341000,0.0324,0.013523,0.002678,0.000431,0.000118
42342000,0.0324,0.013523,0.002678,0.000431,0.000353
42343000,0.0324,0.013523,0.002678,0.000431,0.000470
42344000,0.0324,0.013523,0.002678,0.000431,0.000353
42345000,0.0324,0.013523,0.002678,0.000431,0.000235
42346000,0.0324,0.013523,0.002678,0.000431,0.000353
42347000,0.0324,0.013523,0.002678,0.000431,0.000353
42348000,0.0324,0.013523,0.002678,0.000431,0.000235
42349000,0.0324,0.013523,0.002678,0.000431,0.000353
42350000,0.0324,0.013523,0.002678,0.000431,0.000470
42351000,0.0324,0.013523,0.002678,0.000431,0.000353
42352000,0.0324,0.013523,0.002678,0.000431,0.000235
42353000,0.0324,0.013523,0.002678,0.000431,0.000353
42354000,0.0324,0.013523,0.002678,0.000431,0.000353
42355000,0.0324,0.013523,0.002678,0.000431,0.000235
42356000,0.0324,0.013523,0.002678,0.000431,0.000353
42357000,0.0324,0.013523,0.002678,0.000431,0.000470
42358000,0.0324,0.013523,0.002678,0.000431,0.000353
42359000,0.0324,0.013523,0.002678,0.000431,0.000235
42360000,0.0324,0.013523,0.002678,0.000431,0.000353
42361000,0.0324,0.013523,0.002678,0.000431,0.000353
42362000,0.0324,0.013523,0.002678,0.000431,0.000235
42363000,0.0324,0.013523,0.002678,0.000431,0.000353
42364000,0.0324,0.013523,0.002678,0.000431,0.000470
42365000,0.0324,0.013523,0.002678,0.000431,0.000353
42366000,0.0324,0.013523,0.002678,0.000431,0.000235
42367000,0.0324,0.013523,0.002678,0.000431,0.000353
42368000,0.0324,0.013523,0.002678,0.000431,0.000353
42369000,0.0324,0.013523,0.002678,0.000431,0.000235
42370000,0.0324,0.013523,0.002678,0.000431,0.000353
42371000,0.0324,0.013523,0.002678,0.000431,0.000470
42372000,0.0324,0.013523,0.002678,0.000431,0.000353
42373000,0.0324,0.013523,0.002678,0.000431,0.000235
42374000,0.0324,0.013523,0.002678,0.000431,0.000353
42375000,0.0324,0.013523,0.002678,0.000431,0.000353
42376000,0.0324,0.013523,0.002678,0.000431,0.000235
42377000,0.0324,0.013523,0.002678,0.000431,0.000353
42378000,0.0324,0.013523,0.002678,0.000431,0.000470
42379000,0.0324,0.013523,0.002678,0.000431,0.000353
42380000,0.0324,0.013523,0.002678,0.000431,0.000235
42381000,0.0324,0.013523,0.002678,0.000431,0.000353
42382000,0.0324,0.013523,0.002678,0.000431,0.000353
42383000,0.0324,0.013523,0.002678,0.000431,0.000235
42384000,0.0324,0.013523,0.002678,0.000431,0.000353
42385000,0.0324,0.013523,0.002678,0.000431,0.000470
42386000,0.0324,0.013523,0.002678,0.000431,0.000353
42387000,0.0324,0.013523,0.002678,0.000431,0.000235
42388000,0.0324,0.013523,0.002678,0.000431,0.000353
42389000,0.0324,0.013523,0.002678,0.000431,0.000353
42390000,0.0324,0.013523,0.002678,0.000431,0.000235
42391000,0.0324,0.013523,0.002678,0.000431,0.000353
42392000,0.0324,0.013523,0.002678,0.000431,0.000470
42393000,0.0324,0.013523,0.002678,0.000431,0.000353
42394000,0.0324,0.013523,0.002678,0.000431,0.000235
42395000,0.0324,0.013523,0.002678,0.000431,0.000353
42396000,0.0324,0.013523,0.002678,0.000431,0.000353
42397000,0.0324,0.013523,0.002678,0.000431,0.000235
42398000,0.0324,0.013523,0.002678,0.000431,0.000353
42399000,0.0324,0.013523,0.002678,0.000431,0.000470
42400000,0.0324,0.013523,0.002678,0.000431,0.000353
42401000,0.0324,0.013523,0.002678,0.000431,0.000118
42402000,0.0324,0.013523,0.002678,0.000431,0.000470
42403000,0.0324,0.013523,0.002678,0.000431,0.000353
42404000,0.0324,0.013523,0.002678,0.000431,0.000235
42405000,0.0324,0.013523,0.002678,0.000431,0.000353
42406000,0.0324,0.013523,0.002678,0.000431,0.000470
42407000,0.0324,0.013523,0.002678,0.000431,0.000353
42408000,0.0324,0.013523,0.002678,0.000431,0.000118
42409000,0.0324,0.013523,0.002678,0.000431,0.000470
42410000,0.0324,0.013523,0.002678,0.000431,0.000353
42411000,0.0324,0.013523,0.002678,0.000431,0.000235
42412000,0.0324,0.013523,0.002678,0.000431,0.000353
42413000,0.0324,0.013523,0.002678,0.000431,0.000470
42414000,0.0324,0.013523,0.002678,0.000431,0.000353
42415000,0.0324,0.013523,0.002678,0.000431,0.000118
42416000,0.0324,0.013523,0.002678,0.000431,0.000470
42417000,0.0324,0.013523,0.002678,0.000431,0.000353
42418000,0.0324,0.013523,0.002678,0.000431,0.000235
42419000,0.0324,0.013523,0.002678,0.000431,0.000353
42420000,0.0324,0.013523,0.002678,0.000431,0.000470
42421000,0.0324,0.013523,0.002678,0.000431,0.000353
42422000,0.0324,0.013523,0.002678,0.000431,0.000118
42423000,0.0324,0.013523,0.002678,0.000431,0.000470
42424000,0.0324,0.013523,0.002678,0.000431,0.000353
42425000,0.0324,0.013523,0.002678,0.000431,0.000235
42426000,0.0324,0.013523,0.002678,0.000431,0.000353
42427000,0.0324,0.013523,0.002678,0.000431,0.000470
42428000,0.0324,0.013523,0.002678,0.000431,0.000235
42429000,0.0324,0.013523,0.002678,0.000431,0.000235
42430000,0.0324,0.013523,0.002678,0.000431,0.000470
42431000,0.0324,0.013523,0.002678,0.000431,0.000353
42432000,0.0324,0.013523,0.002678,0.000431,0.000235
42433000,0.0324,0.013523,0.002678,0.000431,0.000353
42434000,0.0324,0.013523,0.002678,0.000431,0.000470
42435000,0.0324,0.013523,0.002678,0.000431,0.000235
42436000,0.0324,0.013523,0.002678,0.000431,0.000235
42437000,0.0324,0.013523,0.002678,0.000431,0.000470
42438000,0.0324,0.013523,0.002678,0.000431,0.000353
42439000,0.0324,0.013523,0.002678,0.000431,0.000235
42440000,0.0324,0.013523,0.002678,0.000431,0.000353
42441000,0.0324,0.013523,0.002678,0.000431,0.000470
42442000,0.0324,0.013523,0.002678,0.000431,0.000235
42443000,0.0324,0.013523,0.002678,0.000431,0.000235
42444000,0.0324,0.013523,0.002678,0.000431,0.000470
42445000,0.0324,0.013523,0.002678,0.000431,0.000353
42446000,0.0324,0.013523,0.002678,0.000431,0.000235
42447000,0.0324,0.013523,0.002678,0.000431,0.000353
42448000,0.0324,0.013523,0.002678,0.000431,0.000470
42449000,0.0324,0.013523,0.002678,0.000431,0.000235
42450000,0.0324,0.013523,0.002678,0.000431,0.000235
42451000,0.0324,0.013523,0.002678,0.000431,0.000470
42452000,0.0324,0.013523,0.002678,0.000431,0.000353
42453000,0.0324,0.013523,0.002678,0.000431,0.000235
42454000,0.0324,0.013523,0.002678,0.000431,0.000353
42455000,0.0324,0.013523,0.002678,0.000431,0.000470
42456000,0.0324,0.013523,0.002678,0.000431,0.000235
42457000,0.0324,0.013523,0.002678,0.000431,0.000235
42458000,0.0324,0.013523,0.002678,0.000431,0.000470
42459000,0.0324,0.013523,0.002678,0.000431,0.000353
42460000,0.0324,0.013523,0.002678,0.000431,0.000235
42461000,0.0324,0.013523,0.002678,0.000431,0.000353
42462000,0.0324,0.013523,0.002678,0.000431,0.000470
42463000,0.0324,0.013523,0.002678,0.000431,0.000235
42464000,0.0324,0.013523,0.002678,0.000431,0.000235
42465000,0.0324,0.013523,0.002678,0.000431,0.000470
42466000,0.0324,0.013523,0.002678,0.000431,0.000353
42467000,0.0324,0.013523,0.002678,0.000431,0.000235
42468000,0.0324,0.013523,0.002678,0.000431,0.000353
42469000,0.0324,0.013523,0.002678,0.000431,0.000470
42470000,0.0324,0.013523,0.002678,0.000431,0.000118
42471000,0.0324,0.013523,0.002678,0.000431,0.000353
42472000,0.0324,0.013523,0.002678,0.000431,0.000470
42473000,0.0324,0.013523,0.002678,0.000431,0.000353
42474000,0.0324,0.013523,0.002678,0.000431,0.000235
42475000,0.0324,0.013523,0.002678,0.000431,0.000353
42476000,0.0324,0.013523,0.002678,0.000431,0.000470
42477000,0.0324,0.013523,0.002678,0.000431,0.000118
42478000,0.0324,0.013523,0.002678,0.000431,0.000353
42479000,0.0324,0.013523,0.002678,0.000431,0.000470
42480000,0.0324,0.013523,0.002678,0.000431,0.000353
42481000,0.0324,0.013523,0.002678,0.000431,0.000235
42482000,0.0324,0.013523,0.002678,0.000431,0.000353
42483000,0.0324,0.013523,0.002678,0.000431,0.000470
42484000,0.0324,0.013523,0.002678,0.000431,0.000118
42485000,0.0324,0.013523,0.002678,0.000431,0.000353
42486000,0.0324,0.013523,0.002678,0.000431,0.000470
42487000,0.0324,0.013523,0.002678,0.000431,0.000353
42488000,0.0324,0.013523,0.002678,0.000431,0.000235
42489000,0.0324,0.013523,0.002678,0.000431,0.000353
42490000,0.0324,0.013523,0.002678,0.000431,0.000353
42491000,0.0324,0.013523,0.002678,0.000431,0.000235
42492000,0.0324,0.013523,0.002678,0.000431,0.000353
42493000,0.0324,0.013523,0.002678,0.000431,0.000470
42494000,0.0324,0.013523,0.002678,0.000431,0.000353
42495000,0.0324,0.013523,0.002678,0.000431,0.000235
42496000,0.0324,0.013523,0.002678,0.000431,0.000353
42497000,0.0324,0.013523,0.002678,0.000431,0.000353
42498000,0.0324,0.013523,0.002678,0.000431,0.000235
42499000,0.0324,0.013523,0.002678,0.000431,0.000353
42500000,0.0324,0.013523,0.002678,0.000431,0.000470
42501000,0.0324,0.013523,0.002678,0.000431,0.000353
42502000,0.0324,0.013523,0.002678,0.000431,0.000235
42503000,0.0324,0.013523,0.002678,0.000431,0.000353
42504000,0.0324,0.013523,0.002678,0.000431,0.000353
42505000,0.0324,0.013523,0.002678,0.000431,0.000235
42506000,0.0324,0.013523,0.002678,0.000431,0.000353
42507000,0.0324,0.013523,0.002678,0.000431,0.000470
42508000,0.0324,0.013523,0.002678,0.000431,0.000353
42509000,0.0324,0.013523,0.002678,0.000431,0.000235
42510000,0.0324,0.013523,0.002678,0.000431,0.000353
42511000,0.0324,0.013523,0.002678,0.000431,0.000353
42512000,0.0324,0.013523,0.002678,0.000431,0.000235
42513000,0.0324,0.013523,0.002678,0.000431,0.000353
42514000,0.0324,0.013523,0.002678,0.000431,0.000470
42515000,0.0324,0.013523,0.002678,0.000431,0.000353
42516000,0.0324,0.013523,0.002678,0.000431,0.000235
42517000,0.0324,0.013523,0.002678,0.000431,0.000353
42518000,0.0324,0.013523,0.002678,0.000431,0.000353
42519000,0.0324,0.013523,0.002678,0.000431,0.000235
42520000,0.0324,0.013523,0.002678,0.000431,0.000353
42521000,0.0324,0.013523,0.002678,0.000431,0.000470
42522000,0.0324,0.013523,0.002678,0.000431,0.000353
42523000,0.0324,0.013523,0.002678,0.000431,0.000235
42524000,0.0324,0.013523,0.002678,0.000431,0.000353
42525000,0.0324,0.013523,0.002678,0.000431,0.000353
42526000,0.0324,0.013523,0.002678,0.000431,0.000235
42527000,0.0324,0.013523,0.002678,0.000431,0.000353
42528000,0.0324,0.013523,0.002678,0.000431,0.000470
42529000,0.0324,0.013523,0.002678,0.000431,0.000353
42530000,0.0324,0.013523,0.002678,0.000431,0.000235
42531000,0.0324,0.013523,0.002678,0.000431,0.000353
42532000,0.0324,0.013523,0.002678,0.000431,0.000353
42533000,0.0324,0.013523,0.002678,0.000431,0.000235
42534000,0.0324,0.013523,0.002678,0.000431,0.000353
42535000,0.0324,0.013523,0.002678,0.000431,0.000470
42536000,0.0324,0.013523,0.002678,0.000431,0.000353
42537000,0.0324,0.013523,0.002678,0.000431,0.000235
42538000,0.0324,0.013523,0.002678,0.000431,0.000353
42539000,0.0324,0.013523,0.002678,0.000431,0.000353
42540000,0.0324,0.013523,0.002678,0.000431,0.000235
42541000,0.0324,0.013523,0.002678,0.000431,0.000353
42542000,0.0324,0.013523,0.002678,0.000431,0.000470
42543000,0.0324,0.013523,0.002678,0.000431,0.000353
42544000,0.0324,0.013523,0.002678,0.000431,0.000118
42545000,0.0324,0.013523,0.002678,0.000431,0.000470
42546000,0.0324,0.013523,0.002678,0.000431,0.000353
42547000,0.0324,0.013523,0.002678,0.000431,0.000235
42548000,0.0324,0.013523,0.002678,0.000431,0.000353
42549000,0.0324,0.013523,0.002678,0.000431,0.000470
42550000,0.0324,0.013523,0.002678,0.000431,0.000353
42551000,0.0324,0.013523,0.002678,0.000431,0.000118
42552000,0.0324,0.013523,0.002678,0.000431,0.000470
42553000,0.0324,0.013523,0.002678,0.000431,0.000353
42554000,0.0324,0.013523,0.002678,0.000431,0.000235
42555000,0.0324,0.013523,0.002678,0.000431,0.000353
42556000,0.0324,0.013523,0.002678,0.000431,0.000470
42557000,0.0324,0.013523,0.002678,0.000431,0.000353
42558000,0.0324,0.013523,0.002678,0.000431,0.000118
42559000,0.0324,0.013523,0.002678,0.000431,0.000470
42560000,0.0324,0.013523,0.002678,0.000431,0.000353
42561000,0.0324,0.013523,0.002678,0.000431,0.000235
42562000,0.0324,0.013523,0.002678,0.000431,0.000353
42563000,0.0324,0.013523,0.002678,0.000431,0.000470
42564000,0.0324,0.013523,0.002678,0.000431,0.000235
42565000,0.0324,0.013523,0.002678,0.000431,0.000235
42566000,0.0324,0.013523,0.002678,0.000431,0.000470
42567000,0.0324,0.013523,0.002678,0.000431,0.000353
42568000,0.0324,0.013523,0.002678,0.000431,0.000235
42569000,0.0324,0.013523,0.002678,0.000431,0.000353
42570000,0.0324,0.013523,0.002678,0.000431,0.000470
42571000,0.0324,0.013523,0.002678,0.000431,0.000235
42572000,0.0324,0.013523,0.002678,0.000431,0.000235
42573000,0.0324,0.013523,0.002678,0.000431,0.000470
42574000,0.0324,0.013523,0.002678,0.000431,0.000353
42575000,0.0324,0.013523,0.002678,0.000431,0.000235
42576000,0.0324,0.013523,0.002678,0.000431,0.000353
42577000,0.0324,0.013523,0.002678,0.000431,0.000470
42578000,0.0324,0.013523,0.002678,0.000431,0.000235
42579000,0.0324,0.013523,0.002678,0.000431,0.000235
42580000,0.0324,0.013523,0.002678,0.000431,0.000470
42581000,0.0324,0.013523,0.002678,0.000431,0.000353
42582000,0.0324,0.013523,0.002678,0.000431,0.000235
42583000,0.0324,0.013523,0.002678,0.000431,0.000353
42584000,0.0324,0.013523,0.002678,0.000431,0.000470
42585000,0.0324,0.013523,0.002678,0.000431,0.000235
42586000,0.0324,0.013523,0.002678,0.000431,0.000235
42587000,0.0324,0.013523,0.002678,0.000431,0.000470
42588000,0.0324,0.013523,0.002678,0.000431,0.000353
42589000,0.0324,0.013523,0.002678,0.000431,0.000235
42590000,0.0324,0.013523,0.002678,0.000431,0.000353
42591000,0.0324,0.013523,0.002678,0.000431,0.000470
42592000,0.0324,0.013523,0.002678,0.000431,0.000235
42593000,0.0324,0.013523,0.002678,0.000431,0.000235
42594000,0.0324,0.013523,0.002678,0.000431,0.000470
42595000,0.0324,0.013523,0.002678,0.000431,0.000353
42596000,0.0324,0.013523,0.002678,0.000431,0.000235
42597000,0.0324,0.013523,0.002678,0.000431,0.000353
42598000,0.0324,0.013523,0.002678,0.000431,0.000470
42599000,0.0324,0.013523,0.002678,0.000431,0.000235
42600000,0.0324,0.013523,0.002678,0.000431,0.000235
42601000,0.0324,0.013523,0.002678,0.000431,0.000470
42602000,0.0324,0.013523,0.002678,0.000431,0.000353
42603000,0.0324,0.013523,0.002678,0.000431,0.000235
42604000,0.0324,0.013523,0.002678,0.000431,0.000353
42605000,0.0324,0.013523,0.002678,0.000431,0.000470
42606000,0.0324,0.013523,0.002678,0.000431,0.000118
42607000,0.0324,0.013523,0.002678,0.000431,0.000353
42608000,0.0324,0.013523,0.002678,0.000431,0.000470
42609000,0.0324,0.013523,0.002678,0.000431,0.000353
42610000,0.0324,0.013523,0.002678,0.000431,0.000235
42611000,0.0324,0.013523,0.002678,0.000431,0.000353
42612000,0.0324,0.013523,0.002678,0.000431,0.000470
42613000,0.0324,0.013523,0.002678,0.000431,0.000118
42614000,0.0324,0.013523,0.002678,0.000431,0.000353
42615000,0.0324,0.013523,0.002678,0.000431,0.000470
42616000,0.0324,0.013523,0.002678,0.000431,0.000353
42617000,0.0324,0.013523,0.002678,0.000431,0.000235
42618000,0.0324,0.013523,0.002678,0.000431,0.000353
42619000,0.0324,0.013523,0.002678,0.000431,0.000470
42620000,0.0324,0.013523,0.002678,0.000431,0.000118
42621000,0.0324,0.013523,0.002678,0.000431,0.000353
42622000,0.0324,0.013523,0.002678,0.000431,0.000470
42623000,0.0324,0.013523,0.002678,0.000431,0.000353
42624000,0.0324,0.013523,0.002678,0.000431,0.000235
42625000,0.0324,0.013523,0.002678,0.000431,0.000353
42626000,0.0324,0.013523,0.002678,0.000431,0.000470
42627000,0.0324,0.013523,0.002678,0.000431,0.000118
42628000,0.0324,0.013523,0.002678,0.000431,0.000353
42629000,0.0324,0.013523,0.002678,0.000431,0.000470
42630000,0.0324,0.013523,0.002678,0.000431,0.000353
42631000,0.0324,0.013523,0.002678,0.000431,0.000235
42632000,0.0324,0.013523,0.002678,0.000431,0.000353
42633000,0.0324,0.013523,0.002678,0.000431,0.000353
42634000,0.0324,0.013523,0.002678,0.000431,0.000235
42635000,0.0324,0.013523,0.002678,0.000431,0.000353
42636000,0.0324,0.013523,0.002678,0.000431,0.000470
42637000,0.0324,0.013523,0.002678,0.000431,0.000353
42638000,0.0324,0.013523,0.002678,0.000431,0.000235
42639000,0.0324,0.013523,0.002678,0.000431,0.000353
42640000,0.0324,0.013523,0.002678,0.000431,0.000353
42641000,0.0324,0.013523,0.002678,0.000431,0.000235
42642000,0.0324,0.013523,0.002678,0.000431,0.000353
42643000,0.0324,0.013523,0.002678,0.000431,0.000470
42644000,0.0324,0.013523,0.002678,0.000431,0.000353
42645000,0.0324,0.013523,0.002678,0.000431,0.000235
42646000,0.0324,0.013523,0.002678,0.000431,0.000353
42647000,0.0324,0.013523,0.002678,0.000431,0.000353
42648000,0.0324,0.013523,0.002678,0.000431,0.000235
42649000,0.0324,0.013523,0.002678,0.000431,0.000353
42650000,0.0324,0.013523,0.002678,0.000431,0.000470
42651000,0.0324,0.013523,0.002678,0.000431,0.000353
42652000,0.0324,0.013523,0.002678,0.000431,0.000235
42653000,0.0324,0.013523,0.002678,0.000431,0.000353
42654000,0.0324,0.013523,0.002678,0.000431,0.000353
42655000,0.0324,0.013523,0.002678,0.000431,0.000235
42656000,0.0324,0.013523,0.002678,0.000431,0.000353
42657000,0.0324,0.013523,0.002678,0.000431,0.000470
42658000,0.0324,0.013523,0.002678,0.000431,0.000353
42659000,0.0324,0.013523,0.002678,0.000431,0.000235
42660000,0.0324,0.013523,0.002678,0.000431,0.000353
42661000,0.0324,0.013523,0.002678,0.000431,0.000353
42662000,0.0324,0.013523,0.002678,0.000431,0.000235
42663000,0.0324,0.013523,0.002678,0.000431,0.000353
42664000,0.0324,0.013523,0.002678,0.000431,0.000470
42665000,0.0324,0.013523,0.002678,0.000431,0.000353
42666000,0.0324,0.013523,0.002678,0.000431,0.000235
42667000,0.0324,0.013523,0.002678,0.000431,0.000353
42668000,0.0324,0.013523,0.002678,0.000431,0.000353
42669000,0.0324,0.013523,0.002678,0.000431,0.000235
42670000,0.0324,0.013523,0.002678,0.000431,0.000353
42671000,0.0324,0.013523,0.002678,0.000431,0.000470
42672000,0.0324,0.013523,0.002678,0.000431,0.000353
42673000,0.0324,0.013523,0.002678,0.000431,0.000235
42674000,0.0324,0.013523,0.002678,0.000431,0.000353
42675000,0.0324,0.013523,0.002678,0.000431,0.000353
42676000,0.0324,0.013523,0.002678,0.000431,0.000235
42677000,0.0324,0.013523,0.002678,0.000431,0.000353
42678000,0.0324,0.013523,0.002678,0.000431,0.000470
42679000,0.0324,0.013523,0.002678,0.000431,0.000353
42680000,0.0324,0.013523,0.002678,0.000431,0.000118
42681000,0.0324,0.013523,0.002678,0.000431,0.000470
42682000,0.0324,0.013523,0.002678,0.000431,0.000353
42683000,0.0324,0.013523,0.002678,0.000431,0.000235
42684000,0.0324,0.013523,0.002678,0.000431,0.000353
42685000,0.0324,0.013523,0.002678,0.000431,0.000470
42686000,0.0324,0.013523,0.002678,0.000431,0.000353
42687000,0.0324,0.013523,0.002678,0.000431,0.000118
42688000,0.0324,0.013523,0.002678,0.000431,0.000470
42689000,0.0324,0.013523,0.002678,0.000431,0.000353
42690000,0.0324,0.013523,0.002678,0.000431,0.000235
42691000,0.0324,0.013523,0.002678,0.000431,0.000353
42692000,0.0324,0.013523,0.002678,0.000431,0.000470
42693000,0.0324,0.013523,0.002678,0.000431,0.000353
42694000,0.0324,0.013523,0.002678,0.000431,0.000118
42695000,0.0324,0.013523,0.002678,0.000431,0.000470
42696000,0.0324,0.013523,0.002678,0.000431,0.000353
42697000,0.0324,0.013523,0.002678,0.000431,0.000235
42698000,0.0324,0.013523,0.002678,0.000431,0.000353
42699000,0.0324,0.013523,0.002678,0.000431,0.000470
42700000,0.0324,0.013523,0.002678,0.000431,0.000353
42701000,0.0324,0.013523,0.002678,0.000431,0.000118
42702000,0.0324,0.013523,0.002678,0.000431,0.000470
42703000,0.0324,0.013523,0.002678,0.000431,0.000353
42704000,0.0324,0.013523,0.002678,0.000431,0.000235
42705000,0.0324,0.013523,0.002678,0.000431,0.000353
42706000,0.0324,0.013523,0.002678,0.000431,0.000470
42707000,0.0324,0.013523,0.002678,0.000431,0.000235
42708000,0.0324,0.013523,0.002678,0.000431,0.000235
42709000,0.0324,0.013523,0.002678,0.000431,0.000470
42710000,0.0324,0.013523,0.002678,0.000431,0.000353
42711000,0.0324,0.013523,0.002678,0.000431,0.000235
42712000,0.0324,0.013523,0.002678,0.000431,0.000353
42713000,0.0324,0.013523,0.002678,0.000431,0.000470
42714000,0.0324,0.013523,0.002678,0.000431,0.000235
42715000,0.0324,0.013523,0.002678,0.000431,0.000235
42716000,0.0324,0.013523,0.002678,0.000431,0.000470
42717000,0.0324,0.013523,0.002678,0.000431,0.000353
42718000,0.0324,0.013523,0.002678,0.000431,0.000235
42719000,0.0324,0.013523,0.002678,0.000431,0.000353
42720000,0.0324,0.013523,0.002678,0.000431,0.000470
42721000,0.0324,0.013523,0.002678,0.000431,0.000235
42722000,0.0324,0.013523,0.002678,0.000431,0.000235
42723000,0.0324,0.013523,0.002678,0.000431,0.000470
42724000,0.0324,0.013523,0.002678,0.000431,0.000353
42725000,0.0324,0.013523,0.002678,0.000431,0.000235
42726000,0.0324,0.013523,0.002678,0.000431,0.000353
42727000,0.0324,0.013523,0.002678,0.000431,0.000470
42728000,0.0324,0.013523,0.002678,0.000431,0.000235
42729000,0.0324,0.013523,0.002678,0.000431,0.000235
42730000,0.0324,0.013523,0.002678,0.000431,0.000470
42731000,0.0324,0.013523,0.002678,0.000431,0.000353
42732000,0.0324,0.013523,0.002678,0.000431,0.000235
42733000,0.0324,0.013523,0.002678,0.000431,0.000353
42734000,0.0324,0.013523,0.002678,0.000431,0.000470
42735000,0.0324,0.013523,0.002678,0.000431,0.000235
42736000,0.0324,0.013523,0.002678,0.000431,0.000235
42737000,0.0324,0.013523,0.002678,0.000431,0.000470
42738000,0.0324,0.013523,0.002678,0.000431,0.000353
42739000,0.0324,0.013523,0.002678,0.000431,0.000235
42740000,0.0324,0.013523,0.002678,0.000431,0.000353
42741000,0.0324,0.013523,0.002678,0.000431,0.000470
42742000,0.0324,0.013523,0.002678,0.000431,0.000235
42743000,0.0324,0.013523,0.002678,0.000431,0.000235
42744000,0.0324,0.013523,0.002678,0.000431,0.000470
42745000,0.0324,0.013523,0.002678,0.000431,0.000353
42746000,0.0324,0.013523,0.002678,0.000431,0.000235
42747000,0.0324,0.013523,0.002678,0.000431,0.000353
42748000,0.0324,0.013523,0.002678,0.000431,0.000470
42749000,0.0324,0.013523,0.002678,0.000431,0.000118
42750000,0.0324,0.013523,0.002678,0.000431,0.000353
42751000,0.0324,0.013523,0.002678,0.000431,0.000470
42752000,0.0324,0.013523,0.002678,0.000431,0.000353
42753000,0.0324,0.013523,0.002678,0.000431,0.000235
42754000,0.0324,0.013523,0.002678,0.000431,0.000353
42755000,0.0324,0.013523,0.002678,0.000431,0.000470
42756000,0.0324,0.013523,0.002678,0.000431,0.000118
42757000,0.0324,0.013523,0.002678,0.000431,0.000353
42758000,0.0324,0.013523,0.002678,0.000431,0.000470
42759000,0.0324,0.013523,0.002678,0.000431,0.000353
42760000,0.0324,0.013523,0.002678,0.000431,0.000235
42761000,0.0324,0.013523,0.002678,0.000431,0.000353
42762000,0.0324,0.013523,0.002678,0.000431,0.000470
42763000,0.0324,0.013523,0.002678,0.000431,0.000118
42764000,0.0324,0.013523,0.002678,0.000431,0.000353
42765000,0.0324,0.013523,0.002678,0.000431,0.000470
42766000,0.0324,0.013523,0.002678,0.000431,0.000353
42767000,0.0324,0.013523,0.002678,0.000431,0.000235
42768000,0.0324,0.013523,0.002678,0.000431,0.000353
42769000,0.0324,0.013523,0.002678,0.000431,0.000353
42770000,0.0324,0.013523,0.002678,0.000431,0.000235
42771000,0.0324,0.013523,0.002678,0.000431,0.000353
42772000,0.0324,0.013523,0.002678,0.000431,0.000470
42773000,0.0324,0.013523,0.002678,0.000431,0.000353
42774000,0.0324,0.013523,0.002678,0.000431,0.000235
42775000,0.0324,0.013523,0.002678,0.000431,0.000353
42776000,0.0324,0.013523,0.002678,0.000431,0.000353
42777000,0.0324,0.013523,0.002678,0.000431,0.000235
42778000,0.0324,0.013523,0.002678,0.000431,0.000353
42779000,0.0324,0.013523,0.002678,0.000431,0.000470
42780000,0.0324,0.013523,0.002678,0.000431,0.000353
42781000,0.0324,0.013523,0.002678,0.000431,0.000235
42782000,0.0324,0.013523,0.002678,0.000431,0.000353
42783000,0.0324,0.013523,0.002678,0.000431,0.000353
42784000,0.0324,0.013523,0.002678,0.000431,0.000235
42785000,0.0324,0.013523,0.002678,0.000431,0.000353
42786000,0.0324,0.013523,0.002678,0.000431,0.000470
42787000,0.0324,0.013523,0.002678,0.000431,0.000353
42788000,0.0324,0.013523,0.002678,0.000431,0.000235
42789000,0.0324,0.013523,0.002678,0.000431,0.000353
42790000,0.0324,0.013523,0.002678,0.000431,0.000353
42791000,0.0324,0.013523,0.002678,0.000431,0.000235
42792000,0.0324,0.013523,0.002678,0.000431,0.000353
42793000,0.0324,0.013523,0.002678,0.000431,0.000470
42794000,0.0324,0.013523,0.002678,0.000431,0.000353
42795000,0.0324,0.013523,0.002678,0.000431,0.000235
42796000,0.0324,0.013523,0.002678,0.000431,0.000353
42797000,0.0324,0.013523,0.002678,0.000431,0.000353
42798000,0.0324,0.013523,0.002678,0.000431,0.000235
42799000,0.0324,0.013523,0.002678,0.000431,0.000353
42800000,0.0324,0.013523,0.002678,0.000431,0.000470
42801000,0.0324,0.013523,0.002678,0.000431,0.000353
42802000,0.0324,0.013523,0.002678,0.000431,0.000235
42803000,0.0324,0.013523,0.002678,0.000431,0.000353
42804000,0.0324,0.013523,0.002678,0.000431,0.000353
42805000,0.0324,0.013523,0.002678,0.000431,0.000235
42806000,0.0324,0.013523,0.002678,0.000431,0.000353
42807000,0.0324,0.013523,0.002678,0.000431,0.000470
42808000,0.0324,0.013523,0.002678,0.000431,0.000353
42809000,0.0324,0.013523,0.002678,0.000431,0.000235
42810000,0.0324,0.013523,0.002678,0.000431,0.000353
42811000,0.0324,0.013523,0.002678,0.000431,0.000353
42812000,0.0324,0.013523,0.002678,0.000431,0.000235
42813000,0.0324,0.013523,0.002678,0.000431,0.000353
42814000,0.0324,0.013523,0.002678,0.000431,0.000470
42815000,0.0324,0.013523,0.002678,0.000431,0.000353
42816000,0.0324,0.013523,0.002678,0.000431,0.000235
42817000,0.0324,0.013523,0.002678,0.000431,0.000353
42818000,0.0324,0.013523,0.002678,0.000431,0.000353
42819000,0.0324,0.013523,0.002678,0.000431,0.000235
42820000,0.0324,0.013523,0.002678,0.000431,0.000353
42821000,0.0324,0.013523,0.002678,0.000431,0.000470
42822000,0.0324,0.013523,0.002678,0.000431,0.000353
42823000,0.0324,0.013523,0.002678,0.000431,0.000118
42824000,0.0324,0.013523,0.002678,0.000431,0.000470
42825000,0.0324,0.013523,0.002678,0.000431,0.000353
42826000,0.0324,0.013523,0.002678,0.000431,0.000235
42827000,0.0324,0.013523,0.002678,0.000431,0.000353
42828000,0.0324,0.013523,0.002678,0.000431,0.000470
42829000,0.0324,0.013523,0.002678,0.000431,0.000353
42830000,0.0324,0.013523,0.002678,0.000431,0.000118
42831000,0.0324,0.013523,0.002678,0.000431,0.000470
42832000,0.0324,0.013523,0.002678,0.000431,0.000353
42833000,0.0324,0.013523,0.002678,0.000431,0.000235
42834000,0.0324,0.013523,0.002678,0.000431,0.000353
42835000,0.0324,0.013523,0.002678,0.000431,0.000470
42836000,0.0324,0.013523,0.002678,0.000431,0.000353
42837000,0.0324,0.013523,0.002678,0.000431,0.000118
42838000,0.0324,0.013523,0.002678,0.000431,0.000470
42839000,0.0324,0.013523,0.002678,0.000431,0.000353
42840000,0.0324,0.013523,0.002678,0.000431,0.000235
42841000,0.0324,0.013523,0.002678,0.000431,0.000353
42842000,0.0324,0.013523,0.002678,0.000431,0.000470
42843000,0.0324,0.013523,0.002678,0.000431,0.000235
42844000,0.0324,0.013523,0.002678,0.000431,0.000235
42845000,0.0324,0.013523,0.002678,0.000431,0.000470
42846000,0.0324,0.013523,0.002678,0.000431,0.000353
42847000,0.0324,0.013523,0.002678,0.000431,0.000235
42848000,0.0324,0.013523,0.002678,0.000431,0.000353
42849000,0.0324,0.013523,0.002678,0.000431,0.000470
42850000,0.0324,0.013523,0.002678,0.000431,0.000235
42851000,0.0324,0.013523,0.002678,0.000431,0.000235
42852000,0.0324,0.013523,0.002678,0.000431,0.000470
42853000,0.0324,0.013523,0.002678,0.000431,0.000353
42854000,0.0324,0.013523,0.002678,0.000431,0.000235
42855000,0.0324,0.013523,0.002678,0.000431,0.000353
42856000,0.0324,0.013523,0.002678,0.000431,0.000470
42857000,0.0324,0.013523,0.002678,0.000431,0.000235
42858000,0.0324,0.013523,0.002678,0.000431,0.000235
42859000,0.0324,0.013523,0.002678,0.000431,0.000470
42860000,0.0324,0.013523,0.002678,0.000431,0.000353
42861000,0.0324,0.013523,0.002678,0.000431,0.000235
42862000,0.0324,0.013523,0.002678,0.000431,0.000353
42863000,0.0324,0.013523,0.002678,0.000431,0.000470
42864000,0.0324,0.013523,0.002678,0.000431,0.000235
42865000,0.0324,0.013523,0.002678,0.000431,0.000235
42866000,0.0324,0.013523,0.002678,0.000431,0.000470
42867000,0.0324,0.013523,0.002678,0.000431,0.000353
42868000,0.0324,0.013523,0.002678,0.000431,0.000235
42869000,0.0324,0.013523,0.002678,0.000431,0.000353
42870000,0.0324,0.013523,0.002678,0.000431,0.000470
42871000,0.0324,0.013523,0.002678,0.000431,0.000235
42872000,0.0324,0.013523,0.002678,0.000431,0.000235
42873000,0.0324,0.013523,0.002678,0.000431,0.000470
42874000,0.0324,0.013523,0.002678,0.000431,0.000353
42875000,0.0324,0.013523,0.002678,0.000431,0.000235
42876000,0.0324,0.013523,0.002678,0.000431,0.000353
42877000,0.0324,0.013523,0.002678,0.000431,0.000470
42878000,0.0324,0.013523,0.002678,0.000431,0.000118
42879000,0.0324,0.013523,0.002678,0.000431,0.000353
42880000,0.0324,0.013523,0.002678,0.000431,0.000470
42881000,0.0324,0.013523,0.002678,0.000431,0.000353
42882000,0.0324,0.013523,0.002678,0.000431,0.000235
42883000,0.0324,0.013523,0.002678,0.000431,0.000353
42884000,0.0324,0.013523,0.002678,0.000431,0.000353
42885000,0.0324,0.013523,0.002678,0.000431,0.000235
42886000,0.0324,0.013523,0.002678,0.000431,0.000353
42887000,0.0324,0.013523,0.002678,0.000431,0.000470
42888000,0.0324,0.013523,0.002678,0.000431,0.000353
42889000,0.0324,0.013523,0.002678,0.000431,0.000235
42890000,0.0324,0.013523,0.002678,0.000431,0.000353
42891000,0.0324,0.013523,0.002678,0.000431,0.000353
42892000,0.0324,0.013523,0.002678,0.000431,0.000235
42893000,0.0324,0.013523,0.002678,0.000431,0.000353
42894000,0.0324,0.013523,0.002678,0.000431,0.000470
42895000,0.0324,0.013523,0.002678,0.000431,0.000353
42896000,0.0324,0.013523,0.002678,0.000431,0.000118
42897000,0.0324,0.013523,0.002678,0.000431,0.000470
42898000,0.0324,0.013523,0.002678,0.000431,0.000353
42899000,0.0324,0.013523,0.002678,0.000431,0.000235
42900000,0.0324,0.013523,0.002678,0.000431,0.000353
42901000,0.0324,0.013523,0.002678,0.000431,0.000470
42902000,0.0324,0.013523,0.002678,0.000431,0.000353
42903000,0.0324,0.013523,0.002678,0.000431,0.000118
42904000,0.0324,0.013523,0.002678,0.000431,0.000470
42905000,0.0324,0.013523,0.002678,0.000431,0.000353
42906000,0.0324,0.013523,0.002678,0.000431,0.000235
42907000,0.0324,0.013523,0.002678,0.000431,0.000353
42908000,0.0324,0.013523,0.002678,0.000431,0.000470
42909000,0.0324,0.013523,0.002678,0.000431,0.000235
42910000,0.0324,0.013523,0.002678,0.000431,0.000235
42911000,0.0324,0.013523,0.002678,0.000431,0.000470
42912000,0.0324,0.013523,0.002678,0.000431,0.000353
42913000,0.0324,0.013523,0.002678,0.000431,0.000235
42914000,0.0324,0.013523,0.002678,0.000431,0.000353
42915000,0.0324,0.013523,0.002678,0.000431,0.000470
42916000,0.0324,0.013523,0.002678,0.000431,0.000235
42917000,0.0324,0.013523,0.002678,0.000431,0.000235
42918000,0.0324,0.013523,0.002678,0.000431,0.000470
42919000,0.0324,0.013523,0.002678,0.000431,0.000353
42920000,0.0324,0.013523,0.002678,0.000431,0.000235
42921000,0.0324,0.013523,0.002678,0.000431,0.000353
42922000,0.0324,0.013523,0.002678,0.000431,0.000353
42923000,0.0324,0.013523,0.002678,0.000431,0.000235
42924000,0.0324,0.013523,0.002678,0.000431,0.000353
42925000,0.0324,0.013523,0.002678,0.000431,0.000470
42926000,0.0324,0.013523,0.002678,0.000431,0.000353
42927000,0.0324,0.013523,0.002678,0.000431,0.000235
42928000,0.0324,0.013523,0.002678,0.000431,0.000353
42929000,0.0324,0.013523,0.002678,0.000431,0.000353
42930000,0.0324,0.013523,0.002678,0.000431,0.000235
42931000,0.0324,0.013523,0.002678,0.000431,0.000353
42932000,0.0324,0.013523,0.002678,0.000431,0.000470
42933000,0.0324,0.013523,0.002678,0.000431,0.000353
42934000,0.0324,0.013523,0.002678,0.000431,0.000235
42935000,0.0324,0.013523,0.002678,0.000431,0.000353
42936000,0.0324,0.013523,0.002678,0.000431,0.000353
42937000,0.0324,0.013523,0.002678,0.000431,0.000235
42938000,0.0324,0.013523,0.002678,0.000431,0.000353
42939000,0.0324,0.013523,0.002678,0.000431,0.000470
42940000,0.0324,0.013523,0.002678,0.000431,0.000353
42941000,0.0324,0.013523,0.002678,0.000431,0.000118
42942000,0.0324,0.013523,0.002678,0.000431,0.000470
42943000,0.0324,0.013523,0.002678,0.000431,0.000353
42944000,0.0324,0.013523,0.002678,0.000431,0.000235
42945000,0.0324,0.013523,0.002678,0.000431,0.000353
42946000,0.0324,0.013523,0.002678,0.000431,0.000470
42947000,0.0324,0.013523,0.002678,0.000431,0.000235
42948000,0.0324,0.013523,0.002678,0.000431,0.000235
42949000,0.0324,0.013523,0.002678,0.000431,0.000470
42950000,0.0324,0.013523,0.002678,0.000431,0.000353
42951000,0.0324,0.013523,0.002678,0.000431,0.000235
42952000,0.0324,0.013523,0.002678,0.000431,0.000353
42953000,0.0324,0.013523,0.002678,0.000431,0.000470
42954000,0.0324,0.013523,0.002678,0.000431,0.000235
42955000,0.0324,0.013523,0.002678,0.000431,0.000235
42956000,0.0324,0.013523,0.002678,0.000431,0.000470
42957000,0.0324,0.013523,0.002678,0.000431,0.000353
42958000,0.0324,0.013523,0.002678,0.000431,0.000235
42959000,0.0324,0.013523,0.002678,0.000431,0.000353
42960000,0.0324,0.013523,0.002678,0.000431,0.000470
42961000,0.0324,0.013523,0.002678,0.000431,0.000118
42962000,0.0324,0.013523,0.002678,0.000431,0.000353
42963000,0.0324,0.013523,0.002678,0.000431,0.000470
42964000,0.0324,0.013523,0.002678,0.000431,0.000353
42965000,0.0324,0.013523,0.002678,0.000431,0.000235
42966000,0.0324,0.013523,0.002678,0.000431,0.000353
42967000,0.0324,0.013523,0.002678,0.000431,0.000353
42968000,0.0324,0.013523,0.002678,0.000431,0.000235
42969000,0.0324,0.013523,0.002678,0.000431,0.000353
42970000,0.0324,0.013523,0.002678,0.000431,0.000470
42971000,0.0324,0.013523,0.002678,0.000431,0.000353
42972000,0.0324,0.013523,0.002678,0.000431,0.000235
42973000,0.0324,0.013523,0.002678,0.000431,0.000353
42974000,0.0324,0.013523,0.002678,0.000431,0.000353
42975000,0.0324,0.013523,0.002678,0.000431,0.000235
42976000,0.0324,0.013523,0.002678,0.000431,0.000353
42977000,0.0324,0.013523,0.002678,0.000431,0.000470
42978000,0.0324,0.013523,0.002678,0.000431,0.000353
42979000,0.0324,0.013523,0.002678,0.000431,0.000235
42980000,0.0324,0.013523,0.002678,0.000431,0.000353
42981000,0.0324,0.013523,0.002678,0.000431,0.000353
42982000,0.0324,0.013523,0.002678,0.000431,0.000235
42983000,0.0324,0.013523,0.002678,0.000431,0.000353
42984000,0.0324,0.013523,0.002678,0.000431,0.000470
42985000,0.0324,0.013523,0.002678,0.000431,0.000353
42986000,0.0324,0.013523,0.002678,0.000431,0.000118
42987000,0.0324,0.013523,0.002678,0.000431,0.000470
42988000,0.0324,0.013523,0.002678,0.000431,0.000353
42989000,0.0324,0.013523,0.002678,0.000431,0.000235
42990000,0.0324,0.013523,0.002678,0.000431,0.000353
42991000,0.0324,0.013523,0.002678,0.000431,0.000470
42992000,0.0324,0.013523,0.002678,0.000431,0.000235
42993000,0.0324,0.013523,0.002678,0.000431,0.000235
42994000,0.0324,0.013523,0.002678,0.000431,0.000470
42995000,0.0324,0.013523,0.002678,0.000431,0.000353
42996000,0.0324,0.013523,0.002678,0.000431,0.000235
42997000,0.0324,0.013523,0.002678,0.000431,0.000353
42998000,0.0324,0.013523,0.002678,0.000431,0.000470
42999000,0.0324,0.013523,0.002678,0.000431,0.000118
