Cycle,Area(mm^2),PeakDynamic(W),SubthresholdLeakage(W),GateLeakage(W),RunTimeDynamic(W)
6000000,0.0324,0.013523,0.002678,0.000431,0.000353
6001000,0.0324,0.013523,0.002678,0.000431,0.000235
6002000,0.0324,0.013523,0.002678,0.000431,0.000353
6003000,0.0324,0.013523,0.002678,0.000431,0.000353
6004000,0.0324,0.013523,0.002678,0.000431,0.000235
6005000,0.0324,0.013523,0.002678,0.000431,0.000353
6006000,0.0324,0.013523,0.002678,0.000431,0.000470
6007000,0.0324,0.013523,0.002678,0.000431,0.000353
6008000,0.0324,0.013523,0.002678,0.000431,0.000235
6009000,0.0324,0.013523,0.002678,0.000431,0.000353
6010000,0.0324,0.013523,0.002678,0.000431,0.000353
6011000,0.0324,0.013523,0.002678,0.000431,0.000235
6012000,0.0324,0.013523,0.002678,0.000431,0.000353
6013000,0.0324,0.013523,0.002678,0.000431,0.000470
6014000,0.0324,0.013523,0.002678,0.000431,0.000353
6015000,0.0324,0.013523,0.002678,0.000431,0.000118
6016000,0.0324,0.013523,0.002678,0.000431,0.000470
6017000,0.0324,0.013523,0.002678,0.000431,0.000353
6018000,0.0324,0.013523,0.002678,0.000431,0.000235
6019000,0.0324,0.013523,0.002678,0.000431,0.000353
6020000,0.0324,0.013523,0.002678,0.000431,0.000470
6021000,0.0324,0.013523,0.002678,0.000431,0.000353
6022000,0.0324,0.013523,0.002678,0.000431,0.000118
6023000,0.0324,0.013523,0.002678,0.000431,0.000470
6024000,0.0324,0.013523,0.002678,0.000431,0.000353
6025000,0.0324,0.013523,0.002678,0.000431,0.000235
6026000,0.0324,0.013523,0.002678,0.000431,0.000353
6027000,0.0324,0.013523,0.002678,0.000431,0.000470
6028000,0.0324,0.013523,0.002678,0.000431,0.000353
6029000,0.0324,0.013523,0.002678,0.000431,0.000118
6030000,0.0324,0.013523,0.002678,0.000431,0.000470
6031000,0.0324,0.013523,0.002678,0.000431,0.000353
6032000,0.0324,0.013523,0.002678,0.000431,0.000235
6033000,0.0324,0.013523,0.002678,0.000431,0.000353
6034000,0.0324,0.013523,0.002678,0.000431,0.000470
6035000,0.0324,0.013523,0.002678,0.000431,0.000353
6036000,0.0324,0.013523,0.002678,0.000431,0.000118
6037000,0.0324,0.013523,0.002678,0.000431,0.000470
6038000,0.0324,0.013523,0.002678,0.000431,0.000353
6039000,0.0324,0.013523,0.002678,0.000431,0.000235
6040000,0.0324,0.013523,0.002678,0.000431,0.000353
6041000,0.0324,0.013523,0.002678,0.000431,0.000470
6042000,0.0324,0.013523,0.002678,0.000431,0.000235
6043000,0.0324,0.013523,0.002678,0.000431,0.000235
6044000,0.0324,0.013523,0.002678,0.000431,0.000470
6045000,0.0324,0.013523,0.002678,0.000431,0.000353
6046000,0.0324,0.013523,0.002678,0.000431,0.000235
6047000,0.0324,0.013523,0.002678,0.000431,0.000353
6048000,0.0324,0.013523,0.002678,0.000431,0.000470
6049000,0.0324,0.013523,0.002678,0.000431,0.000235
6050000,0.0324,0.013523,0.002678,0.000431,0.000235
6051000,0.0324,0.013523,0.002678,0.000431,0.000470
6052000,0.0324,0.013523,0.002678,0.000431,0.000353
6053000,0.0324,0.013523,0.002678,0.000431,0.000235
6054000,0.0324,0.013523,0.002678,0.000431,0.000353
6055000,0.0324,0.013523,0.002678,0.000431,0.000470
6056000,0.0324,0.013523,0.002678,0.000431,0.000235
6057000,0.0324,0.013523,0.002678,0.000431,0.000235
6058000,0.0324,0.013523,0.002678,0.000431,0.000470
6059000,0.0324,0.013523,0.002678,0.000431,0.000353
6060000,0.0324,0.013523,0.002678,0.000431,0.000235
6061000,0.0324,0.013523,0.002678,0.000431,0.000353
6062000,0.0324,0.013523,0.002678,0.000431,0.000470
6063000,0.0324,0.013523,0.002678,0.000431,0.000235
6064000,0.0324,0.013523,0.002678,0.000431,0.000235
6065000,0.0324,0.013523,0.002678,0.000431,0.000470
6066000,0.0324,0.013523,0.002678,0.000431,0.000353
6067000,0.0324,0.013523,0.002678,0.000431,0.000235
6068000,0.0324,0.013523,0.002678,0.000431,0.000353
6069000,0.0324,0.013523,0.002678,0.000431,0.000470
6070000,0.0324,0.013523,0.002678,0.000431,0.000235
6071000,0.0324,0.013523,0.002678,0.000431,0.000235
6072000,0.0324,0.013523,0.002678,0.000431,0.000470
6073000,0.0324,0.013523,0.002678,0.000431,0.000353
6074000,0.0324,0.013523,0.002678,0.000431,0.000235
6075000,0.0324,0.013523,0.002678,0.000431,0.000353
6076000,0.0324,0.013523,0.002678,0.000431,0.000470
6077000,0.0324,0.013523,0.002678,0.000431,0.000235
6078000,0.0324,0.013523,0.002678,0.000431,0.000235
6079000,0.0324,0.013523,0.002678,0.000431,0.000470
6080000,0.0324,0.013523,0.002678,0.000431,0.000353
6081000,0.0324,0.013523,0.002678,0.000431,0.000235
6082000,0.0324,0.013523,0.002678,0.000431,0.000353
6083000,0.0324,0.013523,0.002678,0.000431,0.000470
6084000,0.0324,0.013523,0.002678,0.000431,0.000118
6085000,0.0324,0.013523,0.002678,0.000431,0.000353
6086000,0.0324,0.013523,0.002678,0.000431,0.000470
6087000,0.0324,0.013523,0.002678,0.000431,0.000353
6088000,0.0324,0.013523,0.002678,0.000431,0.000235
6089000,0.0324,0.013523,0.002678,0.000431,0.000353
6090000,0.0324,0.013523,0.002678,0.000431,0.000470
6091000,0.0324,0.013523,0.002678,0.000431,0.000118
6092000,0.0324,0.013523,0.002678,0.000431,0.000353
6093000,0.0324,0.013523,0.002678,0.000431,0.000470
6094000,0.0324,0.013523,0.002678,0.000431,0.000353
6095000,0.0324,0.013523,0.002678,0.000431,0.000235
6096000,0.0324,0.013523,0.002678,0.000431,0.000353
6097000,0.0324,0.013523,0.002678,0.000431,0.000470
6098000,0.0324,0.013523,0.002678,0.000431,0.000118
6099000,0.0324,0.013523,0.002678,0.000431,0.000353
6100000,0.0324,0.013523,0.002678,0.000431,0.000470
6101000,0.0324,0.013523,0.002678,0.000431,0.000353
6102000,0.0324,0.013523,0.002678,0.000431,0.000235
6103000,0.0324,0.013523,0.002678,0.000431,0.000353
6104000,0.0324,0.013523,0.002678,0.000431,0.000353
6105000,0.0324,0.013523,0.002678,0.000431,0.000235
6106000,0.0324,0.013523,0.002678,0.000431,0.000353
6107000,0.0324,0.013523,0.002678,0.000431,0.000470
6108000,0.0324,0.013523,0.002678,0.000431,0.000353
6109000,0.0324,0.013523,0.002678,0.000431,0.000235
6110000,0.0324,0.013523,0.002678,0.000431,0.000353
6111000,0.0324,0.013523,0.002678,0.000431,0.000353
6112000,0.0324,0.013523,0.002678,0.000431,0.000235
6113000,0.0324,0.013523,0.002678,0.000431,0.000353
6114000,0.0324,0.013523,0.002678,0.000431,0.000470
6115000,0.0324,0.013523,0.002678,0.000431,0.000353
6116000,0.0324,0.013523,0.002678,0.000431,0.000235
6117000,0.0324,0.013523,0.002678,0.000431,0.000353
6118000,0.0324,0.013523,0.002678,0.000431,0.000353
6119000,0.0324,0.013523,0.002678,0.000431,0.000235
6120000,0.0324,0.013523,0.002678,0.000431,0.000353
6121000,0.0324,0.013523,0.002678,0.000431,0.000470
6122000,0.0324,0.013523,0.002678,0.000431,0.000353
6123000,0.0324,0.013523,0.002678,0.000431,0.000235
6124000,0.0324,0.013523,0.002678,0.000431,0.000353
6125000,0.0324,0.013523,0.002678,0.000431,0.000353
6126000,0.0324,0.013523,0.002678,0.000431,0.000235
6127000,0.0324,0.013523,0.002678,0.000431,0.000353
6128000,0.0324,0.013523,0.002678,0.000431,0.000470
6129000,0.0324,0.013523,0.002678,0.000431,0.000353
6130000,0.0324,0.013523,0.002678,0.000431,0.000235
6131000,0.0324,0.013523,0.002678,0.000431,0.000353
6132000,0.0324,0.013523,0.002678,0.000431,0.000353
6133000,0.0324,0.013523,0.002678,0.000431,0.000235
6134000,0.0324,0.013523,0.002678,0.000431,0.000353
6135000,0.0324,0.013523,0.002678,0.000431,0.000470
6136000,0.0324,0.013523,0.002678,0.000431,0.000353
6137000,0.0324,0.013523,0.002678,0.000431,0.000235
6138000,0.0324,0.013523,0.002678,0.000431,0.000353
6139000,0.0324,0.013523,0.002678,0.000431,0.000353
6140000,0.0324,0.013523,0.002678,0.000431,0.000235
6141000,0.0324,0.013523,0.002678,0.000431,0.000353
6142000,0.0324,0.013523,0.002678,0.000431,0.000470
6143000,0.0324,0.013523,0.002678,0.000431,0.000353
6144000,0.0324,0.013523,0.002678,0.000431,0.000235
6145000,0.0324,0.013523,0.002678,0.000431,0.000353
6146000,0.0324,0.013523,0.002678,0.000431,0.000353
6147000,0.0324,0.013523,0.002678,0.000431,0.000235
6148000,0.0324,0.013523,0.002678,0.000431,0.000353
6149000,0.0324,0.013523,0.002678,0.000431,0.000470
6150000,0.0324,0.013523,0.002678,0.000431,0.000353
6151000,0.0324,0.013523,0.002678,0.000431,0.000235
6152000,0.0324,0.013523,0.002678,0.000431,0.000353
6153000,0.0324,0.013523,0.002678,0.000431,0.000353
6154000,0.0324,0.013523,0.002678,0.000431,0.000235
6155000,0.0324,0.013523,0.002678,0.000431,0.000353
6156000,0.0324,0.013523,0.002678,0.000431,0.000470
6157000,0.0324,0.013523,0.002678,0.000431,0.000353
6158000,0.0324,0.013523,0.002678,0.000431,0.000118
6159000,0.0324,0.013523,0.002678,0.000431,0.000470
6160000,0.0324,0.013523,0.002678,0.000431,0.000353
6161000,0.0324,0.013523,0.002678,0.000431,0.000235
6162000,0.0324,0.013523,0.002678,0.000431,0.000353
6163000,0.0324,0.013523,0.002678,0.000431,0.000470
6164000,0.0324,0.013523,0.002678,0.000431,0.000353
6165000,0.0324,0.013523,0.002678,0.000431,0.000118
6166000,0.0324,0.013523,0.002678,0.000431,0.000470
6167000,0.0324,0.013523,0.002678,0.000431,0.000353
6168000,0.0324,0.013523,0.002678,0.000431,0.000235
6169000,0.0324,0.013523,0.002678,0.000431,0.000353
6170000,0.0324,0.013523,0.002678,0.000431,0.000470
6171000,0.0324,0.013523,0.002678,0.000431,0.000353
6172000,0.0324,0.013523,0.002678,0.000431,0.000118
6173000,0.0324,0.013523,0.002678,0.000431,0.000470
6174000,0.0324,0.013523,0.002678,0.000431,0.000353
6175000,0.0324,0.013523,0.002678,0.000431,0.000235
6176000,0.0324,0.013523,0.002678,0.000431,0.000353
6177000,0.0324,0.013523,0.002678,0.000431,0.000470
6178000,0.0324,0.013523,0.002678,0.000431,0.000235
6179000,0.0324,0.013523,0.002678,0.000431,0.000235
6180000,0.0324,0.013523,0.002678,0.000431,0.000470
6181000,0.0324,0.013523,0.002678,0.000431,0.000353
6182000,0.0324,0.013523,0.002678,0.000431,0.000235
6183000,0.0324,0.013523,0.002678,0.000431,0.000353
6184000,0.0324,0.013523,0.002678,0.000431,0.000470
6185000,0.0324,0.013523,0.002678,0.000431,0.000235
6186000,0.0324,0.013523,0.002678,0.000431,0.000235
6187000,0.0324,0.013523,0.002678,0.000431,0.000470
6188000,0.0324,0.013523,0.002678,0.000431,0.000353
6189000,0.0324,0.013523,0.002678,0.000431,0.000235
6190000,0.0324,0.013523,0.002678,0.000431,0.000353
6191000,0.0324,0.013523,0.002678,0.000431,0.000470
6192000,0.0324,0.013523,0.002678,0.000431,0.000235
6193000,0.0324,0.013523,0.002678,0.000431,0.000235
6194000,0.0324,0.013523,0.002678,0.000431,0.000470
6195000,0.0324,0.013523,0.002678,0.000431,0.000353
6196000,0.0324,0.013523,0.002678,0.000431,0.000235
6197000,0.0324,0.013523,0.002678,0.000431,0.000353
6198000,0.0324,0.013523,0.002678,0.000431,0.000470
6199000,0.0324,0.013523,0.002678,0.000431,0.000235
6200000,0.0324,0.013523,0.002678,0.000431,0.000235
6201000,0.0324,0.013523,0.002678,0.000431,0.000470
6202000,0.0324,0.013523,0.002678,0.000431,0.000353
6203000,0.0324,0.013523,0.002678,0.000431,0.000235
6204000,0.0324,0.013523,0.002678,0.000431,0.000353
6205000,0.0324,0.013523,0.002678,0.000431,0.000470
6206000,0.0324,0.013523,0.002678,0.000431,0.000235
6207000,0.0324,0.013523,0.002678,0.000431,0.000235
6208000,0.0324,0.013523,0.002678,0.000431,0.000470
6209000,0.0324,0.013523,0.002678,0.000431,0.000353
6210000,0.0324,0.013523,0.002678,0.000431,0.000235
6211000,0.0324,0.013523,0.002678,0.000431,0.000353
6212000,0.0324,0.013523,0.002678,0.000431,0.000470
6213000,0.0324,0.013523,0.002678,0.000431,0.000235
6214000,0.0324,0.013523,0.002678,0.000431,0.000235
6215000,0.0324,0.013523,0.002678,0.000431,0.000470
6216000,0.0324,0.013523,0.002678,0.000431,0.000353
6217000,0.0324,0.013523,0.002678,0.000431,0.000235
6218000,0.0324,0.013523,0.002678,0.000431,0.000353
6219000,0.0324,0.013523,0.002678,0.000431,0.000470
6220000,0.0324,0.013523,0.002678,0.000431,0.000118
6221000,0.0324,0.013523,0.002678,0.000431,0.000353
6222000,0.0324,0.013523,0.002678,0.000431,0.000470
6223000,0.0324,0.013523,0.002678,0.000431,0.000353
6224000,0.0324,0.013523,0.002678,0.000431,0.000235
6225000,0.0324,0.013523,0.002678,0.000431,0.000353
6226000,0.0324,0.013523,0.002678,0.000431,0.000470
6227000,0.0324,0.013523,0.002678,0.000431,0.000118
6228000,0.0324,0.013523,0.002678,0.000431,0.000353
6229000,0.0324,0.013523,0.002678,0.000431,0.000470
6230000,0.0324,0.013523,0.002678,0.000431,0.000353
6231000,0.0324,0.013523,0.002678,0.000431,0.000235
6232000,0.0324,0.013523,0.002678,0.000431,0.000353
6233000,0.0324,0.013523,0.002678,0.000431,0.000470
6234000,0.0324,0.013523,0.002678,0.000431,0.000118
6235000,0.0324,0.013523,0.002678,0.000431,0.000353
6236000,0.0324,0.013523,0.002678,0.000431,0.000470
6237000,0.0324,0.013523,0.002678,0.000431,0.000353
6238000,0.0324,0.013523,0.002678,0.000431,0.000235
6239000,0.0324,0.013523,0.002678,0.000431,0.000353
6240000,0.0324,0.013523,0.002678,0.000431,0.000470
6241000,0.0324,0.013523,0.002678,0.000431,0.000118
6242000,0.0324,0.013523,0.002678,0.000431,0.000353
6243000,0.0324,0.013523,0.002678,0.000431,0.000470
6244000,0.0324,0.013523,0.002678,0.000431,0.000353
6245000,0.0324,0.013523,0.002678,0.000431,0.000235
6246000,0.0324,0.013523,0.002678,0.000431,0.000353
6247000,0.0324,0.013523,0.002678,0.000431,0.000353
6248000,0.0324,0.013523,0.002678,0.000431,0.000235
6249000,0.0324,0.013523,0.002678,0.000431,0.000353
6250000,0.0324,0.013523,0.002678,0.000431,0.000470
6251000,0.0324,0.013523,0.002678,0.000431,0.000353
6252000,0.0324,0.013523,0.002678,0.000431,0.000235
6253000,0.0324,0.013523,0.002678,0.000431,0.000353
6254000,0.0324,0.013523,0.002678,0.000431,0.000353
6255000,0.0324,0.013523,0.002678,0.000431,0.000235
6256000,0.0324,0.013523,0.002678,0.000431,0.000353
6257000,0.0324,0.013523,0.002678,0.000431,0.000470
6258000,0.0324,0.013523,0.002678,0.000431,0.000353
6259000,0.0324,0.013523,0.002678,0.000431,0.000118
6260000,0.0324,0.013523,0.002678,0.000431,0.000470
6261000,0.0324,0.013523,0.002678,0.000431,0.000353
6262000,0.0324,0.013523,0.002678,0.000431,0.000235
6263000,0.0324,0.013523,0.002678,0.000431,0.000353
6264000,0.0324,0.013523,0.002678,0.000431,0.000470
6265000,0.0324,0.013523,0.002678,0.000431,0.000353
6266000,0.0324,0.013523,0.002678,0.000431,0.000118
6267000,0.0324,0.013523,0.002678,0.000431,0.000470
6268000,0.0324,0.013523,0.002678,0.000431,0.000353
6269000,0.0324,0.013523,0.002678,0.000431,0.000235
6270000,0.0324,0.013523,0.002678,0.000431,0.000353
6271000,0.0324,0.013523,0.002678,0.000431,0.000470
6272000,0.0324,0.013523,0.002678,0.000431,0.000235
6273000,0.0324,0.013523,0.002678,0.000431,0.000235
6274000,0.0324,0.013523,0.002678,0.000431,0.000470
6275000,0.0324,0.013523,0.002678,0.000431,0.000353
6276000,0.0324,0.013523,0.002678,0.000431,0.000235
6277000,0.0324,0.013523,0.002678,0.000431,0.000353
6278000,0.0324,0.013523,0.002678,0.000431,0.000470
6279000,0.0324,0.013523,0.002678,0.000431,0.000235
6280000,0.0324,0.013523,0.002678,0.000431,0.000235
6281000,0.0324,0.013523,0.002678,0.000431,0.000470
6282000,0.0324,0.013523,0.002678,0.000431,0.000353
6283000,0.0324,0.013523,0.002678,0.000431,0.000235
6284000,0.0324,0.013523,0.002678,0.000431,0.000353
6285000,0.0324,0.013523,0.002678,0.000431,0.000353
6286000,0.0324,0.013523,0.002678,0.000431,0.000235
6287000,0.0324,0.013523,0.002678,0.000431,0.000353
6288000,0.0324,0.013523,0.002678,0.000431,0.000470
6289000,0.0324,0.013523,0.002678,0.000431,0.000353
6290000,0.0324,0.013523,0.002678,0.000431,0.000235
6291000,0.0324,0.013523,0.002678,0.000431,0.000353
6292000,0.0324,0.013523,0.002678,0.000431,0.000353
6293000,0.0324,0.013523,0.002678,0.000431,0.000235
6294000,0.0324,0.013523,0.002678,0.000431,0.000353
6295000,0.0324,0.013523,0.002678,0.000431,0.000470
6296000,0.0324,0.013523,0.002678,0.000431,0.000353
6297000,0.0324,0.013523,0.002678,0.000431,0.000235
6298000,0.0324,0.013523,0.002678,0.000431,0.000353
6299000,0.0324,0.013523,0.002678,0.000431,0.000353
6300000,0.0324,0.013523,0.002678,0.000431,0.000235
6301000,0.0324,0.013523,0.002678,0.000431,0.000353
6302000,0.0324,0.013523,0.002678,0.000431,0.000470
6303000,0.0324,0.013523,0.002678,0.000431,0.000353
6304000,0.0324,0.013523,0.002678,0.000431,0.000118
6305000,0.0324,0.013523,0.002678,0.000431,0.000470
6306000,0.0324,0.013523,0.002678,0.000431,0.000353
6307000,0.0324,0.013523,0.002678,0.000431,0.000235
6308000,0.0324,0.013523,0.002678,0.000431,0.000353
6309000,0.0324,0.013523,0.002678,0.000431,0.000470
6310000,0.0324,0.013523,0.002678,0.000431,0.000235
6311000,0.0324,0.013523,0.002678,0.000431,0.000235
6312000,0.0324,0.013523,0.002678,0.000431,0.000470
6313000,0.0324,0.013523,0.002678,0.000431,0.000353
6314000,0.0324,0.013523,0.002678,0.000431,0.000235
6315000,0.0324,0.013523,0.002678,0.000431,0.000353
6316000,0.0324,0.013523,0.002678,0.000431,0.000470
6317000,0.0324,0.013523,0.002678,0.000431,0.000235
6318000,0.0324,0.013523,0.002678,0.000431,0.000235
6319000,0.0324,0.013523,0.002678,0.000431,0.000470
6320000,0.0324,0.013523,0.002678,0.000431,0.000353
6321000,0.0324,0.013523,0.002678,0.000431,0.000235
6322000,0.0324,0.013523,0.002678,0.000431,0.000353
6323000,0.0324,0.013523,0.002678,0.000431,0.000470
6324000,0.0324,0.013523,0.002678,0.000431,0.000118
6325000,0.0324,0.013523,0.002678,0.000431,0.000353
6326000,0.0324,0.013523,0.002678,0.000431,0.000470
6327000,0.0324,0.013523,0.002678,0.000431,0.000353
6328000,0.0324,0.013523,0.002678,0.000431,0.000235
6329000,0.0324,0.013523,0.002678,0.000431,0.000353
6330000,0.0324,0.013523,0.002678,0.000431,0.000353
6331000,0.0324,0.013523,0.002678,0.000431,0.000235
6332000,0.0324,0.013523,0.002678,0.000431,0.000353
6333000,0.0324,0.013523,0.002678,0.000431,0.000470
6334000,0.0324,0.013523,0.002678,0.000431,0.000353
6335000,0.0324,0.013523,0.002678,0.000431,0.000235
6336000,0.0324,0.013523,0.002678,0.000431,0.000353
6337000,0.0324,0.013523,0.002678,0.000431,0.000353
6338000,0.0324,0.013523,0.002678,0.000431,0.000235
6339000,0.0324,0.013523,0.002678,0.000431,0.000353
6340000,0.0324,0.013523,0.002678,0.000431,0.000470
6341000,0.0324,0.013523,0.002678,0.000431,0.000353
6342000,0.0324,0.013523,0.002678,0.000431,0.000118
6343000,0.0324,0.013523,0.002678,0.000431,0.000470
6344000,0.0324,0.013523,0.002678,0.000431,0.000353
6345000,0.0324,0.013523,0.002678,0.000431,0.000235
6346000,0.0324,0.013523,0.002678,0.000431,0.000353
6347000,0.0324,0.013523,0.002678,0.000431,0.000470
6348000,0.0324,0.013523,0.002678,0.000431,0.000353
6349000,0.0324,0.013523,0.002678,0.000431,0.000118
6350000,0.0324,0.013523,0.002678,0.000431,0.000470
6351000,0.0324,0.013523,0.002678,0.000431,0.000353
6352000,0.0324,0.013523,0.002678,0.000431,0.000235
6353000,0.0324,0.013523,0.002678,0.000431,0.000353
6354000,0.0324,0.013523,0.002678,0.000431,0.000470
6355000,0.0324,0.013523,0.002678,0.000431,0.000235
6356000,0.0324,0.013523,0.002678,0.000431,0.000235
6357000,0.0324,0.013523,0.002678,0.000431,0.000470
6358000,0.0324,0.013523,0.002678,0.000431,0.000353
6359000,0.0324,0.013523,0.002678,0.000431,0.000235
6360000,0.0324,0.013523,0.002678,0.000431,0.000353
6361000,0.0324,0.013523,0.002678,0.000431,0.000470
6362000,0.0324,0.013523,0.002678,0.000431,0.000235
6363000,0.0324,0.013523,0.002678,0.000431,0.000235
6364000,0.0324,0.013523,0.002678,0.000431,0.000470
6365000,0.0324,0.013523,0.002678,0.000431,0.000353
6366000,0.0324,0.013523,0.002678,0.000431,0.000235
6367000,0.0324,0.013523,0.002678,0.000431,0.000353
6368000,0.0324,0.013523,0.002678,0.000431,0.000470
6369000,0.0324,0.013523,0.002678,0.000431,0.000118
6370000,0.0324,0.013523,0.002678,0.000431,0.000353
6371000,0.0324,0.013523,0.002678,0.000431,0.000470
6372000,0.0324,0.013523,0.002678,0.000431,0.000353
6373000,0.0324,0.013523,0.002678,0.000431,0.000235
6374000,0.0324,0.013523,0.002678,0.000431,0.000353
6375000,0.0324,0.013523,0.002678,0.000431,0.000353
6376000,0.0324,0.013523,0.002678,0.000431,0.000235
6377000,0.0324,0.013523,0.002678,0.000431,0.000353
6378000,0.0324,0.013523,0.002678,0.000431,0.000470
6379000,0.0324,0.013523,0.002678,0.000431,0.000353
6380000,0.0324,0.013523,0.002678,0.000431,0.000235
6381000,0.0324,0.013523,0.002678,0.000431,0.000353
6382000,0.0324,0.013523,0.002678,0.000431,0.000353
6383000,0.0324,0.013523,0.002678,0.000431,0.000235
6384000,0.0324,0.013523,0.002678,0.000431,0.000353
6385000,0.0324,0.013523,0.002678,0.000431,0.000470
6386000,0.0324,0.013523,0.002678,0.000431,0.000353
6387000,0.0324,0.013523,0.002678,0.000431,0.000235
6388000,0.0324,0.013523,0.002678,0.000431,0.000353
6389000,0.0324,0.013523,0.002678,0.000431,0.000353
6390000,0.0324,0.013523,0.002678,0.000431,0.000235
6391000,0.0324,0.013523,0.002678,0.000431,0.000353
6392000,0.0324,0.013523,0.002678,0.000431,0.000470
6393000,0.0324,0.013523,0.002678,0.000431,0.000353
6394000,0.0324,0.013523,0.002678,0.000431,0.000235
6395000,0.0324,0.013523,0.002678,0.000431,0.000353
6396000,0.0324,0.013523,0.002678,0.000431,0.000353
6397000,0.0324,0.013523,0.002678,0.000431,0.000235
6398000,0.0324,0.013523,0.002678,0.000431,0.000353
6399000,0.0324,0.013523,0.002678,0.000431,0.000470
6400000,0.0324,0.013523,0.002678,0.000431,0.000353
6401000,0.0324,0.013523,0.002678,0.000431,0.000235
6402000,0.0324,0.013523,0.002678,0.000431,0.000353
6403000,0.0324,0.013523,0.002678,0.000431,0.000353
6404000,0.0324,0.013523,0.002678,0.000431,0.000235
6405000,0.0324,0.013523,0.002678,0.000431,0.000353
6406000,0.0324,0.013523,0.002678,0.000431,0.000470
6407000,0.0324,0.013523,0.002678,0.000431,0.000353
6408000,0.0324,0.013523,0.002678,0.000431,0.000118
6409000,0.0324,0.013523,0.002678,0.000431,0.000470
6410000,0.0324,0.013523,0.002678,0.000431,0.000353
6411000,0.0324,0.013523,0.002678,0.000431,0.000235
6412000,0.0324,0.013523,0.002678,0.000431,0.000353
6413000,0.0324,0.013523,0.002678,0.000431,0.000470
6414000,0.0324,0.013523,0.002678,0.000431,0.000353
6415000,0.0324,0.013523,0.002678,0.000431,0.000118
6416000,0.0324,0.013523,0.002678,0.000431,0.000470
6417000,0.0324,0.013523,0.002678,0.000431,0.000353
6418000,0.0324,0.013523,0.002678,0.000431,0.000235
6419000,0.0324,0.013523,0.002678,0.000431,0.000353
6420000,0.0324,0.013523,0.002678,0.000431,0.000470
6421000,0.0324,0.013523,0.002678,0.000431,0.000353
6422000,0.0324,0.013523,0.002678,0.000431,0.000118
6423000,0.0324,0.013523,0.002678,0.000431,0.000470
6424000,0.0324,0.013523,0.002678,0.000431,0.000353
6425000,0.0324,0.013523,0.002678,0.000431,0.000235
6426000,0.0324,0.013523,0.002678,0.000431,0.000353
6427000,0.0324,0.013523,0.002678,0.000431,0.000470
6428000,0.0324,0.013523,0.002678,0.000431,0.000235
6429000,0.0324,0.013523,0.002678,0.000431,0.000235
6430000,0.0324,0.013523,0.002678,0.000431,0.000470
6431000,0.0324,0.013523,0.002678,0.000431,0.000353
6432000,0.0324,0.013523,0.002678,0.000431,0.000235
6433000,0.0324,0.013523,0.002678,0.000431,0.000353
6434000,0.0324,0.013523,0.002678,0.000431,0.000470
6435000,0.0324,0.013523,0.002678,0.000431,0.000235
6436000,0.0324,0.013523,0.002678,0.000431,0.000235
6437000,0.0324,0.013523,0.002678,0.000431,0.000470
6438000,0.0324,0.013523,0.002678,0.000431,0.000353
6439000,0.0324,0.013523,0.002678,0.000431,0.000235
6440000,0.0324,0.013523,0.002678,0.000431,0.000353
6441000,0.0324,0.013523,0.002678,0.000431,0.000470
6442000,0.0324,0.013523,0.002678,0.000431,0.000235
6443000,0.0324,0.013523,0.002678,0.000431,0.000235
6444000,0.0324,0.013523,0.002678,0.000431,0.000470
6445000,0.0324,0.013523,0.002678,0.000431,0.000353
6446000,0.0324,0.013523,0.002678,0.000431,0.000235
6447000,0.0324,0.013523,0.002678,0.000431,0.000353
6448000,0.0324,0.013523,0.002678,0.000431,0.000470
6449000,0.0324,0.013523,0.002678,0.000431,0.000235
6450000,0.0324,0.013523,0.002678,0.000431,0.000235
6451000,0.0324,0.013523,0.002678,0.000431,0.000470
6452000,0.0324,0.013523,0.002678,0.000431,0.000353
6453000,0.0324,0.013523,0.002678,0.000431,0.000235
6454000,0.0324,0.013523,0.002678,0.000431,0.000353
6455000,0.0324,0.013523,0.002678,0.000431,0.000470
6456000,0.0324,0.013523,0.002678,0.000431,0.000235
6457000,0.0324,0.013523,0.002678,0.000431,0.000235
6458000,0.0324,0.013523,0.002678,0.000431,0.000470
6459000,0.0324,0.013523,0.002678,0.000431,0.000353
6460000,0.0324,0.013523,0.002678,0.000431,0.000235
6461000,0.0324,0.013523,0.002678,0.000431,0.000353
6462000,0.0324,0.013523,0.002678,0.000431,0.000470
6463000,0.0324,0.013523,0.002678,0.000431,0.000235
6464000,0.0324,0.013523,0.002678,0.000431,0.000235
6465000,0.0324,0.013523,0.002678,0.000431,0.000470
6466000,0.0324,0.013523,0.002678,0.000431,0.000353
6467000,0.0324,0.013523,0.002678,0.000431,0.000235
6468000,0.0324,0.013523,0.002678,0.000431,0.000353
6469000,0.0324,0.013523,0.002678,0.000431,0.000470
6470000,0.0324,0.013523,0.002678,0.000431,0.000118
6471000,0.0324,0.013523,0.002678,0.000431,0.000353
6472000,0.0324,0.013523,0.002678,0.000431,0.000470
6473000,0.0324,0.013523,0.002678,0.000431,0.000353
6474000,0.0324,0.013523,0.002678,0.000431,0.000235
6475000,0.0324,0.013523,0.002678,0.000431,0.000353
6476000,0.0324,0.013523,0.002678,0.000431,0.000470
6477000,0.0324,0.013523,0.002678,0.000431,0.000118
6478000,0.0324,0.013523,0.002678,0.000431,0.000353
6479000,0.0324,0.013523,0.002678,0.000431,0.000470
6480000,0.0324,0.013523,0.002678,0.000431,0.000353
6481000,0.0324,0.013523,0.002678,0.000431,0.000235
6482000,0.0324,0.013523,0.002678,0.000431,0.000353
6483000,0.0324,0.013523,0.002678,0.000431,0.000470
6484000,0.0324,0.013523,0.002678,0.000431,0.000118
6485000,0.0324,0.013523,0.002678,0.000431,0.000353
6486000,0.0324,0.013523,0.002678,0.000431,0.000470
6487000,0.0324,0.013523,0.002678,0.000431,0.000353
6488000,0.0324,0.013523,0.002678,0.000431,0.000235
6489000,0.0324,0.013523,0.002678,0.000431,0.000353
6490000,0.0324,0.013523,0.002678,0.000431,0.000470
6491000,0.0324,0.013523,0.002678,0.000431,0.000118
6492000,0.0324,0.013523,0.002678,0.000431,0.000353
6493000,0.0324,0.013523,0.002678,0.000431,0.000470
6494000,0.0324,0.013523,0.002678,0.000431,0.000353
6495000,0.0324,0.013523,0.002678,0.000431,0.000235
6496000,0.0324,0.013523,0.002678,0.000431,0.000353
6497000,0.0324,0.013523,0.002678,0.000431,0.000353
6498000,0.0324,0.013523,0.002678,0.000431,0.000235
6499000,0.0324,0.013523,0.002678,0.000431,0.000353
6500000,0.0324,0.013523,0.002678,0.000431,0.000470
6501000,0.0324,0.013523,0.002678,0.000431,0.000353
6502000,0.0324,0.013523,0.002678,0.000431,0.000235
6503000,0.0324,0.013523,0.002678,0.000431,0.000353
6504000,0.0324,0.013523,0.002678,0.000431,0.000353
6505000,0.0324,0.013523,0.002678,0.000431,0.000235
6506000,0.0324,0.013523,0.002678,0.000431,0.000353
6507000,0.0324,0.013523,0.002678,0.000431,0.000470
6508000,0.0324,0.013523,0.002678,0.000431,0.000353
6509000,0.0324,0.013523,0.002678,0.000431,0.000235
6510000,0.0324,0.013523,0.002678,0.000431,0.000353
6511000,0.0324,0.013523,0.002678,0.000431,0.000353
6512000,0.0324,0.013523,0.002678,0.000431,0.000235
6513000,0.0324,0.013523,0.002678,0.000431,0.000353
6514000,0.0324,0.013523,0.002678,0.000431,0.000470
6515000,0.0324,0.013523,0.002678,0.000431,0.000353
6516000,0.0324,0.013523,0.002678,0.000431,0.000235
6517000,0.0324,0.013523,0.002678,0.000431,0.000353
6518000,0.0324,0.013523,0.002678,0.000431,0.000353
6519000,0.0324,0.013523,0.002678,0.000431,0.000235
6520000,0.0324,0.013523,0.002678,0.000431,0.000353
6521000,0.0324,0.013523,0.002678,0.000431,0.000470
6522000,0.0324,0.013523,0.002678,0.000431,0.000353
6523000,0.0324,0.013523,0.002678,0.000431,0.000235
6524000,0.0324,0.013523,0.002678,0.000431,0.000353
6525000,0.0324,0.013523,0.002678,0.000431,0.000353
6526000,0.0324,0.013523,0.002678,0.000431,0.000235
6527000,0.0324,0.013523,0.002678,0.000431,0.000353
6528000,0.0324,0.013523,0.002678,0.000431,0.000470
6529000,0.0324,0.013523,0.002678,0.000431,0.000353
6530000,0.0324,0.013523,0.002678,0.000431,0.000235
6531000,0.0324,0.013523,0.002678,0.000431,0.000353
6532000,0.0324,0.013523,0.002678,0.000431,0.000353
6533000,0.0324,0.013523,0.002678,0.000431,0.000235
6534000,0.0324,0.013523,0.002678,0.000431,0.000353
6535000,0.0324,0.013523,0.002678,0.000431,0.000470
6536000,0.0324,0.013523,0.002678,0.000431,0.000353
6537000,0.0324,0.013523,0.002678,0.000431,0.000118
6538000,0.0324,0.013523,0.002678,0.000431,0.000470
6539000,0.0324,0.013523,0.002678,0.000431,0.000353
6540000,0.0324,0.013523,0.002678,0.000431,0.000235
6541000,0.0324,0.013523,0.002678,0.000431,0.000353
6542000,0.0324,0.013523,0.002678,0.000431,0.000470
6543000,0.0324,0.013523,0.002678,0.000431,0.000235
6544000,0.0324,0.013523,0.002678,0.000431,0.000235
6545000,0.0324,0.013523,0.002678,0.000431,0.000470
6546000,0.0324,0.013523,0.002678,0.000431,0.000353
6547000,0.0324,0.013523,0.002678,0.000431,0.000235
6548000,0.0324,0.013523,0.002678,0.000431,0.000353
6549000,0.0324,0.013523,0.002678,0.000431,0.000470
6550000,0.0324,0.013523,0.002678,0.000431,0.000118
6551000,0.0324,0.013523,0.002678,0.000431,0.000353
6552000,0.0324,0.013523,0.002678,0.000431,0.000470
6553000,0.0324,0.013523,0.002678,0.000431,0.000353
6554000,0.0324,0.013523,0.002678,0.000431,0.000235
6555000,0.0324,0.013523,0.002678,0.000431,0.000353
6556000,0.0324,0.013523,0.002678,0.000431,0.000353
6557000,0.0324,0.013523,0.002678,0.000431,0.000235
6558000,0.0324,0.013523,0.002678,0.000431,0.000353
6559000,0.0324,0.013523,0.002678,0.000431,0.000470
6560000,0.0324,0.013523,0.002678,0.000431,0.000353
6561000,0.0324,0.013523,0.002678,0.000431,0.000235
6562000,0.0324,0.013523,0.002678,0.000431,0.000353
6563000,0.0324,0.013523,0.002678,0.000431,0.000353
6564000,0.0324,0.013523,0.002678,0.000431,0.000235
6565000,0.0324,0.013523,0.002678,0.000431,0.000353
6566000,0.0324,0.013523,0.002678,0.000431,0.000470
6567000,0.0324,0.013523,0.002678,0.000431,0.000353
6568000,0.0324,0.013523,0.002678,0.000431,0.000235
6569000,0.0324,0.013523,0.002678,0.000431,0.000353
6570000,0.0324,0.013523,0.002678,0.000431,0.000353
6571000,0.0324,0.013523,0.002678,0.000431,0.000235
6572000,0.0324,0.013523,0.002678,0.000431,0.000353
6573000,0.0324,0.013523,0.002678,0.000431,0.000470
6574000,0.0324,0.013523,0.002678,0.000431,0.000353
6575000,0.0324,0.013523,0.002678,0.000431,0.000118
6576000,0.0324,0.013523,0.002678,0.000431,0.000470
6577000,0.0324,0.013523,0.002678,0.000431,0.000353
6578000,0.0324,0.013523,0.002678,0.000431,0.000235
6579000,0.0324,0.013523,0.002678,0.000431,0.000353
6580000,0.0324,0.013523,0.002678,0.000431,0.000470
6581000,0.0324,0.013523,0.002678,0.000431,0.000235
6582000,0.0324,0.013523,0.002678,0.000431,0.000235
6583000,0.0324,0.013523,0.002678,0.000431,0.000470
6584000,0.0324,0.013523,0.002678,0.000431,0.000353
6585000,0.0324,0.013523,0.002678,0.000431,0.000235
6586000,0.0324,0.013523,0.002678,0.000431,0.000353
6587000,0.0324,0.013523,0.002678,0.000431,0.000470
6588000,0.0324,0.013523,0.002678,0.000431,0.000235
6589000,0.0324,0.013523,0.002678,0.000431,0.000235
6590000,0.0324,0.013523,0.002678,0.000431,0.000470
6591000,0.0324,0.013523,0.002678,0.000431,0.000353
6592000,0.0324,0.013523,0.002678,0.000431,0.000235
6593000,0.0324,0.013523,0.002678,0.000431,0.000353
6594000,0.0324,0.013523,0.002678,0.000431,0.000470
6595000,0.0324,0.013523,0.002678,0.000431,0.000118
6596000,0.0324,0.013523,0.002678,0.000431,0.000353
6597000,0.0324,0.013523,0.002678,0.000431,0.000470
6598000,0.0324,0.013523,0.002678,0.000431,0.000353
6599000,0.0324,0.013523,0.002678,0.000431,0.000235
6600000,0.0324,0.013523,0.002678,0.000431,0.000353
6601000,0.0324,0.013523,0.002678,0.000431,0.000353
6602000,0.0324,0.013523,0.002678,0.000431,0.000235
6603000,0.0324,0.013523,0.002678,0.000431,0.000353
6604000,0.0324,0.013523,0.002678,0.000431,0.000470
6605000,0.0324,0.013523,0.002678,0.000431,0.000353
6606000,0.0324,0.013523,0.002678,0.000431,0.000235
6607000,0.0324,0.013523,0.002678,0.000431,0.000353
6608000,0.0324,0.013523,0.002678,0.000431,0.000353
6609000,0.0324,0.013523,0.002678,0.000431,0.000235
6610000,0.0324,0.013523,0.002678,0.000431,0.000353
6611000,0.0324,0.013523,0.002678,0.000431,0.000470
6612000,0.0324,0.013523,0.002678,0.000431,0.000353
6613000,0.0324,0.013523,0.002678,0.000431,0.000235
6614000,0.0324,0.013523,0.002678,0.000431,0.000353
6615000,0.0324,0.013523,0.002678,0.000431,0.000353
6616000,0.0324,0.013523,0.002678,0.000431,0.000235
6617000,0.0324,0.013523,0.002678,0.000431,0.000353
6618000,0.0324,0.013523,0.002678,0.000431,0.000470
6619000,0.0324,0.013523,0.002678,0.000431,0.000353
6620000,0.0324,0.013523,0.002678,0.000431,0.000118
6621000,0.0324,0.013523,0.002678,0.000431,0.000470
6622000,0.0324,0.013523,0.002678,0.000431,0.000353
6623000,0.0324,0.013523,0.002678,0.000431,0.000235
6624000,0.0324,0.013523,0.002678,0.000431,0.000353
6625000,0.0324,0.013523,0.002678,0.000431,0.000470
6626000,0.0324,0.013523,0.002678,0.000431,0.000235
6627000,0.0324,0.013523,0.002678,0.000431,0.000235
6628000,0.0324,0.013523,0.002678,0.000431,0.000470
6629000,0.0324,0.013523,0.002678,0.000431,0.000353
6630000,0.0324,0.013523,0.002678,0.000431,0.000235
6631000,0.0324,0.013523,0.002678,0.000431,0.000353
6632000,0.0324,0.013523,0.002678,0.000431,0.000470
6633000,0.0324,0.013523,0.002678,0.000431,0.000118
6634000,0.0324,0.013523,0.002678,0.000431,0.000353
6635000,0.0324,0.013523,0.002678,0.000431,0.000470
6636000,0.0324,0.013523,0.002678,0.000431,0.000353
6637000,0.0324,0.013523,0.002678,0.000431,0.000235
6638000,0.0324,0.013523,0.002678,0.000431,0.000353
6639000,0.0324,0.013523,0.002678,0.000431,0.000470
6640000,0.0324,0.013523,0.002678,0.000431,0.000118
6641000,0.0324,0.013523,0.002678,0.000431,0.000353
6642000,0.0324,0.013523,0.002678,0.000431,0.000470
6643000,0.0324,0.013523,0.002678,0.000431,0.000353
6644000,0.0324,0.013523,0.002678,0.000431,0.000235
6645000,0.0324,0.013523,0.002678,0.000431,0.000353
6646000,0.0324,0.013523,0.002678,0.000431,0.000353
6647000,0.0324,0.013523,0.002678,0.000431,0.000235
6648000,0.0324,0.013523,0.002678,0.000431,0.000353
6649000,0.0324,0.013523,0.002678,0.000431,0.000470
6650000,0.0324,0.013523,0.002678,0.000431,0.000353
6651000,0.0324,0.013523,0.002678,0.000431,0.000235
6652000,0.0324,0.013523,0.002678,0.000431,0.000353
6653000,0.0324,0.013523,0.002678,0.000431,0.000353
6654000,0.0324,0.013523,0.002678,0.000431,0.000235
6655000,0.0324,0.013523,0.002678,0.000431,0.000353
6656000,0.0324,0.013523,0.002678,0.000431,0.000470
6657000,0.0324,0.013523,0.002678,0.000431,0.000353
6658000,0.0324,0.013523,0.002678,0.000431,0.000118
6659000,0.0324,0.013523,0.002678,0.000431,0.000470
6660000,0.0324,0.013523,0.002678,0.000431,0.000353
6661000,0.0324,0.013523,0.002678,0.000431,0.000235
6662000,0.0324,0.013523,0.002678,0.000431,0.000353
6663000,0.0324,0.013523,0.002678,0.000431,0.000470
6664000,0.0324,0.013523,0.002678,0.000431,0.000353
6665000,0.0324,0.013523,0.002678,0.000431,0.000118
6666000,0.0324,0.013523,0.002678,0.000431,0.000470
6667000,0.0324,0.013523,0.002678,0.000431,0.000353
6668000,0.0324,0.013523,0.002678,0.000431,0.000235
6669000,0.0324,0.013523,0.002678,0.000431,0.000353
6670000,0.0324,0.013523,0.002678,0.000431,0.000470
6671000,0.0324,0.013523,0.002678,0.000431,0.000353
6672000,0.0324,0.013523,0.002678,0.000431,0.000118
6673000,0.0324,0.013523,0.002678,0.000431,0.000470
6674000,0.0324,0.013523,0.002678,0.000431,0.000353
6675000,0.0324,0.013523,0.002678,0.000431,0.000235
6676000,0.0324,0.013523,0.002678,0.000431,0.000353
6677000,0.0324,0.013523,0.002678,0.000431,0.000470
6678000,0.0324,0.013523,0.002678,0.000431,0.000235
6679000,0.0324,0.013523,0.002678,0.000431,0.000235
6680000,0.0324,0.013523,0.002678,0.000431,0.000470
6681000,0.0324,0.013523,0.002678,0.000431,0.000353
6682000,0.0324,0.013523,0.002678,0.000431,0.000235
6683000,0.0324,0.013523,0.002678,0.000431,0.000353
6684000,0.0324,0.013523,0.002678,0.000431,0.000470
6685000,0.0324,0.013523,0.002678,0.000431,0.000235
6686000,0.0324,0.013523,0.002678,0.000431,0.000235
6687000,0.0324,0.013523,0.002678,0.000431,0.000470
6688000,0.0324,0.013523,0.002678,0.000431,0.000353
6689000,0.0324,0.013523,0.002678,0.000431,0.000235
6690000,0.0324,0.013523,0.002678,0.000431,0.000353
6691000,0.0324,0.013523,0.002678,0.000431,0.000470
6692000,0.0324,0.013523,0.002678,0.000431,0.000235
6693000,0.0324,0.013523,0.002678,0.000431,0.000235
6694000,0.0324,0.013523,0.002678,0.000431,0.000470
6695000,0.0324,0.013523,0.002678,0.000431,0.000353
6696000,0.0324,0.013523,0.002678,0.000431,0.000235
6697000,0.0324,0.013523,0.002678,0.000431,0.000353
6698000,0.0324,0.013523,0.002678,0.000431,0.000470
6699000,0.0324,0.013523,0.002678,0.000431,0.000235
6700000,0.0324,0.013523,0.002678,0.000431,0.000235
6701000,0.0324,0.013523,0.002678,0.000431,0.000470
6702000,0.0324,0.013523,0.002678,0.000431,0.000353
6703000,0.0324,0.013523,0.002678,0.000431,0.000235
6704000,0.0324,0.013523,0.002678,0.000431,0.000353
6705000,0.0324,0.013523,0.002678,0.000431,0.000470
6706000,0.0324,0.013523,0.002678,0.000431,0.000235
6707000,0.0324,0.013523,0.002678,0.000431,0.000235
6708000,0.0324,0.013523,0.002678,0.000431,0.000470
6709000,0.0324,0.013523,0.002678,0.000431,0.000353
6710000,0.0324,0.013523,0.002678,0.000431,0.000235
6711000,0.0324,0.013523,0.002678,0.000431,0.000353
6712000,0.0324,0.013523,0.002678,0.000431,0.000470
6713000,0.0324,0.013523,0.002678,0.000431,0.000235
6714000,0.0324,0.013523,0.002678,0.000431,0.000235
6715000,0.0324,0.013523,0.002678,0.000431,0.000470
6716000,0.0324,0.013523,0.002678,0.000431,0.000353
6717000,0.0324,0.013523,0.002678,0.000431,0.000235
6718000,0.0324,0.013523,0.002678,0.000431,0.000353
6719000,0.0324,0.013523,0.002678,0.000431,0.000470
6720000,0.0324,0.013523,0.002678,0.000431,0.000118
6721000,0.0324,0.013523,0.002678,0.000431,0.000353
6722000,0.0324,0.013523,0.002678,0.000431,0.000470
6723000,0.0324,0.013523,0.002678,0.000431,0.000353
6724000,0.0324,0.013523,0.002678,0.000431,0.000235
6725000,0.0324,0.013523,0.002678,0.000431,0.000353
6726000,0.0324,0.013523,0.002678,0.000431,0.000470
6727000,0.0324,0.013523,0.002678,0.000431,0.000118
6728000,0.0324,0.013523,0.002678,0.000431,0.000353
6729000,0.0324,0.013523,0.002678,0.000431,0.000470
6730000,0.0324,0.013523,0.002678,0.000431,0.000353
6731000,0.0324,0.013523,0.002678,0.000431,0.000235
6732000,0.0324,0.013523,0.002678,0.000431,0.000353
6733000,0.0324,0.013523,0.002678,0.000431,0.000470
6734000,0.0324,0.013523,0.002678,0.000431,0.000118
6735000,0.0324,0.013523,0.002678,0.000431,0.000353
6736000,0.0324,0.013523,0.002678,0.000431,0.000470
6737000,0.0324,0.013523,0.002678,0.000431,0.000353
6738000,0.0324,0.013523,0.002678,0.000431,0.000235
6739000,0.0324,0.013523,0.002678,0.000431,0.000353
6740000,0.0324,0.013523,0.002678,0.000431,0.000470
6741000,0.0324,0.013523,0.002678,0.000431,0.000118
6742000,0.0324,0.013523,0.002678,0.000431,0.000353
6743000,0.0324,0.013523,0.002678,0.000431,0.000470
6744000,0.0324,0.013523,0.002678,0.000431,0.000353
6745000,0.0324,0.013523,0.002678,0.000431,0.000235
6746000,0.0324,0.013523,0.002678,0.000431,0.000353
6747000,0.0324,0.013523,0.002678,0.000431,0.000353
6748000,0.0324,0.013523,0.002678,0.000431,0.000235
6749000,0.0324,0.013523,0.002678,0.000431,0.000353
6750000,0.0324,0.013523,0.002678,0.000431,0.000470
6751000,0.0324,0.013523,0.002678,0.000431,0.000353
6752000,0.0324,0.013523,0.002678,0.000431,0.000235
6753000,0.0324,0.013523,0.002678,0.000431,0.000353
6754000,0.0324,0.013523,0.002678,0.000431,0.000353
6755000,0.0324,0.013523,0.002678,0.000431,0.000235
6756000,0.0324,0.013523,0.002678,0.000431,0.000353
6757000,0.0324,0.013523,0.002678,0.000431,0.000470
6758000,0.0324,0.013523,0.002678,0.000431,0.000353
6759000,0.0324,0.013523,0.002678,0.000431,0.000235
6760000,0.0324,0.013523,0.002678,0.000431,0.000353
6761000,0.0324,0.013523,0.002678,0.000431,0.000353
6762000,0.0324,0.013523,0.002678,0.000431,0.000235
6763000,0.0324,0.013523,0.002678,0.000431,0.000353
6764000,0.0324,0.013523,0.002678,0.000431,0.000470
6765000,0.0324,0.013523,0.002678,0.000431,0.000353
6766000,0.0324,0.013523,0.002678,0.000431,0.000235
6767000,0.0324,0.013523,0.002678,0.000431,0.000353
6768000,0.0324,0.013523,0.002678,0.000431,0.000353
6769000,0.0324,0.013523,0.002678,0.000431,0.000235
6770000,0.0324,0.013523,0.002678,0.000431,0.000353
6771000,0.0324,0.013523,0.002678,0.000431,0.000470
6772000,0.0324,0.013523,0.002678,0.000431,0.000353
6773000,0.0324,0.013523,0.002678,0.000431,0.000235
6774000,0.0324,0.013523,0.002678,0.000431,0.000353
6775000,0.0324,0.013523,0.002678,0.000431,0.000353
6776000,0.0324,0.013523,0.002678,0.000431,0.000235
6777000,0.0324,0.013523,0.002678,0.000431,0.000353
6778000,0.0324,0.013523,0.002678,0.000431,0.000470
6779000,0.0324,0.013523,0.002678,0.000431,0.000353
6780000,0.0324,0.013523,0.002678,0.000431,0.000235
6781000,0.0324,0.013523,0.002678,0.000431,0.000353
6782000,0.0324,0.013523,0.002678,0.000431,0.000353
6783000,0.0324,0.013523,0.002678,0.000431,0.000235
6784000,0.0324,0.013523,0.002678,0.000431,0.000353
6785000,0.0324,0.013523,0.002678,0.000431,0.000470
6786000,0.0324,0.013523,0.002678,0.000431,0.000353
6787000,0.0324,0.013523,0.002678,0.000431,0.000235
6788000,0.0324,0.013523,0.002678,0.000431,0.000353
6789000,0.0324,0.013523,0.002678,0.000431,0.000353
6790000,0.0324,0.013523,0.002678,0.000431,0.000235
6791000,0.0324,0.013523,0.002678,0.000431,0.000353
6792000,0.0324,0.013523,0.002678,0.000431,0.000470
6793000,0.0324,0.013523,0.002678,0.000431,0.000353
6794000,0.0324,0.013523,0.002678,0.000431,0.000118
6795000,0.0324,0.013523,0.002678,0.000431,0.000470
6796000,0.0324,0.013523,0.002678,0.000431,0.000353
6797000,0.0324,0.013523,0.002678,0.000431,0.000235
6798000,0.0324,0.013523,0.002678,0.000431,0.000353
6799000,0.0324,0.013523,0.002678,0.000431,0.000470
6800000,0.0324,0.013523,0.002678,0.000431,0.000353
6801000,0.0324,0.013523,0.002678,0.000431,0.000118
6802000,0.0324,0.013523,0.002678,0.000431,0.000470
6803000,0.0324,0.013523,0.002678,0.000431,0.000353
6804000,0.0324,0.013523,0.002678,0.000431,0.000235
6805000,0.0324,0.013523,0.002678,0.000431,0.000353
6806000,0.0324,0.013523,0.002678,0.000431,0.000470
6807000,0.0324,0.013523,0.002678,0.000431,0.000353
6808000,0.0324,0.013523,0.002678,0.000431,0.000118
6809000,0.0324,0.013523,0.002678,0.000431,0.000470
6810000,0.0324,0.013523,0.002678,0.000431,0.000353
6811000,0.0324,0.013523,0.002678,0.000431,0.000235
6812000,0.0324,0.013523,0.002678,0.000431,0.000353
6813000,0.0324,0.013523,0.002678,0.000431,0.000470
6814000,0.0324,0.013523,0.002678,0.000431,0.000353
6815000,0.0324,0.013523,0.002678,0.000431,0.000118
6816000,0.0324,0.013523,0.002678,0.000431,0.000470
6817000,0.0324,0.013523,0.002678,0.000431,0.000353
6818000,0.0324,0.013523,0.002678,0.000431,0.000235
6819000,0.0324,0.013523,0.002678,0.000431,0.000353
6820000,0.0324,0.013523,0.002678,0.000431,0.000470
6821000,0.0324,0.013523,0.002678,0.000431,0.000235
6822000,0.0324,0.013523,0.002678,0.000431,0.000235
6823000,0.0324,0.013523,0.002678,0.000431,0.000470
6824000,0.0324,0.013523,0.002678,0.000431,0.000353
6825000,0.0324,0.013523,0.002678,0.000431,0.000235
6826000,0.0324,0.013523,0.002678,0.000431,0.000353
6827000,0.0324,0.013523,0.002678,0.000431,0.000470
6828000,0.0324,0.013523,0.002678,0.000431,0.000235
6829000,0.0324,0.013523,0.002678,0.000431,0.000235
6830000,0.0324,0.013523,0.002678,0.000431,0.000470
6831000,0.0324,0.013523,0.002678,0.000431,0.000353
6832000,0.0324,0.013523,0.002678,0.000431,0.000235
6833000,0.0324,0.013523,0.002678,0.000431,0.000353
6834000,0.0324,0.013523,0.002678,0.000431,0.000470
6835000,0.0324,0.013523,0.002678,0.000431,0.000235
6836000,0.0324,0.013523,0.002678,0.000431,0.000235
6837000,0.0324,0.013523,0.002678,0.000431,0.000470
6838000,0.0324,0.013523,0.002678,0.000431,0.000353
6839000,0.0324,0.013523,0.002678,0.000431,0.000235
6840000,0.0324,0.013523,0.002678,0.000431,0.000353
6841000,0.0324,0.013523,0.002678,0.000431,0.000470
6842000,0.0324,0.013523,0.002678,0.000431,0.000235
6843000,0.0324,0.013523,0.002678,0.000431,0.000235
6844000,0.0324,0.013523,0.002678,0.000431,0.000470
6845000,0.0324,0.013523,0.002678,0.000431,0.000353
6846000,0.0324,0.013523,0.002678,0.000431,0.000235
6847000,0.0324,0.013523,0.002678,0.000431,0.000353
6848000,0.0324,0.013523,0.002678,0.000431,0.000470
6849000,0.0324,0.013523,0.002678,0.000431,0.000235
6850000,0.0324,0.013523,0.002678,0.000431,0.000235
6851000,0.0324,0.013523,0.002678,0.000431,0.000470
6852000,0.0324,0.013523,0.002678,0.000431,0.000353
6853000,0.0324,0.013523,0.002678,0.000431,0.000235
6854000,0.0324,0.013523,0.002678,0.000431,0.000353
6855000,0.0324,0.013523,0.002678,0.000431,0.000470
6856000,0.0324,0.013523,0.002678,0.000431,0.000235
6857000,0.0324,0.013523,0.002678,0.000431,0.000235
6858000,0.0324,0.013523,0.002678,0.000431,0.000470
6859000,0.0324,0.013523,0.002678,0.000431,0.000353
6860000,0.0324,0.013523,0.002678,0.000431,0.000235
6861000,0.0324,0.013523,0.002678,0.000431,0.000353
6862000,0.0324,0.013523,0.002678,0.000431,0.000470
6863000,0.0324,0.013523,0.002678,0.000431,0.000118
6864000,0.0324,0.013523,0.002678,0.000431,0.000353
6865000,0.0324,0.013523,0.002678,0.000431,0.000470
6866000,0.0324,0.013523,0.002678,0.000431,0.000353
6867000,0.0324,0.013523,0.002678,0.000431,0.000235
6868000,0.0324,0.013523,0.002678,0.000431,0.000353
6869000,0.0324,0.013523,0.002678,0.000431,0.000470
6870000,0.0324,0.013523,0.002678,0.000431,0.000118
6871000,0.0324,0.013523,0.002678,0.000431,0.000353
6872000,0.0324,0.013523,0.002678,0.000431,0.000470
6873000,0.0324,0.013523,0.002678,0.000431,0.000353
6874000,0.0324,0.013523,0.002678,0.000431,0.000235
6875000,0.0324,0.013523,0.002678,0.000431,0.000353
6876000,0.0324,0.013523,0.002678,0.000431,0.000470
6877000,0.0324,0.013523,0.002678,0.000431,0.000118
6878000,0.0324,0.013523,0.002678,0.000431,0.000353
6879000,0.0324,0.013523,0.002678,0.000431,0.000470
6880000,0.0324,0.013523,0.002678,0.000431,0.000353
6881000,0.0324,0.013523,0.002678,0.000431,0.000235
6882000,0.0324,0.013523,0.002678,0.000431,0.000353
6883000,0.0324,0.013523,0.002678,0.000431,0.000353
6884000,0.0324,0.013523,0.002678,0.000431,0.000235
6885000,0.0324,0.013523,0.002678,0.000431,0.000353
6886000,0.0324,0.013523,0.002678,0.000431,0.000470
6887000,0.0324,0.013523,0.002678,0.000431,0.000353
6888000,0.0324,0.013523,0.002678,0.000431,0.000235
6889000,0.0324,0.013523,0.002678,0.000431,0.000353
6890000,0.0324,0.013523,0.002678,0.000431,0.000353
6891000,0.0324,0.013523,0.002678,0.000431,0.000235
6892000,0.0324,0.013523,0.002678,0.000431,0.000353
6893000,0.0324,0.013523,0.002678,0.000431,0.000470
6894000,0.0324,0.013523,0.002678,0.000431,0.000353
6895000,0.0324,0.013523,0.002678,0.000431,0.000235
6896000,0.0324,0.013523,0.002678,0.000431,0.000353
6897000,0.0324,0.013523,0.002678,0.000431,0.000353
6898000,0.0324,0.013523,0.002678,0.000431,0.000235
6899000,0.0324,0.013523,0.002678,0.000431,0.000353
6900000,0.0324,0.013523,0.002678,0.000431,0.000470
6901000,0.0324,0.013523,0.002678,0.000431,0.000353
6902000,0.0324,0.013523,0.002678,0.000431,0.000235
6903000,0.0324,0.013523,0.002678,0.000431,0.000353
6904000,0.0324,0.013523,0.002678,0.000431,0.000353
6905000,0.0324,0.013523,0.002678,0.000431,0.000235
6906000,0.0324,0.013523,0.002678,0.000431,0.000353
6907000,0.0324,0.013523,0.002678,0.000431,0.000470
6908000,0.0324,0.013523,0.002678,0.000431,0.000353
6909000,0.0324,0.013523,0.002678,0.000431,0.000235
6910000,0.0324,0.013523,0.002678,0.000431,0.000353
6911000,0.0324,0.013523,0.002678,0.000431,0.000353
6912000,0.0324,0.013523,0.002678,0.000431,0.000235
6913000,0.0324,0.013523,0.002678,0.000431,0.000353
6914000,0.0324,0.013523,0.002678,0.000431,0.000470
6915000,0.0324,0.013523,0.002678,0.000431,0.000353
6916000,0.0324,0.013523,0.002678,0.000431,0.000235
6917000,0.0324,0.013523,0.002678,0.000431,0.000353
6918000,0.0324,0.013523,0.002678,0.000431,0.000353
6919000,0.0324,0.013523,0.002678,0.000431,0.000235
6920000,0.0324,0.013523,0.002678,0.000431,0.000353
6921000,0.0324,0.013523,0.002678,0.000431,0.000470
6922000,0.0324,0.013523,0.002678,0.000431,0.000353
6923000,0.0324,0.013523,0.002678,0.000431,0.000235
6924000,0.0324,0.013523,0.002678,0.000431,0.000353
6925000,0.0324,0.013523,0.002678,0.000431,0.000353
6926000,0.0324,0.013523,0.002678,0.000431,0.000235
6927000,0.0324,0.013523,0.002678,0.000431,0.000353
6928000,0.0324,0.013523,0.002678,0.000431,0.000470
6929000,0.0324,0.013523,0.002678,0.000431,0.000353
6930000,0.0324,0.013523,0.002678,0.000431,0.000235
6931000,0.0324,0.013523,0.002678,0.000431,0.000353
6932000,0.0324,0.013523,0.002678,0.000431,0.000353
6933000,0.0324,0.013523,0.002678,0.000431,0.000235
6934000,0.0324,0.013523,0.002678,0.000431,0.000353
6935000,0.0324,0.013523,0.002678,0.000431,0.000470
6936000,0.0324,0.013523,0.002678,0.000431,0.000353
6937000,0.0324,0.013523,0.002678,0.000431,0.000118
6938000,0.0324,0.013523,0.002678,0.000431,0.000470
6939000,0.0324,0.013523,0.002678,0.000431,0.000353
6940000,0.0324,0.013523,0.002678,0.000431,0.000235
6941000,0.0324,0.013523,0.002678,0.000431,0.000353
6942000,0.0324,0.013523,0.002678,0.000431,0.000470
6943000,0.0324,0.013523,0.002678,0.000431,0.000353
6944000,0.0324,0.013523,0.002678,0.000431,0.000118
6945000,0.0324,0.013523,0.002678,0.000431,0.000470
6946000,0.0324,0.013523,0.002678,0.000431,0.000353
6947000,0.0324,0.013523,0.002678,0.000431,0.000235
6948000,0.0324,0.013523,0.002678,0.000431,0.000353
6949000,0.0324,0.013523,0.002678,0.000431,0.000470
6950000,0.0324,0.013523,0.002678,0.000431,0.000353
6951000,0.0324,0.013523,0.002678,0.000431,0.000118
6952000,0.0324,0.013523,0.002678,0.000431,0.000470
6953000,0.0324,0.013523,0.002678,0.000431,0.000353
6954000,0.0324,0.013523,0.002678,0.000431,0.000235
6955000,0.0324,0.013523,0.002678,0.000431,0.000353
6956000,0.0324,0.013523,0.002678,0.000431,0.000470
6957000,0.0324,0.013523,0.002678,0.000431,0.000235
6958000,0.0324,0.013523,0.002678,0.000431,0.000235
6959000,0.0324,0.013523,0.002678,0.000431,0.000470
6960000,0.0324,0.013523,0.002678,0.000431,0.000353
6961000,0.0324,0.013523,0.002678,0.000431,0.000235
6962000,0.0324,0.013523,0.002678,0.000431,0.000353
6963000,0.0324,0.013523,0.002678,0.000431,0.000470
6964000,0.0324,0.013523,0.002678,0.000431,0.000235
6965000,0.0324,0.013523,0.002678,0.000431,0.000235
6966000,0.0324,0.013523,0.002678,0.000431,0.000470
6967000,0.0324,0.013523,0.002678,0.000431,0.000353
6968000,0.0324,0.013523,0.002678,0.000431,0.000235
6969000,0.0324,0.013523,0.002678,0.000431,0.000353
6970000,0.0324,0.013523,0.002678,0.000431,0.000470
6971000,0.0324,0.013523,0.002678,0.000431,0.000235
6972000,0.0324,0.013523,0.002678,0.000431,0.000235
6973000,0.0324,0.013523,0.002678,0.000431,0.000470
6974000,0.0324,0.013523,0.002678,0.000431,0.000353
6975000,0.0324,0.013523,0.002678,0.000431,0.000235
6976000,0.0324,0.013523,0.002678,0.000431,0.000353
6977000,0.0324,0.013523,0.002678,0.000431,0.000470
6978000,0.0324,0.013523,0.002678,0.000431,0.000235
6979000,0.0324,0.013523,0.002678,0.000431,0.000235
6980000,0.0324,0.013523,0.002678,0.000431,0.000470
6981000,0.0324,0.013523,0.002678,0.000431,0.000353
6982000,0.0324,0.013523,0.002678,0.000431,0.000235
6983000,0.0324,0.013523,0.002678,0.000431,0.000353
6984000,0.0324,0.013523,0.002678,0.000431,0.000470
6985000,0.0324,0.013523,0.002678,0.000431,0.000235
6986000,0.0324,0.013523,0.002678,0.000431,0.000235
6987000,0.0324,0.013523,0.002678,0.000431,0.000470
6988000,0.0324,0.013523,0.002678,0.000431,0.000353
6989000,0.0324,0.013523,0.002678,0.000431,0.000235
6990000,0.0324,0.013523,0.002678,0.000431,0.000353
6991000,0.0324,0.013523,0.002678,0.000431,0.000470
6992000,0.0324,0.013523,0.002678,0.000431,0.000235
6993000,0.0324,0.013523,0.002678,0.000431,0.000235
6994000,0.0324,0.013523,0.002678,0.000431,0.000470
6995000,0.0324,0.013523,0.002678,0.000431,0.000353
6996000,0.0324,0.013523,0.002678,0.000431,0.000235
6997000,0.0324,0.013523,0.002678,0.000431,0.000353
6998000,0.0324,0.013523,0.002678,0.000431,0.000470
6999000,0.0324,0.013523,0.002678,0.000431,0.000118
