Cycle,Area(mm^2),PeakDynamic(W),SubthresholdLeakage(W),GateLeakage(W),RunTimeDynamic(W)
13000000,0.0324,0.013523,0.002678,0.000431,0.000353
13001000,0.0324,0.013523,0.002678,0.000431,0.000353
13002000,0.0324,0.013523,0.002678,0.000431,0.000235
13003000,0.0324,0.013523,0.002678,0.000431,0.000353
13004000,0.0324,0.013523,0.002678,0.000431,0.000470
13005000,0.0324,0.013523,0.002678,0.000431,0.000353
13006000,0.0324,0.013523,0.002678,0.000431,0.000235
13007000,0.0324,0.013523,0.002678,0.000431,0.000353
13008000,0.0324,0.013523,0.002678,0.000431,0.000353
13009000,0.0324,0.013523,0.002678,0.000431,0.000235
13010000,0.0324,0.013523,0.002678,0.000431,0.000353
13011000,0.0324,0.013523,0.002678,0.000431,0.000470
13012000,0.0324,0.013523,0.002678,0.000431,0.000353
13013000,0.0324,0.013523,0.002678,0.000431,0.000118
13014000,0.0324,0.013523,0.002678,0.000431,0.000470
13015000,0.0324,0.013523,0.002678,0.000431,0.000353
13016000,0.0324,0.013523,0.002678,0.000431,0.000235
13017000,0.0324,0.013523,0.002678,0.000431,0.000353
13018000,0.0324,0.013523,0.002678,0.000431,0.000470
13019000,0.0324,0.013523,0.002678,0.000431,0.000235
13020000,0.0324,0.013523,0.002678,0.000431,0.000235
13021000,0.0324,0.013523,0.002678,0.000431,0.000470
13022000,0.0324,0.013523,0.002678,0.000431,0.000353
13023000,0.0324,0.013523,0.002678,0.000431,0.000235
13024000,0.0324,0.013523,0.002678,0.000431,0.000353
13025000,0.0324,0.013523,0.002678,0.000431,0.000470
13026000,0.0324,0.013523,0.002678,0.000431,0.000235
13027000,0.0324,0.013523,0.002678,0.000431,0.000235
13028000,0.0324,0.013523,0.002678,0.000431,0.000470
13029000,0.0324,0.013523,0.002678,0.000431,0.000353
13030000,0.0324,0.013523,0.002678,0.000431,0.000235
13031000,0.0324,0.013523,0.002678,0.000431,0.000353
13032000,0.0324,0.013523,0.002678,0.000431,0.000470
13033000,0.0324,0.013523,0.002678,0.000431,0.000118
13034000,0.0324,0.013523,0.002678,0.000431,0.000353
13035000,0.0324,0.013523,0.002678,0.000431,0.000470
13036000,0.0324,0.013523,0.002678,0.000431,0.000353
13037000,0.0324,0.013523,0.002678,0.000431,0.000235
13038000,0.0324,0.013523,0.002678,0.000431,0.000353
13039000,0.0324,0.013523,0.002678,0.000431,0.000353
13040000,0.0324,0.013523,0.002678,0.000431,0.000235
13041000,0.0324,0.013523,0.002678,0.000431,0.000353
13042000,0.0324,0.013523,0.002678,0.000431,0.000470
13043000,0.0324,0.013523,0.002678,0.000431,0.000353
13044000,0.0324,0.013523,0.002678,0.000431,0.000235
13045000,0.0324,0.013523,0.002678,0.000431,0.000353
13046000,0.0324,0.013523,0.002678,0.000431,0.000353
13047000,0.0324,0.013523,0.002678,0.000431,0.000235
13048000,0.0324,0.013523,0.002678,0.000431,0.000353
13049000,0.0324,0.013523,0.002678,0.000431,0.000470
13050000,0.0324,0.013523,0.002678,0.000431,0.000353
13051000,0.0324,0.013523,0.002678,0.000431,0.000235
13052000,0.0324,0.013523,0.002678,0.000431,0.000353
13053000,0.0324,0.013523,0.002678,0.000431,0.000353
13054000,0.0324,0.013523,0.002678,0.000431,0.000235
13055000,0.0324,0.013523,0.002678,0.000431,0.000353
13056000,0.0324,0.013523,0.002678,0.000431,0.000470
13057000,0.0324,0.013523,0.002678,0.000431,0.000235
13058000,0.0324,0.013523,0.002678,0.000431,0.000235
13059000,0.0324,0.013523,0.002678,0.000431,0.000470
13060000,0.0324,0.013523,0.002678,0.000431,0.000353
13061000,0.0324,0.013523,0.002678,0.000431,0.000235
13062000,0.0324,0.013523,0.002678,0.000431,0.000353
13063000,0.0324,0.013523,0.002678,0.000431,0.000470
13064000,0.0324,0.013523,0.002678,0.000431,0.000235
13065000,0.0324,0.013523,0.002678,0.000431,0.000235
13066000,0.0324,0.013523,0.002678,0.000431,0.000470
13067000,0.0324,0.013523,0.002678,0.000431,0.000353
13068000,0.0324,0.013523,0.002678,0.000431,0.000235
13069000,0.0324,0.013523,0.002678,0.000431,0.000353
13070000,0.0324,0.013523,0.002678,0.000431,0.000470
13071000,0.0324,0.013523,0.002678,0.000431,0.000118
13072000,0.0324,0.013523,0.002678,0.000431,0.000353
13073000,0.0324,0.013523,0.002678,0.000431,0.000470
13074000,0.0324,0.013523,0.002678,0.000431,0.000353
13075000,0.0324,0.013523,0.002678,0.000431,0.000235
13076000,0.0324,0.013523,0.002678,0.000431,0.000353
13077000,0.0324,0.013523,0.002678,0.000431,0.000353
13078000,0.0324,0.013523,0.002678,0.000431,0.000235
13079000,0.0324,0.013523,0.002678,0.000431,0.000353
13080000,0.0324,0.013523,0.002678,0.000431,0.000470
13081000,0.0324,0.013523,0.002678,0.000431,0.000353
13082000,0.0324,0.013523,0.002678,0.000431,0.000235
13083000,0.0324,0.013523,0.002678,0.000431,0.000353
13084000,0.0324,0.013523,0.002678,0.000431,0.000353
13085000,0.0324,0.013523,0.002678,0.000431,0.000235
13086000,0.0324,0.013523,0.002678,0.000431,0.000353
13087000,0.0324,0.013523,0.002678,0.000431,0.000470
13088000,0.0324,0.013523,0.002678,0.000431,0.000353
13089000,0.0324,0.013523,0.002678,0.000431,0.000235
13090000,0.0324,0.013523,0.002678,0.000431,0.000353
13091000,0.0324,0.013523,0.002678,0.000431,0.000353
13092000,0.0324,0.013523,0.002678,0.000431,0.000235
13093000,0.0324,0.013523,0.002678,0.000431,0.000353
13094000,0.0324,0.013523,0.002678,0.000431,0.000470
13095000,0.0324,0.013523,0.002678,0.000431,0.000353
13096000,0.0324,0.013523,0.002678,0.000431,0.000118
13097000,0.0324,0.013523,0.002678,0.000431,0.000470
13098000,0.0324,0.013523,0.002678,0.000431,0.000353
13099000,0.0324,0.013523,0.002678,0.000431,0.000235
13100000,0.0324,0.013523,0.002678,0.000431,0.000353
13101000,0.0324,0.013523,0.002678,0.000431,0.000470
13102000,0.0324,0.013523,0.002678,0.000431,0.000235
13103000,0.0324,0.013523,0.002678,0.000431,0.000235
13104000,0.0324,0.013523,0.002678,0.000431,0.000470
13105000,0.0324,0.013523,0.002678,0.000431,0.000353
13106000,0.0324,0.013523,0.002678,0.000431,0.000235
13107000,0.0324,0.013523,0.002678,0.000431,0.000353
13108000,0.0324,0.013523,0.002678,0.000431,0.000470
13109000,0.0324,0.013523,0.002678,0.000431,0.000235
13110000,0.0324,0.013523,0.002678,0.000431,0.000235
13111000,0.0324,0.013523,0.002678,0.000431,0.000470
13112000,0.0324,0.013523,0.002678,0.000431,0.000353
13113000,0.0324,0.013523,0.002678,0.000431,0.000235
13114000,0.0324,0.013523,0.002678,0.000431,0.000353
13115000,0.0324,0.013523,0.002678,0.000431,0.000470
13116000,0.0324,0.013523,0.002678,0.000431,0.000118
13117000,0.0324,0.013523,0.002678,0.000431,0.000353
13118000,0.0324,0.013523,0.002678,0.000431,0.000470
13119000,0.0324,0.013523,0.002678,0.000431,0.000353
13120000,0.0324,0.013523,0.002678,0.000431,0.000235
13121000,0.0324,0.013523,0.002678,0.000431,0.000353
13122000,0.0324,0.013523,0.002678,0.000431,0.000353
13123000,0.0324,0.013523,0.002678,0.000431,0.000235
13124000,0.0324,0.013523,0.002678,0.000431,0.000353
13125000,0.0324,0.013523,0.002678,0.000431,0.000470
13126000,0.0324,0.013523,0.002678,0.000431,0.000353
13127000,0.0324,0.013523,0.002678,0.000431,0.000235
13128000,0.0324,0.013523,0.002678,0.000431,0.000353
13129000,0.0324,0.013523,0.002678,0.000431,0.000353
13130000,0.0324,0.013523,0.002678,0.000431,0.000235
13131000,0.0324,0.013523,0.002678,0.000431,0.000353
13132000,0.0324,0.013523,0.002678,0.000431,0.000470
13133000,0.0324,0.013523,0.002678,0.000431,0.000353
13134000,0.0324,0.013523,0.002678,0.000431,0.000235
13135000,0.0324,0.013523,0.002678,0.000431,0.000353
13136000,0.0324,0.013523,0.002678,0.000431,0.000353
13137000,0.0324,0.013523,0.002678,0.000431,0.000235
13138000,0.0324,0.013523,0.002678,0.000431,0.000353
13139000,0.0324,0.013523,0.002678,0.000431,0.000470
13140000,0.0324,0.013523,0.002678,0.000431,0.000353
13141000,0.0324,0.013523,0.002678,0.000431,0.000235
13142000,0.0324,0.013523,0.002678,0.000431,0.000353
13143000,0.0324,0.013523,0.002678,0.000431,0.000353
13144000,0.0324,0.013523,0.002678,0.000431,0.000235
13145000,0.0324,0.013523,0.002678,0.000431,0.000353
13146000,0.0324,0.013523,0.002678,0.000431,0.000470
13147000,0.0324,0.013523,0.002678,0.000431,0.000353
13148000,0.0324,0.013523,0.002678,0.000431,0.000235
13149000,0.0324,0.013523,0.002678,0.000431,0.000353
13150000,0.0324,0.013523,0.002678,0.000431,0.000353
13151000,0.0324,0.013523,0.002678,0.000431,0.000235
13152000,0.0324,0.013523,0.002678,0.000431,0.000353
13153000,0.0324,0.013523,0.002678,0.000431,0.000470
13154000,0.0324,0.013523,0.002678,0.000431,0.000353
13155000,0.0324,0.013523,0.002678,0.000431,0.000235
13156000,0.0324,0.013523,0.002678,0.000431,0.000353
13157000,0.0324,0.013523,0.002678,0.000431,0.000353
13158000,0.0324,0.013523,0.002678,0.000431,0.000235
13159000,0.0324,0.013523,0.002678,0.000431,0.000353
13160000,0.0324,0.013523,0.002678,0.000431,0.000470
13161000,0.0324,0.013523,0.002678,0.000431,0.000353
13162000,0.0324,0.013523,0.002678,0.000431,0.000235
13163000,0.0324,0.013523,0.002678,0.000431,0.000353
13164000,0.0324,0.013523,0.002678,0.000431,0.000353
13165000,0.0324,0.013523,0.002678,0.000431,0.000235
13166000,0.0324,0.013523,0.002678,0.000431,0.000353
13167000,0.0324,0.013523,0.002678,0.000431,0.000470
13168000,0.0324,0.013523,0.002678,0.000431,0.000353
13169000,0.0324,0.013523,0.002678,0.000431,0.000118
13170000,0.0324,0.013523,0.002678,0.000431,0.000470
13171000,0.0324,0.013523,0.002678,0.000431,0.000353
13172000,0.0324,0.013523,0.002678,0.000431,0.000235
13173000,0.0324,0.013523,0.002678,0.000431,0.000353
13174000,0.0324,0.013523,0.002678,0.000431,0.000470
13175000,0.0324,0.013523,0.002678,0.000431,0.000353
13176000,0.0324,0.013523,0.002678,0.000431,0.000118
13177000,0.0324,0.013523,0.002678,0.000431,0.000470
13178000,0.0324,0.013523,0.002678,0.000431,0.000353
13179000,0.0324,0.013523,0.002678,0.000431,0.000235
13180000,0.0324,0.013523,0.002678,0.000431,0.000353
13181000,0.0324,0.013523,0.002678,0.000431,0.000470
13182000,0.0324,0.013523,0.002678,0.000431,0.000353
13183000,0.0324,0.013523,0.002678,0.000431,0.000118
13184000,0.0324,0.013523,0.002678,0.000431,0.000470
13185000,0.0324,0.013523,0.002678,0.000431,0.000353
13186000,0.0324,0.013523,0.002678,0.000431,0.000235
13187000,0.0324,0.013523,0.002678,0.000431,0.000353
13188000,0.0324,0.013523,0.002678,0.000431,0.000470
13189000,0.0324,0.013523,0.002678,0.000431,0.000235
13190000,0.0324,0.013523,0.002678,0.000431,0.000235
13191000,0.0324,0.013523,0.002678,0.000431,0.000470
13192000,0.0324,0.013523,0.002678,0.000431,0.000353
13193000,0.0324,0.013523,0.002678,0.000431,0.000235
13194000,0.0324,0.013523,0.002678,0.000431,0.000353
13195000,0.0324,0.013523,0.002678,0.000431,0.000470
13196000,0.0324,0.013523,0.002678,0.000431,0.000235
13197000,0.0324,0.013523,0.002678,0.000431,0.000235
13198000,0.0324,0.013523,0.002678,0.000431,0.000470
13199000,0.0324,0.013523,0.002678,0.000431,0.000353
13200000,0.0324,0.013523,0.002678,0.000431,0.000235
13201000,0.0324,0.013523,0.002678,0.000431,0.000353
13202000,0.0324,0.013523,0.002678,0.000431,0.000470
13203000,0.0324,0.013523,0.002678,0.000431,0.000235
13204000,0.0324,0.013523,0.002678,0.000431,0.000235
13205000,0.0324,0.013523,0.002678,0.000431,0.000470
13206000,0.0324,0.013523,0.002678,0.000431,0.000353
13207000,0.0324,0.013523,0.002678,0.000431,0.000235
13208000,0.0324,0.013523,0.002678,0.000431,0.000353
13209000,0.0324,0.013523,0.002678,0.000431,0.000470
13210000,0.0324,0.013523,0.002678,0.000431,0.000235
13211000,0.0324,0.013523,0.002678,0.000431,0.000235
13212000,0.0324,0.013523,0.002678,0.000431,0.000470
13213000,0.0324,0.013523,0.002678,0.000431,0.000353
13214000,0.0324,0.013523,0.002678,0.000431,0.000235
13215000,0.0324,0.013523,0.002678,0.000431,0.000353
13216000,0.0324,0.013523,0.002678,0.000431,0.000470
13217000,0.0324,0.013523,0.002678,0.000431,0.000235
13218000,0.0324,0.013523,0.002678,0.000431,0.000235
13219000,0.0324,0.013523,0.002678,0.000431,0.000470
13220000,0.0324,0.013523,0.002678,0.000431,0.000353
13221000,0.0324,0.013523,0.002678,0.000431,0.000235
13222000,0.0324,0.013523,0.002678,0.000431,0.000353
13223000,0.0324,0.013523,0.002678,0.000431,0.000470
13224000,0.0324,0.013523,0.002678,0.000431,0.000235
13225000,0.0324,0.013523,0.002678,0.000431,0.000235
13226000,0.0324,0.013523,0.002678,0.000431,0.000470
13227000,0.0324,0.013523,0.002678,0.000431,0.000353
13228000,0.0324,0.013523,0.002678,0.000431,0.000235
13229000,0.0324,0.013523,0.002678,0.000431,0.000353
13230000,0.0324,0.013523,0.002678,0.000431,0.000470
13231000,0.0324,0.013523,0.002678,0.000431,0.000118
13232000,0.0324,0.013523,0.002678,0.000431,0.000353
13233000,0.0324,0.013523,0.002678,0.000431,0.000470
13234000,0.0324,0.013523,0.002678,0.000431,0.000353
13235000,0.0324,0.013523,0.002678,0.000431,0.000235
13236000,0.0324,0.013523,0.002678,0.000431,0.000353
13237000,0.0324,0.013523,0.002678,0.000431,0.000470
13238000,0.0324,0.013523,0.002678,0.000431,0.000118
13239000,0.0324,0.013523,0.002678,0.000431,0.000353
13240000,0.0324,0.013523,0.002678,0.000431,0.000470
13241000,0.0324,0.013523,0.002678,0.000431,0.000353
13242000,0.0324,0.013523,0.002678,0.000431,0.000235
13243000,0.0324,0.013523,0.002678,0.000431,0.000353
13244000,0.0324,0.013523,0.002678,0.000431,0.000470
13245000,0.0324,0.013523,0.002678,0.000431,0.000118
13246000,0.0324,0.013523,0.002678,0.000431,0.000353
13247000,0.0324,0.013523,0.002678,0.000431,0.000470
13248000,0.0324,0.013523,0.002678,0.000431,0.000353
13249000,0.0324,0.013523,0.002678,0.000431,0.000235
13250000,0.0324,0.013523,0.002678,0.000431,0.000353
13251000,0.0324,0.013523,0.002678,0.000431,0.000470
13252000,0.0324,0.013523,0.002678,0.000431,0.000118
13253000,0.0324,0.013523,0.002678,0.000431,0.000353
13254000,0.0324,0.013523,0.002678,0.000431,0.000470
13255000,0.0324,0.013523,0.002678,0.000431,0.000353
13256000,0.0324,0.013523,0.002678,0.000431,0.000235
13257000,0.0324,0.013523,0.002678,0.000431,0.000353
13258000,0.0324,0.013523,0.002678,0.000431,0.000353
13259000,0.0324,0.013523,0.002678,0.000431,0.000235
13260000,0.0324,0.013523,0.002678,0.000431,0.000353
13261000,0.0324,0.013523,0.002678,0.000431,0.000470
13262000,0.0324,0.013523,0.002678,0.000431,0.000353
13263000,0.0324,0.013523,0.002678,0.000431,0.000235
13264000,0.0324,0.013523,0.002678,0.000431,0.000353
13265000,0.0324,0.013523,0.002678,0.000431,0.000353
13266000,0.0324,0.013523,0.002678,0.000431,0.000235
13267000,0.0324,0.013523,0.002678,0.000431,0.000353
13268000,0.0324,0.013523,0.002678,0.000431,0.000470
13269000,0.0324,0.013523,0.002678,0.000431,0.000353
13270000,0.0324,0.013523,0.002678,0.000431,0.000235
13271000,0.0324,0.013523,0.002678,0.000431,0.000353
13272000,0.0324,0.013523,0.002678,0.000431,0.000353
13273000,0.0324,0.013523,0.002678,0.000431,0.000235
13274000,0.0324,0.013523,0.002678,0.000431,0.000353
13275000,0.0324,0.013523,0.002678,0.000431,0.000470
13276000,0.0324,0.013523,0.002678,0.000431,0.000353
13277000,0.0324,0.013523,0.002678,0.000431,0.000235
13278000,0.0324,0.013523,0.002678,0.000431,0.000353
13279000,0.0324,0.013523,0.002678,0.000431,0.000353
13280000,0.0324,0.013523,0.002678,0.000431,0.000235
13281000,0.0324,0.013523,0.002678,0.000431,0.000353
13282000,0.0324,0.013523,0.002678,0.000431,0.000470
13283000,0.0324,0.013523,0.002678,0.000431,0.000353
13284000,0.0324,0.013523,0.002678,0.000431,0.000235
13285000,0.0324,0.013523,0.002678,0.000431,0.000353
13286000,0.0324,0.013523,0.002678,0.000431,0.000353
13287000,0.0324,0.013523,0.002678,0.000431,0.000235
13288000,0.0324,0.013523,0.002678,0.000431,0.000353
13289000,0.0324,0.013523,0.002678,0.000431,0.000470
13290000,0.0324,0.013523,0.002678,0.000431,0.000353
13291000,0.0324,0.013523,0.002678,0.000431,0.000235
13292000,0.0324,0.013523,0.002678,0.000431,0.000353
13293000,0.0324,0.013523,0.002678,0.000431,0.000353
13294000,0.0324,0.013523,0.002678,0.000431,0.000235
13295000,0.0324,0.013523,0.002678,0.000431,0.000353
13296000,0.0324,0.013523,0.002678,0.000431,0.000470
13297000,0.0324,0.013523,0.002678,0.000431,0.000353
13298000,0.0324,0.013523,0.002678,0.000431,0.000235
13299000,0.0324,0.013523,0.002678,0.000431,0.000353
13300000,0.0324,0.013523,0.002678,0.000431,0.000353
13301000,0.0324,0.013523,0.002678,0.000431,0.000235
13302000,0.0324,0.013523,0.002678,0.000431,0.000353
13303000,0.0324,0.013523,0.002678,0.000431,0.000470
13304000,0.0324,0.013523,0.002678,0.000431,0.000353
13305000,0.0324,0.013523,0.002678,0.000431,0.000118
13306000,0.0324,0.013523,0.002678,0.000431,0.000470
13307000,0.0324,0.013523,0.002678,0.000431,0.000353
13308000,0.0324,0.013523,0.002678,0.000431,0.000235
13309000,0.0324,0.013523,0.002678,0.000431,0.000353
13310000,0.0324,0.013523,0.002678,0.000431,0.000470
13311000,0.0324,0.013523,0.002678,0.000431,0.000353
13312000,0.0324,0.013523,0.002678,0.000431,0.000118
13313000,0.0324,0.013523,0.002678,0.000431,0.000470
13314000,0.0324,0.013523,0.002678,0.000431,0.000353
13315000,0.0324,0.013523,0.002678,0.000431,0.000235
13316000,0.0324,0.013523,0.002678,0.000431,0.000353
13317000,0.0324,0.013523,0.002678,0.000431,0.000470
13318000,0.0324,0.013523,0.002678,0.000431,0.000353
13319000,0.0324,0.013523,0.002678,0.000431,0.000118
13320000,0.0324,0.013523,0.002678,0.000431,0.000470
13321000,0.0324,0.013523,0.002678,0.000431,0.000353
13322000,0.0324,0.013523,0.002678,0.000431,0.000235
13323000,0.0324,0.013523,0.002678,0.000431,0.000353
13324000,0.0324,0.013523,0.002678,0.000431,0.000470
13325000,0.0324,0.013523,0.002678,0.000431,0.000353
13326000,0.0324,0.013523,0.002678,0.000431,0.000118
13327000,0.0324,0.013523,0.002678,0.000431,0.000470
13328000,0.0324,0.013523,0.002678,0.000431,0.000353
13329000,0.0324,0.013523,0.002678,0.000431,0.000235
13330000,0.0324,0.013523,0.002678,0.000431,0.000353
13331000,0.0324,0.013523,0.002678,0.000431,0.000470
13332000,0.0324,0.013523,0.002678,0.000431,0.000235
13333000,0.0324,0.013523,0.002678,0.000431,0.000235
13334000,0.0324,0.013523,0.002678,0.000431,0.000470
13335000,0.0324,0.013523,0.002678,0.000431,0.000353
13336000,0.0324,0.013523,0.002678,0.000431,0.000235
13337000,0.0324,0.013523,0.002678,0.000431,0.000353
13338000,0.0324,0.013523,0.002678,0.000431,0.000470
13339000,0.0324,0.013523,0.002678,0.000431,0.000235
13340000,0.0324,0.013523,0.002678,0.000431,0.000235
13341000,0.0324,0.013523,0.002678,0.000431,0.000470
13342000,0.0324,0.013523,0.002678,0.000431,0.000353
13343000,0.0324,0.013523,0.002678,0.000431,0.000235
13344000,0.0324,0.013523,0.002678,0.000431,0.000353
13345000,0.0324,0.013523,0.002678,0.000431,0.000470
13346000,0.0324,0.013523,0.002678,0.000431,0.000235
13347000,0.0324,0.013523,0.002678,0.000431,0.000235
13348000,0.0324,0.013523,0.002678,0.000431,0.000470
13349000,0.0324,0.013523,0.002678,0.000431,0.000353
13350000,0.0324,0.013523,0.002678,0.000431,0.000235
13351000,0.0324,0.013523,0.002678,0.000431,0.000353
13352000,0.0324,0.013523,0.002678,0.000431,0.000470
13353000,0.0324,0.013523,0.002678,0.000431,0.000235
13354000,0.0324,0.013523,0.002678,0.000431,0.000235
13355000,0.0324,0.013523,0.002678,0.000431,0.000470
13356000,0.0324,0.013523,0.002678,0.000431,0.000353
13357000,0.0324,0.013523,0.002678,0.000431,0.000235
13358000,0.0324,0.013523,0.002678,0.000431,0.000353
13359000,0.0324,0.013523,0.002678,0.000431,0.000470
13360000,0.0324,0.013523,0.002678,0.000431,0.000235
13361000,0.0324,0.013523,0.002678,0.000431,0.000235
13362000,0.0324,0.013523,0.002678,0.000431,0.000470
13363000,0.0324,0.013523,0.002678,0.000431,0.000353
13364000,0.0324,0.013523,0.002678,0.000431,0.000235
13365000,0.0324,0.013523,0.002678,0.000431,0.000353
13366000,0.0324,0.013523,0.002678,0.000431,0.000470
13367000,0.0324,0.013523,0.002678,0.000431,0.000235
13368000,0.0324,0.013523,0.002678,0.000431,0.000235
13369000,0.0324,0.013523,0.002678,0.000431,0.000470
13370000,0.0324,0.013523,0.002678,0.000431,0.000353
13371000,0.0324,0.013523,0.002678,0.000431,0.000235
13372000,0.0324,0.013523,0.002678,0.000431,0.000353
13373000,0.0324,0.013523,0.002678,0.000431,0.000470
13374000,0.0324,0.013523,0.002678,0.000431,0.000118
13375000,0.0324,0.013523,0.002678,0.000431,0.000353
13376000,0.0324,0.013523,0.002678,0.000431,0.000470
13377000,0.0324,0.013523,0.002678,0.000431,0.000353
13378000,0.0324,0.013523,0.002678,0.000431,0.000235
13379000,0.0324,0.013523,0.002678,0.000431,0.000353
13380000,0.0324,0.013523,0.002678,0.000431,0.000470
13381000,0.0324,0.013523,0.002678,0.000431,0.000118
13382000,0.0324,0.013523,0.002678,0.000431,0.000353
13383000,0.0324,0.013523,0.002678,0.000431,0.000470
13384000,0.0324,0.013523,0.002678,0.000431,0.000353
13385000,0.0324,0.013523,0.002678,0.000431,0.000235
13386000,0.0324,0.013523,0.002678,0.000431,0.000353
13387000,0.0324,0.013523,0.002678,0.000431,0.000470
13388000,0.0324,0.013523,0.002678,0.000431,0.000118
13389000,0.0324,0.013523,0.002678,0.000431,0.000353
13390000,0.0324,0.013523,0.002678,0.000431,0.000470
13391000,0.0324,0.013523,0.002678,0.000431,0.000353
13392000,0.0324,0.013523,0.002678,0.000431,0.000235
13393000,0.0324,0.013523,0.002678,0.000431,0.000353
13394000,0.0324,0.013523,0.002678,0.000431,0.000353
13395000,0.0324,0.013523,0.002678,0.000431,0.000235
13396000,0.0324,0.013523,0.002678,0.000431,0.000353
13397000,0.0324,0.013523,0.002678,0.000431,0.000470
13398000,0.0324,0.013523,0.002678,0.000431,0.000353
13399000,0.0324,0.013523,0.002678,0.000431,0.000235
13400000,0.0324,0.013523,0.002678,0.000431,0.000353
13401000,0.0324,0.013523,0.002678,0.000431,0.000353
13402000,0.0324,0.013523,0.002678,0.000431,0.000235
13403000,0.0324,0.013523,0.002678,0.000431,0.000353
13404000,0.0324,0.013523,0.002678,0.000431,0.000470
13405000,0.0324,0.013523,0.002678,0.000431,0.000353
13406000,0.0324,0.013523,0.002678,0.000431,0.000235
13407000,0.0324,0.013523,0.002678,0.000431,0.000353
13408000,0.0324,0.013523,0.002678,0.000431,0.000353
13409000,0.0324,0.013523,0.002678,0.000431,0.000235
13410000,0.0324,0.013523,0.002678,0.000431,0.000353
13411000,0.0324,0.013523,0.002678,0.000431,0.000470
13412000,0.0324,0.013523,0.002678,0.000431,0.000353
13413000,0.0324,0.013523,0.002678,0.000431,0.000235
13414000,0.0324,0.013523,0.002678,0.000431,0.000353
13415000,0.0324,0.013523,0.002678,0.000431,0.000353
13416000,0.0324,0.013523,0.002678,0.000431,0.000235
13417000,0.0324,0.013523,0.002678,0.000431,0.000353
13418000,0.0324,0.013523,0.002678,0.000431,0.000470
13419000,0.0324,0.013523,0.002678,0.000431,0.000353
13420000,0.0324,0.013523,0.002678,0.000431,0.000235
13421000,0.0324,0.013523,0.002678,0.000431,0.000353
13422000,0.0324,0.013523,0.002678,0.000431,0.000353
13423000,0.0324,0.013523,0.002678,0.000431,0.000235
13424000,0.0324,0.013523,0.002678,0.000431,0.000353
13425000,0.0324,0.013523,0.002678,0.000431,0.000470
13426000,0.0324,0.013523,0.002678,0.000431,0.000353
13427000,0.0324,0.013523,0.002678,0.000431,0.000235
13428000,0.0324,0.013523,0.002678,0.000431,0.000353
13429000,0.0324,0.013523,0.002678,0.000431,0.000353
13430000,0.0324,0.013523,0.002678,0.000431,0.000235
13431000,0.0324,0.013523,0.002678,0.000431,0.000353
13432000,0.0324,0.013523,0.002678,0.000431,0.000470
13433000,0.0324,0.013523,0.002678,0.000431,0.000353
13434000,0.0324,0.013523,0.002678,0.000431,0.000235
13435000,0.0324,0.013523,0.002678,0.000431,0.000353
13436000,0.0324,0.013523,0.002678,0.000431,0.000353
13437000,0.0324,0.013523,0.002678,0.000431,0.000235
13438000,0.0324,0.013523,0.002678,0.000431,0.000353
13439000,0.0324,0.013523,0.002678,0.000431,0.000470
13440000,0.0324,0.013523,0.002678,0.000431,0.000353
13441000,0.0324,0.013523,0.002678,0.000431,0.000235
13442000,0.0324,0.013523,0.002678,0.000431,0.000353
13443000,0.0324,0.013523,0.002678,0.000431,0.000353
13444000,0.0324,0.013523,0.002678,0.000431,0.000235
13445000,0.0324,0.013523,0.002678,0.000431,0.000353
13446000,0.0324,0.013523,0.002678,0.000431,0.000470
13447000,0.0324,0.013523,0.002678,0.000431,0.000353
13448000,0.0324,0.013523,0.002678,0.000431,0.000118
13449000,0.0324,0.013523,0.002678,0.000431,0.000470
13450000,0.0324,0.013523,0.002678,0.000431,0.000353
13451000,0.0324,0.013523,0.002678,0.000431,0.000235
13452000,0.0324,0.013523,0.002678,0.000431,0.000353
13453000,0.0324,0.013523,0.002678,0.000431,0.000470
13454000,0.0324,0.013523,0.002678,0.000431,0.000353
13455000,0.0324,0.013523,0.002678,0.000431,0.000118
13456000,0.0324,0.013523,0.002678,0.000431,0.000470
13457000,0.0324,0.013523,0.002678,0.000431,0.000353
13458000,0.0324,0.013523,0.002678,0.000431,0.000235
13459000,0.0324,0.013523,0.002678,0.000431,0.000353
13460000,0.0324,0.013523,0.002678,0.000431,0.000470
13461000,0.0324,0.013523,0.002678,0.000431,0.000353
13462000,0.0324,0.013523,0.002678,0.000431,0.000118
13463000,0.0324,0.013523,0.002678,0.000431,0.000470
13464000,0.0324,0.013523,0.002678,0.000431,0.000353
13465000,0.0324,0.013523,0.002678,0.000431,0.000235
13466000,0.0324,0.013523,0.002678,0.000431,0.000353
13467000,0.0324,0.013523,0.002678,0.000431,0.000470
13468000,0.0324,0.013523,0.002678,0.000431,0.000353
13469000,0.0324,0.013523,0.002678,0.000431,0.000118
13470000,0.0324,0.013523,0.002678,0.000431,0.000470
13471000,0.0324,0.013523,0.002678,0.000431,0.000353
13472000,0.0324,0.013523,0.002678,0.000431,0.000235
13473000,0.0324,0.013523,0.002678,0.000431,0.000353
13474000,0.0324,0.013523,0.002678,0.000431,0.000470
13475000,0.0324,0.013523,0.002678,0.000431,0.000235
13476000,0.0324,0.013523,0.002678,0.000431,0.000235
13477000,0.0324,0.013523,0.002678,0.000431,0.000470
13478000,0.0324,0.013523,0.002678,0.000431,0.000353
13479000,0.0324,0.013523,0.002678,0.000431,0.000235
13480000,0.0324,0.013523,0.002678,0.000431,0.000353
13481000,0.0324,0.013523,0.002678,0.000431,0.000470
13482000,0.0324,0.013523,0.002678,0.000431,0.000235
13483000,0.0324,0.013523,0.002678,0.000431,0.000235
13484000,0.0324,0.013523,0.002678,0.000431,0.000470
13485000,0.0324,0.013523,0.002678,0.000431,0.000353
13486000,0.0324,0.013523,0.002678,0.000431,0.000235
13487000,0.0324,0.013523,0.002678,0.000431,0.000353
13488000,0.0324,0.013523,0.002678,0.000431,0.000470
13489000,0.0324,0.013523,0.002678,0.000431,0.000235
13490000,0.0324,0.013523,0.002678,0.000431,0.000235
13491000,0.0324,0.013523,0.002678,0.000431,0.000470
13492000,0.0324,0.013523,0.002678,0.000431,0.000353
13493000,0.0324,0.013523,0.002678,0.000431,0.000235
13494000,0.0324,0.013523,0.002678,0.000431,0.000353
13495000,0.0324,0.013523,0.002678,0.000431,0.000470
13496000,0.0324,0.013523,0.002678,0.000431,0.000235
13497000,0.0324,0.013523,0.002678,0.000431,0.000235
13498000,0.0324,0.013523,0.002678,0.000431,0.000470
13499000,0.0324,0.013523,0.002678,0.000431,0.000353
13500000,0.0324,0.013523,0.002678,0.000431,0.000235
13501000,0.0324,0.013523,0.002678,0.000431,0.000353
13502000,0.0324,0.013523,0.002678,0.000431,0.000470
13503000,0.0324,0.013523,0.002678,0.000431,0.000235
13504000,0.0324,0.013523,0.002678,0.000431,0.000235
13505000,0.0324,0.013523,0.002678,0.000431,0.000470
13506000,0.0324,0.013523,0.002678,0.000431,0.000353
13507000,0.0324,0.013523,0.002678,0.000431,0.000235
13508000,0.0324,0.013523,0.002678,0.000431,0.000353
13509000,0.0324,0.013523,0.002678,0.000431,0.000470
13510000,0.0324,0.013523,0.002678,0.000431,0.000118
13511000,0.0324,0.013523,0.002678,0.000431,0.000353
13512000,0.0324,0.013523,0.002678,0.000431,0.000470
13513000,0.0324,0.013523,0.002678,0.000431,0.000353
13514000,0.0324,0.013523,0.002678,0.000431,0.000235
13515000,0.0324,0.013523,0.002678,0.000431,0.000353
13516000,0.0324,0.013523,0.002678,0.000431,0.000470
13517000,0.0324,0.013523,0.002678,0.000431,0.000118
13518000,0.0324,0.013523,0.002678,0.000431,0.000353
13519000,0.0324,0.013523,0.002678,0.000431,0.000470
13520000,0.0324,0.013523,0.002678,0.000431,0.000353
13521000,0.0324,0.013523,0.002678,0.000431,0.000235
13522000,0.0324,0.013523,0.002678,0.000431,0.000353
13523000,0.0324,0.013523,0.002678,0.000431,0.000470
13524000,0.0324,0.013523,0.002678,0.000431,0.000118
13525000,0.0324,0.013523,0.002678,0.000431,0.000353
13526000,0.0324,0.013523,0.002678,0.000431,0.000470
13527000,0.0324,0.013523,0.002678,0.000431,0.000353
13528000,0.0324,0.013523,0.002678,0.000431,0.000235
13529000,0.0324,0.013523,0.002678,0.000431,0.000353
13530000,0.0324,0.013523,0.002678,0.000431,0.000470
13531000,0.0324,0.013523,0.002678,0.000431,0.000118
13532000,0.0324,0.013523,0.002678,0.000431,0.000353
13533000,0.0324,0.013523,0.002678,0.000431,0.000470
13534000,0.0324,0.013523,0.002678,0.000431,0.000353
13535000,0.0324,0.013523,0.002678,0.000431,0.000235
13536000,0.0324,0.013523,0.002678,0.000431,0.000353
13537000,0.0324,0.013523,0.002678,0.000431,0.000353
13538000,0.0324,0.013523,0.002678,0.000431,0.000235
13539000,0.0324,0.013523,0.002678,0.000431,0.000353
13540000,0.0324,0.013523,0.002678,0.000431,0.000470
13541000,0.0324,0.013523,0.002678,0.000431,0.000353
13542000,0.0324,0.013523,0.002678,0.000431,0.000235
13543000,0.0324,0.013523,0.002678,0.000431,0.000353
13544000,0.0324,0.013523,0.002678,0.000431,0.000353
13545000,0.0324,0.013523,0.002678,0.000431,0.000235
13546000,0.0324,0.013523,0.002678,0.000431,0.000353
13547000,0.0324,0.013523,0.002678,0.000431,0.000470
13548000,0.0324,0.013523,0.002678,0.000431,0.000353
13549000,0.0324,0.013523,0.002678,0.000431,0.000235
13550000,0.0324,0.013523,0.002678,0.000431,0.000353
13551000,0.0324,0.013523,0.002678,0.000431,0.000353
13552000,0.0324,0.013523,0.002678,0.000431,0.000235
13553000,0.0324,0.013523,0.002678,0.000431,0.000353
13554000,0.0324,0.013523,0.002678,0.000431,0.000470
13555000,0.0324,0.013523,0.002678,0.000431,0.000353
13556000,0.0324,0.013523,0.002678,0.000431,0.000235
13557000,0.0324,0.013523,0.002678,0.000431,0.000353
13558000,0.0324,0.013523,0.002678,0.000431,0.000353
13559000,0.0324,0.013523,0.002678,0.000431,0.000235
13560000,0.0324,0.013523,0.002678,0.000431,0.000353
13561000,0.0324,0.013523,0.002678,0.000431,0.000470
13562000,0.0324,0.013523,0.002678,0.000431,0.000353
13563000,0.0324,0.013523,0.002678,0.000431,0.000235
13564000,0.0324,0.013523,0.002678,0.000431,0.000353
13565000,0.0324,0.013523,0.002678,0.000431,0.000353
13566000,0.0324,0.013523,0.002678,0.000431,0.000235
13567000,0.0324,0.013523,0.002678,0.000431,0.000353
13568000,0.0324,0.013523,0.002678,0.000431,0.000470
13569000,0.0324,0.013523,0.002678,0.000431,0.000353
13570000,0.0324,0.013523,0.002678,0.000431,0.000235
13571000,0.0324,0.013523,0.002678,0.000431,0.000353
13572000,0.0324,0.013523,0.002678,0.000431,0.000353
13573000,0.0324,0.013523,0.002678,0.000431,0.000235
13574000,0.0324,0.013523,0.002678,0.000431,0.000353
13575000,0.0324,0.013523,0.002678,0.000431,0.000470
13576000,0.0324,0.013523,0.002678,0.000431,0.000353
13577000,0.0324,0.013523,0.002678,0.000431,0.000235
13578000,0.0324,0.013523,0.002678,0.000431,0.000353
13579000,0.0324,0.013523,0.002678,0.000431,0.000353
13580000,0.0324,0.013523,0.002678,0.000431,0.000235
13581000,0.0324,0.013523,0.002678,0.000431,0.000353
13582000,0.0324,0.013523,0.002678,0.000431,0.000470
13583000,0.0324,0.013523,0.002678,0.000431,0.000353
13584000,0.0324,0.013523,0.002678,0.000431,0.000235
13585000,0.0324,0.013523,0.002678,0.000431,0.000353
13586000,0.0324,0.013523,0.002678,0.000431,0.000353
13587000,0.0324,0.013523,0.002678,0.000431,0.000235
13588000,0.0324,0.013523,0.002678,0.000431,0.000353
13589000,0.0324,0.013523,0.002678,0.000431,0.000470
13590000,0.0324,0.013523,0.002678,0.000431,0.000353
13591000,0.0324,0.013523,0.002678,0.000431,0.000118
13592000,0.0324,0.013523,0.002678,0.000431,0.000470
13593000,0.0324,0.013523,0.002678,0.000431,0.000353
13594000,0.0324,0.013523,0.002678,0.000431,0.000235
13595000,0.0324,0.013523,0.002678,0.000431,0.000353
13596000,0.0324,0.013523,0.002678,0.000431,0.000470
13597000,0.0324,0.013523,0.002678,0.000431,0.000353
13598000,0.0324,0.013523,0.002678,0.000431,0.000118
13599000,0.0324,0.013523,0.002678,0.000431,0.000470
13600000,0.0324,0.013523,0.002678,0.000431,0.000353
13601000,0.0324,0.013523,0.002678,0.000431,0.000235
13602000,0.0324,0.013523,0.002678,0.000431,0.000353
13603000,0.0324,0.013523,0.002678,0.000431,0.000470
13604000,0.0324,0.013523,0.002678,0.000431,0.000353
13605000,0.0324,0.013523,0.002678,0.000431,0.000118
13606000,0.0324,0.013523,0.002678,0.000431,0.000470
13607000,0.0324,0.013523,0.002678,0.000431,0.000353
13608000,0.0324,0.013523,0.002678,0.000431,0.000235
13609000,0.0324,0.013523,0.002678,0.000431,0.000353
13610000,0.0324,0.013523,0.002678,0.000431,0.000470
13611000,0.0324,0.013523,0.002678,0.000431,0.000235
13612000,0.0324,0.013523,0.002678,0.000431,0.000235
13613000,0.0324,0.013523,0.002678,0.000431,0.000470
13614000,0.0324,0.013523,0.002678,0.000431,0.000353
13615000,0.0324,0.013523,0.002678,0.000431,0.000235
13616000,0.0324,0.013523,0.002678,0.000431,0.000353
13617000,0.0324,0.013523,0.002678,0.000431,0.000470
13618000,0.0324,0.013523,0.002678,0.000431,0.000235
13619000,0.0324,0.013523,0.002678,0.000431,0.000235
13620000,0.0324,0.013523,0.002678,0.000431,0.000470
13621000,0.0324,0.013523,0.002678,0.000431,0.000353
13622000,0.0324,0.013523,0.002678,0.000431,0.000235
13623000,0.0324,0.013523,0.002678,0.000431,0.000353
13624000,0.0324,0.013523,0.002678,0.000431,0.000470
13625000,0.0324,0.013523,0.002678,0.000431,0.000235
13626000,0.0324,0.013523,0.002678,0.000431,0.000235
13627000,0.0324,0.013523,0.002678,0.000431,0.000470
13628000,0.0324,0.013523,0.002678,0.000431,0.000353
13629000,0.0324,0.013523,0.002678,0.000431,0.000235
13630000,0.0324,0.013523,0.002678,0.000431,0.000353
13631000,0.0324,0.013523,0.002678,0.000431,0.000470
13632000,0.0324,0.013523,0.002678,0.000431,0.000235
13633000,0.0324,0.013523,0.002678,0.000431,0.000235
13634000,0.0324,0.013523,0.002678,0.000431,0.000470
13635000,0.0324,0.013523,0.002678,0.000431,0.000353
13636000,0.0324,0.013523,0.002678,0.000431,0.000235
13637000,0.0324,0.013523,0.002678,0.000431,0.000353
13638000,0.0324,0.013523,0.002678,0.000431,0.000470
13639000,0.0324,0.013523,0.002678,0.000431,0.000235
13640000,0.0324,0.013523,0.002678,0.000431,0.000235
13641000,0.0324,0.013523,0.002678,0.000431,0.000470
13642000,0.0324,0.013523,0.002678,0.000431,0.000353
13643000,0.0324,0.013523,0.002678,0.000431,0.000235
13644000,0.0324,0.013523,0.002678,0.000431,0.000353
13645000,0.0324,0.013523,0.002678,0.000431,0.000470
13646000,0.0324,0.013523,0.002678,0.000431,0.000235
13647000,0.0324,0.013523,0.002678,0.000431,0.000235
13648000,0.0324,0.013523,0.002678,0.000431,0.000470
13649000,0.0324,0.013523,0.002678,0.000431,0.000353
13650000,0.0324,0.013523,0.002678,0.000431,0.000235
13651000,0.0324,0.013523,0.002678,0.000431,0.000353
13652000,0.0324,0.013523,0.002678,0.000431,0.000470
13653000,0.0324,0.013523,0.002678,0.000431,0.000118
13654000,0.0324,0.013523,0.002678,0.000431,0.000353
13655000,0.0324,0.013523,0.002678,0.000431,0.000470
13656000,0.0324,0.013523,0.002678,0.000431,0.000353
13657000,0.0324,0.013523,0.002678,0.000431,0.000235
13658000,0.0324,0.013523,0.002678,0.000431,0.000353
13659000,0.0324,0.013523,0.002678,0.000431,0.000470
13660000,0.0324,0.013523,0.002678,0.000431,0.000118
13661000,0.0324,0.013523,0.002678,0.000431,0.000353
13662000,0.0324,0.013523,0.002678,0.000431,0.000470
13663000,0.0324,0.013523,0.002678,0.000431,0.000353
13664000,0.0324,0.013523,0.002678,0.000431,0.000235
13665000,0.0324,0.013523,0.002678,0.000431,0.000353
13666000,0.0324,0.013523,0.002678,0.000431,0.000470
13667000,0.0324,0.013523,0.002678,0.000431,0.000118
13668000,0.0324,0.013523,0.002678,0.000431,0.000353
13669000,0.0324,0.013523,0.002678,0.000431,0.000470
13670000,0.0324,0.013523,0.002678,0.000431,0.000353
13671000,0.0324,0.013523,0.002678,0.000431,0.000235
13672000,0.0324,0.013523,0.002678,0.000431,0.000353
13673000,0.0324,0.013523,0.002678,0.000431,0.000470
13674000,0.0324,0.013523,0.002678,0.000431,0.000118
13675000,0.0324,0.013523,0.002678,0.000431,0.000353
13676000,0.0324,0.013523,0.002678,0.000431,0.000470
13677000,0.0324,0.013523,0.002678,0.000431,0.000353
13678000,0.0324,0.013523,0.002678,0.000431,0.000235
13679000,0.0324,0.013523,0.002678,0.000431,0.000353
13680000,0.0324,0.013523,0.002678,0.000431,0.000353
13681000,0.0324,0.013523,0.002678,0.000431,0.000235
13682000,0.0324,0.013523,0.002678,0.000431,0.000353
13683000,0.0324,0.013523,0.002678,0.000431,0.000470
13684000,0.0324,0.013523,0.002678,0.000431,0.000353
13685000,0.0324,0.013523,0.002678,0.000431,0.000235
13686000,0.0324,0.013523,0.002678,0.000431,0.000353
13687000,0.0324,0.013523,0.002678,0.000431,0.000353
13688000,0.0324,0.013523,0.002678,0.000431,0.000235
13689000,0.0324,0.013523,0.002678,0.000431,0.000353
13690000,0.0324,0.013523,0.002678,0.000431,0.000470
13691000,0.0324,0.013523,0.002678,0.000431,0.000353
13692000,0.0324,0.013523,0.002678,0.000431,0.000235
13693000,0.0324,0.013523,0.002678,0.000431,0.000353
13694000,0.0324,0.013523,0.002678,0.000431,0.000353
13695000,0.0324,0.013523,0.002678,0.000431,0.000235
13696000,0.0324,0.013523,0.002678,0.000431,0.000353
13697000,0.0324,0.013523,0.002678,0.000431,0.000470
13698000,0.0324,0.013523,0.002678,0.000431,0.000353
13699000,0.0324,0.013523,0.002678,0.000431,0.000235
13700000,0.0324,0.013523,0.002678,0.000431,0.000353
13701000,0.0324,0.013523,0.002678,0.000431,0.000353
13702000,0.0324,0.013523,0.002678,0.000431,0.000235
13703000,0.0324,0.013523,0.002678,0.000431,0.000353
13704000,0.0324,0.013523,0.002678,0.000431,0.000470
13705000,0.0324,0.013523,0.002678,0.000431,0.000353
13706000,0.0324,0.013523,0.002678,0.000431,0.000235
13707000,0.0324,0.013523,0.002678,0.000431,0.000353
13708000,0.0324,0.013523,0.002678,0.000431,0.000353
13709000,0.0324,0.013523,0.002678,0.000431,0.000235
13710000,0.0324,0.013523,0.002678,0.000431,0.000353
13711000,0.0324,0.013523,0.002678,0.000431,0.000470
13712000,0.0324,0.013523,0.002678,0.000431,0.000353
13713000,0.0324,0.013523,0.002678,0.000431,0.000235
13714000,0.0324,0.013523,0.002678,0.000431,0.000353
13715000,0.0324,0.013523,0.002678,0.000431,0.000353
13716000,0.0324,0.013523,0.002678,0.000431,0.000235
13717000,0.0324,0.013523,0.002678,0.000431,0.000353
13718000,0.0324,0.013523,0.002678,0.000431,0.000470
13719000,0.0324,0.013523,0.002678,0.000431,0.000353
13720000,0.0324,0.013523,0.002678,0.000431,0.000235
13721000,0.0324,0.013523,0.002678,0.000431,0.000353
13722000,0.0324,0.013523,0.002678,0.000431,0.000353
13723000,0.0324,0.013523,0.002678,0.000431,0.000235
13724000,0.0324,0.013523,0.002678,0.000431,0.000353
13725000,0.0324,0.013523,0.002678,0.000431,0.000470
13726000,0.0324,0.013523,0.002678,0.000431,0.000353
13727000,0.0324,0.013523,0.002678,0.000431,0.000118
13728000,0.0324,0.013523,0.002678,0.000431,0.000470
13729000,0.0324,0.013523,0.002678,0.000431,0.000353
13730000,0.0324,0.013523,0.002678,0.000431,0.000235
13731000,0.0324,0.013523,0.002678,0.000431,0.000353
13732000,0.0324,0.013523,0.002678,0.000431,0.000470
13733000,0.0324,0.013523,0.002678,0.000431,0.000353
13734000,0.0324,0.013523,0.002678,0.000431,0.000118
13735000,0.0324,0.013523,0.002678,0.000431,0.000470
13736000,0.0324,0.013523,0.002678,0.000431,0.000353
13737000,0.0324,0.013523,0.002678,0.000431,0.000235
13738000,0.0324,0.013523,0.002678,0.000431,0.000353
13739000,0.0324,0.013523,0.002678,0.000431,0.000470
13740000,0.0324,0.013523,0.002678,0.000431,0.000353
13741000,0.0324,0.013523,0.002678,0.000431,0.000118
13742000,0.0324,0.013523,0.002678,0.000431,0.000470
13743000,0.0324,0.013523,0.002678,0.000431,0.000353
13744000,0.0324,0.013523,0.002678,0.000431,0.000235
13745000,0.0324,0.013523,0.002678,0.000431,0.000353
13746000,0.0324,0.013523,0.002678,0.000431,0.000470
13747000,0.0324,0.013523,0.002678,0.000431,0.000353
13748000,0.0324,0.013523,0.002678,0.000431,0.000118
13749000,0.0324,0.013523,0.002678,0.000431,0.000470
13750000,0.0324,0.013523,0.002678,0.000431,0.000353
13751000,0.0324,0.013523,0.002678,0.000431,0.000235
13752000,0.0324,0.013523,0.002678,0.000431,0.000353
13753000,0.0324,0.013523,0.002678,0.000431,0.000470
13754000,0.0324,0.013523,0.002678,0.000431,0.000235
13755000,0.0324,0.013523,0.002678,0.000431,0.000235
13756000,0.0324,0.013523,0.002678,0.000431,0.000470
13757000,0.0324,0.013523,0.002678,0.000431,0.000353
13758000,0.0324,0.013523,0.002678,0.000431,0.000235
13759000,0.0324,0.013523,0.002678,0.000431,0.000353
13760000,0.0324,0.013523,0.002678,0.000431,0.000470
13761000,0.0324,0.013523,0.002678,0.000431,0.000235
13762000,0.0324,0.013523,0.002678,0.000431,0.000235
13763000,0.0324,0.013523,0.002678,0.000431,0.000470
13764000,0.0324,0.013523,0.002678,0.000431,0.000353
13765000,0.0324,0.013523,0.002678,0.000431,0.000235
13766000,0.0324,0.013523,0.002678,0.000431,0.000353
13767000,0.0324,0.013523,0.002678,0.000431,0.000470
13768000,0.0324,0.013523,0.002678,0.000431,0.000235
13769000,0.0324,0.013523,0.002678,0.000431,0.000235
13770000,0.0324,0.013523,0.002678,0.000431,0.000470
13771000,0.0324,0.013523,0.002678,0.000431,0.000353
13772000,0.0324,0.013523,0.002678,0.000431,0.000235
13773000,0.0324,0.013523,0.002678,0.000431,0.000353
13774000,0.0324,0.013523,0.002678,0.000431,0.000470
13775000,0.0324,0.013523,0.002678,0.000431,0.000235
13776000,0.0324,0.013523,0.002678,0.000431,0.000235
13777000,0.0324,0.013523,0.002678,0.000431,0.000470
13778000,0.0324,0.013523,0.002678,0.000431,0.000353
13779000,0.0324,0.013523,0.002678,0.000431,0.000235
13780000,0.0324,0.013523,0.002678,0.000431,0.000353
13781000,0.0324,0.013523,0.002678,0.000431,0.000470
13782000,0.0324,0.013523,0.002678,0.000431,0.000235
13783000,0.0324,0.013523,0.002678,0.000431,0.000235
13784000,0.0324,0.013523,0.002678,0.000431,0.000470
13785000,0.0324,0.013523,0.002678,0.000431,0.000353
13786000,0.0324,0.013523,0.002678,0.000431,0.000235
13787000,0.0324,0.013523,0.002678,0.000431,0.000353
13788000,0.0324,0.013523,0.002678,0.000431,0.000470
13789000,0.0324,0.013523,0.002678,0.000431,0.000235
13790000,0.0324,0.013523,0.002678,0.000431,0.000235
13791000,0.0324,0.013523,0.002678,0.000431,0.000470
13792000,0.0324,0.013523,0.002678,0.000431,0.000353
13793000,0.0324,0.013523,0.002678,0.000431,0.000235
13794000,0.0324,0.013523,0.002678,0.000431,0.000353
13795000,0.0324,0.013523,0.002678,0.000431,0.000470
13796000,0.0324,0.013523,0.002678,0.000431,0.000118
13797000,0.0324,0.013523,0.002678,0.000431,0.000353
13798000,0.0324,0.013523,0.002678,0.000431,0.000470
13799000,0.0324,0.013523,0.002678,0.000431,0.000353
13800000,0.0324,0.013523,0.002678,0.000431,0.000235
13801000,0.0324,0.013523,0.002678,0.000431,0.000353
13802000,0.0324,0.013523,0.002678,0.000431,0.000470
13803000,0.0324,0.013523,0.002678,0.000431,0.000118
13804000,0.0324,0.013523,0.002678,0.000431,0.000353
13805000,0.0324,0.013523,0.002678,0.000431,0.000470
13806000,0.0324,0.013523,0.002678,0.000431,0.000353
13807000,0.0324,0.013523,0.002678,0.000431,0.000235
13808000,0.0324,0.013523,0.002678,0.000431,0.000353
13809000,0.0324,0.013523,0.002678,0.000431,0.000470
13810000,0.0324,0.013523,0.002678,0.000431,0.000118
13811000,0.0324,0.013523,0.002678,0.000431,0.000353
13812000,0.0324,0.013523,0.002678,0.000431,0.000470
13813000,0.0324,0.013523,0.002678,0.000431,0.000353
13814000,0.0324,0.013523,0.002678,0.000431,0.000235
13815000,0.0324,0.013523,0.002678,0.000431,0.000353
13816000,0.0324,0.013523,0.002678,0.000431,0.000353
13817000,0.0324,0.013523,0.002678,0.000431,0.000235
13818000,0.0324,0.013523,0.002678,0.000431,0.000353
13819000,0.0324,0.013523,0.002678,0.000431,0.000470
13820000,0.0324,0.013523,0.002678,0.000431,0.000353
13821000,0.0324,0.013523,0.002678,0.000431,0.000235
13822000,0.0324,0.013523,0.002678,0.000431,0.000353
13823000,0.0324,0.013523,0.002678,0.000431,0.000353
13824000,0.0324,0.013523,0.002678,0.000431,0.000235
13825000,0.0324,0.013523,0.002678,0.000431,0.000353
13826000,0.0324,0.013523,0.002678,0.000431,0.000470
13827000,0.0324,0.013523,0.002678,0.000431,0.000353
13828000,0.0324,0.013523,0.002678,0.000431,0.000235
13829000,0.0324,0.013523,0.002678,0.000431,0.000353
13830000,0.0324,0.013523,0.002678,0.000431,0.000353
13831000,0.0324,0.013523,0.002678,0.000431,0.000235
13832000,0.0324,0.013523,0.002678,0.000431,0.000353
13833000,0.0324,0.013523,0.002678,0.000431,0.000470
13834000,0.0324,0.013523,0.002678,0.000431,0.000353
13835000,0.0324,0.013523,0.002678,0.000431,0.000235
13836000,0.0324,0.013523,0.002678,0.000431,0.000353
13837000,0.0324,0.013523,0.002678,0.000431,0.000353
13838000,0.0324,0.013523,0.002678,0.000431,0.000235
13839000,0.0324,0.013523,0.002678,0.000431,0.000353
13840000,0.0324,0.013523,0.002678,0.000431,0.000470
13841000,0.0324,0.013523,0.002678,0.000431,0.000353
13842000,0.0324,0.013523,0.002678,0.000431,0.000235
13843000,0.0324,0.013523,0.002678,0.000431,0.000353
13844000,0.0324,0.013523,0.002678,0.000431,0.000353
13845000,0.0324,0.013523,0.002678,0.000431,0.000235
13846000,0.0324,0.013523,0.002678,0.000431,0.000353
13847000,0.0324,0.013523,0.002678,0.000431,0.000470
13848000,0.0324,0.013523,0.002678,0.000431,0.000353
13849000,0.0324,0.013523,0.002678,0.000431,0.000235
13850000,0.0324,0.013523,0.002678,0.000431,0.000353
13851000,0.0324,0.013523,0.002678,0.000431,0.000353
13852000,0.0324,0.013523,0.002678,0.000431,0.000235
13853000,0.0324,0.013523,0.002678,0.000431,0.000353
13854000,0.0324,0.013523,0.002678,0.000431,0.000470
13855000,0.0324,0.013523,0.002678,0.000431,0.000353
13856000,0.0324,0.013523,0.002678,0.000431,0.000235
13857000,0.0324,0.013523,0.002678,0.000431,0.000353
13858000,0.0324,0.013523,0.002678,0.000431,0.000353
13859000,0.0324,0.013523,0.002678,0.000431,0.000235
13860000,0.0324,0.013523,0.002678,0.000431,0.000353
13861000,0.0324,0.013523,0.002678,0.000431,0.000470
13862000,0.0324,0.013523,0.002678,0.000431,0.000353
13863000,0.0324,0.013523,0.002678,0.000431,0.000235
13864000,0.0324,0.013523,0.002678,0.000431,0.000353
13865000,0.0324,0.013523,0.002678,0.000431,0.000353
13866000,0.0324,0.013523,0.002678,0.000431,0.000235
13867000,0.0324,0.013523,0.002678,0.000431,0.000353
13868000,0.0324,0.013523,0.002678,0.000431,0.000470
13869000,0.0324,0.013523,0.002678,0.000431,0.000353
13870000,0.0324,0.013523,0.002678,0.000431,0.000118
13871000,0.0324,0.013523,0.002678,0.000431,0.000470
13872000,0.0324,0.013523,0.002678,0.000431,0.000353
13873000,0.0324,0.013523,0.002678,0.000431,0.000235
13874000,0.0324,0.013523,0.002678,0.000431,0.000353
13875000,0.0324,0.013523,0.002678,0.000431,0.000470
13876000,0.0324,0.013523,0.002678,0.000431,0.000353
13877000,0.0324,0.013523,0.002678,0.000431,0.000118
13878000,0.0324,0.013523,0.002678,0.000431,0.000470
13879000,0.0324,0.013523,0.002678,0.000431,0.000353
13880000,0.0324,0.013523,0.002678,0.000431,0.000235
13881000,0.0324,0.013523,0.002678,0.000431,0.000353
13882000,0.0324,0.013523,0.002678,0.000431,0.000470
13883000,0.0324,0.013523,0.002678,0.000431,0.000353
13884000,0.0324,0.013523,0.002678,0.000431,0.000118
13885000,0.0324,0.013523,0.002678,0.000431,0.000470
13886000,0.0324,0.013523,0.002678,0.000431,0.000353
13887000,0.0324,0.013523,0.002678,0.000431,0.000235
13888000,0.0324,0.013523,0.002678,0.000431,0.000353
13889000,0.0324,0.013523,0.002678,0.000431,0.000470
13890000,0.0324,0.013523,0.002678,0.000431,0.000235
13891000,0.0324,0.013523,0.002678,0.000431,0.000235
13892000,0.0324,0.013523,0.002678,0.000431,0.000470
13893000,0.0324,0.013523,0.002678,0.000431,0.000353
13894000,0.0324,0.013523,0.002678,0.000431,0.000235
13895000,0.0324,0.013523,0.002678,0.000431,0.000353
13896000,0.0324,0.013523,0.002678,0.000431,0.000470
13897000,0.0324,0.013523,0.002678,0.000431,0.000235
13898000,0.0324,0.013523,0.002678,0.000431,0.000235
13899000,0.0324,0.013523,0.002678,0.000431,0.000470
13900000,0.0324,0.013523,0.002678,0.000431,0.000353
13901000,0.0324,0.013523,0.002678,0.000431,0.000235
13902000,0.0324,0.013523,0.002678,0.000431,0.000353
13903000,0.0324,0.013523,0.002678,0.000431,0.000470
13904000,0.0324,0.013523,0.002678,0.000431,0.000235
13905000,0.0324,0.013523,0.002678,0.000431,0.000235
13906000,0.0324,0.013523,0.002678,0.000431,0.000470
13907000,0.0324,0.013523,0.002678,0.000431,0.000353
13908000,0.0324,0.013523,0.002678,0.000431,0.000235
13909000,0.0324,0.013523,0.002678,0.000431,0.000353
13910000,0.0324,0.013523,0.002678,0.000431,0.000470
13911000,0.0324,0.013523,0.002678,0.000431,0.000235
13912000,0.0324,0.013523,0.002678,0.000431,0.000235
13913000,0.0324,0.013523,0.002678,0.000431,0.000470
13914000,0.0324,0.013523,0.002678,0.000431,0.000353
13915000,0.0324,0.013523,0.002678,0.000431,0.000235
13916000,0.0324,0.013523,0.002678,0.000431,0.000353
13917000,0.0324,0.013523,0.002678,0.000431,0.000470
13918000,0.0324,0.013523,0.002678,0.000431,0.000235
13919000,0.0324,0.013523,0.002678,0.000431,0.000235
13920000,0.0324,0.013523,0.002678,0.000431,0.000470
13921000,0.0324,0.013523,0.002678,0.000431,0.000353
13922000,0.0324,0.013523,0.002678,0.000431,0.000235
13923000,0.0324,0.013523,0.002678,0.000431,0.000353
13924000,0.0324,0.013523,0.002678,0.000431,0.000470
13925000,0.0324,0.013523,0.002678,0.000431,0.000235
13926000,0.0324,0.013523,0.002678,0.000431,0.000235
13927000,0.0324,0.013523,0.002678,0.000431,0.000470
13928000,0.0324,0.013523,0.002678,0.000431,0.000353
13929000,0.0324,0.013523,0.002678,0.000431,0.000235
13930000,0.0324,0.013523,0.002678,0.000431,0.000353
13931000,0.0324,0.013523,0.002678,0.000431,0.000470
13932000,0.0324,0.013523,0.002678,0.000431,0.000118
13933000,0.0324,0.013523,0.002678,0.000431,0.000353
13934000,0.0324,0.013523,0.002678,0.000431,0.000470
13935000,0.0324,0.013523,0.002678,0.000431,0.000353
13936000,0.0324,0.013523,0.002678,0.000431,0.000235
13937000,0.0324,0.013523,0.002678,0.000431,0.000353
13938000,0.0324,0.013523,0.002678,0.000431,0.000470
13939000,0.0324,0.013523,0.002678,0.000431,0.000118
13940000,0.0324,0.013523,0.002678,0.000431,0.000353
13941000,0.0324,0.013523,0.002678,0.000431,0.000470
13942000,0.0324,0.013523,0.002678,0.000431,0.000353
13943000,0.0324,0.013523,0.002678,0.000431,0.000235
13944000,0.0324,0.013523,0.002678,0.000431,0.000353
13945000,0.0324,0.013523,0.002678,0.000431,0.000470
13946000,0.0324,0.013523,0.002678,0.000431,0.000118
13947000,0.0324,0.013523,0.002678,0.000431,0.000353
13948000,0.0324,0.013523,0.002678,0.000431,0.000470
13949000,0.0324,0.013523,0.002678,0.000431,0.000353
13950000,0.0324,0.013523,0.002678,0.000431,0.000235
13951000,0.0324,0.013523,0.002678,0.000431,0.000353
13952000,0.0324,0.013523,0.002678,0.000431,0.000470
13953000,0.0324,0.013523,0.002678,0.000431,0.000118
13954000,0.0324,0.013523,0.002678,0.000431,0.000353
13955000,0.0324,0.013523,0.002678,0.000431,0.000470
13956000,0.0324,0.013523,0.002678,0.000431,0.000353
13957000,0.0324,0.013523,0.002678,0.000431,0.000235
13958000,0.0324,0.013523,0.002678,0.000431,0.000353
13959000,0.0324,0.013523,0.002678,0.000431,0.000353
13960000,0.0324,0.013523,0.002678,0.000431,0.000235
13961000,0.0324,0.013523,0.002678,0.000431,0.000353
13962000,0.0324,0.013523,0.002678,0.000431,0.000470
13963000,0.0324,0.013523,0.002678,0.000431,0.000353
13964000,0.0324,0.013523,0.002678,0.000431,0.000235
13965000,0.0324,0.013523,0.002678,0.000431,0.000353
13966000,0.0324,0.013523,0.002678,0.000431,0.000353
13967000,0.0324,0.013523,0.002678,0.000431,0.000235
13968000,0.0324,0.013523,0.002678,0.000431,0.000353
13969000,0.0324,0.013523,0.002678,0.000431,0.000470
13970000,0.0324,0.013523,0.002678,0.000431,0.000353
13971000,0.0324,0.013523,0.002678,0.000431,0.000235
13972000,0.0324,0.013523,0.002678,0.000431,0.000353
13973000,0.0324,0.013523,0.002678,0.000431,0.000353
13974000,0.0324,0.013523,0.002678,0.000431,0.000235
13975000,0.0324,0.013523,0.002678,0.000431,0.000353
13976000,0.0324,0.013523,0.002678,0.000431,0.000470
13977000,0.0324,0.013523,0.002678,0.000431,0.000353
13978000,0.0324,0.013523,0.002678,0.000431,0.000235
13979000,0.0324,0.013523,0.002678,0.000431,0.000353
13980000,0.0324,0.013523,0.002678,0.000431,0.000353
13981000,0.0324,0.013523,0.002678,0.000431,0.000235
13982000,0.0324,0.013523,0.002678,0.000431,0.000353
13983000,0.0324,0.013523,0.002678,0.000431,0.000470
13984000,0.0324,0.013523,0.002678,0.000431,0.000353
13985000,0.0324,0.013523,0.002678,0.000431,0.000235
13986000,0.0324,0.013523,0.002678,0.000431,0.000353
13987000,0.0324,0.013523,0.002678,0.000431,0.000353
13988000,0.0324,0.013523,0.002678,0.000431,0.000235
13989000,0.0324,0.013523,0.002678,0.000431,0.000353
13990000,0.0324,0.013523,0.002678,0.000431,0.000470
13991000,0.0324,0.013523,0.002678,0.000431,0.000353
13992000,0.0324,0.013523,0.002678,0.000431,0.000235
13993000,0.0324,0.013523,0.002678,0.000431,0.000353
13994000,0.0324,0.013523,0.002678,0.000431,0.000353
13995000,0.0324,0.013523,0.002678,0.000431,0.000235
13996000,0.0324,0.013523,0.002678,0.000431,0.000353
13997000,0.0324,0.013523,0.002678,0.000431,0.000470
13998000,0.0324,0.013523,0.002678,0.000431,0.000353
13999000,0.0324,0.013523,0.002678,0.000431,0.000235
