Cycle,Area(mm^2),PeakDynamic(W),SubthresholdLeakage(W),GateLeakage(W),RunTimeDynamic(W)
33000000,0.0324,0.013523,0.002678,0.000431,0.000470
33001000,0.0324,0.013523,0.002678,0.000431,0.000353
33002000,0.0324,0.013523,0.002678,0.000431,0.000235
33003000,0.0324,0.013523,0.002678,0.000431,0.000353
33004000,0.0324,0.013523,0.002678,0.000431,0.000470
33005000,0.0324,0.013523,0.002678,0.000431,0.000235
33006000,0.0324,0.013523,0.002678,0.000431,0.000235
33007000,0.0324,0.013523,0.002678,0.000431,0.000470
33008000,0.0324,0.013523,0.002678,0.000431,0.000353
33009000,0.0324,0.013523,0.002678,0.000431,0.000235
33010000,0.0324,0.013523,0.002678,0.000431,0.000353
33011000,0.0324,0.013523,0.002678,0.000431,0.000470
33012000,0.0324,0.013523,0.002678,0.000431,0.000118
33013000,0.0324,0.013523,0.002678,0.000431,0.000353
33014000,0.0324,0.013523,0.002678,0.000431,0.000470
33015000,0.0324,0.013523,0.002678,0.000431,0.000353
33016000,0.0324,0.013523,0.002678,0.000431,0.000235
33017000,0.0324,0.013523,0.002678,0.000431,0.000353
33018000,0.0324,0.013523,0.002678,0.000431,0.000470
33019000,0.0324,0.013523,0.002678,0.000431,0.000118
33020000,0.0324,0.013523,0.002678,0.000431,0.000353
33021000,0.0324,0.013523,0.002678,0.000431,0.000470
33022000,0.0324,0.013523,0.002678,0.000431,0.000353
33023000,0.0324,0.013523,0.002678,0.000431,0.000235
33024000,0.0324,0.013523,0.002678,0.000431,0.000353
33025000,0.0324,0.013523,0.002678,0.000431,0.000470
33026000,0.0324,0.013523,0.002678,0.000431,0.000118
33027000,0.0324,0.013523,0.002678,0.000431,0.000353
33028000,0.0324,0.013523,0.002678,0.000431,0.000470
33029000,0.0324,0.013523,0.002678,0.000431,0.000353
33030000,0.0324,0.013523,0.002678,0.000431,0.000235
33031000,0.0324,0.013523,0.002678,0.000431,0.000353
33032000,0.0324,0.013523,0.002678,0.000431,0.000353
33033000,0.0324,0.013523,0.002678,0.000431,0.000235
33034000,0.0324,0.013523,0.002678,0.000431,0.000353
33035000,0.0324,0.013523,0.002678,0.000431,0.000470
33036000,0.0324,0.013523,0.002678,0.000431,0.000353
33037000,0.0324,0.013523,0.002678,0.000431,0.000235
33038000,0.0324,0.013523,0.002678,0.000431,0.000353
33039000,0.0324,0.013523,0.002678,0.000431,0.000353
33040000,0.0324,0.013523,0.002678,0.000431,0.000235
33041000,0.0324,0.013523,0.002678,0.000431,0.000353
33042000,0.0324,0.013523,0.002678,0.000431,0.000470
33043000,0.0324,0.013523,0.002678,0.000431,0.000353
33044000,0.0324,0.013523,0.002678,0.000431,0.000235
33045000,0.0324,0.013523,0.002678,0.000431,0.000353
33046000,0.0324,0.013523,0.002678,0.000431,0.000353
33047000,0.0324,0.013523,0.002678,0.000431,0.000235
33048000,0.0324,0.013523,0.002678,0.000431,0.000353
33049000,0.0324,0.013523,0.002678,0.000431,0.000470
33050000,0.0324,0.013523,0.002678,0.000431,0.000353
33051000,0.0324,0.013523,0.002678,0.000431,0.000235
33052000,0.0324,0.013523,0.002678,0.000431,0.000353
33053000,0.0324,0.013523,0.002678,0.000431,0.000353
33054000,0.0324,0.013523,0.002678,0.000431,0.000235
33055000,0.0324,0.013523,0.002678,0.000431,0.000353
33056000,0.0324,0.013523,0.002678,0.000431,0.000470
33057000,0.0324,0.013523,0.002678,0.000431,0.000353
33058000,0.0324,0.013523,0.002678,0.000431,0.000235
33059000,0.0324,0.013523,0.002678,0.000431,0.000353
33060000,0.0324,0.013523,0.002678,0.000431,0.000353
33061000,0.0324,0.013523,0.002678,0.000431,0.000235
33062000,0.0324,0.013523,0.002678,0.000431,0.000353
33063000,0.0324,0.013523,0.002678,0.000431,0.000470
33064000,0.0324,0.013523,0.002678,0.000431,0.000353
33065000,0.0324,0.013523,0.002678,0.000431,0.000235
33066000,0.0324,0.013523,0.002678,0.000431,0.000353
33067000,0.0324,0.013523,0.002678,0.000431,0.000353
33068000,0.0324,0.013523,0.002678,0.000431,0.000235
33069000,0.0324,0.013523,0.002678,0.000431,0.000353
33070000,0.0324,0.013523,0.002678,0.000431,0.000470
33071000,0.0324,0.013523,0.002678,0.000431,0.000353
33072000,0.0324,0.013523,0.002678,0.000431,0.000235
33073000,0.0324,0.013523,0.002678,0.000431,0.000353
33074000,0.0324,0.013523,0.002678,0.000431,0.000353
33075000,0.0324,0.013523,0.002678,0.000431,0.000235
33076000,0.0324,0.013523,0.002678,0.000431,0.000353
33077000,0.0324,0.013523,0.002678,0.000431,0.000470
33078000,0.0324,0.013523,0.002678,0.000431,0.000353
33079000,0.0324,0.013523,0.002678,0.000431,0.000235
33080000,0.0324,0.013523,0.002678,0.000431,0.000353
33081000,0.0324,0.013523,0.002678,0.000431,0.000353
33082000,0.0324,0.013523,0.002678,0.000431,0.000235
33083000,0.0324,0.013523,0.002678,0.000431,0.000353
33084000,0.0324,0.013523,0.002678,0.000431,0.000470
33085000,0.0324,0.013523,0.002678,0.000431,0.000353
33086000,0.0324,0.013523,0.002678,0.000431,0.000118
33087000,0.0324,0.013523,0.002678,0.000431,0.000470
33088000,0.0324,0.013523,0.002678,0.000431,0.000353
33089000,0.0324,0.013523,0.002678,0.000431,0.000235
33090000,0.0324,0.013523,0.002678,0.000431,0.000353
33091000,0.0324,0.013523,0.002678,0.000431,0.000470
33092000,0.0324,0.013523,0.002678,0.000431,0.000353
33093000,0.0324,0.013523,0.002678,0.000431,0.000118
33094000,0.0324,0.013523,0.002678,0.000431,0.000470
33095000,0.0324,0.013523,0.002678,0.000431,0.000353
33096000,0.0324,0.013523,0.002678,0.000431,0.000235
33097000,0.0324,0.013523,0.002678,0.000431,0.000353
33098000,0.0324,0.013523,0.002678,0.000431,0.000470
33099000,0.0324,0.013523,0.002678,0.000431,0.000353
33100000,0.0324,0.013523,0.002678,0.000431,0.000118
33101000,0.0324,0.013523,0.002678,0.000431,0.000470
33102000,0.0324,0.013523,0.002678,0.000431,0.000353
33103000,0.0324,0.013523,0.002678,0.000431,0.000235
33104000,0.0324,0.013523,0.002678,0.000431,0.000353
33105000,0.0324,0.013523,0.002678,0.000431,0.000470
33106000,0.0324,0.013523,0.002678,0.000431,0.000235
33107000,0.0324,0.013523,0.002678,0.000431,0.000235
33108000,0.0324,0.013523,0.002678,0.000431,0.000470
33109000,0.0324,0.013523,0.002678,0.000431,0.000353
33110000,0.0324,0.013523,0.002678,0.000431,0.000235
33111000,0.0324,0.013523,0.002678,0.000431,0.000353
33112000,0.0324,0.013523,0.002678,0.000431,0.000470
33113000,0.0324,0.013523,0.002678,0.000431,0.000235
33114000,0.0324,0.013523,0.002678,0.000431,0.000235
33115000,0.0324,0.013523,0.002678,0.000431,0.000470
33116000,0.0324,0.013523,0.002678,0.000431,0.000353
33117000,0.0324,0.013523,0.002678,0.000431,0.000235
33118000,0.0324,0.013523,0.002678,0.000431,0.000353
33119000,0.0324,0.013523,0.002678,0.000431,0.000470
33120000,0.0324,0.013523,0.002678,0.000431,0.000235
33121000,0.0324,0.013523,0.002678,0.000431,0.000235
33122000,0.0324,0.013523,0.002678,0.000431,0.000470
33123000,0.0324,0.013523,0.002678,0.000431,0.000353
33124000,0.0324,0.013523,0.002678,0.000431,0.000235
33125000,0.0324,0.013523,0.002678,0.000431,0.000353
33126000,0.0324,0.013523,0.002678,0.000431,0.000470
33127000,0.0324,0.013523,0.002678,0.000431,0.000235
33128000,0.0324,0.013523,0.002678,0.000431,0.000235
33129000,0.0324,0.013523,0.002678,0.000431,0.000470
33130000,0.0324,0.013523,0.002678,0.000431,0.000353
33131000,0.0324,0.013523,0.002678,0.000431,0.000235
33132000,0.0324,0.013523,0.002678,0.000431,0.000353
33133000,0.0324,0.013523,0.002678,0.000431,0.000470
33134000,0.0324,0.013523,0.002678,0.000431,0.000235
33135000,0.0324,0.013523,0.002678,0.000431,0.000235
33136000,0.0324,0.013523,0.002678,0.000431,0.000470
33137000,0.0324,0.013523,0.002678,0.000431,0.000353
33138000,0.0324,0.013523,0.002678,0.000431,0.000235
33139000,0.0324,0.013523,0.002678,0.000431,0.000353
33140000,0.0324,0.013523,0.002678,0.000431,0.000470
33141000,0.0324,0.013523,0.002678,0.000431,0.000235
33142000,0.0324,0.013523,0.002678,0.000431,0.000235
33143000,0.0324,0.013523,0.002678,0.000431,0.000470
33144000,0.0324,0.013523,0.002678,0.000431,0.000353
33145000,0.0324,0.013523,0.002678,0.000431,0.000235
33146000,0.0324,0.013523,0.002678,0.000431,0.000353
33147000,0.0324,0.013523,0.002678,0.000431,0.000470
33148000,0.0324,0.013523,0.002678,0.000431,0.000118
33149000,0.0324,0.013523,0.002678,0.000431,0.000353
33150000,0.0324,0.013523,0.002678,0.000431,0.000470
33151000,0.0324,0.013523,0.002678,0.000431,0.000353
33152000,0.0324,0.013523,0.002678,0.000431,0.000235
33153000,0.0324,0.013523,0.002678,0.000431,0.000353
33154000,0.0324,0.013523,0.002678,0.000431,0.000470
33155000,0.0324,0.013523,0.002678,0.000431,0.000118
33156000,0.0324,0.013523,0.002678,0.000431,0.000353
33157000,0.0324,0.013523,0.002678,0.000431,0.000470
33158000,0.0324,0.013523,0.002678,0.000431,0.000353
33159000,0.0324,0.013523,0.002678,0.000431,0.000235
33160000,0.0324,0.013523,0.002678,0.000431,0.000353
33161000,0.0324,0.013523,0.002678,0.000431,0.000470
33162000,0.0324,0.013523,0.002678,0.000431,0.000118
33163000,0.0324,0.013523,0.002678,0.000431,0.000353
33164000,0.0324,0.013523,0.002678,0.000431,0.000470
33165000,0.0324,0.013523,0.002678,0.000431,0.000353
33166000,0.0324,0.013523,0.002678,0.000431,0.000235
33167000,0.0324,0.013523,0.002678,0.000431,0.000353
33168000,0.0324,0.013523,0.002678,0.000431,0.000470
33169000,0.0324,0.013523,0.002678,0.000431,0.000118
33170000,0.0324,0.013523,0.002678,0.000431,0.000353
33171000,0.0324,0.013523,0.002678,0.000431,0.000470
33172000,0.0324,0.013523,0.002678,0.000431,0.000353
33173000,0.0324,0.013523,0.002678,0.000431,0.000235
33174000,0.0324,0.013523,0.002678,0.000431,0.000353
33175000,0.0324,0.013523,0.002678,0.000431,0.000353
33176000,0.0324,0.013523,0.002678,0.000431,0.000235
33177000,0.0324,0.013523,0.002678,0.000431,0.000353
33178000,0.0324,0.013523,0.002678,0.000431,0.000470
33179000,0.0324,0.013523,0.002678,0.000431,0.000353
33180000,0.0324,0.013523,0.002678,0.000431,0.000235
33181000,0.0324,0.013523,0.002678,0.000431,0.000353
33182000,0.0324,0.013523,0.002678,0.000431,0.000353
33183000,0.0324,0.013523,0.002678,0.000431,0.000235
33184000,0.0324,0.013523,0.002678,0.000431,0.000353
33185000,0.0324,0.013523,0.002678,0.000431,0.000470
33186000,0.0324,0.013523,0.002678,0.000431,0.000353
33187000,0.0324,0.013523,0.002678,0.000431,0.000235
33188000,0.0324,0.013523,0.002678,0.000431,0.000353
33189000,0.0324,0.013523,0.002678,0.000431,0.000353
33190000,0.0324,0.013523,0.002678,0.000431,0.000235
33191000,0.0324,0.013523,0.002678,0.000431,0.000353
33192000,0.0324,0.013523,0.002678,0.000431,0.000470
33193000,0.0324,0.013523,0.002678,0.000431,0.000353
33194000,0.0324,0.013523,0.002678,0.000431,0.000235
33195000,0.0324,0.013523,0.002678,0.000431,0.000353
33196000,0.0324,0.013523,0.002678,0.000431,0.000353
33197000,0.0324,0.013523,0.002678,0.000431,0.000235
33198000,0.0324,0.013523,0.002678,0.000431,0.000353
33199000,0.0324,0.013523,0.002678,0.000431,0.000470
33200000,0.0324,0.013523,0.002678,0.000431,0.000353
33201000,0.0324,0.013523,0.002678,0.000431,0.000235
33202000,0.0324,0.013523,0.002678,0.000431,0.000353
33203000,0.0324,0.013523,0.002678,0.000431,0.000353
33204000,0.0324,0.013523,0.002678,0.000431,0.000235
33205000,0.0324,0.013523,0.002678,0.000431,0.000353
33206000,0.0324,0.013523,0.002678,0.000431,0.000470
33207000,0.0324,0.013523,0.002678,0.000431,0.000353
33208000,0.0324,0.013523,0.002678,0.000431,0.000235
33209000,0.0324,0.013523,0.002678,0.000431,0.000353
33210000,0.0324,0.013523,0.002678,0.000431,0.000353
33211000,0.0324,0.013523,0.002678,0.000431,0.000235
33212000,0.0324,0.013523,0.002678,0.000431,0.000353
33213000,0.0324,0.013523,0.002678,0.000431,0.000470
33214000,0.0324,0.013523,0.002678,0.000431,0.000353
33215000,0.0324,0.013523,0.002678,0.000431,0.000235
33216000,0.0324,0.013523,0.002678,0.000431,0.000353
33217000,0.0324,0.013523,0.002678,0.000431,0.000353
33218000,0.0324,0.013523,0.002678,0.000431,0.000235
33219000,0.0324,0.013523,0.002678,0.000431,0.000353
33220000,0.0324,0.013523,0.002678,0.000431,0.000470
33221000,0.0324,0.013523,0.002678,0.000431,0.000353
33222000,0.0324,0.013523,0.002678,0.000431,0.000235
33223000,0.0324,0.013523,0.002678,0.000431,0.000353
33224000,0.0324,0.013523,0.002678,0.000431,0.000353
33225000,0.0324,0.013523,0.002678,0.000431,0.000235
33226000,0.0324,0.013523,0.002678,0.000431,0.000353
33227000,0.0324,0.013523,0.002678,0.000431,0.000470
33228000,0.0324,0.013523,0.002678,0.000431,0.000353
33229000,0.0324,0.013523,0.002678,0.000431,0.000118
33230000,0.0324,0.013523,0.002678,0.000431,0.000470
33231000,0.0324,0.013523,0.002678,0.000431,0.000353
33232000,0.0324,0.013523,0.002678,0.000431,0.000235
33233000,0.0324,0.013523,0.002678,0.000431,0.000353
33234000,0.0324,0.013523,0.002678,0.000431,0.000470
33235000,0.0324,0.013523,0.002678,0.000431,0.000353
33236000,0.0324,0.013523,0.002678,0.000431,0.000118
33237000,0.0324,0.013523,0.002678,0.000431,0.000470
33238000,0.0324,0.013523,0.002678,0.000431,0.000353
33239000,0.0324,0.013523,0.002678,0.000431,0.000235
33240000,0.0324,0.013523,0.002678,0.000431,0.000353
33241000,0.0324,0.013523,0.002678,0.000431,0.000470
33242000,0.0324,0.013523,0.002678,0.000431,0.000353
33243000,0.0324,0.013523,0.002678,0.000431,0.000118
33244000,0.0324,0.013523,0.002678,0.000431,0.000470
33245000,0.0324,0.013523,0.002678,0.000431,0.000353
33246000,0.0324,0.013523,0.002678,0.000431,0.000235
33247000,0.0324,0.013523,0.002678,0.000431,0.000353
33248000,0.0324,0.013523,0.002678,0.000431,0.000470
33249000,0.0324,0.013523,0.002678,0.000431,0.000235
33250000,0.0324,0.013523,0.002678,0.000431,0.000235
33251000,0.0324,0.013523,0.002678,0.000431,0.000470
33252000,0.0324,0.013523,0.002678,0.000431,0.000353
33253000,0.0324,0.013523,0.002678,0.000431,0.000235
33254000,0.0324,0.013523,0.002678,0.000431,0.000353
33255000,0.0324,0.013523,0.002678,0.000431,0.000470
33256000,0.0324,0.013523,0.002678,0.000431,0.000235
33257000,0.0324,0.013523,0.002678,0.000431,0.000235
33258000,0.0324,0.013523,0.002678,0.000431,0.000470
33259000,0.0324,0.013523,0.002678,0.000431,0.000353
33260000,0.0324,0.013523,0.002678,0.000431,0.000235
33261000,0.0324,0.013523,0.002678,0.000431,0.000353
33262000,0.0324,0.013523,0.002678,0.000431,0.000470
33263000,0.0324,0.013523,0.002678,0.000431,0.000235
33264000,0.0324,0.013523,0.002678,0.000431,0.000235
33265000,0.0324,0.013523,0.002678,0.000431,0.000470
33266000,0.0324,0.013523,0.002678,0.000431,0.000353
33267000,0.0324,0.013523,0.002678,0.000431,0.000235
33268000,0.0324,0.013523,0.002678,0.000431,0.000353
33269000,0.0324,0.013523,0.002678,0.000431,0.000470
33270000,0.0324,0.013523,0.002678,0.000431,0.000235
33271000,0.0324,0.013523,0.002678,0.000431,0.000235
33272000,0.0324,0.013523,0.002678,0.000431,0.000470
33273000,0.0324,0.013523,0.002678,0.000431,0.000353
33274000,0.0324,0.013523,0.002678,0.000431,0.000235
33275000,0.0324,0.013523,0.002678,0.000431,0.000353
33276000,0.0324,0.013523,0.002678,0.000431,0.000470
33277000,0.0324,0.013523,0.002678,0.000431,0.000235
33278000,0.0324,0.013523,0.002678,0.000431,0.000235
33279000,0.0324,0.013523,0.002678,0.000431,0.000470
33280000,0.0324,0.013523,0.002678,0.000431,0.000353
33281000,0.0324,0.013523,0.002678,0.000431,0.000235
33282000,0.0324,0.013523,0.002678,0.000431,0.000353
33283000,0.0324,0.013523,0.002678,0.000431,0.000470
33284000,0.0324,0.013523,0.002678,0.000431,0.000235
33285000,0.0324,0.013523,0.002678,0.000431,0.000235
33286000,0.0324,0.013523,0.002678,0.000431,0.000470
33287000,0.0324,0.013523,0.002678,0.000431,0.000353
33288000,0.0324,0.013523,0.002678,0.000431,0.000235
33289000,0.0324,0.013523,0.002678,0.000431,0.000353
33290000,0.0324,0.013523,0.002678,0.000431,0.000470
33291000,0.0324,0.013523,0.002678,0.000431,0.000118
33292000,0.0324,0.013523,0.002678,0.000431,0.000353
33293000,0.0324,0.013523,0.002678,0.000431,0.000470
33294000,0.0324,0.013523,0.002678,0.000431,0.000353
33295000,0.0324,0.013523,0.002678,0.000431,0.000235
33296000,0.0324,0.013523,0.002678,0.000431,0.000353
33297000,0.0324,0.013523,0.002678,0.000431,0.000470
33298000,0.0324,0.013523,0.002678,0.000431,0.000118
33299000,0.0324,0.013523,0.002678,0.000431,0.000353
33300000,0.0324,0.013523,0.002678,0.000431,0.000470
33301000,0.0324,0.013523,0.002678,0.000431,0.000353
33302000,0.0324,0.013523,0.002678,0.000431,0.000235
33303000,0.0324,0.013523,0.002678,0.000431,0.000353
33304000,0.0324,0.013523,0.002678,0.000431,0.000470
33305000,0.0324,0.013523,0.002678,0.000431,0.000118
33306000,0.0324,0.013523,0.002678,0.000431,0.000353
33307000,0.0324,0.013523,0.002678,0.000431,0.000470
33308000,0.0324,0.013523,0.002678,0.000431,0.000353
33309000,0.0324,0.013523,0.002678,0.000431,0.000235
33310000,0.0324,0.013523,0.002678,0.000431,0.000353
33311000,0.0324,0.013523,0.002678,0.000431,0.000353
33312000,0.0324,0.013523,0.002678,0.000431,0.000235
33313000,0.0324,0.013523,0.002678,0.000431,0.000353
33314000,0.0324,0.013523,0.002678,0.000431,0.000470
33315000,0.0324,0.013523,0.002678,0.000431,0.000353
33316000,0.0324,0.013523,0.002678,0.000431,0.000235
33317000,0.0324,0.013523,0.002678,0.000431,0.000353
33318000,0.0324,0.013523,0.002678,0.000431,0.000353
33319000,0.0324,0.013523,0.002678,0.000431,0.000235
33320000,0.0324,0.013523,0.002678,0.000431,0.000353
33321000,0.0324,0.013523,0.002678,0.000431,0.000470
33322000,0.0324,0.013523,0.002678,0.000431,0.000353
33323000,0.0324,0.013523,0.002678,0.000431,0.000235
33324000,0.0324,0.013523,0.002678,0.000431,0.000353
33325000,0.0324,0.013523,0.002678,0.000431,0.000353
33326000,0.0324,0.013523,0.002678,0.000431,0.000235
33327000,0.0324,0.013523,0.002678,0.000431,0.000353
33328000,0.0324,0.013523,0.002678,0.000431,0.000470
33329000,0.0324,0.013523,0.002678,0.000431,0.000353
33330000,0.0324,0.013523,0.002678,0.000431,0.000235
33331000,0.0324,0.013523,0.002678,0.000431,0.000353
33332000,0.0324,0.013523,0.002678,0.000431,0.000353
33333000,0.0324,0.013523,0.002678,0.000431,0.000235
33334000,0.0324,0.013523,0.002678,0.000431,0.000353
33335000,0.0324,0.013523,0.002678,0.000431,0.000470
33336000,0.0324,0.013523,0.002678,0.000431,0.000353
33337000,0.0324,0.013523,0.002678,0.000431,0.000235
33338000,0.0324,0.013523,0.002678,0.000431,0.000353
33339000,0.0324,0.013523,0.002678,0.000431,0.000353
33340000,0.0324,0.013523,0.002678,0.000431,0.000235
33341000,0.0324,0.013523,0.002678,0.000431,0.000353
33342000,0.0324,0.013523,0.002678,0.000431,0.000470
33343000,0.0324,0.013523,0.002678,0.000431,0.000353
33344000,0.0324,0.013523,0.002678,0.000431,0.000235
33345000,0.0324,0.013523,0.002678,0.000431,0.000353
33346000,0.0324,0.013523,0.002678,0.000431,0.000353
33347000,0.0324,0.013523,0.002678,0.000431,0.000235
33348000,0.0324,0.013523,0.002678,0.000431,0.000353
33349000,0.0324,0.013523,0.002678,0.000431,0.000470
33350000,0.0324,0.013523,0.002678,0.000431,0.000353
33351000,0.0324,0.013523,0.002678,0.000431,0.000235
33352000,0.0324,0.013523,0.002678,0.000431,0.000353
33353000,0.0324,0.013523,0.002678,0.000431,0.000353
33354000,0.0324,0.013523,0.002678,0.000431,0.000235
33355000,0.0324,0.013523,0.002678,0.000431,0.000353
33356000,0.0324,0.013523,0.002678,0.000431,0.000470
33357000,0.0324,0.013523,0.002678,0.000431,0.000353
33358000,0.0324,0.013523,0.002678,0.000431,0.000235
33359000,0.0324,0.013523,0.002678,0.000431,0.000353
33360000,0.0324,0.013523,0.002678,0.000431,0.000353
33361000,0.0324,0.013523,0.002678,0.000431,0.000235
33362000,0.0324,0.013523,0.002678,0.000431,0.000353
33363000,0.0324,0.013523,0.002678,0.000431,0.000470
33364000,0.0324,0.013523,0.002678,0.000431,0.000353
33365000,0.0324,0.013523,0.002678,0.000431,0.000118
33366000,0.0324,0.013523,0.002678,0.000431,0.000470
33367000,0.0324,0.013523,0.002678,0.000431,0.000353
33368000,0.0324,0.013523,0.002678,0.000431,0.000235
33369000,0.0324,0.013523,0.002678,0.000431,0.000353
33370000,0.0324,0.013523,0.002678,0.000431,0.000470
33371000,0.0324,0.013523,0.002678,0.000431,0.000353
33372000,0.0324,0.013523,0.002678,0.000431,0.000118
33373000,0.0324,0.013523,0.002678,0.000431,0.000470
33374000,0.0324,0.013523,0.002678,0.000431,0.000353
33375000,0.0324,0.013523,0.002678,0.000431,0.000235
33376000,0.0324,0.013523,0.002678,0.000431,0.000353
33377000,0.0324,0.013523,0.002678,0.000431,0.000470
33378000,0.0324,0.013523,0.002678,0.000431,0.000353
33379000,0.0324,0.013523,0.002678,0.000431,0.000118
33380000,0.0324,0.013523,0.002678,0.000431,0.000470
33381000,0.0324,0.013523,0.002678,0.000431,0.000353
33382000,0.0324,0.013523,0.002678,0.000431,0.000235
33383000,0.0324,0.013523,0.002678,0.000431,0.000353
33384000,0.0324,0.013523,0.002678,0.000431,0.000470
33385000,0.0324,0.013523,0.002678,0.000431,0.000353
33386000,0.0324,0.013523,0.002678,0.000431,0.000118
33387000,0.0324,0.013523,0.002678,0.000431,0.000470
33388000,0.0324,0.013523,0.002678,0.000431,0.000353
33389000,0.0324,0.013523,0.002678,0.000431,0.000235
33390000,0.0324,0.013523,0.002678,0.000431,0.000353
33391000,0.0324,0.013523,0.002678,0.000431,0.000470
33392000,0.0324,0.013523,0.002678,0.000431,0.000235
33393000,0.0324,0.013523,0.002678,0.000431,0.000235
33394000,0.0324,0.013523,0.002678,0.000431,0.000470
33395000,0.0324,0.013523,0.002678,0.000431,0.000353
33396000,0.0324,0.013523,0.002678,0.000431,0.000235
33397000,0.0324,0.013523,0.002678,0.000431,0.000353
33398000,0.0324,0.013523,0.002678,0.000431,0.000470
33399000,0.0324,0.013523,0.002678,0.000431,0.000235
33400000,0.0324,0.013523,0.002678,0.000431,0.000235
33401000,0.0324,0.013523,0.002678,0.000431,0.000470
33402000,0.0324,0.013523,0.002678,0.000431,0.000353
33403000,0.0324,0.013523,0.002678,0.000431,0.000235
33404000,0.0324,0.013523,0.002678,0.000431,0.000353
33405000,0.0324,0.013523,0.002678,0.000431,0.000470
33406000,0.0324,0.013523,0.002678,0.000431,0.000235
33407000,0.0324,0.013523,0.002678,0.000431,0.000235
33408000,0.0324,0.013523,0.002678,0.000431,0.000470
33409000,0.0324,0.013523,0.002678,0.000431,0.000353
33410000,0.0324,0.013523,0.002678,0.000431,0.000235
33411000,0.0324,0.013523,0.002678,0.000431,0.000353
33412000,0.0324,0.013523,0.002678,0.000431,0.000470
33413000,0.0324,0.013523,0.002678,0.000431,0.000235
33414000,0.0324,0.013523,0.002678,0.000431,0.000235
33415000,0.0324,0.013523,0.002678,0.000431,0.000470
33416000,0.0324,0.013523,0.002678,0.000431,0.000353
33417000,0.0324,0.013523,0.002678,0.000431,0.000235
33418000,0.0324,0.013523,0.002678,0.000431,0.000353
33419000,0.0324,0.013523,0.002678,0.000431,0.000470
33420000,0.0324,0.013523,0.002678,0.000431,0.000235
33421000,0.0324,0.013523,0.002678,0.000431,0.000235
33422000,0.0324,0.013523,0.002678,0.000431,0.000470
33423000,0.0324,0.013523,0.002678,0.000431,0.000353
33424000,0.0324,0.013523,0.002678,0.000431,0.000235
33425000,0.0324,0.013523,0.002678,0.000431,0.000353
33426000,0.0324,0.013523,0.002678,0.000431,0.000470
33427000,0.0324,0.013523,0.002678,0.000431,0.000235
33428000,0.0324,0.013523,0.002678,0.000431,0.000235
33429000,0.0324,0.013523,0.002678,0.000431,0.000470
33430000,0.0324,0.013523,0.002678,0.000431,0.000353
33431000,0.0324,0.013523,0.002678,0.000431,0.000235
33432000,0.0324,0.013523,0.002678,0.000431,0.000353
33433000,0.0324,0.013523,0.002678,0.000431,0.000470
33434000,0.0324,0.013523,0.002678,0.000431,0.000118
33435000,0.0324,0.013523,0.002678,0.000431,0.000353
33436000,0.0324,0.013523,0.002678,0.000431,0.000470
33437000,0.0324,0.013523,0.002678,0.000431,0.000353
33438000,0.0324,0.013523,0.002678,0.000431,0.000235
33439000,0.0324,0.013523,0.002678,0.000431,0.000353
33440000,0.0324,0.013523,0.002678,0.000431,0.000470
33441000,0.0324,0.013523,0.002678,0.000431,0.000118
33442000,0.0324,0.013523,0.002678,0.000431,0.000353
33443000,0.0324,0.013523,0.002678,0.000431,0.000470
33444000,0.0324,0.013523,0.002678,0.000431,0.000353
33445000,0.0324,0.013523,0.002678,0.000431,0.000235
33446000,0.0324,0.013523,0.002678,0.000431,0.000353
33447000,0.0324,0.013523,0.002678,0.000431,0.000470
33448000,0.0324,0.013523,0.002678,0.000431,0.000118
33449000,0.0324,0.013523,0.002678,0.000431,0.000353
33450000,0.0324,0.013523,0.002678,0.000431,0.000470
33451000,0.0324,0.013523,0.002678,0.000431,0.000353
33452000,0.0324,0.013523,0.002678,0.000431,0.000235
33453000,0.0324,0.013523,0.002678,0.000431,0.000353
33454000,0.0324,0.013523,0.002678,0.000431,0.000353
33455000,0.0324,0.013523,0.002678,0.000431,0.000235
33456000,0.0324,0.013523,0.002678,0.000431,0.000353
33457000,0.0324,0.013523,0.002678,0.000431,0.000470
33458000,0.0324,0.013523,0.002678,0.000431,0.000353
33459000,0.0324,0.013523,0.002678,0.000431,0.000235
33460000,0.0324,0.013523,0.002678,0.000431,0.000353
33461000,0.0324,0.013523,0.002678,0.000431,0.000353
33462000,0.0324,0.013523,0.002678,0.000431,0.000235
33463000,0.0324,0.013523,0.002678,0.000431,0.000353
33464000,0.0324,0.013523,0.002678,0.000431,0.000470
33465000,0.0324,0.013523,0.002678,0.000431,0.000353
33466000,0.0324,0.013523,0.002678,0.000431,0.000235
33467000,0.0324,0.013523,0.002678,0.000431,0.000353
33468000,0.0324,0.013523,0.002678,0.000431,0.000353
33469000,0.0324,0.013523,0.002678,0.000431,0.000235
33470000,0.0324,0.013523,0.002678,0.000431,0.000353
33471000,0.0324,0.013523,0.002678,0.000431,0.000470
33472000,0.0324,0.013523,0.002678,0.000431,0.000353
33473000,0.0324,0.013523,0.002678,0.000431,0.000235
33474000,0.0324,0.013523,0.002678,0.000431,0.000353
33475000,0.0324,0.013523,0.002678,0.000431,0.000353
33476000,0.0324,0.013523,0.002678,0.000431,0.000235
33477000,0.0324,0.013523,0.002678,0.000431,0.000353
33478000,0.0324,0.013523,0.002678,0.000431,0.000470
33479000,0.0324,0.013523,0.002678,0.000431,0.000353
33480000,0.0324,0.013523,0.002678,0.000431,0.000235
33481000,0.0324,0.013523,0.002678,0.000431,0.000353
33482000,0.0324,0.013523,0.002678,0.000431,0.000353
33483000,0.0324,0.013523,0.002678,0.000431,0.000235
33484000,0.0324,0.013523,0.002678,0.000431,0.000353
33485000,0.0324,0.013523,0.002678,0.000431,0.000470
33486000,0.0324,0.013523,0.002678,0.000431,0.000353
33487000,0.0324,0.013523,0.002678,0.000431,0.000235
33488000,0.0324,0.013523,0.002678,0.000431,0.000353
33489000,0.0324,0.013523,0.002678,0.000431,0.000353
33490000,0.0324,0.013523,0.002678,0.000431,0.000235
33491000,0.0324,0.013523,0.002678,0.000431,0.000353
33492000,0.0324,0.013523,0.002678,0.000431,0.000470
33493000,0.0324,0.013523,0.002678,0.000431,0.000353
33494000,0.0324,0.013523,0.002678,0.000431,0.000235
33495000,0.0324,0.013523,0.002678,0.000431,0.000353
33496000,0.0324,0.013523,0.002678,0.000431,0.000353
33497000,0.0324,0.013523,0.002678,0.000431,0.000235
33498000,0.0324,0.013523,0.002678,0.000431,0.000353
33499000,0.0324,0.013523,0.002678,0.000431,0.000470
33500000,0.0324,0.013523,0.002678,0.000431,0.000353
33501000,0.0324,0.013523,0.002678,0.000431,0.000235
33502000,0.0324,0.013523,0.002678,0.000431,0.000353
33503000,0.0324,0.013523,0.002678,0.000431,0.000353
33504000,0.0324,0.013523,0.002678,0.000431,0.000235
33505000,0.0324,0.013523,0.002678,0.000431,0.000353
33506000,0.0324,0.013523,0.002678,0.000431,0.000470
33507000,0.0324,0.013523,0.002678,0.000431,0.000353
33508000,0.0324,0.013523,0.002678,0.000431,0.000118
33509000,0.0324,0.013523,0.002678,0.000431,0.000470
33510000,0.0324,0.013523,0.002678,0.000431,0.000353
33511000,0.0324,0.013523,0.002678,0.000431,0.000235
33512000,0.0324,0.013523,0.002678,0.000431,0.000353
33513000,0.0324,0.013523,0.002678,0.000431,0.000470
33514000,0.0324,0.013523,0.002678,0.000431,0.000353
33515000,0.0324,0.013523,0.002678,0.000431,0.000118
33516000,0.0324,0.013523,0.002678,0.000431,0.000470
33517000,0.0324,0.013523,0.002678,0.000431,0.000353
33518000,0.0324,0.013523,0.002678,0.000431,0.000235
33519000,0.0324,0.013523,0.002678,0.000431,0.000353
33520000,0.0324,0.013523,0.002678,0.000431,0.000470
33521000,0.0324,0.013523,0.002678,0.000431,0.000353
33522000,0.0324,0.013523,0.002678,0.000431,0.000118
33523000,0.0324,0.013523,0.002678,0.000431,0.000470
33524000,0.0324,0.013523,0.002678,0.000431,0.000353
33525000,0.0324,0.013523,0.002678,0.000431,0.000235
33526000,0.0324,0.013523,0.002678,0.000431,0.000353
33527000,0.0324,0.013523,0.002678,0.000431,0.000470
33528000,0.0324,0.013523,0.002678,0.000431,0.000235
33529000,0.0324,0.013523,0.002678,0.000431,0.000235
33530000,0.0324,0.013523,0.002678,0.000431,0.000470
33531000,0.0324,0.013523,0.002678,0.000431,0.000353
33532000,0.0324,0.013523,0.002678,0.000431,0.000235
33533000,0.0324,0.013523,0.002678,0.000431,0.000353
33534000,0.0324,0.013523,0.002678,0.000431,0.000470
33535000,0.0324,0.013523,0.002678,0.000431,0.000235
33536000,0.0324,0.013523,0.002678,0.000431,0.000235
33537000,0.0324,0.013523,0.002678,0.000431,0.000470
33538000,0.0324,0.013523,0.002678,0.000431,0.000353
33539000,0.0324,0.013523,0.002678,0.000431,0.000235
33540000,0.0324,0.013523,0.002678,0.000431,0.000353
33541000,0.0324,0.013523,0.002678,0.000431,0.000470
33542000,0.0324,0.013523,0.002678,0.000431,0.000235
33543000,0.0324,0.013523,0.002678,0.000431,0.000235
33544000,0.0324,0.013523,0.002678,0.000431,0.000470
33545000,0.0324,0.013523,0.002678,0.000431,0.000353
33546000,0.0324,0.013523,0.002678,0.000431,0.000235
33547000,0.0324,0.013523,0.002678,0.000431,0.000353
33548000,0.0324,0.013523,0.002678,0.000431,0.000470
33549000,0.0324,0.013523,0.002678,0.000431,0.000235
33550000,0.0324,0.013523,0.002678,0.000431,0.000235
33551000,0.0324,0.013523,0.002678,0.000431,0.000470
33552000,0.0324,0.013523,0.002678,0.000431,0.000353
33553000,0.0324,0.013523,0.002678,0.000431,0.000235
33554000,0.0324,0.013523,0.002678,0.000431,0.000353
33555000,0.0324,0.013523,0.002678,0.000431,0.000470
33556000,0.0324,0.013523,0.002678,0.000431,0.000235
33557000,0.0324,0.013523,0.002678,0.000431,0.000235
33558000,0.0324,0.013523,0.002678,0.000431,0.000470
33559000,0.0324,0.013523,0.002678,0.000431,0.000353
33560000,0.0324,0.013523,0.002678,0.000431,0.000235
33561000,0.0324,0.013523,0.002678,0.000431,0.000353
33562000,0.0324,0.013523,0.002678,0.000431,0.000470
33563000,0.0324,0.013523,0.002678,0.000431,0.000235
33564000,0.0324,0.013523,0.002678,0.000431,0.000235
33565000,0.0324,0.013523,0.002678,0.000431,0.000470
33566000,0.0324,0.013523,0.002678,0.000431,0.000353
33567000,0.0324,0.013523,0.002678,0.000431,0.000235
33568000,0.0324,0.013523,0.002678,0.000431,0.000353
33569000,0.0324,0.013523,0.002678,0.000431,0.000470
33570000,0.0324,0.013523,0.002678,0.000431,0.000118
33571000,0.0324,0.013523,0.002678,0.000431,0.000353
33572000,0.0324,0.013523,0.002678,0.000431,0.000470
33573000,0.0324,0.013523,0.002678,0.000431,0.000353
33574000,0.0324,0.013523,0.002678,0.000431,0.000235
33575000,0.0324,0.013523,0.002678,0.000431,0.000353
33576000,0.0324,0.013523,0.002678,0.000431,0.000470
33577000,0.0324,0.013523,0.002678,0.000431,0.000118
33578000,0.0324,0.013523,0.002678,0.000431,0.000353
33579000,0.0324,0.013523,0.002678,0.000431,0.000470
33580000,0.0324,0.013523,0.002678,0.000431,0.000353
33581000,0.0324,0.013523,0.002678,0.000431,0.000235
33582000,0.0324,0.013523,0.002678,0.000431,0.000353
33583000,0.0324,0.013523,0.002678,0.000431,0.000470
33584000,0.0324,0.013523,0.002678,0.000431,0.000118
33585000,0.0324,0.013523,0.002678,0.000431,0.000353
33586000,0.0324,0.013523,0.002678,0.000431,0.000470
33587000,0.0324,0.013523,0.002678,0.000431,0.000353
33588000,0.0324,0.013523,0.002678,0.000431,0.000235
33589000,0.0324,0.013523,0.002678,0.000431,0.000353
33590000,0.0324,0.013523,0.002678,0.000431,0.000470
33591000,0.0324,0.013523,0.002678,0.000431,0.000118
33592000,0.0324,0.013523,0.002678,0.000431,0.000353
33593000,0.0324,0.013523,0.002678,0.000431,0.000470
33594000,0.0324,0.013523,0.002678,0.000431,0.000353
33595000,0.0324,0.013523,0.002678,0.000431,0.000235
33596000,0.0324,0.013523,0.002678,0.000431,0.000353
33597000,0.0324,0.013523,0.002678,0.000431,0.000353
33598000,0.0324,0.013523,0.002678,0.000431,0.000235
33599000,0.0324,0.013523,0.002678,0.000431,0.000353
33600000,0.0324,0.013523,0.002678,0.000431,0.000470
33601000,0.0324,0.013523,0.002678,0.000431,0.000353
33602000,0.0324,0.013523,0.002678,0.000431,0.000235
33603000,0.0324,0.013523,0.002678,0.000431,0.000353
33604000,0.0324,0.013523,0.002678,0.000431,0.000353
33605000,0.0324,0.013523,0.002678,0.000431,0.000235
33606000,0.0324,0.013523,0.002678,0.000431,0.000353
33607000,0.0324,0.013523,0.002678,0.000431,0.000470
33608000,0.0324,0.013523,0.002678,0.000431,0.000353
33609000,0.0324,0.013523,0.002678,0.000431,0.000235
33610000,0.0324,0.013523,0.002678,0.000431,0.000353
33611000,0.0324,0.013523,0.002678,0.000431,0.000353
33612000,0.0324,0.013523,0.002678,0.000431,0.000235
33613000,0.0324,0.013523,0.002678,0.000431,0.000353
33614000,0.0324,0.013523,0.002678,0.000431,0.000470
33615000,0.0324,0.013523,0.002678,0.000431,0.000353
33616000,0.0324,0.013523,0.002678,0.000431,0.000235
33617000,0.0324,0.013523,0.002678,0.000431,0.000353
33618000,0.0324,0.013523,0.002678,0.000431,0.000353
33619000,0.0324,0.013523,0.002678,0.000431,0.000235
33620000,0.0324,0.013523,0.002678,0.000431,0.000353
33621000,0.0324,0.013523,0.002678,0.000431,0.000470
33622000,0.0324,0.013523,0.002678,0.000431,0.000353
33623000,0.0324,0.013523,0.002678,0.000431,0.000235
33624000,0.0324,0.013523,0.002678,0.000431,0.000353
33625000,0.0324,0.013523,0.002678,0.000431,0.000353
33626000,0.0324,0.013523,0.002678,0.000431,0.000235
33627000,0.0324,0.013523,0.002678,0.000431,0.000353
33628000,0.0324,0.013523,0.002678,0.000431,0.000470
33629000,0.0324,0.013523,0.002678,0.000431,0.000353
33630000,0.0324,0.013523,0.002678,0.000431,0.000235
33631000,0.0324,0.013523,0.002678,0.000431,0.000353
33632000,0.0324,0.013523,0.002678,0.000431,0.000353
33633000,0.0324,0.013523,0.002678,0.000431,0.000235
33634000,0.0324,0.013523,0.002678,0.000431,0.000353
33635000,0.0324,0.013523,0.002678,0.000431,0.000470
33636000,0.0324,0.013523,0.002678,0.000431,0.000353
33637000,0.0324,0.013523,0.002678,0.000431,0.000235
33638000,0.0324,0.013523,0.002678,0.000431,0.000353
33639000,0.0324,0.013523,0.002678,0.000431,0.000353
33640000,0.0324,0.013523,0.002678,0.000431,0.000235
33641000,0.0324,0.013523,0.002678,0.000431,0.000353
33642000,0.0324,0.013523,0.002678,0.000431,0.000470
33643000,0.0324,0.013523,0.002678,0.000431,0.000353
33644000,0.0324,0.013523,0.002678,0.000431,0.000118
33645000,0.0324,0.013523,0.002678,0.000431,0.000470
33646000,0.0324,0.013523,0.002678,0.000431,0.000353
33647000,0.0324,0.013523,0.002678,0.000431,0.000235
33648000,0.0324,0.013523,0.002678,0.000431,0.000353
33649000,0.0324,0.013523,0.002678,0.000431,0.000470
33650000,0.0324,0.013523,0.002678,0.000431,0.000353
33651000,0.0324,0.013523,0.002678,0.000431,0.000118
33652000,0.0324,0.013523,0.002678,0.000431,0.000470
33653000,0.0324,0.013523,0.002678,0.000431,0.000353
33654000,0.0324,0.013523,0.002678,0.000431,0.000235
33655000,0.0324,0.013523,0.002678,0.000431,0.000353
33656000,0.0324,0.013523,0.002678,0.000431,0.000470
33657000,0.0324,0.013523,0.002678,0.000431,0.000353
33658000,0.0324,0.013523,0.002678,0.000431,0.000118
33659000,0.0324,0.013523,0.002678,0.000431,0.000470
33660000,0.0324,0.013523,0.002678,0.000431,0.000353
33661000,0.0324,0.013523,0.002678,0.000431,0.000235
33662000,0.0324,0.013523,0.002678,0.000431,0.000353
33663000,0.0324,0.013523,0.002678,0.000431,0.000470
33664000,0.0324,0.013523,0.002678,0.000431,0.000353
33665000,0.0324,0.013523,0.002678,0.000431,0.000118
33666000,0.0324,0.013523,0.002678,0.000431,0.000470
33667000,0.0324,0.013523,0.002678,0.000431,0.000353
33668000,0.0324,0.013523,0.002678,0.000431,0.000235
33669000,0.0324,0.013523,0.002678,0.000431,0.000353
33670000,0.0324,0.013523,0.002678,0.000431,0.000470
33671000,0.0324,0.013523,0.002678,0.000431,0.000235
33672000,0.0324,0.013523,0.002678,0.000431,0.000235
33673000,0.0324,0.013523,0.002678,0.000431,0.000470
33674000,0.0324,0.013523,0.002678,0.000431,0.000353
33675000,0.0324,0.013523,0.002678,0.000431,0.000235
33676000,0.0324,0.013523,0.002678,0.000431,0.000353
33677000,0.0324,0.013523,0.002678,0.000431,0.000470
33678000,0.0324,0.013523,0.002678,0.000431,0.000235
33679000,0.0324,0.013523,0.002678,0.000431,0.000235
33680000,0.0324,0.013523,0.002678,0.000431,0.000470
33681000,0.0324,0.013523,0.002678,0.000431,0.000353
33682000,0.0324,0.013523,0.002678,0.000431,0.000235
33683000,0.0324,0.013523,0.002678,0.000431,0.000353
33684000,0.0324,0.013523,0.002678,0.000431,0.000470
33685000,0.0324,0.013523,0.002678,0.000431,0.000235
33686000,0.0324,0.013523,0.002678,0.000431,0.000235
33687000,0.0324,0.013523,0.002678,0.000431,0.000470
33688000,0.0324,0.013523,0.002678,0.000431,0.000353
33689000,0.0324,0.013523,0.002678,0.000431,0.000235
33690000,0.0324,0.013523,0.002678,0.000431,0.000353
33691000,0.0324,0.013523,0.002678,0.000431,0.000470
33692000,0.0324,0.013523,0.002678,0.000431,0.000235
33693000,0.0324,0.013523,0.002678,0.000431,0.000235
33694000,0.0324,0.013523,0.002678,0.000431,0.000470
33695000,0.0324,0.013523,0.002678,0.000431,0.000353
33696000,0.0324,0.013523,0.002678,0.000431,0.000235
33697000,0.0324,0.013523,0.002678,0.000431,0.000353
33698000,0.0324,0.013523,0.002678,0.000431,0.000470
33699000,0.0324,0.013523,0.002678,0.000431,0.000235
33700000,0.0324,0.013523,0.002678,0.000431,0.000235
33701000,0.0324,0.013523,0.002678,0.000431,0.000470
33702000,0.0324,0.013523,0.002678,0.000431,0.000353
33703000,0.0324,0.013523,0.002678,0.000431,0.000235
33704000,0.0324,0.013523,0.002678,0.000431,0.000353
33705000,0.0324,0.013523,0.002678,0.000431,0.000470
33706000,0.0324,0.013523,0.002678,0.000431,0.000235
33707000,0.0324,0.013523,0.002678,0.000431,0.000235
33708000,0.0324,0.013523,0.002678,0.000431,0.000470
33709000,0.0324,0.013523,0.002678,0.000431,0.000353
33710000,0.0324,0.013523,0.002678,0.000431,0.000235
33711000,0.0324,0.013523,0.002678,0.000431,0.000353
33712000,0.0324,0.013523,0.002678,0.000431,0.000470
33713000,0.0324,0.013523,0.002678,0.000431,0.000118
33714000,0.0324,0.013523,0.002678,0.000431,0.000353
33715000,0.0324,0.013523,0.002678,0.000431,0.000470
33716000,0.0324,0.013523,0.002678,0.000431,0.000353
33717000,0.0324,0.013523,0.002678,0.000431,0.000235
33718000,0.0324,0.013523,0.002678,0.000431,0.000353
33719000,0.0324,0.013523,0.002678,0.000431,0.000470
33720000,0.0324,0.013523,0.002678,0.000431,0.000118
33721000,0.0324,0.013523,0.002678,0.000431,0.000353
33722000,0.0324,0.013523,0.002678,0.000431,0.000470
33723000,0.0324,0.013523,0.002678,0.000431,0.000353
33724000,0.0324,0.013523,0.002678,0.000431,0.000235
33725000,0.0324,0.013523,0.002678,0.000431,0.000353
33726000,0.0324,0.013523,0.002678,0.000431,0.000470
33727000,0.0324,0.013523,0.002678,0.000431,0.000118
33728000,0.0324,0.013523,0.002678,0.000431,0.000353
33729000,0.0324,0.013523,0.002678,0.000431,0.000470
33730000,0.0324,0.013523,0.002678,0.000431,0.000353
33731000,0.0324,0.013523,0.002678,0.000431,0.000235
33732000,0.0324,0.013523,0.002678,0.000431,0.000353
33733000,0.0324,0.013523,0.002678,0.000431,0.000353
33734000,0.0324,0.013523,0.002678,0.000431,0.000235
33735000,0.0324,0.013523,0.002678,0.000431,0.000353
33736000,0.0324,0.013523,0.002678,0.000431,0.000470
33737000,0.0324,0.013523,0.002678,0.000431,0.000353
33738000,0.0324,0.013523,0.002678,0.000431,0.000235
33739000,0.0324,0.013523,0.002678,0.000431,0.000353
33740000,0.0324,0.013523,0.002678,0.000431,0.000353
33741000,0.0324,0.013523,0.002678,0.000431,0.000235
33742000,0.0324,0.013523,0.002678,0.000431,0.000353
33743000,0.0324,0.013523,0.002678,0.000431,0.000470
33744000,0.0324,0.013523,0.002678,0.000431,0.000353
33745000,0.0324,0.013523,0.002678,0.000431,0.000235
33746000,0.0324,0.013523,0.002678,0.000431,0.000353
33747000,0.0324,0.013523,0.002678,0.000431,0.000353
33748000,0.0324,0.013523,0.002678,0.000431,0.000235
33749000,0.0324,0.013523,0.002678,0.000431,0.000353
33750000,0.0324,0.013523,0.002678,0.000431,0.000470
33751000,0.0324,0.013523,0.002678,0.000431,0.000353
33752000,0.0324,0.013523,0.002678,0.000431,0.000235
33753000,0.0324,0.013523,0.002678,0.000431,0.000353
33754000,0.0324,0.013523,0.002678,0.000431,0.000353
33755000,0.0324,0.013523,0.002678,0.000431,0.000235
33756000,0.0324,0.013523,0.002678,0.000431,0.000353
33757000,0.0324,0.013523,0.002678,0.000431,0.000470
33758000,0.0324,0.013523,0.002678,0.000431,0.000353
33759000,0.0324,0.013523,0.002678,0.000431,0.000235
33760000,0.0324,0.013523,0.002678,0.000431,0.000353
33761000,0.0324,0.013523,0.002678,0.000431,0.000353
33762000,0.0324,0.013523,0.002678,0.000431,0.000235
33763000,0.0324,0.013523,0.002678,0.000431,0.000353
33764000,0.0324,0.013523,0.002678,0.000431,0.000470
33765000,0.0324,0.013523,0.002678,0.000431,0.000353
33766000,0.0324,0.013523,0.002678,0.000431,0.000235
33767000,0.0324,0.013523,0.002678,0.000431,0.000353
33768000,0.0324,0.013523,0.002678,0.000431,0.000353
33769000,0.0324,0.013523,0.002678,0.000431,0.000235
33770000,0.0324,0.013523,0.002678,0.000431,0.000353
33771000,0.0324,0.013523,0.002678,0.000431,0.000470
33772000,0.0324,0.013523,0.002678,0.000431,0.000353
33773000,0.0324,0.013523,0.002678,0.000431,0.000235
33774000,0.0324,0.013523,0.002678,0.000431,0.000353
33775000,0.0324,0.013523,0.002678,0.000431,0.000353
33776000,0.0324,0.013523,0.002678,0.000431,0.000235
33777000,0.0324,0.013523,0.002678,0.000431,0.000353
33778000,0.0324,0.013523,0.002678,0.000431,0.000470
33779000,0.0324,0.013523,0.002678,0.000431,0.000353
33780000,0.0324,0.013523,0.002678,0.000431,0.000235
33781000,0.0324,0.013523,0.002678,0.000431,0.000353
33782000,0.0324,0.013523,0.002678,0.000431,0.000353
33783000,0.0324,0.013523,0.002678,0.000431,0.000235
33784000,0.0324,0.013523,0.002678,0.000431,0.000353
33785000,0.0324,0.013523,0.002678,0.000431,0.000470
33786000,0.0324,0.013523,0.002678,0.000431,0.000353
33787000,0.0324,0.013523,0.002678,0.000431,0.000118
33788000,0.0324,0.013523,0.002678,0.000431,0.000470
33789000,0.0324,0.013523,0.002678,0.000431,0.000353
33790000,0.0324,0.013523,0.002678,0.000431,0.000235
33791000,0.0324,0.013523,0.002678,0.000431,0.000353
33792000,0.0324,0.013523,0.002678,0.000431,0.000470
33793000,0.0324,0.013523,0.002678,0.000431,0.000353
33794000,0.0324,0.013523,0.002678,0.000431,0.000118
33795000,0.0324,0.013523,0.002678,0.000431,0.000470
33796000,0.0324,0.013523,0.002678,0.000431,0.000353
33797000,0.0324,0.013523,0.002678,0.000431,0.000235
33798000,0.0324,0.013523,0.002678,0.000431,0.000353
33799000,0.0324,0.013523,0.002678,0.000431,0.000470
33800000,0.0324,0.013523,0.002678,0.000431,0.000353
33801000,0.0324,0.013523,0.002678,0.000431,0.000118
33802000,0.0324,0.013523,0.002678,0.000431,0.000470
33803000,0.0324,0.013523,0.002678,0.000431,0.000353
33804000,0.0324,0.013523,0.002678,0.000431,0.000235
33805000,0.0324,0.013523,0.002678,0.000431,0.000353
33806000,0.0324,0.013523,0.002678,0.000431,0.000470
33807000,0.0324,0.013523,0.002678,0.000431,0.000235
33808000,0.0324,0.013523,0.002678,0.000431,0.000235
33809000,0.0324,0.013523,0.002678,0.000431,0.000470
33810000,0.0324,0.013523,0.002678,0.000431,0.000353
33811000,0.0324,0.013523,0.002678,0.000431,0.000235
33812000,0.0324,0.013523,0.002678,0.000431,0.000353
33813000,0.0324,0.013523,0.002678,0.000431,0.000470
33814000,0.0324,0.013523,0.002678,0.000431,0.000235
33815000,0.0324,0.013523,0.002678,0.000431,0.000235
33816000,0.0324,0.013523,0.002678,0.000431,0.000470
33817000,0.0324,0.013523,0.002678,0.000431,0.000353
33818000,0.0324,0.013523,0.002678,0.000431,0.000235
33819000,0.0324,0.013523,0.002678,0.000431,0.000353
33820000,0.0324,0.013523,0.002678,0.000431,0.000470
33821000,0.0324,0.013523,0.002678,0.000431,0.000235
33822000,0.0324,0.013523,0.002678,0.000431,0.000235
33823000,0.0324,0.013523,0.002678,0.000431,0.000470
33824000,0.0324,0.013523,0.002678,0.000431,0.000353
33825000,0.0324,0.013523,0.002678,0.000431,0.000235
33826000,0.0324,0.013523,0.002678,0.000431,0.000353
33827000,0.0324,0.013523,0.002678,0.000431,0.000470
33828000,0.0324,0.013523,0.002678,0.000431,0.000235
33829000,0.0324,0.013523,0.002678,0.000431,0.000235
33830000,0.0324,0.013523,0.002678,0.000431,0.000470
33831000,0.0324,0.013523,0.002678,0.000431,0.000353
33832000,0.0324,0.013523,0.002678,0.000431,0.000235
33833000,0.0324,0.013523,0.002678,0.000431,0.000353
33834000,0.0324,0.013523,0.002678,0.000431,0.000470
33835000,0.0324,0.013523,0.002678,0.000431,0.000235
33836000,0.0324,0.013523,0.002678,0.000431,0.000235
33837000,0.0324,0.013523,0.002678,0.000431,0.000470
33838000,0.0324,0.013523,0.002678,0.000431,0.000353
33839000,0.0324,0.013523,0.002678,0.000431,0.000235
33840000,0.0324,0.013523,0.002678,0.000431,0.000353
33841000,0.0324,0.013523,0.002678,0.000431,0.000470
33842000,0.0324,0.013523,0.002678,0.000431,0.000235
33843000,0.0324,0.013523,0.002678,0.000431,0.000235
33844000,0.0324,0.013523,0.002678,0.000431,0.000470
33845000,0.0324,0.013523,0.002678,0.000431,0.000353
33846000,0.0324,0.013523,0.002678,0.000431,0.000235
33847000,0.0324,0.013523,0.002678,0.000431,0.000353
33848000,0.0324,0.013523,0.002678,0.000431,0.000470
33849000,0.0324,0.013523,0.002678,0.000431,0.000118
33850000,0.0324,0.013523,0.002678,0.000431,0.000353
33851000,0.0324,0.013523,0.002678,0.000431,0.000470
33852000,0.0324,0.013523,0.002678,0.000431,0.000353
33853000,0.0324,0.013523,0.002678,0.000431,0.000235
33854000,0.0324,0.013523,0.002678,0.000431,0.000353
33855000,0.0324,0.013523,0.002678,0.000431,0.000470
33856000,0.0324,0.013523,0.002678,0.000431,0.000118
33857000,0.0324,0.013523,0.002678,0.000431,0.000353
33858000,0.0324,0.013523,0.002678,0.000431,0.000470
33859000,0.0324,0.013523,0.002678,0.000431,0.000353
33860000,0.0324,0.013523,0.002678,0.000431,0.000235
33861000,0.0324,0.013523,0.002678,0.000431,0.000353
33862000,0.0324,0.013523,0.002678,0.000431,0.000470
33863000,0.0324,0.013523,0.002678,0.000431,0.000118
33864000,0.0324,0.013523,0.002678,0.000431,0.000353
33865000,0.0324,0.013523,0.002678,0.000431,0.000470
33866000,0.0324,0.013523,0.002678,0.000431,0.000353
33867000,0.0324,0.013523,0.002678,0.000431,0.000235
33868000,0.0324,0.013523,0.002678,0.000431,0.000353
33869000,0.0324,0.013523,0.002678,0.000431,0.000470
33870000,0.0324,0.013523,0.002678,0.000431,0.000118
33871000,0.0324,0.013523,0.002678,0.000431,0.000353
33872000,0.0324,0.013523,0.002678,0.000431,0.000470
33873000,0.0324,0.013523,0.002678,0.000431,0.000353
33874000,0.0324,0.013523,0.002678,0.000431,0.000235
33875000,0.0324,0.013523,0.002678,0.000431,0.000353
33876000,0.0324,0.013523,0.002678,0.000431,0.000353
33877000,0.0324,0.013523,0.002678,0.000431,0.000235
33878000,0.0324,0.013523,0.002678,0.000431,0.000353
33879000,0.0324,0.013523,0.002678,0.000431,0.000470
33880000,0.0324,0.013523,0.002678,0.000431,0.000353
33881000,0.0324,0.013523,0.002678,0.000431,0.000235
33882000,0.0324,0.013523,0.002678,0.000431,0.000353
33883000,0.0324,0.013523,0.002678,0.000431,0.000353
33884000,0.0324,0.013523,0.002678,0.000431,0.000235
33885000,0.0324,0.013523,0.002678,0.000431,0.000353
33886000,0.0324,0.013523,0.002678,0.000431,0.000470
33887000,0.0324,0.013523,0.002678,0.000431,0.000353
33888000,0.0324,0.013523,0.002678,0.000431,0.000235
33889000,0.0324,0.013523,0.002678,0.000431,0.000353
33890000,0.0324,0.013523,0.002678,0.000431,0.000353
33891000,0.0324,0.013523,0.002678,0.000431,0.000235
33892000,0.0324,0.013523,0.002678,0.000431,0.000353
33893000,0.0324,0.013523,0.002678,0.000431,0.000470
33894000,0.0324,0.013523,0.002678,0.000431,0.000353
33895000,0.0324,0.013523,0.002678,0.000431,0.000235
33896000,0.0324,0.013523,0.002678,0.000431,0.000353
33897000,0.0324,0.013523,0.002678,0.000431,0.000353
33898000,0.0324,0.013523,0.002678,0.000431,0.000235
33899000,0.0324,0.013523,0.002678,0.000431,0.000353
33900000,0.0324,0.013523,0.002678,0.000431,0.000470
33901000,0.0324,0.013523,0.002678,0.000431,0.000353
33902000,0.0324,0.013523,0.002678,0.000431,0.000235
33903000,0.0324,0.013523,0.002678,0.000431,0.000353
33904000,0.0324,0.013523,0.002678,0.000431,0.000353
33905000,0.0324,0.013523,0.002678,0.000431,0.000235
33906000,0.0324,0.013523,0.002678,0.000431,0.000353
33907000,0.0324,0.013523,0.002678,0.000431,0.000470
33908000,0.0324,0.013523,0.002678,0.000431,0.000353
33909000,0.0324,0.013523,0.002678,0.000431,0.000235
33910000,0.0324,0.013523,0.002678,0.000431,0.000353
33911000,0.0324,0.013523,0.002678,0.000431,0.000353
33912000,0.0324,0.013523,0.002678,0.000431,0.000235
33913000,0.0324,0.013523,0.002678,0.000431,0.000353
33914000,0.0324,0.013523,0.002678,0.000431,0.000470
33915000,0.0324,0.013523,0.002678,0.000431,0.000353
33916000,0.0324,0.013523,0.002678,0.000431,0.000235
33917000,0.0324,0.013523,0.002678,0.000431,0.000353
33918000,0.0324,0.013523,0.002678,0.000431,0.000353
33919000,0.0324,0.013523,0.002678,0.000431,0.000235
33920000,0.0324,0.013523,0.002678,0.000431,0.000353
33921000,0.0324,0.013523,0.002678,0.000431,0.000470
33922000,0.0324,0.013523,0.002678,0.000431,0.000353
33923000,0.0324,0.013523,0.002678,0.000431,0.000235
33924000,0.0324,0.013523,0.002678,0.000431,0.000353
33925000,0.0324,0.013523,0.002678,0.000431,0.000353
33926000,0.0324,0.013523,0.002678,0.000431,0.000235
33927000,0.0324,0.013523,0.002678,0.000431,0.000353
33928000,0.0324,0.013523,0.002678,0.000431,0.000470
33929000,0.0324,0.013523,0.002678,0.000431,0.000353
33930000,0.0324,0.013523,0.002678,0.000431,0.000118
33931000,0.0324,0.013523,0.002678,0.000431,0.000470
33932000,0.0324,0.013523,0.002678,0.000431,0.000353
33933000,0.0324,0.013523,0.002678,0.000431,0.000235
33934000,0.0324,0.013523,0.002678,0.000431,0.000353
33935000,0.0324,0.013523,0.002678,0.000431,0.000470
33936000,0.0324,0.013523,0.002678,0.000431,0.000353
33937000,0.0324,0.013523,0.002678,0.000431,0.000118
33938000,0.0324,0.013523,0.002678,0.000431,0.000470
33939000,0.0324,0.013523,0.002678,0.000431,0.000353
33940000,0.0324,0.013523,0.002678,0.000431,0.000235
33941000,0.0324,0.013523,0.002678,0.000431,0.000353
33942000,0.0324,0.013523,0.002678,0.000431,0.000470
33943000,0.0324,0.013523,0.002678,0.000431,0.000353
33944000,0.0324,0.013523,0.002678,0.000431,0.000118
33945000,0.0324,0.013523,0.002678,0.000431,0.000470
33946000,0.0324,0.013523,0.002678,0.000431,0.000353
33947000,0.0324,0.013523,0.002678,0.000431,0.000235
33948000,0.0324,0.013523,0.002678,0.000431,0.000353
33949000,0.0324,0.013523,0.002678,0.000431,0.000470
33950000,0.0324,0.013523,0.002678,0.000431,0.000235
33951000,0.0324,0.013523,0.002678,0.000431,0.000235
33952000,0.0324,0.013523,0.002678,0.000431,0.000470
33953000,0.0324,0.013523,0.002678,0.000431,0.000353
33954000,0.0324,0.013523,0.002678,0.000431,0.000235
33955000,0.0324,0.013523,0.002678,0.000431,0.000353
33956000,0.0324,0.013523,0.002678,0.000431,0.000470
33957000,0.0324,0.013523,0.002678,0.000431,0.000235
33958000,0.0324,0.013523,0.002678,0.000431,0.000235
33959000,0.0324,0.013523,0.002678,0.000431,0.000470
33960000,0.0324,0.013523,0.002678,0.000431,0.000353
33961000,0.0324,0.013523,0.002678,0.000431,0.000235
33962000,0.0324,0.013523,0.002678,0.000431,0.000353
33963000,0.0324,0.013523,0.002678,0.000431,0.000470
33964000,0.0324,0.013523,0.002678,0.000431,0.000235
33965000,0.0324,0.013523,0.002678,0.000431,0.000235
33966000,0.0324,0.013523,0.002678,0.000431,0.000470
33967000,0.0324,0.013523,0.002678,0.000431,0.000353
33968000,0.0324,0.013523,0.002678,0.000431,0.000235
33969000,0.0324,0.013523,0.002678,0.000431,0.000353
33970000,0.0324,0.013523,0.002678,0.000431,0.000470
33971000,0.0324,0.013523,0.002678,0.000431,0.000235
33972000,0.0324,0.013523,0.002678,0.000431,0.000235
33973000,0.0324,0.013523,0.002678,0.000431,0.000470
33974000,0.0324,0.013523,0.002678,0.000431,0.000353
33975000,0.0324,0.013523,0.002678,0.000431,0.000235
33976000,0.0324,0.013523,0.002678,0.000431,0.000353
33977000,0.0324,0.013523,0.002678,0.000431,0.000470
33978000,0.0324,0.013523,0.002678,0.000431,0.000235
33979000,0.0324,0.013523,0.002678,0.000431,0.000235
33980000,0.0324,0.013523,0.002678,0.000431,0.000470
33981000,0.0324,0.013523,0.002678,0.000431,0.000353
33982000,0.0324,0.013523,0.002678,0.000431,0.000235
33983000,0.0324,0.013523,0.002678,0.000431,0.000353
33984000,0.0324,0.013523,0.002678,0.000431,0.000470
33985000,0.0324,0.013523,0.002678,0.000431,0.000235
33986000,0.0324,0.013523,0.002678,0.000431,0.000235
33987000,0.0324,0.013523,0.002678,0.000431,0.000470
33988000,0.0324,0.013523,0.002678,0.000431,0.000353
33989000,0.0324,0.013523,0.002678,0.000431,0.000235
33990000,0.0324,0.013523,0.002678,0.000431,0.000353
33991000,0.0324,0.013523,0.002678,0.000431,0.000470
33992000,0.0324,0.013523,0.002678,0.000431,0.000118
33993000,0.0324,0.013523,0.002678,0.000431,0.000353
33994000,0.0324,0.013523,0.002678,0.000431,0.000470
33995000,0.0324,0.013523,0.002678,0.000431,0.000353
33996000,0.0324,0.013523,0.002678,0.000431,0.000235
33997000,0.0324,0.013523,0.002678,0.000431,0.000353
33998000,0.0324,0.013523,0.002678,0.000431,0.000470
33999000,0.0324,0.013523,0.002678,0.000431,0.000118
