Cycle,Area(mm^2),PeakDynamic(W),SubthresholdLeakage(W),GateLeakage(W),RunTimeDynamic(W)
24000000,0.0324,0.013523,0.002678,0.000431,0.000353
24001000,0.0324,0.013523,0.002678,0.000431,0.000470
24002000,0.0324,0.013523,0.002678,0.000431,0.000235
24003000,0.0324,0.013523,0.002678,0.000431,0.000235
24004000,0.0324,0.013523,0.002678,0.000431,0.000470
24005000,0.0324,0.013523,0.002678,0.000431,0.000353
24006000,0.0324,0.013523,0.002678,0.000431,0.000235
24007000,0.0324,0.013523,0.002678,0.000431,0.000353
24008000,0.0324,0.013523,0.002678,0.000431,0.000470
24009000,0.0324,0.013523,0.002678,0.000431,0.000235
24010000,0.0324,0.013523,0.002678,0.000431,0.000235
24011000,0.0324,0.013523,0.002678,0.000431,0.000470
24012000,0.0324,0.013523,0.002678,0.000431,0.000353
24013000,0.0324,0.013523,0.002678,0.000431,0.000235
24014000,0.0324,0.013523,0.002678,0.000431,0.000353
24015000,0.0324,0.013523,0.002678,0.000431,0.000470
24016000,0.0324,0.013523,0.002678,0.000431,0.000118
24017000,0.0324,0.013523,0.002678,0.000431,0.000353
24018000,0.0324,0.013523,0.002678,0.000431,0.000470
24019000,0.0324,0.013523,0.002678,0.000431,0.000353
24020000,0.0324,0.013523,0.002678,0.000431,0.000235
24021000,0.0324,0.013523,0.002678,0.000431,0.000353
24022000,0.0324,0.013523,0.002678,0.000431,0.000470
24023000,0.0324,0.013523,0.002678,0.000431,0.000118
24024000,0.0324,0.013523,0.002678,0.000431,0.000353
24025000,0.0324,0.013523,0.002678,0.000431,0.000470
24026000,0.0324,0.013523,0.002678,0.000431,0.000353
24027000,0.0324,0.013523,0.002678,0.000431,0.000235
24028000,0.0324,0.013523,0.002678,0.000431,0.000353
24029000,0.0324,0.013523,0.002678,0.000431,0.000470
24030000,0.0324,0.013523,0.002678,0.000431,0.000118
24031000,0.0324,0.013523,0.002678,0.000431,0.000353
24032000,0.0324,0.013523,0.002678,0.000431,0.000470
24033000,0.0324,0.013523,0.002678,0.000431,0.000353
24034000,0.0324,0.013523,0.002678,0.000431,0.000235
24035000,0.0324,0.013523,0.002678,0.000431,0.000353
24036000,0.0324,0.013523,0.002678,0.000431,0.000470
24037000,0.0324,0.013523,0.002678,0.000431,0.000118
24038000,0.0324,0.013523,0.002678,0.000431,0.000353
24039000,0.0324,0.013523,0.002678,0.000431,0.000470
24040000,0.0324,0.013523,0.002678,0.000431,0.000353
24041000,0.0324,0.013523,0.002678,0.000431,0.000235
24042000,0.0324,0.013523,0.002678,0.000431,0.000353
24043000,0.0324,0.013523,0.002678,0.000431,0.000353
24044000,0.0324,0.013523,0.002678,0.000431,0.000235
24045000,0.0324,0.013523,0.002678,0.000431,0.000353
24046000,0.0324,0.013523,0.002678,0.000431,0.000470
24047000,0.0324,0.013523,0.002678,0.000431,0.000353
24048000,0.0324,0.013523,0.002678,0.000431,0.000235
24049000,0.0324,0.013523,0.002678,0.000431,0.000353
24050000,0.0324,0.013523,0.002678,0.000431,0.000353
24051000,0.0324,0.013523,0.002678,0.000431,0.000235
24052000,0.0324,0.013523,0.002678,0.000431,0.000353
24053000,0.0324,0.013523,0.002678,0.000431,0.000470
24054000,0.0324,0.013523,0.002678,0.000431,0.000353
24055000,0.0324,0.013523,0.002678,0.000431,0.000235
24056000,0.0324,0.013523,0.002678,0.000431,0.000353
24057000,0.0324,0.013523,0.002678,0.000431,0.000353
24058000,0.0324,0.013523,0.002678,0.000431,0.000235
24059000,0.0324,0.013523,0.002678,0.000431,0.000353
24060000,0.0324,0.013523,0.002678,0.000431,0.000470
24061000,0.0324,0.013523,0.002678,0.000431,0.000353
24062000,0.0324,0.013523,0.002678,0.000431,0.000235
24063000,0.0324,0.013523,0.002678,0.000431,0.000353
24064000,0.0324,0.013523,0.002678,0.000431,0.000353
24065000,0.0324,0.013523,0.002678,0.000431,0.000235
24066000,0.0324,0.013523,0.002678,0.000431,0.000353
24067000,0.0324,0.013523,0.002678,0.000431,0.000470
24068000,0.0324,0.013523,0.002678,0.000431,0.000353
24069000,0.0324,0.013523,0.002678,0.000431,0.000235
24070000,0.0324,0.013523,0.002678,0.000431,0.000353
24071000,0.0324,0.013523,0.002678,0.000431,0.000353
24072000,0.0324,0.013523,0.002678,0.000431,0.000235
24073000,0.0324,0.013523,0.002678,0.000431,0.000353
24074000,0.0324,0.013523,0.002678,0.000431,0.000470
24075000,0.0324,0.013523,0.002678,0.000431,0.000353
24076000,0.0324,0.013523,0.002678,0.000431,0.000235
24077000,0.0324,0.013523,0.002678,0.000431,0.000353
24078000,0.0324,0.013523,0.002678,0.000431,0.000353
24079000,0.0324,0.013523,0.002678,0.000431,0.000235
24080000,0.0324,0.013523,0.002678,0.000431,0.000353
24081000,0.0324,0.013523,0.002678,0.000431,0.000470
24082000,0.0324,0.013523,0.002678,0.000431,0.000353
24083000,0.0324,0.013523,0.002678,0.000431,0.000235
24084000,0.0324,0.013523,0.002678,0.000431,0.000353
24085000,0.0324,0.013523,0.002678,0.000431,0.000353
24086000,0.0324,0.013523,0.002678,0.000431,0.000235
24087000,0.0324,0.013523,0.002678,0.000431,0.000353
24088000,0.0324,0.013523,0.002678,0.000431,0.000470
24089000,0.0324,0.013523,0.002678,0.000431,0.000353
24090000,0.0324,0.013523,0.002678,0.000431,0.000118
24091000,0.0324,0.013523,0.002678,0.000431,0.000470
24092000,0.0324,0.013523,0.002678,0.000431,0.000353
24093000,0.0324,0.013523,0.002678,0.000431,0.000235
24094000,0.0324,0.013523,0.002678,0.000431,0.000353
24095000,0.0324,0.013523,0.002678,0.000431,0.000470
24096000,0.0324,0.013523,0.002678,0.000431,0.000353
24097000,0.0324,0.013523,0.002678,0.000431,0.000118
24098000,0.0324,0.013523,0.002678,0.000431,0.000470
24099000,0.0324,0.013523,0.002678,0.000431,0.000353
24100000,0.0324,0.013523,0.002678,0.000431,0.000235
24101000,0.0324,0.013523,0.002678,0.000431,0.000353
24102000,0.0324,0.013523,0.002678,0.000431,0.000470
24103000,0.0324,0.013523,0.002678,0.000431,0.000353
24104000,0.0324,0.013523,0.002678,0.000431,0.000118
24105000,0.0324,0.013523,0.002678,0.000431,0.000470
24106000,0.0324,0.013523,0.002678,0.000431,0.000353
24107000,0.0324,0.013523,0.002678,0.000431,0.000235
24108000,0.0324,0.013523,0.002678,0.000431,0.000353
24109000,0.0324,0.013523,0.002678,0.000431,0.000470
24110000,0.0324,0.013523,0.002678,0.000431,0.000353
24111000,0.0324,0.013523,0.002678,0.000431,0.000118
24112000,0.0324,0.013523,0.002678,0.000431,0.000470
24113000,0.0324,0.013523,0.002678,0.000431,0.000353
24114000,0.0324,0.013523,0.002678,0.000431,0.000235
24115000,0.0324,0.013523,0.002678,0.000431,0.000353
24116000,0.0324,0.013523,0.002678,0.000431,0.000470
24117000,0.0324,0.013523,0.002678,0.000431,0.000235
24118000,0.0324,0.013523,0.002678,0.000431,0.000235
24119000,0.0324,0.013523,0.002678,0.000431,0.000470
24120000,0.0324,0.013523,0.002678,0.000431,0.000353
24121000,0.0324,0.013523,0.002678,0.000431,0.000235
24122000,0.0324,0.013523,0.002678,0.000431,0.000353
24123000,0.0324,0.013523,0.002678,0.000431,0.000470
24124000,0.0324,0.013523,0.002678,0.000431,0.000235
24125000,0.0324,0.013523,0.002678,0.000431,0.000235
24126000,0.0324,0.013523,0.002678,0.000431,0.000470
24127000,0.0324,0.013523,0.002678,0.000431,0.000353
24128000,0.0324,0.013523,0.002678,0.000431,0.000235
24129000,0.0324,0.013523,0.002678,0.000431,0.000353
24130000,0.0324,0.013523,0.002678,0.000431,0.000470
24131000,0.0324,0.013523,0.002678,0.000431,0.000235
24132000,0.0324,0.013523,0.002678,0.000431,0.000235
24133000,0.0324,0.013523,0.002678,0.000431,0.000470
24134000,0.0324,0.013523,0.002678,0.000431,0.000353
24135000,0.0324,0.013523,0.002678,0.000431,0.000235
24136000,0.0324,0.013523,0.002678,0.000431,0.000353
24137000,0.0324,0.013523,0.002678,0.000431,0.000470
24138000,0.0324,0.013523,0.002678,0.000431,0.000235
24139000,0.0324,0.013523,0.002678,0.000431,0.000235
24140000,0.0324,0.013523,0.002678,0.000431,0.000470
24141000,0.0324,0.013523,0.002678,0.000431,0.000353
24142000,0.0324,0.013523,0.002678,0.000431,0.000235
24143000,0.0324,0.013523,0.002678,0.000431,0.000353
24144000,0.0324,0.013523,0.002678,0.000431,0.000470
24145000,0.0324,0.013523,0.002678,0.000431,0.000235
24146000,0.0324,0.013523,0.002678,0.000431,0.000235
24147000,0.0324,0.013523,0.002678,0.000431,0.000470
24148000,0.0324,0.013523,0.002678,0.000431,0.000353
24149000,0.0324,0.013523,0.002678,0.000431,0.000235
24150000,0.0324,0.013523,0.002678,0.000431,0.000353
24151000,0.0324,0.013523,0.002678,0.000431,0.000470
24152000,0.0324,0.013523,0.002678,0.000431,0.000235
24153000,0.0324,0.013523,0.002678,0.000431,0.000235
24154000,0.0324,0.013523,0.002678,0.000431,0.000470
24155000,0.0324,0.013523,0.002678,0.000431,0.000353
24156000,0.0324,0.013523,0.002678,0.000431,0.000235
24157000,0.0324,0.013523,0.002678,0.000431,0.000353
24158000,0.0324,0.013523,0.002678,0.000431,0.000470
24159000,0.0324,0.013523,0.002678,0.000431,0.000118
24160000,0.0324,0.013523,0.002678,0.000431,0.000353
24161000,0.0324,0.013523,0.002678,0.000431,0.000470
24162000,0.0324,0.013523,0.002678,0.000431,0.000353
24163000,0.0324,0.013523,0.002678,0.000431,0.000235
24164000,0.0324,0.013523,0.002678,0.000431,0.000353
24165000,0.0324,0.013523,0.002678,0.000431,0.000470
24166000,0.0324,0.013523,0.002678,0.000431,0.000118
24167000,0.0324,0.013523,0.002678,0.000431,0.000353
24168000,0.0324,0.013523,0.002678,0.000431,0.000470
24169000,0.0324,0.013523,0.002678,0.000431,0.000353
24170000,0.0324,0.013523,0.002678,0.000431,0.000235
24171000,0.0324,0.013523,0.002678,0.000431,0.000353
24172000,0.0324,0.013523,0.002678,0.000431,0.000470
24173000,0.0324,0.013523,0.002678,0.000431,0.000118
24174000,0.0324,0.013523,0.002678,0.000431,0.000353
24175000,0.0324,0.013523,0.002678,0.000431,0.000470
24176000,0.0324,0.013523,0.002678,0.000431,0.000353
24177000,0.0324,0.013523,0.002678,0.000431,0.000235
24178000,0.0324,0.013523,0.002678,0.000431,0.000353
24179000,0.0324,0.013523,0.002678,0.000431,0.000353
24180000,0.0324,0.013523,0.002678,0.000431,0.000235
24181000,0.0324,0.013523,0.002678,0.000431,0.000353
24182000,0.0324,0.013523,0.002678,0.000431,0.000470
24183000,0.0324,0.013523,0.002678,0.000431,0.000353
24184000,0.0324,0.013523,0.002678,0.000431,0.000235
24185000,0.0324,0.013523,0.002678,0.000431,0.000353
24186000,0.0324,0.013523,0.002678,0.000431,0.000353
24187000,0.0324,0.013523,0.002678,0.000431,0.000235
24188000,0.0324,0.013523,0.002678,0.000431,0.000353
24189000,0.0324,0.013523,0.002678,0.000431,0.000470
24190000,0.0324,0.013523,0.002678,0.000431,0.000353
24191000,0.0324,0.013523,0.002678,0.000431,0.000235
24192000,0.0324,0.013523,0.002678,0.000431,0.000353
24193000,0.0324,0.013523,0.002678,0.000431,0.000353
24194000,0.0324,0.013523,0.002678,0.000431,0.000235
24195000,0.0324,0.013523,0.002678,0.000431,0.000353
24196000,0.0324,0.013523,0.002678,0.000431,0.000470
24197000,0.0324,0.013523,0.002678,0.000431,0.000353
24198000,0.0324,0.013523,0.002678,0.000431,0.000235
24199000,0.0324,0.013523,0.002678,0.000431,0.000353
24200000,0.0324,0.013523,0.002678,0.000431,0.000353
24201000,0.0324,0.013523,0.002678,0.000431,0.000235
24202000,0.0324,0.013523,0.002678,0.000431,0.000353
24203000,0.0324,0.013523,0.002678,0.000431,0.000470
24204000,0.0324,0.013523,0.002678,0.000431,0.000353
24205000,0.0324,0.013523,0.002678,0.000431,0.000235
24206000,0.0324,0.013523,0.002678,0.000431,0.000353
24207000,0.0324,0.013523,0.002678,0.000431,0.000353
24208000,0.0324,0.013523,0.002678,0.000431,0.000235
24209000,0.0324,0.013523,0.002678,0.000431,0.000353
24210000,0.0324,0.013523,0.002678,0.000431,0.000470
24211000,0.0324,0.013523,0.002678,0.000431,0.000353
24212000,0.0324,0.013523,0.002678,0.000431,0.000235
24213000,0.0324,0.013523,0.002678,0.000431,0.000353
24214000,0.0324,0.013523,0.002678,0.000431,0.000353
24215000,0.0324,0.013523,0.002678,0.000431,0.000235
24216000,0.0324,0.013523,0.002678,0.000431,0.000353
24217000,0.0324,0.013523,0.002678,0.000431,0.000470
24218000,0.0324,0.013523,0.002678,0.000431,0.000353
24219000,0.0324,0.013523,0.002678,0.000431,0.000235
24220000,0.0324,0.013523,0.002678,0.000431,0.000353
24221000,0.0324,0.013523,0.002678,0.000431,0.000353
24222000,0.0324,0.013523,0.002678,0.000431,0.000235
24223000,0.0324,0.013523,0.002678,0.000431,0.000353
24224000,0.0324,0.013523,0.002678,0.000431,0.000470
24225000,0.0324,0.013523,0.002678,0.000431,0.000353
24226000,0.0324,0.013523,0.002678,0.000431,0.000235
24227000,0.0324,0.013523,0.002678,0.000431,0.000353
24228000,0.0324,0.013523,0.002678,0.000431,0.000353
24229000,0.0324,0.013523,0.002678,0.000431,0.000235
24230000,0.0324,0.013523,0.002678,0.000431,0.000353
24231000,0.0324,0.013523,0.002678,0.000431,0.000470
24232000,0.0324,0.013523,0.002678,0.000431,0.000353
24233000,0.0324,0.013523,0.002678,0.000431,0.000118
24234000,0.0324,0.013523,0.002678,0.000431,0.000470
24235000,0.0324,0.013523,0.002678,0.000431,0.000353
24236000,0.0324,0.013523,0.002678,0.000431,0.000235
24237000,0.0324,0.013523,0.002678,0.000431,0.000353
24238000,0.0324,0.013523,0.002678,0.000431,0.000470
24239000,0.0324,0.013523,0.002678,0.000431,0.000353
24240000,0.0324,0.013523,0.002678,0.000431,0.000118
24241000,0.0324,0.013523,0.002678,0.000431,0.000470
24242000,0.0324,0.013523,0.002678,0.000431,0.000353
24243000,0.0324,0.013523,0.002678,0.000431,0.000235
24244000,0.0324,0.013523,0.002678,0.000431,0.000353
24245000,0.0324,0.013523,0.002678,0.000431,0.000470
24246000,0.0324,0.013523,0.002678,0.000431,0.000353
24247000,0.0324,0.013523,0.002678,0.000431,0.000118
24248000,0.0324,0.013523,0.002678,0.000431,0.000470
24249000,0.0324,0.013523,0.002678,0.000431,0.000353
24250000,0.0324,0.013523,0.002678,0.000431,0.000235
24251000,0.0324,0.013523,0.002678,0.000431,0.000353
24252000,0.0324,0.013523,0.002678,0.000431,0.000470
24253000,0.0324,0.013523,0.002678,0.000431,0.000353
24254000,0.0324,0.013523,0.002678,0.000431,0.000118
24255000,0.0324,0.013523,0.002678,0.000431,0.000470
24256000,0.0324,0.013523,0.002678,0.000431,0.000353
24257000,0.0324,0.013523,0.002678,0.000431,0.000235
24258000,0.0324,0.013523,0.002678,0.000431,0.000353
24259000,0.0324,0.013523,0.002678,0.000431,0.000470
24260000,0.0324,0.013523,0.002678,0.000431,0.000235
24261000,0.0324,0.013523,0.002678,0.000431,0.000235
24262000,0.0324,0.013523,0.002678,0.000431,0.000470
24263000,0.0324,0.013523,0.002678,0.000431,0.000353
24264000,0.0324,0.013523,0.002678,0.000431,0.000235
24265000,0.0324,0.013523,0.002678,0.000431,0.000353
24266000,0.0324,0.013523,0.002678,0.000431,0.000470
24267000,0.0324,0.013523,0.002678,0.000431,0.000235
24268000,0.0324,0.013523,0.002678,0.000431,0.000235
24269000,0.0324,0.013523,0.002678,0.000431,0.000470
24270000,0.0324,0.013523,0.002678,0.000431,0.000353
24271000,0.0324,0.013523,0.002678,0.000431,0.000235
24272000,0.0324,0.013523,0.002678,0.000431,0.000353
24273000,0.0324,0.013523,0.002678,0.000431,0.000470
24274000,0.0324,0.013523,0.002678,0.000431,0.000235
24275000,0.0324,0.013523,0.002678,0.000431,0.000235
24276000,0.0324,0.013523,0.002678,0.000431,0.000470
24277000,0.0324,0.013523,0.002678,0.000431,0.000353
24278000,0.0324,0.013523,0.002678,0.000431,0.000235
24279000,0.0324,0.013523,0.002678,0.000431,0.000353
24280000,0.0324,0.013523,0.002678,0.000431,0.000470
24281000,0.0324,0.013523,0.002678,0.000431,0.000235
24282000,0.0324,0.013523,0.002678,0.000431,0.000235
24283000,0.0324,0.013523,0.002678,0.000431,0.000470
24284000,0.0324,0.013523,0.002678,0.000431,0.000353
24285000,0.0324,0.013523,0.002678,0.000431,0.000235
24286000,0.0324,0.013523,0.002678,0.000431,0.000353
24287000,0.0324,0.013523,0.002678,0.000431,0.000470
24288000,0.0324,0.013523,0.002678,0.000431,0.000235
24289000,0.0324,0.013523,0.002678,0.000431,0.000235
24290000,0.0324,0.013523,0.002678,0.000431,0.000470
24291000,0.0324,0.013523,0.002678,0.000431,0.000353
24292000,0.0324,0.013523,0.002678,0.000431,0.000235
24293000,0.0324,0.013523,0.002678,0.000431,0.000353
24294000,0.0324,0.013523,0.002678,0.000431,0.000470
24295000,0.0324,0.013523,0.002678,0.000431,0.000118
24296000,0.0324,0.013523,0.002678,0.000431,0.000353
24297000,0.0324,0.013523,0.002678,0.000431,0.000470
24298000,0.0324,0.013523,0.002678,0.000431,0.000353
24299000,0.0324,0.013523,0.002678,0.000431,0.000235
24300000,0.0324,0.013523,0.002678,0.000431,0.000353
24301000,0.0324,0.013523,0.002678,0.000431,0.000470
24302000,0.0324,0.013523,0.002678,0.000431,0.000118
24303000,0.0324,0.013523,0.002678,0.000431,0.000353
24304000,0.0324,0.013523,0.002678,0.000431,0.000470
24305000,0.0324,0.013523,0.002678,0.000431,0.000353
24306000,0.0324,0.013523,0.002678,0.000431,0.000235
24307000,0.0324,0.013523,0.002678,0.000431,0.000353
24308000,0.0324,0.013523,0.002678,0.000431,0.000470
24309000,0.0324,0.013523,0.002678,0.000431,0.000118
24310000,0.0324,0.013523,0.002678,0.000431,0.000353
24311000,0.0324,0.013523,0.002678,0.000431,0.000470
24312000,0.0324,0.013523,0.002678,0.000431,0.000353
24313000,0.0324,0.013523,0.002678,0.000431,0.000235
24314000,0.0324,0.013523,0.002678,0.000431,0.000353
24315000,0.0324,0.013523,0.002678,0.000431,0.000470
24316000,0.0324,0.013523,0.002678,0.000431,0.000118
24317000,0.0324,0.013523,0.002678,0.000431,0.000353
24318000,0.0324,0.013523,0.002678,0.000431,0.000470
24319000,0.0324,0.013523,0.002678,0.000431,0.000353
24320000,0.0324,0.013523,0.002678,0.000431,0.000235
24321000,0.0324,0.013523,0.002678,0.000431,0.000353
24322000,0.0324,0.013523,0.002678,0.000431,0.000353
24323000,0.0324,0.013523,0.002678,0.000431,0.000235
24324000,0.0324,0.013523,0.002678,0.000431,0.000353
24325000,0.0324,0.013523,0.002678,0.000431,0.000470
24326000,0.0324,0.013523,0.002678,0.000431,0.000353
24327000,0.0324,0.013523,0.002678,0.000431,0.000235
24328000,0.0324,0.013523,0.002678,0.000431,0.000353
24329000,0.0324,0.013523,0.002678,0.000431,0.000353
24330000,0.0324,0.013523,0.002678,0.000431,0.000235
24331000,0.0324,0.013523,0.002678,0.000431,0.000353
24332000,0.0324,0.013523,0.002678,0.000431,0.000470
24333000,0.0324,0.013523,0.002678,0.000431,0.000353
24334000,0.0324,0.013523,0.002678,0.000431,0.000235
24335000,0.0324,0.013523,0.002678,0.000431,0.000353
24336000,0.0324,0.013523,0.002678,0.000431,0.000353
24337000,0.0324,0.013523,0.002678,0.000431,0.000235
24338000,0.0324,0.013523,0.002678,0.000431,0.000353
24339000,0.0324,0.013523,0.002678,0.000431,0.000470
24340000,0.0324,0.013523,0.002678,0.000431,0.000353
24341000,0.0324,0.013523,0.002678,0.000431,0.000235
24342000,0.0324,0.013523,0.002678,0.000431,0.000353
24343000,0.0324,0.013523,0.002678,0.000431,0.000353
24344000,0.0324,0.013523,0.002678,0.000431,0.000235
24345000,0.0324,0.013523,0.002678,0.000431,0.000353
24346000,0.0324,0.013523,0.002678,0.000431,0.000470
24347000,0.0324,0.013523,0.002678,0.000431,0.000353
24348000,0.0324,0.013523,0.002678,0.000431,0.000235
24349000,0.0324,0.013523,0.002678,0.000431,0.000353
24350000,0.0324,0.013523,0.002678,0.000431,0.000353
24351000,0.0324,0.013523,0.002678,0.000431,0.000235
24352000,0.0324,0.013523,0.002678,0.000431,0.000353
24353000,0.0324,0.013523,0.002678,0.000431,0.000470
24354000,0.0324,0.013523,0.002678,0.000431,0.000353
24355000,0.0324,0.013523,0.002678,0.000431,0.000235
24356000,0.0324,0.013523,0.002678,0.000431,0.000353
24357000,0.0324,0.013523,0.002678,0.000431,0.000353
24358000,0.0324,0.013523,0.002678,0.000431,0.000235
24359000,0.0324,0.013523,0.002678,0.000431,0.000353
24360000,0.0324,0.013523,0.002678,0.000431,0.000470
24361000,0.0324,0.013523,0.002678,0.000431,0.000353
24362000,0.0324,0.013523,0.002678,0.000431,0.000235
24363000,0.0324,0.013523,0.002678,0.000431,0.000353
24364000,0.0324,0.013523,0.002678,0.000431,0.000353
24365000,0.0324,0.013523,0.002678,0.000431,0.000235
24366000,0.0324,0.013523,0.002678,0.000431,0.000353
24367000,0.0324,0.013523,0.002678,0.000431,0.000470
24368000,0.0324,0.013523,0.002678,0.000431,0.000353
24369000,0.0324,0.013523,0.002678,0.000431,0.000235
24370000,0.0324,0.013523,0.002678,0.000431,0.000353
24371000,0.0324,0.013523,0.002678,0.000431,0.000353
24372000,0.0324,0.013523,0.002678,0.000431,0.000235
24373000,0.0324,0.013523,0.002678,0.000431,0.000353
24374000,0.0324,0.013523,0.002678,0.000431,0.000470
24375000,0.0324,0.013523,0.002678,0.000431,0.000353
24376000,0.0324,0.013523,0.002678,0.000431,0.000118
24377000,0.0324,0.013523,0.002678,0.000431,0.000470
24378000,0.0324,0.013523,0.002678,0.000431,0.000353
24379000,0.0324,0.013523,0.002678,0.000431,0.000235
24380000,0.0324,0.013523,0.002678,0.000431,0.000353
24381000,0.0324,0.013523,0.002678,0.000431,0.000470
24382000,0.0324,0.013523,0.002678,0.000431,0.000353
24383000,0.0324,0.013523,0.002678,0.000431,0.000118
24384000,0.0324,0.013523,0.002678,0.000431,0.000470
24385000,0.0324,0.013523,0.002678,0.000431,0.000353
24386000,0.0324,0.013523,0.002678,0.000431,0.000235
24387000,0.0324,0.013523,0.002678,0.000431,0.000353
24388000,0.0324,0.013523,0.002678,0.000431,0.000470
24389000,0.0324,0.013523,0.002678,0.000431,0.000353
24390000,0.0324,0.013523,0.002678,0.000431,0.000118
24391000,0.0324,0.013523,0.002678,0.000431,0.000470
24392000,0.0324,0.013523,0.002678,0.000431,0.000353
24393000,0.0324,0.013523,0.002678,0.000431,0.000235
24394000,0.0324,0.013523,0.002678,0.000431,0.000353
24395000,0.0324,0.013523,0.002678,0.000431,0.000470
24396000,0.0324,0.013523,0.002678,0.000431,0.000235
24397000,0.0324,0.013523,0.002678,0.000431,0.000235
24398000,0.0324,0.013523,0.002678,0.000431,0.000470
24399000,0.0324,0.013523,0.002678,0.000431,0.000353
24400000,0.0324,0.013523,0.002678,0.000431,0.000235
24401000,0.0324,0.013523,0.002678,0.000431,0.000353
24402000,0.0324,0.013523,0.002678,0.000431,0.000470
24403000,0.0324,0.013523,0.002678,0.000431,0.000235
24404000,0.0324,0.013523,0.002678,0.000431,0.000235
24405000,0.0324,0.013523,0.002678,0.000431,0.000470
24406000,0.0324,0.013523,0.002678,0.000431,0.000353
24407000,0.0324,0.013523,0.002678,0.000431,0.000235
24408000,0.0324,0.013523,0.002678,0.000431,0.000353
24409000,0.0324,0.013523,0.002678,0.000431,0.000470
24410000,0.0324,0.013523,0.002678,0.000431,0.000235
24411000,0.0324,0.013523,0.002678,0.000431,0.000235
24412000,0.0324,0.013523,0.002678,0.000431,0.000470
24413000,0.0324,0.013523,0.002678,0.000431,0.000353
24414000,0.0324,0.013523,0.002678,0.000431,0.000235
24415000,0.0324,0.013523,0.002678,0.000431,0.000353
24416000,0.0324,0.013523,0.002678,0.000431,0.000470
24417000,0.0324,0.013523,0.002678,0.000431,0.000235
24418000,0.0324,0.013523,0.002678,0.000431,0.000235
24419000,0.0324,0.013523,0.002678,0.000431,0.000470
24420000,0.0324,0.013523,0.002678,0.000431,0.000353
24421000,0.0324,0.013523,0.002678,0.000431,0.000235
24422000,0.0324,0.013523,0.002678,0.000431,0.000353
24423000,0.0324,0.013523,0.002678,0.000431,0.000470
24424000,0.0324,0.013523,0.002678,0.000431,0.000235
24425000,0.0324,0.013523,0.002678,0.000431,0.000235
24426000,0.0324,0.013523,0.002678,0.000431,0.000470
24427000,0.0324,0.013523,0.002678,0.000431,0.000353
24428000,0.0324,0.013523,0.002678,0.000431,0.000235
24429000,0.0324,0.013523,0.002678,0.000431,0.000353
24430000,0.0324,0.013523,0.002678,0.000431,0.000470
24431000,0.0324,0.013523,0.002678,0.000431,0.000235
24432000,0.0324,0.013523,0.002678,0.000431,0.000235
24433000,0.0324,0.013523,0.002678,0.000431,0.000470
24434000,0.0324,0.013523,0.002678,0.000431,0.000353
24435000,0.0324,0.013523,0.002678,0.000431,0.000235
24436000,0.0324,0.013523,0.002678,0.000431,0.000353
24437000,0.0324,0.013523,0.002678,0.000431,0.000470
24438000,0.0324,0.013523,0.002678,0.000431,0.000118
24439000,0.0324,0.013523,0.002678,0.000431,0.000353
24440000,0.0324,0.013523,0.002678,0.000431,0.000470
24441000,0.0324,0.013523,0.002678,0.000431,0.000353
24442000,0.0324,0.013523,0.002678,0.000431,0.000235
24443000,0.0324,0.013523,0.002678,0.000431,0.000353
24444000,0.0324,0.013523,0.002678,0.000431,0.000470
24445000,0.0324,0.013523,0.002678,0.000431,0.000118
24446000,0.0324,0.013523,0.002678,0.000431,0.000353
24447000,0.0324,0.013523,0.002678,0.000431,0.000470
24448000,0.0324,0.013523,0.002678,0.000431,0.000353
24449000,0.0324,0.013523,0.002678,0.000431,0.000235
24450000,0.0324,0.013523,0.002678,0.000431,0.000353
24451000,0.0324,0.013523,0.002678,0.000431,0.000470
24452000,0.0324,0.013523,0.002678,0.000431,0.000118
24453000,0.0324,0.013523,0.002678,0.000431,0.000353
24454000,0.0324,0.013523,0.002678,0.000431,0.000470
24455000,0.0324,0.013523,0.002678,0.000431,0.000353
24456000,0.0324,0.013523,0.002678,0.000431,0.000235
24457000,0.0324,0.013523,0.002678,0.000431,0.000353
24458000,0.0324,0.013523,0.002678,0.000431,0.000470
24459000,0.0324,0.013523,0.002678,0.000431,0.000118
24460000,0.0324,0.013523,0.002678,0.000431,0.000353
24461000,0.0324,0.013523,0.002678,0.000431,0.000470
24462000,0.0324,0.013523,0.002678,0.000431,0.000353
24463000,0.0324,0.013523,0.002678,0.000431,0.000235
24464000,0.0324,0.013523,0.002678,0.000431,0.000353
24465000,0.0324,0.013523,0.002678,0.000431,0.000353
24466000,0.0324,0.013523,0.002678,0.000431,0.000235
24467000,0.0324,0.013523,0.002678,0.000431,0.000353
24468000,0.0324,0.013523,0.002678,0.000431,0.000470
24469000,0.0324,0.013523,0.002678,0.000431,0.000353
24470000,0.0324,0.013523,0.002678,0.000431,0.000235
24471000,0.0324,0.013523,0.002678,0.000431,0.000353
24472000,0.0324,0.013523,0.002678,0.000431,0.000353
24473000,0.0324,0.013523,0.002678,0.000431,0.000235
24474000,0.0324,0.013523,0.002678,0.000431,0.000353
24475000,0.0324,0.013523,0.002678,0.000431,0.000470
24476000,0.0324,0.013523,0.002678,0.000431,0.000353
24477000,0.0324,0.013523,0.002678,0.000431,0.000235
24478000,0.0324,0.013523,0.002678,0.000431,0.000353
24479000,0.0324,0.013523,0.002678,0.000431,0.000353
24480000,0.0324,0.013523,0.002678,0.000431,0.000235
24481000,0.0324,0.013523,0.002678,0.000431,0.000353
24482000,0.0324,0.013523,0.002678,0.000431,0.000470
24483000,0.0324,0.013523,0.002678,0.000431,0.000353
24484000,0.0324,0.013523,0.002678,0.000431,0.000235
24485000,0.0324,0.013523,0.002678,0.000431,0.000353
24486000,0.0324,0.013523,0.002678,0.000431,0.000353
24487000,0.0324,0.013523,0.002678,0.000431,0.000235
24488000,0.0324,0.013523,0.002678,0.000431,0.000353
24489000,0.0324,0.013523,0.002678,0.000431,0.000470
24490000,0.0324,0.013523,0.002678,0.000431,0.000353
24491000,0.0324,0.013523,0.002678,0.000431,0.000235
24492000,0.0324,0.013523,0.002678,0.000431,0.000353
24493000,0.0324,0.013523,0.002678,0.000431,0.000353
24494000,0.0324,0.013523,0.002678,0.000431,0.000235
24495000,0.0324,0.013523,0.002678,0.000431,0.000353
24496000,0.0324,0.013523,0.002678,0.000431,0.000470
24497000,0.0324,0.013523,0.002678,0.000431,0.000353
24498000,0.0324,0.013523,0.002678,0.000431,0.000235
24499000,0.0324,0.013523,0.002678,0.000431,0.000353
24500000,0.0324,0.013523,0.002678,0.000431,0.000353
24501000,0.0324,0.013523,0.002678,0.000431,0.000235
24502000,0.0324,0.013523,0.002678,0.000431,0.000353
24503000,0.0324,0.013523,0.002678,0.000431,0.000470
24504000,0.0324,0.013523,0.002678,0.000431,0.000353
24505000,0.0324,0.013523,0.002678,0.000431,0.000235
24506000,0.0324,0.013523,0.002678,0.000431,0.000353
24507000,0.0324,0.013523,0.002678,0.000431,0.000353
24508000,0.0324,0.013523,0.002678,0.000431,0.000235
24509000,0.0324,0.013523,0.002678,0.000431,0.000353
24510000,0.0324,0.013523,0.002678,0.000431,0.000470
24511000,0.0324,0.013523,0.002678,0.000431,0.000353
24512000,0.0324,0.013523,0.002678,0.000431,0.000118
24513000,0.0324,0.013523,0.002678,0.000431,0.000470
24514000,0.0324,0.013523,0.002678,0.000431,0.000353
24515000,0.0324,0.013523,0.002678,0.000431,0.000235
24516000,0.0324,0.013523,0.002678,0.000431,0.000353
24517000,0.0324,0.013523,0.002678,0.000431,0.000470
24518000,0.0324,0.013523,0.002678,0.000431,0.000353
24519000,0.0324,0.013523,0.002678,0.000431,0.000118
24520000,0.0324,0.013523,0.002678,0.000431,0.000470
24521000,0.0324,0.013523,0.002678,0.000431,0.000353
24522000,0.0324,0.013523,0.002678,0.000431,0.000235
24523000,0.0324,0.013523,0.002678,0.000431,0.000353
24524000,0.0324,0.013523,0.002678,0.000431,0.000470
24525000,0.0324,0.013523,0.002678,0.000431,0.000353
24526000,0.0324,0.013523,0.002678,0.000431,0.000118
24527000,0.0324,0.013523,0.002678,0.000431,0.000470
24528000,0.0324,0.013523,0.002678,0.000431,0.000353
24529000,0.0324,0.013523,0.002678,0.000431,0.000235
24530000,0.0324,0.013523,0.002678,0.000431,0.000353
24531000,0.0324,0.013523,0.002678,0.000431,0.000470
24532000,0.0324,0.013523,0.002678,0.000431,0.000353
24533000,0.0324,0.013523,0.002678,0.000431,0.000118
24534000,0.0324,0.013523,0.002678,0.000431,0.000470
24535000,0.0324,0.013523,0.002678,0.000431,0.000353
24536000,0.0324,0.013523,0.002678,0.000431,0.000235
24537000,0.0324,0.013523,0.002678,0.000431,0.000353
24538000,0.0324,0.013523,0.002678,0.000431,0.000470
24539000,0.0324,0.013523,0.002678,0.000431,0.000235
24540000,0.0324,0.013523,0.002678,0.000431,0.000235
24541000,0.0324,0.013523,0.002678,0.000431,0.000470
24542000,0.0324,0.013523,0.002678,0.000431,0.000353
24543000,0.0324,0.013523,0.002678,0.000431,0.000235
24544000,0.0324,0.013523,0.002678,0.000431,0.000353
24545000,0.0324,0.013523,0.002678,0.000431,0.000470
24546000,0.0324,0.013523,0.002678,0.000431,0.000235
24547000,0.0324,0.013523,0.002678,0.000431,0.000235
24548000,0.0324,0.013523,0.002678,0.000431,0.000470
24549000,0.0324,0.013523,0.002678,0.000431,0.000353
24550000,0.0324,0.013523,0.002678,0.000431,0.000235
24551000,0.0324,0.013523,0.002678,0.000431,0.000353
24552000,0.0324,0.013523,0.002678,0.000431,0.000470
24553000,0.0324,0.013523,0.002678,0.000431,0.000235
24554000,0.0324,0.013523,0.002678,0.000431,0.000235
24555000,0.0324,0.013523,0.002678,0.000431,0.000470
24556000,0.0324,0.013523,0.002678,0.000431,0.000353
24557000,0.0324,0.013523,0.002678,0.000431,0.000235
24558000,0.0324,0.013523,0.002678,0.000431,0.000353
24559000,0.0324,0.013523,0.002678,0.000431,0.000470
24560000,0.0324,0.013523,0.002678,0.000431,0.000235
24561000,0.0324,0.013523,0.002678,0.000431,0.000235
24562000,0.0324,0.013523,0.002678,0.000431,0.000470
24563000,0.0324,0.013523,0.002678,0.000431,0.000353
24564000,0.0324,0.013523,0.002678,0.000431,0.000235
24565000,0.0324,0.013523,0.002678,0.000431,0.000353
24566000,0.0324,0.013523,0.002678,0.000431,0.000470
24567000,0.0324,0.013523,0.002678,0.000431,0.000235
24568000,0.0324,0.013523,0.002678,0.000431,0.000235
24569000,0.0324,0.013523,0.002678,0.000431,0.000470
24570000,0.0324,0.013523,0.002678,0.000431,0.000353
24571000,0.0324,0.013523,0.002678,0.000431,0.000235
24572000,0.0324,0.013523,0.002678,0.000431,0.000353
24573000,0.0324,0.013523,0.002678,0.000431,0.000470
24574000,0.0324,0.013523,0.002678,0.000431,0.000235
24575000,0.0324,0.013523,0.002678,0.000431,0.000235
24576000,0.0324,0.013523,0.002678,0.000431,0.000470
24577000,0.0324,0.013523,0.002678,0.000431,0.000353
24578000,0.0324,0.013523,0.002678,0.000431,0.000235
24579000,0.0324,0.013523,0.002678,0.000431,0.000353
24580000,0.0324,0.013523,0.002678,0.000431,0.000470
24581000,0.0324,0.013523,0.002678,0.000431,0.000118
24582000,0.0324,0.013523,0.002678,0.000431,0.000353
24583000,0.0324,0.013523,0.002678,0.000431,0.000470
24584000,0.0324,0.013523,0.002678,0.000431,0.000353
24585000,0.0324,0.013523,0.002678,0.000431,0.000235
24586000,0.0324,0.013523,0.002678,0.000431,0.000353
24587000,0.0324,0.013523,0.002678,0.000431,0.000470
24588000,0.0324,0.013523,0.002678,0.000431,0.000118
24589000,0.0324,0.013523,0.002678,0.000431,0.000353
24590000,0.0324,0.013523,0.002678,0.000431,0.000470
24591000,0.0324,0.013523,0.002678,0.000431,0.000353
24592000,0.0324,0.013523,0.002678,0.000431,0.000235
24593000,0.0324,0.013523,0.002678,0.000431,0.000353
24594000,0.0324,0.013523,0.002678,0.000431,0.000470
24595000,0.0324,0.013523,0.002678,0.000431,0.000118
24596000,0.0324,0.013523,0.002678,0.000431,0.000353
24597000,0.0324,0.013523,0.002678,0.000431,0.000470
24598000,0.0324,0.013523,0.002678,0.000431,0.000353
24599000,0.0324,0.013523,0.002678,0.000431,0.000235
24600000,0.0324,0.013523,0.002678,0.000431,0.000353
24601000,0.0324,0.013523,0.002678,0.000431,0.000353
24602000,0.0324,0.013523,0.002678,0.000431,0.000235
24603000,0.0324,0.013523,0.002678,0.000431,0.000353
24604000,0.0324,0.013523,0.002678,0.000431,0.000470
24605000,0.0324,0.013523,0.002678,0.000431,0.000353
24606000,0.0324,0.013523,0.002678,0.000431,0.000235
24607000,0.0324,0.013523,0.002678,0.000431,0.000353
24608000,0.0324,0.013523,0.002678,0.000431,0.000353
24609000,0.0324,0.013523,0.002678,0.000431,0.000235
24610000,0.0324,0.013523,0.002678,0.000431,0.000353
24611000,0.0324,0.013523,0.002678,0.000431,0.000470
24612000,0.0324,0.013523,0.002678,0.000431,0.000353
24613000,0.0324,0.013523,0.002678,0.000431,0.000235
24614000,0.0324,0.013523,0.002678,0.000431,0.000353
24615000,0.0324,0.013523,0.002678,0.000431,0.000353
24616000,0.0324,0.013523,0.002678,0.000431,0.000235
24617000,0.0324,0.013523,0.002678,0.000431,0.000353
24618000,0.0324,0.013523,0.002678,0.000431,0.000470
24619000,0.0324,0.013523,0.002678,0.000431,0.000353
24620000,0.0324,0.013523,0.002678,0.000431,0.000235
24621000,0.0324,0.013523,0.002678,0.000431,0.000353
24622000,0.0324,0.013523,0.002678,0.000431,0.000353
24623000,0.0324,0.013523,0.002678,0.000431,0.000235
24624000,0.0324,0.013523,0.002678,0.000431,0.000353
24625000,0.0324,0.013523,0.002678,0.000431,0.000470
24626000,0.0324,0.013523,0.002678,0.000431,0.000353
24627000,0.0324,0.013523,0.002678,0.000431,0.000235
24628000,0.0324,0.013523,0.002678,0.000431,0.000353
24629000,0.0324,0.013523,0.002678,0.000431,0.000353
24630000,0.0324,0.013523,0.002678,0.000431,0.000235
24631000,0.0324,0.013523,0.002678,0.000431,0.000353
24632000,0.0324,0.013523,0.002678,0.000431,0.000470
24633000,0.0324,0.013523,0.002678,0.000431,0.000353
24634000,0.0324,0.013523,0.002678,0.000431,0.000235
24635000,0.0324,0.013523,0.002678,0.000431,0.000353
24636000,0.0324,0.013523,0.002678,0.000431,0.000353
24637000,0.0324,0.013523,0.002678,0.000431,0.000235
24638000,0.0324,0.013523,0.002678,0.000431,0.000353
24639000,0.0324,0.013523,0.002678,0.000431,0.000470
24640000,0.0324,0.013523,0.002678,0.000431,0.000353
24641000,0.0324,0.013523,0.002678,0.000431,0.000235
24642000,0.0324,0.013523,0.002678,0.000431,0.000353
24643000,0.0324,0.013523,0.002678,0.000431,0.000353
24644000,0.0324,0.013523,0.002678,0.000431,0.000235
24645000,0.0324,0.013523,0.002678,0.000431,0.000353
24646000,0.0324,0.013523,0.002678,0.000431,0.000470
24647000,0.0324,0.013523,0.002678,0.000431,0.000353
24648000,0.0324,0.013523,0.002678,0.000431,0.000235
24649000,0.0324,0.013523,0.002678,0.000431,0.000353
24650000,0.0324,0.013523,0.002678,0.000431,0.000353
24651000,0.0324,0.013523,0.002678,0.000431,0.000235
24652000,0.0324,0.013523,0.002678,0.000431,0.000353
24653000,0.0324,0.013523,0.002678,0.000431,0.000470
24654000,0.0324,0.013523,0.002678,0.000431,0.000353
24655000,0.0324,0.013523,0.002678,0.000431,0.000118
24656000,0.0324,0.013523,0.002678,0.000431,0.000470
24657000,0.0324,0.013523,0.002678,0.000431,0.000353
24658000,0.0324,0.013523,0.002678,0.000431,0.000235
24659000,0.0324,0.013523,0.002678,0.000431,0.000353
24660000,0.0324,0.013523,0.002678,0.000431,0.000470
24661000,0.0324,0.013523,0.002678,0.000431,0.000353
24662000,0.0324,0.013523,0.002678,0.000431,0.000118
24663000,0.0324,0.013523,0.002678,0.000431,0.000470
24664000,0.0324,0.013523,0.002678,0.000431,0.000353
24665000,0.0324,0.013523,0.002678,0.000431,0.000235
24666000,0.0324,0.013523,0.002678,0.000431,0.000353
24667000,0.0324,0.013523,0.002678,0.000431,0.000470
24668000,0.0324,0.013523,0.002678,0.000431,0.000353
24669000,0.0324,0.013523,0.002678,0.000431,0.000118
24670000,0.0324,0.013523,0.002678,0.000431,0.000470
24671000,0.0324,0.013523,0.002678,0.000431,0.000353
24672000,0.0324,0.013523,0.002678,0.000431,0.000235
24673000,0.0324,0.013523,0.002678,0.000431,0.000353
24674000,0.0324,0.013523,0.002678,0.000431,0.000470
24675000,0.0324,0.013523,0.002678,0.000431,0.000235
24676000,0.0324,0.013523,0.002678,0.000431,0.000235
24677000,0.0324,0.013523,0.002678,0.000431,0.000470
24678000,0.0324,0.013523,0.002678,0.000431,0.000353
24679000,0.0324,0.013523,0.002678,0.000431,0.000235
24680000,0.0324,0.013523,0.002678,0.000431,0.000353
24681000,0.0324,0.013523,0.002678,0.000431,0.000470
24682000,0.0324,0.013523,0.002678,0.000431,0.000235
24683000,0.0324,0.013523,0.002678,0.000431,0.000235
24684000,0.0324,0.013523,0.002678,0.000431,0.000470
24685000,0.0324,0.013523,0.002678,0.000431,0.000353
24686000,0.0324,0.013523,0.002678,0.000431,0.000235
24687000,0.0324,0.013523,0.002678,0.000431,0.000353
24688000,0.0324,0.013523,0.002678,0.000431,0.000470
24689000,0.0324,0.013523,0.002678,0.000431,0.000235
24690000,0.0324,0.013523,0.002678,0.000431,0.000235
24691000,0.0324,0.013523,0.002678,0.000431,0.000470
24692000,0.0324,0.013523,0.002678,0.000431,0.000353
24693000,0.0324,0.013523,0.002678,0.000431,0.000235
24694000,0.0324,0.013523,0.002678,0.000431,0.000353
24695000,0.0324,0.013523,0.002678,0.000431,0.000470
24696000,0.0324,0.013523,0.002678,0.000431,0.000235
24697000,0.0324,0.013523,0.002678,0.000431,0.000235
24698000,0.0324,0.013523,0.002678,0.000431,0.000470
24699000,0.0324,0.013523,0.002678,0.000431,0.000353
24700000,0.0324,0.013523,0.002678,0.000431,0.000235
24701000,0.0324,0.013523,0.002678,0.000431,0.000353
24702000,0.0324,0.013523,0.002678,0.000431,0.000470
24703000,0.0324,0.013523,0.002678,0.000431,0.000235
24704000,0.0324,0.013523,0.002678,0.000431,0.000235
24705000,0.0324,0.013523,0.002678,0.000431,0.000470
24706000,0.0324,0.013523,0.002678,0.000431,0.000353
24707000,0.0324,0.013523,0.002678,0.000431,0.000235
24708000,0.0324,0.013523,0.002678,0.000431,0.000353
24709000,0.0324,0.013523,0.002678,0.000431,0.000470
24710000,0.0324,0.013523,0.002678,0.000431,0.000235
24711000,0.0324,0.013523,0.002678,0.000431,0.000235
24712000,0.0324,0.013523,0.002678,0.000431,0.000470
24713000,0.0324,0.013523,0.002678,0.000431,0.000353
24714000,0.0324,0.013523,0.002678,0.000431,0.000235
24715000,0.0324,0.013523,0.002678,0.000431,0.000353
24716000,0.0324,0.013523,0.002678,0.000431,0.000470
24717000,0.0324,0.013523,0.002678,0.000431,0.000118
24718000,0.0324,0.013523,0.002678,0.000431,0.000353
24719000,0.0324,0.013523,0.002678,0.000431,0.000470
24720000,0.0324,0.013523,0.002678,0.000431,0.000353
24721000,0.0324,0.013523,0.002678,0.000431,0.000235
24722000,0.0324,0.013523,0.002678,0.000431,0.000353
24723000,0.0324,0.013523,0.002678,0.000431,0.000470
24724000,0.0324,0.013523,0.002678,0.000431,0.000118
24725000,0.0324,0.013523,0.002678,0.000431,0.000353
24726000,0.0324,0.013523,0.002678,0.000431,0.000470
24727000,0.0324,0.013523,0.002678,0.000431,0.000353
24728000,0.0324,0.013523,0.002678,0.000431,0.000235
24729000,0.0324,0.013523,0.002678,0.000431,0.000353
24730000,0.0324,0.013523,0.002678,0.000431,0.000470
24731000,0.0324,0.013523,0.002678,0.000431,0.000118
24732000,0.0324,0.013523,0.002678,0.000431,0.000353
24733000,0.0324,0.013523,0.002678,0.000431,0.000470
24734000,0.0324,0.013523,0.002678,0.000431,0.000353
24735000,0.0324,0.013523,0.002678,0.000431,0.000235
24736000,0.0324,0.013523,0.002678,0.000431,0.000353
24737000,0.0324,0.013523,0.002678,0.000431,0.000470
24738000,0.0324,0.013523,0.002678,0.000431,0.000118
24739000,0.0324,0.013523,0.002678,0.000431,0.000353
24740000,0.0324,0.013523,0.002678,0.000431,0.000470
24741000,0.0324,0.013523,0.002678,0.000431,0.000353
24742000,0.0324,0.013523,0.002678,0.000431,0.000235
24743000,0.0324,0.013523,0.002678,0.000431,0.000353
24744000,0.0324,0.013523,0.002678,0.000431,0.000353
24745000,0.0324,0.013523,0.002678,0.000431,0.000235
24746000,0.0324,0.013523,0.002678,0.000431,0.000353
24747000,0.0324,0.013523,0.002678,0.000431,0.000470
24748000,0.0324,0.013523,0.002678,0.000431,0.000353
24749000,0.0324,0.013523,0.002678,0.000431,0.000235
24750000,0.0324,0.013523,0.002678,0.000431,0.000353
24751000,0.0324,0.013523,0.002678,0.000431,0.000353
24752000,0.0324,0.013523,0.002678,0.000431,0.000235
24753000,0.0324,0.013523,0.002678,0.000431,0.000353
24754000,0.0324,0.013523,0.002678,0.000431,0.000470
24755000,0.0324,0.013523,0.002678,0.000431,0.000353
24756000,0.0324,0.013523,0.002678,0.000431,0.000235
24757000,0.0324,0.013523,0.002678,0.000431,0.000353
24758000,0.0324,0.013523,0.002678,0.000431,0.000353
24759000,0.0324,0.013523,0.002678,0.000431,0.000235
24760000,0.0324,0.013523,0.002678,0.000431,0.000353
24761000,0.0324,0.013523,0.002678,0.000431,0.000470
24762000,0.0324,0.013523,0.002678,0.000431,0.000353
24763000,0.0324,0.013523,0.002678,0.000431,0.000235
24764000,0.0324,0.013523,0.002678,0.000431,0.000353
24765000,0.0324,0.013523,0.002678,0.000431,0.000353
24766000,0.0324,0.013523,0.002678,0.000431,0.000235
24767000,0.0324,0.013523,0.002678,0.000431,0.000353
24768000,0.0324,0.013523,0.002678,0.000431,0.000470
24769000,0.0324,0.013523,0.002678,0.000431,0.000353
24770000,0.0324,0.013523,0.002678,0.000431,0.000235
24771000,0.0324,0.013523,0.002678,0.000431,0.000353
24772000,0.0324,0.013523,0.002678,0.000431,0.000353
24773000,0.0324,0.013523,0.002678,0.000431,0.000235
24774000,0.0324,0.013523,0.002678,0.000431,0.000353
24775000,0.0324,0.013523,0.002678,0.000431,0.000470
24776000,0.0324,0.013523,0.002678,0.000431,0.000353
24777000,0.0324,0.013523,0.002678,0.000431,0.000235
24778000,0.0324,0.013523,0.002678,0.000431,0.000353
24779000,0.0324,0.013523,0.002678,0.000431,0.000353
24780000,0.0324,0.013523,0.002678,0.000431,0.000235
24781000,0.0324,0.013523,0.002678,0.000431,0.000353
24782000,0.0324,0.013523,0.002678,0.000431,0.000470
24783000,0.0324,0.013523,0.002678,0.000431,0.000353
24784000,0.0324,0.013523,0.002678,0.000431,0.000235
24785000,0.0324,0.013523,0.002678,0.000431,0.000353
24786000,0.0324,0.013523,0.002678,0.000431,0.000353
24787000,0.0324,0.013523,0.002678,0.000431,0.000235
24788000,0.0324,0.013523,0.002678,0.000431,0.000353
24789000,0.0324,0.013523,0.002678,0.000431,0.000470
24790000,0.0324,0.013523,0.002678,0.000431,0.000353
24791000,0.0324,0.013523,0.002678,0.000431,0.000118
24792000,0.0324,0.013523,0.002678,0.000431,0.000470
24793000,0.0324,0.013523,0.002678,0.000431,0.000353
24794000,0.0324,0.013523,0.002678,0.000431,0.000235
24795000,0.0324,0.013523,0.002678,0.000431,0.000353
24796000,0.0324,0.013523,0.002678,0.000431,0.000470
24797000,0.0324,0.013523,0.002678,0.000431,0.000353
24798000,0.0324,0.013523,0.002678,0.000431,0.000118
24799000,0.0324,0.013523,0.002678,0.000431,0.000470
24800000,0.0324,0.013523,0.002678,0.000431,0.000353
24801000,0.0324,0.013523,0.002678,0.000431,0.000235
24802000,0.0324,0.013523,0.002678,0.000431,0.000353
24803000,0.0324,0.013523,0.002678,0.000431,0.000470
24804000,0.0324,0.013523,0.002678,0.000431,0.000353
24805000,0.0324,0.013523,0.002678,0.000431,0.000118
24806000,0.0324,0.013523,0.002678,0.000431,0.000470
24807000,0.0324,0.013523,0.002678,0.000431,0.000353
24808000,0.0324,0.013523,0.002678,0.000431,0.000235
24809000,0.0324,0.013523,0.002678,0.000431,0.000353
24810000,0.0324,0.013523,0.002678,0.000431,0.000470
24811000,0.0324,0.013523,0.002678,0.000431,0.000353
24812000,0.0324,0.013523,0.002678,0.000431,0.000118
24813000,0.0324,0.013523,0.002678,0.000431,0.000470
24814000,0.0324,0.013523,0.002678,0.000431,0.000353
24815000,0.0324,0.013523,0.002678,0.000431,0.000235
24816000,0.0324,0.013523,0.002678,0.000431,0.000353
24817000,0.0324,0.013523,0.002678,0.000431,0.000470
24818000,0.0324,0.013523,0.002678,0.000431,0.000235
24819000,0.0324,0.013523,0.002678,0.000431,0.000235
24820000,0.0324,0.013523,0.002678,0.000431,0.000470
24821000,0.0324,0.013523,0.002678,0.000431,0.000353
24822000,0.0324,0.013523,0.002678,0.000431,0.000235
24823000,0.0324,0.013523,0.002678,0.000431,0.000353
24824000,0.0324,0.013523,0.002678,0.000431,0.000470
24825000,0.0324,0.013523,0.002678,0.000431,0.000235
24826000,0.0324,0.013523,0.002678,0.000431,0.000235
24827000,0.0324,0.013523,0.002678,0.000431,0.000470
24828000,0.0324,0.013523,0.002678,0.000431,0.000353
24829000,0.0324,0.013523,0.002678,0.000431,0.000235
24830000,0.0324,0.013523,0.002678,0.000431,0.000353
24831000,0.0324,0.013523,0.002678,0.000431,0.000470
24832000,0.0324,0.013523,0.002678,0.000431,0.000235
24833000,0.0324,0.013523,0.002678,0.000431,0.000235
24834000,0.0324,0.013523,0.002678,0.000431,0.000470
24835000,0.0324,0.013523,0.002678,0.000431,0.000353
24836000,0.0324,0.013523,0.002678,0.000431,0.000235
24837000,0.0324,0.013523,0.002678,0.000431,0.000353
24838000,0.0324,0.013523,0.002678,0.000431,0.000470
24839000,0.0324,0.013523,0.002678,0.000431,0.000235
24840000,0.0324,0.013523,0.002678,0.000431,0.000235
24841000,0.0324,0.013523,0.002678,0.000431,0.000470
24842000,0.0324,0.013523,0.002678,0.000431,0.000353
24843000,0.0324,0.013523,0.002678,0.000431,0.000235
24844000,0.0324,0.013523,0.002678,0.000431,0.000353
24845000,0.0324,0.013523,0.002678,0.000431,0.000470
24846000,0.0324,0.013523,0.002678,0.000431,0.000235
24847000,0.0324,0.013523,0.002678,0.000431,0.000235
24848000,0.0324,0.013523,0.002678,0.000431,0.000470
24849000,0.0324,0.013523,0.002678,0.000431,0.000353
24850000,0.0324,0.013523,0.002678,0.000431,0.000235
24851000,0.0324,0.013523,0.002678,0.000431,0.000353
24852000,0.0324,0.013523,0.002678,0.000431,0.000470
24853000,0.0324,0.013523,0.002678,0.000431,0.000235
24854000,0.0324,0.013523,0.002678,0.000431,0.000235
24855000,0.0324,0.013523,0.002678,0.000431,0.000470
24856000,0.0324,0.013523,0.002678,0.000431,0.000353
24857000,0.0324,0.013523,0.002678,0.000431,0.000235
24858000,0.0324,0.013523,0.002678,0.000431,0.000353
24859000,0.0324,0.013523,0.002678,0.000431,0.000470
24860000,0.0324,0.013523,0.002678,0.000431,0.000118
24861000,0.0324,0.013523,0.002678,0.000431,0.000353
24862000,0.0324,0.013523,0.002678,0.000431,0.000470
24863000,0.0324,0.013523,0.002678,0.000431,0.000353
24864000,0.0324,0.013523,0.002678,0.000431,0.000235
24865000,0.0324,0.013523,0.002678,0.000431,0.000353
24866000,0.0324,0.013523,0.002678,0.000431,0.000470
24867000,0.0324,0.013523,0.002678,0.000431,0.000118
24868000,0.0324,0.013523,0.002678,0.000431,0.000353
24869000,0.0324,0.013523,0.002678,0.000431,0.000470
24870000,0.0324,0.013523,0.002678,0.000431,0.000353
24871000,0.0324,0.013523,0.002678,0.000431,0.000235
24872000,0.0324,0.013523,0.002678,0.000431,0.000353
24873000,0.0324,0.013523,0.002678,0.000431,0.000470
24874000,0.0324,0.013523,0.002678,0.000431,0.000118
24875000,0.0324,0.013523,0.002678,0.000431,0.000353
24876000,0.0324,0.013523,0.002678,0.000431,0.000470
24877000,0.0324,0.013523,0.002678,0.000431,0.000353
24878000,0.0324,0.013523,0.002678,0.000431,0.000235
24879000,0.0324,0.013523,0.002678,0.000431,0.000353
24880000,0.0324,0.013523,0.002678,0.000431,0.000353
24881000,0.0324,0.013523,0.002678,0.000431,0.000235
24882000,0.0324,0.013523,0.002678,0.000431,0.000353
24883000,0.0324,0.013523,0.002678,0.000431,0.000470
24884000,0.0324,0.013523,0.002678,0.000431,0.000353
24885000,0.0324,0.013523,0.002678,0.000431,0.000235
24886000,0.0324,0.013523,0.002678,0.000431,0.000353
24887000,0.0324,0.013523,0.002678,0.000431,0.000353
24888000,0.0324,0.013523,0.002678,0.000431,0.000235
24889000,0.0324,0.013523,0.002678,0.000431,0.000353
24890000,0.0324,0.013523,0.002678,0.000431,0.000470
24891000,0.0324,0.013523,0.002678,0.000431,0.000353
24892000,0.0324,0.013523,0.002678,0.000431,0.000235
24893000,0.0324,0.013523,0.002678,0.000431,0.000353
24894000,0.0324,0.013523,0.002678,0.000431,0.000353
24895000,0.0324,0.013523,0.002678,0.000431,0.000235
24896000,0.0324,0.013523,0.002678,0.000431,0.000353
24897000,0.0324,0.013523,0.002678,0.000431,0.000470
24898000,0.0324,0.013523,0.002678,0.000431,0.000353
24899000,0.0324,0.013523,0.002678,0.000431,0.000235
24900000,0.0324,0.013523,0.002678,0.000431,0.000353
24901000,0.0324,0.013523,0.002678,0.000431,0.000353
24902000,0.0324,0.013523,0.002678,0.000431,0.000235
24903000,0.0324,0.013523,0.002678,0.000431,0.000353
24904000,0.0324,0.013523,0.002678,0.000431,0.000470
24905000,0.0324,0.013523,0.002678,0.000431,0.000353
24906000,0.0324,0.013523,0.002678,0.000431,0.000235
24907000,0.0324,0.013523,0.002678,0.000431,0.000353
24908000,0.0324,0.013523,0.002678,0.000431,0.000353
24909000,0.0324,0.013523,0.002678,0.000431,0.000235
24910000,0.0324,0.013523,0.002678,0.000431,0.000353
24911000,0.0324,0.013523,0.002678,0.000431,0.000470
24912000,0.0324,0.013523,0.002678,0.000431,0.000353
24913000,0.0324,0.013523,0.002678,0.000431,0.000235
24914000,0.0324,0.013523,0.002678,0.000431,0.000353
24915000,0.0324,0.013523,0.002678,0.000431,0.000353
24916000,0.0324,0.013523,0.002678,0.000431,0.000235
24917000,0.0324,0.013523,0.002678,0.000431,0.000353
24918000,0.0324,0.013523,0.002678,0.000431,0.000470
24919000,0.0324,0.013523,0.002678,0.000431,0.000353
24920000,0.0324,0.013523,0.002678,0.000431,0.000235
24921000,0.0324,0.013523,0.002678,0.000431,0.000353
24922000,0.0324,0.013523,0.002678,0.000431,0.000353
24923000,0.0324,0.013523,0.002678,0.000431,0.000235
24924000,0.0324,0.013523,0.002678,0.000431,0.000353
24925000,0.0324,0.013523,0.002678,0.000431,0.000470
24926000,0.0324,0.013523,0.002678,0.000431,0.000353
24927000,0.0324,0.013523,0.002678,0.000431,0.000235
24928000,0.0324,0.013523,0.002678,0.000431,0.000353
24929000,0.0324,0.013523,0.002678,0.000431,0.000353
24930000,0.0324,0.013523,0.002678,0.000431,0.000235
24931000,0.0324,0.013523,0.002678,0.000431,0.000353
24932000,0.0324,0.013523,0.002678,0.000431,0.000470
24933000,0.0324,0.013523,0.002678,0.000431,0.000353
24934000,0.0324,0.013523,0.002678,0.000431,0.000118
24935000,0.0324,0.013523,0.002678,0.000431,0.000470
24936000,0.0324,0.013523,0.002678,0.000431,0.000353
24937000,0.0324,0.013523,0.002678,0.000431,0.000235
24938000,0.0324,0.013523,0.002678,0.000431,0.000353
24939000,0.0324,0.013523,0.002678,0.000431,0.000470
24940000,0.0324,0.013523,0.002678,0.000431,0.000353
24941000,0.0324,0.013523,0.002678,0.000431,0.000118
24942000,0.0324,0.013523,0.002678,0.000431,0.000470
24943000,0.0324,0.013523,0.002678,0.000431,0.000353
24944000,0.0324,0.013523,0.002678,0.000431,0.000235
24945000,0.0324,0.013523,0.002678,0.000431,0.000353
24946000,0.0324,0.013523,0.002678,0.000431,0.000470
24947000,0.0324,0.013523,0.002678,0.000431,0.000353
24948000,0.0324,0.013523,0.002678,0.000431,0.000118
24949000,0.0324,0.013523,0.002678,0.000431,0.000470
24950000,0.0324,0.013523,0.002678,0.000431,0.000353
24951000,0.0324,0.013523,0.002678,0.000431,0.000235
24952000,0.0324,0.013523,0.002678,0.000431,0.000353
24953000,0.0324,0.013523,0.002678,0.000431,0.000470
24954000,0.0324,0.013523,0.002678,0.000431,0.000353
24955000,0.0324,0.013523,0.002678,0.000431,0.000118
24956000,0.0324,0.013523,0.002678,0.000431,0.000470
24957000,0.0324,0.013523,0.002678,0.000431,0.000353
24958000,0.0324,0.013523,0.002678,0.000431,0.000235
24959000,0.0324,0.013523,0.002678,0.000431,0.000353
24960000,0.0324,0.013523,0.002678,0.000431,0.000470
24961000,0.0324,0.013523,0.002678,0.000431,0.000235
24962000,0.0324,0.013523,0.002678,0.000431,0.000235
24963000,0.0324,0.013523,0.002678,0.000431,0.000470
24964000,0.0324,0.013523,0.002678,0.000431,0.000353
24965000,0.0324,0.013523,0.002678,0.000431,0.000235
24966000,0.0324,0.013523,0.002678,0.000431,0.000353
24967000,0.0324,0.013523,0.002678,0.000431,0.000470
24968000,0.0324,0.013523,0.002678,0.000431,0.000235
24969000,0.0324,0.013523,0.002678,0.000431,0.000235
24970000,0.0324,0.013523,0.002678,0.000431,0.000470
24971000,0.0324,0.013523,0.002678,0.000431,0.000353
24972000,0.0324,0.013523,0.002678,0.000431,0.000235
24973000,0.0324,0.013523,0.002678,0.000431,0.000353
24974000,0.0324,0.013523,0.002678,0.000431,0.000470
24975000,0.0324,0.013523,0.002678,0.000431,0.000235
24976000,0.0324,0.013523,0.002678,0.000431,0.000235
24977000,0.0324,0.013523,0.002678,0.000431,0.000470
24978000,0.0324,0.013523,0.002678,0.000431,0.000353
24979000,0.0324,0.013523,0.002678,0.000431,0.000235
24980000,0.0324,0.013523,0.002678,0.000431,0.000353
24981000,0.0324,0.013523,0.002678,0.000431,0.000470
24982000,0.0324,0.013523,0.002678,0.000431,0.000235
24983000,0.0324,0.013523,0.002678,0.000431,0.000235
24984000,0.0324,0.013523,0.002678,0.000431,0.000470
24985000,0.0324,0.013523,0.002678,0.000431,0.000353
24986000,0.0324,0.013523,0.002678,0.000431,0.000235
24987000,0.0324,0.013523,0.002678,0.000431,0.000353
24988000,0.0324,0.013523,0.002678,0.000431,0.000470
24989000,0.0324,0.013523,0.002678,0.000431,0.000235
24990000,0.0324,0.013523,0.002678,0.000431,0.000235
24991000,0.0324,0.013523,0.002678,0.000431,0.000470
24992000,0.0324,0.013523,0.002678,0.000431,0.000353
24993000,0.0324,0.013523,0.002678,0.000431,0.000235
24994000,0.0324,0.013523,0.002678,0.000431,0.000353
24995000,0.0324,0.013523,0.002678,0.000431,0.000470
24996000,0.0324,0.013523,0.002678,0.000431,0.000118
24997000,0.0324,0.013523,0.002678,0.000431,0.000353
24998000,0.0324,0.013523,0.002678,0.000431,0.000470
24999000,0.0324,0.013523,0.002678,0.000431,0.000353
