Cycle,Area(mm^2),PeakDynamic(W),SubthresholdLeakage(W),GateLeakage(W),RunTimeDynamic(W)
1000,0.0324,0.013523,0.002678,0.000431,0.000000
2000,0.0324,0.013523,0.002678,0.000431,0.000000
3000,0.0324,0.013523,0.002678,0.000431,0.000000
4000,0.0324,0.013523,0.002678,0.000431,0.000000
5000,0.0324,0.013523,0.002678,0.000431,0.000000
6000,0.0324,0.013523,0.002678,0.000431,1.457232
7000,0.0324,0.013523,0.002678,0.000431,2.146300
8000,0.0324,0.013523,0.002678,0.000431,1.684179
9000,0.0324,0.013523,0.002678,0.000431,2.231625
10000,0.0324,0.013523,0.002678,0.000431,3.038691
11000,0.0324,0.013523,0.002678,0.000431,2.844064
12000,0.0324,0.013523,0.002678,0.000431,4.064125
13000,0.0324,0.013523,0.002678,0.000431,3.990669
14000,0.0324,0.013523,0.002678,0.000431,3.842231
15000,0.0324,0.013523,0.002678,0.000431,3.917332
16000,0.0324,0.013523,0.002678,0.000431,4.030511
17000,0.0324,0.013523,0.002678,0.000431,4.047906
18000,0.0324,0.013523,0.002678,0.000431,4.054017
19000,0.0324,0.013523,0.002678,0.000431,4.045438
20000,0.0324,0.013523,0.002678,0.000431,4.024988
21000,0.0324,0.013523,0.002678,0.000431,4.069883
22000,0.0324,0.013523,0.002678,0.000431,4.081049
23000,0.0324,0.013523,0.002678,0.000431,4.041324
24000,0.0324,0.013523,0.002678,0.000431,4.083517
25000,0.0324,0.013523,0.002678,0.000431,4.036388
26000,0.0324,0.013523,0.002678,0.000431,4.078581
27000,0.0324,0.013523,0.002678,0.000431,4.041912
28000,0.0324,0.013523,0.002678,0.000431,4.079403
29000,0.0324,0.013523,0.002678,0.000431,4.018641
30000,0.0324,0.013523,0.002678,0.000431,4.013587
31000,0.0324,0.013523,0.002678,0.000431,4.020404
32000,0.0324,0.013523,0.002678,0.000431,4.045908
33000,0.0324,0.013523,0.002678,0.000431,4.032509
34000,0.0324,0.013523,0.002678,0.000431,4.078228
35000,0.0324,0.013523,0.002678,0.000431,4.076465
36000,0.0324,0.013523,0.002678,0.000431,4.059658
37000,0.0324,0.013523,0.002678,0.000431,4.038151
38000,0.0324,0.013523,0.002678,0.000431,4.060599
39000,0.0324,0.013523,0.002678,0.000431,4.071999
40000,0.0324,0.013523,0.002678,0.000431,4.050961
41000,0.0324,0.013523,0.002678,0.000431,4.063184
42000,0.0324,0.013523,0.002678,0.000431,4.059541
43000,0.0324,0.013523,0.002678,0.000431,4.087983
44000,0.0324,0.013523,0.002678,0.000431,4.004538
45000,0.0324,0.013523,0.002678,0.000431,4.086102
46000,0.0324,0.013523,0.002678,0.000431,4.000072
47000,0.0324,0.013523,0.002678,0.000431,4.087513
48000,0.0324,0.013523,0.002678,0.000431,4.058248
49000,0.0324,0.013523,0.002678,0.000431,4.035565
50000,0.0324,0.013523,0.002678,0.000431,4.038503
51000,0.0324,0.013523,0.002678,0.000431,4.077758
52000,0.0324,0.013523,0.002678,0.000431,4.017113
53000,0.0324,0.013523,0.002678,0.000431,4.046378
54000,0.0324,0.013523,0.002678,0.000431,4.060716
55000,0.0324,0.013523,0.002678,0.000431,4.098208
56000,0.0324,0.013523,0.002678,0.000431,4.023460
57000,0.0324,0.013523,0.002678,0.000431,4.044967
58000,0.0324,0.013523,0.002678,0.000431,4.074585
59000,0.0324,0.013523,0.002678,0.000431,4.006653
60000,0.0324,0.013523,0.002678,0.000431,4.128060
61000,0.0324,0.013523,0.002678,0.000431,4.054840
62000,0.0324,0.013523,0.002678,0.000431,3.999719
63000,0.0324,0.013523,0.002678,0.000431,4.074232
64000,0.0324,0.013523,0.002678,0.000431,4.097973
65000,0.0324,0.013523,0.002678,0.000431,4.065065
66000,0.0324,0.013523,0.002678,0.000431,4.021579
67000,0.0324,0.013523,0.002678,0.000431,4.107140
68000,0.0324,0.013523,0.002678,0.000431,4.084339
69000,0.0324,0.013523,0.002678,0.000431,4.089158
70000,0.0324,0.013523,0.002678,0.000431,4.055898
71000,0.0324,0.013523,0.002678,0.000431,4.055663
72000,0.0324,0.013523,0.002678,0.000431,4.060834
73000,0.0324,0.013523,0.002678,0.000431,4.067768
74000,0.0324,0.013523,0.002678,0.000431,4.127590
75000,0.0324,0.013523,0.002678,0.000431,4.045085
76000,0.0324,0.013523,0.002678,0.000431,4.073879
77000,0.0324,0.013523,0.002678,0.000431,4.044262
78000,0.0324,0.013523,0.002678,0.000431,4.040149
79000,0.0324,0.013523,0.002678,0.000431,4.128530
80000,0.0324,0.013523,0.002678,0.000431,4.114309
81000,0.0324,0.013523,0.002678,0.000431,4.091391
82000,0.0324,0.013523,0.002678,0.000431,4.070706
83000,0.0324,0.013523,0.002678,0.000431,4.097267
84000,0.0324,0.013523,0.002678,0.000431,4.034390
85000,0.0324,0.013523,0.002678,0.000431,4.066240
86000,0.0324,0.013523,0.002678,0.000431,4.083399
87000,0.0324,0.013523,0.002678,0.000431,4.108903
88000,0.0324,0.013523,0.002678,0.000431,4.075760
89000,0.0324,0.013523,0.002678,0.000431,4.051549
90000,0.0324,0.013523,0.002678,0.000431,4.042499
91000,0.0324,0.013523,0.002678,0.000431,4.106670
92000,0.0324,0.013523,0.002678,0.000431,4.099736
93000,0.0324,0.013523,0.002678,0.000431,4.056368
94000,0.0324,0.013523,0.002678,0.000431,4.086337
95000,0.0324,0.013523,0.002678,0.000431,4.072704
96000,0.0324,0.013523,0.002678,0.000431,4.053194
97000,0.0324,0.013523,0.002678,0.000431,4.061774
98000,0.0324,0.013523,0.002678,0.000431,4.001364
99000,0.0324,0.013523,0.002678,0.000431,4.028278
100000,0.0324,0.013523,0.002678,0.000431,4.054957
101000,0.0324,0.013523,0.002678,0.000431,4.023342
102000,0.0324,0.013523,0.002678,0.000431,4.037328
103000,0.0324,0.013523,0.002678,0.000431,4.027808
104000,0.0324,0.013523,0.002678,0.000431,4.085280
105000,0.0324,0.013523,0.002678,0.000431,4.038386
106000,0.0324,0.013523,0.002678,0.000431,3.938487
107000,0.0324,0.013523,0.002678,0.000431,4.036388
108000,0.0324,0.013523,0.002678,0.000431,3.972100
109000,0.0324,0.013523,0.002678,0.000431,3.841644
110000,0.0324,0.013523,0.002678,0.000431,3.853632
111000,0.0324,0.013523,0.002678,0.000431,3.772772
112000,0.0324,0.013523,0.002678,0.000431,3.741745
113000,0.0324,0.013523,0.002678,0.000431,3.537951
114000,0.0324,0.013523,0.002678,0.000431,3.460617
115000,0.0324,0.013523,0.002678,0.000431,3.245423
116000,0.0324,0.013523,0.002678,0.000431,3.138120
117000,0.0324,0.013523,0.002678,0.000431,3.032580
118000,0.0324,0.013523,0.002678,0.000431,2.913876
119000,0.0324,0.013523,0.002678,0.000431,2.809511
120000,0.0324,0.013523,0.002678,0.000431,2.715019
121000,0.0324,0.013523,0.002678,0.000431,2.617353
122000,0.0324,0.013523,0.002678,0.000431,2.466211
123000,0.0324,0.013523,0.002678,0.000431,2.347155
124000,0.0324,0.013523,0.002678,0.000431,2.226336
125000,0.0324,0.013523,0.002678,0.000431,2.123029
126000,0.0324,0.013523,0.002678,0.000431,2.050514
127000,0.0324,0.013523,0.002678,0.000431,1.938040
128000,0.0324,0.013523,0.002678,0.000431,1.846368
129000,0.0324,0.013523,0.002678,0.000431,1.802177
130000,0.0324,0.013523,0.002678,0.000431,1.722258
131000,0.0324,0.013523,0.002678,0.000431,1.669723
132000,0.0324,0.013523,0.002678,0.000431,1.596620
133000,0.0324,0.013523,0.002678,0.000431,1.545261
134000,0.0324,0.013523,0.002678,0.000431,1.492961
135000,0.0324,0.013523,0.002678,0.000431,1.461345
136000,0.0324,0.013523,0.002678,0.000431,1.406577
137000,0.0324,0.013523,0.002678,0.000431,1.351339
138000,0.0324,0.013523,0.002678,0.000431,1.328656
139000,0.0324,0.013523,0.002678,0.000431,1.286228
140000,0.0324,0.013523,0.002678,0.000431,1.259314
141000,0.0324,0.013523,0.002678,0.000431,1.235809
142000,0.0324,0.013523,0.002678,0.000431,1.189033
143000,0.0324,0.013523,0.002678,0.000431,1.142256
144000,0.0324,0.013523,0.002678,0.000431,1.093247
145000,0.0324,0.013523,0.002678,0.000431,1.092307
146000,0.0324,0.013523,0.002678,0.000431,1.024611
147000,0.0324,0.013523,0.002678,0.000431,1.009567
148000,0.0324,0.013523,0.002678,0.000431,0.976424
149000,0.0324,0.013523,0.002678,0.000431,0.964554
150000,0.0324,0.013523,0.002678,0.000431,0.943986
151000,0.0324,0.013523,0.002678,0.000431,0.880404
152000,0.0324,0.013523,0.002678,0.000431,0.867476
153000,0.0324,0.013523,0.002678,0.000431,0.817761
154000,0.0324,0.013523,0.002678,0.000431,0.824225
155000,0.0324,0.013523,0.002678,0.000431,0.796253
156000,0.0324,0.013523,0.002678,0.000431,0.750182
157000,0.0324,0.013523,0.002678,0.000431,0.733846
158000,0.0324,0.013523,0.002678,0.000431,0.715277
159000,0.0324,0.013523,0.002678,0.000431,0.699763
160000,0.0324,0.013523,0.002678,0.000431,0.664622
161000,0.0324,0.013523,0.002678,0.000431,0.648168
162000,0.0324,0.013523,0.002678,0.000431,0.615260
163000,0.0324,0.013523,0.002678,0.000431,0.606680
164000,0.0324,0.013523,0.002678,0.000431,0.573067
165000,0.0324,0.013523,0.002678,0.000431,0.561315
166000,0.0324,0.013523,0.002678,0.000431,0.525704
167000,0.0324,0.013523,0.002678,0.000431,0.520415
168000,0.0324,0.013523,0.002678,0.000431,0.512893
169000,0.0324,0.013523,0.002678,0.000431,0.485626
170000,0.0324,0.013523,0.002678,0.000431,0.459183
171000,0.0324,0.013523,0.002678,0.000431,0.450956
172000,0.0324,0.013523,0.002678,0.000431,0.433209
173000,0.0324,0.013523,0.002678,0.000431,0.428038
174000,0.0324,0.013523,0.002678,0.000431,0.403122
175000,0.0324,0.013523,0.002678,0.000431,0.387843
176000,0.0324,0.013523,0.002678,0.000431,0.366570
177000,0.0324,0.013523,0.002678,0.000431,0.360106
178000,0.0324,0.013523,0.002678,0.000431,0.341772
179000,0.0324,0.013523,0.002678,0.000431,0.333427
180000,0.0324,0.013523,0.002678,0.000431,0.329079
181000,0.0324,0.013523,0.002678,0.000431,0.315563
182000,0.0324,0.013523,0.002678,0.000431,0.297934
183000,0.0324,0.013523,0.002678,0.000431,0.290295
184000,0.0324,0.013523,0.002678,0.000431,0.281127
185000,0.0324,0.013523,0.002678,0.000431,0.277131
186000,0.0324,0.013523,0.002678,0.000431,0.256564
187000,0.0324,0.013523,0.002678,0.000431,0.254801
188000,0.0324,0.013523,0.002678,0.000431,0.250453
189000,0.0324,0.013523,0.002678,0.000431,0.228357
190000,0.0324,0.013523,0.002678,0.000431,0.223656
191000,0.0324,0.013523,0.002678,0.000431,0.217075
192000,0.0324,0.013523,0.002678,0.000431,0.210023
193000,0.0324,0.013523,0.002678,0.000431,0.205792
194000,0.0324,0.013523,0.002678,0.000431,0.202501
195000,0.0324,0.013523,0.002678,0.000431,0.194627
196000,0.0324,0.013523,0.002678,0.000431,0.182521
197000,0.0324,0.013523,0.002678,0.000431,0.181816
198000,0.0324,0.013523,0.002678,0.000431,0.173119
199000,0.0324,0.013523,0.002678,0.000431,0.164892
200000,0.0324,0.013523,0.002678,0.000431,0.155725
201000,0.0324,0.013523,0.002678,0.000431,0.154432
202000,0.0324,0.013523,0.002678,0.000431,0.146910
203000,0.0324,0.013523,0.002678,0.000431,0.142797
204000,0.0324,0.013523,0.002678,0.000431,0.144325
205000,0.0324,0.013523,0.002678,0.000431,0.136803
206000,0.0324,0.013523,0.002678,0.000431,0.131279
207000,0.0324,0.013523,0.002678,0.000431,0.121407
208000,0.0324,0.013523,0.002678,0.000431,0.121054
209000,0.0324,0.013523,0.002678,0.000431,0.117176
210000,0.0324,0.013523,0.002678,0.000431,0.113650
211000,0.0324,0.013523,0.002678,0.000431,0.112592
212000,0.0324,0.013523,0.002678,0.000431,0.107303
213000,0.0324,0.013523,0.002678,0.000431,0.103307
214000,0.0324,0.013523,0.002678,0.000431,0.100839
215000,0.0324,0.013523,0.002678,0.000431,0.094728
216000,0.0324,0.013523,0.002678,0.000431,0.093905
217000,0.0324,0.013523,0.002678,0.000431,0.088734
218000,0.0324,0.013523,0.002678,0.000431,0.084385
219000,0.0324,0.013523,0.002678,0.000431,0.082975
220000,0.0324,0.013523,0.002678,0.000431,0.083327
221000,0.0324,0.013523,0.002678,0.000431,0.081565
222000,0.0324,0.013523,0.002678,0.000431,0.076158
223000,0.0324,0.013523,0.002678,0.000431,0.077569
224000,0.0324,0.013523,0.002678,0.000431,0.073103
225000,0.0324,0.013523,0.002678,0.000431,0.068166
226000,0.0324,0.013523,0.002678,0.000431,0.071692
227000,0.0324,0.013523,0.002678,0.000431,0.069812
228000,0.0324,0.013523,0.002678,0.000431,0.061467
229000,0.0324,0.013523,0.002678,0.000431,0.061702
230000,0.0324,0.013523,0.002678,0.000431,0.058529
231000,0.0324,0.013523,0.002678,0.000431,0.056178
232000,0.0324,0.013523,0.002678,0.000431,0.054180
233000,0.0324,0.013523,0.002678,0.000431,0.054533
234000,0.0324,0.013523,0.002678,0.000431,0.051125
235000,0.0324,0.013523,0.002678,0.000431,0.050420
236000,0.0324,0.013523,0.002678,0.000431,0.049009
237000,0.0324,0.013523,0.002678,0.000431,0.047364
238000,0.0324,0.013523,0.002678,0.000431,0.043838
239000,0.0324,0.013523,0.002678,0.000431,0.045248
240000,0.0324,0.013523,0.002678,0.000431,0.044543
241000,0.0324,0.013523,0.002678,0.000431,0.040665
242000,0.0324,0.013523,0.002678,0.000431,0.042310
243000,0.0324,0.013523,0.002678,0.000431,0.041017
244000,0.0324,0.013523,0.002678,0.000431,0.038432
245000,0.0324,0.013523,0.002678,0.000431,0.038549
246000,0.0324,0.013523,0.002678,0.000431,0.037609
247000,0.0324,0.013523,0.002678,0.000431,0.037374
248000,0.0324,0.013523,0.002678,0.000431,0.033966
249000,0.0324,0.013523,0.002678,0.000431,0.037609
250000,0.0324,0.013523,0.002678,0.000431,0.033496
251000,0.0324,0.013523,0.002678,0.000431,0.036316
252000,0.0324,0.013523,0.002678,0.000431,0.032085
253000,0.0324,0.013523,0.002678,0.000431,0.027972
254000,0.0324,0.013523,0.002678,0.000431,0.032085
255000,0.0324,0.013523,0.002678,0.000431,0.029617
256000,0.0324,0.013523,0.002678,0.000431,0.026209
257000,0.0324,0.013523,0.002678,0.000431,0.026209
258000,0.0324,0.013523,0.002678,0.000431,0.026209
259000,0.0324,0.013523,0.002678,0.000431,0.025504
260000,0.0324,0.013523,0.002678,0.000431,0.026679
261000,0.0324,0.013523,0.002678,0.000431,0.024798
262000,0.0324,0.013523,0.002678,0.000431,0.022918
263000,0.0324,0.013523,0.002678,0.000431,0.024093
264000,0.0324,0.013523,0.002678,0.000431,0.020097
265000,0.0324,0.013523,0.002678,0.000431,0.021508
266000,0.0324,0.013523,0.002678,0.000431,0.019510
267000,0.0324,0.013523,0.002678,0.000431,0.025151
268000,0.0324,0.013523,0.002678,0.000431,0.019392
269000,0.0324,0.013523,0.002678,0.000431,0.019627
270000,0.0324,0.013523,0.002678,0.000431,0.019745
271000,0.0324,0.013523,0.002678,0.000431,0.019627
272000,0.0324,0.013523,0.002678,0.000431,0.017512
273000,0.0324,0.013523,0.002678,0.000431,0.017629
274000,0.0324,0.013523,0.002678,0.000431,0.019862
275000,0.0324,0.013523,0.002678,0.000431,0.017512
276000,0.0324,0.013523,0.002678,0.000431,0.017747
277000,0.0324,0.013523,0.002678,0.000431,0.017629
278000,0.0324,0.013523,0.002678,0.000431,0.016454
279000,0.0324,0.013523,0.002678,0.000431,0.017629
280000,0.0324,0.013523,0.002678,0.000431,0.016689
281000,0.0324,0.013523,0.002678,0.000431,0.016571
282000,0.0324,0.013523,0.002678,0.000431,0.015161
283000,0.0324,0.013523,0.002678,0.000431,0.014691
284000,0.0324,0.013523,0.002678,0.000431,0.014221
285000,0.0324,0.013523,0.002678,0.000431,0.016101
286000,0.0324,0.013523,0.002678,0.000431,0.014103
287000,0.0324,0.013523,0.002678,0.000431,0.016101
288000,0.0324,0.013523,0.002678,0.000431,0.013163
289000,0.0324,0.013523,0.002678,0.000431,0.013986
290000,0.0324,0.013523,0.002678,0.000431,0.013281
291000,0.0324,0.013523,0.002678,0.000431,0.013516
292000,0.0324,0.013523,0.002678,0.000431,0.011635
293000,0.0324,0.013523,0.002678,0.000431,0.013046
294000,0.0324,0.013523,0.002678,0.000431,0.011635
295000,0.0324,0.013523,0.002678,0.000431,0.011518
296000,0.0324,0.013523,0.002678,0.000431,0.012811
297000,0.0324,0.013523,0.002678,0.000431,0.012223
298000,0.0324,0.013523,0.002678,0.000431,0.011635
299000,0.0324,0.013523,0.002678,0.000431,0.012340
300000,0.0324,0.013523,0.002678,0.000431,0.009872
301000,0.0324,0.013523,0.002678,0.000431,0.010342
302000,0.0324,0.013523,0.002678,0.000431,0.010107
303000,0.0324,0.013523,0.002678,0.000431,0.010342
304000,0.0324,0.013523,0.002678,0.000431,0.009402
305000,0.0324,0.013523,0.002678,0.000431,0.011165
306000,0.0324,0.013523,0.002678,0.000431,0.010578
307000,0.0324,0.013523,0.002678,0.000431,0.009167
308000,0.0324,0.013523,0.002678,0.000431,0.009755
309000,0.0324,0.013523,0.002678,0.000431,0.008815
310000,0.0324,0.013523,0.002678,0.000431,0.009167
311000,0.0324,0.013523,0.002678,0.000431,0.009285
312000,0.0324,0.013523,0.002678,0.000431,0.008109
313000,0.0324,0.013523,0.002678,0.000431,0.009402
314000,0.0324,0.013523,0.002678,0.000431,0.008815
315000,0.0324,0.013523,0.002678,0.000431,0.008580
316000,0.0324,0.013523,0.002678,0.000431,0.007874
317000,0.0324,0.013523,0.002678,0.000431,0.007757
318000,0.0324,0.013523,0.002678,0.000431,0.008227
319000,0.0324,0.013523,0.002678,0.000431,0.007874
320000,0.0324,0.013523,0.002678,0.000431,0.009285
321000,0.0324,0.013523,0.002678,0.000431,0.007639
322000,0.0324,0.013523,0.002678,0.000431,0.007874
323000,0.0324,0.013523,0.002678,0.000431,0.007169
324000,0.0324,0.013523,0.002678,0.000431,0.007757
325000,0.0324,0.013523,0.002678,0.000431,0.008580
326000,0.0324,0.013523,0.002678,0.000431,0.008580
327000,0.0324,0.013523,0.002678,0.000431,0.009285
328000,0.0324,0.013523,0.002678,0.000431,0.008697
329000,0.0324,0.013523,0.002678,0.000431,0.007992
330000,0.0324,0.013523,0.002678,0.000431,0.006464
331000,0.0324,0.013523,0.002678,0.000431,0.006817
332000,0.0324,0.013523,0.002678,0.000431,0.006582
333000,0.0324,0.013523,0.002678,0.000431,0.006111
334000,0.0324,0.013523,0.002678,0.000431,0.007169
335000,0.0324,0.013523,0.002678,0.000431,0.007639
336000,0.0324,0.013523,0.002678,0.000431,0.007992
337000,0.0324,0.013523,0.002678,0.000431,0.007052
338000,0.0324,0.013523,0.002678,0.000431,0.007169
339000,0.0324,0.013523,0.002678,0.000431,0.005289
340000,0.0324,0.013523,0.002678,0.000431,0.007169
341000,0.0324,0.013523,0.002678,0.000431,0.006347
342000,0.0324,0.013523,0.002678,0.000431,0.007169
343000,0.0324,0.013523,0.002678,0.000431,0.006229
344000,0.0324,0.013523,0.002678,0.000431,0.006934
345000,0.0324,0.013523,0.002678,0.000431,0.006699
346000,0.0324,0.013523,0.002678,0.000431,0.005171
347000,0.0324,0.013523,0.002678,0.000431,0.005289
348000,0.0324,0.013523,0.002678,0.000431,0.007169
349000,0.0324,0.013523,0.002678,0.000431,0.005759
350000,0.0324,0.013523,0.002678,0.000431,0.005759
351000,0.0324,0.013523,0.002678,0.000431,0.004819
352000,0.0324,0.013523,0.002678,0.000431,0.006229
353000,0.0324,0.013523,0.002678,0.000431,0.005994
354000,0.0324,0.013523,0.002678,0.000431,0.006347
355000,0.0324,0.013523,0.002678,0.000431,0.005171
356000,0.0324,0.013523,0.002678,0.000431,0.006229
357000,0.0324,0.013523,0.002678,0.000431,0.005759
358000,0.0324,0.013523,0.002678,0.000431,0.005054
359000,0.0324,0.013523,0.002678,0.000431,0.005994
360000,0.0324,0.013523,0.002678,0.000431,0.005406
361000,0.0324,0.013523,0.002678,0.000431,0.005171
362000,0.0324,0.013523,0.002678,0.000431,0.004701
363000,0.0324,0.013523,0.002678,0.000431,0.004936
364000,0.0324,0.013523,0.002678,0.000431,0.005641
365000,0.0324,0.013523,0.002678,0.000431,0.005876
366000,0.0324,0.013523,0.002678,0.000431,0.005171
367000,0.0324,0.013523,0.002678,0.000431,0.004936
368000,0.0324,0.013523,0.002678,0.000431,0.005759
369000,0.0324,0.013523,0.002678,0.000431,0.005406
370000,0.0324,0.013523,0.002678,0.000431,0.004584
371000,0.0324,0.013523,0.002678,0.000431,0.005406
372000,0.0324,0.013523,0.002678,0.000431,0.004936
373000,0.0324,0.013523,0.002678,0.000431,0.005054
374000,0.0324,0.013523,0.002678,0.000431,0.004936
375000,0.0324,0.013523,0.002678,0.000431,0.005289
376000,0.0324,0.013523,0.002678,0.000431,0.004349
377000,0.0324,0.013523,0.002678,0.000431,0.004113
378000,0.0324,0.013523,0.002678,0.000431,0.004231
379000,0.0324,0.013523,0.002678,0.000431,0.004231
380000,0.0324,0.013523,0.002678,0.000431,0.004936
381000,0.0324,0.013523,0.002678,0.000431,0.004819
382000,0.0324,0.013523,0.002678,0.000431,0.004466
383000,0.0324,0.013523,0.002678,0.000431,0.004466
384000,0.0324,0.013523,0.002678,0.000431,0.004231
385000,0.0324,0.013523,0.002678,0.000431,0.004819
386000,0.0324,0.013523,0.002678,0.000431,0.004349
387000,0.0324,0.013523,0.002678,0.000431,0.003643
388000,0.0324,0.013523,0.002678,0.000431,0.004701
389000,0.0324,0.013523,0.002678,0.000431,0.004701
390000,0.0324,0.013523,0.002678,0.000431,0.004819
391000,0.0324,0.013523,0.002678,0.000431,0.003526
392000,0.0324,0.013523,0.002678,0.000431,0.004349
393000,0.0324,0.013523,0.002678,0.000431,0.004113
394000,0.0324,0.013523,0.002678,0.000431,0.003996
395000,0.0324,0.013523,0.002678,0.000431,0.003761
396000,0.0324,0.013523,0.002678,0.000431,0.003878
397000,0.0324,0.013523,0.002678,0.000431,0.003056
398000,0.0324,0.013523,0.002678,0.000431,0.003173
399000,0.0324,0.013523,0.002678,0.000431,0.002821
400000,0.0324,0.013523,0.002678,0.000431,0.003291
401000,0.0324,0.013523,0.002678,0.000431,0.004113
402000,0.0324,0.013523,0.002678,0.000431,0.003408
403000,0.0324,0.013523,0.002678,0.000431,0.003056
404000,0.0324,0.013523,0.002678,0.000431,0.004113
405000,0.0324,0.013523,0.002678,0.000431,0.003643
406000,0.0324,0.013523,0.002678,0.000431,0.003761
407000,0.0324,0.013523,0.002678,0.000431,0.004113
408000,0.0324,0.013523,0.002678,0.000431,0.003408
409000,0.0324,0.013523,0.002678,0.000431,0.003526
410000,0.0324,0.013523,0.002678,0.000431,0.003761
411000,0.0324,0.013523,0.002678,0.000431,0.003173
412000,0.0324,0.013523,0.002678,0.000431,0.003643
413000,0.0324,0.013523,0.002678,0.000431,0.003291
414000,0.0324,0.013523,0.002678,0.000431,0.003408
415000,0.0324,0.013523,0.002678,0.000431,0.001998
416000,0.0324,0.013523,0.002678,0.000431,0.003408
417000,0.0324,0.013523,0.002678,0.000431,0.003996
418000,0.0324,0.013523,0.002678,0.000431,0.003878
419000,0.0324,0.013523,0.002678,0.000431,0.003526
420000,0.0324,0.013523,0.002678,0.000431,0.002586
421000,0.0324,0.013523,0.002678,0.000431,0.003878
422000,0.0324,0.013523,0.002678,0.000431,0.004113
423000,0.0324,0.013523,0.002678,0.000431,0.003291
424000,0.0324,0.013523,0.002678,0.000431,0.003526
425000,0.0324,0.013523,0.002678,0.000431,0.002938
426000,0.0324,0.013523,0.002678,0.000431,0.003526
427000,0.0324,0.013523,0.002678,0.000431,0.003056
428000,0.0324,0.013523,0.002678,0.000431,0.003408
429000,0.0324,0.013523,0.002678,0.000431,0.002468
430000,0.0324,0.013523,0.002678,0.000431,0.003056
431000,0.0324,0.013523,0.002678,0.000431,0.003408
432000,0.0324,0.013523,0.002678,0.000431,0.003291
433000,0.0324,0.013523,0.002678,0.000431,0.002586
434000,0.0324,0.013523,0.002678,0.000431,0.002938
435000,0.0324,0.013523,0.002678,0.000431,0.003056
436000,0.0324,0.013523,0.002678,0.000431,0.002938
437000,0.0324,0.013523,0.002678,0.000431,0.002468
438000,0.0324,0.013523,0.002678,0.000431,0.003408
439000,0.0324,0.013523,0.002678,0.000431,0.002938
440000,0.0324,0.013523,0.002678,0.000431,0.003173
441000,0.0324,0.013523,0.002678,0.000431,0.003291
442000,0.0324,0.013523,0.002678,0.000431,0.002821
443000,0.0324,0.013523,0.002678,0.000431,0.003056
444000,0.0324,0.013523,0.002678,0.000431,0.002351
445000,0.0324,0.013523,0.002678,0.000431,0.002938
446000,0.0324,0.013523,0.002678,0.000431,0.003408
447000,0.0324,0.013523,0.002678,0.000431,0.002821
448000,0.0324,0.013523,0.002678,0.000431,0.002938
449000,0.0324,0.013523,0.002678,0.000431,0.003173
450000,0.0324,0.013523,0.002678,0.000431,0.003173
451000,0.0324,0.013523,0.002678,0.000431,0.002703
452000,0.0324,0.013523,0.002678,0.000431,0.003173
453000,0.0324,0.013523,0.002678,0.000431,0.002351
454000,0.0324,0.013523,0.002678,0.000431,0.002586
455000,0.0324,0.013523,0.002678,0.000431,0.002468
456000,0.0324,0.013523,0.002678,0.000431,0.002821
457000,0.0324,0.013523,0.002678,0.000431,0.002703
458000,0.0324,0.013523,0.002678,0.000431,0.002116
459000,0.0324,0.013523,0.002678,0.000431,0.002586
460000,0.0324,0.013523,0.002678,0.000431,0.003056
461000,0.0324,0.013523,0.002678,0.000431,0.002821
462000,0.0324,0.013523,0.002678,0.000431,0.003056
463000,0.0324,0.013523,0.002678,0.000431,0.002938
464000,0.0324,0.013523,0.002678,0.000431,0.002351
465000,0.0324,0.013523,0.002678,0.000431,0.002351
466000,0.0324,0.013523,0.002678,0.000431,0.003408
467000,0.0324,0.013523,0.002678,0.000431,0.002821
468000,0.0324,0.013523,0.002678,0.000431,0.002821
469000,0.0324,0.013523,0.002678,0.000431,0.002351
470000,0.0324,0.013523,0.002678,0.000431,0.002703
471000,0.0324,0.013523,0.002678,0.000431,0.002821
472000,0.0324,0.013523,0.002678,0.000431,0.002821
473000,0.0324,0.013523,0.002678,0.000431,0.003056
474000,0.0324,0.013523,0.002678,0.000431,0.002351
475000,0.0324,0.013523,0.002678,0.000431,0.002703
476000,0.0324,0.013523,0.002678,0.000431,0.002821
477000,0.0324,0.013523,0.002678,0.000431,0.002468
478000,0.0324,0.013523,0.002678,0.000431,0.003056
479000,0.0324,0.013523,0.002678,0.000431,0.003056
480000,0.0324,0.013523,0.002678,0.000431,0.002938
481000,0.0324,0.013523,0.002678,0.000431,0.003408
482000,0.0324,0.013523,0.002678,0.000431,0.001645
483000,0.0324,0.013523,0.002678,0.000431,0.003056
484000,0.0324,0.013523,0.002678,0.000431,0.002351
485000,0.0324,0.013523,0.002678,0.000431,0.003408
486000,0.0324,0.013523,0.002678,0.000431,0.002938
487000,0.0324,0.013523,0.002678,0.000431,0.002821
488000,0.0324,0.013523,0.002678,0.000431,0.003408
489000,0.0324,0.013523,0.002678,0.000431,0.002233
490000,0.0324,0.013523,0.002678,0.000431,0.002703
491000,0.0324,0.013523,0.002678,0.000431,0.002821
492000,0.0324,0.013523,0.002678,0.000431,0.002233
493000,0.0324,0.013523,0.002678,0.000431,0.002468
494000,0.0324,0.013523,0.002678,0.000431,0.003291
495000,0.0324,0.013523,0.002678,0.000431,0.002586
496000,0.0324,0.013523,0.002678,0.000431,0.002116
497000,0.0324,0.013523,0.002678,0.000431,0.002586
498000,0.0324,0.013523,0.002678,0.000431,0.002821
499000,0.0324,0.013523,0.002678,0.000431,0.002703
500000,0.0324,0.013523,0.002678,0.000431,0.002116
501000,0.0324,0.013523,0.002678,0.000431,0.002703
502000,0.0324,0.013523,0.002678,0.000431,0.002586
503000,0.0324,0.013523,0.002678,0.000431,0.002821
504000,0.0324,0.013523,0.002678,0.000431,0.002938
505000,0.0324,0.013523,0.002678,0.000431,0.001880
506000,0.0324,0.013523,0.002678,0.000431,0.002703
507000,0.0324,0.013523,0.002678,0.000431,0.002468
508000,0.0324,0.013523,0.002678,0.000431,0.002468
509000,0.0324,0.013523,0.002678,0.000431,0.002351
510000,0.0324,0.013523,0.002678,0.000431,0.001645
511000,0.0324,0.013523,0.002678,0.000431,0.002938
512000,0.0324,0.013523,0.002678,0.000431,0.001998
513000,0.0324,0.013523,0.002678,0.000431,0.002233
514000,0.0324,0.013523,0.002678,0.000431,0.002116
515000,0.0324,0.013523,0.002678,0.000431,0.001880
516000,0.0324,0.013523,0.002678,0.000431,0.002586
517000,0.0324,0.013523,0.002678,0.000431,0.002586
518000,0.0324,0.013523,0.002678,0.000431,0.002116
519000,0.0324,0.013523,0.002678,0.000431,0.001763
520000,0.0324,0.013523,0.002678,0.000431,0.002233
521000,0.0324,0.013523,0.002678,0.000431,0.002468
522000,0.0324,0.013523,0.002678,0.000431,0.002233
523000,0.0324,0.013523,0.002678,0.000431,0.002938
524000,0.0324,0.013523,0.002678,0.000431,0.001763
525000,0.0324,0.013523,0.002678,0.000431,0.001763
526000,0.0324,0.013523,0.002678,0.000431,0.001763
527000,0.0324,0.013523,0.002678,0.000431,0.001528
528000,0.0324,0.013523,0.002678,0.000431,0.001880
529000,0.0324,0.013523,0.002678,0.000431,0.001293
530000,0.0324,0.013523,0.002678,0.000431,0.001058
531000,0.0324,0.013523,0.002678,0.000431,0.001175
532000,0.0324,0.013523,0.002678,0.000431,0.001175
533000,0.0324,0.013523,0.002678,0.000431,0.000940
534000,0.0324,0.013523,0.002678,0.000431,0.000705
535000,0.0324,0.013523,0.002678,0.000431,0.001293
536000,0.0324,0.013523,0.002678,0.000431,0.001058
537000,0.0324,0.013523,0.002678,0.000431,0.001058
538000,0.0324,0.013523,0.002678,0.000431,0.001410
539000,0.0324,0.013523,0.002678,0.000431,0.000823
540000,0.0324,0.013523,0.002678,0.000431,0.001175
541000,0.0324,0.013523,0.002678,0.000431,0.001410
542000,0.0324,0.013523,0.002678,0.000431,0.001058
543000,0.0324,0.013523,0.002678,0.000431,0.001293
544000,0.0324,0.013523,0.002678,0.000431,0.001058
545000,0.0324,0.013523,0.002678,0.000431,0.001058
546000,0.0324,0.013523,0.002678,0.000431,0.001175
547000,0.0324,0.013523,0.002678,0.000431,0.001058
548000,0.0324,0.013523,0.002678,0.000431,0.000940
549000,0.0324,0.013523,0.002678,0.000431,0.001528
550000,0.0324,0.013523,0.002678,0.000431,0.000940
551000,0.0324,0.013523,0.002678,0.000431,0.001410
552000,0.0324,0.013523,0.002678,0.000431,0.000823
553000,0.0324,0.013523,0.002678,0.000431,0.000940
554000,0.0324,0.013523,0.002678,0.000431,0.000823
555000,0.0324,0.013523,0.002678,0.000431,0.000823
556000,0.0324,0.013523,0.002678,0.000431,0.001058
557000,0.0324,0.013523,0.002678,0.000431,0.001410
558000,0.0324,0.013523,0.002678,0.000431,0.001058
559000,0.0324,0.013523,0.002678,0.000431,0.001175
560000,0.0324,0.013523,0.002678,0.000431,0.001175
561000,0.0324,0.013523,0.002678,0.000431,0.001293
562000,0.0324,0.013523,0.002678,0.000431,0.000940
563000,0.0324,0.013523,0.002678,0.000431,0.001175
564000,0.0324,0.013523,0.002678,0.000431,0.001293
565000,0.0324,0.013523,0.002678,0.000431,0.001175
566000,0.0324,0.013523,0.002678,0.000431,0.001058
567000,0.0324,0.013523,0.002678,0.000431,0.001058
568000,0.0324,0.013523,0.002678,0.000431,0.001410
569000,0.0324,0.013523,0.002678,0.000431,0.001058
570000,0.0324,0.013523,0.002678,0.000431,0.001410
571000,0.0324,0.013523,0.002678,0.000431,0.001175
572000,0.0324,0.013523,0.002678,0.000431,0.001058
573000,0.0324,0.013523,0.002678,0.000431,0.001410
574000,0.0324,0.013523,0.002678,0.000431,0.001175
575000,0.0324,0.013523,0.002678,0.000431,0.001410
576000,0.0324,0.013523,0.002678,0.000431,0.000940
577000,0.0324,0.013523,0.002678,0.000431,0.001293
578000,0.0324,0.013523,0.002678,0.000431,0.001293
579000,0.0324,0.013523,0.002678,0.000431,0.000823
580000,0.0324,0.013523,0.002678,0.000431,0.001293
581000,0.0324,0.013523,0.002678,0.000431,0.001058
582000,0.0324,0.013523,0.002678,0.000431,0.001410
583000,0.0324,0.013523,0.002678,0.000431,0.001175
584000,0.0324,0.013523,0.002678,0.000431,0.001175
585000,0.0324,0.013523,0.002678,0.000431,0.001058
586000,0.0324,0.013523,0.002678,0.000431,0.000940
587000,0.0324,0.013523,0.002678,0.000431,0.001410
588000,0.0324,0.013523,0.002678,0.000431,0.000823
589000,0.0324,0.013523,0.002678,0.000431,0.001058
590000,0.0324,0.013523,0.002678,0.000431,0.001175
591000,0.0324,0.013523,0.002678,0.000431,0.001058
592000,0.0324,0.013523,0.002678,0.000431,0.001293
593000,0.0324,0.013523,0.002678,0.000431,0.000823
594000,0.0324,0.013523,0.002678,0.000431,0.001293
595000,0.0324,0.013523,0.002678,0.000431,0.001058
596000,0.0324,0.013523,0.002678,0.000431,0.001175
597000,0.0324,0.013523,0.002678,0.000431,0.001058
598000,0.0324,0.013523,0.002678,0.000431,0.000940
599000,0.0324,0.013523,0.002678,0.000431,0.001175
600000,0.0324,0.013523,0.002678,0.000431,0.000823
601000,0.0324,0.013523,0.002678,0.000431,0.001293
602000,0.0324,0.013523,0.002678,0.000431,0.000940
603000,0.0324,0.013523,0.002678,0.000431,0.000940
604000,0.0324,0.013523,0.002678,0.000431,0.000823
605000,0.0324,0.013523,0.002678,0.000431,0.001058
606000,0.0324,0.013523,0.002678,0.000431,0.001293
607000,0.0324,0.013523,0.002678,0.000431,0.000823
608000,0.0324,0.013523,0.002678,0.000431,0.001410
609000,0.0324,0.013523,0.002678,0.000431,0.000823
610000,0.0324,0.013523,0.002678,0.000431,0.001175
611000,0.0324,0.013523,0.002678,0.000431,0.001175
612000,0.0324,0.013523,0.002678,0.000431,0.001058
613000,0.0324,0.013523,0.002678,0.000431,0.001175
614000,0.0324,0.013523,0.002678,0.000431,0.001293
615000,0.0324,0.013523,0.002678,0.000431,0.000940
616000,0.0324,0.013523,0.002678,0.000431,0.001175
617000,0.0324,0.013523,0.002678,0.000431,0.001293
618000,0.0324,0.013523,0.002678,0.000431,0.001175
619000,0.0324,0.013523,0.002678,0.000431,0.000940
620000,0.0324,0.013523,0.002678,0.000431,0.001293
621000,0.0324,0.013523,0.002678,0.000431,0.001058
622000,0.0324,0.013523,0.002678,0.000431,0.000940
623000,0.0324,0.013523,0.002678,0.000431,0.001175
624000,0.0324,0.013523,0.002678,0.000431,0.001058
625000,0.0324,0.013523,0.002678,0.000431,0.001410
626000,0.0324,0.013523,0.002678,0.000431,0.000705
627000,0.0324,0.013523,0.002678,0.000431,0.001410
628000,0.0324,0.013523,0.002678,0.000431,0.001058
629000,0.0324,0.013523,0.002678,0.000431,0.000940
630000,0.0324,0.013523,0.002678,0.000431,0.000823
631000,0.0324,0.013523,0.002678,0.000431,0.000705
632000,0.0324,0.013523,0.002678,0.000431,0.001175
633000,0.0324,0.013523,0.002678,0.000431,0.001058
634000,0.0324,0.013523,0.002678,0.000431,0.001293
635000,0.0324,0.013523,0.002678,0.000431,0.001293
636000,0.0324,0.013523,0.002678,0.000431,0.000940
637000,0.0324,0.013523,0.002678,0.000431,0.001410
638000,0.0324,0.013523,0.002678,0.000431,0.000823
639000,0.0324,0.013523,0.002678,0.000431,0.001058
640000,0.0324,0.013523,0.002678,0.000431,0.000823
641000,0.0324,0.013523,0.002678,0.000431,0.001293
642000,0.0324,0.013523,0.002678,0.000431,0.001293
643000,0.0324,0.013523,0.002678,0.000431,0.001175
644000,0.0324,0.013523,0.002678,0.000431,0.001410
645000,0.0324,0.013523,0.002678,0.000431,0.001175
646000,0.0324,0.013523,0.002678,0.000431,0.001293
647000,0.0324,0.013523,0.002678,0.000431,0.001058
648000,0.0324,0.013523,0.002678,0.000431,0.000940
649000,0.0324,0.013523,0.002678,0.000431,0.001410
650000,0.0324,0.013523,0.002678,0.000431,0.000940
651000,0.0324,0.013523,0.002678,0.000431,0.001175
652000,0.0324,0.013523,0.002678,0.000431,0.001410
653000,0.0324,0.013523,0.002678,0.000431,0.001058
654000,0.0324,0.013523,0.002678,0.000431,0.001175
655000,0.0324,0.013523,0.002678,0.000431,0.001175
656000,0.0324,0.013523,0.002678,0.000431,0.001058
657000,0.0324,0.013523,0.002678,0.000431,0.001058
658000,0.0324,0.013523,0.002678,0.000431,0.001410
659000,0.0324,0.013523,0.002678,0.000431,0.001058
660000,0.0324,0.013523,0.002678,0.000431,0.001175
661000,0.0324,0.013523,0.002678,0.000431,0.001293
662000,0.0324,0.013523,0.002678,0.000431,0.000705
663000,0.0324,0.013523,0.002678,0.000431,0.001528
664000,0.0324,0.013523,0.002678,0.000431,0.000940
665000,0.0324,0.013523,0.002678,0.000431,0.001410
666000,0.0324,0.013523,0.002678,0.000431,0.000940
667000,0.0324,0.013523,0.002678,0.000431,0.000940
668000,0.0324,0.013523,0.002678,0.000431,0.001175
669000,0.0324,0.013523,0.002678,0.000431,0.001175
670000,0.0324,0.013523,0.002678,0.000431,0.001293
671000,0.0324,0.013523,0.002678,0.000431,0.001175
672000,0.0324,0.013523,0.002678,0.000431,0.001293
673000,0.0324,0.013523,0.002678,0.000431,0.001058
674000,0.0324,0.013523,0.002678,0.000431,0.001058
675000,0.0324,0.013523,0.002678,0.000431,0.001058
676000,0.0324,0.013523,0.002678,0.000431,0.001293
677000,0.0324,0.013523,0.002678,0.000431,0.001528
678000,0.0324,0.013523,0.002678,0.000431,0.001175
679000,0.0324,0.013523,0.002678,0.000431,0.001410
680000,0.0324,0.013523,0.002678,0.000431,0.000823
681000,0.0324,0.013523,0.002678,0.000431,0.001058
682000,0.0324,0.013523,0.002678,0.000431,0.001293
683000,0.0324,0.013523,0.002678,0.000431,0.000823
684000,0.0324,0.013523,0.002678,0.000431,0.001293
685000,0.0324,0.013523,0.002678,0.000431,0.001058
686000,0.0324,0.013523,0.002678,0.000431,0.001293
687000,0.0324,0.013523,0.002678,0.000431,0.001058
688000,0.0324,0.013523,0.002678,0.000431,0.001293
689000,0.0324,0.013523,0.002678,0.000431,0.001410
690000,0.0324,0.013523,0.002678,0.000431,0.001410
691000,0.0324,0.013523,0.002678,0.000431,0.001058
692000,0.0324,0.013523,0.002678,0.000431,0.001058
693000,0.0324,0.013523,0.002678,0.000431,0.000940
694000,0.0324,0.013523,0.002678,0.000431,0.001175
695000,0.0324,0.013523,0.002678,0.000431,0.000588
696000,0.0324,0.013523,0.002678,0.000431,0.000940
697000,0.0324,0.013523,0.002678,0.000431,0.000705
698000,0.0324,0.013523,0.002678,0.000431,0.000940
699000,0.0324,0.013523,0.002678,0.000431,0.000823
700000,0.0324,0.013523,0.002678,0.000431,0.000705
701000,0.0324,0.013523,0.002678,0.000431,0.000588
702000,0.0324,0.013523,0.002678,0.000431,0.001058
703000,0.0324,0.013523,0.002678,0.000431,0.000823
704000,0.0324,0.013523,0.002678,0.000431,0.001293
705000,0.0324,0.013523,0.002678,0.000431,0.000705
706000,0.0324,0.013523,0.002678,0.000431,0.001293
707000,0.0324,0.013523,0.002678,0.000431,0.000940
708000,0.0324,0.013523,0.002678,0.000431,0.001058
709000,0.0324,0.013523,0.002678,0.000431,0.001175
710000,0.0324,0.013523,0.002678,0.000431,0.001058
711000,0.0324,0.013523,0.002678,0.000431,0.001410
712000,0.0324,0.013523,0.002678,0.000431,0.000705
713000,0.0324,0.013523,0.002678,0.000431,0.001175
714000,0.0324,0.013523,0.002678,0.000431,0.000588
715000,0.0324,0.013523,0.002678,0.000431,0.001058
716000,0.0324,0.013523,0.002678,0.000431,0.000588
717000,0.0324,0.013523,0.002678,0.000431,0.001175
718000,0.0324,0.013523,0.002678,0.000431,0.001058
719000,0.0324,0.013523,0.002678,0.000431,0.000705
720000,0.0324,0.013523,0.002678,0.000431,0.001175
721000,0.0324,0.013523,0.002678,0.000431,0.000940
722000,0.0324,0.013523,0.002678,0.000431,0.001058
723000,0.0324,0.013523,0.002678,0.000431,0.001058
724000,0.0324,0.013523,0.002678,0.000431,0.000705
725000,0.0324,0.013523,0.002678,0.000431,0.001058
726000,0.0324,0.013523,0.002678,0.000431,0.001058
727000,0.0324,0.013523,0.002678,0.000431,0.001058
728000,0.0324,0.013523,0.002678,0.000431,0.001058
729000,0.0324,0.013523,0.002678,0.000431,0.000940
730000,0.0324,0.013523,0.002678,0.000431,0.001058
731000,0.0324,0.013523,0.002678,0.000431,0.001410
732000,0.0324,0.013523,0.002678,0.000431,0.001175
733000,0.0324,0.013523,0.002678,0.000431,0.001293
734000,0.0324,0.013523,0.002678,0.000431,0.001058
735000,0.0324,0.013523,0.002678,0.000431,0.000940
736000,0.0324,0.013523,0.002678,0.000431,0.001293
737000,0.0324,0.013523,0.002678,0.000431,0.001410
738000,0.0324,0.013523,0.002678,0.000431,0.001175
739000,0.0324,0.013523,0.002678,0.000431,0.001410
740000,0.0324,0.013523,0.002678,0.000431,0.001058
741000,0.0324,0.013523,0.002678,0.000431,0.000940
742000,0.0324,0.013523,0.002678,0.000431,0.001410
743000,0.0324,0.013523,0.002678,0.000431,0.000940
744000,0.0324,0.013523,0.002678,0.000431,0.001293
745000,0.0324,0.013523,0.002678,0.000431,0.000940
746000,0.0324,0.013523,0.002678,0.000431,0.001058
747000,0.0324,0.013523,0.002678,0.000431,0.001058
748000,0.0324,0.013523,0.002678,0.000431,0.000705
749000,0.0324,0.013523,0.002678,0.000431,0.000940
750000,0.0324,0.013523,0.002678,0.000431,0.000705
751000,0.0324,0.013523,0.002678,0.000431,0.001410
752000,0.0324,0.013523,0.002678,0.000431,0.000705
753000,0.0324,0.013523,0.002678,0.000431,0.001058
754000,0.0324,0.013523,0.002678,0.000431,0.000940
755000,0.0324,0.013523,0.002678,0.000431,0.001293
756000,0.0324,0.013523,0.002678,0.000431,0.001175
757000,0.0324,0.013523,0.002678,0.000431,0.000588
758000,0.0324,0.013523,0.002678,0.000431,0.001293
759000,0.0324,0.013523,0.002678,0.000431,0.000823
760000,0.0324,0.013523,0.002678,0.000431,0.000823
761000,0.0324,0.013523,0.002678,0.000431,0.000940
762000,0.0324,0.013523,0.002678,0.000431,0.000940
763000,0.0324,0.013523,0.002678,0.000431,0.001410
764000,0.0324,0.013523,0.002678,0.000431,0.001058
765000,0.0324,0.013523,0.002678,0.000431,0.000705
766000,0.0324,0.013523,0.002678,0.000431,0.001175
767000,0.0324,0.013523,0.002678,0.000431,0.001175
768000,0.0324,0.013523,0.002678,0.000431,0.000705
769000,0.0324,0.013523,0.002678,0.000431,0.000588
770000,0.0324,0.013523,0.002678,0.000431,0.001410
771000,0.0324,0.013523,0.002678,0.000431,0.001058
772000,0.0324,0.013523,0.002678,0.000431,0.001293
773000,0.0324,0.013523,0.002678,0.000431,0.000823
774000,0.0324,0.013523,0.002678,0.000431,0.001175
775000,0.0324,0.013523,0.002678,0.000431,0.001058
776000,0.0324,0.013523,0.002678,0.000431,0.001058
777000,0.0324,0.013523,0.002678,0.000431,0.000940
778000,0.0324,0.013523,0.002678,0.000431,0.000470
779000,0.0324,0.013523,0.002678,0.000431,0.001175
780000,0.0324,0.013523,0.002678,0.000431,0.000940
781000,0.0324,0.013523,0.002678,0.000431,0.001175
782000,0.0324,0.013523,0.002678,0.000431,0.001410
783000,0.0324,0.013523,0.002678,0.000431,0.000823
784000,0.0324,0.013523,0.002678,0.000431,0.001175
785000,0.0324,0.013523,0.002678,0.000431,0.000940
786000,0.0324,0.013523,0.002678,0.000431,0.001293
787000,0.0324,0.013523,0.002678,0.000431,0.001410
788000,0.0324,0.013523,0.002678,0.000431,0.000940
789000,0.0324,0.013523,0.002678,0.000431,0.001410
790000,0.0324,0.013523,0.002678,0.000431,0.000705
791000,0.0324,0.013523,0.002678,0.000431,0.001293
792000,0.0324,0.013523,0.002678,0.000431,0.001293
793000,0.0324,0.013523,0.002678,0.000431,0.000940
794000,0.0324,0.013523,0.002678,0.000431,0.001410
795000,0.0324,0.013523,0.002678,0.000431,0.000940
796000,0.0324,0.013523,0.002678,0.000431,0.000705
797000,0.0324,0.013523,0.002678,0.000431,0.001410
798000,0.0324,0.013523,0.002678,0.000431,0.001175
799000,0.0324,0.013523,0.002678,0.000431,0.001410
800000,0.0324,0.013523,0.002678,0.000431,0.000940
801000,0.0324,0.013523,0.002678,0.000431,0.001175
802000,0.0324,0.013523,0.002678,0.000431,0.000823
803000,0.0324,0.013523,0.002678,0.000431,0.001058
804000,0.0324,0.013523,0.002678,0.000431,0.001058
805000,0.0324,0.013523,0.002678,0.000431,0.001293
806000,0.0324,0.013523,0.002678,0.000431,0.001293
807000,0.0324,0.013523,0.002678,0.000431,0.000823
808000,0.0324,0.013523,0.002678,0.000431,0.001410
809000,0.0324,0.013523,0.002678,0.000431,0.001058
810000,0.0324,0.013523,0.002678,0.000431,0.001293
811000,0.0324,0.013523,0.002678,0.000431,0.000940
812000,0.0324,0.013523,0.002678,0.000431,0.001058
813000,0.0324,0.013523,0.002678,0.000431,0.001410
814000,0.0324,0.013523,0.002678,0.000431,0.000940
815000,0.0324,0.013523,0.002678,0.000431,0.001058
816000,0.0324,0.013523,0.002678,0.000431,0.001058
817000,0.0324,0.013523,0.002678,0.000431,0.001293
818000,0.0324,0.013523,0.002678,0.000431,0.001058
819000,0.0324,0.013523,0.002678,0.000431,0.001058
820000,0.0324,0.013523,0.002678,0.000431,0.001175
821000,0.0324,0.013523,0.002678,0.000431,0.000940
822000,0.0324,0.013523,0.002678,0.000431,0.000705
823000,0.0324,0.013523,0.002678,0.000431,0.001058
824000,0.0324,0.013523,0.002678,0.000431,0.000823
825000,0.0324,0.013523,0.002678,0.000431,0.001175
826000,0.0324,0.013523,0.002678,0.000431,0.000940
827000,0.0324,0.013523,0.002678,0.000431,0.001058
828000,0.0324,0.013523,0.002678,0.000431,0.001175
829000,0.0324,0.013523,0.002678,0.000431,0.000823
830000,0.0324,0.013523,0.002678,0.000431,0.001058
831000,0.0324,0.013523,0.002678,0.000431,0.001058
832000,0.0324,0.013523,0.002678,0.000431,0.000940
833000,0.0324,0.013523,0.002678,0.000431,0.000705
834000,0.0324,0.013523,0.002678,0.000431,0.000588
835000,0.0324,0.013523,0.002678,0.000431,0.000705
836000,0.0324,0.013523,0.002678,0.000431,0.000588
837000,0.0324,0.013523,0.002678,0.000431,0.000588
838000,0.0324,0.013523,0.002678,0.000431,0.000823
839000,0.0324,0.013523,0.002678,0.000431,0.000823
840000,0.0324,0.013523,0.002678,0.000431,0.000705
841000,0.0324,0.013523,0.002678,0.000431,0.001058
842000,0.0324,0.013523,0.002678,0.000431,0.001058
843000,0.0324,0.013523,0.002678,0.000431,0.001410
844000,0.0324,0.013523,0.002678,0.000431,0.001058
845000,0.0324,0.013523,0.002678,0.000431,0.001058
846000,0.0324,0.013523,0.002678,0.000431,0.000940
847000,0.0324,0.013523,0.002678,0.000431,0.000705
848000,0.0324,0.013523,0.002678,0.000431,0.001410
849000,0.0324,0.013523,0.002678,0.000431,0.000940
850000,0.0324,0.013523,0.002678,0.000431,0.001410
851000,0.0324,0.013523,0.002678,0.000431,0.001410
852000,0.0324,0.013523,0.002678,0.000431,0.000940
853000,0.0324,0.013523,0.002678,0.000431,0.001175
854000,0.0324,0.013523,0.002678,0.000431,0.001058
855000,0.0324,0.013523,0.002678,0.000431,0.001175
856000,0.0324,0.013523,0.002678,0.000431,0.001175
857000,0.0324,0.013523,0.002678,0.000431,0.001058
858000,0.0324,0.013523,0.002678,0.000431,0.001410
859000,0.0324,0.013523,0.002678,0.000431,0.000823
860000,0.0324,0.013523,0.002678,0.000431,0.001058
861000,0.0324,0.013523,0.002678,0.000431,0.000940
862000,0.0324,0.013523,0.002678,0.000431,0.001058
863000,0.0324,0.013523,0.002678,0.000431,0.000940
864000,0.0324,0.013523,0.002678,0.000431,0.000940
865000,0.0324,0.013523,0.002678,0.000431,0.001058
866000,0.0324,0.013523,0.002678,0.000431,0.000940
867000,0.0324,0.013523,0.002678,0.000431,0.001175
868000,0.0324,0.013523,0.002678,0.000431,0.000588
869000,0.0324,0.013523,0.002678,0.000431,0.000823
870000,0.0324,0.013523,0.002678,0.000431,0.001175
871000,0.0324,0.013523,0.002678,0.000431,0.000823
872000,0.0324,0.013523,0.002678,0.000431,0.000940
873000,0.0324,0.013523,0.002678,0.000431,0.000823
874000,0.0324,0.013523,0.002678,0.000431,0.001058
875000,0.0324,0.013523,0.002678,0.000431,0.000940
876000,0.0324,0.013523,0.002678,0.000431,0.001175
877000,0.0324,0.013523,0.002678,0.000431,0.000705
878000,0.0324,0.013523,0.002678,0.000431,0.000823
879000,0.0324,0.013523,0.002678,0.000431,0.000705
880000,0.0324,0.013523,0.002678,0.000431,0.000940
881000,0.0324,0.013523,0.002678,0.000431,0.001058
882000,0.0324,0.013523,0.002678,0.000431,0.000940
883000,0.0324,0.013523,0.002678,0.000431,0.000588
884000,0.0324,0.013523,0.002678,0.000431,0.000705
885000,0.0324,0.013523,0.002678,0.000431,0.001293
886000,0.0324,0.013523,0.002678,0.000431,0.000940
887000,0.0324,0.013523,0.002678,0.000431,0.000705
888000,0.0324,0.013523,0.002678,0.000431,0.000940
889000,0.0324,0.013523,0.002678,0.000431,0.000823
890000,0.0324,0.013523,0.002678,0.000431,0.000823
891000,0.0324,0.013523,0.002678,0.000431,0.000940
892000,0.0324,0.013523,0.002678,0.000431,0.001058
893000,0.0324,0.013523,0.002678,0.000431,0.000823
894000,0.0324,0.013523,0.002678,0.000431,0.001058
895000,0.0324,0.013523,0.002678,0.000431,0.001058
896000,0.0324,0.013523,0.002678,0.000431,0.000118
897000,0.0324,0.013523,0.002678,0.000431,0.000940
898000,0.0324,0.013523,0.002678,0.000431,0.000705
899000,0.0324,0.013523,0.002678,0.000431,0.000940
900000,0.0324,0.013523,0.002678,0.000431,0.000705
901000,0.0324,0.013523,0.002678,0.000431,0.001058
902000,0.0324,0.013523,0.002678,0.000431,0.001175
903000,0.0324,0.013523,0.002678,0.000431,0.000470
904000,0.0324,0.013523,0.002678,0.000431,0.000940
905000,0.0324,0.013523,0.002678,0.000431,0.000823
906000,0.0324,0.013523,0.002678,0.000431,0.000588
907000,0.0324,0.013523,0.002678,0.000431,0.001175
908000,0.0324,0.013523,0.002678,0.000431,0.001058
909000,0.0324,0.013523,0.002678,0.000431,0.001058
910000,0.0324,0.013523,0.002678,0.000431,0.000470
911000,0.0324,0.013523,0.002678,0.000431,0.000823
912000,0.0324,0.013523,0.002678,0.000431,0.000940
913000,0.0324,0.013523,0.002678,0.000431,0.001293
914000,0.0324,0.013523,0.002678,0.000431,0.000940
915000,0.0324,0.013523,0.002678,0.000431,0.000940
916000,0.0324,0.013523,0.002678,0.000431,0.000705
917000,0.0324,0.013523,0.002678,0.000431,0.000705
918000,0.0324,0.013523,0.002678,0.000431,0.000588
919000,0.0324,0.013523,0.002678,0.000431,0.001058
920000,0.0324,0.013523,0.002678,0.000431,0.000823
921000,0.0324,0.013523,0.002678,0.000431,0.000940
922000,0.0324,0.013523,0.002678,0.000431,0.000823
923000,0.0324,0.013523,0.002678,0.000431,0.000823
924000,0.0324,0.013523,0.002678,0.000431,0.001058
925000,0.0324,0.013523,0.002678,0.000431,0.000940
926000,0.0324,0.013523,0.002678,0.000431,0.000705
927000,0.0324,0.013523,0.002678,0.000431,0.000823
928000,0.0324,0.013523,0.002678,0.000431,0.000940
929000,0.0324,0.013523,0.002678,0.000431,0.001058
930000,0.0324,0.013523,0.002678,0.000431,0.001175
931000,0.0324,0.013523,0.002678,0.000431,0.000705
932000,0.0324,0.013523,0.002678,0.000431,0.000823
933000,0.0324,0.013523,0.002678,0.000431,0.001293
934000,0.0324,0.013523,0.002678,0.000431,0.000940
935000,0.0324,0.013523,0.002678,0.000431,0.000940
936000,0.0324,0.013523,0.002678,0.000431,0.000705
937000,0.0324,0.013523,0.002678,0.000431,0.001175
938000,0.0324,0.013523,0.002678,0.000431,0.000470
939000,0.0324,0.013523,0.002678,0.000431,0.001058
940000,0.0324,0.013523,0.002678,0.000431,0.001058
941000,0.0324,0.013523,0.002678,0.000431,0.001058
942000,0.0324,0.013523,0.002678,0.000431,0.001058
943000,0.0324,0.013523,0.002678,0.000431,0.000940
944000,0.0324,0.013523,0.002678,0.000431,0.000940
945000,0.0324,0.013523,0.002678,0.000431,0.000823
946000,0.0324,0.013523,0.002678,0.000431,0.000705
947000,0.0324,0.013523,0.002678,0.000431,0.001175
948000,0.0324,0.013523,0.002678,0.000431,0.001058
949000,0.0324,0.013523,0.002678,0.000431,0.001058
950000,0.0324,0.013523,0.002678,0.000431,0.000823
951000,0.0324,0.013523,0.002678,0.000431,0.000940
952000,0.0324,0.013523,0.002678,0.000431,0.000940
953000,0.0324,0.013523,0.002678,0.000431,0.000940
954000,0.0324,0.013523,0.002678,0.000431,0.000940
955000,0.0324,0.013523,0.002678,0.000431,0.001175
956000,0.0324,0.013523,0.002678,0.000431,0.000823
957000,0.0324,0.013523,0.002678,0.000431,0.000940
958000,0.0324,0.013523,0.002678,0.000431,0.000823
959000,0.0324,0.013523,0.002678,0.000431,0.000705
960000,0.0324,0.013523,0.002678,0.000431,0.001058
961000,0.0324,0.013523,0.002678,0.000431,0.001175
962000,0.0324,0.013523,0.002678,0.000431,0.000823
963000,0.0324,0.013523,0.002678,0.000431,0.001410
964000,0.0324,0.013523,0.002678,0.000431,0.000940
965000,0.0324,0.013523,0.002678,0.000431,0.000705
966000,0.0324,0.013523,0.002678,0.000431,0.000940
967000,0.0324,0.013523,0.002678,0.000431,0.000823
968000,0.0324,0.013523,0.002678,0.000431,0.001293
969000,0.0324,0.013523,0.002678,0.000431,0.000705
970000,0.0324,0.013523,0.002678,0.000431,0.000823
971000,0.0324,0.013523,0.002678,0.000431,0.001058
972000,0.0324,0.013523,0.002678,0.000431,0.001058
973000,0.0324,0.013523,0.002678,0.000431,0.000823
974000,0.0324,0.013523,0.002678,0.000431,0.000940
975000,0.0324,0.013523,0.002678,0.000431,0.000705
976000,0.0324,0.013523,0.002678,0.000431,0.001175
977000,0.0324,0.013523,0.002678,0.000431,0.000823
978000,0.0324,0.013523,0.002678,0.000431,0.000705
979000,0.0324,0.013523,0.002678,0.000431,0.000823
980000,0.0324,0.013523,0.002678,0.000431,0.000470
981000,0.0324,0.013523,0.002678,0.000431,0.000588
982000,0.0324,0.013523,0.002678,0.000431,0.000705
983000,0.0324,0.013523,0.002678,0.000431,0.000588
984000,0.0324,0.013523,0.002678,0.000431,0.000823
985000,0.0324,0.013523,0.002678,0.000431,0.000588
986000,0.0324,0.013523,0.002678,0.000431,0.001058
987000,0.0324,0.013523,0.002678,0.000431,0.001058
988000,0.0324,0.013523,0.002678,0.000431,0.000588
989000,0.0324,0.013523,0.002678,0.000431,0.000823
990000,0.0324,0.013523,0.002678,0.000431,0.000940
991000,0.0324,0.013523,0.002678,0.000431,0.001175
992000,0.0324,0.013523,0.002678,0.000431,0.000470
993000,0.0324,0.013523,0.002678,0.000431,0.001058
994000,0.0324,0.013523,0.002678,0.000431,0.001058
995000,0.0324,0.013523,0.002678,0.000431,0.000940
996000,0.0324,0.013523,0.002678,0.000431,0.000705
997000,0.0324,0.013523,0.002678,0.000431,0.000823
998000,0.0324,0.013523,0.002678,0.000431,0.001293
999000,0.0324,0.013523,0.002678,0.000431,0.000940
