Cycle,Area(mm^2),PeakDynamic(W),SubthresholdLeakage(W),GateLeakage(W),RunTimeDynamic(W)
1000000,0.0324,0.013523,0.002678,0.000431,0.000940
1001000,0.0324,0.013523,0.002678,0.000431,0.000470
1002000,0.0324,0.013523,0.002678,0.000431,0.000588
1003000,0.0324,0.013523,0.002678,0.000431,0.000588
1004000,0.0324,0.013523,0.002678,0.000431,0.000470
1005000,0.0324,0.013523,0.002678,0.000431,0.000470
1006000,0.0324,0.013523,0.002678,0.000431,0.000470
1007000,0.0324,0.013523,0.002678,0.000431,0.000470
1008000,0.0324,0.013523,0.002678,0.000431,0.000353
1009000,0.0324,0.013523,0.002678,0.000431,0.000353
1010000,0.0324,0.013523,0.002678,0.000431,0.000470
1011000,0.0324,0.013523,0.002678,0.000431,0.000470
1012000,0.0324,0.013523,0.002678,0.000431,0.000470
1013000,0.0324,0.013523,0.002678,0.000431,0.000353
1014000,0.0324,0.013523,0.002678,0.000431,0.000588
1015000,0.0324,0.013523,0.002678,0.000431,0.000353
1016000,0.0324,0.013523,0.002678,0.000431,0.000588
1017000,0.0324,0.013523,0.002678,0.000431,0.000470
1018000,0.0324,0.013523,0.002678,0.000431,0.000470
1019000,0.0324,0.013523,0.002678,0.000431,0.000705
1020000,0.0324,0.013523,0.002678,0.000431,0.000353
1021000,0.0324,0.013523,0.002678,0.000431,0.000470
1022000,0.0324,0.013523,0.002678,0.000431,0.000588
1023000,0.0324,0.013523,0.002678,0.000431,0.000353
1024000,0.0324,0.013523,0.002678,0.000431,0.000588
1025000,0.0324,0.013523,0.002678,0.000431,0.000470
1026000,0.0324,0.013523,0.002678,0.000431,0.000470
1027000,0.0324,0.013523,0.002678,0.000431,0.000470
1028000,0.0324,0.013523,0.002678,0.000431,0.000705
1029000,0.0324,0.013523,0.002678,0.000431,0.000470
1030000,0.0324,0.013523,0.002678,0.000431,0.000705
1031000,0.0324,0.013523,0.002678,0.000431,0.000470
1032000,0.0324,0.013523,0.002678,0.000431,0.000353
1033000,0.0324,0.013523,0.002678,0.000431,0.000470
1034000,0.0324,0.013523,0.002678,0.000431,0.000588
1035000,0.0324,0.013523,0.002678,0.000431,0.000588
1036000,0.0324,0.013523,0.002678,0.000431,0.000470
1037000,0.0324,0.013523,0.002678,0.000431,0.000588
1038000,0.0324,0.013523,0.002678,0.000431,0.000588
1039000,0.0324,0.013523,0.002678,0.000431,0.000588
1040000,0.0324,0.013523,0.002678,0.000431,0.000470
1041000,0.0324,0.013523,0.002678,0.000431,0.000470
1042000,0.0324,0.013523,0.002678,0.000431,0.000235
1043000,0.0324,0.013523,0.002678,0.000431,0.000588
1044000,0.0324,0.013523,0.002678,0.000431,0.000588
1045000,0.0324,0.013523,0.002678,0.000431,0.000470
1046000,0.0324,0.013523,0.002678,0.000431,0.000470
1047000,0.0324,0.013523,0.002678,0.000431,0.000470
1048000,0.0324,0.013523,0.002678,0.000431,0.000470
1049000,0.0324,0.013523,0.002678,0.000431,0.000470
1050000,0.0324,0.013523,0.002678,0.000431,0.000235
1051000,0.0324,0.013523,0.002678,0.000431,0.000588
1052000,0.0324,0.013523,0.002678,0.000431,0.000588
1053000,0.0324,0.013523,0.002678,0.000431,0.000588
1054000,0.0324,0.013523,0.002678,0.000431,0.000353
1055000,0.0324,0.013523,0.002678,0.000431,0.000705
1056000,0.0324,0.013523,0.002678,0.000431,0.000588
1057000,0.0324,0.013523,0.002678,0.000431,0.000588
1058000,0.0324,0.013523,0.002678,0.000431,0.000588
1059000,0.0324,0.013523,0.002678,0.000431,0.000588
1060000,0.0324,0.013523,0.002678,0.000431,0.000705
1061000,0.0324,0.013523,0.002678,0.000431,0.000470
1062000,0.0324,0.013523,0.002678,0.000431,0.000588
1063000,0.0324,0.013523,0.002678,0.000431,0.000470
1064000,0.0324,0.013523,0.002678,0.000431,0.000588
1065000,0.0324,0.013523,0.002678,0.000431,0.000588
1066000,0.0324,0.013523,0.002678,0.000431,0.000588
1067000,0.0324,0.013523,0.002678,0.000431,0.000470
1068000,0.0324,0.013523,0.002678,0.000431,0.000470
1069000,0.0324,0.013523,0.002678,0.000431,0.000470
1070000,0.0324,0.013523,0.002678,0.000431,0.000235
1071000,0.0324,0.013523,0.002678,0.000431,0.000588
1072000,0.0324,0.013523,0.002678,0.000431,0.000470
1073000,0.0324,0.013523,0.002678,0.000431,0.000588
1074000,0.0324,0.013523,0.002678,0.000431,0.000588
1075000,0.0324,0.013523,0.002678,0.000431,0.000705
1076000,0.0324,0.013523,0.002678,0.000431,0.000470
1077000,0.0324,0.013523,0.002678,0.000431,0.000470
1078000,0.0324,0.013523,0.002678,0.000431,0.000235
1079000,0.0324,0.013523,0.002678,0.000431,0.000705
1080000,0.0324,0.013523,0.002678,0.000431,0.000588
1081000,0.0324,0.013523,0.002678,0.000431,0.000470
1082000,0.0324,0.013523,0.002678,0.000431,0.000588
1083000,0.0324,0.013523,0.002678,0.000431,0.000470
1084000,0.0324,0.013523,0.002678,0.000431,0.000588
1085000,0.0324,0.013523,0.002678,0.000431,0.000705
1086000,0.0324,0.013523,0.002678,0.000431,0.000470
1087000,0.0324,0.013523,0.002678,0.000431,0.000353
1088000,0.0324,0.013523,0.002678,0.000431,0.000588
1089000,0.0324,0.013523,0.002678,0.000431,0.000470
1090000,0.0324,0.013523,0.002678,0.000431,0.000588
1091000,0.0324,0.013523,0.002678,0.000431,0.000470
1092000,0.0324,0.013523,0.002678,0.000431,0.000353
1093000,0.0324,0.013523,0.002678,0.000431,0.000235
1094000,0.0324,0.013523,0.002678,0.000431,0.000470
1095000,0.0324,0.013523,0.002678,0.000431,0.000588
1096000,0.0324,0.013523,0.002678,0.000431,0.000588
1097000,0.0324,0.013523,0.002678,0.000431,0.000235
1098000,0.0324,0.013523,0.002678,0.000431,0.000705
1099000,0.0324,0.013523,0.002678,0.000431,0.000353
1100000,0.0324,0.013523,0.002678,0.000431,0.000470
1101000,0.0324,0.013523,0.002678,0.000431,0.000353
1102000,0.0324,0.013523,0.002678,0.000431,0.000353
1103000,0.0324,0.013523,0.002678,0.000431,0.000588
1104000,0.0324,0.013523,0.002678,0.000431,0.000588
1105000,0.0324,0.013523,0.002678,0.000431,0.000588
1106000,0.0324,0.013523,0.002678,0.000431,0.000588
1107000,0.0324,0.013523,0.002678,0.000431,0.000470
1108000,0.0324,0.013523,0.002678,0.000431,0.000470
1109000,0.0324,0.013523,0.002678,0.000431,0.000235
1110000,0.0324,0.013523,0.002678,0.000431,0.000353
1111000,0.0324,0.013523,0.002678,0.000431,0.000588
1112000,0.0324,0.013523,0.002678,0.000431,0.000470
1113000,0.0324,0.013523,0.002678,0.000431,0.000470
1114000,0.0324,0.013523,0.002678,0.000431,0.000353
1115000,0.0324,0.013523,0.002678,0.000431,0.000588
1116000,0.0324,0.013523,0.002678,0.000431,0.000470
1117000,0.0324,0.013523,0.002678,0.000431,0.000705
1118000,0.0324,0.013523,0.002678,0.000431,0.000353
1119000,0.0324,0.013523,0.002678,0.000431,0.000470
1120000,0.0324,0.013523,0.002678,0.000431,0.000235
1121000,0.0324,0.013523,0.002678,0.000431,0.000705
1122000,0.0324,0.013523,0.002678,0.000431,0.000470
1123000,0.0324,0.013523,0.002678,0.000431,0.000353
1124000,0.0324,0.013523,0.002678,0.000431,0.000588
1125000,0.0324,0.013523,0.002678,0.000431,0.000588
1126000,0.0324,0.013523,0.002678,0.000431,0.000588
1127000,0.0324,0.013523,0.002678,0.000431,0.000588
1128000,0.0324,0.013523,0.002678,0.000431,0.000470
1129000,0.0324,0.013523,0.002678,0.000431,0.000470
1130000,0.0324,0.013523,0.002678,0.000431,0.000588
1131000,0.0324,0.013523,0.002678,0.000431,0.000118
1132000,0.0324,0.013523,0.002678,0.000431,0.000588
1133000,0.0324,0.013523,0.002678,0.000431,0.000470
1134000,0.0324,0.013523,0.002678,0.000431,0.000705
1135000,0.0324,0.013523,0.002678,0.000431,0.000470
1136000,0.0324,0.013523,0.002678,0.000431,0.000470
1137000,0.0324,0.013523,0.002678,0.000431,0.000235
1138000,0.0324,0.013523,0.002678,0.000431,0.000353
1139000,0.0324,0.013523,0.002678,0.000431,0.000470
1140000,0.0324,0.013523,0.002678,0.000431,0.000470
1141000,0.0324,0.013523,0.002678,0.000431,0.000353
1142000,0.0324,0.013523,0.002678,0.000431,0.000588
1143000,0.0324,0.013523,0.002678,0.000431,0.000470
1144000,0.0324,0.013523,0.002678,0.000431,0.000470
1145000,0.0324,0.013523,0.002678,0.000431,0.000588
1146000,0.0324,0.013523,0.002678,0.000431,0.000588
1147000,0.0324,0.013523,0.002678,0.000431,0.000470
1148000,0.0324,0.013523,0.002678,0.000431,0.000588
1149000,0.0324,0.013523,0.002678,0.000431,0.000588
1150000,0.0324,0.013523,0.002678,0.000431,0.000470
1151000,0.0324,0.013523,0.002678,0.000431,0.000588
1152000,0.0324,0.013523,0.002678,0.000431,0.000470
1153000,0.0324,0.013523,0.002678,0.000431,0.000353
1154000,0.0324,0.013523,0.002678,0.000431,0.000588
1155000,0.0324,0.013523,0.002678,0.000431,0.000470
1156000,0.0324,0.013523,0.002678,0.000431,0.000588
1157000,0.0324,0.013523,0.002678,0.000431,0.000470
1158000,0.0324,0.013523,0.002678,0.000431,0.000470
1159000,0.0324,0.013523,0.002678,0.000431,0.000470
1160000,0.0324,0.013523,0.002678,0.000431,0.000588
1161000,0.0324,0.013523,0.002678,0.000431,0.000470
1162000,0.0324,0.013523,0.002678,0.000431,0.000470
1163000,0.0324,0.013523,0.002678,0.000431,0.000353
1164000,0.0324,0.013523,0.002678,0.000431,0.000588
1165000,0.0324,0.013523,0.002678,0.000431,0.000470
1166000,0.0324,0.013523,0.002678,0.000431,0.000588
1167000,0.0324,0.013523,0.002678,0.000431,0.000470
1168000,0.0324,0.013523,0.002678,0.000431,0.000470
1169000,0.0324,0.013523,0.002678,0.000431,0.000588
1170000,0.0324,0.013523,0.002678,0.000431,0.000588
1171000,0.0324,0.013523,0.002678,0.000431,0.000235
1172000,0.0324,0.013523,0.002678,0.000431,0.000588
1173000,0.0324,0.013523,0.002678,0.000431,0.000470
1174000,0.0324,0.013523,0.002678,0.000431,0.000588
1175000,0.0324,0.013523,0.002678,0.000431,0.000588
1176000,0.0324,0.013523,0.002678,0.000431,0.000470
1177000,0.0324,0.013523,0.002678,0.000431,0.000588
1178000,0.0324,0.013523,0.002678,0.000431,0.000588
1179000,0.0324,0.013523,0.002678,0.000431,0.000118
1180000,0.0324,0.013523,0.002678,0.000431,0.000705
1181000,0.0324,0.013523,0.002678,0.000431,0.000470
1182000,0.0324,0.013523,0.002678,0.000431,0.000470
1183000,0.0324,0.013523,0.002678,0.000431,0.000470
1184000,0.0324,0.013523,0.002678,0.000431,0.000588
1185000,0.0324,0.013523,0.002678,0.000431,0.000588
1186000,0.0324,0.013523,0.002678,0.000431,0.000470
1187000,0.0324,0.013523,0.002678,0.000431,0.000353
1188000,0.0324,0.013523,0.002678,0.000431,0.000588
1189000,0.0324,0.013523,0.002678,0.000431,0.000588
1190000,0.0324,0.013523,0.002678,0.000431,0.000353
1191000,0.0324,0.013523,0.002678,0.000431,0.000470
1192000,0.0324,0.013523,0.002678,0.000431,0.000588
1193000,0.0324,0.013523,0.002678,0.000431,0.000470
1194000,0.0324,0.013523,0.002678,0.000431,0.000353
1195000,0.0324,0.013523,0.002678,0.000431,0.000470
1196000,0.0324,0.013523,0.002678,0.000431,0.000705
1197000,0.0324,0.013523,0.002678,0.000431,0.000588
1198000,0.0324,0.013523,0.002678,0.000431,0.000470
1199000,0.0324,0.013523,0.002678,0.000431,0.000470
1200000,0.0324,0.013523,0.002678,0.000431,0.000588
1201000,0.0324,0.013523,0.002678,0.000431,0.000470
1202000,0.0324,0.013523,0.002678,0.000431,0.000705
1203000,0.0324,0.013523,0.002678,0.000431,0.000353
1204000,0.0324,0.013523,0.002678,0.000431,0.000588
1205000,0.0324,0.013523,0.002678,0.000431,0.000470
1206000,0.0324,0.013523,0.002678,0.000431,0.000470
1207000,0.0324,0.013523,0.002678,0.000431,0.000470
1208000,0.0324,0.013523,0.002678,0.000431,0.000705
1209000,0.0324,0.013523,0.002678,0.000431,0.000353
1210000,0.0324,0.013523,0.002678,0.000431,0.000235
1211000,0.0324,0.013523,0.002678,0.000431,0.000118
1212000,0.0324,0.013523,0.002678,0.000431,0.000118
1213000,0.0324,0.013523,0.002678,0.000431,0.000235
1214000,0.0324,0.013523,0.002678,0.000431,0.000000
1215000,0.0324,0.013523,0.002678,0.000431,0.000235
1216000,0.0324,0.013523,0.002678,0.000431,0.000118
1217000,0.0324,0.013523,0.002678,0.000431,0.000118
1218000,0.0324,0.013523,0.002678,0.000431,0.000235
1219000,0.0324,0.013523,0.002678,0.000431,0.000353
1220000,0.0324,0.013523,0.002678,0.000431,0.000588
1221000,0.0324,0.013523,0.002678,0.000431,0.000470
1222000,0.0324,0.013523,0.002678,0.000431,0.000353
1223000,0.0324,0.013523,0.002678,0.000431,0.000470
1224000,0.0324,0.013523,0.002678,0.000431,0.000470
1225000,0.0324,0.013523,0.002678,0.000431,0.000470
1226000,0.0324,0.013523,0.002678,0.000431,0.000588
1227000,0.0324,0.013523,0.002678,0.000431,0.000588
1228000,0.0324,0.013523,0.002678,0.000431,0.000353
1229000,0.0324,0.013523,0.002678,0.000431,0.000588
1230000,0.0324,0.013523,0.002678,0.000431,0.000353
1231000,0.0324,0.013523,0.002678,0.000431,0.000588
1232000,0.0324,0.013523,0.002678,0.000431,0.000353
1233000,0.0324,0.013523,0.002678,0.000431,0.000470
1234000,0.0324,0.013523,0.002678,0.000431,0.000235
1235000,0.0324,0.013523,0.002678,0.000431,0.000235
1236000,0.0324,0.013523,0.002678,0.000431,0.000588
1237000,0.0324,0.013523,0.002678,0.000431,0.000353
1238000,0.0324,0.013523,0.002678,0.000431,0.000588
1239000,0.0324,0.013523,0.002678,0.000431,0.000353
1240000,0.0324,0.013523,0.002678,0.000431,0.000470
1241000,0.0324,0.013523,0.002678,0.000431,0.000588
1242000,0.0324,0.013523,0.002678,0.000431,0.000470
1243000,0.0324,0.013523,0.002678,0.000431,0.000470
1244000,0.0324,0.013523,0.002678,0.000431,0.000353
1245000,0.0324,0.013523,0.002678,0.000431,0.000470
1246000,0.0324,0.013523,0.002678,0.000431,0.000588
1247000,0.0324,0.013523,0.002678,0.000431,0.000588
1248000,0.0324,0.013523,0.002678,0.000431,0.000470
1249000,0.0324,0.013523,0.002678,0.000431,0.000588
1250000,0.0324,0.013523,0.002678,0.000431,0.000470
1251000,0.0324,0.013523,0.002678,0.000431,0.000705
1252000,0.0324,0.013523,0.002678,0.000431,0.000588
1253000,0.0324,0.013523,0.002678,0.000431,0.000235
1254000,0.0324,0.013523,0.002678,0.000431,0.000470
1255000,0.0324,0.013523,0.002678,0.000431,0.000235
1256000,0.0324,0.013523,0.002678,0.000431,0.000000
1257000,0.0324,0.013523,0.002678,0.000431,0.000000
1258000,0.0324,0.013523,0.002678,0.000431,0.000000
1259000,0.0324,0.013523,0.002678,0.000431,0.000000
1260000,0.0324,0.013523,0.002678,0.000431,1.326423
1261000,0.0324,0.013523,0.002678,0.000431,2.538961
1262000,0.0324,0.013523,0.002678,0.000431,0.172649
1263000,0.0324,0.013523,0.002678,0.000431,0.000000
1264000,0.0324,0.013523,0.002678,0.000431,0.000000
1265000,0.0324,0.013523,0.002678,0.000431,0.000000
1266000,0.0324,0.013523,0.002678,0.000431,0.000000
1267000,0.0324,0.013523,0.002678,0.000431,1.042593
1268000,0.0324,0.013523,0.002678,0.000431,2.501117
1269000,0.0324,0.013523,0.002678,0.000431,1.377430
1270000,0.0324,0.013523,0.002678,0.000431,1.548669
1271000,0.0324,0.013523,0.002678,0.000431,2.030652
1272000,0.0324,0.013523,0.002678,0.000431,2.543075
1273000,0.0324,0.013523,0.002678,0.000431,3.884189
1274000,0.0324,0.013523,0.002678,0.000431,4.140753
1275000,0.0324,0.013523,0.002678,0.000431,4.231015
1276000,0.0324,0.013523,0.002678,0.000431,4.072704
1277000,0.0324,0.013523,0.002678,0.000431,3.966224
1278000,0.0324,0.013523,0.002678,0.000431,4.063537
1279000,0.0324,0.013523,0.002678,0.000431,4.054840
1280000,0.0324,0.013523,0.002678,0.000431,4.013352
1281000,0.0324,0.013523,0.002678,0.000431,4.068473
1282000,0.0324,0.013523,0.002678,0.000431,4.052019
1283000,0.0324,0.013523,0.002678,0.000431,4.054605
1284000,0.0324,0.013523,0.002678,0.000431,4.070824
1285000,0.0324,0.013523,0.002678,0.000431,4.038386
1286000,0.0324,0.013523,0.002678,0.000431,4.026751
1287000,0.0324,0.013523,0.002678,0.000431,3.985498
1288000,0.0324,0.013523,0.002678,0.000431,4.044967
1289000,0.0324,0.013523,0.002678,0.000431,4.013117
1290000,0.0324,0.013523,0.002678,0.000431,4.035448
1291000,0.0324,0.013523,0.002678,0.000431,4.049786
1292000,0.0324,0.013523,0.002678,0.000431,4.083869
1293000,0.0324,0.013523,0.002678,0.000431,4.057190
1294000,0.0324,0.013523,0.002678,0.000431,4.080931
1295000,0.0324,0.013523,0.002678,0.000431,4.018759
1296000,0.0324,0.013523,0.002678,0.000431,4.043205
1297000,0.0324,0.013523,0.002678,0.000431,4.053194
1298000,0.0324,0.013523,0.002678,0.000431,4.014410
1299000,0.0324,0.013523,0.002678,0.000431,4.066475
1300000,0.0324,0.013523,0.002678,0.000431,4.052254
1301000,0.0324,0.013523,0.002678,0.000431,4.028984
1302000,0.0324,0.013523,0.002678,0.000431,4.056955
1303000,0.0324,0.013523,0.002678,0.000431,4.037916
1304000,0.0324,0.013523,0.002678,0.000431,4.020522
1305000,0.0324,0.013523,0.002678,0.000431,4.063537
1306000,0.0324,0.013523,0.002678,0.000431,4.035330
1307000,0.0324,0.013523,0.002678,0.000431,4.089628
1308000,0.0324,0.013523,0.002678,0.000431,4.058013
1309000,0.0324,0.013523,0.002678,0.000431,4.010179
1310000,0.0324,0.013523,0.002678,0.000431,4.021344
1311000,0.0324,0.013523,0.002678,0.000431,4.053547
1312000,0.0324,0.013523,0.002678,0.000431,4.043557
1313000,0.0324,0.013523,0.002678,0.000431,4.074467
1314000,0.0324,0.013523,0.002678,0.000431,4.058013
1315000,0.0324,0.013523,0.002678,0.000431,4.080108
1316000,0.0324,0.013523,0.002678,0.000431,4.068591
1317000,0.0324,0.013523,0.002678,0.000431,4.077875
1318000,0.0324,0.013523,0.002678,0.000431,4.062597
1319000,0.0324,0.013523,0.002678,0.000431,4.041677
1320000,0.0324,0.013523,0.002678,0.000431,4.022402
1321000,0.0324,0.013523,0.002678,0.000431,4.079403
1322000,0.0324,0.013523,0.002678,0.000431,4.043910
1323000,0.0324,0.013523,0.002678,0.000431,4.072587
1324000,0.0324,0.013523,0.002678,0.000431,4.100206
1325000,0.0324,0.013523,0.002678,0.000431,4.045790
1326000,0.0324,0.013523,0.002678,0.000431,4.063067
1327000,0.0324,0.013523,0.002678,0.000431,4.007476
1328000,0.0324,0.013523,0.002678,0.000431,4.105142
1329000,0.0324,0.013523,0.002678,0.000431,4.012882
1330000,0.0324,0.013523,0.002678,0.000431,4.067768
1331000,0.0324,0.013523,0.002678,0.000431,4.064242
1332000,0.0324,0.013523,0.002678,0.000431,4.019229
1333000,0.0324,0.013523,0.002678,0.000431,4.065182
1334000,0.0324,0.013523,0.002678,0.000431,4.073644
1335000,0.0324,0.013523,0.002678,0.000431,4.072352
1336000,0.0324,0.013523,0.002678,0.000431,4.042147
1337000,0.0324,0.013523,0.002678,0.000431,4.055427
1338000,0.0324,0.013523,0.002678,0.000431,4.055780
1339000,0.0324,0.013523,0.002678,0.000431,3.936724
1340000,0.0324,0.013523,0.002678,0.000431,4.018641
1341000,0.0324,0.013523,0.002678,0.000431,4.032157
1342000,0.0324,0.013523,0.002678,0.000431,4.071646
1343000,0.0324,0.013523,0.002678,0.000431,4.077875
1344000,0.0324,0.013523,0.002678,0.000431,4.080108
1345000,0.0324,0.013523,0.002678,0.000431,4.070589
1346000,0.0324,0.013523,0.002678,0.000431,4.093036
1347000,0.0324,0.013523,0.002678,0.000431,4.074467
1348000,0.0324,0.013523,0.002678,0.000431,4.077875
1349000,0.0324,0.013523,0.002678,0.000431,4.084339
1350000,0.0324,0.013523,0.002678,0.000431,4.087395
1351000,0.0324,0.013523,0.002678,0.000431,4.099853
1352000,0.0324,0.013523,0.002678,0.000431,4.086572
1353000,0.0324,0.013523,0.002678,0.000431,4.052724
1354000,0.0324,0.013523,0.002678,0.000431,4.063302
1355000,0.0324,0.013523,0.002678,0.000431,4.083282
1356000,0.0324,0.013523,0.002678,0.000431,4.086102
1357000,0.0324,0.013523,0.002678,0.000431,4.069413
1358000,0.0324,0.013523,0.002678,0.000431,4.049081
1359000,0.0324,0.013523,0.002678,0.000431,4.111841
1360000,0.0324,0.013523,0.002678,0.000431,4.049904
1361000,0.0324,0.013523,0.002678,0.000431,4.070001
1362000,0.0324,0.013523,0.002678,0.000431,4.088688
1363000,0.0324,0.013523,0.002678,0.000431,4.069061
1364000,0.0324,0.013523,0.002678,0.000431,4.084810
1365000,0.0324,0.013523,0.002678,0.000431,4.018876
1366000,0.0324,0.013523,0.002678,0.000431,4.079051
1367000,0.0324,0.013523,0.002678,0.000431,4.062009
1368000,0.0324,0.013523,0.002678,0.000431,4.049198
1369000,0.0324,0.013523,0.002678,0.000431,4.036153
1370000,0.0324,0.013523,0.002678,0.000431,4.063184
1371000,0.0324,0.013523,0.002678,0.000431,3.988084
1372000,0.0324,0.013523,0.002678,0.000431,3.992667
1373000,0.0324,0.013523,0.002678,0.000431,3.995136
1374000,0.0324,0.013523,0.002678,0.000431,3.983853
1375000,0.0324,0.013523,0.002678,0.000431,3.905109
1376000,0.0324,0.013523,0.002678,0.000431,3.855512
1377000,0.0324,0.013523,0.002678,0.000431,3.736338
1378000,0.0324,0.013523,0.002678,0.000431,3.716006
1379000,0.0324,0.013523,0.002678,0.000431,3.594012
1380000,0.0324,0.013523,0.002678,0.000431,3.386927
1381000,0.0324,0.013523,0.002678,0.000431,3.300544
1382000,0.0324,0.013523,0.002678,0.000431,3.201233
1383000,0.0324,0.013523,0.002678,0.000431,3.036458
1384000,0.0324,0.013523,0.002678,0.000431,2.893191
1385000,0.0324,0.013523,0.002678,0.000431,2.882496
1386000,0.0324,0.013523,0.002678,0.000431,2.758621
1387000,0.0324,0.013523,0.002678,0.000431,2.589616
1388000,0.0324,0.013523,0.002678,0.000431,2.465389
1389000,0.0324,0.013523,0.002678,0.000431,2.371014
1390000,0.0324,0.013523,0.002678,0.000431,2.305903
1391000,0.0324,0.013523,0.002678,0.000431,2.251840
1392000,0.0324,0.013523,0.002678,0.000431,2.131961
1393000,0.0324,0.013523,0.002678,0.000431,2.061209
1394000,0.0324,0.013523,0.002678,0.000431,2.019252
1395000,0.0324,0.013523,0.002678,0.000431,1.926052
1396000,0.0324,0.013523,0.002678,0.000431,1.880686
1397000,0.0324,0.013523,0.002678,0.000431,1.810757
1398000,0.0324,0.013523,0.002678,0.000431,1.775851
1399000,0.0324,0.013523,0.002678,0.000431,1.702161
1400000,0.0324,0.013523,0.002678,0.000431,1.665492
1401000,0.0324,0.013523,0.002678,0.000431,1.610254
1402000,0.0324,0.013523,0.002678,0.000431,1.547846
1403000,0.0324,0.013523,0.002678,0.000431,1.478269
1404000,0.0324,0.013523,0.002678,0.000431,1.463461
1405000,0.0324,0.013523,0.002678,0.000431,1.400583
1406000,0.0324,0.013523,0.002678,0.000431,1.368381
1407000,0.0324,0.013523,0.002678,0.000431,1.326423
1408000,0.0324,0.013523,0.002678,0.000431,1.283525
1409000,0.0324,0.013523,0.002678,0.000431,1.227464
1410000,0.0324,0.013523,0.002678,0.000431,1.188327
1411000,0.0324,0.013523,0.002678,0.000431,1.159063
1412000,0.0324,0.013523,0.002678,0.000431,1.106293
1413000,0.0324,0.013523,0.002678,0.000431,1.071387
1414000,0.0324,0.013523,0.002678,0.000431,1.004983
1415000,0.0324,0.013523,0.002678,0.000431,0.980773
1416000,0.0324,0.013523,0.002678,0.000431,0.951391
1417000,0.0324,0.013523,0.002678,0.000431,0.916837
1418000,0.0324,0.013523,0.002678,0.000431,0.883342
1419000,0.0324,0.013523,0.002678,0.000431,0.868768
1420000,0.0324,0.013523,0.002678,0.000431,0.836448
1421000,0.0324,0.013523,0.002678,0.000431,0.790259
1422000,0.0324,0.013523,0.002678,0.000431,0.771337
1423000,0.0324,0.013523,0.002678,0.000431,0.747479
1424000,0.0324,0.013523,0.002678,0.000431,0.713043
1425000,0.0324,0.013523,0.002678,0.000431,0.694004
1426000,0.0324,0.013523,0.002678,0.000431,0.672849
1427000,0.0324,0.013523,0.002678,0.000431,0.630774
1428000,0.0324,0.013523,0.002678,0.000431,0.599159
1429000,0.0324,0.013523,0.002678,0.000431,0.606210
1430000,0.0324,0.013523,0.002678,0.000431,0.581294
1431000,0.0324,0.013523,0.002678,0.000431,0.539454
1432000,0.0324,0.013523,0.002678,0.000431,0.523235
1433000,0.0324,0.013523,0.002678,0.000431,0.507369
1434000,0.0324,0.013523,0.002678,0.000431,0.481748
1435000,0.0324,0.013523,0.002678,0.000431,0.462473
1436000,0.0324,0.013523,0.002678,0.000431,0.444374
1437000,0.0324,0.013523,0.002678,0.000431,0.442259
1438000,0.0324,0.013523,0.002678,0.000431,0.414522
1439000,0.0324,0.013523,0.002678,0.000431,0.400301
1440000,0.0324,0.013523,0.002678,0.000431,0.391251
1441000,0.0324,0.013523,0.002678,0.000431,0.367863
1442000,0.0324,0.013523,0.002678,0.000431,0.356463
1443000,0.0324,0.013523,0.002678,0.000431,0.339069
1444000,0.0324,0.013523,0.002678,0.000431,0.336836
1445000,0.0324,0.013523,0.002678,0.000431,0.318854
1446000,0.0324,0.013523,0.002678,0.000431,0.312625
1447000,0.0324,0.013523,0.002678,0.000431,0.300520
1448000,0.0324,0.013523,0.002678,0.000431,0.293233
1449000,0.0324,0.013523,0.002678,0.000431,0.274781
1450000,0.0324,0.013523,0.002678,0.000431,0.260560
1451000,0.0324,0.013523,0.002678,0.000431,0.255976
1452000,0.0324,0.013523,0.002678,0.000431,0.245751
1453000,0.0324,0.013523,0.002678,0.000431,0.233528
1454000,0.0324,0.013523,0.002678,0.000431,0.224949
1455000,0.0324,0.013523,0.002678,0.000431,0.209083
1456000,0.0324,0.013523,0.002678,0.000431,0.212256
1457000,0.0324,0.013523,0.002678,0.000431,0.197682
1458000,0.0324,0.013523,0.002678,0.000431,0.187575
1459000,0.0324,0.013523,0.002678,0.000431,0.192394
1460000,0.0324,0.013523,0.002678,0.000431,0.177585
1461000,0.0324,0.013523,0.002678,0.000431,0.167125
1462000,0.0324,0.013523,0.002678,0.000431,0.160661
1463000,0.0324,0.013523,0.002678,0.000431,0.157135
1464000,0.0324,0.013523,0.002678,0.000431,0.147263
1465000,0.0324,0.013523,0.002678,0.000431,0.146088
1466000,0.0324,0.013523,0.002678,0.000431,0.136920
1467000,0.0324,0.013523,0.002678,0.000431,0.135980
1468000,0.0324,0.013523,0.002678,0.000431,0.131044
1469000,0.0324,0.013523,0.002678,0.000431,0.122699
1470000,0.0324,0.013523,0.002678,0.000431,0.124462
1471000,0.0324,0.013523,0.002678,0.000431,0.117293
1472000,0.0324,0.013523,0.002678,0.000431,0.117528
1473000,0.0324,0.013523,0.002678,0.000431,0.105305
1474000,0.0324,0.013523,0.002678,0.000431,0.103307
1475000,0.0324,0.013523,0.002678,0.000431,0.107186
1476000,0.0324,0.013523,0.002678,0.000431,0.097783
1477000,0.0324,0.013523,0.002678,0.000431,0.096256
1478000,0.0324,0.013523,0.002678,0.000431,0.097078
1479000,0.0324,0.013523,0.002678,0.000431,0.088734
1480000,0.0324,0.013523,0.002678,0.000431,0.086031
1481000,0.0324,0.013523,0.002678,0.000431,0.080037
1482000,0.0324,0.013523,0.002678,0.000431,0.079919
1483000,0.0324,0.013523,0.002678,0.000431,0.079214
1484000,0.0324,0.013523,0.002678,0.000431,0.074983
1485000,0.0324,0.013523,0.002678,0.000431,0.073455
1486000,0.0324,0.013523,0.002678,0.000431,0.072632
1487000,0.0324,0.013523,0.002678,0.000431,0.067931
1488000,0.0324,0.013523,0.002678,0.000431,0.063700
1489000,0.0324,0.013523,0.002678,0.000431,0.065111
1490000,0.0324,0.013523,0.002678,0.000431,0.064288
1491000,0.0324,0.013523,0.002678,0.000431,0.059117
1492000,0.0324,0.013523,0.002678,0.000431,0.054298
1493000,0.0324,0.013523,0.002678,0.000431,0.054886
1494000,0.0324,0.013523,0.002678,0.000431,0.054298
1495000,0.0324,0.013523,0.002678,0.000431,0.051712
1496000,0.0324,0.013523,0.002678,0.000431,0.051007
1497000,0.0324,0.013523,0.002678,0.000431,0.049362
1498000,0.0324,0.013523,0.002678,0.000431,0.046306
1499000,0.0324,0.013523,0.002678,0.000431,0.049244
1500000,0.0324,0.013523,0.002678,0.000431,0.044426
1501000,0.0324,0.013523,0.002678,0.000431,0.043838
1502000,0.0324,0.013523,0.002678,0.000431,0.042310
1503000,0.0324,0.013523,0.002678,0.000431,0.041840
1504000,0.0324,0.013523,0.002678,0.000431,0.040665
1505000,0.0324,0.013523,0.002678,0.000431,0.037609
1506000,0.0324,0.013523,0.002678,0.000431,0.036316
1507000,0.0324,0.013523,0.002678,0.000431,0.037962
1508000,0.0324,0.013523,0.002678,0.000431,0.033848
1509000,0.0324,0.013523,0.002678,0.000431,0.034436
1510000,0.0324,0.013523,0.002678,0.000431,0.033378
1511000,0.0324,0.013523,0.002678,0.000431,0.035258
1512000,0.0324,0.013523,0.002678,0.000431,0.029735
1513000,0.0324,0.013523,0.002678,0.000431,0.029735
1514000,0.0324,0.013523,0.002678,0.000431,0.029382
1515000,0.0324,0.013523,0.002678,0.000431,0.028207
1516000,0.0324,0.013523,0.002678,0.000431,0.027267
1517000,0.0324,0.013523,0.002678,0.000431,0.026679
1518000,0.0324,0.013523,0.002678,0.000431,0.026914
1519000,0.0324,0.013523,0.002678,0.000431,0.025269
1520000,0.0324,0.013523,0.002678,0.000431,0.026326
1521000,0.0324,0.013523,0.002678,0.000431,0.026326
1522000,0.0324,0.013523,0.002678,0.000431,0.025269
1523000,0.0324,0.013523,0.002678,0.000431,0.022918
1524000,0.0324,0.013523,0.002678,0.000431,0.024211
1525000,0.0324,0.013523,0.002678,0.000431,0.021860
1526000,0.0324,0.013523,0.002678,0.000431,0.022330
1527000,0.0324,0.013523,0.002678,0.000431,0.021273
1528000,0.0324,0.013523,0.002678,0.000431,0.021390
1529000,0.0324,0.013523,0.002678,0.000431,0.021273
1530000,0.0324,0.013523,0.002678,0.000431,0.020097
1531000,0.0324,0.013523,0.002678,0.000431,0.020567
1532000,0.0324,0.013523,0.002678,0.000431,0.019510
1533000,0.0324,0.013523,0.002678,0.000431,0.016924
1534000,0.0324,0.013523,0.002678,0.000431,0.019040
1535000,0.0324,0.013523,0.002678,0.000431,0.017277
1536000,0.0324,0.013523,0.002678,0.000431,0.018687
1537000,0.0324,0.013523,0.002678,0.000431,0.015631
1538000,0.0324,0.013523,0.002678,0.000431,0.015514
1539000,0.0324,0.013523,0.002678,0.000431,0.016101
1540000,0.0324,0.013523,0.002678,0.000431,0.013751
1541000,0.0324,0.013523,0.002678,0.000431,0.015631
1542000,0.0324,0.013523,0.002678,0.000431,0.013986
1543000,0.0324,0.013523,0.002678,0.000431,0.014221
1544000,0.0324,0.013523,0.002678,0.000431,0.013398
1545000,0.0324,0.013523,0.002678,0.000431,0.014573
1546000,0.0324,0.013523,0.002678,0.000431,0.012458
1547000,0.0324,0.013523,0.002678,0.000431,0.012928
1548000,0.0324,0.013523,0.002678,0.000431,0.013281
1549000,0.0324,0.013523,0.002678,0.000431,0.012458
1550000,0.0324,0.013523,0.002678,0.000431,0.012340
1551000,0.0324,0.013523,0.002678,0.000431,0.011518
1552000,0.0324,0.013523,0.002678,0.000431,0.012458
1553000,0.0324,0.013523,0.002678,0.000431,0.011283
1554000,0.0324,0.013523,0.002678,0.000431,0.010578
1555000,0.0324,0.013523,0.002678,0.000431,0.011988
1556000,0.0324,0.013523,0.002678,0.000431,0.012340
1557000,0.0324,0.013523,0.002678,0.000431,0.011635
1558000,0.0324,0.013523,0.002678,0.000431,0.010813
1559000,0.0324,0.013523,0.002678,0.000431,0.010578
1560000,0.0324,0.013523,0.002678,0.000431,0.011870
1561000,0.0324,0.013523,0.002678,0.000431,0.011283
1562000,0.0324,0.013523,0.002678,0.000431,0.009637
1563000,0.0324,0.013523,0.002678,0.000431,0.009402
1564000,0.0324,0.013523,0.002678,0.000431,0.010930
1565000,0.0324,0.013523,0.002678,0.000431,0.010342
1566000,0.0324,0.013523,0.002678,0.000431,0.009520
1567000,0.0324,0.013523,0.002678,0.000431,0.010107
1568000,0.0324,0.013523,0.002678,0.000431,0.009637
1569000,0.0324,0.013523,0.002678,0.000431,0.009755
1570000,0.0324,0.013523,0.002678,0.000431,0.009520
1571000,0.0324,0.013523,0.002678,0.000431,0.009167
1572000,0.0324,0.013523,0.002678,0.000431,0.009990
1573000,0.0324,0.013523,0.002678,0.000431,0.009872
1574000,0.0324,0.013523,0.002678,0.000431,0.008227
1575000,0.0324,0.013523,0.002678,0.000431,0.008932
1576000,0.0324,0.013523,0.002678,0.000431,0.008345
1577000,0.0324,0.013523,0.002678,0.000431,0.009285
1578000,0.0324,0.013523,0.002678,0.000431,0.008697
1579000,0.0324,0.013523,0.002678,0.000431,0.007874
1580000,0.0324,0.013523,0.002678,0.000431,0.008462
1581000,0.0324,0.013523,0.002678,0.000431,0.007757
1582000,0.0324,0.013523,0.002678,0.000431,0.008462
1583000,0.0324,0.013523,0.002678,0.000431,0.008227
1584000,0.0324,0.013523,0.002678,0.000431,0.007992
1585000,0.0324,0.013523,0.002678,0.000431,0.007287
1586000,0.0324,0.013523,0.002678,0.000431,0.007052
1587000,0.0324,0.013523,0.002678,0.000431,0.007052
1588000,0.0324,0.013523,0.002678,0.000431,0.006934
1589000,0.0324,0.013523,0.002678,0.000431,0.007522
1590000,0.0324,0.013523,0.002678,0.000431,0.007874
1591000,0.0324,0.013523,0.002678,0.000431,0.007404
1592000,0.0324,0.013523,0.002678,0.000431,0.007404
1593000,0.0324,0.013523,0.002678,0.000431,0.007639
1594000,0.0324,0.013523,0.002678,0.000431,0.007052
1595000,0.0324,0.013523,0.002678,0.000431,0.006699
1596000,0.0324,0.013523,0.002678,0.000431,0.006699
1597000,0.0324,0.013523,0.002678,0.000431,0.006111
1598000,0.0324,0.013523,0.002678,0.000431,0.006464
1599000,0.0324,0.013523,0.002678,0.000431,0.007052
1600000,0.0324,0.013523,0.002678,0.000431,0.007287
1601000,0.0324,0.013523,0.002678,0.000431,0.006347
1602000,0.0324,0.013523,0.002678,0.000431,0.007287
1603000,0.0324,0.013523,0.002678,0.000431,0.007169
1604000,0.0324,0.013523,0.002678,0.000431,0.005994
1605000,0.0324,0.013523,0.002678,0.000431,0.005524
1606000,0.0324,0.013523,0.002678,0.000431,0.006817
1607000,0.0324,0.013523,0.002678,0.000431,0.006347
1608000,0.0324,0.013523,0.002678,0.000431,0.005994
1609000,0.0324,0.013523,0.002678,0.000431,0.006111
1610000,0.0324,0.013523,0.002678,0.000431,0.005876
1611000,0.0324,0.013523,0.002678,0.000431,0.005876
1612000,0.0324,0.013523,0.002678,0.000431,0.005759
1613000,0.0324,0.013523,0.002678,0.000431,0.005289
1614000,0.0324,0.013523,0.002678,0.000431,0.006111
1615000,0.0324,0.013523,0.002678,0.000431,0.006699
1616000,0.0324,0.013523,0.002678,0.000431,0.006111
1617000,0.0324,0.013523,0.002678,0.000431,0.005406
1618000,0.0324,0.013523,0.002678,0.000431,0.005054
1619000,0.0324,0.013523,0.002678,0.000431,0.005524
1620000,0.0324,0.013523,0.002678,0.000431,0.005524
1621000,0.0324,0.013523,0.002678,0.000431,0.005641
1622000,0.0324,0.013523,0.002678,0.000431,0.005054
1623000,0.0324,0.013523,0.002678,0.000431,0.005876
1624000,0.0324,0.013523,0.002678,0.000431,0.005406
1625000,0.0324,0.013523,0.002678,0.000431,0.005406
1626000,0.0324,0.013523,0.002678,0.000431,0.005641
1627000,0.0324,0.013523,0.002678,0.000431,0.005406
1628000,0.0324,0.013523,0.002678,0.000431,0.005171
1629000,0.0324,0.013523,0.002678,0.000431,0.005289
1630000,0.0324,0.013523,0.002678,0.000431,0.005994
1631000,0.0324,0.013523,0.002678,0.000431,0.005994
1632000,0.0324,0.013523,0.002678,0.000431,0.005171
1633000,0.0324,0.013523,0.002678,0.000431,0.004584
1634000,0.0324,0.013523,0.002678,0.000431,0.004701
1635000,0.0324,0.013523,0.002678,0.000431,0.004466
1636000,0.0324,0.013523,0.002678,0.000431,0.004701
1637000,0.0324,0.013523,0.002678,0.000431,0.005054
1638000,0.0324,0.013523,0.002678,0.000431,0.004113
1639000,0.0324,0.013523,0.002678,0.000431,0.005289
1640000,0.0324,0.013523,0.002678,0.000431,0.004466
1641000,0.0324,0.013523,0.002678,0.000431,0.004936
1642000,0.0324,0.013523,0.002678,0.000431,0.004819
1643000,0.0324,0.013523,0.002678,0.000431,0.004701
1644000,0.0324,0.013523,0.002678,0.000431,0.004113
1645000,0.0324,0.013523,0.002678,0.000431,0.004701
1646000,0.0324,0.013523,0.002678,0.000431,0.004349
1647000,0.0324,0.013523,0.002678,0.000431,0.004819
1648000,0.0324,0.013523,0.002678,0.000431,0.003878
1649000,0.0324,0.013523,0.002678,0.000431,0.003878
1650000,0.0324,0.013523,0.002678,0.000431,0.004231
1651000,0.0324,0.013523,0.002678,0.000431,0.003761
1652000,0.0324,0.013523,0.002678,0.000431,0.004113
1653000,0.0324,0.013523,0.002678,0.000431,0.004466
1654000,0.0324,0.013523,0.002678,0.000431,0.004819
1655000,0.0324,0.013523,0.002678,0.000431,0.003761
1656000,0.0324,0.013523,0.002678,0.000431,0.004349
1657000,0.0324,0.013523,0.002678,0.000431,0.005054
1658000,0.0324,0.013523,0.002678,0.000431,0.004466
1659000,0.0324,0.013523,0.002678,0.000431,0.004113
1660000,0.0324,0.013523,0.002678,0.000431,0.004349
1661000,0.0324,0.013523,0.002678,0.000431,0.004584
1662000,0.0324,0.013523,0.002678,0.000431,0.004584
1663000,0.0324,0.013523,0.002678,0.000431,0.004349
1664000,0.0324,0.013523,0.002678,0.000431,0.004113
1665000,0.0324,0.013523,0.002678,0.000431,0.003996
1666000,0.0324,0.013523,0.002678,0.000431,0.004231
1667000,0.0324,0.013523,0.002678,0.000431,0.004113
1668000,0.0324,0.013523,0.002678,0.000431,0.004231
1669000,0.0324,0.013523,0.002678,0.000431,0.003761
1670000,0.0324,0.013523,0.002678,0.000431,0.003526
1671000,0.0324,0.013523,0.002678,0.000431,0.004349
1672000,0.0324,0.013523,0.002678,0.000431,0.003526
1673000,0.0324,0.013523,0.002678,0.000431,0.004113
1674000,0.0324,0.013523,0.002678,0.000431,0.003761
1675000,0.0324,0.013523,0.002678,0.000431,0.002821
1676000,0.0324,0.013523,0.002678,0.000431,0.003643
1677000,0.0324,0.013523,0.002678,0.000431,0.004231
1678000,0.0324,0.013523,0.002678,0.000431,0.003408
1679000,0.0324,0.013523,0.002678,0.000431,0.003996
1680000,0.0324,0.013523,0.002678,0.000431,0.003643
1681000,0.0324,0.013523,0.002678,0.000431,0.003526
1682000,0.0324,0.013523,0.002678,0.000431,0.003526
1683000,0.0324,0.013523,0.002678,0.000431,0.003761
1684000,0.0324,0.013523,0.002678,0.000431,0.004113
1685000,0.0324,0.013523,0.002678,0.000431,0.003761
1686000,0.0324,0.013523,0.002678,0.000431,0.003996
1687000,0.0324,0.013523,0.002678,0.000431,0.003996
1688000,0.0324,0.013523,0.002678,0.000431,0.003526
1689000,0.0324,0.013523,0.002678,0.000431,0.003408
1690000,0.0324,0.013523,0.002678,0.000431,0.003056
1691000,0.0324,0.013523,0.002678,0.000431,0.002938
1692000,0.0324,0.013523,0.002678,0.000431,0.003996
1693000,0.0324,0.013523,0.002678,0.000431,0.003056
1694000,0.0324,0.013523,0.002678,0.000431,0.004113
1695000,0.0324,0.013523,0.002678,0.000431,0.002586
1696000,0.0324,0.013523,0.002678,0.000431,0.003291
1697000,0.0324,0.013523,0.002678,0.000431,0.003173
1698000,0.0324,0.013523,0.002678,0.000431,0.003056
1699000,0.0324,0.013523,0.002678,0.000431,0.003291
1700000,0.0324,0.013523,0.002678,0.000431,0.004466
1701000,0.0324,0.013523,0.002678,0.000431,0.003526
1702000,0.0324,0.013523,0.002678,0.000431,0.003526
1703000,0.0324,0.013523,0.002678,0.000431,0.003878
1704000,0.0324,0.013523,0.002678,0.000431,0.003173
1705000,0.0324,0.013523,0.002678,0.000431,0.003173
1706000,0.0324,0.013523,0.002678,0.000431,0.003761
1707000,0.0324,0.013523,0.002678,0.000431,0.003643
1708000,0.0324,0.013523,0.002678,0.000431,0.003408
1709000,0.0324,0.013523,0.002678,0.000431,0.003526
1710000,0.0324,0.013523,0.002678,0.000431,0.003173
1711000,0.0324,0.013523,0.002678,0.000431,0.003878
1712000,0.0324,0.013523,0.002678,0.000431,0.002938
1713000,0.0324,0.013523,0.002678,0.000431,0.003526
1714000,0.0324,0.013523,0.002678,0.000431,0.003173
1715000,0.0324,0.013523,0.002678,0.000431,0.003173
1716000,0.0324,0.013523,0.002678,0.000431,0.003643
1717000,0.0324,0.013523,0.002678,0.000431,0.002703
1718000,0.0324,0.013523,0.002678,0.000431,0.003408
1719000,0.0324,0.013523,0.002678,0.000431,0.003643
1720000,0.0324,0.013523,0.002678,0.000431,0.002468
1721000,0.0324,0.013523,0.002678,0.000431,0.003408
1722000,0.0324,0.013523,0.002678,0.000431,0.002938
1723000,0.0324,0.013523,0.002678,0.000431,0.003643
1724000,0.0324,0.013523,0.002678,0.000431,0.002703
1725000,0.0324,0.013523,0.002678,0.000431,0.002821
1726000,0.0324,0.013523,0.002678,0.000431,0.002938
1727000,0.0324,0.013523,0.002678,0.000431,0.003408
1728000,0.0324,0.013523,0.002678,0.000431,0.003056
1729000,0.0324,0.013523,0.002678,0.000431,0.003761
1730000,0.0324,0.013523,0.002678,0.000431,0.002938
1731000,0.0324,0.013523,0.002678,0.000431,0.002821
1732000,0.0324,0.013523,0.002678,0.000431,0.002703
1733000,0.0324,0.013523,0.002678,0.000431,0.003408
1734000,0.0324,0.013523,0.002678,0.000431,0.003056
1735000,0.0324,0.013523,0.002678,0.000431,0.003291
1736000,0.0324,0.013523,0.002678,0.000431,0.002351
1737000,0.0324,0.013523,0.002678,0.000431,0.002938
1738000,0.0324,0.013523,0.002678,0.000431,0.002703
1739000,0.0324,0.013523,0.002678,0.000431,0.003173
1740000,0.0324,0.013523,0.002678,0.000431,0.002821
1741000,0.0324,0.013523,0.002678,0.000431,0.002938
1742000,0.0324,0.013523,0.002678,0.000431,0.003173
1743000,0.0324,0.013523,0.002678,0.000431,0.002468
1744000,0.0324,0.013523,0.002678,0.000431,0.002586
1745000,0.0324,0.013523,0.002678,0.000431,0.002351
1746000,0.0324,0.013523,0.002678,0.000431,0.003173
1747000,0.0324,0.013523,0.002678,0.000431,0.002938
1748000,0.0324,0.013523,0.002678,0.000431,0.003291
1749000,0.0324,0.013523,0.002678,0.000431,0.002821
1750000,0.0324,0.013523,0.002678,0.000431,0.001763
1751000,0.0324,0.013523,0.002678,0.000431,0.002468
1752000,0.0324,0.013523,0.002678,0.000431,0.002468
1753000,0.0324,0.013523,0.002678,0.000431,0.002351
1754000,0.0324,0.013523,0.002678,0.000431,0.002586
1755000,0.0324,0.013523,0.002678,0.000431,0.001998
1756000,0.0324,0.013523,0.002678,0.000431,0.002233
1757000,0.0324,0.013523,0.002678,0.000431,0.002233
1758000,0.0324,0.013523,0.002678,0.000431,0.002233
1759000,0.0324,0.013523,0.002678,0.000431,0.002468
1760000,0.0324,0.013523,0.002678,0.000431,0.002116
1761000,0.0324,0.013523,0.002678,0.000431,0.002233
1762000,0.0324,0.013523,0.002678,0.000431,0.002351
1763000,0.0324,0.013523,0.002678,0.000431,0.001998
1764000,0.0324,0.013523,0.002678,0.000431,0.002233
1765000,0.0324,0.013523,0.002678,0.000431,0.002468
1766000,0.0324,0.013523,0.002678,0.000431,0.002233
1767000,0.0324,0.013523,0.002678,0.000431,0.002351
1768000,0.0324,0.013523,0.002678,0.000431,0.002468
1769000,0.0324,0.013523,0.002678,0.000431,0.002351
1770000,0.0324,0.013523,0.002678,0.000431,0.002351
1771000,0.0324,0.013523,0.002678,0.000431,0.002703
1772000,0.0324,0.013523,0.002678,0.000431,0.001763
1773000,0.0324,0.013523,0.002678,0.000431,0.001410
1774000,0.0324,0.013523,0.002678,0.000431,0.001880
1775000,0.0324,0.013523,0.002678,0.000431,0.001880
1776000,0.0324,0.013523,0.002678,0.000431,0.001410
1777000,0.0324,0.013523,0.002678,0.000431,0.001528
1778000,0.0324,0.013523,0.002678,0.000431,0.001528
1779000,0.0324,0.013523,0.002678,0.000431,0.001528
1780000,0.0324,0.013523,0.002678,0.000431,0.001293
1781000,0.0324,0.013523,0.002678,0.000431,0.001763
1782000,0.0324,0.013523,0.002678,0.000431,0.001528
1783000,0.0324,0.013523,0.002678,0.000431,0.001528
1784000,0.0324,0.013523,0.002678,0.000431,0.001763
1785000,0.0324,0.013523,0.002678,0.000431,0.001645
1786000,0.0324,0.013523,0.002678,0.000431,0.001528
1787000,0.0324,0.013523,0.002678,0.000431,0.001528
1788000,0.0324,0.013523,0.002678,0.000431,0.001645
1789000,0.0324,0.013523,0.002678,0.000431,0.001528
1790000,0.0324,0.013523,0.002678,0.000431,0.001645
1791000,0.0324,0.013523,0.002678,0.000431,0.001528
1792000,0.0324,0.013523,0.002678,0.000431,0.001763
1793000,0.0324,0.013523,0.002678,0.000431,0.001645
1794000,0.0324,0.013523,0.002678,0.000431,0.001763
1795000,0.0324,0.013523,0.002678,0.000431,0.001645
1796000,0.0324,0.013523,0.002678,0.000431,0.001763
1797000,0.0324,0.013523,0.002678,0.000431,0.001410
1798000,0.0324,0.013523,0.002678,0.000431,0.001410
1799000,0.0324,0.013523,0.002678,0.000431,0.001175
1800000,0.0324,0.013523,0.002678,0.000431,0.001645
1801000,0.0324,0.013523,0.002678,0.000431,0.001175
1802000,0.0324,0.013523,0.002678,0.000431,0.001645
1803000,0.0324,0.013523,0.002678,0.000431,0.001528
1804000,0.0324,0.013523,0.002678,0.000431,0.001293
1805000,0.0324,0.013523,0.002678,0.000431,0.001998
1806000,0.0324,0.013523,0.002678,0.000431,0.001410
1807000,0.0324,0.013523,0.002678,0.000431,0.001645
1808000,0.0324,0.013523,0.002678,0.000431,0.001528
1809000,0.0324,0.013523,0.002678,0.000431,0.001763
1810000,0.0324,0.013523,0.002678,0.000431,0.001998
1811000,0.0324,0.013523,0.002678,0.000431,0.001880
1812000,0.0324,0.013523,0.002678,0.000431,0.001528
1813000,0.0324,0.013523,0.002678,0.000431,0.001645
1814000,0.0324,0.013523,0.002678,0.000431,0.001763
1815000,0.0324,0.013523,0.002678,0.000431,0.001410
1816000,0.0324,0.013523,0.002678,0.000431,0.002116
1817000,0.0324,0.013523,0.002678,0.000431,0.001645
1818000,0.0324,0.013523,0.002678,0.000431,0.001528
1819000,0.0324,0.013523,0.002678,0.000431,0.001763
1820000,0.0324,0.013523,0.002678,0.000431,0.001528
1821000,0.0324,0.013523,0.002678,0.000431,0.001528
1822000,0.0324,0.013523,0.002678,0.000431,0.001645
1823000,0.0324,0.013523,0.002678,0.000431,0.001763
1824000,0.0324,0.013523,0.002678,0.000431,0.001645
1825000,0.0324,0.013523,0.002678,0.000431,0.001645
1826000,0.0324,0.013523,0.002678,0.000431,0.001880
1827000,0.0324,0.013523,0.002678,0.000431,0.001763
1828000,0.0324,0.013523,0.002678,0.000431,0.001645
1829000,0.0324,0.013523,0.002678,0.000431,0.001528
1830000,0.0324,0.013523,0.002678,0.000431,0.001293
1831000,0.0324,0.013523,0.002678,0.000431,0.001645
1832000,0.0324,0.013523,0.002678,0.000431,0.001763
1833000,0.0324,0.013523,0.002678,0.000431,0.001763
1834000,0.0324,0.013523,0.002678,0.000431,0.001293
1835000,0.0324,0.013523,0.002678,0.000431,0.001645
1836000,0.0324,0.013523,0.002678,0.000431,0.001880
1837000,0.0324,0.013523,0.002678,0.000431,0.001763
1838000,0.0324,0.013523,0.002678,0.000431,0.001645
1839000,0.0324,0.013523,0.002678,0.000431,0.001528
1840000,0.0324,0.013523,0.002678,0.000431,0.001645
1841000,0.0324,0.013523,0.002678,0.000431,0.001880
1842000,0.0324,0.013523,0.002678,0.000431,0.001645
1843000,0.0324,0.013523,0.002678,0.000431,0.001645
1844000,0.0324,0.013523,0.002678,0.000431,0.001763
1845000,0.0324,0.013523,0.002678,0.000431,0.001763
1846000,0.0324,0.013523,0.002678,0.000431,0.001645
1847000,0.0324,0.013523,0.002678,0.000431,0.001293
1848000,0.0324,0.013523,0.002678,0.000431,0.001880
1849000,0.0324,0.013523,0.002678,0.000431,0.001645
1850000,0.0324,0.013523,0.002678,0.000431,0.001763
1851000,0.0324,0.013523,0.002678,0.000431,0.001645
1852000,0.0324,0.013523,0.002678,0.000431,0.001528
1853000,0.0324,0.013523,0.002678,0.000431,0.001880
1854000,0.0324,0.013523,0.002678,0.000431,0.001880
1855000,0.0324,0.013523,0.002678,0.000431,0.001763
1856000,0.0324,0.013523,0.002678,0.000431,0.001293
1857000,0.0324,0.013523,0.002678,0.000431,0.001528
1858000,0.0324,0.013523,0.002678,0.000431,0.001528
1859000,0.0324,0.013523,0.002678,0.000431,0.001645
1860000,0.0324,0.013523,0.002678,0.000431,0.001528
1861000,0.0324,0.013523,0.002678,0.000431,0.001880
1862000,0.0324,0.013523,0.002678,0.000431,0.001763
1863000,0.0324,0.013523,0.002678,0.000431,0.001763
1864000,0.0324,0.013523,0.002678,0.000431,0.001528
1865000,0.0324,0.013523,0.002678,0.000431,0.001293
1866000,0.0324,0.013523,0.002678,0.000431,0.001528
1867000,0.0324,0.013523,0.002678,0.000431,0.001293
1868000,0.0324,0.013523,0.002678,0.000431,0.001175
1869000,0.0324,0.013523,0.002678,0.000431,0.001880
1870000,0.0324,0.013523,0.002678,0.000431,0.001880
1871000,0.0324,0.013523,0.002678,0.000431,0.001410
1872000,0.0324,0.013523,0.002678,0.000431,0.001645
1873000,0.0324,0.013523,0.002678,0.000431,0.001645
1874000,0.0324,0.013523,0.002678,0.000431,0.001645
1875000,0.0324,0.013523,0.002678,0.000431,0.001528
1876000,0.0324,0.013523,0.002678,0.000431,0.001763
1877000,0.0324,0.013523,0.002678,0.000431,0.001645
1878000,0.0324,0.013523,0.002678,0.000431,0.001528
1879000,0.0324,0.013523,0.002678,0.000431,0.001410
1880000,0.0324,0.013523,0.002678,0.000431,0.001880
1881000,0.0324,0.013523,0.002678,0.000431,0.001528
1882000,0.0324,0.013523,0.002678,0.000431,0.001645
1883000,0.0324,0.013523,0.002678,0.000431,0.001645
1884000,0.0324,0.013523,0.002678,0.000431,0.001528
1885000,0.0324,0.013523,0.002678,0.000431,0.001880
1886000,0.0324,0.013523,0.002678,0.000431,0.001293
1887000,0.0324,0.013523,0.002678,0.000431,0.001763
1888000,0.0324,0.013523,0.002678,0.000431,0.001293
1889000,0.0324,0.013523,0.002678,0.000431,0.001410
1890000,0.0324,0.013523,0.002678,0.000431,0.001410
1891000,0.0324,0.013523,0.002678,0.000431,0.001528
1892000,0.0324,0.013523,0.002678,0.000431,0.001763
1893000,0.0324,0.013523,0.002678,0.000431,0.001528
1894000,0.0324,0.013523,0.002678,0.000431,0.001293
1895000,0.0324,0.013523,0.002678,0.000431,0.001880
1896000,0.0324,0.013523,0.002678,0.000431,0.001763
1897000,0.0324,0.013523,0.002678,0.000431,0.001880
1898000,0.0324,0.013523,0.002678,0.000431,0.001293
1899000,0.0324,0.013523,0.002678,0.000431,0.001528
1900000,0.0324,0.013523,0.002678,0.000431,0.001880
1901000,0.0324,0.013523,0.002678,0.000431,0.001645
1902000,0.0324,0.013523,0.002678,0.000431,0.001645
1903000,0.0324,0.013523,0.002678,0.000431,0.001528
1904000,0.0324,0.013523,0.002678,0.000431,0.001880
1905000,0.0324,0.013523,0.002678,0.000431,0.001645
1906000,0.0324,0.013523,0.002678,0.000431,0.001528
1907000,0.0324,0.013523,0.002678,0.000431,0.001175
1908000,0.0324,0.013523,0.002678,0.000431,0.001410
1909000,0.0324,0.013523,0.002678,0.000431,0.001763
1910000,0.0324,0.013523,0.002678,0.000431,0.001528
1911000,0.0324,0.013523,0.002678,0.000431,0.001528
1912000,0.0324,0.013523,0.002678,0.000431,0.001763
1913000,0.0324,0.013523,0.002678,0.000431,0.001645
1914000,0.0324,0.013523,0.002678,0.000431,0.001763
1915000,0.0324,0.013523,0.002678,0.000431,0.001645
1916000,0.0324,0.013523,0.002678,0.000431,0.001293
1917000,0.0324,0.013523,0.002678,0.000431,0.001880
1918000,0.0324,0.013523,0.002678,0.000431,0.001293
1919000,0.0324,0.013523,0.002678,0.000431,0.001528
1920000,0.0324,0.013523,0.002678,0.000431,0.001880
1921000,0.0324,0.013523,0.002678,0.000431,0.001880
1922000,0.0324,0.013523,0.002678,0.000431,0.001410
1923000,0.0324,0.013523,0.002678,0.000431,0.001880
1924000,0.0324,0.013523,0.002678,0.000431,0.001528
1925000,0.0324,0.013523,0.002678,0.000431,0.001880
1926000,0.0324,0.013523,0.002678,0.000431,0.001645
1927000,0.0324,0.013523,0.002678,0.000431,0.001293
1928000,0.0324,0.013523,0.002678,0.000431,0.001528
1929000,0.0324,0.013523,0.002678,0.000431,0.001528
1930000,0.0324,0.013523,0.002678,0.000431,0.001763
1931000,0.0324,0.013523,0.002678,0.000431,0.001645
1932000,0.0324,0.013523,0.002678,0.000431,0.001763
1933000,0.0324,0.013523,0.002678,0.000431,0.001528
1934000,0.0324,0.013523,0.002678,0.000431,0.001645
1935000,0.0324,0.013523,0.002678,0.000431,0.001528
1936000,0.0324,0.013523,0.002678,0.000431,0.001410
1937000,0.0324,0.013523,0.002678,0.000431,0.001645
1938000,0.0324,0.013523,0.002678,0.000431,0.001528
1939000,0.0324,0.013523,0.002678,0.000431,0.001645
1940000,0.0324,0.013523,0.002678,0.000431,0.001880
1941000,0.0324,0.013523,0.002678,0.000431,0.001763
1942000,0.0324,0.013523,0.002678,0.000431,0.001175
1943000,0.0324,0.013523,0.002678,0.000431,0.001763
1944000,0.0324,0.013523,0.002678,0.000431,0.001880
1945000,0.0324,0.013523,0.002678,0.000431,0.001410
1946000,0.0324,0.013523,0.002678,0.000431,0.001763
1947000,0.0324,0.013523,0.002678,0.000431,0.001645
1948000,0.0324,0.013523,0.002678,0.000431,0.001528
1949000,0.0324,0.013523,0.002678,0.000431,0.001880
1950000,0.0324,0.013523,0.002678,0.000431,0.001410
1951000,0.0324,0.013523,0.002678,0.000431,0.001645
1952000,0.0324,0.013523,0.002678,0.000431,0.001763
1953000,0.0324,0.013523,0.002678,0.000431,0.001880
1954000,0.0324,0.013523,0.002678,0.000431,0.001528
1955000,0.0324,0.013523,0.002678,0.000431,0.001880
1956000,0.0324,0.013523,0.002678,0.000431,0.001645
1957000,0.0324,0.013523,0.002678,0.000431,0.001880
1958000,0.0324,0.013523,0.002678,0.000431,0.001645
1959000,0.0324,0.013523,0.002678,0.000431,0.001880
1960000,0.0324,0.013523,0.002678,0.000431,0.001763
1961000,0.0324,0.013523,0.002678,0.000431,0.001410
1962000,0.0324,0.013523,0.002678,0.000431,0.001763
1963000,0.0324,0.013523,0.002678,0.000431,0.001293
1964000,0.0324,0.013523,0.002678,0.000431,0.001528
1965000,0.0324,0.013523,0.002678,0.000431,0.001645
1966000,0.0324,0.013523,0.002678,0.000431,0.001763
1967000,0.0324,0.013523,0.002678,0.000431,0.001293
1968000,0.0324,0.013523,0.002678,0.000431,0.001763
1969000,0.0324,0.013523,0.002678,0.000431,0.001175
1970000,0.0324,0.013523,0.002678,0.000431,0.001645
1971000,0.0324,0.013523,0.002678,0.000431,0.001293
1972000,0.0324,0.013523,0.002678,0.000431,0.001645
1973000,0.0324,0.013523,0.002678,0.000431,0.001645
1974000,0.0324,0.013523,0.002678,0.000431,0.001645
1975000,0.0324,0.013523,0.002678,0.000431,0.001528
1976000,0.0324,0.013523,0.002678,0.000431,0.001410
1977000,0.0324,0.013523,0.002678,0.000431,0.001763
1978000,0.0324,0.013523,0.002678,0.000431,0.001528
1979000,0.0324,0.013523,0.002678,0.000431,0.001880
1980000,0.0324,0.013523,0.002678,0.000431,0.001175
1981000,0.0324,0.013523,0.002678,0.000431,0.001645
1982000,0.0324,0.013523,0.002678,0.000431,0.001645
1983000,0.0324,0.013523,0.002678,0.000431,0.001058
1984000,0.0324,0.013523,0.002678,0.000431,0.001645
1985000,0.0324,0.013523,0.002678,0.000431,0.001528
1986000,0.0324,0.013523,0.002678,0.000431,0.001645
1987000,0.0324,0.013523,0.002678,0.000431,0.001058
1988000,0.0324,0.013523,0.002678,0.000431,0.001528
1989000,0.0324,0.013523,0.002678,0.000431,0.001645
1990000,0.0324,0.013523,0.002678,0.000431,0.001175
1991000,0.0324,0.013523,0.002678,0.000431,0.001528
1992000,0.0324,0.013523,0.002678,0.000431,0.001645
1993000,0.0324,0.013523,0.002678,0.000431,0.001645
1994000,0.0324,0.013523,0.002678,0.000431,0.001763
1995000,0.0324,0.013523,0.002678,0.000431,0.001880
1996000,0.0324,0.013523,0.002678,0.000431,0.001293
1997000,0.0324,0.013523,0.002678,0.000431,0.001645
1998000,0.0324,0.013523,0.002678,0.000431,0.001763
1999000,0.0324,0.013523,0.002678,0.000431,0.001645
