Cycle,Area(mm^2),PeakDynamic(W),SubthresholdLeakage(W),GateLeakage(W),RunTimeDynamic(W)
16000000,0.0324,0.013523,0.002678,0.000431,0.006699
16001000,0.0324,0.013523,0.002678,0.000431,0.006229
16002000,0.0324,0.013523,0.002678,0.000431,0.005994
16003000,0.0324,0.013523,0.002678,0.000431,0.006699
16004000,0.0324,0.013523,0.002678,0.000431,0.007052
16005000,0.0324,0.013523,0.002678,0.000431,0.006582
16006000,0.0324,0.013523,0.002678,0.000431,0.005876
16007000,0.0324,0.013523,0.002678,0.000431,0.005759
16008000,0.0324,0.013523,0.002678,0.000431,0.006582
16009000,0.0324,0.013523,0.002678,0.000431,0.005641
16010000,0.0324,0.013523,0.002678,0.000431,0.006699
16011000,0.0324,0.013523,0.002678,0.000431,0.006111
16012000,0.0324,0.013523,0.002678,0.000431,0.005994
16013000,0.0324,0.013523,0.002678,0.000431,0.005994
16014000,0.0324,0.013523,0.002678,0.000431,0.006817
16015000,0.0324,0.013523,0.002678,0.000431,0.006817
16016000,0.0324,0.013523,0.002678,0.000431,0.006111
16017000,0.0324,0.013523,0.002678,0.000431,0.006111
16018000,0.0324,0.013523,0.002678,0.000431,0.005876
16019000,0.0324,0.013523,0.002678,0.000431,0.007287
16020000,0.0324,0.013523,0.002678,0.000431,0.006464
16021000,0.0324,0.013523,0.002678,0.000431,0.006229
16022000,0.0324,0.013523,0.002678,0.000431,0.005406
16023000,0.0324,0.013523,0.002678,0.000431,0.006699
16024000,0.0324,0.013523,0.002678,0.000431,0.006699
16025000,0.0324,0.013523,0.002678,0.000431,0.006464
16026000,0.0324,0.013523,0.002678,0.000431,0.006817
16027000,0.0324,0.013523,0.002678,0.000431,0.006347
16028000,0.0324,0.013523,0.002678,0.000431,0.006464
16029000,0.0324,0.013523,0.002678,0.000431,0.006699
16030000,0.0324,0.013523,0.002678,0.000431,0.005759
16031000,0.0324,0.013523,0.002678,0.000431,0.006934
16032000,0.0324,0.013523,0.002678,0.000431,0.006699
16033000,0.0324,0.013523,0.002678,0.000431,0.006464
16034000,0.0324,0.013523,0.002678,0.000431,0.006464
16035000,0.0324,0.013523,0.002678,0.000431,0.005994
16036000,0.0324,0.013523,0.002678,0.000431,0.005876
16037000,0.0324,0.013523,0.002678,0.000431,0.006111
16038000,0.0324,0.013523,0.002678,0.000431,0.006464
16039000,0.0324,0.013523,0.002678,0.000431,0.006934
16040000,0.0324,0.013523,0.002678,0.000431,0.005994
16041000,0.0324,0.013523,0.002678,0.000431,0.005994
16042000,0.0324,0.013523,0.002678,0.000431,0.005876
16043000,0.0324,0.013523,0.002678,0.000431,0.005759
16044000,0.0324,0.013523,0.002678,0.000431,0.005876
16045000,0.0324,0.013523,0.002678,0.000431,0.005759
16046000,0.0324,0.013523,0.002678,0.000431,0.005876
16047000,0.0324,0.013523,0.002678,0.000431,0.006111
16048000,0.0324,0.013523,0.002678,0.000431,0.006934
16049000,0.0324,0.013523,0.002678,0.000431,0.005759
16050000,0.0324,0.013523,0.002678,0.000431,0.006464
16051000,0.0324,0.013523,0.002678,0.000431,0.006817
16052000,0.0324,0.013523,0.002678,0.000431,0.007052
16053000,0.0324,0.013523,0.002678,0.000431,0.005641
16054000,0.0324,0.013523,0.002678,0.000431,0.006582
16055000,0.0324,0.013523,0.002678,0.000431,0.005876
16056000,0.0324,0.013523,0.002678,0.000431,0.006817
16057000,0.0324,0.013523,0.002678,0.000431,0.006582
16058000,0.0324,0.013523,0.002678,0.000431,0.005759
16059000,0.0324,0.013523,0.002678,0.000431,0.005641
16060000,0.0324,0.013523,0.002678,0.000431,0.006699
16061000,0.0324,0.013523,0.002678,0.000431,0.006229
16062000,0.0324,0.013523,0.002678,0.000431,0.006464
16063000,0.0324,0.013523,0.002678,0.000431,0.005994
16064000,0.0324,0.013523,0.002678,0.000431,0.006464
16065000,0.0324,0.013523,0.002678,0.000431,0.006582
16066000,0.0324,0.013523,0.002678,0.000431,0.006347
16067000,0.0324,0.013523,0.002678,0.000431,0.007169
16068000,0.0324,0.013523,0.002678,0.000431,0.006817
16069000,0.0324,0.013523,0.002678,0.000431,0.005876
16070000,0.0324,0.013523,0.002678,0.000431,0.005994
16071000,0.0324,0.013523,0.002678,0.000431,0.006464
16072000,0.0324,0.013523,0.002678,0.000431,0.006229
16073000,0.0324,0.013523,0.002678,0.000431,0.005876
16074000,0.0324,0.013523,0.002678,0.000431,0.006699
16075000,0.0324,0.013523,0.002678,0.000431,0.006464
16076000,0.0324,0.013523,0.002678,0.000431,0.006817
16077000,0.0324,0.013523,0.002678,0.000431,0.005759
16078000,0.0324,0.013523,0.002678,0.000431,0.006934
16079000,0.0324,0.013523,0.002678,0.000431,0.005994
16080000,0.0324,0.013523,0.002678,0.000431,0.005876
16081000,0.0324,0.013523,0.002678,0.000431,0.006111
16082000,0.0324,0.013523,0.002678,0.000431,0.005876
16083000,0.0324,0.013523,0.002678,0.000431,0.006347
16084000,0.0324,0.013523,0.002678,0.000431,0.005994
16085000,0.0324,0.013523,0.002678,0.000431,0.006464
16086000,0.0324,0.013523,0.002678,0.000431,0.006111
16087000,0.0324,0.013523,0.002678,0.000431,0.006582
16088000,0.0324,0.013523,0.002678,0.000431,0.006111
16089000,0.0324,0.013523,0.002678,0.000431,0.007052
16090000,0.0324,0.013523,0.002678,0.000431,0.006347
16091000,0.0324,0.013523,0.002678,0.000431,0.005876
16092000,0.0324,0.013523,0.002678,0.000431,0.006347
16093000,0.0324,0.013523,0.002678,0.000431,0.006817
16094000,0.0324,0.013523,0.002678,0.000431,0.005994
16095000,0.0324,0.013523,0.002678,0.000431,0.005641
16096000,0.0324,0.013523,0.002678,0.000431,0.005524
16097000,0.0324,0.013523,0.002678,0.000431,0.005876
16098000,0.0324,0.013523,0.002678,0.000431,0.006347
16099000,0.0324,0.013523,0.002678,0.000431,0.005524
16100000,0.0324,0.013523,0.002678,0.000431,0.005759
16101000,0.0324,0.013523,0.002678,0.000431,0.005759
16102000,0.0324,0.013523,0.002678,0.000431,0.006582
16103000,0.0324,0.013523,0.002678,0.000431,0.005994
16104000,0.0324,0.013523,0.002678,0.000431,0.006699
16105000,0.0324,0.013523,0.002678,0.000431,0.005876
16106000,0.0324,0.013523,0.002678,0.000431,0.006111
16107000,0.0324,0.013523,0.002678,0.000431,0.006347
16108000,0.0324,0.013523,0.002678,0.000431,0.005994
16109000,0.0324,0.013523,0.002678,0.000431,0.006582
16110000,0.0324,0.013523,0.002678,0.000431,0.005406
16111000,0.0324,0.013523,0.002678,0.000431,0.005876
16112000,0.0324,0.013523,0.002678,0.000431,0.006229
16113000,0.0324,0.013523,0.002678,0.000431,0.006934
16114000,0.0324,0.013523,0.002678,0.000431,0.006229
16115000,0.0324,0.013523,0.002678,0.000431,0.005524
16116000,0.0324,0.013523,0.002678,0.000431,0.006111
16117000,0.0324,0.013523,0.002678,0.000431,0.005524
16118000,0.0324,0.013523,0.002678,0.000431,0.006934
16119000,0.0324,0.013523,0.002678,0.000431,0.006582
16120000,0.0324,0.013523,0.002678,0.000431,0.006817
16121000,0.0324,0.013523,0.002678,0.000431,0.005759
16122000,0.0324,0.013523,0.002678,0.000431,0.006934
16123000,0.0324,0.013523,0.002678,0.000431,0.005994
16124000,0.0324,0.013523,0.002678,0.000431,0.006699
16125000,0.0324,0.013523,0.002678,0.000431,0.006464
16126000,0.0324,0.013523,0.002678,0.000431,0.006229
16127000,0.0324,0.013523,0.002678,0.000431,0.006817
16128000,0.0324,0.013523,0.002678,0.000431,0.005994
16129000,0.0324,0.013523,0.002678,0.000431,0.006111
16130000,0.0324,0.013523,0.002678,0.000431,0.006699
16131000,0.0324,0.013523,0.002678,0.000431,0.005759
16132000,0.0324,0.013523,0.002678,0.000431,0.006582
16133000,0.0324,0.013523,0.002678,0.000431,0.006347
16134000,0.0324,0.013523,0.002678,0.000431,0.006229
16135000,0.0324,0.013523,0.002678,0.000431,0.006229
16136000,0.0324,0.013523,0.002678,0.000431,0.005994
16137000,0.0324,0.013523,0.002678,0.000431,0.006817
16138000,0.0324,0.013523,0.002678,0.000431,0.006934
16139000,0.0324,0.013523,0.002678,0.000431,0.006699
16140000,0.0324,0.013523,0.002678,0.000431,0.005289
16141000,0.0324,0.013523,0.002678,0.000431,0.006582
16142000,0.0324,0.013523,0.002678,0.000431,0.006464
16143000,0.0324,0.013523,0.002678,0.000431,0.006817
16144000,0.0324,0.013523,0.002678,0.000431,0.005994
16145000,0.0324,0.013523,0.002678,0.000431,0.006817
16146000,0.0324,0.013523,0.002678,0.000431,0.006229
16147000,0.0324,0.013523,0.002678,0.000431,0.006934
16148000,0.0324,0.013523,0.002678,0.000431,0.006934
16149000,0.0324,0.013523,0.002678,0.000431,0.005994
16150000,0.0324,0.013523,0.002678,0.000431,0.005759
16151000,0.0324,0.013523,0.002678,0.000431,0.006229
16152000,0.0324,0.013523,0.002678,0.000431,0.007287
16153000,0.0324,0.013523,0.002678,0.000431,0.006699
16154000,0.0324,0.013523,0.002678,0.000431,0.006464
16155000,0.0324,0.013523,0.002678,0.000431,0.006229
16156000,0.0324,0.013523,0.002678,0.000431,0.006111
16157000,0.0324,0.013523,0.002678,0.000431,0.006111
16158000,0.0324,0.013523,0.002678,0.000431,0.006229
16159000,0.0324,0.013523,0.002678,0.000431,0.006347
16160000,0.0324,0.013523,0.002678,0.000431,0.006464
16161000,0.0324,0.013523,0.002678,0.000431,0.006464
16162000,0.0324,0.013523,0.002678,0.000431,0.005876
16163000,0.0324,0.013523,0.002678,0.000431,0.007404
16164000,0.0324,0.013523,0.002678,0.000431,0.006111
16165000,0.0324,0.013523,0.002678,0.000431,0.005641
16166000,0.0324,0.013523,0.002678,0.000431,0.006817
16167000,0.0324,0.013523,0.002678,0.000431,0.006111
16168000,0.0324,0.013523,0.002678,0.000431,0.006111
16169000,0.0324,0.013523,0.002678,0.000431,0.006464
16170000,0.0324,0.013523,0.002678,0.000431,0.005994
16171000,0.0324,0.013523,0.002678,0.000431,0.006111
16172000,0.0324,0.013523,0.002678,0.000431,0.005759
16173000,0.0324,0.013523,0.002678,0.000431,0.006699
16174000,0.0324,0.013523,0.002678,0.000431,0.006111
16175000,0.0324,0.013523,0.002678,0.000431,0.005524
16176000,0.0324,0.013523,0.002678,0.000431,0.006111
16177000,0.0324,0.013523,0.002678,0.000431,0.006582
16178000,0.0324,0.013523,0.002678,0.000431,0.005759
16179000,0.0324,0.013523,0.002678,0.000431,0.006111
16180000,0.0324,0.013523,0.002678,0.000431,0.006464
16181000,0.0324,0.013523,0.002678,0.000431,0.006582
16182000,0.0324,0.013523,0.002678,0.000431,0.006699
16183000,0.0324,0.013523,0.002678,0.000431,0.006347
16184000,0.0324,0.013523,0.002678,0.000431,0.005876
16185000,0.0324,0.013523,0.002678,0.000431,0.006582
16186000,0.0324,0.013523,0.002678,0.000431,0.006464
16187000,0.0324,0.013523,0.002678,0.000431,0.005994
16188000,0.0324,0.013523,0.002678,0.000431,0.006111
16189000,0.0324,0.013523,0.002678,0.000431,0.006347
16190000,0.0324,0.013523,0.002678,0.000431,0.005994
16191000,0.0324,0.013523,0.002678,0.000431,0.005641
16192000,0.0324,0.013523,0.002678,0.000431,0.007169
16193000,0.0324,0.013523,0.002678,0.000431,0.005994
16194000,0.0324,0.013523,0.002678,0.000431,0.006111
16195000,0.0324,0.013523,0.002678,0.000431,0.006464
16196000,0.0324,0.013523,0.002678,0.000431,0.006229
16197000,0.0324,0.013523,0.002678,0.000431,0.006699
16198000,0.0324,0.013523,0.002678,0.000431,0.006111
16199000,0.0324,0.013523,0.002678,0.000431,0.006229
16200000,0.0324,0.013523,0.002678,0.000431,0.005641
16201000,0.0324,0.013523,0.002678,0.000431,0.005641
16202000,0.0324,0.013523,0.002678,0.000431,0.006229
16203000,0.0324,0.013523,0.002678,0.000431,0.005876
16204000,0.0324,0.013523,0.002678,0.000431,0.006464
16205000,0.0324,0.013523,0.002678,0.000431,0.005171
16206000,0.0324,0.013523,0.002678,0.000431,0.007169
16207000,0.0324,0.013523,0.002678,0.000431,0.006464
16208000,0.0324,0.013523,0.002678,0.000431,0.006582
16209000,0.0324,0.013523,0.002678,0.000431,0.006229
16210000,0.0324,0.013523,0.002678,0.000431,0.006347
16211000,0.0324,0.013523,0.002678,0.000431,0.005994
16212000,0.0324,0.013523,0.002678,0.000431,0.006347
16213000,0.0324,0.013523,0.002678,0.000431,0.006582
16214000,0.0324,0.013523,0.002678,0.000431,0.006464
16215000,0.0324,0.013523,0.002678,0.000431,0.006582
16216000,0.0324,0.013523,0.002678,0.000431,0.005994
16217000,0.0324,0.013523,0.002678,0.000431,0.006347
16218000,0.0324,0.013523,0.002678,0.000431,0.006347
16219000,0.0324,0.013523,0.002678,0.000431,0.005994
16220000,0.0324,0.013523,0.002678,0.000431,0.005759
16221000,0.0324,0.013523,0.002678,0.000431,0.006229
16222000,0.0324,0.013523,0.002678,0.000431,0.007169
16223000,0.0324,0.013523,0.002678,0.000431,0.005171
16224000,0.0324,0.013523,0.002678,0.000431,0.006464
16225000,0.0324,0.013523,0.002678,0.000431,0.006347
16226000,0.0324,0.013523,0.002678,0.000431,0.005759
16227000,0.0324,0.013523,0.002678,0.000431,0.006699
16228000,0.0324,0.013523,0.002678,0.000431,0.006464
16229000,0.0324,0.013523,0.002678,0.000431,0.007052
16230000,0.0324,0.013523,0.002678,0.000431,0.006934
16231000,0.0324,0.013523,0.002678,0.000431,0.006347
16232000,0.0324,0.013523,0.002678,0.000431,0.006464
16233000,0.0324,0.013523,0.002678,0.000431,0.006934
16234000,0.0324,0.013523,0.002678,0.000431,0.005876
16235000,0.0324,0.013523,0.002678,0.000431,0.005994
16236000,0.0324,0.013523,0.002678,0.000431,0.006347
16237000,0.0324,0.013523,0.002678,0.000431,0.006464
16238000,0.0324,0.013523,0.002678,0.000431,0.006817
16239000,0.0324,0.013523,0.002678,0.000431,0.005994
16240000,0.0324,0.013523,0.002678,0.000431,0.006111
16241000,0.0324,0.013523,0.002678,0.000431,0.006817
16242000,0.0324,0.013523,0.002678,0.000431,0.006347
16243000,0.0324,0.013523,0.002678,0.000431,0.005641
16244000,0.0324,0.013523,0.002678,0.000431,0.007052
16245000,0.0324,0.013523,0.002678,0.000431,0.006229
16246000,0.0324,0.013523,0.002678,0.000431,0.006111
16247000,0.0324,0.013523,0.002678,0.000431,0.006347
16248000,0.0324,0.013523,0.002678,0.000431,0.006582
16249000,0.0324,0.013523,0.002678,0.000431,0.005876
16250000,0.0324,0.013523,0.002678,0.000431,0.007287
16251000,0.0324,0.013523,0.002678,0.000431,0.006582
16252000,0.0324,0.013523,0.002678,0.000431,0.005876
16253000,0.0324,0.013523,0.002678,0.000431,0.006817
16254000,0.0324,0.013523,0.002678,0.000431,0.006347
16255000,0.0324,0.013523,0.002678,0.000431,0.007052
16256000,0.0324,0.013523,0.002678,0.000431,0.006111
16257000,0.0324,0.013523,0.002678,0.000431,0.006464
16258000,0.0324,0.013523,0.002678,0.000431,0.006699
16259000,0.0324,0.013523,0.002678,0.000431,0.007169
16260000,0.0324,0.013523,0.002678,0.000431,0.006111
16261000,0.0324,0.013523,0.002678,0.000431,0.006817
16262000,0.0324,0.013523,0.002678,0.000431,0.006111
16263000,0.0324,0.013523,0.002678,0.000431,0.006817
16264000,0.0324,0.013523,0.002678,0.000431,0.005994
16265000,0.0324,0.013523,0.002678,0.000431,0.006111
16266000,0.0324,0.013523,0.002678,0.000431,0.006699
16267000,0.0324,0.013523,0.002678,0.000431,0.007052
16268000,0.0324,0.013523,0.002678,0.000431,0.005876
16269000,0.0324,0.013523,0.002678,0.000431,0.005876
16270000,0.0324,0.013523,0.002678,0.000431,0.006464
16271000,0.0324,0.013523,0.002678,0.000431,0.006464
16272000,0.0324,0.013523,0.002678,0.000431,0.006229
16273000,0.0324,0.013523,0.002678,0.000431,0.006464
16274000,0.0324,0.013523,0.002678,0.000431,0.006229
16275000,0.0324,0.013523,0.002678,0.000431,0.006111
16276000,0.0324,0.013523,0.002678,0.000431,0.007052
16277000,0.0324,0.013523,0.002678,0.000431,0.006229
16278000,0.0324,0.013523,0.002678,0.000431,0.005994
16279000,0.0324,0.013523,0.002678,0.000431,0.006699
16280000,0.0324,0.013523,0.002678,0.000431,0.006464
16281000,0.0324,0.013523,0.002678,0.000431,0.005641
16282000,0.0324,0.013523,0.002678,0.000431,0.006347
16283000,0.0324,0.013523,0.002678,0.000431,0.006111
16284000,0.0324,0.013523,0.002678,0.000431,0.006582
16285000,0.0324,0.013523,0.002678,0.000431,0.007169
16286000,0.0324,0.013523,0.002678,0.000431,0.006347
16287000,0.0324,0.013523,0.002678,0.000431,0.006111
16288000,0.0324,0.013523,0.002678,0.000431,0.006111
16289000,0.0324,0.013523,0.002678,0.000431,0.006582
16290000,0.0324,0.013523,0.002678,0.000431,0.006229
16291000,0.0324,0.013523,0.002678,0.000431,0.006347
16292000,0.0324,0.013523,0.002678,0.000431,0.005641
16293000,0.0324,0.013523,0.002678,0.000431,0.006347
16294000,0.0324,0.013523,0.002678,0.000431,0.005759
16295000,0.0324,0.013523,0.002678,0.000431,0.005406
16296000,0.0324,0.013523,0.002678,0.000431,0.007169
16297000,0.0324,0.013523,0.002678,0.000431,0.006934
16298000,0.0324,0.013523,0.002678,0.000431,0.006464
16299000,0.0324,0.013523,0.002678,0.000431,0.005759
16300000,0.0324,0.013523,0.002678,0.000431,0.006817
16301000,0.0324,0.013523,0.002678,0.000431,0.007169
16302000,0.0324,0.013523,0.002678,0.000431,0.005994
16303000,0.0324,0.013523,0.002678,0.000431,0.006582
16304000,0.0324,0.013523,0.002678,0.000431,0.005524
16305000,0.0324,0.013523,0.002678,0.000431,0.006582
16306000,0.0324,0.013523,0.002678,0.000431,0.006229
16307000,0.0324,0.013523,0.002678,0.000431,0.006934
16308000,0.0324,0.013523,0.002678,0.000431,0.006347
16309000,0.0324,0.013523,0.002678,0.000431,0.006111
16310000,0.0324,0.013523,0.002678,0.000431,0.007522
16311000,0.0324,0.013523,0.002678,0.000431,0.006111
16312000,0.0324,0.013523,0.002678,0.000431,0.006347
16313000,0.0324,0.013523,0.002678,0.000431,0.006934
16314000,0.0324,0.013523,0.002678,0.000431,0.006464
16315000,0.0324,0.013523,0.002678,0.000431,0.006111
16316000,0.0324,0.013523,0.002678,0.000431,0.005759
16317000,0.0324,0.013523,0.002678,0.000431,0.006111
16318000,0.0324,0.013523,0.002678,0.000431,0.006699
16319000,0.0324,0.013523,0.002678,0.000431,0.006229
16320000,0.0324,0.013523,0.002678,0.000431,0.006582
16321000,0.0324,0.013523,0.002678,0.000431,0.005876
16322000,0.0324,0.013523,0.002678,0.000431,0.006464
16323000,0.0324,0.013523,0.002678,0.000431,0.006229
16324000,0.0324,0.013523,0.002678,0.000431,0.007052
16325000,0.0324,0.013523,0.002678,0.000431,0.006699
16326000,0.0324,0.013523,0.002678,0.000431,0.006111
16327000,0.0324,0.013523,0.002678,0.000431,0.005524
16328000,0.0324,0.013523,0.002678,0.000431,0.005641
16329000,0.0324,0.013523,0.002678,0.000431,0.005759
16330000,0.0324,0.013523,0.002678,0.000431,0.006229
16331000,0.0324,0.013523,0.002678,0.000431,0.006111
16332000,0.0324,0.013523,0.002678,0.000431,0.006229
16333000,0.0324,0.013523,0.002678,0.000431,0.006347
16334000,0.0324,0.013523,0.002678,0.000431,0.006111
16335000,0.0324,0.013523,0.002678,0.000431,0.006347
16336000,0.0324,0.013523,0.002678,0.000431,0.006464
16337000,0.0324,0.013523,0.002678,0.000431,0.006817
16338000,0.0324,0.013523,0.002678,0.000431,0.006464
16339000,0.0324,0.013523,0.002678,0.000431,0.006229
16340000,0.0324,0.013523,0.002678,0.000431,0.006582
16341000,0.0324,0.013523,0.002678,0.000431,0.005994
16342000,0.0324,0.013523,0.002678,0.000431,0.005759
16343000,0.0324,0.013523,0.002678,0.000431,0.006229
16344000,0.0324,0.013523,0.002678,0.000431,0.006229
16345000,0.0324,0.013523,0.002678,0.000431,0.006347
16346000,0.0324,0.013523,0.002678,0.000431,0.005994
16347000,0.0324,0.013523,0.002678,0.000431,0.006817
16348000,0.0324,0.013523,0.002678,0.000431,0.006347
16349000,0.0324,0.013523,0.002678,0.000431,0.005994
16350000,0.0324,0.013523,0.002678,0.000431,0.006229
16351000,0.0324,0.013523,0.002678,0.000431,0.006347
16352000,0.0324,0.013523,0.002678,0.000431,0.006699
16353000,0.0324,0.013523,0.002678,0.000431,0.005759
16354000,0.0324,0.013523,0.002678,0.000431,0.005994
16355000,0.0324,0.013523,0.002678,0.000431,0.007052
16356000,0.0324,0.013523,0.002678,0.000431,0.006347
16357000,0.0324,0.013523,0.002678,0.000431,0.006582
16358000,0.0324,0.013523,0.002678,0.000431,0.006347
16359000,0.0324,0.013523,0.002678,0.000431,0.006229
16360000,0.0324,0.013523,0.002678,0.000431,0.007052
16361000,0.0324,0.013523,0.002678,0.000431,0.005524
16362000,0.0324,0.013523,0.002678,0.000431,0.005876
16363000,0.0324,0.013523,0.002678,0.000431,0.006347
16364000,0.0324,0.013523,0.002678,0.000431,0.006347
16365000,0.0324,0.013523,0.002678,0.000431,0.006582
16366000,0.0324,0.013523,0.002678,0.000431,0.006229
16367000,0.0324,0.013523,0.002678,0.000431,0.006699
16368000,0.0324,0.013523,0.002678,0.000431,0.006817
16369000,0.0324,0.013523,0.002678,0.000431,0.006347
16370000,0.0324,0.013523,0.002678,0.000431,0.005876
16371000,0.0324,0.013523,0.002678,0.000431,0.006464
16372000,0.0324,0.013523,0.002678,0.000431,0.005994
16373000,0.0324,0.013523,0.002678,0.000431,0.006817
16374000,0.0324,0.013523,0.002678,0.000431,0.006582
16375000,0.0324,0.013523,0.002678,0.000431,0.006817
16376000,0.0324,0.013523,0.002678,0.000431,0.006582
16377000,0.0324,0.013523,0.002678,0.000431,0.006111
16378000,0.0324,0.013523,0.002678,0.000431,0.007874
16379000,0.0324,0.013523,0.002678,0.000431,0.006111
16380000,0.0324,0.013523,0.002678,0.000431,0.005994
16381000,0.0324,0.013523,0.002678,0.000431,0.005759
16382000,0.0324,0.013523,0.002678,0.000431,0.006229
16383000,0.0324,0.013523,0.002678,0.000431,0.006111
16384000,0.0324,0.013523,0.002678,0.000431,0.005524
16385000,0.0324,0.013523,0.002678,0.000431,0.006699
16386000,0.0324,0.013523,0.002678,0.000431,0.006582
16387000,0.0324,0.013523,0.002678,0.000431,0.005641
16388000,0.0324,0.013523,0.002678,0.000431,0.005994
16389000,0.0324,0.013523,0.002678,0.000431,0.006934
16390000,0.0324,0.013523,0.002678,0.000431,0.006464
16391000,0.0324,0.013523,0.002678,0.000431,0.006464
16392000,0.0324,0.013523,0.002678,0.000431,0.006817
16393000,0.0324,0.013523,0.002678,0.000431,0.006464
16394000,0.0324,0.013523,0.002678,0.000431,0.006934
16395000,0.0324,0.013523,0.002678,0.000431,0.006111
16396000,0.0324,0.013523,0.002678,0.000431,0.005994
16397000,0.0324,0.013523,0.002678,0.000431,0.006229
16398000,0.0324,0.013523,0.002678,0.000431,0.006934
16399000,0.0324,0.013523,0.002678,0.000431,0.005524
16400000,0.0324,0.013523,0.002678,0.000431,0.006699
16401000,0.0324,0.013523,0.002678,0.000431,0.005759
16402000,0.0324,0.013523,0.002678,0.000431,0.005641
16403000,0.0324,0.013523,0.002678,0.000431,0.005524
16404000,0.0324,0.013523,0.002678,0.000431,0.007169
16405000,0.0324,0.013523,0.002678,0.000431,0.006347
16406000,0.0324,0.013523,0.002678,0.000431,0.005641
16407000,0.0324,0.013523,0.002678,0.000431,0.005759
16408000,0.0324,0.013523,0.002678,0.000431,0.006699
16409000,0.0324,0.013523,0.002678,0.000431,0.006464
16410000,0.0324,0.013523,0.002678,0.000431,0.005759
16411000,0.0324,0.013523,0.002678,0.000431,0.006699
16412000,0.0324,0.013523,0.002678,0.000431,0.006229
16413000,0.0324,0.013523,0.002678,0.000431,0.006699
16414000,0.0324,0.013523,0.002678,0.000431,0.006347
16415000,0.0324,0.013523,0.002678,0.000431,0.006347
16416000,0.0324,0.013523,0.002678,0.000431,0.006111
16417000,0.0324,0.013523,0.002678,0.000431,0.005994
16418000,0.0324,0.013523,0.002678,0.000431,0.006582
16419000,0.0324,0.013523,0.002678,0.000431,0.005759
16420000,0.0324,0.013523,0.002678,0.000431,0.006699
16421000,0.0324,0.013523,0.002678,0.000431,0.006934
16422000,0.0324,0.013523,0.002678,0.000431,0.006347
16423000,0.0324,0.013523,0.002678,0.000431,0.005289
16424000,0.0324,0.013523,0.002678,0.000431,0.005876
16425000,0.0324,0.013523,0.002678,0.000431,0.005994
16426000,0.0324,0.013523,0.002678,0.000431,0.006934
16427000,0.0324,0.013523,0.002678,0.000431,0.005641
16428000,0.0324,0.013523,0.002678,0.000431,0.006229
16429000,0.0324,0.013523,0.002678,0.000431,0.005406
16430000,0.0324,0.013523,0.002678,0.000431,0.006111
16431000,0.0324,0.013523,0.002678,0.000431,0.006111
16432000,0.0324,0.013523,0.002678,0.000431,0.006111
16433000,0.0324,0.013523,0.002678,0.000431,0.005524
16434000,0.0324,0.013523,0.002678,0.000431,0.006582
16435000,0.0324,0.013523,0.002678,0.000431,0.006464
16436000,0.0324,0.013523,0.002678,0.000431,0.005994
16437000,0.0324,0.013523,0.002678,0.000431,0.006347
16438000,0.0324,0.013523,0.002678,0.000431,0.007052
16439000,0.0324,0.013523,0.002678,0.000431,0.006347
16440000,0.0324,0.013523,0.002678,0.000431,0.005759
16441000,0.0324,0.013523,0.002678,0.000431,0.006582
16442000,0.0324,0.013523,0.002678,0.000431,0.005994
16443000,0.0324,0.013523,0.002678,0.000431,0.005876
16444000,0.0324,0.013523,0.002678,0.000431,0.006111
16445000,0.0324,0.013523,0.002678,0.000431,0.006817
16446000,0.0324,0.013523,0.002678,0.000431,0.005524
16447000,0.0324,0.013523,0.002678,0.000431,0.006699
16448000,0.0324,0.013523,0.002678,0.000431,0.005994
16449000,0.0324,0.013523,0.002678,0.000431,0.006582
16450000,0.0324,0.013523,0.002678,0.000431,0.005641
16451000,0.0324,0.013523,0.002678,0.000431,0.005641
16452000,0.0324,0.013523,0.002678,0.000431,0.006464
16453000,0.0324,0.013523,0.002678,0.000431,0.005524
16454000,0.0324,0.013523,0.002678,0.000431,0.006347
16455000,0.0324,0.013523,0.002678,0.000431,0.005876
16456000,0.0324,0.013523,0.002678,0.000431,0.005994
16457000,0.0324,0.013523,0.002678,0.000431,0.006582
16458000,0.0324,0.013523,0.002678,0.000431,0.006582
16459000,0.0324,0.013523,0.002678,0.000431,0.006111
16460000,0.0324,0.013523,0.002678,0.000431,0.005994
16461000,0.0324,0.013523,0.002678,0.000431,0.006464
16462000,0.0324,0.013523,0.002678,0.000431,0.005994
16463000,0.0324,0.013523,0.002678,0.000431,0.005759
16464000,0.0324,0.013523,0.002678,0.000431,0.006699
16465000,0.0324,0.013523,0.002678,0.000431,0.006229
16466000,0.0324,0.013523,0.002678,0.000431,0.006229
16467000,0.0324,0.013523,0.002678,0.000431,0.006582
16468000,0.0324,0.013523,0.002678,0.000431,0.006347
16469000,0.0324,0.013523,0.002678,0.000431,0.005994
16470000,0.0324,0.013523,0.002678,0.000431,0.006229
16471000,0.0324,0.013523,0.002678,0.000431,0.005641
16472000,0.0324,0.013523,0.002678,0.000431,0.005289
16473000,0.0324,0.013523,0.002678,0.000431,0.006347
16474000,0.0324,0.013523,0.002678,0.000431,0.005876
16475000,0.0324,0.013523,0.002678,0.000431,0.006699
16476000,0.0324,0.013523,0.002678,0.000431,0.005641
16477000,0.0324,0.013523,0.002678,0.000431,0.005876
16478000,0.0324,0.013523,0.002678,0.000431,0.006817
16479000,0.0324,0.013523,0.002678,0.000431,0.005876
16480000,0.0324,0.013523,0.002678,0.000431,0.005876
16481000,0.0324,0.013523,0.002678,0.000431,0.006464
16482000,0.0324,0.013523,0.002678,0.000431,0.005054
16483000,0.0324,0.013523,0.002678,0.000431,0.006582
16484000,0.0324,0.013523,0.002678,0.000431,0.006582
16485000,0.0324,0.013523,0.002678,0.000431,0.006347
16486000,0.0324,0.013523,0.002678,0.000431,0.006817
16487000,0.0324,0.013523,0.002678,0.000431,0.005759
16488000,0.0324,0.013523,0.002678,0.000431,0.005759
16489000,0.0324,0.013523,0.002678,0.000431,0.007052
16490000,0.0324,0.013523,0.002678,0.000431,0.006111
16491000,0.0324,0.013523,0.002678,0.000431,0.005759
16492000,0.0324,0.013523,0.002678,0.000431,0.005876
16493000,0.0324,0.013523,0.002678,0.000431,0.006582
16494000,0.0324,0.013523,0.002678,0.000431,0.006934
16495000,0.0324,0.013523,0.002678,0.000431,0.005994
16496000,0.0324,0.013523,0.002678,0.000431,0.006464
16497000,0.0324,0.013523,0.002678,0.000431,0.006229
16498000,0.0324,0.013523,0.002678,0.000431,0.006699
16499000,0.0324,0.013523,0.002678,0.000431,0.006111
16500000,0.0324,0.013523,0.002678,0.000431,0.006582
16501000,0.0324,0.013523,0.002678,0.000431,0.005876
16502000,0.0324,0.013523,0.002678,0.000431,0.005759
16503000,0.0324,0.013523,0.002678,0.000431,0.005759
16504000,0.0324,0.013523,0.002678,0.000431,0.006347
16505000,0.0324,0.013523,0.002678,0.000431,0.005994
16506000,0.0324,0.013523,0.002678,0.000431,0.005994
16507000,0.0324,0.013523,0.002678,0.000431,0.006464
16508000,0.0324,0.013523,0.002678,0.000431,0.006464
16509000,0.0324,0.013523,0.002678,0.000431,0.005289
16510000,0.0324,0.013523,0.002678,0.000431,0.006111
16511000,0.0324,0.013523,0.002678,0.000431,0.006934
16512000,0.0324,0.013523,0.002678,0.000431,0.005641
16513000,0.0324,0.013523,0.002678,0.000431,0.005759
16514000,0.0324,0.013523,0.002678,0.000431,0.005759
16515000,0.0324,0.013523,0.002678,0.000431,0.005994
16516000,0.0324,0.013523,0.002678,0.000431,0.006582
16517000,0.0324,0.013523,0.002678,0.000431,0.005876
16518000,0.0324,0.013523,0.002678,0.000431,0.005994
16519000,0.0324,0.013523,0.002678,0.000431,0.006699
16520000,0.0324,0.013523,0.002678,0.000431,0.006111
16521000,0.0324,0.013523,0.002678,0.000431,0.006347
16522000,0.0324,0.013523,0.002678,0.000431,0.005759
16523000,0.0324,0.013523,0.002678,0.000431,0.006229
16524000,0.0324,0.013523,0.002678,0.000431,0.005406
16525000,0.0324,0.013523,0.002678,0.000431,0.005876
16526000,0.0324,0.013523,0.002678,0.000431,0.006229
16527000,0.0324,0.013523,0.002678,0.000431,0.005994
16528000,0.0324,0.013523,0.002678,0.000431,0.006817
16529000,0.0324,0.013523,0.002678,0.000431,0.005994
16530000,0.0324,0.013523,0.002678,0.000431,0.006582
16531000,0.0324,0.013523,0.002678,0.000431,0.005171
16532000,0.0324,0.013523,0.002678,0.000431,0.005171
16533000,0.0324,0.013523,0.002678,0.000431,0.005759
16534000,0.0324,0.013523,0.002678,0.000431,0.006111
16535000,0.0324,0.013523,0.002678,0.000431,0.006347
16536000,0.0324,0.013523,0.002678,0.000431,0.006582
16537000,0.0324,0.013523,0.002678,0.000431,0.006111
16538000,0.0324,0.013523,0.002678,0.000431,0.006699
16539000,0.0324,0.013523,0.002678,0.000431,0.005994
16540000,0.0324,0.013523,0.002678,0.000431,0.005171
16541000,0.0324,0.013523,0.002678,0.000431,0.006582
16542000,0.0324,0.013523,0.002678,0.000431,0.005641
16543000,0.0324,0.013523,0.002678,0.000431,0.006464
16544000,0.0324,0.013523,0.002678,0.000431,0.005994
16545000,0.0324,0.013523,0.002678,0.000431,0.007052
16546000,0.0324,0.013523,0.002678,0.000431,0.005406
16547000,0.0324,0.013523,0.002678,0.000431,0.006229
16548000,0.0324,0.013523,0.002678,0.000431,0.006229
16549000,0.0324,0.013523,0.002678,0.000431,0.006111
16550000,0.0324,0.013523,0.002678,0.000431,0.005524
16551000,0.0324,0.013523,0.002678,0.000431,0.006464
16552000,0.0324,0.013523,0.002678,0.000431,0.007169
16553000,0.0324,0.013523,0.002678,0.000431,0.006582
16554000,0.0324,0.013523,0.002678,0.000431,0.006582
16555000,0.0324,0.013523,0.002678,0.000431,0.006582
16556000,0.0324,0.013523,0.002678,0.000431,0.006934
16557000,0.0324,0.013523,0.002678,0.000431,0.005994
16558000,0.0324,0.013523,0.002678,0.000431,0.006347
16559000,0.0324,0.013523,0.002678,0.000431,0.005994
16560000,0.0324,0.013523,0.002678,0.000431,0.007169
16561000,0.0324,0.013523,0.002678,0.000431,0.005876
16562000,0.0324,0.013523,0.002678,0.000431,0.006347
16563000,0.0324,0.013523,0.002678,0.000431,0.006582
16564000,0.0324,0.013523,0.002678,0.000431,0.006347
16565000,0.0324,0.013523,0.002678,0.000431,0.006464
16566000,0.0324,0.013523,0.002678,0.000431,0.006464
16567000,0.0324,0.013523,0.002678,0.000431,0.006229
16568000,0.0324,0.013523,0.002678,0.000431,0.006347
16569000,0.0324,0.013523,0.002678,0.000431,0.006111
16570000,0.0324,0.013523,0.002678,0.000431,0.005759
16571000,0.0324,0.013523,0.002678,0.000431,0.006699
16572000,0.0324,0.013523,0.002678,0.000431,0.005994
16573000,0.0324,0.013523,0.002678,0.000431,0.006347
16574000,0.0324,0.013523,0.002678,0.000431,0.006699
16575000,0.0324,0.013523,0.002678,0.000431,0.005641
16576000,0.0324,0.013523,0.002678,0.000431,0.007287
16577000,0.0324,0.013523,0.002678,0.000431,0.005994
16578000,0.0324,0.013523,0.002678,0.000431,0.006347
16579000,0.0324,0.013523,0.002678,0.000431,0.005289
16580000,0.0324,0.013523,0.002678,0.000431,0.006229
16581000,0.0324,0.013523,0.002678,0.000431,0.006111
16582000,0.0324,0.013523,0.002678,0.000431,0.005641
16583000,0.0324,0.013523,0.002678,0.000431,0.004936
16584000,0.0324,0.013523,0.002678,0.000431,0.005524
16585000,0.0324,0.013523,0.002678,0.000431,0.005406
16586000,0.0324,0.013523,0.002678,0.000431,0.005524
16587000,0.0324,0.013523,0.002678,0.000431,0.005289
16588000,0.0324,0.013523,0.002678,0.000431,0.004936
16589000,0.0324,0.013523,0.002678,0.000431,0.005289
16590000,0.0324,0.013523,0.002678,0.000431,0.005054
16591000,0.0324,0.013523,0.002678,0.000431,0.005524
16592000,0.0324,0.013523,0.002678,0.000431,0.005876
16593000,0.0324,0.013523,0.002678,0.000431,0.006347
16594000,0.0324,0.013523,0.002678,0.000431,0.005054
16595000,0.0324,0.013523,0.002678,0.000431,0.005759
16596000,0.0324,0.013523,0.002678,0.000431,0.005524
16597000,0.0324,0.013523,0.002678,0.000431,0.005171
16598000,0.0324,0.013523,0.002678,0.000431,0.005641
16599000,0.0324,0.013523,0.002678,0.000431,0.005406
16600000,0.0324,0.013523,0.002678,0.000431,0.005994
16601000,0.0324,0.013523,0.002678,0.000431,0.006229
16602000,0.0324,0.013523,0.002678,0.000431,0.004936
16603000,0.0324,0.013523,0.002678,0.000431,0.005054
16604000,0.0324,0.013523,0.002678,0.000431,0.006347
16605000,0.0324,0.013523,0.002678,0.000431,0.005171
16606000,0.0324,0.013523,0.002678,0.000431,0.006229
16607000,0.0324,0.013523,0.002678,0.000431,0.004936
16608000,0.0324,0.013523,0.002678,0.000431,0.005289
16609000,0.0324,0.013523,0.002678,0.000431,0.004701
16610000,0.0324,0.013523,0.002678,0.000431,0.005289
16611000,0.0324,0.013523,0.002678,0.000431,0.005524
16612000,0.0324,0.013523,0.002678,0.000431,0.004349
16613000,0.0324,0.013523,0.002678,0.000431,0.005876
16614000,0.0324,0.013523,0.002678,0.000431,0.005994
16615000,0.0324,0.013523,0.002678,0.000431,0.005524
16616000,0.0324,0.013523,0.002678,0.000431,0.006111
16617000,0.0324,0.013523,0.002678,0.000431,0.005406
16618000,0.0324,0.013523,0.002678,0.000431,0.005524
16619000,0.0324,0.013523,0.002678,0.000431,0.005759
16620000,0.0324,0.013523,0.002678,0.000431,0.005641
16621000,0.0324,0.013523,0.002678,0.000431,0.005171
16622000,0.0324,0.013523,0.002678,0.000431,0.005641
16623000,0.0324,0.013523,0.002678,0.000431,0.004584
16624000,0.0324,0.013523,0.002678,0.000431,0.005759
16625000,0.0324,0.013523,0.002678,0.000431,0.005641
16626000,0.0324,0.013523,0.002678,0.000431,0.005876
16627000,0.0324,0.013523,0.002678,0.000431,0.004819
16628000,0.0324,0.013523,0.002678,0.000431,0.005171
16629000,0.0324,0.013523,0.002678,0.000431,0.005876
16630000,0.0324,0.013523,0.002678,0.000431,0.005406
16631000,0.0324,0.013523,0.002678,0.000431,0.005171
16632000,0.0324,0.013523,0.002678,0.000431,0.005289
16633000,0.0324,0.013523,0.002678,0.000431,0.005641
16634000,0.0324,0.013523,0.002678,0.000431,0.005994
16635000,0.0324,0.013523,0.002678,0.000431,0.005994
16636000,0.0324,0.013523,0.002678,0.000431,0.005524
16637000,0.0324,0.013523,0.002678,0.000431,0.006111
16638000,0.0324,0.013523,0.002678,0.000431,0.004701
16639000,0.0324,0.013523,0.002678,0.000431,0.005289
16640000,0.0324,0.013523,0.002678,0.000431,0.006111
16641000,0.0324,0.013523,0.002678,0.000431,0.005524
16642000,0.0324,0.013523,0.002678,0.000431,0.005406
16643000,0.0324,0.013523,0.002678,0.000431,0.005524
16644000,0.0324,0.013523,0.002678,0.000431,0.005524
16645000,0.0324,0.013523,0.002678,0.000431,0.005759
16646000,0.0324,0.013523,0.002678,0.000431,0.005759
16647000,0.0324,0.013523,0.002678,0.000431,0.005171
16648000,0.0324,0.013523,0.002678,0.000431,0.005524
16649000,0.0324,0.013523,0.002678,0.000431,0.004936
16650000,0.0324,0.013523,0.002678,0.000431,0.005289
16651000,0.0324,0.013523,0.002678,0.000431,0.005524
16652000,0.0324,0.013523,0.002678,0.000431,0.004819
16653000,0.0324,0.013523,0.002678,0.000431,0.005759
16654000,0.0324,0.013523,0.002678,0.000431,0.005171
16655000,0.0324,0.013523,0.002678,0.000431,0.005876
16656000,0.0324,0.013523,0.002678,0.000431,0.005876
16657000,0.0324,0.013523,0.002678,0.000431,0.005171
16658000,0.0324,0.013523,0.002678,0.000431,0.005876
16659000,0.0324,0.013523,0.002678,0.000431,0.005171
16660000,0.0324,0.013523,0.002678,0.000431,0.005876
16661000,0.0324,0.013523,0.002678,0.000431,0.005171
16662000,0.0324,0.013523,0.002678,0.000431,0.005524
16663000,0.0324,0.013523,0.002678,0.000431,0.005876
16664000,0.0324,0.013523,0.002678,0.000431,0.004584
16665000,0.0324,0.013523,0.002678,0.000431,0.005641
16666000,0.0324,0.013523,0.002678,0.000431,0.005759
16667000,0.0324,0.013523,0.002678,0.000431,0.005641
16668000,0.0324,0.013523,0.002678,0.000431,0.005054
16669000,0.0324,0.013523,0.002678,0.000431,0.004936
16670000,0.0324,0.013523,0.002678,0.000431,0.005171
16671000,0.0324,0.013523,0.002678,0.000431,0.005641
16672000,0.0324,0.013523,0.002678,0.000431,0.005524
16673000,0.0324,0.013523,0.002678,0.000431,0.005641
16674000,0.0324,0.013523,0.002678,0.000431,0.005524
16675000,0.0324,0.013523,0.002678,0.000431,0.005406
16676000,0.0324,0.013523,0.002678,0.000431,0.004701
16677000,0.0324,0.013523,0.002678,0.000431,0.005876
16678000,0.0324,0.013523,0.002678,0.000431,0.005994
16679000,0.0324,0.013523,0.002678,0.000431,0.005641
16680000,0.0324,0.013523,0.002678,0.000431,0.004936
16681000,0.0324,0.013523,0.002678,0.000431,0.005406
16682000,0.0324,0.013523,0.002678,0.000431,0.005289
16683000,0.0324,0.013523,0.002678,0.000431,0.005994
16684000,0.0324,0.013523,0.002678,0.000431,0.005641
16685000,0.0324,0.013523,0.002678,0.000431,0.005054
16686000,0.0324,0.013523,0.002678,0.000431,0.005406
16687000,0.0324,0.013523,0.002678,0.000431,0.005054
16688000,0.0324,0.013523,0.002678,0.000431,0.005641
16689000,0.0324,0.013523,0.002678,0.000431,0.004466
16690000,0.0324,0.013523,0.002678,0.000431,0.005171
16691000,0.0324,0.013523,0.002678,0.000431,0.004936
16692000,0.0324,0.013523,0.002678,0.000431,0.005054
16693000,0.0324,0.013523,0.002678,0.000431,0.005171
16694000,0.0324,0.013523,0.002678,0.000431,0.005054
16695000,0.0324,0.013523,0.002678,0.000431,0.005406
16696000,0.0324,0.013523,0.002678,0.000431,0.005171
16697000,0.0324,0.013523,0.002678,0.000431,0.005759
16698000,0.0324,0.013523,0.002678,0.000431,0.005054
16699000,0.0324,0.013523,0.002678,0.000431,0.005171
16700000,0.0324,0.013523,0.002678,0.000431,0.004819
16701000,0.0324,0.013523,0.002678,0.000431,0.004584
16702000,0.0324,0.013523,0.002678,0.000431,0.005054
16703000,0.0324,0.013523,0.002678,0.000431,0.004819
16704000,0.0324,0.013523,0.002678,0.000431,0.005171
16705000,0.0324,0.013523,0.002678,0.000431,0.005406
16706000,0.0324,0.013523,0.002678,0.000431,0.004701
16707000,0.0324,0.013523,0.002678,0.000431,0.005171
16708000,0.0324,0.013523,0.002678,0.000431,0.004819
16709000,0.0324,0.013523,0.002678,0.000431,0.003761
16710000,0.0324,0.013523,0.002678,0.000431,0.005289
16711000,0.0324,0.013523,0.002678,0.000431,0.004936
16712000,0.0324,0.013523,0.002678,0.000431,0.005171
16713000,0.0324,0.013523,0.002678,0.000431,0.005289
16714000,0.0324,0.013523,0.002678,0.000431,0.003996
16715000,0.0324,0.013523,0.002678,0.000431,0.004466
16716000,0.0324,0.013523,0.002678,0.000431,0.005289
16717000,0.0324,0.013523,0.002678,0.000431,0.005054
16718000,0.0324,0.013523,0.002678,0.000431,0.005876
16719000,0.0324,0.013523,0.002678,0.000431,0.005054
16720000,0.0324,0.013523,0.002678,0.000431,0.005171
16721000,0.0324,0.013523,0.002678,0.000431,0.004701
16722000,0.0324,0.013523,0.002678,0.000431,0.004819
16723000,0.0324,0.013523,0.002678,0.000431,0.005876
16724000,0.0324,0.013523,0.002678,0.000431,0.004936
16725000,0.0324,0.013523,0.002678,0.000431,0.005524
16726000,0.0324,0.013523,0.002678,0.000431,0.004466
16727000,0.0324,0.013523,0.002678,0.000431,0.004584
16728000,0.0324,0.013523,0.002678,0.000431,0.005054
16729000,0.0324,0.013523,0.002678,0.000431,0.004584
16730000,0.0324,0.013523,0.002678,0.000431,0.005171
16731000,0.0324,0.013523,0.002678,0.000431,0.005054
16732000,0.0324,0.013523,0.002678,0.000431,0.004701
16733000,0.0324,0.013523,0.002678,0.000431,0.004584
16734000,0.0324,0.013523,0.002678,0.000431,0.004349
16735000,0.0324,0.013523,0.002678,0.000431,0.005759
16736000,0.0324,0.013523,0.002678,0.000431,0.004936
16737000,0.0324,0.013523,0.002678,0.000431,0.005406
16738000,0.0324,0.013523,0.002678,0.000431,0.004584
16739000,0.0324,0.013523,0.002678,0.000431,0.005054
16740000,0.0324,0.013523,0.002678,0.000431,0.004936
16741000,0.0324,0.013523,0.002678,0.000431,0.004936
16742000,0.0324,0.013523,0.002678,0.000431,0.005054
16743000,0.0324,0.013523,0.002678,0.000431,0.005406
16744000,0.0324,0.013523,0.002678,0.000431,0.004936
16745000,0.0324,0.013523,0.002678,0.000431,0.005171
16746000,0.0324,0.013523,0.002678,0.000431,0.004466
16747000,0.0324,0.013523,0.002678,0.000431,0.005171
16748000,0.0324,0.013523,0.002678,0.000431,0.005171
16749000,0.0324,0.013523,0.002678,0.000431,0.004701
16750000,0.0324,0.013523,0.002678,0.000431,0.005289
16751000,0.0324,0.013523,0.002678,0.000431,0.004466
16752000,0.0324,0.013523,0.002678,0.000431,0.004584
16753000,0.0324,0.013523,0.002678,0.000431,0.005054
16754000,0.0324,0.013523,0.002678,0.000431,0.005054
16755000,0.0324,0.013523,0.002678,0.000431,0.004701
16756000,0.0324,0.013523,0.002678,0.000431,0.004819
16757000,0.0324,0.013523,0.002678,0.000431,0.005759
16758000,0.0324,0.013523,0.002678,0.000431,0.005054
16759000,0.0324,0.013523,0.002678,0.000431,0.004466
16760000,0.0324,0.013523,0.002678,0.000431,0.004936
16761000,0.0324,0.013523,0.002678,0.000431,0.004819
16762000,0.0324,0.013523,0.002678,0.000431,0.004936
16763000,0.0324,0.013523,0.002678,0.000431,0.004819
16764000,0.0324,0.013523,0.002678,0.000431,0.005289
16765000,0.0324,0.013523,0.002678,0.000431,0.004936
16766000,0.0324,0.013523,0.002678,0.000431,0.004936
16767000,0.0324,0.013523,0.002678,0.000431,0.005406
16768000,0.0324,0.013523,0.002678,0.000431,0.003878
16769000,0.0324,0.013523,0.002678,0.000431,0.005054
16770000,0.0324,0.013523,0.002678,0.000431,0.005759
16771000,0.0324,0.013523,0.002678,0.000431,0.005054
16772000,0.0324,0.013523,0.002678,0.000431,0.004584
16773000,0.0324,0.013523,0.002678,0.000431,0.005641
16774000,0.0324,0.013523,0.002678,0.000431,0.005641
16775000,0.0324,0.013523,0.002678,0.000431,0.005171
16776000,0.0324,0.013523,0.002678,0.000431,0.004701
16777000,0.0324,0.013523,0.002678,0.000431,0.005524
16778000,0.0324,0.013523,0.002678,0.000431,0.005054
16779000,0.0324,0.013523,0.002678,0.000431,0.004701
16780000,0.0324,0.013523,0.002678,0.000431,0.004819
16781000,0.0324,0.013523,0.002678,0.000431,0.004936
16782000,0.0324,0.013523,0.002678,0.000431,0.005171
16783000,0.0324,0.013523,0.002678,0.000431,0.005054
16784000,0.0324,0.013523,0.002678,0.000431,0.005406
16785000,0.0324,0.013523,0.002678,0.000431,0.004466
16786000,0.0324,0.013523,0.002678,0.000431,0.005759
16787000,0.0324,0.013523,0.002678,0.000431,0.005406
16788000,0.0324,0.013523,0.002678,0.000431,0.004819
16789000,0.0324,0.013523,0.002678,0.000431,0.005641
16790000,0.0324,0.013523,0.002678,0.000431,0.005171
16791000,0.0324,0.013523,0.002678,0.000431,0.004701
16792000,0.0324,0.013523,0.002678,0.000431,0.005289
16793000,0.0324,0.013523,0.002678,0.000431,0.004349
16794000,0.0324,0.013523,0.002678,0.000431,0.004936
16795000,0.0324,0.013523,0.002678,0.000431,0.004113
16796000,0.0324,0.013523,0.002678,0.000431,0.004936
16797000,0.0324,0.013523,0.002678,0.000431,0.005289
16798000,0.0324,0.013523,0.002678,0.000431,0.004936
16799000,0.0324,0.013523,0.002678,0.000431,0.004936
16800000,0.0324,0.013523,0.002678,0.000431,0.004936
16801000,0.0324,0.013523,0.002678,0.000431,0.005641
16802000,0.0324,0.013523,0.002678,0.000431,0.005289
16803000,0.0324,0.013523,0.002678,0.000431,0.005054
16804000,0.0324,0.013523,0.002678,0.000431,0.005054
16805000,0.0324,0.013523,0.002678,0.000431,0.005406
16806000,0.0324,0.013523,0.002678,0.000431,0.005406
16807000,0.0324,0.013523,0.002678,0.000431,0.004936
16808000,0.0324,0.013523,0.002678,0.000431,0.005054
16809000,0.0324,0.013523,0.002678,0.000431,0.005289
16810000,0.0324,0.013523,0.002678,0.000431,0.004819
16811000,0.0324,0.013523,0.002678,0.000431,0.005759
16812000,0.0324,0.013523,0.002678,0.000431,0.005171
16813000,0.0324,0.013523,0.002678,0.000431,0.004466
16814000,0.0324,0.013523,0.002678,0.000431,0.004701
16815000,0.0324,0.013523,0.002678,0.000431,0.004466
16816000,0.0324,0.013523,0.002678,0.000431,0.005759
16817000,0.0324,0.013523,0.002678,0.000431,0.004936
16818000,0.0324,0.013523,0.002678,0.000431,0.005289
16819000,0.0324,0.013523,0.002678,0.000431,0.004349
16820000,0.0324,0.013523,0.002678,0.000431,0.005289
16821000,0.0324,0.013523,0.002678,0.000431,0.004819
16822000,0.0324,0.013523,0.002678,0.000431,0.004701
16823000,0.0324,0.013523,0.002678,0.000431,0.004466
16824000,0.0324,0.013523,0.002678,0.000431,0.004466
16825000,0.0324,0.013523,0.002678,0.000431,0.005406
16826000,0.0324,0.013523,0.002678,0.000431,0.004819
16827000,0.0324,0.013523,0.002678,0.000431,0.004584
16828000,0.0324,0.013523,0.002678,0.000431,0.005171
16829000,0.0324,0.013523,0.002678,0.000431,0.005054
16830000,0.0324,0.013523,0.002678,0.000431,0.005171
16831000,0.0324,0.013523,0.002678,0.000431,0.004819
16832000,0.0324,0.013523,0.002678,0.000431,0.004819
16833000,0.0324,0.013523,0.002678,0.000431,0.005289
16834000,0.0324,0.013523,0.002678,0.000431,0.004701
16835000,0.0324,0.013523,0.002678,0.000431,0.004701
16836000,0.0324,0.013523,0.002678,0.000431,0.004701
16837000,0.0324,0.013523,0.002678,0.000431,0.005524
16838000,0.0324,0.013523,0.002678,0.000431,0.005289
16839000,0.0324,0.013523,0.002678,0.000431,0.004584
16840000,0.0324,0.013523,0.002678,0.000431,0.005054
16841000,0.0324,0.013523,0.002678,0.000431,0.004584
16842000,0.0324,0.013523,0.002678,0.000431,0.005759
16843000,0.0324,0.013523,0.002678,0.000431,0.004466
16844000,0.0324,0.013523,0.002678,0.000431,0.005641
16845000,0.0324,0.013523,0.002678,0.000431,0.005054
16846000,0.0324,0.013523,0.002678,0.000431,0.004466
16847000,0.0324,0.013523,0.002678,0.000431,0.006229
16848000,0.0324,0.013523,0.002678,0.000431,0.005289
16849000,0.0324,0.013523,0.002678,0.000431,0.004819
16850000,0.0324,0.013523,0.002678,0.000431,0.004819
16851000,0.0324,0.013523,0.002678,0.000431,0.005171
16852000,0.0324,0.013523,0.002678,0.000431,0.004701
16853000,0.0324,0.013523,0.002678,0.000431,0.004819
16854000,0.0324,0.013523,0.002678,0.000431,0.005054
16855000,0.0324,0.013523,0.002678,0.000431,0.005641
16856000,0.0324,0.013523,0.002678,0.000431,0.004466
16857000,0.0324,0.013523,0.002678,0.000431,0.005289
16858000,0.0324,0.013523,0.002678,0.000431,0.004819
16859000,0.0324,0.013523,0.002678,0.000431,0.005054
16860000,0.0324,0.013523,0.002678,0.000431,0.005289
16861000,0.0324,0.013523,0.002678,0.000431,0.005171
16862000,0.0324,0.013523,0.002678,0.000431,0.004819
16863000,0.0324,0.013523,0.002678,0.000431,0.005524
16864000,0.0324,0.013523,0.002678,0.000431,0.004113
16865000,0.0324,0.013523,0.002678,0.000431,0.004936
16866000,0.0324,0.013523,0.002678,0.000431,0.004349
16867000,0.0324,0.013523,0.002678,0.000431,0.004584
16868000,0.0324,0.013523,0.002678,0.000431,0.005406
16869000,0.0324,0.013523,0.002678,0.000431,0.005289
16870000,0.0324,0.013523,0.002678,0.000431,0.005994
16871000,0.0324,0.013523,0.002678,0.000431,0.004349
16872000,0.0324,0.013523,0.002678,0.000431,0.005406
16873000,0.0324,0.013523,0.002678,0.000431,0.005641
16874000,0.0324,0.013523,0.002678,0.000431,0.005524
16875000,0.0324,0.013523,0.002678,0.000431,0.005171
16876000,0.0324,0.013523,0.002678,0.000431,0.005876
16877000,0.0324,0.013523,0.002678,0.000431,0.005406
16878000,0.0324,0.013523,0.002678,0.000431,0.004819
16879000,0.0324,0.013523,0.002678,0.000431,0.005054
16880000,0.0324,0.013523,0.002678,0.000431,0.004584
16881000,0.0324,0.013523,0.002678,0.000431,0.005406
16882000,0.0324,0.013523,0.002678,0.000431,0.005289
16883000,0.0324,0.013523,0.002678,0.000431,0.005054
16884000,0.0324,0.013523,0.002678,0.000431,0.004819
16885000,0.0324,0.013523,0.002678,0.000431,0.003996
16886000,0.0324,0.013523,0.002678,0.000431,0.005054
16887000,0.0324,0.013523,0.002678,0.000431,0.004819
16888000,0.0324,0.013523,0.002678,0.000431,0.004466
16889000,0.0324,0.013523,0.002678,0.000431,0.005289
16890000,0.0324,0.013523,0.002678,0.000431,0.004584
16891000,0.0324,0.013523,0.002678,0.000431,0.005171
16892000,0.0324,0.013523,0.002678,0.000431,0.005054
16893000,0.0324,0.013523,0.002678,0.000431,0.004701
16894000,0.0324,0.013523,0.002678,0.000431,0.004936
16895000,0.0324,0.013523,0.002678,0.000431,0.004819
16896000,0.0324,0.013523,0.002678,0.000431,0.005524
16897000,0.0324,0.013523,0.002678,0.000431,0.004819
16898000,0.0324,0.013523,0.002678,0.000431,0.005289
16899000,0.0324,0.013523,0.002678,0.000431,0.004701
16900000,0.0324,0.013523,0.002678,0.000431,0.004819
16901000,0.0324,0.013523,0.002678,0.000431,0.006111
16902000,0.0324,0.013523,0.002678,0.000431,0.004349
16903000,0.0324,0.013523,0.002678,0.000431,0.005641
16904000,0.0324,0.013523,0.002678,0.000431,0.004936
16905000,0.0324,0.013523,0.002678,0.000431,0.005406
16906000,0.0324,0.013523,0.002678,0.000431,0.004584
16907000,0.0324,0.013523,0.002678,0.000431,0.004936
16908000,0.0324,0.013523,0.002678,0.000431,0.004584
16909000,0.0324,0.013523,0.002678,0.000431,0.004936
16910000,0.0324,0.013523,0.002678,0.000431,0.004819
16911000,0.0324,0.013523,0.002678,0.000431,0.005406
16912000,0.0324,0.013523,0.002678,0.000431,0.005054
16913000,0.0324,0.013523,0.002678,0.000431,0.005171
16914000,0.0324,0.013523,0.002678,0.000431,0.004819
16915000,0.0324,0.013523,0.002678,0.000431,0.004584
16916000,0.0324,0.013523,0.002678,0.000431,0.005406
16917000,0.0324,0.013523,0.002678,0.000431,0.004819
16918000,0.0324,0.013523,0.002678,0.000431,0.005054
16919000,0.0324,0.013523,0.002678,0.000431,0.004936
16920000,0.0324,0.013523,0.002678,0.000431,0.004701
16921000,0.0324,0.013523,0.002678,0.000431,0.004819
16922000,0.0324,0.013523,0.002678,0.000431,0.003643
16923000,0.0324,0.013523,0.002678,0.000431,0.005171
16924000,0.0324,0.013523,0.002678,0.000431,0.005406
16925000,0.0324,0.013523,0.002678,0.000431,0.005289
16926000,0.0324,0.013523,0.002678,0.000431,0.004113
16927000,0.0324,0.013523,0.002678,0.000431,0.004936
16928000,0.0324,0.013523,0.002678,0.000431,0.005524
16929000,0.0324,0.013523,0.002678,0.000431,0.005524
16930000,0.0324,0.013523,0.002678,0.000431,0.005406
16931000,0.0324,0.013523,0.002678,0.000431,0.004231
16932000,0.0324,0.013523,0.002678,0.000431,0.004936
16933000,0.0324,0.013523,0.002678,0.000431,0.005289
16934000,0.0324,0.013523,0.002678,0.000431,0.005171
16935000,0.0324,0.013523,0.002678,0.000431,0.005171
16936000,0.0324,0.013523,0.002678,0.000431,0.004936
16937000,0.0324,0.013523,0.002678,0.000431,0.004936
16938000,0.0324,0.013523,0.002678,0.000431,0.005406
16939000,0.0324,0.013523,0.002678,0.000431,0.005289
16940000,0.0324,0.013523,0.002678,0.000431,0.004819
16941000,0.0324,0.013523,0.002678,0.000431,0.004936
16942000,0.0324,0.013523,0.002678,0.000431,0.005054
16943000,0.0324,0.013523,0.002678,0.000431,0.005289
16944000,0.0324,0.013523,0.002678,0.000431,0.004936
16945000,0.0324,0.013523,0.002678,0.000431,0.005524
16946000,0.0324,0.013523,0.002678,0.000431,0.004936
16947000,0.0324,0.013523,0.002678,0.000431,0.004466
16948000,0.0324,0.013523,0.002678,0.000431,0.005759
16949000,0.0324,0.013523,0.002678,0.000431,0.005289
16950000,0.0324,0.013523,0.002678,0.000431,0.005054
16951000,0.0324,0.013523,0.002678,0.000431,0.004584
16952000,0.0324,0.013523,0.002678,0.000431,0.004936
16953000,0.0324,0.013523,0.002678,0.000431,0.004701
16954000,0.0324,0.013523,0.002678,0.000431,0.005406
16955000,0.0324,0.013523,0.002678,0.000431,0.004819
16956000,0.0324,0.013523,0.002678,0.000431,0.005054
16957000,0.0324,0.013523,0.002678,0.000431,0.004936
16958000,0.0324,0.013523,0.002678,0.000431,0.005759
16959000,0.0324,0.013523,0.002678,0.000431,0.005289
16960000,0.0324,0.013523,0.002678,0.000431,0.005289
16961000,0.0324,0.013523,0.002678,0.000431,0.004466
16962000,0.0324,0.013523,0.002678,0.000431,0.004701
16963000,0.0324,0.013523,0.002678,0.000431,0.004584
16964000,0.0324,0.013523,0.002678,0.000431,0.004936
16965000,0.0324,0.013523,0.002678,0.000431,0.005406
16966000,0.0324,0.013523,0.002678,0.000431,0.004349
16967000,0.0324,0.013523,0.002678,0.000431,0.004701
16968000,0.0324,0.013523,0.002678,0.000431,0.005171
16969000,0.0324,0.013523,0.002678,0.000431,0.004936
16970000,0.0324,0.013523,0.002678,0.000431,0.005524
16971000,0.0324,0.013523,0.002678,0.000431,0.004701
16972000,0.0324,0.013523,0.002678,0.000431,0.004466
16973000,0.0324,0.013523,0.002678,0.000431,0.005054
16974000,0.0324,0.013523,0.002678,0.000431,0.004936
16975000,0.0324,0.013523,0.002678,0.000431,0.004819
16976000,0.0324,0.013523,0.002678,0.000431,0.004466
16977000,0.0324,0.013523,0.002678,0.000431,0.005641
16978000,0.0324,0.013523,0.002678,0.000431,0.004701
16979000,0.0324,0.013523,0.002678,0.000431,0.005406
16980000,0.0324,0.013523,0.002678,0.000431,0.004936
16981000,0.0324,0.013523,0.002678,0.000431,0.006111
16982000,0.0324,0.013523,0.002678,0.000431,0.004701
16983000,0.0324,0.013523,0.002678,0.000431,0.004936
16984000,0.0324,0.013523,0.002678,0.000431,0.005759
16985000,0.0324,0.013523,0.002678,0.000431,0.005171
16986000,0.0324,0.013523,0.002678,0.000431,0.004936
16987000,0.0324,0.013523,0.002678,0.000431,0.004936
16988000,0.0324,0.013523,0.002678,0.000431,0.005171
16989000,0.0324,0.013523,0.002678,0.000431,0.004819
16990000,0.0324,0.013523,0.002678,0.000431,0.005289
16991000,0.0324,0.013523,0.002678,0.000431,0.004936
16992000,0.0324,0.013523,0.002678,0.000431,0.005289
16993000,0.0324,0.013523,0.002678,0.000431,0.004936
16994000,0.0324,0.013523,0.002678,0.000431,0.005054
16995000,0.0324,0.013523,0.002678,0.000431,0.005289
16996000,0.0324,0.013523,0.002678,0.000431,0.004936
16997000,0.0324,0.013523,0.002678,0.000431,0.005289
16998000,0.0324,0.013523,0.002678,0.000431,0.005171
16999000,0.0324,0.013523,0.002678,0.000431,0.005289
