Cycle,Area(mm^2),PeakDynamic(W),SubthresholdLeakage(W),GateLeakage(W),RunTimeDynamic(W)
6000000,0.0324,0.013523,0.002678,0.000431,0.052535
6001000,0.0324,0.013523,0.002678,0.000431,0.055356
6002000,0.0324,0.013523,0.002678,0.000431,0.051125
6003000,0.0324,0.013523,0.002678,0.000431,0.048774
6004000,0.0324,0.013523,0.002678,0.000431,0.051712
6005000,0.0324,0.013523,0.002678,0.000431,0.055943
6006000,0.0324,0.013523,0.002678,0.000431,0.049832
6007000,0.0324,0.013523,0.002678,0.000431,0.052535
6008000,0.0324,0.013523,0.002678,0.000431,0.050302
6009000,0.0324,0.013523,0.002678,0.000431,0.054063
6010000,0.0324,0.013523,0.002678,0.000431,0.054533
6011000,0.0324,0.013523,0.002678,0.000431,0.048187
6012000,0.0324,0.013523,0.002678,0.000431,0.053005
6013000,0.0324,0.013523,0.002678,0.000431,0.050420
6014000,0.0324,0.013523,0.002678,0.000431,0.050655
6015000,0.0324,0.013523,0.002678,0.000431,0.053828
6016000,0.0324,0.013523,0.002678,0.000431,0.052065
6017000,0.0324,0.013523,0.002678,0.000431,0.051595
6018000,0.0324,0.013523,0.002678,0.000431,0.048657
6019000,0.0324,0.013523,0.002678,0.000431,0.050420
6020000,0.0324,0.013523,0.002678,0.000431,0.049597
6021000,0.0324,0.013523,0.002678,0.000431,0.053710
6022000,0.0324,0.013523,0.002678,0.000431,0.052418
6023000,0.0324,0.013523,0.002678,0.000431,0.052065
6024000,0.0324,0.013523,0.002678,0.000431,0.052888
6025000,0.0324,0.013523,0.002678,0.000431,0.052183
6026000,0.0324,0.013523,0.002678,0.000431,0.050890
6027000,0.0324,0.013523,0.002678,0.000431,0.046071
6028000,0.0324,0.013523,0.002678,0.000431,0.053123
6029000,0.0324,0.013523,0.002678,0.000431,0.053240
6030000,0.0324,0.013523,0.002678,0.000431,0.051830
6031000,0.0324,0.013523,0.002678,0.000431,0.047011
6032000,0.0324,0.013523,0.002678,0.000431,0.050185
6033000,0.0324,0.013523,0.002678,0.000431,0.049244
6034000,0.0324,0.013523,0.002678,0.000431,0.050890
6035000,0.0324,0.013523,0.002678,0.000431,0.049714
6036000,0.0324,0.013523,0.002678,0.000431,0.051242
6037000,0.0324,0.013523,0.002678,0.000431,0.052770
6038000,0.0324,0.013523,0.002678,0.000431,0.048892
6039000,0.0324,0.013523,0.002678,0.000431,0.050302
6040000,0.0324,0.013523,0.002678,0.000431,0.049479
6041000,0.0324,0.013523,0.002678,0.000431,0.050185
6042000,0.0324,0.013523,0.002678,0.000431,0.049714
6043000,0.0324,0.013523,0.002678,0.000431,0.051242
6044000,0.0324,0.013523,0.002678,0.000431,0.050890
6045000,0.0324,0.013523,0.002678,0.000431,0.050655
6046000,0.0324,0.013523,0.002678,0.000431,0.047834
6047000,0.0324,0.013523,0.002678,0.000431,0.051007
6048000,0.0324,0.013523,0.002678,0.000431,0.052653
6049000,0.0324,0.013523,0.002678,0.000431,0.051477
6050000,0.0324,0.013523,0.002678,0.000431,0.052888
6051000,0.0324,0.013523,0.002678,0.000431,0.050537
6052000,0.0324,0.013523,0.002678,0.000431,0.051595
6053000,0.0324,0.013523,0.002678,0.000431,0.051007
6054000,0.0324,0.013523,0.002678,0.000431,0.049714
6055000,0.0324,0.013523,0.002678,0.000431,0.051830
6056000,0.0324,0.013523,0.002678,0.000431,0.054533
6057000,0.0324,0.013523,0.002678,0.000431,0.049479
6058000,0.0324,0.013523,0.002678,0.000431,0.049832
6059000,0.0324,0.013523,0.002678,0.000431,0.048892
6060000,0.0324,0.013523,0.002678,0.000431,0.053005
6061000,0.0324,0.013523,0.002678,0.000431,0.050890
6062000,0.0324,0.013523,0.002678,0.000431,0.047011
6063000,0.0324,0.013523,0.002678,0.000431,0.051242
6064000,0.0324,0.013523,0.002678,0.000431,0.052770
6065000,0.0324,0.013523,0.002678,0.000431,0.049127
6066000,0.0324,0.013523,0.002678,0.000431,0.050302
6067000,0.0324,0.013523,0.002678,0.000431,0.051477
6068000,0.0324,0.013523,0.002678,0.000431,0.051477
6069000,0.0324,0.013523,0.002678,0.000431,0.051242
6070000,0.0324,0.013523,0.002678,0.000431,0.048187
6071000,0.0324,0.013523,0.002678,0.000431,0.049832
6072000,0.0324,0.013523,0.002678,0.000431,0.051477
6073000,0.0324,0.013523,0.002678,0.000431,0.048422
6074000,0.0324,0.013523,0.002678,0.000431,0.048539
6075000,0.0324,0.013523,0.002678,0.000431,0.050772
6076000,0.0324,0.013523,0.002678,0.000431,0.050537
6077000,0.0324,0.013523,0.002678,0.000431,0.049832
6078000,0.0324,0.013523,0.002678,0.000431,0.048422
6079000,0.0324,0.013523,0.002678,0.000431,0.051125
6080000,0.0324,0.013523,0.002678,0.000431,0.050185
6081000,0.0324,0.013523,0.002678,0.000431,0.047716
6082000,0.0324,0.013523,0.002678,0.000431,0.046894
6083000,0.0324,0.013523,0.002678,0.000431,0.052888
6084000,0.0324,0.013523,0.002678,0.000431,0.051007
6085000,0.0324,0.013523,0.002678,0.000431,0.049127
6086000,0.0324,0.013523,0.002678,0.000431,0.049832
6087000,0.0324,0.013523,0.002678,0.000431,0.050655
6088000,0.0324,0.013523,0.002678,0.000431,0.049009
6089000,0.0324,0.013523,0.002678,0.000431,0.049362
6090000,0.0324,0.013523,0.002678,0.000431,0.051125
6091000,0.0324,0.013523,0.002678,0.000431,0.050185
6092000,0.0324,0.013523,0.002678,0.000431,0.048539
6093000,0.0324,0.013523,0.002678,0.000431,0.047834
6094000,0.0324,0.013523,0.002678,0.000431,0.048892
6095000,0.0324,0.013523,0.002678,0.000431,0.051007
6096000,0.0324,0.013523,0.002678,0.000431,0.050890
6097000,0.0324,0.013523,0.002678,0.000431,0.046541
6098000,0.0324,0.013523,0.002678,0.000431,0.048304
6099000,0.0324,0.013523,0.002678,0.000431,0.050537
6100000,0.0324,0.013523,0.002678,0.000431,0.049832
6101000,0.0324,0.013523,0.002678,0.000431,0.050067
6102000,0.0324,0.013523,0.002678,0.000431,0.047716
6103000,0.0324,0.013523,0.002678,0.000431,0.047951
6104000,0.0324,0.013523,0.002678,0.000431,0.049009
6105000,0.0324,0.013523,0.002678,0.000431,0.048539
6106000,0.0324,0.013523,0.002678,0.000431,0.049479
6107000,0.0324,0.013523,0.002678,0.000431,0.048187
6108000,0.0324,0.013523,0.002678,0.000431,0.048069
6109000,0.0324,0.013523,0.002678,0.000431,0.048187
6110000,0.0324,0.013523,0.002678,0.000431,0.051242
6111000,0.0324,0.013523,0.002678,0.000431,0.047011
6112000,0.0324,0.013523,0.002678,0.000431,0.046541
6113000,0.0324,0.013523,0.002678,0.000431,0.051007
6114000,0.0324,0.013523,0.002678,0.000431,0.047364
6115000,0.0324,0.013523,0.002678,0.000431,0.048304
6116000,0.0324,0.013523,0.002678,0.000431,0.048774
6117000,0.0324,0.013523,0.002678,0.000431,0.046659
6118000,0.0324,0.013523,0.002678,0.000431,0.045483
6119000,0.0324,0.013523,0.002678,0.000431,0.048539
6120000,0.0324,0.013523,0.002678,0.000431,0.045248
6121000,0.0324,0.013523,0.002678,0.000431,0.048304
6122000,0.0324,0.013523,0.002678,0.000431,0.046894
6123000,0.0324,0.013523,0.002678,0.000431,0.046189
6124000,0.0324,0.013523,0.002678,0.000431,0.045954
6125000,0.0324,0.013523,0.002678,0.000431,0.046424
6126000,0.0324,0.013523,0.002678,0.000431,0.048539
6127000,0.0324,0.013523,0.002678,0.000431,0.048187
6128000,0.0324,0.013523,0.002678,0.000431,0.045718
6129000,0.0324,0.013523,0.002678,0.000431,0.045601
6130000,0.0324,0.013523,0.002678,0.000431,0.048187
6131000,0.0324,0.013523,0.002678,0.000431,0.045013
6132000,0.0324,0.013523,0.002678,0.000431,0.048892
6133000,0.0324,0.013523,0.002678,0.000431,0.045601
6134000,0.0324,0.013523,0.002678,0.000431,0.046306
6135000,0.0324,0.013523,0.002678,0.000431,0.043133
6136000,0.0324,0.013523,0.002678,0.000431,0.049127
6137000,0.0324,0.013523,0.002678,0.000431,0.048187
6138000,0.0324,0.013523,0.002678,0.000431,0.048069
6139000,0.0324,0.013523,0.002678,0.000431,0.044661
6140000,0.0324,0.013523,0.002678,0.000431,0.046424
6141000,0.0324,0.013523,0.002678,0.000431,0.050537
6142000,0.0324,0.013523,0.002678,0.000431,0.045954
6143000,0.0324,0.013523,0.002678,0.000431,0.050537
6144000,0.0324,0.013523,0.002678,0.000431,0.045483
6145000,0.0324,0.013523,0.002678,0.000431,0.045483
6146000,0.0324,0.013523,0.002678,0.000431,0.050420
6147000,0.0324,0.013523,0.002678,0.000431,0.044896
6148000,0.0324,0.013523,0.002678,0.000431,0.048187
6149000,0.0324,0.013523,0.002678,0.000431,0.047599
6150000,0.0324,0.013523,0.002678,0.000431,0.045248
6151000,0.0324,0.013523,0.002678,0.000431,0.048657
6152000,0.0324,0.013523,0.002678,0.000431,0.047129
6153000,0.0324,0.013523,0.002678,0.000431,0.049009
6154000,0.0324,0.013523,0.002678,0.000431,0.046894
6155000,0.0324,0.013523,0.002678,0.000431,0.045483
6156000,0.0324,0.013523,0.002678,0.000431,0.046894
6157000,0.0324,0.013523,0.002678,0.000431,0.049244
6158000,0.0324,0.013523,0.002678,0.000431,0.047599
6159000,0.0324,0.013523,0.002678,0.000431,0.045836
6160000,0.0324,0.013523,0.002678,0.000431,0.046776
6161000,0.0324,0.013523,0.002678,0.000431,0.044073
6162000,0.0324,0.013523,0.002678,0.000431,0.047011
6163000,0.0324,0.013523,0.002678,0.000431,0.048774
6164000,0.0324,0.013523,0.002678,0.000431,0.047129
6165000,0.0324,0.013523,0.002678,0.000431,0.045718
6166000,0.0324,0.013523,0.002678,0.000431,0.043720
6167000,0.0324,0.013523,0.002678,0.000431,0.050420
6168000,0.0324,0.013523,0.002678,0.000431,0.047481
6169000,0.0324,0.013523,0.002678,0.000431,0.047364
6170000,0.0324,0.013523,0.002678,0.000431,0.046776
6171000,0.0324,0.013523,0.002678,0.000431,0.049714
6172000,0.0324,0.013523,0.002678,0.000431,0.047834
6173000,0.0324,0.013523,0.002678,0.000431,0.043720
6174000,0.0324,0.013523,0.002678,0.000431,0.047599
6175000,0.0324,0.013523,0.002678,0.000431,0.047951
6176000,0.0324,0.013523,0.002678,0.000431,0.045248
6177000,0.0324,0.013523,0.002678,0.000431,0.046659
6178000,0.0324,0.013523,0.002678,0.000431,0.048304
6179000,0.0324,0.013523,0.002678,0.000431,0.049479
6180000,0.0324,0.013523,0.002678,0.000431,0.045248
6181000,0.0324,0.013523,0.002678,0.000431,0.043485
6182000,0.0324,0.013523,0.002678,0.000431,0.047011
6183000,0.0324,0.013523,0.002678,0.000431,0.047716
6184000,0.0324,0.013523,0.002678,0.000431,0.051360
6185000,0.0324,0.013523,0.002678,0.000431,0.046894
6186000,0.0324,0.013523,0.002678,0.000431,0.045483
6187000,0.0324,0.013523,0.002678,0.000431,0.045013
6188000,0.0324,0.013523,0.002678,0.000431,0.049362
6189000,0.0324,0.013523,0.002678,0.000431,0.045013
6190000,0.0324,0.013523,0.002678,0.000431,0.047716
6191000,0.0324,0.013523,0.002678,0.000431,0.048069
6192000,0.0324,0.013523,0.002678,0.000431,0.045013
6193000,0.0324,0.013523,0.002678,0.000431,0.048657
6194000,0.0324,0.013523,0.002678,0.000431,0.047834
6195000,0.0324,0.013523,0.002678,0.000431,0.046189
6196000,0.0324,0.013523,0.002678,0.000431,0.045131
6197000,0.0324,0.013523,0.002678,0.000431,0.046189
6198000,0.0324,0.013523,0.002678,0.000431,0.046541
6199000,0.0324,0.013523,0.002678,0.000431,0.047834
6200000,0.0324,0.013523,0.002678,0.000431,0.046541
6201000,0.0324,0.013523,0.002678,0.000431,0.048774
6202000,0.0324,0.013523,0.002678,0.000431,0.044073
6203000,0.0324,0.013523,0.002678,0.000431,0.048774
6204000,0.0324,0.013523,0.002678,0.000431,0.050655
6205000,0.0324,0.013523,0.002678,0.000431,0.049362
6206000,0.0324,0.013523,0.002678,0.000431,0.043485
6207000,0.0324,0.013523,0.002678,0.000431,0.046541
6208000,0.0324,0.013523,0.002678,0.000431,0.047834
6209000,0.0324,0.013523,0.002678,0.000431,0.046541
6210000,0.0324,0.013523,0.002678,0.000431,0.047599
6211000,0.0324,0.013523,0.002678,0.000431,0.047364
6212000,0.0324,0.013523,0.002678,0.000431,0.047011
6213000,0.0324,0.013523,0.002678,0.000431,0.045366
6214000,0.0324,0.013523,0.002678,0.000431,0.047951
6215000,0.0324,0.013523,0.002678,0.000431,0.046894
6216000,0.0324,0.013523,0.002678,0.000431,0.047246
6217000,0.0324,0.013523,0.002678,0.000431,0.047011
6218000,0.0324,0.013523,0.002678,0.000431,0.048304
6219000,0.0324,0.013523,0.002678,0.000431,0.046659
6220000,0.0324,0.013523,0.002678,0.000431,0.048892
6221000,0.0324,0.013523,0.002678,0.000431,0.049479
6222000,0.0324,0.013523,0.002678,0.000431,0.047011
6223000,0.0324,0.013523,0.002678,0.000431,0.044661
6224000,0.0324,0.013523,0.002678,0.000431,0.048539
6225000,0.0324,0.013523,0.002678,0.000431,0.047246
6226000,0.0324,0.013523,0.002678,0.000431,0.047364
6227000,0.0324,0.013523,0.002678,0.000431,0.047951
6228000,0.0324,0.013523,0.002678,0.000431,0.044661
6229000,0.0324,0.013523,0.002678,0.000431,0.049362
6230000,0.0324,0.013523,0.002678,0.000431,0.047011
6231000,0.0324,0.013523,0.002678,0.000431,0.049949
6232000,0.0324,0.013523,0.002678,0.000431,0.045954
6233000,0.0324,0.013523,0.002678,0.000431,0.046071
6234000,0.0324,0.013523,0.002678,0.000431,0.048657
6235000,0.0324,0.013523,0.002678,0.000431,0.047599
6236000,0.0324,0.013523,0.002678,0.000431,0.046776
6237000,0.0324,0.013523,0.002678,0.000431,0.050185
6238000,0.0324,0.013523,0.002678,0.000431,0.048774
6239000,0.0324,0.013523,0.002678,0.000431,0.045013
6240000,0.0324,0.013523,0.002678,0.000431,0.047129
6241000,0.0324,0.013523,0.002678,0.000431,0.049244
6242000,0.0324,0.013523,0.002678,0.000431,0.044661
6243000,0.0324,0.013523,0.002678,0.000431,0.047481
6244000,0.0324,0.013523,0.002678,0.000431,0.046776
6245000,0.0324,0.013523,0.002678,0.000431,0.047599
6246000,0.0324,0.013523,0.002678,0.000431,0.046189
6247000,0.0324,0.013523,0.002678,0.000431,0.049949
6248000,0.0324,0.013523,0.002678,0.000431,0.047716
6249000,0.0324,0.013523,0.002678,0.000431,0.044778
6250000,0.0324,0.013523,0.002678,0.000431,0.050772
6251000,0.0324,0.013523,0.002678,0.000431,0.052183
6252000,0.0324,0.013523,0.002678,0.000431,0.045601
6253000,0.0324,0.013523,0.002678,0.000431,0.044191
6254000,0.0324,0.013523,0.002678,0.000431,0.048422
6255000,0.0324,0.013523,0.002678,0.000431,0.049009
6256000,0.0324,0.013523,0.002678,0.000431,0.048304
6257000,0.0324,0.013523,0.002678,0.000431,0.049244
6258000,0.0324,0.013523,0.002678,0.000431,0.045483
6259000,0.0324,0.013523,0.002678,0.000431,0.046189
6260000,0.0324,0.013523,0.002678,0.000431,0.050655
6261000,0.0324,0.013523,0.002678,0.000431,0.046776
6262000,0.0324,0.013523,0.002678,0.000431,0.046541
6263000,0.0324,0.013523,0.002678,0.000431,0.046424
6264000,0.0324,0.013523,0.002678,0.000431,0.048187
6265000,0.0324,0.013523,0.002678,0.000431,0.044543
6266000,0.0324,0.013523,0.002678,0.000431,0.048304
6267000,0.0324,0.013523,0.002678,0.000431,0.050067
6268000,0.0324,0.013523,0.002678,0.000431,0.047364
6269000,0.0324,0.013523,0.002678,0.000431,0.047834
6270000,0.0324,0.013523,0.002678,0.000431,0.047481
6271000,0.0324,0.013523,0.002678,0.000431,0.049362
6272000,0.0324,0.013523,0.002678,0.000431,0.047246
6273000,0.0324,0.013523,0.002678,0.000431,0.045483
6274000,0.0324,0.013523,0.002678,0.000431,0.046424
6275000,0.0324,0.013523,0.002678,0.000431,0.051242
6276000,0.0324,0.013523,0.002678,0.000431,0.047599
6277000,0.0324,0.013523,0.002678,0.000431,0.044661
6278000,0.0324,0.013523,0.002678,0.000431,0.049949
6279000,0.0324,0.013523,0.002678,0.000431,0.047599
6280000,0.0324,0.013523,0.002678,0.000431,0.045483
6281000,0.0324,0.013523,0.002678,0.000431,0.041487
6282000,0.0324,0.013523,0.002678,0.000431,0.046659
6283000,0.0324,0.013523,0.002678,0.000431,0.049597
6284000,0.0324,0.013523,0.002678,0.000431,0.044308
6285000,0.0324,0.013523,0.002678,0.000431,0.044191
6286000,0.0324,0.013523,0.002678,0.000431,0.046541
6287000,0.0324,0.013523,0.002678,0.000431,0.047481
6288000,0.0324,0.013523,0.002678,0.000431,0.045601
6289000,0.0324,0.013523,0.002678,0.000431,0.046189
6290000,0.0324,0.013523,0.002678,0.000431,0.045954
6291000,0.0324,0.013523,0.002678,0.000431,0.045836
6292000,0.0324,0.013523,0.002678,0.000431,0.049127
6293000,0.0324,0.013523,0.002678,0.000431,0.046659
6294000,0.0324,0.013523,0.002678,0.000431,0.047834
6295000,0.0324,0.013523,0.002678,0.000431,0.043015
6296000,0.0324,0.013523,0.002678,0.000431,0.044073
6297000,0.0324,0.013523,0.002678,0.000431,0.049009
6298000,0.0324,0.013523,0.002678,0.000431,0.045483
6299000,0.0324,0.013523,0.002678,0.000431,0.045718
6300000,0.0324,0.013523,0.002678,0.000431,0.047951
6301000,0.0324,0.013523,0.002678,0.000431,0.043133
6302000,0.0324,0.013523,0.002678,0.000431,0.047364
6303000,0.0324,0.013523,0.002678,0.000431,0.046541
6304000,0.0324,0.013523,0.002678,0.000431,0.047364
6305000,0.0324,0.013523,0.002678,0.000431,0.045836
6306000,0.0324,0.013523,0.002678,0.000431,0.046776
6307000,0.0324,0.013523,0.002678,0.000431,0.045954
6308000,0.0324,0.013523,0.002678,0.000431,0.046306
6309000,0.0324,0.013523,0.002678,0.000431,0.044308
6310000,0.0324,0.013523,0.002678,0.000431,0.043603
6311000,0.0324,0.013523,0.002678,0.000431,0.048657
6312000,0.0324,0.013523,0.002678,0.000431,0.049244
6313000,0.0324,0.013523,0.002678,0.000431,0.045248
6314000,0.0324,0.013523,0.002678,0.000431,0.045601
6315000,0.0324,0.013523,0.002678,0.000431,0.047246
6316000,0.0324,0.013523,0.002678,0.000431,0.045013
6317000,0.0324,0.013523,0.002678,0.000431,0.048069
6318000,0.0324,0.013523,0.002678,0.000431,0.045954
6319000,0.0324,0.013523,0.002678,0.000431,0.048774
6320000,0.0324,0.013523,0.002678,0.000431,0.048657
6321000,0.0324,0.013523,0.002678,0.000431,0.045366
6322000,0.0324,0.013523,0.002678,0.000431,0.047011
6323000,0.0324,0.013523,0.002678,0.000431,0.045836
6324000,0.0324,0.013523,0.002678,0.000431,0.047716
6325000,0.0324,0.013523,0.002678,0.000431,0.045954
6326000,0.0324,0.013523,0.002678,0.000431,0.045131
6327000,0.0324,0.013523,0.002678,0.000431,0.043956
6328000,0.0324,0.013523,0.002678,0.000431,0.047364
6329000,0.0324,0.013523,0.002678,0.000431,0.049009
6330000,0.0324,0.013523,0.002678,0.000431,0.045601
6331000,0.0324,0.013523,0.002678,0.000431,0.045131
6332000,0.0324,0.013523,0.002678,0.000431,0.049009
6333000,0.0324,0.013523,0.002678,0.000431,0.046541
6334000,0.0324,0.013523,0.002678,0.000431,0.045601
6335000,0.0324,0.013523,0.002678,0.000431,0.045248
6336000,0.0324,0.013523,0.002678,0.000431,0.047364
6337000,0.0324,0.013523,0.002678,0.000431,0.043720
6338000,0.0324,0.013523,0.002678,0.000431,0.043956
6339000,0.0324,0.013523,0.002678,0.000431,0.049244
6340000,0.0324,0.013523,0.002678,0.000431,0.048422
6341000,0.0324,0.013523,0.002678,0.000431,0.043956
6342000,0.0324,0.013523,0.002678,0.000431,0.042663
6343000,0.0324,0.013523,0.002678,0.000431,0.046424
6344000,0.0324,0.013523,0.002678,0.000431,0.049597
6345000,0.0324,0.013523,0.002678,0.000431,0.047011
6346000,0.0324,0.013523,0.002678,0.000431,0.045836
6347000,0.0324,0.013523,0.002678,0.000431,0.046894
6348000,0.0324,0.013523,0.002678,0.000431,0.044308
6349000,0.0324,0.013523,0.002678,0.000431,0.048069
6350000,0.0324,0.013523,0.002678,0.000431,0.044896
6351000,0.0324,0.013523,0.002678,0.000431,0.046894
6352000,0.0324,0.013523,0.002678,0.000431,0.047129
6353000,0.0324,0.013523,0.002678,0.000431,0.045366
6354000,0.0324,0.013523,0.002678,0.000431,0.047834
6355000,0.0324,0.013523,0.002678,0.000431,0.046424
6356000,0.0324,0.013523,0.002678,0.000431,0.046659
6357000,0.0324,0.013523,0.002678,0.000431,0.043015
6358000,0.0324,0.013523,0.002678,0.000431,0.044308
6359000,0.0324,0.013523,0.002678,0.000431,0.045601
6360000,0.0324,0.013523,0.002678,0.000431,0.050772
6361000,0.0324,0.013523,0.002678,0.000431,0.043720
6362000,0.0324,0.013523,0.002678,0.000431,0.044426
6363000,0.0324,0.013523,0.002678,0.000431,0.048187
6364000,0.0324,0.013523,0.002678,0.000431,0.047716
6365000,0.0324,0.013523,0.002678,0.000431,0.045248
6366000,0.0324,0.013523,0.002678,0.000431,0.046189
6367000,0.0324,0.013523,0.002678,0.000431,0.047246
6368000,0.0324,0.013523,0.002678,0.000431,0.044896
6369000,0.0324,0.013523,0.002678,0.000431,0.047011
6370000,0.0324,0.013523,0.002678,0.000431,0.047246
6371000,0.0324,0.013523,0.002678,0.000431,0.045954
6372000,0.0324,0.013523,0.002678,0.000431,0.047716
6373000,0.0324,0.013523,0.002678,0.000431,0.044308
6374000,0.0324,0.013523,0.002678,0.000431,0.048539
6375000,0.0324,0.013523,0.002678,0.000431,0.046776
6376000,0.0324,0.013523,0.002678,0.000431,0.045248
6377000,0.0324,0.013523,0.002678,0.000431,0.047834
6378000,0.0324,0.013523,0.002678,0.000431,0.042898
6379000,0.0324,0.013523,0.002678,0.000431,0.045836
6380000,0.0324,0.013523,0.002678,0.000431,0.049832
6381000,0.0324,0.013523,0.002678,0.000431,0.044896
6382000,0.0324,0.013523,0.002678,0.000431,0.048422
6383000,0.0324,0.013523,0.002678,0.000431,0.045836
6384000,0.0324,0.013523,0.002678,0.000431,0.044896
6385000,0.0324,0.013523,0.002678,0.000431,0.047481
6386000,0.0324,0.013523,0.002678,0.000431,0.048187
6387000,0.0324,0.013523,0.002678,0.000431,0.048422
6388000,0.0324,0.013523,0.002678,0.000431,0.042663
6389000,0.0324,0.013523,0.002678,0.000431,0.046659
6390000,0.0324,0.013523,0.002678,0.000431,0.050420
6391000,0.0324,0.013523,0.002678,0.000431,0.046071
6392000,0.0324,0.013523,0.002678,0.000431,0.046541
6393000,0.0324,0.013523,0.002678,0.000431,0.047011
6394000,0.0324,0.013523,0.002678,0.000431,0.046541
6395000,0.0324,0.013523,0.002678,0.000431,0.044896
6396000,0.0324,0.013523,0.002678,0.000431,0.047951
6397000,0.0324,0.013523,0.002678,0.000431,0.047834
6398000,0.0324,0.013523,0.002678,0.000431,0.048657
6399000,0.0324,0.013523,0.002678,0.000431,0.044308
6400000,0.0324,0.013523,0.002678,0.000431,0.046776
6401000,0.0324,0.013523,0.002678,0.000431,0.047481
6402000,0.0324,0.013523,0.002678,0.000431,0.045248
6403000,0.0324,0.013523,0.002678,0.000431,0.046071
6404000,0.0324,0.013523,0.002678,0.000431,0.042898
6405000,0.0324,0.013523,0.002678,0.000431,0.046424
6406000,0.0324,0.013523,0.002678,0.000431,0.049244
6407000,0.0324,0.013523,0.002678,0.000431,0.046424
6408000,0.0324,0.013523,0.002678,0.000431,0.046541
6409000,0.0324,0.013523,0.002678,0.000431,0.045366
6410000,0.0324,0.013523,0.002678,0.000431,0.044073
6411000,0.0324,0.013523,0.002678,0.000431,0.046541
6412000,0.0324,0.013523,0.002678,0.000431,0.046541
6413000,0.0324,0.013523,0.002678,0.000431,0.045013
6414000,0.0324,0.013523,0.002678,0.000431,0.046776
6415000,0.0324,0.013523,0.002678,0.000431,0.046894
6416000,0.0324,0.013523,0.002678,0.000431,0.050302
6417000,0.0324,0.013523,0.002678,0.000431,0.045954
6418000,0.0324,0.013523,0.002678,0.000431,0.046189
6419000,0.0324,0.013523,0.002678,0.000431,0.042428
6420000,0.0324,0.013523,0.002678,0.000431,0.046424
6421000,0.0324,0.013523,0.002678,0.000431,0.047246
6422000,0.0324,0.013523,0.002678,0.000431,0.046189
6423000,0.0324,0.013523,0.002678,0.000431,0.048304
6424000,0.0324,0.013523,0.002678,0.000431,0.043956
6425000,0.0324,0.013523,0.002678,0.000431,0.046776
6426000,0.0324,0.013523,0.002678,0.000431,0.045248
6427000,0.0324,0.013523,0.002678,0.000431,0.048657
6428000,0.0324,0.013523,0.002678,0.000431,0.045954
6429000,0.0324,0.013523,0.002678,0.000431,0.046776
6430000,0.0324,0.013523,0.002678,0.000431,0.045248
6431000,0.0324,0.013523,0.002678,0.000431,0.048304
6432000,0.0324,0.013523,0.002678,0.000431,0.043485
6433000,0.0324,0.013523,0.002678,0.000431,0.047246
6434000,0.0324,0.013523,0.002678,0.000431,0.047599
6435000,0.0324,0.013523,0.002678,0.000431,0.044426
6436000,0.0324,0.013523,0.002678,0.000431,0.042428
6437000,0.0324,0.013523,0.002678,0.000431,0.045366
6438000,0.0324,0.013523,0.002678,0.000431,0.047481
6439000,0.0324,0.013523,0.002678,0.000431,0.047716
6440000,0.0324,0.013523,0.002678,0.000431,0.041605
6441000,0.0324,0.013523,0.002678,0.000431,0.044308
6442000,0.0324,0.013523,0.002678,0.000431,0.046776
6443000,0.0324,0.013523,0.002678,0.000431,0.045013
6444000,0.0324,0.013523,0.002678,0.000431,0.044543
6445000,0.0324,0.013523,0.002678,0.000431,0.046659
6446000,0.0324,0.013523,0.002678,0.000431,0.045601
6447000,0.0324,0.013523,0.002678,0.000431,0.044896
6448000,0.0324,0.013523,0.002678,0.000431,0.045954
6449000,0.0324,0.013523,0.002678,0.000431,0.046776
6450000,0.0324,0.013523,0.002678,0.000431,0.045483
6451000,0.0324,0.013523,0.002678,0.000431,0.042310
6452000,0.0324,0.013523,0.002678,0.000431,0.045248
6453000,0.0324,0.013523,0.002678,0.000431,0.048539
6454000,0.0324,0.013523,0.002678,0.000431,0.044191
6455000,0.0324,0.013523,0.002678,0.000431,0.039842
6456000,0.0324,0.013523,0.002678,0.000431,0.039725
6457000,0.0324,0.013523,0.002678,0.000431,0.046189
6458000,0.0324,0.013523,0.002678,0.000431,0.044661
6459000,0.0324,0.013523,0.002678,0.000431,0.040665
6460000,0.0324,0.013523,0.002678,0.000431,0.045013
6461000,0.0324,0.013523,0.002678,0.000431,0.045131
6462000,0.0324,0.013523,0.002678,0.000431,0.041487
6463000,0.0324,0.013523,0.002678,0.000431,0.042075
6464000,0.0324,0.013523,0.002678,0.000431,0.043838
6465000,0.0324,0.013523,0.002678,0.000431,0.045718
6466000,0.0324,0.013523,0.002678,0.000431,0.041370
6467000,0.0324,0.013523,0.002678,0.000431,0.039725
6468000,0.0324,0.013523,0.002678,0.000431,0.045601
6469000,0.0324,0.013523,0.002678,0.000431,0.043368
6470000,0.0324,0.013523,0.002678,0.000431,0.042780
6471000,0.0324,0.013523,0.002678,0.000431,0.039842
6472000,0.0324,0.013523,0.002678,0.000431,0.041252
6473000,0.0324,0.013523,0.002678,0.000431,0.043485
6474000,0.0324,0.013523,0.002678,0.000431,0.038432
6475000,0.0324,0.013523,0.002678,0.000431,0.041370
6476000,0.0324,0.013523,0.002678,0.000431,0.039372
6477000,0.0324,0.013523,0.002678,0.000431,0.041958
6478000,0.0324,0.013523,0.002678,0.000431,0.040665
6479000,0.0324,0.013523,0.002678,0.000431,0.042428
6480000,0.0324,0.013523,0.002678,0.000431,0.043838
6481000,0.0324,0.013523,0.002678,0.000431,0.042310
6482000,0.0324,0.013523,0.002678,0.000431,0.043015
6483000,0.0324,0.013523,0.002678,0.000431,0.043250
6484000,0.0324,0.013523,0.002678,0.000431,0.041605
6485000,0.0324,0.013523,0.002678,0.000431,0.040312
6486000,0.0324,0.013523,0.002678,0.000431,0.041487
6487000,0.0324,0.013523,0.002678,0.000431,0.039137
6488000,0.0324,0.013523,0.002678,0.000431,0.043603
6489000,0.0324,0.013523,0.002678,0.000431,0.039842
6490000,0.0324,0.013523,0.002678,0.000431,0.041017
6491000,0.0324,0.013523,0.002678,0.000431,0.043485
6492000,0.0324,0.013523,0.002678,0.000431,0.041840
6493000,0.0324,0.013523,0.002678,0.000431,0.036904
6494000,0.0324,0.013523,0.002678,0.000431,0.041252
6495000,0.0324,0.013523,0.002678,0.000431,0.044543
6496000,0.0324,0.013523,0.002678,0.000431,0.040782
6497000,0.0324,0.013523,0.002678,0.000431,0.040547
6498000,0.0324,0.013523,0.002678,0.000431,0.039842
6499000,0.0324,0.013523,0.002678,0.000431,0.043720
6500000,0.0324,0.013523,0.002678,0.000431,0.043485
6501000,0.0324,0.013523,0.002678,0.000431,0.043485
6502000,0.0324,0.013523,0.002678,0.000431,0.042898
6503000,0.0324,0.013523,0.002678,0.000431,0.043250
6504000,0.0324,0.013523,0.002678,0.000431,0.043250
6505000,0.0324,0.013523,0.002678,0.000431,0.041605
6506000,0.0324,0.013523,0.002678,0.000431,0.040547
6507000,0.0324,0.013523,0.002678,0.000431,0.042545
6508000,0.0324,0.013523,0.002678,0.000431,0.041252
6509000,0.0324,0.013523,0.002678,0.000431,0.040900
6510000,0.0324,0.013523,0.002678,0.000431,0.044308
6511000,0.0324,0.013523,0.002678,0.000431,0.044896
6512000,0.0324,0.013523,0.002678,0.000431,0.039019
6513000,0.0324,0.013523,0.002678,0.000431,0.042545
6514000,0.0324,0.013523,0.002678,0.000431,0.041370
6515000,0.0324,0.013523,0.002678,0.000431,0.042428
6516000,0.0324,0.013523,0.002678,0.000431,0.038079
6517000,0.0324,0.013523,0.002678,0.000431,0.038432
6518000,0.0324,0.013523,0.002678,0.000431,0.038432
6519000,0.0324,0.013523,0.002678,0.000431,0.042075
6520000,0.0324,0.013523,0.002678,0.000431,0.042663
6521000,0.0324,0.013523,0.002678,0.000431,0.037727
6522000,0.0324,0.013523,0.002678,0.000431,0.041840
6523000,0.0324,0.013523,0.002678,0.000431,0.039137
6524000,0.0324,0.013523,0.002678,0.000431,0.039607
6525000,0.0324,0.013523,0.002678,0.000431,0.043250
6526000,0.0324,0.013523,0.002678,0.000431,0.042780
6527000,0.0324,0.013523,0.002678,0.000431,0.041958
6528000,0.0324,0.013523,0.002678,0.000431,0.041723
6529000,0.0324,0.013523,0.002678,0.000431,0.039607
6530000,0.0324,0.013523,0.002678,0.000431,0.042898
6531000,0.0324,0.013523,0.002678,0.000431,0.038902
6532000,0.0324,0.013523,0.002678,0.000431,0.041252
6533000,0.0324,0.013523,0.002678,0.000431,0.038197
6534000,0.0324,0.013523,0.002678,0.000431,0.042663
6535000,0.0324,0.013523,0.002678,0.000431,0.043485
6536000,0.0324,0.013523,0.002678,0.000431,0.038667
6537000,0.0324,0.013523,0.002678,0.000431,0.042075
6538000,0.0324,0.013523,0.002678,0.000431,0.041487
6539000,0.0324,0.013523,0.002678,0.000431,0.040547
6540000,0.0324,0.013523,0.002678,0.000431,0.041605
6541000,0.0324,0.013523,0.002678,0.000431,0.042545
6542000,0.0324,0.013523,0.002678,0.000431,0.041605
6543000,0.0324,0.013523,0.002678,0.000431,0.037727
6544000,0.0324,0.013523,0.002678,0.000431,0.039607
6545000,0.0324,0.013523,0.002678,0.000431,0.038902
6546000,0.0324,0.013523,0.002678,0.000431,0.041723
6547000,0.0324,0.013523,0.002678,0.000431,0.041840
6548000,0.0324,0.013523,0.002678,0.000431,0.042193
6549000,0.0324,0.013523,0.002678,0.000431,0.039137
6550000,0.0324,0.013523,0.002678,0.000431,0.039960
6551000,0.0324,0.013523,0.002678,0.000431,0.041017
6552000,0.0324,0.013523,0.002678,0.000431,0.038314
6553000,0.0324,0.013523,0.002678,0.000431,0.040430
6554000,0.0324,0.013523,0.002678,0.000431,0.040900
6555000,0.0324,0.013523,0.002678,0.000431,0.040430
6556000,0.0324,0.013523,0.002678,0.000431,0.040547
6557000,0.0324,0.013523,0.002678,0.000431,0.041252
6558000,0.0324,0.013523,0.002678,0.000431,0.042075
6559000,0.0324,0.013523,0.002678,0.000431,0.037727
6560000,0.0324,0.013523,0.002678,0.000431,0.039372
6561000,0.0324,0.013523,0.002678,0.000431,0.042428
6562000,0.0324,0.013523,0.002678,0.000431,0.039842
6563000,0.0324,0.013523,0.002678,0.000431,0.041017
6564000,0.0324,0.013523,0.002678,0.000431,0.039254
6565000,0.0324,0.013523,0.002678,0.000431,0.038432
6566000,0.0324,0.013523,0.002678,0.000431,0.041017
6567000,0.0324,0.013523,0.002678,0.000431,0.042780
6568000,0.0324,0.013523,0.002678,0.000431,0.041487
6569000,0.0324,0.013523,0.002678,0.000431,0.042780
6570000,0.0324,0.013523,0.002678,0.000431,0.040430
6571000,0.0324,0.013523,0.002678,0.000431,0.040547
6572000,0.0324,0.013523,0.002678,0.000431,0.041487
6573000,0.0324,0.013523,0.002678,0.000431,0.043720
6574000,0.0324,0.013523,0.002678,0.000431,0.038902
6575000,0.0324,0.013523,0.002678,0.000431,0.038667
6576000,0.0324,0.013523,0.002678,0.000431,0.039842
6577000,0.0324,0.013523,0.002678,0.000431,0.043485
6578000,0.0324,0.013523,0.002678,0.000431,0.040195
6579000,0.0324,0.013523,0.002678,0.000431,0.042663
6580000,0.0324,0.013523,0.002678,0.000431,0.038667
6581000,0.0324,0.013523,0.002678,0.000431,0.040547
6582000,0.0324,0.013523,0.002678,0.000431,0.041958
6583000,0.0324,0.013523,0.002678,0.000431,0.038197
6584000,0.0324,0.013523,0.002678,0.000431,0.039960
6585000,0.0324,0.013523,0.002678,0.000431,0.043368
6586000,0.0324,0.013523,0.002678,0.000431,0.039137
6587000,0.0324,0.013523,0.002678,0.000431,0.041017
6588000,0.0324,0.013523,0.002678,0.000431,0.040312
6589000,0.0324,0.013523,0.002678,0.000431,0.040195
6590000,0.0324,0.013523,0.002678,0.000431,0.040782
6591000,0.0324,0.013523,0.002678,0.000431,0.040547
6592000,0.0324,0.013523,0.002678,0.000431,0.038784
6593000,0.0324,0.013523,0.002678,0.000431,0.041840
6594000,0.0324,0.013523,0.002678,0.000431,0.039725
6595000,0.0324,0.013523,0.002678,0.000431,0.037844
6596000,0.0324,0.013523,0.002678,0.000431,0.037374
6597000,0.0324,0.013523,0.002678,0.000431,0.041840
6598000,0.0324,0.013523,0.002678,0.000431,0.042193
6599000,0.0324,0.013523,0.002678,0.000431,0.038902
6600000,0.0324,0.013523,0.002678,0.000431,0.043368
6601000,0.0324,0.013523,0.002678,0.000431,0.037962
6602000,0.0324,0.013523,0.002678,0.000431,0.040312
6603000,0.0324,0.013523,0.002678,0.000431,0.040900
6604000,0.0324,0.013523,0.002678,0.000431,0.040312
6605000,0.0324,0.013523,0.002678,0.000431,0.040782
6606000,0.0324,0.013523,0.002678,0.000431,0.038197
6607000,0.0324,0.013523,0.002678,0.000431,0.037962
6608000,0.0324,0.013523,0.002678,0.000431,0.043250
6609000,0.0324,0.013523,0.002678,0.000431,0.043133
6610000,0.0324,0.013523,0.002678,0.000431,0.040665
6611000,0.0324,0.013523,0.002678,0.000431,0.039960
6612000,0.0324,0.013523,0.002678,0.000431,0.038549
6613000,0.0324,0.013523,0.002678,0.000431,0.041017
6614000,0.0324,0.013523,0.002678,0.000431,0.041487
6615000,0.0324,0.013523,0.002678,0.000431,0.040782
6616000,0.0324,0.013523,0.002678,0.000431,0.040077
6617000,0.0324,0.013523,0.002678,0.000431,0.039489
6618000,0.0324,0.013523,0.002678,0.000431,0.040547
6619000,0.0324,0.013523,0.002678,0.000431,0.041017
6620000,0.0324,0.013523,0.002678,0.000431,0.041723
6621000,0.0324,0.013523,0.002678,0.000431,0.036904
6622000,0.0324,0.013523,0.002678,0.000431,0.039960
6623000,0.0324,0.013523,0.002678,0.000431,0.041135
6624000,0.0324,0.013523,0.002678,0.000431,0.043956
6625000,0.0324,0.013523,0.002678,0.000431,0.037727
6626000,0.0324,0.013523,0.002678,0.000431,0.038432
6627000,0.0324,0.013523,0.002678,0.000431,0.039019
6628000,0.0324,0.013523,0.002678,0.000431,0.041487
6629000,0.0324,0.013523,0.002678,0.000431,0.040077
6630000,0.0324,0.013523,0.002678,0.000431,0.040665
6631000,0.0324,0.013523,0.002678,0.000431,0.041370
6632000,0.0324,0.013523,0.002678,0.000431,0.039725
6633000,0.0324,0.013523,0.002678,0.000431,0.036551
6634000,0.0324,0.013523,0.002678,0.000431,0.043485
6635000,0.0324,0.013523,0.002678,0.000431,0.041487
6636000,0.0324,0.013523,0.002678,0.000431,0.041840
6637000,0.0324,0.013523,0.002678,0.000431,0.039137
6638000,0.0324,0.013523,0.002678,0.000431,0.040430
6639000,0.0324,0.013523,0.002678,0.000431,0.042428
6640000,0.0324,0.013523,0.002678,0.000431,0.037962
6641000,0.0324,0.013523,0.002678,0.000431,0.041017
6642000,0.0324,0.013523,0.002678,0.000431,0.039960
6643000,0.0324,0.013523,0.002678,0.000431,0.040430
6644000,0.0324,0.013523,0.002678,0.000431,0.039725
6645000,0.0324,0.013523,0.002678,0.000431,0.040195
6646000,0.0324,0.013523,0.002678,0.000431,0.041958
6647000,0.0324,0.013523,0.002678,0.000431,0.041487
6648000,0.0324,0.013523,0.002678,0.000431,0.038197
6649000,0.0324,0.013523,0.002678,0.000431,0.039960
6650000,0.0324,0.013523,0.002678,0.000431,0.039372
6651000,0.0324,0.013523,0.002678,0.000431,0.043838
6652000,0.0324,0.013523,0.002678,0.000431,0.040077
6653000,0.0324,0.013523,0.002678,0.000431,0.039019
6654000,0.0324,0.013523,0.002678,0.000431,0.039725
6655000,0.0324,0.013523,0.002678,0.000431,0.040665
6656000,0.0324,0.013523,0.002678,0.000431,0.039137
6657000,0.0324,0.013523,0.002678,0.000431,0.040665
6658000,0.0324,0.013523,0.002678,0.000431,0.039489
6659000,0.0324,0.013523,0.002678,0.000431,0.041017
6660000,0.0324,0.013523,0.002678,0.000431,0.040782
6661000,0.0324,0.013523,0.002678,0.000431,0.040195
6662000,0.0324,0.013523,0.002678,0.000431,0.043838
6663000,0.0324,0.013523,0.002678,0.000431,0.039842
6664000,0.0324,0.013523,0.002678,0.000431,0.037256
6665000,0.0324,0.013523,0.002678,0.000431,0.042898
6666000,0.0324,0.013523,0.002678,0.000431,0.038667
6667000,0.0324,0.013523,0.002678,0.000431,0.043368
6668000,0.0324,0.013523,0.002678,0.000431,0.037727
6669000,0.0324,0.013523,0.002678,0.000431,0.038314
6670000,0.0324,0.013523,0.002678,0.000431,0.041487
6671000,0.0324,0.013523,0.002678,0.000431,0.042545
6672000,0.0324,0.013523,0.002678,0.000431,0.040547
6673000,0.0324,0.013523,0.002678,0.000431,0.037844
6674000,0.0324,0.013523,0.002678,0.000431,0.040195
6675000,0.0324,0.013523,0.002678,0.000431,0.043015
6676000,0.0324,0.013523,0.002678,0.000431,0.040312
6677000,0.0324,0.013523,0.002678,0.000431,0.039137
6678000,0.0324,0.013523,0.002678,0.000431,0.041252
6679000,0.0324,0.013523,0.002678,0.000431,0.040665
6680000,0.0324,0.013523,0.002678,0.000431,0.039842
6681000,0.0324,0.013523,0.002678,0.000431,0.042428
6682000,0.0324,0.013523,0.002678,0.000431,0.041370
6683000,0.0324,0.013523,0.002678,0.000431,0.042075
6684000,0.0324,0.013523,0.002678,0.000431,0.039960
6685000,0.0324,0.013523,0.002678,0.000431,0.040430
6686000,0.0324,0.013523,0.002678,0.000431,0.041605
6687000,0.0324,0.013523,0.002678,0.000431,0.040195
6688000,0.0324,0.013523,0.002678,0.000431,0.037844
6689000,0.0324,0.013523,0.002678,0.000431,0.039607
6690000,0.0324,0.013523,0.002678,0.000431,0.041605
6691000,0.0324,0.013523,0.002678,0.000431,0.043250
6692000,0.0324,0.013523,0.002678,0.000431,0.040312
6693000,0.0324,0.013523,0.002678,0.000431,0.037609
6694000,0.0324,0.013523,0.002678,0.000431,0.040312
6695000,0.0324,0.013523,0.002678,0.000431,0.041135
6696000,0.0324,0.013523,0.002678,0.000431,0.040665
6697000,0.0324,0.013523,0.002678,0.000431,0.038079
6698000,0.0324,0.013523,0.002678,0.000431,0.038902
6699000,0.0324,0.013523,0.002678,0.000431,0.038079
6700000,0.0324,0.013523,0.002678,0.000431,0.040782
6701000,0.0324,0.013523,0.002678,0.000431,0.041370
6702000,0.0324,0.013523,0.002678,0.000431,0.040547
6703000,0.0324,0.013523,0.002678,0.000431,0.040782
6704000,0.0324,0.013523,0.002678,0.000431,0.039607
6705000,0.0324,0.013523,0.002678,0.000431,0.039725
6706000,0.0324,0.013523,0.002678,0.000431,0.042310
6707000,0.0324,0.013523,0.002678,0.000431,0.041605
6708000,0.0324,0.013523,0.002678,0.000431,0.039960
6709000,0.0324,0.013523,0.002678,0.000431,0.040547
6710000,0.0324,0.013523,0.002678,0.000431,0.038667
6711000,0.0324,0.013523,0.002678,0.000431,0.039489
6712000,0.0324,0.013523,0.002678,0.000431,0.042545
6713000,0.0324,0.013523,0.002678,0.000431,0.041605
6714000,0.0324,0.013523,0.002678,0.000431,0.040782
6715000,0.0324,0.013523,0.002678,0.000431,0.039960
6716000,0.0324,0.013523,0.002678,0.000431,0.039019
6717000,0.0324,0.013523,0.002678,0.000431,0.041723
6718000,0.0324,0.013523,0.002678,0.000431,0.039489
6719000,0.0324,0.013523,0.002678,0.000431,0.042075
6720000,0.0324,0.013523,0.002678,0.000431,0.036786
6721000,0.0324,0.013523,0.002678,0.000431,0.042663
6722000,0.0324,0.013523,0.002678,0.000431,0.041487
6723000,0.0324,0.013523,0.002678,0.000431,0.040547
6724000,0.0324,0.013523,0.002678,0.000431,0.040430
6725000,0.0324,0.013523,0.002678,0.000431,0.040077
6726000,0.0324,0.013523,0.002678,0.000431,0.042428
6727000,0.0324,0.013523,0.002678,0.000431,0.042075
6728000,0.0324,0.013523,0.002678,0.000431,0.039254
6729000,0.0324,0.013523,0.002678,0.000431,0.040430
6730000,0.0324,0.013523,0.002678,0.000431,0.039842
6731000,0.0324,0.013523,0.002678,0.000431,0.041370
6732000,0.0324,0.013523,0.002678,0.000431,0.042193
6733000,0.0324,0.013523,0.002678,0.000431,0.041605
6734000,0.0324,0.013523,0.002678,0.000431,0.039019
6735000,0.0324,0.013523,0.002678,0.000431,0.039842
6736000,0.0324,0.013523,0.002678,0.000431,0.039842
6737000,0.0324,0.013523,0.002678,0.000431,0.041605
6738000,0.0324,0.013523,0.002678,0.000431,0.041487
6739000,0.0324,0.013523,0.002678,0.000431,0.037844
6740000,0.0324,0.013523,0.002678,0.000431,0.038902
6741000,0.0324,0.013523,0.002678,0.000431,0.039019
6742000,0.0324,0.013523,0.002678,0.000431,0.040195
6743000,0.0324,0.013523,0.002678,0.000431,0.039489
6744000,0.0324,0.013523,0.002678,0.000431,0.039254
6745000,0.0324,0.013523,0.002678,0.000431,0.040430
6746000,0.0324,0.013523,0.002678,0.000431,0.039960
6747000,0.0324,0.013523,0.002678,0.000431,0.038784
6748000,0.0324,0.013523,0.002678,0.000431,0.041487
6749000,0.0324,0.013523,0.002678,0.000431,0.039137
6750000,0.0324,0.013523,0.002678,0.000431,0.036786
6751000,0.0324,0.013523,0.002678,0.000431,0.040312
6752000,0.0324,0.013523,0.002678,0.000431,0.038902
6753000,0.0324,0.013523,0.002678,0.000431,0.039254
6754000,0.0324,0.013523,0.002678,0.000431,0.039372
6755000,0.0324,0.013523,0.002678,0.000431,0.039137
6756000,0.0324,0.013523,0.002678,0.000431,0.037256
6757000,0.0324,0.013523,0.002678,0.000431,0.037021
6758000,0.0324,0.013523,0.002678,0.000431,0.037962
6759000,0.0324,0.013523,0.002678,0.000431,0.037727
6760000,0.0324,0.013523,0.002678,0.000431,0.039960
6761000,0.0324,0.013523,0.002678,0.000431,0.036786
6762000,0.0324,0.013523,0.002678,0.000431,0.036199
6763000,0.0324,0.013523,0.002678,0.000431,0.039842
6764000,0.0324,0.013523,0.002678,0.000431,0.040900
6765000,0.0324,0.013523,0.002678,0.000431,0.035611
6766000,0.0324,0.013523,0.002678,0.000431,0.035258
6767000,0.0324,0.013523,0.002678,0.000431,0.041135
6768000,0.0324,0.013523,0.002678,0.000431,0.038549
6769000,0.0324,0.013523,0.002678,0.000431,0.037844
6770000,0.0324,0.013523,0.002678,0.000431,0.036199
6771000,0.0324,0.013523,0.002678,0.000431,0.040665
6772000,0.0324,0.013523,0.002678,0.000431,0.038432
6773000,0.0324,0.013523,0.002678,0.000431,0.038667
6774000,0.0324,0.013523,0.002678,0.000431,0.039489
6775000,0.0324,0.013523,0.002678,0.000431,0.035846
6776000,0.0324,0.013523,0.002678,0.000431,0.039137
6777000,0.0324,0.013523,0.002678,0.000431,0.038432
6778000,0.0324,0.013523,0.002678,0.000431,0.040312
6779000,0.0324,0.013523,0.002678,0.000431,0.039372
6780000,0.0324,0.013523,0.002678,0.000431,0.037609
6781000,0.0324,0.013523,0.002678,0.000431,0.037609
6782000,0.0324,0.013523,0.002678,0.000431,0.037139
6783000,0.0324,0.013523,0.002678,0.000431,0.041605
6784000,0.0324,0.013523,0.002678,0.000431,0.040195
6785000,0.0324,0.013523,0.002678,0.000431,0.037139
6786000,0.0324,0.013523,0.002678,0.000431,0.039137
6787000,0.0324,0.013523,0.002678,0.000431,0.035964
6788000,0.0324,0.013523,0.002678,0.000431,0.039842
6789000,0.0324,0.013523,0.002678,0.000431,0.038197
6790000,0.0324,0.013523,0.002678,0.000431,0.038784
6791000,0.0324,0.013523,0.002678,0.000431,0.040782
6792000,0.0324,0.013523,0.002678,0.000431,0.037139
6793000,0.0324,0.013523,0.002678,0.000431,0.039489
6794000,0.0324,0.013523,0.002678,0.000431,0.041135
6795000,0.0324,0.013523,0.002678,0.000431,0.037844
6796000,0.0324,0.013523,0.002678,0.000431,0.039019
6797000,0.0324,0.013523,0.002678,0.000431,0.039607
6798000,0.0324,0.013523,0.002678,0.000431,0.039725
6799000,0.0324,0.013523,0.002678,0.000431,0.038667
6800000,0.0324,0.013523,0.002678,0.000431,0.039254
6801000,0.0324,0.013523,0.002678,0.000431,0.036786
6802000,0.0324,0.013523,0.002678,0.000431,0.039372
6803000,0.0324,0.013523,0.002678,0.000431,0.036904
6804000,0.0324,0.013523,0.002678,0.000431,0.038432
6805000,0.0324,0.013523,0.002678,0.000431,0.038549
6806000,0.0324,0.013523,0.002678,0.000431,0.036669
6807000,0.0324,0.013523,0.002678,0.000431,0.038197
6808000,0.0324,0.013523,0.002678,0.000431,0.035258
6809000,0.0324,0.013523,0.002678,0.000431,0.040665
6810000,0.0324,0.013523,0.002678,0.000431,0.041135
6811000,0.0324,0.013523,0.002678,0.000431,0.036316
6812000,0.0324,0.013523,0.002678,0.000431,0.034553
6813000,0.0324,0.013523,0.002678,0.000431,0.037491
6814000,0.0324,0.013523,0.002678,0.000431,0.041840
6815000,0.0324,0.013523,0.002678,0.000431,0.041370
6816000,0.0324,0.013523,0.002678,0.000431,0.036904
6817000,0.0324,0.013523,0.002678,0.000431,0.037609
6818000,0.0324,0.013523,0.002678,0.000431,0.038667
6819000,0.0324,0.013523,0.002678,0.000431,0.038902
6820000,0.0324,0.013523,0.002678,0.000431,0.040547
6821000,0.0324,0.013523,0.002678,0.000431,0.035611
6822000,0.0324,0.013523,0.002678,0.000431,0.038197
6823000,0.0324,0.013523,0.002678,0.000431,0.038079
6824000,0.0324,0.013523,0.002678,0.000431,0.036904
6825000,0.0324,0.013523,0.002678,0.000431,0.037491
6826000,0.0324,0.013523,0.002678,0.000431,0.039607
6827000,0.0324,0.013523,0.002678,0.000431,0.037727
6828000,0.0324,0.013523,0.002678,0.000431,0.034788
6829000,0.0324,0.013523,0.002678,0.000431,0.038079
6830000,0.0324,0.013523,0.002678,0.000431,0.040665
6831000,0.0324,0.013523,0.002678,0.000431,0.038902
6832000,0.0324,0.013523,0.002678,0.000431,0.038549
6833000,0.0324,0.013523,0.002678,0.000431,0.038667
6834000,0.0324,0.013523,0.002678,0.000431,0.037844
6835000,0.0324,0.013523,0.002678,0.000431,0.039960
6836000,0.0324,0.013523,0.002678,0.000431,0.036669
6837000,0.0324,0.013523,0.002678,0.000431,0.037962
6838000,0.0324,0.013523,0.002678,0.000431,0.039842
6839000,0.0324,0.013523,0.002678,0.000431,0.039254
6840000,0.0324,0.013523,0.002678,0.000431,0.039725
6841000,0.0324,0.013523,0.002678,0.000431,0.040547
6842000,0.0324,0.013523,0.002678,0.000431,0.039489
6843000,0.0324,0.013523,0.002678,0.000431,0.036316
6844000,0.0324,0.013523,0.002678,0.000431,0.039019
6845000,0.0324,0.013523,0.002678,0.000431,0.042310
6846000,0.0324,0.013523,0.002678,0.000431,0.038667
6847000,0.0324,0.013523,0.002678,0.000431,0.038667
6848000,0.0324,0.013523,0.002678,0.000431,0.038079
6849000,0.0324,0.013523,0.002678,0.000431,0.039725
6850000,0.0324,0.013523,0.002678,0.000431,0.037021
6851000,0.0324,0.013523,0.002678,0.000431,0.039607
6852000,0.0324,0.013523,0.002678,0.000431,0.039137
6853000,0.0324,0.013523,0.002678,0.000431,0.038667
6854000,0.0324,0.013523,0.002678,0.000431,0.037491
6855000,0.0324,0.013523,0.002678,0.000431,0.039137
6856000,0.0324,0.013523,0.002678,0.000431,0.039137
6857000,0.0324,0.013523,0.002678,0.000431,0.038784
6858000,0.0324,0.013523,0.002678,0.000431,0.039254
6859000,0.0324,0.013523,0.002678,0.000431,0.038432
6860000,0.0324,0.013523,0.002678,0.000431,0.037962
6861000,0.0324,0.013523,0.002678,0.000431,0.039960
6862000,0.0324,0.013523,0.002678,0.000431,0.037256
6863000,0.0324,0.013523,0.002678,0.000431,0.039607
6864000,0.0324,0.013523,0.002678,0.000431,0.037962
6865000,0.0324,0.013523,0.002678,0.000431,0.037609
6866000,0.0324,0.013523,0.002678,0.000431,0.040547
6867000,0.0324,0.013523,0.002678,0.000431,0.034788
6868000,0.0324,0.013523,0.002678,0.000431,0.038079
6869000,0.0324,0.013523,0.002678,0.000431,0.035376
6870000,0.0324,0.013523,0.002678,0.000431,0.039019
6871000,0.0324,0.013523,0.002678,0.000431,0.039019
6872000,0.0324,0.013523,0.002678,0.000431,0.037727
6873000,0.0324,0.013523,0.002678,0.000431,0.038549
6874000,0.0324,0.013523,0.002678,0.000431,0.038902
6875000,0.0324,0.013523,0.002678,0.000431,0.036316
6876000,0.0324,0.013523,0.002678,0.000431,0.037962
6877000,0.0324,0.013523,0.002678,0.000431,0.038902
6878000,0.0324,0.013523,0.002678,0.000431,0.039372
6879000,0.0324,0.013523,0.002678,0.000431,0.037021
6880000,0.0324,0.013523,0.002678,0.000431,0.040665
6881000,0.0324,0.013523,0.002678,0.000431,0.037491
6882000,0.0324,0.013523,0.002678,0.000431,0.039607
6883000,0.0324,0.013523,0.002678,0.000431,0.037256
6884000,0.0324,0.013523,0.002678,0.000431,0.038549
6885000,0.0324,0.013523,0.002678,0.000431,0.037844
6886000,0.0324,0.013523,0.002678,0.000431,0.038549
6887000,0.0324,0.013523,0.002678,0.000431,0.039607
6888000,0.0324,0.013523,0.002678,0.000431,0.039254
6889000,0.0324,0.013523,0.002678,0.000431,0.038432
6890000,0.0324,0.013523,0.002678,0.000431,0.036669
6891000,0.0324,0.013523,0.002678,0.000431,0.037139
6892000,0.0324,0.013523,0.002678,0.000431,0.039960
6893000,0.0324,0.013523,0.002678,0.000431,0.038667
6894000,0.0324,0.013523,0.002678,0.000431,0.037374
6895000,0.0324,0.013523,0.002678,0.000431,0.037374
6896000,0.0324,0.013523,0.002678,0.000431,0.039137
6897000,0.0324,0.013523,0.002678,0.000431,0.036199
6898000,0.0324,0.013523,0.002678,0.000431,0.037609
6899000,0.0324,0.013523,0.002678,0.000431,0.038667
6900000,0.0324,0.013523,0.002678,0.000431,0.035846
6901000,0.0324,0.013523,0.002678,0.000431,0.038902
6902000,0.0324,0.013523,0.002678,0.000431,0.041017
6903000,0.0324,0.013523,0.002678,0.000431,0.037374
6904000,0.0324,0.013523,0.002678,0.000431,0.042075
6905000,0.0324,0.013523,0.002678,0.000431,0.035258
6906000,0.0324,0.013523,0.002678,0.000431,0.038667
6907000,0.0324,0.013523,0.002678,0.000431,0.040665
6908000,0.0324,0.013523,0.002678,0.000431,0.036669
6909000,0.0324,0.013523,0.002678,0.000431,0.036199
6910000,0.0324,0.013523,0.002678,0.000431,0.037727
6911000,0.0324,0.013523,0.002678,0.000431,0.039019
6912000,0.0324,0.013523,0.002678,0.000431,0.038197
6913000,0.0324,0.013523,0.002678,0.000431,0.039019
6914000,0.0324,0.013523,0.002678,0.000431,0.039372
6915000,0.0324,0.013523,0.002678,0.000431,0.037256
6916000,0.0324,0.013523,0.002678,0.000431,0.034436
6917000,0.0324,0.013523,0.002678,0.000431,0.039725
6918000,0.0324,0.013523,0.002678,0.000431,0.040430
6919000,0.0324,0.013523,0.002678,0.000431,0.037256
6920000,0.0324,0.013523,0.002678,0.000431,0.035494
6921000,0.0324,0.013523,0.002678,0.000431,0.039019
6922000,0.0324,0.013523,0.002678,0.000431,0.040782
6923000,0.0324,0.013523,0.002678,0.000431,0.039960
6924000,0.0324,0.013523,0.002678,0.000431,0.037139
6925000,0.0324,0.013523,0.002678,0.000431,0.042663
6926000,0.0324,0.013523,0.002678,0.000431,0.033848
6927000,0.0324,0.013523,0.002678,0.000431,0.038314
6928000,0.0324,0.013523,0.002678,0.000431,0.039960
6929000,0.0324,0.013523,0.002678,0.000431,0.037374
6930000,0.0324,0.013523,0.002678,0.000431,0.036316
6931000,0.0324,0.013523,0.002678,0.000431,0.039254
6932000,0.0324,0.013523,0.002678,0.000431,0.035729
6933000,0.0324,0.013523,0.002678,0.000431,0.038784
6934000,0.0324,0.013523,0.002678,0.000431,0.039489
6935000,0.0324,0.013523,0.002678,0.000431,0.038314
6936000,0.0324,0.013523,0.002678,0.000431,0.034671
6937000,0.0324,0.013523,0.002678,0.000431,0.038667
6938000,0.0324,0.013523,0.002678,0.000431,0.040782
6939000,0.0324,0.013523,0.002678,0.000431,0.037256
6940000,0.0324,0.013523,0.002678,0.000431,0.036316
6941000,0.0324,0.013523,0.002678,0.000431,0.038314
6942000,0.0324,0.013523,0.002678,0.000431,0.037844
6943000,0.0324,0.013523,0.002678,0.000431,0.037962
6944000,0.0324,0.013523,0.002678,0.000431,0.039137
6945000,0.0324,0.013523,0.002678,0.000431,0.040430
6946000,0.0324,0.013523,0.002678,0.000431,0.034906
6947000,0.0324,0.013523,0.002678,0.000431,0.034553
6948000,0.0324,0.013523,0.002678,0.000431,0.041605
6949000,0.0324,0.013523,0.002678,0.000431,0.038549
6950000,0.0324,0.013523,0.002678,0.000431,0.038197
6951000,0.0324,0.013523,0.002678,0.000431,0.036199
6952000,0.0324,0.013523,0.002678,0.000431,0.037491
6953000,0.0324,0.013523,0.002678,0.000431,0.039725
6954000,0.0324,0.013523,0.002678,0.000431,0.035141
6955000,0.0324,0.013523,0.002678,0.000431,0.041017
6956000,0.0324,0.013523,0.002678,0.000431,0.036669
6957000,0.0324,0.013523,0.002678,0.000431,0.035376
6958000,0.0324,0.013523,0.002678,0.000431,0.035023
6959000,0.0324,0.013523,0.002678,0.000431,0.041487
6960000,0.0324,0.013523,0.002678,0.000431,0.036786
6961000,0.0324,0.013523,0.002678,0.000431,0.037727
6962000,0.0324,0.013523,0.002678,0.000431,0.034553
6963000,0.0324,0.013523,0.002678,0.000431,0.037256
6964000,0.0324,0.013523,0.002678,0.000431,0.038902
6965000,0.0324,0.013523,0.002678,0.000431,0.037609
6966000,0.0324,0.013523,0.002678,0.000431,0.038314
6967000,0.0324,0.013523,0.002678,0.000431,0.034201
6968000,0.0324,0.013523,0.002678,0.000431,0.040312
6969000,0.0324,0.013523,0.002678,0.000431,0.034318
6970000,0.0324,0.013523,0.002678,0.000431,0.038314
6971000,0.0324,0.013523,0.002678,0.000431,0.036904
6972000,0.0324,0.013523,0.002678,0.000431,0.038667
6973000,0.0324,0.013523,0.002678,0.000431,0.033496
6974000,0.0324,0.013523,0.002678,0.000431,0.036551
6975000,0.0324,0.013523,0.002678,0.000431,0.039725
6976000,0.0324,0.013523,0.002678,0.000431,0.034436
6977000,0.0324,0.013523,0.002678,0.000431,0.036434
6978000,0.0324,0.013523,0.002678,0.000431,0.036669
6979000,0.0324,0.013523,0.002678,0.000431,0.037609
6980000,0.0324,0.013523,0.002678,0.000431,0.038902
6981000,0.0324,0.013523,0.002678,0.000431,0.037256
6982000,0.0324,0.013523,0.002678,0.000431,0.038432
6983000,0.0324,0.013523,0.002678,0.000431,0.036081
6984000,0.0324,0.013523,0.002678,0.000431,0.036199
6985000,0.0324,0.013523,0.002678,0.000431,0.038314
6986000,0.0324,0.013523,0.002678,0.000431,0.037374
6987000,0.0324,0.013523,0.002678,0.000431,0.034201
6988000,0.0324,0.013523,0.002678,0.000431,0.033848
6989000,0.0324,0.013523,0.002678,0.000431,0.041252
6990000,0.0324,0.013523,0.002678,0.000431,0.036199
6991000,0.0324,0.013523,0.002678,0.000431,0.038079
6992000,0.0324,0.013523,0.002678,0.000431,0.038079
6993000,0.0324,0.013523,0.002678,0.000431,0.035846
6994000,0.0324,0.013523,0.002678,0.000431,0.036551
6995000,0.0324,0.013523,0.002678,0.000431,0.039137
6996000,0.0324,0.013523,0.002678,0.000431,0.036434
6997000,0.0324,0.013523,0.002678,0.000431,0.036669
6998000,0.0324,0.013523,0.002678,0.000431,0.039372
6999000,0.0324,0.013523,0.002678,0.000431,0.038432
