Cycle,Area(mm^2),PeakDynamic(W),SubthresholdLeakage(W),GateLeakage(W),RunTimeDynamic(W)
12000000,0.0324,0.013523,0.002678,0.000431,0.013046
12001000,0.0324,0.013523,0.002678,0.000431,0.013163
12002000,0.0324,0.013523,0.002678,0.000431,0.012458
12003000,0.0324,0.013523,0.002678,0.000431,0.013986
12004000,0.0324,0.013523,0.002678,0.000431,0.012576
12005000,0.0324,0.013523,0.002678,0.000431,0.012340
12006000,0.0324,0.013523,0.002678,0.000431,0.012223
12007000,0.0324,0.013523,0.002678,0.000431,0.011753
12008000,0.0324,0.013523,0.002678,0.000431,0.013633
12009000,0.0324,0.013523,0.002678,0.000431,0.013986
12010000,0.0324,0.013523,0.002678,0.000431,0.012928
12011000,0.0324,0.013523,0.002678,0.000431,0.012928
12012000,0.0324,0.013523,0.002678,0.000431,0.011518
12013000,0.0324,0.013523,0.002678,0.000431,0.014221
12014000,0.0324,0.013523,0.002678,0.000431,0.012811
12015000,0.0324,0.013523,0.002678,0.000431,0.012811
12016000,0.0324,0.013523,0.002678,0.000431,0.014573
12017000,0.0324,0.013523,0.002678,0.000431,0.013516
12018000,0.0324,0.013523,0.002678,0.000431,0.011400
12019000,0.0324,0.013523,0.002678,0.000431,0.012458
12020000,0.0324,0.013523,0.002678,0.000431,0.014456
12021000,0.0324,0.013523,0.002678,0.000431,0.012105
12022000,0.0324,0.013523,0.002678,0.000431,0.012223
12023000,0.0324,0.013523,0.002678,0.000431,0.013281
12024000,0.0324,0.013523,0.002678,0.000431,0.012928
12025000,0.0324,0.013523,0.002678,0.000431,0.013281
12026000,0.0324,0.013523,0.002678,0.000431,0.014338
12027000,0.0324,0.013523,0.002678,0.000431,0.012223
12028000,0.0324,0.013523,0.002678,0.000431,0.014691
12029000,0.0324,0.013523,0.002678,0.000431,0.012458
12030000,0.0324,0.013523,0.002678,0.000431,0.013986
12031000,0.0324,0.013523,0.002678,0.000431,0.013986
12032000,0.0324,0.013523,0.002678,0.000431,0.011753
12033000,0.0324,0.013523,0.002678,0.000431,0.012340
12034000,0.0324,0.013523,0.002678,0.000431,0.012811
12035000,0.0324,0.013523,0.002678,0.000431,0.013751
12036000,0.0324,0.013523,0.002678,0.000431,0.013046
12037000,0.0324,0.013523,0.002678,0.000431,0.013046
12038000,0.0324,0.013523,0.002678,0.000431,0.012458
12039000,0.0324,0.013523,0.002678,0.000431,0.012811
12040000,0.0324,0.013523,0.002678,0.000431,0.012928
12041000,0.0324,0.013523,0.002678,0.000431,0.012928
12042000,0.0324,0.013523,0.002678,0.000431,0.012811
12043000,0.0324,0.013523,0.002678,0.000431,0.013633
12044000,0.0324,0.013523,0.002678,0.000431,0.011988
12045000,0.0324,0.013523,0.002678,0.000431,0.013281
12046000,0.0324,0.013523,0.002678,0.000431,0.015044
12047000,0.0324,0.013523,0.002678,0.000431,0.012458
12048000,0.0324,0.013523,0.002678,0.000431,0.013163
12049000,0.0324,0.013523,0.002678,0.000431,0.013163
12050000,0.0324,0.013523,0.002678,0.000431,0.012576
12051000,0.0324,0.013523,0.002678,0.000431,0.013046
12052000,0.0324,0.013523,0.002678,0.000431,0.012693
12053000,0.0324,0.013523,0.002678,0.000431,0.013398
12054000,0.0324,0.013523,0.002678,0.000431,0.012693
12055000,0.0324,0.013523,0.002678,0.000431,0.011988
12056000,0.0324,0.013523,0.002678,0.000431,0.014221
12057000,0.0324,0.013523,0.002678,0.000431,0.012928
12058000,0.0324,0.013523,0.002678,0.000431,0.013281
12059000,0.0324,0.013523,0.002678,0.000431,0.013281
12060000,0.0324,0.013523,0.002678,0.000431,0.013046
12061000,0.0324,0.013523,0.002678,0.000431,0.013516
12062000,0.0324,0.013523,0.002678,0.000431,0.012223
12063000,0.0324,0.013523,0.002678,0.000431,0.012928
12064000,0.0324,0.013523,0.002678,0.000431,0.012458
12065000,0.0324,0.013523,0.002678,0.000431,0.013868
12066000,0.0324,0.013523,0.002678,0.000431,0.013516
12067000,0.0324,0.013523,0.002678,0.000431,0.013516
12068000,0.0324,0.013523,0.002678,0.000431,0.012693
12069000,0.0324,0.013523,0.002678,0.000431,0.012340
12070000,0.0324,0.013523,0.002678,0.000431,0.012340
12071000,0.0324,0.013523,0.002678,0.000431,0.012928
12072000,0.0324,0.013523,0.002678,0.000431,0.013163
12073000,0.0324,0.013523,0.002678,0.000431,0.013281
12074000,0.0324,0.013523,0.002678,0.000431,0.012458
12075000,0.0324,0.013523,0.002678,0.000431,0.013163
12076000,0.0324,0.013523,0.002678,0.000431,0.013868
12077000,0.0324,0.013523,0.002678,0.000431,0.012811
12078000,0.0324,0.013523,0.002678,0.000431,0.013046
12079000,0.0324,0.013523,0.002678,0.000431,0.013398
12080000,0.0324,0.013523,0.002678,0.000431,0.012340
12081000,0.0324,0.013523,0.002678,0.000431,0.012576
12082000,0.0324,0.013523,0.002678,0.000431,0.013281
12083000,0.0324,0.013523,0.002678,0.000431,0.014338
12084000,0.0324,0.013523,0.002678,0.000431,0.012811
12085000,0.0324,0.013523,0.002678,0.000431,0.013398
12086000,0.0324,0.013523,0.002678,0.000431,0.013398
12087000,0.0324,0.013523,0.002678,0.000431,0.013163
12088000,0.0324,0.013523,0.002678,0.000431,0.012458
12089000,0.0324,0.013523,0.002678,0.000431,0.013633
12090000,0.0324,0.013523,0.002678,0.000431,0.011988
12091000,0.0324,0.013523,0.002678,0.000431,0.014103
12092000,0.0324,0.013523,0.002678,0.000431,0.013398
12093000,0.0324,0.013523,0.002678,0.000431,0.012340
12094000,0.0324,0.013523,0.002678,0.000431,0.013751
12095000,0.0324,0.013523,0.002678,0.000431,0.013633
12096000,0.0324,0.013523,0.002678,0.000431,0.013046
12097000,0.0324,0.013523,0.002678,0.000431,0.013398
12098000,0.0324,0.013523,0.002678,0.000431,0.013398
12099000,0.0324,0.013523,0.002678,0.000431,0.013516
12100000,0.0324,0.013523,0.002678,0.000431,0.012811
12101000,0.0324,0.013523,0.002678,0.000431,0.012576
12102000,0.0324,0.013523,0.002678,0.000431,0.013633
12103000,0.0324,0.013523,0.002678,0.000431,0.012223
12104000,0.0324,0.013523,0.002678,0.000431,0.013398
12105000,0.0324,0.013523,0.002678,0.000431,0.014221
12106000,0.0324,0.013523,0.002678,0.000431,0.012576
12107000,0.0324,0.013523,0.002678,0.000431,0.011635
12108000,0.0324,0.013523,0.002678,0.000431,0.012105
12109000,0.0324,0.013523,0.002678,0.000431,0.013516
12110000,0.0324,0.013523,0.002678,0.000431,0.011870
12111000,0.0324,0.013523,0.002678,0.000431,0.012693
12112000,0.0324,0.013523,0.002678,0.000431,0.011635
12113000,0.0324,0.013523,0.002678,0.000431,0.011283
12114000,0.0324,0.013523,0.002678,0.000431,0.012811
12115000,0.0324,0.013523,0.002678,0.000431,0.012340
12116000,0.0324,0.013523,0.002678,0.000431,0.012693
12117000,0.0324,0.013523,0.002678,0.000431,0.011165
12118000,0.0324,0.013523,0.002678,0.000431,0.011753
12119000,0.0324,0.013523,0.002678,0.000431,0.011870
12120000,0.0324,0.013523,0.002678,0.000431,0.012223
12121000,0.0324,0.013523,0.002678,0.000431,0.012340
12122000,0.0324,0.013523,0.002678,0.000431,0.012340
12123000,0.0324,0.013523,0.002678,0.000431,0.011283
12124000,0.0324,0.013523,0.002678,0.000431,0.012576
12125000,0.0324,0.013523,0.002678,0.000431,0.011635
12126000,0.0324,0.013523,0.002678,0.000431,0.012811
12127000,0.0324,0.013523,0.002678,0.000431,0.011988
12128000,0.0324,0.013523,0.002678,0.000431,0.012223
12129000,0.0324,0.013523,0.002678,0.000431,0.013163
12130000,0.0324,0.013523,0.002678,0.000431,0.011988
12131000,0.0324,0.013523,0.002678,0.000431,0.011165
12132000,0.0324,0.013523,0.002678,0.000431,0.012693
12133000,0.0324,0.013523,0.002678,0.000431,0.012811
12134000,0.0324,0.013523,0.002678,0.000431,0.011870
12135000,0.0324,0.013523,0.002678,0.000431,0.012223
12136000,0.0324,0.013523,0.002678,0.000431,0.013046
12137000,0.0324,0.013523,0.002678,0.000431,0.012340
12138000,0.0324,0.013523,0.002678,0.000431,0.012105
12139000,0.0324,0.013523,0.002678,0.000431,0.014691
12140000,0.0324,0.013523,0.002678,0.000431,0.010578
12141000,0.0324,0.013523,0.002678,0.000431,0.012458
12142000,0.0324,0.013523,0.002678,0.000431,0.013281
12143000,0.0324,0.013523,0.002678,0.000431,0.012693
12144000,0.0324,0.013523,0.002678,0.000431,0.012340
12145000,0.0324,0.013523,0.002678,0.000431,0.012105
12146000,0.0324,0.013523,0.002678,0.000431,0.012340
12147000,0.0324,0.013523,0.002678,0.000431,0.012693
12148000,0.0324,0.013523,0.002678,0.000431,0.012340
12149000,0.0324,0.013523,0.002678,0.000431,0.012458
12150000,0.0324,0.013523,0.002678,0.000431,0.010342
12151000,0.0324,0.013523,0.002678,0.000431,0.012693
12152000,0.0324,0.013523,0.002678,0.000431,0.013046
12153000,0.0324,0.013523,0.002678,0.000431,0.011283
12154000,0.0324,0.013523,0.002678,0.000431,0.013281
12155000,0.0324,0.013523,0.002678,0.000431,0.012693
12156000,0.0324,0.013523,0.002678,0.000431,0.011753
12157000,0.0324,0.013523,0.002678,0.000431,0.012340
12158000,0.0324,0.013523,0.002678,0.000431,0.013281
12159000,0.0324,0.013523,0.002678,0.000431,0.013046
12160000,0.0324,0.013523,0.002678,0.000431,0.011753
12161000,0.0324,0.013523,0.002678,0.000431,0.012223
12162000,0.0324,0.013523,0.002678,0.000431,0.011988
12163000,0.0324,0.013523,0.002678,0.000431,0.012223
12164000,0.0324,0.013523,0.002678,0.000431,0.012928
12165000,0.0324,0.013523,0.002678,0.000431,0.012576
12166000,0.0324,0.013523,0.002678,0.000431,0.011753
12167000,0.0324,0.013523,0.002678,0.000431,0.011753
12168000,0.0324,0.013523,0.002678,0.000431,0.013516
12169000,0.0324,0.013523,0.002678,0.000431,0.013516
12170000,0.0324,0.013523,0.002678,0.000431,0.011635
12171000,0.0324,0.013523,0.002678,0.000431,0.012693
12172000,0.0324,0.013523,0.002678,0.000431,0.012811
12173000,0.0324,0.013523,0.002678,0.000431,0.010578
12174000,0.0324,0.013523,0.002678,0.000431,0.013281
12175000,0.0324,0.013523,0.002678,0.000431,0.012223
12176000,0.0324,0.013523,0.002678,0.000431,0.012458
12177000,0.0324,0.013523,0.002678,0.000431,0.012576
12178000,0.0324,0.013523,0.002678,0.000431,0.011283
12179000,0.0324,0.013523,0.002678,0.000431,0.011753
12180000,0.0324,0.013523,0.002678,0.000431,0.012223
12181000,0.0324,0.013523,0.002678,0.000431,0.012811
12182000,0.0324,0.013523,0.002678,0.000431,0.012928
12183000,0.0324,0.013523,0.002678,0.000431,0.012223
12184000,0.0324,0.013523,0.002678,0.000431,0.012693
12185000,0.0324,0.013523,0.002678,0.000431,0.013398
12186000,0.0324,0.013523,0.002678,0.000431,0.010225
12187000,0.0324,0.013523,0.002678,0.000431,0.012928
12188000,0.0324,0.013523,0.002678,0.000431,0.012340
12189000,0.0324,0.013523,0.002678,0.000431,0.013516
12190000,0.0324,0.013523,0.002678,0.000431,0.011988
12191000,0.0324,0.013523,0.002678,0.000431,0.012811
12192000,0.0324,0.013523,0.002678,0.000431,0.012693
12193000,0.0324,0.013523,0.002678,0.000431,0.011400
12194000,0.0324,0.013523,0.002678,0.000431,0.013398
12195000,0.0324,0.013523,0.002678,0.000431,0.012458
12196000,0.0324,0.013523,0.002678,0.000431,0.012105
12197000,0.0324,0.013523,0.002678,0.000431,0.011400
12198000,0.0324,0.013523,0.002678,0.000431,0.013398
12199000,0.0324,0.013523,0.002678,0.000431,0.012105
12200000,0.0324,0.013523,0.002678,0.000431,0.012693
12201000,0.0324,0.013523,0.002678,0.000431,0.012223
12202000,0.0324,0.013523,0.002678,0.000431,0.012223
12203000,0.0324,0.013523,0.002678,0.000431,0.012223
12204000,0.0324,0.013523,0.002678,0.000431,0.012340
12205000,0.0324,0.013523,0.002678,0.000431,0.011518
12206000,0.0324,0.013523,0.002678,0.000431,0.011753
12207000,0.0324,0.013523,0.002678,0.000431,0.013281
12208000,0.0324,0.013523,0.002678,0.000431,0.012928
12209000,0.0324,0.013523,0.002678,0.000431,0.012105
12210000,0.0324,0.013523,0.002678,0.000431,0.013046
12211000,0.0324,0.013523,0.002678,0.000431,0.012340
12212000,0.0324,0.013523,0.002678,0.000431,0.011870
12213000,0.0324,0.013523,0.002678,0.000431,0.012576
12214000,0.0324,0.013523,0.002678,0.000431,0.011048
12215000,0.0324,0.013523,0.002678,0.000431,0.012811
12216000,0.0324,0.013523,0.002678,0.000431,0.012693
12217000,0.0324,0.013523,0.002678,0.000431,0.013516
12218000,0.0324,0.013523,0.002678,0.000431,0.012928
12219000,0.0324,0.013523,0.002678,0.000431,0.011518
12220000,0.0324,0.013523,0.002678,0.000431,0.009637
12221000,0.0324,0.013523,0.002678,0.000431,0.013281
12222000,0.0324,0.013523,0.002678,0.000431,0.012928
12223000,0.0324,0.013523,0.002678,0.000431,0.011988
12224000,0.0324,0.013523,0.002678,0.000431,0.013046
12225000,0.0324,0.013523,0.002678,0.000431,0.013281
12226000,0.0324,0.013523,0.002678,0.000431,0.010695
12227000,0.0324,0.013523,0.002678,0.000431,0.012811
12228000,0.0324,0.013523,0.002678,0.000431,0.013163
12229000,0.0324,0.013523,0.002678,0.000431,0.012340
12230000,0.0324,0.013523,0.002678,0.000431,0.011400
12231000,0.0324,0.013523,0.002678,0.000431,0.012576
12232000,0.0324,0.013523,0.002678,0.000431,0.012576
12233000,0.0324,0.013523,0.002678,0.000431,0.012576
12234000,0.0324,0.013523,0.002678,0.000431,0.013281
12235000,0.0324,0.013523,0.002678,0.000431,0.012340
12236000,0.0324,0.013523,0.002678,0.000431,0.011753
12237000,0.0324,0.013523,0.002678,0.000431,0.011753
12238000,0.0324,0.013523,0.002678,0.000431,0.012223
12239000,0.0324,0.013523,0.002678,0.000431,0.011988
12240000,0.0324,0.013523,0.002678,0.000431,0.011870
12241000,0.0324,0.013523,0.002678,0.000431,0.011870
12242000,0.0324,0.013523,0.002678,0.000431,0.013398
12243000,0.0324,0.013523,0.002678,0.000431,0.012105
12244000,0.0324,0.013523,0.002678,0.000431,0.012223
12245000,0.0324,0.013523,0.002678,0.000431,0.012458
12246000,0.0324,0.013523,0.002678,0.000431,0.011870
12247000,0.0324,0.013523,0.002678,0.000431,0.012105
12248000,0.0324,0.013523,0.002678,0.000431,0.012811
12249000,0.0324,0.013523,0.002678,0.000431,0.012693
12250000,0.0324,0.013523,0.002678,0.000431,0.010930
12251000,0.0324,0.013523,0.002678,0.000431,0.011753
12252000,0.0324,0.013523,0.002678,0.000431,0.012928
12253000,0.0324,0.013523,0.002678,0.000431,0.013046
12254000,0.0324,0.013523,0.002678,0.000431,0.013281
12255000,0.0324,0.013523,0.002678,0.000431,0.011988
12256000,0.0324,0.013523,0.002678,0.000431,0.011165
12257000,0.0324,0.013523,0.002678,0.000431,0.013398
12258000,0.0324,0.013523,0.002678,0.000431,0.012693
12259000,0.0324,0.013523,0.002678,0.000431,0.011635
12260000,0.0324,0.013523,0.002678,0.000431,0.011870
12261000,0.0324,0.013523,0.002678,0.000431,0.011165
12262000,0.0324,0.013523,0.002678,0.000431,0.013281
12263000,0.0324,0.013523,0.002678,0.000431,0.011753
12264000,0.0324,0.013523,0.002678,0.000431,0.012458
12265000,0.0324,0.013523,0.002678,0.000431,0.012458
12266000,0.0324,0.013523,0.002678,0.000431,0.011048
12267000,0.0324,0.013523,0.002678,0.000431,0.011753
12268000,0.0324,0.013523,0.002678,0.000431,0.013163
12269000,0.0324,0.013523,0.002678,0.000431,0.011400
12270000,0.0324,0.013523,0.002678,0.000431,0.012576
12271000,0.0324,0.013523,0.002678,0.000431,0.013046
12272000,0.0324,0.013523,0.002678,0.000431,0.012223
12273000,0.0324,0.013523,0.002678,0.000431,0.012223
12274000,0.0324,0.013523,0.002678,0.000431,0.011988
12275000,0.0324,0.013523,0.002678,0.000431,0.013046
12276000,0.0324,0.013523,0.002678,0.000431,0.011635
12277000,0.0324,0.013523,0.002678,0.000431,0.013163
12278000,0.0324,0.013523,0.002678,0.000431,0.012340
12279000,0.0324,0.013523,0.002678,0.000431,0.011048
12280000,0.0324,0.013523,0.002678,0.000431,0.011870
12281000,0.0324,0.013523,0.002678,0.000431,0.013633
12282000,0.0324,0.013523,0.002678,0.000431,0.012340
12283000,0.0324,0.013523,0.002678,0.000431,0.012340
12284000,0.0324,0.013523,0.002678,0.000431,0.012458
12285000,0.0324,0.013523,0.002678,0.000431,0.012928
12286000,0.0324,0.013523,0.002678,0.000431,0.011753
12287000,0.0324,0.013523,0.002678,0.000431,0.012576
12288000,0.0324,0.013523,0.002678,0.000431,0.013281
12289000,0.0324,0.013523,0.002678,0.000431,0.012811
12290000,0.0324,0.013523,0.002678,0.000431,0.011988
12291000,0.0324,0.013523,0.002678,0.000431,0.012928
12292000,0.0324,0.013523,0.002678,0.000431,0.012340
12293000,0.0324,0.013523,0.002678,0.000431,0.013281
12294000,0.0324,0.013523,0.002678,0.000431,0.012576
12295000,0.0324,0.013523,0.002678,0.000431,0.012223
12296000,0.0324,0.013523,0.002678,0.000431,0.012576
12297000,0.0324,0.013523,0.002678,0.000431,0.012693
12298000,0.0324,0.013523,0.002678,0.000431,0.011870
12299000,0.0324,0.013523,0.002678,0.000431,0.011870
12300000,0.0324,0.013523,0.002678,0.000431,0.011988
12301000,0.0324,0.013523,0.002678,0.000431,0.013516
12302000,0.0324,0.013523,0.002678,0.000431,0.011518
12303000,0.0324,0.013523,0.002678,0.000431,0.013281
12304000,0.0324,0.013523,0.002678,0.000431,0.013281
12305000,0.0324,0.013523,0.002678,0.000431,0.011635
12306000,0.0324,0.013523,0.002678,0.000431,0.013868
12307000,0.0324,0.013523,0.002678,0.000431,0.011988
12308000,0.0324,0.013523,0.002678,0.000431,0.012223
12309000,0.0324,0.013523,0.002678,0.000431,0.012223
12310000,0.0324,0.013523,0.002678,0.000431,0.012928
12311000,0.0324,0.013523,0.002678,0.000431,0.012105
12312000,0.0324,0.013523,0.002678,0.000431,0.012340
12313000,0.0324,0.013523,0.002678,0.000431,0.012105
12314000,0.0324,0.013523,0.002678,0.000431,0.012811
12315000,0.0324,0.013523,0.002678,0.000431,0.010813
12316000,0.0324,0.013523,0.002678,0.000431,0.012928
12317000,0.0324,0.013523,0.002678,0.000431,0.011400
12318000,0.0324,0.013523,0.002678,0.000431,0.012105
12319000,0.0324,0.013523,0.002678,0.000431,0.012693
12320000,0.0324,0.013523,0.002678,0.000431,0.011518
12321000,0.0324,0.013523,0.002678,0.000431,0.013516
12322000,0.0324,0.013523,0.002678,0.000431,0.011988
12323000,0.0324,0.013523,0.002678,0.000431,0.011988
12324000,0.0324,0.013523,0.002678,0.000431,0.013281
12325000,0.0324,0.013523,0.002678,0.000431,0.012811
12326000,0.0324,0.013523,0.002678,0.000431,0.012811
12327000,0.0324,0.013523,0.002678,0.000431,0.013516
12328000,0.0324,0.013523,0.002678,0.000431,0.012105
12329000,0.0324,0.013523,0.002678,0.000431,0.011048
12330000,0.0324,0.013523,0.002678,0.000431,0.013516
12331000,0.0324,0.013523,0.002678,0.000431,0.011400
12332000,0.0324,0.013523,0.002678,0.000431,0.012458
12333000,0.0324,0.013523,0.002678,0.000431,0.013281
12334000,0.0324,0.013523,0.002678,0.000431,0.013281
12335000,0.0324,0.013523,0.002678,0.000431,0.011635
12336000,0.0324,0.013523,0.002678,0.000431,0.012458
12337000,0.0324,0.013523,0.002678,0.000431,0.013046
12338000,0.0324,0.013523,0.002678,0.000431,0.012576
12339000,0.0324,0.013523,0.002678,0.000431,0.012223
12340000,0.0324,0.013523,0.002678,0.000431,0.012693
12341000,0.0324,0.013523,0.002678,0.000431,0.011518
12342000,0.0324,0.013523,0.002678,0.000431,0.012105
12343000,0.0324,0.013523,0.002678,0.000431,0.012458
12344000,0.0324,0.013523,0.002678,0.000431,0.012928
12345000,0.0324,0.013523,0.002678,0.000431,0.012811
12346000,0.0324,0.013523,0.002678,0.000431,0.011400
12347000,0.0324,0.013523,0.002678,0.000431,0.012693
12348000,0.0324,0.013523,0.002678,0.000431,0.011753
12349000,0.0324,0.013523,0.002678,0.000431,0.011400
12350000,0.0324,0.013523,0.002678,0.000431,0.012223
12351000,0.0324,0.013523,0.002678,0.000431,0.011870
12352000,0.0324,0.013523,0.002678,0.000431,0.012928
12353000,0.0324,0.013523,0.002678,0.000431,0.011518
12354000,0.0324,0.013523,0.002678,0.000431,0.012693
12355000,0.0324,0.013523,0.002678,0.000431,0.011753
12356000,0.0324,0.013523,0.002678,0.000431,0.012693
12357000,0.0324,0.013523,0.002678,0.000431,0.013281
12358000,0.0324,0.013523,0.002678,0.000431,0.011870
12359000,0.0324,0.013523,0.002678,0.000431,0.012105
12360000,0.0324,0.013523,0.002678,0.000431,0.012105
12361000,0.0324,0.013523,0.002678,0.000431,0.012223
12362000,0.0324,0.013523,0.002678,0.000431,0.012223
12363000,0.0324,0.013523,0.002678,0.000431,0.013516
12364000,0.0324,0.013523,0.002678,0.000431,0.011283
12365000,0.0324,0.013523,0.002678,0.000431,0.012576
12366000,0.0324,0.013523,0.002678,0.000431,0.011518
12367000,0.0324,0.013523,0.002678,0.000431,0.012223
12368000,0.0324,0.013523,0.002678,0.000431,0.010930
12369000,0.0324,0.013523,0.002678,0.000431,0.010930
12370000,0.0324,0.013523,0.002678,0.000431,0.012340
12371000,0.0324,0.013523,0.002678,0.000431,0.011048
12372000,0.0324,0.013523,0.002678,0.000431,0.011165
12373000,0.0324,0.013523,0.002678,0.000431,0.012105
12374000,0.0324,0.013523,0.002678,0.000431,0.011048
12375000,0.0324,0.013523,0.002678,0.000431,0.011753
12376000,0.0324,0.013523,0.002678,0.000431,0.011753
12377000,0.0324,0.013523,0.002678,0.000431,0.011165
12378000,0.0324,0.013523,0.002678,0.000431,0.011635
12379000,0.0324,0.013523,0.002678,0.000431,0.012458
12380000,0.0324,0.013523,0.002678,0.000431,0.013163
12381000,0.0324,0.013523,0.002678,0.000431,0.010930
12382000,0.0324,0.013523,0.002678,0.000431,0.012811
12383000,0.0324,0.013523,0.002678,0.000431,0.010813
12384000,0.0324,0.013523,0.002678,0.000431,0.011635
12385000,0.0324,0.013523,0.002678,0.000431,0.012928
12386000,0.0324,0.013523,0.002678,0.000431,0.011870
12387000,0.0324,0.013523,0.002678,0.000431,0.010813
12388000,0.0324,0.013523,0.002678,0.000431,0.012693
12389000,0.0324,0.013523,0.002678,0.000431,0.011518
12390000,0.0324,0.013523,0.002678,0.000431,0.012576
12391000,0.0324,0.013523,0.002678,0.000431,0.010578
12392000,0.0324,0.013523,0.002678,0.000431,0.011400
12393000,0.0324,0.013523,0.002678,0.000431,0.012340
12394000,0.0324,0.013523,0.002678,0.000431,0.010460
12395000,0.0324,0.013523,0.002678,0.000431,0.010930
12396000,0.0324,0.013523,0.002678,0.000431,0.011400
12397000,0.0324,0.013523,0.002678,0.000431,0.012458
12398000,0.0324,0.013523,0.002678,0.000431,0.011753
12399000,0.0324,0.013523,0.002678,0.000431,0.011988
12400000,0.0324,0.013523,0.002678,0.000431,0.012458
12401000,0.0324,0.013523,0.002678,0.000431,0.012576
12402000,0.0324,0.013523,0.002678,0.000431,0.012223
12403000,0.0324,0.013523,0.002678,0.000431,0.011870
12404000,0.0324,0.013523,0.002678,0.000431,0.011635
12405000,0.0324,0.013523,0.002678,0.000431,0.011400
12406000,0.0324,0.013523,0.002678,0.000431,0.011283
12407000,0.0324,0.013523,0.002678,0.000431,0.013868
12408000,0.0324,0.013523,0.002678,0.000431,0.011753
12409000,0.0324,0.013523,0.002678,0.000431,0.011165
12410000,0.0324,0.013523,0.002678,0.000431,0.011988
12411000,0.0324,0.013523,0.002678,0.000431,0.012223
12412000,0.0324,0.013523,0.002678,0.000431,0.012693
12413000,0.0324,0.013523,0.002678,0.000431,0.012340
12414000,0.0324,0.013523,0.002678,0.000431,0.011988
12415000,0.0324,0.013523,0.002678,0.000431,0.011635
12416000,0.0324,0.013523,0.002678,0.000431,0.011635
12417000,0.0324,0.013523,0.002678,0.000431,0.011048
12418000,0.0324,0.013523,0.002678,0.000431,0.012223
12419000,0.0324,0.013523,0.002678,0.000431,0.011870
12420000,0.0324,0.013523,0.002678,0.000431,0.011988
12421000,0.0324,0.013523,0.002678,0.000431,0.011518
12422000,0.0324,0.013523,0.002678,0.000431,0.013281
12423000,0.0324,0.013523,0.002678,0.000431,0.012105
12424000,0.0324,0.013523,0.002678,0.000431,0.009990
12425000,0.0324,0.013523,0.002678,0.000431,0.011988
12426000,0.0324,0.013523,0.002678,0.000431,0.011870
12427000,0.0324,0.013523,0.002678,0.000431,0.012458
12428000,0.0324,0.013523,0.002678,0.000431,0.012223
12429000,0.0324,0.013523,0.002678,0.000431,0.012576
12430000,0.0324,0.013523,0.002678,0.000431,0.013281
12431000,0.0324,0.013523,0.002678,0.000431,0.011048
12432000,0.0324,0.013523,0.002678,0.000431,0.012458
12433000,0.0324,0.013523,0.002678,0.000431,0.011048
12434000,0.0324,0.013523,0.002678,0.000431,0.011165
12435000,0.0324,0.013523,0.002678,0.000431,0.011988
12436000,0.0324,0.013523,0.002678,0.000431,0.013163
12437000,0.0324,0.013523,0.002678,0.000431,0.011048
12438000,0.0324,0.013523,0.002678,0.000431,0.011400
12439000,0.0324,0.013523,0.002678,0.000431,0.012458
12440000,0.0324,0.013523,0.002678,0.000431,0.011518
12441000,0.0324,0.013523,0.002678,0.000431,0.011988
12442000,0.0324,0.013523,0.002678,0.000431,0.012576
12443000,0.0324,0.013523,0.002678,0.000431,0.012223
12444000,0.0324,0.013523,0.002678,0.000431,0.010813
12445000,0.0324,0.013523,0.002678,0.000431,0.012928
12446000,0.0324,0.013523,0.002678,0.000431,0.013163
12447000,0.0324,0.013523,0.002678,0.000431,0.009520
12448000,0.0324,0.013523,0.002678,0.000431,0.011870
12449000,0.0324,0.013523,0.002678,0.000431,0.011753
12450000,0.0324,0.013523,0.002678,0.000431,0.011165
12451000,0.0324,0.013523,0.002678,0.000431,0.010930
12452000,0.0324,0.013523,0.002678,0.000431,0.011400
12453000,0.0324,0.013523,0.002678,0.000431,0.011283
12454000,0.0324,0.013523,0.002678,0.000431,0.010225
12455000,0.0324,0.013523,0.002678,0.000431,0.011988
12456000,0.0324,0.013523,0.002678,0.000431,0.011048
12457000,0.0324,0.013523,0.002678,0.000431,0.010930
12458000,0.0324,0.013523,0.002678,0.000431,0.010813
12459000,0.0324,0.013523,0.002678,0.000431,0.011400
12460000,0.0324,0.013523,0.002678,0.000431,0.011518
12461000,0.0324,0.013523,0.002678,0.000431,0.010930
12462000,0.0324,0.013523,0.002678,0.000431,0.011283
12463000,0.0324,0.013523,0.002678,0.000431,0.011048
12464000,0.0324,0.013523,0.002678,0.000431,0.011048
12465000,0.0324,0.013523,0.002678,0.000431,0.010460
12466000,0.0324,0.013523,0.002678,0.000431,0.011870
12467000,0.0324,0.013523,0.002678,0.000431,0.010460
12468000,0.0324,0.013523,0.002678,0.000431,0.010813
12469000,0.0324,0.013523,0.002678,0.000431,0.011400
12470000,0.0324,0.013523,0.002678,0.000431,0.010930
12471000,0.0324,0.013523,0.002678,0.000431,0.011165
12472000,0.0324,0.013523,0.002678,0.000431,0.009872
12473000,0.0324,0.013523,0.002678,0.000431,0.011165
12474000,0.0324,0.013523,0.002678,0.000431,0.010578
12475000,0.0324,0.013523,0.002678,0.000431,0.011635
12476000,0.0324,0.013523,0.002678,0.000431,0.011753
12477000,0.0324,0.013523,0.002678,0.000431,0.010695
12478000,0.0324,0.013523,0.002678,0.000431,0.011283
12479000,0.0324,0.013523,0.002678,0.000431,0.012105
12480000,0.0324,0.013523,0.002678,0.000431,0.011635
12481000,0.0324,0.013523,0.002678,0.000431,0.010107
12482000,0.0324,0.013523,0.002678,0.000431,0.011518
12483000,0.0324,0.013523,0.002678,0.000431,0.010695
12484000,0.0324,0.013523,0.002678,0.000431,0.012576
12485000,0.0324,0.013523,0.002678,0.000431,0.012105
12486000,0.0324,0.013523,0.002678,0.000431,0.011048
12487000,0.0324,0.013523,0.002678,0.000431,0.011165
12488000,0.0324,0.013523,0.002678,0.000431,0.010813
12489000,0.0324,0.013523,0.002678,0.000431,0.011753
12490000,0.0324,0.013523,0.002678,0.000431,0.010813
12491000,0.0324,0.013523,0.002678,0.000431,0.011165
12492000,0.0324,0.013523,0.002678,0.000431,0.010813
12493000,0.0324,0.013523,0.002678,0.000431,0.010342
12494000,0.0324,0.013523,0.002678,0.000431,0.010695
12495000,0.0324,0.013523,0.002678,0.000431,0.010813
12496000,0.0324,0.013523,0.002678,0.000431,0.012223
12497000,0.0324,0.013523,0.002678,0.000431,0.010813
12498000,0.0324,0.013523,0.002678,0.000431,0.010813
12499000,0.0324,0.013523,0.002678,0.000431,0.011283
12500000,0.0324,0.013523,0.002678,0.000431,0.012458
12501000,0.0324,0.013523,0.002678,0.000431,0.011870
12502000,0.0324,0.013523,0.002678,0.000431,0.011635
12503000,0.0324,0.013523,0.002678,0.000431,0.010578
12504000,0.0324,0.013523,0.002678,0.000431,0.011518
12505000,0.0324,0.013523,0.002678,0.000431,0.010107
12506000,0.0324,0.013523,0.002678,0.000431,0.010930
12507000,0.0324,0.013523,0.002678,0.000431,0.011518
12508000,0.0324,0.013523,0.002678,0.000431,0.010342
12509000,0.0324,0.013523,0.002678,0.000431,0.011753
12510000,0.0324,0.013523,0.002678,0.000431,0.011165
12511000,0.0324,0.013523,0.002678,0.000431,0.011283
12512000,0.0324,0.013523,0.002678,0.000431,0.010225
12513000,0.0324,0.013523,0.002678,0.000431,0.009520
12514000,0.0324,0.013523,0.002678,0.000431,0.010813
12515000,0.0324,0.013523,0.002678,0.000431,0.011048
12516000,0.0324,0.013523,0.002678,0.000431,0.009990
12517000,0.0324,0.013523,0.002678,0.000431,0.011518
12518000,0.0324,0.013523,0.002678,0.000431,0.010930
12519000,0.0324,0.013523,0.002678,0.000431,0.011283
12520000,0.0324,0.013523,0.002678,0.000431,0.010342
12521000,0.0324,0.013523,0.002678,0.000431,0.010578
12522000,0.0324,0.013523,0.002678,0.000431,0.011518
12523000,0.0324,0.013523,0.002678,0.000431,0.010813
12524000,0.0324,0.013523,0.002678,0.000431,0.011518
12525000,0.0324,0.013523,0.002678,0.000431,0.010930
12526000,0.0324,0.013523,0.002678,0.000431,0.011165
12527000,0.0324,0.013523,0.002678,0.000431,0.011165
12528000,0.0324,0.013523,0.002678,0.000431,0.011400
12529000,0.0324,0.013523,0.002678,0.000431,0.011753
12530000,0.0324,0.013523,0.002678,0.000431,0.009872
12531000,0.0324,0.013523,0.002678,0.000431,0.011400
12532000,0.0324,0.013523,0.002678,0.000431,0.011635
12533000,0.0324,0.013523,0.002678,0.000431,0.011165
12534000,0.0324,0.013523,0.002678,0.000431,0.010930
12535000,0.0324,0.013523,0.002678,0.000431,0.010813
12536000,0.0324,0.013523,0.002678,0.000431,0.010695
12537000,0.0324,0.013523,0.002678,0.000431,0.011753
12538000,0.0324,0.013523,0.002678,0.000431,0.011283
12539000,0.0324,0.013523,0.002678,0.000431,0.011165
12540000,0.0324,0.013523,0.002678,0.000431,0.011400
12541000,0.0324,0.013523,0.002678,0.000431,0.010813
12542000,0.0324,0.013523,0.002678,0.000431,0.011048
12543000,0.0324,0.013523,0.002678,0.000431,0.010578
12544000,0.0324,0.013523,0.002678,0.000431,0.011870
12545000,0.0324,0.013523,0.002678,0.000431,0.012223
12546000,0.0324,0.013523,0.002678,0.000431,0.011400
12547000,0.0324,0.013523,0.002678,0.000431,0.011400
12548000,0.0324,0.013523,0.002678,0.000431,0.012105
12549000,0.0324,0.013523,0.002678,0.000431,0.010460
12550000,0.0324,0.013523,0.002678,0.000431,0.012105
12551000,0.0324,0.013523,0.002678,0.000431,0.011165
12552000,0.0324,0.013523,0.002678,0.000431,0.011753
12553000,0.0324,0.013523,0.002678,0.000431,0.011753
12554000,0.0324,0.013523,0.002678,0.000431,0.012223
12555000,0.0324,0.013523,0.002678,0.000431,0.011635
12556000,0.0324,0.013523,0.002678,0.000431,0.011753
12557000,0.0324,0.013523,0.002678,0.000431,0.011635
12558000,0.0324,0.013523,0.002678,0.000431,0.011753
12559000,0.0324,0.013523,0.002678,0.000431,0.011165
12560000,0.0324,0.013523,0.002678,0.000431,0.010578
12561000,0.0324,0.013523,0.002678,0.000431,0.011165
12562000,0.0324,0.013523,0.002678,0.000431,0.012223
12563000,0.0324,0.013523,0.002678,0.000431,0.009755
12564000,0.0324,0.013523,0.002678,0.000431,0.010930
12565000,0.0324,0.013523,0.002678,0.000431,0.012340
12566000,0.0324,0.013523,0.002678,0.000431,0.010813
12567000,0.0324,0.013523,0.002678,0.000431,0.011518
12568000,0.0324,0.013523,0.002678,0.000431,0.011635
12569000,0.0324,0.013523,0.002678,0.000431,0.011048
12570000,0.0324,0.013523,0.002678,0.000431,0.011400
12571000,0.0324,0.013523,0.002678,0.000431,0.011518
12572000,0.0324,0.013523,0.002678,0.000431,0.011400
12573000,0.0324,0.013523,0.002678,0.000431,0.010813
12574000,0.0324,0.013523,0.002678,0.000431,0.011048
12575000,0.0324,0.013523,0.002678,0.000431,0.011283
12576000,0.0324,0.013523,0.002678,0.000431,0.011165
12577000,0.0324,0.013523,0.002678,0.000431,0.011283
12578000,0.0324,0.013523,0.002678,0.000431,0.011988
12579000,0.0324,0.013523,0.002678,0.000431,0.011753
12580000,0.0324,0.013523,0.002678,0.000431,0.010813
12581000,0.0324,0.013523,0.002678,0.000431,0.010930
12582000,0.0324,0.013523,0.002678,0.000431,0.011753
12583000,0.0324,0.013523,0.002678,0.000431,0.010578
12584000,0.0324,0.013523,0.002678,0.000431,0.011283
12585000,0.0324,0.013523,0.002678,0.000431,0.011518
12586000,0.0324,0.013523,0.002678,0.000431,0.011048
12587000,0.0324,0.013523,0.002678,0.000431,0.011400
12588000,0.0324,0.013523,0.002678,0.000431,0.011518
12589000,0.0324,0.013523,0.002678,0.000431,0.010225
12590000,0.0324,0.013523,0.002678,0.000431,0.011753
12591000,0.0324,0.013523,0.002678,0.000431,0.011518
12592000,0.0324,0.013523,0.002678,0.000431,0.011988
12593000,0.0324,0.013523,0.002678,0.000431,0.009755
12594000,0.0324,0.013523,0.002678,0.000431,0.010930
12595000,0.0324,0.013523,0.002678,0.000431,0.012223
12596000,0.0324,0.013523,0.002678,0.000431,0.011400
12597000,0.0324,0.013523,0.002678,0.000431,0.011518
12598000,0.0324,0.013523,0.002678,0.000431,0.010342
12599000,0.0324,0.013523,0.002678,0.000431,0.011283
12600000,0.0324,0.013523,0.002678,0.000431,0.012340
12601000,0.0324,0.013523,0.002678,0.000431,0.012223
12602000,0.0324,0.013523,0.002678,0.000431,0.010813
12603000,0.0324,0.013523,0.002678,0.000431,0.012105
12604000,0.0324,0.013523,0.002678,0.000431,0.011165
12605000,0.0324,0.013523,0.002678,0.000431,0.010578
12606000,0.0324,0.013523,0.002678,0.000431,0.010695
12607000,0.0324,0.013523,0.002678,0.000431,0.011753
12608000,0.0324,0.013523,0.002678,0.000431,0.011753
12609000,0.0324,0.013523,0.002678,0.000431,0.009637
12610000,0.0324,0.013523,0.002678,0.000431,0.011283
12611000,0.0324,0.013523,0.002678,0.000431,0.012105
12612000,0.0324,0.013523,0.002678,0.000431,0.011283
12613000,0.0324,0.013523,0.002678,0.000431,0.011048
12614000,0.0324,0.013523,0.002678,0.000431,0.010930
12615000,0.0324,0.013523,0.002678,0.000431,0.011870
12616000,0.0324,0.013523,0.002678,0.000431,0.011988
12617000,0.0324,0.013523,0.002678,0.000431,0.012458
12618000,0.0324,0.013523,0.002678,0.000431,0.011400
12619000,0.0324,0.013523,0.002678,0.000431,0.009755
12620000,0.0324,0.013523,0.002678,0.000431,0.010930
12621000,0.0324,0.013523,0.002678,0.000431,0.010578
12622000,0.0324,0.013523,0.002678,0.000431,0.011048
12623000,0.0324,0.013523,0.002678,0.000431,0.011400
12624000,0.0324,0.013523,0.002678,0.000431,0.011635
12625000,0.0324,0.013523,0.002678,0.000431,0.010695
12626000,0.0324,0.013523,0.002678,0.000431,0.011635
12627000,0.0324,0.013523,0.002678,0.000431,0.010813
12628000,0.0324,0.013523,0.002678,0.000431,0.012105
12629000,0.0324,0.013523,0.002678,0.000431,0.010460
12630000,0.0324,0.013523,0.002678,0.000431,0.011283
12631000,0.0324,0.013523,0.002678,0.000431,0.011283
12632000,0.0324,0.013523,0.002678,0.000431,0.009637
12633000,0.0324,0.013523,0.002678,0.000431,0.011870
12634000,0.0324,0.013523,0.002678,0.000431,0.010578
12635000,0.0324,0.013523,0.002678,0.000431,0.010460
12636000,0.0324,0.013523,0.002678,0.000431,0.010930
12637000,0.0324,0.013523,0.002678,0.000431,0.011048
12638000,0.0324,0.013523,0.002678,0.000431,0.010342
12639000,0.0324,0.013523,0.002678,0.000431,0.009872
12640000,0.0324,0.013523,0.002678,0.000431,0.009872
12641000,0.0324,0.013523,0.002678,0.000431,0.010342
12642000,0.0324,0.013523,0.002678,0.000431,0.010225
12643000,0.0324,0.013523,0.002678,0.000431,0.010107
12644000,0.0324,0.013523,0.002678,0.000431,0.009637
12645000,0.0324,0.013523,0.002678,0.000431,0.011400
12646000,0.0324,0.013523,0.002678,0.000431,0.011165
12647000,0.0324,0.013523,0.002678,0.000431,0.009990
12648000,0.0324,0.013523,0.002678,0.000431,0.010578
12649000,0.0324,0.013523,0.002678,0.000431,0.009872
12650000,0.0324,0.013523,0.002678,0.000431,0.009402
12651000,0.0324,0.013523,0.002678,0.000431,0.010460
12652000,0.0324,0.013523,0.002678,0.000431,0.010578
12653000,0.0324,0.013523,0.002678,0.000431,0.010695
12654000,0.0324,0.013523,0.002678,0.000431,0.010225
12655000,0.0324,0.013523,0.002678,0.000431,0.010813
12656000,0.0324,0.013523,0.002678,0.000431,0.011518
12657000,0.0324,0.013523,0.002678,0.000431,0.010225
12658000,0.0324,0.013523,0.002678,0.000431,0.010225
12659000,0.0324,0.013523,0.002678,0.000431,0.009755
12660000,0.0324,0.013523,0.002678,0.000431,0.009872
12661000,0.0324,0.013523,0.002678,0.000431,0.009872
12662000,0.0324,0.013523,0.002678,0.000431,0.009990
12663000,0.0324,0.013523,0.002678,0.000431,0.010225
12664000,0.0324,0.013523,0.002678,0.000431,0.010813
12665000,0.0324,0.013523,0.002678,0.000431,0.009637
12666000,0.0324,0.013523,0.002678,0.000431,0.010930
12667000,0.0324,0.013523,0.002678,0.000431,0.011165
12668000,0.0324,0.013523,0.002678,0.000431,0.009637
12669000,0.0324,0.013523,0.002678,0.000431,0.010225
12670000,0.0324,0.013523,0.002678,0.000431,0.009755
12671000,0.0324,0.013523,0.002678,0.000431,0.010578
12672000,0.0324,0.013523,0.002678,0.000431,0.010107
12673000,0.0324,0.013523,0.002678,0.000431,0.010695
12674000,0.0324,0.013523,0.002678,0.000431,0.010460
12675000,0.0324,0.013523,0.002678,0.000431,0.011400
12676000,0.0324,0.013523,0.002678,0.000431,0.010695
12677000,0.0324,0.013523,0.002678,0.000431,0.010578
12678000,0.0324,0.013523,0.002678,0.000431,0.009990
12679000,0.0324,0.013523,0.002678,0.000431,0.010225
12680000,0.0324,0.013523,0.002678,0.000431,0.012223
12681000,0.0324,0.013523,0.002678,0.000431,0.010695
12682000,0.0324,0.013523,0.002678,0.000431,0.011165
12683000,0.0324,0.013523,0.002678,0.000431,0.010107
12684000,0.0324,0.013523,0.002678,0.000431,0.010578
12685000,0.0324,0.013523,0.002678,0.000431,0.010695
12686000,0.0324,0.013523,0.002678,0.000431,0.010813
12687000,0.0324,0.013523,0.002678,0.000431,0.010578
12688000,0.0324,0.013523,0.002678,0.000431,0.010342
12689000,0.0324,0.013523,0.002678,0.000431,0.010695
12690000,0.0324,0.013523,0.002678,0.000431,0.010578
12691000,0.0324,0.013523,0.002678,0.000431,0.010460
12692000,0.0324,0.013523,0.002678,0.000431,0.010578
12693000,0.0324,0.013523,0.002678,0.000431,0.009520
12694000,0.0324,0.013523,0.002678,0.000431,0.011165
12695000,0.0324,0.013523,0.002678,0.000431,0.010930
12696000,0.0324,0.013523,0.002678,0.000431,0.010578
12697000,0.0324,0.013523,0.002678,0.000431,0.010578
12698000,0.0324,0.013523,0.002678,0.000431,0.009990
12699000,0.0324,0.013523,0.002678,0.000431,0.010695
12700000,0.0324,0.013523,0.002678,0.000431,0.010930
12701000,0.0324,0.013523,0.002678,0.000431,0.011165
12702000,0.0324,0.013523,0.002678,0.000431,0.009990
12703000,0.0324,0.013523,0.002678,0.000431,0.010695
12704000,0.0324,0.013523,0.002678,0.000431,0.010460
12705000,0.0324,0.013523,0.002678,0.000431,0.010578
12706000,0.0324,0.013523,0.002678,0.000431,0.009520
12707000,0.0324,0.013523,0.002678,0.000431,0.010460
12708000,0.0324,0.013523,0.002678,0.000431,0.010460
12709000,0.0324,0.013523,0.002678,0.000431,0.010813
12710000,0.0324,0.013523,0.002678,0.000431,0.010695
12711000,0.0324,0.013523,0.002678,0.000431,0.011048
12712000,0.0324,0.013523,0.002678,0.000431,0.010342
12713000,0.0324,0.013523,0.002678,0.000431,0.010107
12714000,0.0324,0.013523,0.002678,0.000431,0.010342
12715000,0.0324,0.013523,0.002678,0.000431,0.011518
12716000,0.0324,0.013523,0.002678,0.000431,0.011048
12717000,0.0324,0.013523,0.002678,0.000431,0.010107
12718000,0.0324,0.013523,0.002678,0.000431,0.011165
12719000,0.0324,0.013523,0.002678,0.000431,0.011870
12720000,0.0324,0.013523,0.002678,0.000431,0.010342
12721000,0.0324,0.013523,0.002678,0.000431,0.010578
12722000,0.0324,0.013523,0.002678,0.000431,0.009990
12723000,0.0324,0.013523,0.002678,0.000431,0.010460
12724000,0.0324,0.013523,0.002678,0.000431,0.010342
12725000,0.0324,0.013523,0.002678,0.000431,0.010695
12726000,0.0324,0.013523,0.002678,0.000431,0.010342
12727000,0.0324,0.013523,0.002678,0.000431,0.011165
12728000,0.0324,0.013523,0.002678,0.000431,0.010460
12729000,0.0324,0.013523,0.002678,0.000431,0.010342
12730000,0.0324,0.013523,0.002678,0.000431,0.010107
12731000,0.0324,0.013523,0.002678,0.000431,0.010342
12732000,0.0324,0.013523,0.002678,0.000431,0.010342
12733000,0.0324,0.013523,0.002678,0.000431,0.009755
12734000,0.0324,0.013523,0.002678,0.000431,0.010930
12735000,0.0324,0.013523,0.002678,0.000431,0.010695
12736000,0.0324,0.013523,0.002678,0.000431,0.010225
12737000,0.0324,0.013523,0.002678,0.000431,0.011400
12738000,0.0324,0.013523,0.002678,0.000431,0.010342
12739000,0.0324,0.013523,0.002678,0.000431,0.010342
12740000,0.0324,0.013523,0.002678,0.000431,0.010460
12741000,0.0324,0.013523,0.002678,0.000431,0.009990
12742000,0.0324,0.013523,0.002678,0.000431,0.010930
12743000,0.0324,0.013523,0.002678,0.000431,0.010578
12744000,0.0324,0.013523,0.002678,0.000431,0.010107
12745000,0.0324,0.013523,0.002678,0.000431,0.011400
12746000,0.0324,0.013523,0.002678,0.000431,0.010813
12747000,0.0324,0.013523,0.002678,0.000431,0.009990
12748000,0.0324,0.013523,0.002678,0.000431,0.010225
12749000,0.0324,0.013523,0.002678,0.000431,0.010460
12750000,0.0324,0.013523,0.002678,0.000431,0.010578
12751000,0.0324,0.013523,0.002678,0.000431,0.011283
12752000,0.0324,0.013523,0.002678,0.000431,0.011283
12753000,0.0324,0.013523,0.002678,0.000431,0.011753
12754000,0.0324,0.013523,0.002678,0.000431,0.010342
12755000,0.0324,0.013523,0.002678,0.000431,0.011400
12756000,0.0324,0.013523,0.002678,0.000431,0.010930
12757000,0.0324,0.013523,0.002678,0.000431,0.010813
12758000,0.0324,0.013523,0.002678,0.000431,0.010107
12759000,0.0324,0.013523,0.002678,0.000431,0.010695
12760000,0.0324,0.013523,0.002678,0.000431,0.011048
12761000,0.0324,0.013523,0.002678,0.000431,0.009520
12762000,0.0324,0.013523,0.002678,0.000431,0.011518
12763000,0.0324,0.013523,0.002678,0.000431,0.010813
12764000,0.0324,0.013523,0.002678,0.000431,0.010930
12765000,0.0324,0.013523,0.002678,0.000431,0.010107
12766000,0.0324,0.013523,0.002678,0.000431,0.009167
12767000,0.0324,0.013523,0.002678,0.000431,0.010107
12768000,0.0324,0.013523,0.002678,0.000431,0.010578
12769000,0.0324,0.013523,0.002678,0.000431,0.010107
12770000,0.0324,0.013523,0.002678,0.000431,0.010578
12771000,0.0324,0.013523,0.002678,0.000431,0.010930
12772000,0.0324,0.013523,0.002678,0.000431,0.010460
12773000,0.0324,0.013523,0.002678,0.000431,0.009285
12774000,0.0324,0.013523,0.002678,0.000431,0.011400
12775000,0.0324,0.013523,0.002678,0.000431,0.010107
12776000,0.0324,0.013523,0.002678,0.000431,0.011870
12777000,0.0324,0.013523,0.002678,0.000431,0.010578
12778000,0.0324,0.013523,0.002678,0.000431,0.009872
12779000,0.0324,0.013523,0.002678,0.000431,0.010342
12780000,0.0324,0.013523,0.002678,0.000431,0.009167
12781000,0.0324,0.013523,0.002678,0.000431,0.011283
12782000,0.0324,0.013523,0.002678,0.000431,0.010695
12783000,0.0324,0.013523,0.002678,0.000431,0.009637
12784000,0.0324,0.013523,0.002678,0.000431,0.009637
12785000,0.0324,0.013523,0.002678,0.000431,0.012340
12786000,0.0324,0.013523,0.002678,0.000431,0.010578
12787000,0.0324,0.013523,0.002678,0.000431,0.010695
12788000,0.0324,0.013523,0.002678,0.000431,0.010342
12789000,0.0324,0.013523,0.002678,0.000431,0.011400
12790000,0.0324,0.013523,0.002678,0.000431,0.011283
12791000,0.0324,0.013523,0.002678,0.000431,0.010578
12792000,0.0324,0.013523,0.002678,0.000431,0.011048
12793000,0.0324,0.013523,0.002678,0.000431,0.010342
12794000,0.0324,0.013523,0.002678,0.000431,0.010225
12795000,0.0324,0.013523,0.002678,0.000431,0.010695
12796000,0.0324,0.013523,0.002678,0.000431,0.009167
12797000,0.0324,0.013523,0.002678,0.000431,0.010460
12798000,0.0324,0.013523,0.002678,0.000431,0.009755
12799000,0.0324,0.013523,0.002678,0.000431,0.010930
12800000,0.0324,0.013523,0.002678,0.000431,0.010695
12801000,0.0324,0.013523,0.002678,0.000431,0.010578
12802000,0.0324,0.013523,0.002678,0.000431,0.011048
12803000,0.0324,0.013523,0.002678,0.000431,0.010695
12804000,0.0324,0.013523,0.002678,0.000431,0.010695
12805000,0.0324,0.013523,0.002678,0.000431,0.011635
12806000,0.0324,0.013523,0.002678,0.000431,0.010695
12807000,0.0324,0.013523,0.002678,0.000431,0.009990
12808000,0.0324,0.013523,0.002678,0.000431,0.010813
12809000,0.0324,0.013523,0.002678,0.000431,0.010460
12810000,0.0324,0.013523,0.002678,0.000431,0.010930
12811000,0.0324,0.013523,0.002678,0.000431,0.010578
12812000,0.0324,0.013523,0.002678,0.000431,0.011518
12813000,0.0324,0.013523,0.002678,0.000431,0.009990
12814000,0.0324,0.013523,0.002678,0.000431,0.010695
12815000,0.0324,0.013523,0.002678,0.000431,0.011870
12816000,0.0324,0.013523,0.002678,0.000431,0.009990
12817000,0.0324,0.013523,0.002678,0.000431,0.010695
12818000,0.0324,0.013523,0.002678,0.000431,0.010695
12819000,0.0324,0.013523,0.002678,0.000431,0.009167
12820000,0.0324,0.013523,0.002678,0.000431,0.010813
12821000,0.0324,0.013523,0.002678,0.000431,0.011048
12822000,0.0324,0.013523,0.002678,0.000431,0.011165
12823000,0.0324,0.013523,0.002678,0.000431,0.010107
12824000,0.0324,0.013523,0.002678,0.000431,0.010342
12825000,0.0324,0.013523,0.002678,0.000431,0.010813
12826000,0.0324,0.013523,0.002678,0.000431,0.010107
12827000,0.0324,0.013523,0.002678,0.000431,0.010578
12828000,0.0324,0.013523,0.002678,0.000431,0.010107
12829000,0.0324,0.013523,0.002678,0.000431,0.010813
12830000,0.0324,0.013523,0.002678,0.000431,0.010578
12831000,0.0324,0.013523,0.002678,0.000431,0.010107
12832000,0.0324,0.013523,0.002678,0.000431,0.011048
12833000,0.0324,0.013523,0.002678,0.000431,0.010695
12834000,0.0324,0.013523,0.002678,0.000431,0.011870
12835000,0.0324,0.013523,0.002678,0.000431,0.011165
12836000,0.0324,0.013523,0.002678,0.000431,0.011165
12837000,0.0324,0.013523,0.002678,0.000431,0.009990
12838000,0.0324,0.013523,0.002678,0.000431,0.011048
12839000,0.0324,0.013523,0.002678,0.000431,0.009990
12840000,0.0324,0.013523,0.002678,0.000431,0.010695
12841000,0.0324,0.013523,0.002678,0.000431,0.010813
12842000,0.0324,0.013523,0.002678,0.000431,0.010342
12843000,0.0324,0.013523,0.002678,0.000431,0.010930
12844000,0.0324,0.013523,0.002678,0.000431,0.010813
12845000,0.0324,0.013523,0.002678,0.000431,0.010225
12846000,0.0324,0.013523,0.002678,0.000431,0.010225
12847000,0.0324,0.013523,0.002678,0.000431,0.011400
12848000,0.0324,0.013523,0.002678,0.000431,0.011283
12849000,0.0324,0.013523,0.002678,0.000431,0.011518
12850000,0.0324,0.013523,0.002678,0.000431,0.011165
12851000,0.0324,0.013523,0.002678,0.000431,0.010225
12852000,0.0324,0.013523,0.002678,0.000431,0.010578
12853000,0.0324,0.013523,0.002678,0.000431,0.010460
12854000,0.0324,0.013523,0.002678,0.000431,0.011283
12855000,0.0324,0.013523,0.002678,0.000431,0.010460
12856000,0.0324,0.013523,0.002678,0.000431,0.010930
12857000,0.0324,0.013523,0.002678,0.000431,0.011048
12858000,0.0324,0.013523,0.002678,0.000431,0.011283
12859000,0.0324,0.013523,0.002678,0.000431,0.010460
12860000,0.0324,0.013523,0.002678,0.000431,0.010695
12861000,0.0324,0.013523,0.002678,0.000431,0.010695
12862000,0.0324,0.013523,0.002678,0.000431,0.011165
12863000,0.0324,0.013523,0.002678,0.000431,0.010342
12864000,0.0324,0.013523,0.002678,0.000431,0.009285
12865000,0.0324,0.013523,0.002678,0.000431,0.010460
12866000,0.0324,0.013523,0.002678,0.000431,0.011400
12867000,0.0324,0.013523,0.002678,0.000431,0.010342
12868000,0.0324,0.013523,0.002678,0.000431,0.011400
12869000,0.0324,0.013523,0.002678,0.000431,0.011518
12870000,0.0324,0.013523,0.002678,0.000431,0.009872
12871000,0.0324,0.013523,0.002678,0.000431,0.010695
12872000,0.0324,0.013523,0.002678,0.000431,0.010695
12873000,0.0324,0.013523,0.002678,0.000431,0.010107
12874000,0.0324,0.013523,0.002678,0.000431,0.010930
12875000,0.0324,0.013523,0.002678,0.000431,0.009990
12876000,0.0324,0.013523,0.002678,0.000431,0.010930
12877000,0.0324,0.013523,0.002678,0.000431,0.010225
12878000,0.0324,0.013523,0.002678,0.000431,0.011400
12879000,0.0324,0.013523,0.002678,0.000431,0.010930
12880000,0.0324,0.013523,0.002678,0.000431,0.010578
12881000,0.0324,0.013523,0.002678,0.000431,0.011518
12882000,0.0324,0.013523,0.002678,0.000431,0.010107
12883000,0.0324,0.013523,0.002678,0.000431,0.010342
12884000,0.0324,0.013523,0.002678,0.000431,0.010342
12885000,0.0324,0.013523,0.002678,0.000431,0.010460
12886000,0.0324,0.013523,0.002678,0.000431,0.011165
12887000,0.0324,0.013523,0.002678,0.000431,0.009872
12888000,0.0324,0.013523,0.002678,0.000431,0.012105
12889000,0.0324,0.013523,0.002678,0.000431,0.009990
12890000,0.0324,0.013523,0.002678,0.000431,0.011518
12891000,0.0324,0.013523,0.002678,0.000431,0.011165
12892000,0.0324,0.013523,0.002678,0.000431,0.010578
12893000,0.0324,0.013523,0.002678,0.000431,0.010813
12894000,0.0324,0.013523,0.002678,0.000431,0.010460
12895000,0.0324,0.013523,0.002678,0.000431,0.010695
12896000,0.0324,0.013523,0.002678,0.000431,0.010930
12897000,0.0324,0.013523,0.002678,0.000431,0.010813
12898000,0.0324,0.013523,0.002678,0.000431,0.010813
12899000,0.0324,0.013523,0.002678,0.000431,0.010460
12900000,0.0324,0.013523,0.002678,0.000431,0.010695
12901000,0.0324,0.013523,0.002678,0.000431,0.010342
12902000,0.0324,0.013523,0.002678,0.000431,0.010460
12903000,0.0324,0.013523,0.002678,0.000431,0.010107
12904000,0.0324,0.013523,0.002678,0.000431,0.010342
12905000,0.0324,0.013523,0.002678,0.000431,0.010342
12906000,0.0324,0.013523,0.002678,0.000431,0.010695
12907000,0.0324,0.013523,0.002678,0.000431,0.010578
12908000,0.0324,0.013523,0.002678,0.000431,0.009755
12909000,0.0324,0.013523,0.002678,0.000431,0.011518
12910000,0.0324,0.013523,0.002678,0.000431,0.010930
12911000,0.0324,0.013523,0.002678,0.000431,0.012105
12912000,0.0324,0.013523,0.002678,0.000431,0.011870
12913000,0.0324,0.013523,0.002678,0.000431,0.011048
12914000,0.0324,0.013523,0.002678,0.000431,0.010460
12915000,0.0324,0.013523,0.002678,0.000431,0.010695
12916000,0.0324,0.013523,0.002678,0.000431,0.010930
12917000,0.0324,0.013523,0.002678,0.000431,0.010225
12918000,0.0324,0.013523,0.002678,0.000431,0.010695
12919000,0.0324,0.013523,0.002678,0.000431,0.010813
12920000,0.0324,0.013523,0.002678,0.000431,0.010578
12921000,0.0324,0.013523,0.002678,0.000431,0.010225
12922000,0.0324,0.013523,0.002678,0.000431,0.011753
12923000,0.0324,0.013523,0.002678,0.000431,0.010578
12924000,0.0324,0.013523,0.002678,0.000431,0.011870
12925000,0.0324,0.013523,0.002678,0.000431,0.010342
12926000,0.0324,0.013523,0.002678,0.000431,0.011165
12927000,0.0324,0.013523,0.002678,0.000431,0.010460
12928000,0.0324,0.013523,0.002678,0.000431,0.010342
12929000,0.0324,0.013523,0.002678,0.000431,0.011048
12930000,0.0324,0.013523,0.002678,0.000431,0.010813
12931000,0.0324,0.013523,0.002678,0.000431,0.009637
12932000,0.0324,0.013523,0.002678,0.000431,0.009990
12933000,0.0324,0.013523,0.002678,0.000431,0.011870
12934000,0.0324,0.013523,0.002678,0.000431,0.010225
12935000,0.0324,0.013523,0.002678,0.000431,0.011165
12936000,0.0324,0.013523,0.002678,0.000431,0.010225
12937000,0.0324,0.013523,0.002678,0.000431,0.010460
12938000,0.0324,0.013523,0.002678,0.000431,0.010930
12939000,0.0324,0.013523,0.002678,0.000431,0.009990
12940000,0.0324,0.013523,0.002678,0.000431,0.011870
12941000,0.0324,0.013523,0.002678,0.000431,0.011870
12942000,0.0324,0.013523,0.002678,0.000431,0.010342
12943000,0.0324,0.013523,0.002678,0.000431,0.010578
12944000,0.0324,0.013523,0.002678,0.000431,0.010930
12945000,0.0324,0.013523,0.002678,0.000431,0.011165
12946000,0.0324,0.013523,0.002678,0.000431,0.011048
12947000,0.0324,0.013523,0.002678,0.000431,0.012340
12948000,0.0324,0.013523,0.002678,0.000431,0.011165
12949000,0.0324,0.013523,0.002678,0.000431,0.010695
12950000,0.0324,0.013523,0.002678,0.000431,0.011283
12951000,0.0324,0.013523,0.002678,0.000431,0.010460
12952000,0.0324,0.013523,0.002678,0.000431,0.010460
12953000,0.0324,0.013523,0.002678,0.000431,0.009755
12954000,0.0324,0.013523,0.002678,0.000431,0.010225
12955000,0.0324,0.013523,0.002678,0.000431,0.010107
12956000,0.0324,0.013523,0.002678,0.000431,0.010342
12957000,0.0324,0.013523,0.002678,0.000431,0.010107
12958000,0.0324,0.013523,0.002678,0.000431,0.011988
12959000,0.0324,0.013523,0.002678,0.000431,0.010813
12960000,0.0324,0.013523,0.002678,0.000431,0.010695
12961000,0.0324,0.013523,0.002678,0.000431,0.010460
12962000,0.0324,0.013523,0.002678,0.000431,0.010460
12963000,0.0324,0.013523,0.002678,0.000431,0.011283
12964000,0.0324,0.013523,0.002678,0.000431,0.010460
12965000,0.0324,0.013523,0.002678,0.000431,0.010460
12966000,0.0324,0.013523,0.002678,0.000431,0.011048
12967000,0.0324,0.013523,0.002678,0.000431,0.010930
12968000,0.0324,0.013523,0.002678,0.000431,0.010695
12969000,0.0324,0.013523,0.002678,0.000431,0.010695
12970000,0.0324,0.013523,0.002678,0.000431,0.011753
12971000,0.0324,0.013523,0.002678,0.000431,0.010342
12972000,0.0324,0.013523,0.002678,0.000431,0.010695
12973000,0.0324,0.013523,0.002678,0.000431,0.011518
12974000,0.0324,0.013523,0.002678,0.000431,0.010225
12975000,0.0324,0.013523,0.002678,0.000431,0.010342
12976000,0.0324,0.013523,0.002678,0.000431,0.011518
12977000,0.0324,0.013523,0.002678,0.000431,0.010695
12978000,0.0324,0.013523,0.002678,0.000431,0.011283
12979000,0.0324,0.013523,0.002678,0.000431,0.010813
12980000,0.0324,0.013523,0.002678,0.000431,0.010930
12981000,0.0324,0.013523,0.002678,0.000431,0.011518
12982000,0.0324,0.013523,0.002678,0.000431,0.011165
12983000,0.0324,0.013523,0.002678,0.000431,0.009872
12984000,0.0324,0.013523,0.002678,0.000431,0.010342
12985000,0.0324,0.013523,0.002678,0.000431,0.009872
12986000,0.0324,0.013523,0.002678,0.000431,0.010460
12987000,0.0324,0.013523,0.002678,0.000431,0.009755
12988000,0.0324,0.013523,0.002678,0.000431,0.011400
12989000,0.0324,0.013523,0.002678,0.000431,0.010578
12990000,0.0324,0.013523,0.002678,0.000431,0.010342
12991000,0.0324,0.013523,0.002678,0.000431,0.009990
12992000,0.0324,0.013523,0.002678,0.000431,0.009285
12993000,0.0324,0.013523,0.002678,0.000431,0.009050
12994000,0.0324,0.013523,0.002678,0.000431,0.010107
12995000,0.0324,0.013523,0.002678,0.000431,0.009990
12996000,0.0324,0.013523,0.002678,0.000431,0.009872
12997000,0.0324,0.013523,0.002678,0.000431,0.008932
12998000,0.0324,0.013523,0.002678,0.000431,0.010342
12999000,0.0324,0.013523,0.002678,0.000431,0.010578
