Cycle,Area(mm^2),PeakDynamic(W),SubthresholdLeakage(W),GateLeakage(W),RunTimeDynamic(W)
15000000,0.0324,0.013523,0.002678,0.000431,0.008109
15001000,0.0324,0.013523,0.002678,0.000431,0.008345
15002000,0.0324,0.013523,0.002678,0.000431,0.009755
15003000,0.0324,0.013523,0.002678,0.000431,0.009050
15004000,0.0324,0.013523,0.002678,0.000431,0.008580
15005000,0.0324,0.013523,0.002678,0.000431,0.008109
15006000,0.0324,0.013523,0.002678,0.000431,0.008815
15007000,0.0324,0.013523,0.002678,0.000431,0.008345
15008000,0.0324,0.013523,0.002678,0.000431,0.008345
15009000,0.0324,0.013523,0.002678,0.000431,0.008345
15010000,0.0324,0.013523,0.002678,0.000431,0.007404
15011000,0.0324,0.013523,0.002678,0.000431,0.008109
15012000,0.0324,0.013523,0.002678,0.000431,0.008815
15013000,0.0324,0.013523,0.002678,0.000431,0.008109
15014000,0.0324,0.013523,0.002678,0.000431,0.009637
15015000,0.0324,0.013523,0.002678,0.000431,0.008580
15016000,0.0324,0.013523,0.002678,0.000431,0.007992
15017000,0.0324,0.013523,0.002678,0.000431,0.008580
15018000,0.0324,0.013523,0.002678,0.000431,0.008227
15019000,0.0324,0.013523,0.002678,0.000431,0.006934
15020000,0.0324,0.013523,0.002678,0.000431,0.008697
15021000,0.0324,0.013523,0.002678,0.000431,0.008462
15022000,0.0324,0.013523,0.002678,0.000431,0.008932
15023000,0.0324,0.013523,0.002678,0.000431,0.007874
15024000,0.0324,0.013523,0.002678,0.000431,0.007992
15025000,0.0324,0.013523,0.002678,0.000431,0.007992
15026000,0.0324,0.013523,0.002678,0.000431,0.008345
15027000,0.0324,0.013523,0.002678,0.000431,0.008345
15028000,0.0324,0.013523,0.002678,0.000431,0.009402
15029000,0.0324,0.013523,0.002678,0.000431,0.008580
15030000,0.0324,0.013523,0.002678,0.000431,0.008697
15031000,0.0324,0.013523,0.002678,0.000431,0.008462
15032000,0.0324,0.013523,0.002678,0.000431,0.009167
15033000,0.0324,0.013523,0.002678,0.000431,0.008109
15034000,0.0324,0.013523,0.002678,0.000431,0.008345
15035000,0.0324,0.013523,0.002678,0.000431,0.008109
15036000,0.0324,0.013523,0.002678,0.000431,0.008462
15037000,0.0324,0.013523,0.002678,0.000431,0.008580
15038000,0.0324,0.013523,0.002678,0.000431,0.008345
15039000,0.0324,0.013523,0.002678,0.000431,0.008815
15040000,0.0324,0.013523,0.002678,0.000431,0.007874
15041000,0.0324,0.013523,0.002678,0.000431,0.008109
15042000,0.0324,0.013523,0.002678,0.000431,0.007874
15043000,0.0324,0.013523,0.002678,0.000431,0.008580
15044000,0.0324,0.013523,0.002678,0.000431,0.007522
15045000,0.0324,0.013523,0.002678,0.000431,0.008227
15046000,0.0324,0.013523,0.002678,0.000431,0.008462
15047000,0.0324,0.013523,0.002678,0.000431,0.009520
15048000,0.0324,0.013523,0.002678,0.000431,0.008462
15049000,0.0324,0.013523,0.002678,0.000431,0.008462
15050000,0.0324,0.013523,0.002678,0.000431,0.007757
15051000,0.0324,0.013523,0.002678,0.000431,0.008227
15052000,0.0324,0.013523,0.002678,0.000431,0.007639
15053000,0.0324,0.013523,0.002678,0.000431,0.007992
15054000,0.0324,0.013523,0.002678,0.000431,0.008345
15055000,0.0324,0.013523,0.002678,0.000431,0.007874
15056000,0.0324,0.013523,0.002678,0.000431,0.008345
15057000,0.0324,0.013523,0.002678,0.000431,0.008580
15058000,0.0324,0.013523,0.002678,0.000431,0.008932
15059000,0.0324,0.013523,0.002678,0.000431,0.009050
15060000,0.0324,0.013523,0.002678,0.000431,0.008815
15061000,0.0324,0.013523,0.002678,0.000431,0.008815
15062000,0.0324,0.013523,0.002678,0.000431,0.008932
15063000,0.0324,0.013523,0.002678,0.000431,0.007992
15064000,0.0324,0.013523,0.002678,0.000431,0.008227
15065000,0.0324,0.013523,0.002678,0.000431,0.008580
15066000,0.0324,0.013523,0.002678,0.000431,0.008462
15067000,0.0324,0.013523,0.002678,0.000431,0.008109
15068000,0.0324,0.013523,0.002678,0.000431,0.007757
15069000,0.0324,0.013523,0.002678,0.000431,0.008109
15070000,0.0324,0.013523,0.002678,0.000431,0.008345
15071000,0.0324,0.013523,0.002678,0.000431,0.008109
15072000,0.0324,0.013523,0.002678,0.000431,0.008932
15073000,0.0324,0.013523,0.002678,0.000431,0.009402
15074000,0.0324,0.013523,0.002678,0.000431,0.008345
15075000,0.0324,0.013523,0.002678,0.000431,0.008697
15076000,0.0324,0.013523,0.002678,0.000431,0.008109
15077000,0.0324,0.013523,0.002678,0.000431,0.008462
15078000,0.0324,0.013523,0.002678,0.000431,0.008227
15079000,0.0324,0.013523,0.002678,0.000431,0.008815
15080000,0.0324,0.013523,0.002678,0.000431,0.008697
15081000,0.0324,0.013523,0.002678,0.000431,0.008227
15082000,0.0324,0.013523,0.002678,0.000431,0.008697
15083000,0.0324,0.013523,0.002678,0.000431,0.009050
15084000,0.0324,0.013523,0.002678,0.000431,0.008697
15085000,0.0324,0.013523,0.002678,0.000431,0.008109
15086000,0.0324,0.013523,0.002678,0.000431,0.008932
15087000,0.0324,0.013523,0.002678,0.000431,0.008580
15088000,0.0324,0.013523,0.002678,0.000431,0.008109
15089000,0.0324,0.013523,0.002678,0.000431,0.009402
15090000,0.0324,0.013523,0.002678,0.000431,0.007874
15091000,0.0324,0.013523,0.002678,0.000431,0.009285
15092000,0.0324,0.013523,0.002678,0.000431,0.008697
15093000,0.0324,0.013523,0.002678,0.000431,0.008227
15094000,0.0324,0.013523,0.002678,0.000431,0.008345
15095000,0.0324,0.013523,0.002678,0.000431,0.007992
15096000,0.0324,0.013523,0.002678,0.000431,0.008580
15097000,0.0324,0.013523,0.002678,0.000431,0.008109
15098000,0.0324,0.013523,0.002678,0.000431,0.007874
15099000,0.0324,0.013523,0.002678,0.000431,0.008227
15100000,0.0324,0.013523,0.002678,0.000431,0.007757
15101000,0.0324,0.013523,0.002678,0.000431,0.008109
15102000,0.0324,0.013523,0.002678,0.000431,0.008345
15103000,0.0324,0.013523,0.002678,0.000431,0.008345
15104000,0.0324,0.013523,0.002678,0.000431,0.009285
15105000,0.0324,0.013523,0.002678,0.000431,0.008345
15106000,0.0324,0.013523,0.002678,0.000431,0.008462
15107000,0.0324,0.013523,0.002678,0.000431,0.008345
15108000,0.0324,0.013523,0.002678,0.000431,0.008227
15109000,0.0324,0.013523,0.002678,0.000431,0.008815
15110000,0.0324,0.013523,0.002678,0.000431,0.007874
15111000,0.0324,0.013523,0.002678,0.000431,0.008462
15112000,0.0324,0.013523,0.002678,0.000431,0.008345
15113000,0.0324,0.013523,0.002678,0.000431,0.008697
15114000,0.0324,0.013523,0.002678,0.000431,0.009402
15115000,0.0324,0.013523,0.002678,0.000431,0.007404
15116000,0.0324,0.013523,0.002678,0.000431,0.008109
15117000,0.0324,0.013523,0.002678,0.000431,0.008580
15118000,0.0324,0.013523,0.002678,0.000431,0.008462
15119000,0.0324,0.013523,0.002678,0.000431,0.008345
15120000,0.0324,0.013523,0.002678,0.000431,0.007639
15121000,0.0324,0.013523,0.002678,0.000431,0.008227
15122000,0.0324,0.013523,0.002678,0.000431,0.008109
15123000,0.0324,0.013523,0.002678,0.000431,0.008109
15124000,0.0324,0.013523,0.002678,0.000431,0.008462
15125000,0.0324,0.013523,0.002678,0.000431,0.008109
15126000,0.0324,0.013523,0.002678,0.000431,0.009167
15127000,0.0324,0.013523,0.002678,0.000431,0.007522
15128000,0.0324,0.013523,0.002678,0.000431,0.009402
15129000,0.0324,0.013523,0.002678,0.000431,0.008227
15130000,0.0324,0.013523,0.002678,0.000431,0.009050
15131000,0.0324,0.013523,0.002678,0.000431,0.008462
15132000,0.0324,0.013523,0.002678,0.000431,0.009050
15133000,0.0324,0.013523,0.002678,0.000431,0.007992
15134000,0.0324,0.013523,0.002678,0.000431,0.007874
15135000,0.0324,0.013523,0.002678,0.000431,0.008580
15136000,0.0324,0.013523,0.002678,0.000431,0.008109
15137000,0.0324,0.013523,0.002678,0.000431,0.009050
15138000,0.0324,0.013523,0.002678,0.000431,0.007874
15139000,0.0324,0.013523,0.002678,0.000431,0.008109
15140000,0.0324,0.013523,0.002678,0.000431,0.008697
15141000,0.0324,0.013523,0.002678,0.000431,0.007992
15142000,0.0324,0.013523,0.002678,0.000431,0.008815
15143000,0.0324,0.013523,0.002678,0.000431,0.007287
15144000,0.0324,0.013523,0.002678,0.000431,0.008932
15145000,0.0324,0.013523,0.002678,0.000431,0.007757
15146000,0.0324,0.013523,0.002678,0.000431,0.008697
15147000,0.0324,0.013523,0.002678,0.000431,0.008227
15148000,0.0324,0.013523,0.002678,0.000431,0.008345
15149000,0.0324,0.013523,0.002678,0.000431,0.008580
15150000,0.0324,0.013523,0.002678,0.000431,0.007639
15151000,0.0324,0.013523,0.002678,0.000431,0.008345
15152000,0.0324,0.013523,0.002678,0.000431,0.008932
15153000,0.0324,0.013523,0.002678,0.000431,0.008815
15154000,0.0324,0.013523,0.002678,0.000431,0.007639
15155000,0.0324,0.013523,0.002678,0.000431,0.008345
15156000,0.0324,0.013523,0.002678,0.000431,0.008109
15157000,0.0324,0.013523,0.002678,0.000431,0.008815
15158000,0.0324,0.013523,0.002678,0.000431,0.008462
15159000,0.0324,0.013523,0.002678,0.000431,0.008109
15160000,0.0324,0.013523,0.002678,0.000431,0.007287
15161000,0.0324,0.013523,0.002678,0.000431,0.008815
15162000,0.0324,0.013523,0.002678,0.000431,0.007992
15163000,0.0324,0.013523,0.002678,0.000431,0.008109
15164000,0.0324,0.013523,0.002678,0.000431,0.007992
15165000,0.0324,0.013523,0.002678,0.000431,0.009285
15166000,0.0324,0.013523,0.002678,0.000431,0.008109
15167000,0.0324,0.013523,0.002678,0.000431,0.008227
15168000,0.0324,0.013523,0.002678,0.000431,0.008697
15169000,0.0324,0.013523,0.002678,0.000431,0.008580
15170000,0.0324,0.013523,0.002678,0.000431,0.007874
15171000,0.0324,0.013523,0.002678,0.000431,0.007874
15172000,0.0324,0.013523,0.002678,0.000431,0.008109
15173000,0.0324,0.013523,0.002678,0.000431,0.008697
15174000,0.0324,0.013523,0.002678,0.000431,0.008109
15175000,0.0324,0.013523,0.002678,0.000431,0.008462
15176000,0.0324,0.013523,0.002678,0.000431,0.007404
15177000,0.0324,0.013523,0.002678,0.000431,0.007874
15178000,0.0324,0.013523,0.002678,0.000431,0.008815
15179000,0.0324,0.013523,0.002678,0.000431,0.007757
15180000,0.0324,0.013523,0.002678,0.000431,0.007992
15181000,0.0324,0.013523,0.002678,0.000431,0.007404
15182000,0.0324,0.013523,0.002678,0.000431,0.008932
15183000,0.0324,0.013523,0.002678,0.000431,0.007287
15184000,0.0324,0.013523,0.002678,0.000431,0.008345
15185000,0.0324,0.013523,0.002678,0.000431,0.007874
15186000,0.0324,0.013523,0.002678,0.000431,0.009050
15187000,0.0324,0.013523,0.002678,0.000431,0.008815
15188000,0.0324,0.013523,0.002678,0.000431,0.007992
15189000,0.0324,0.013523,0.002678,0.000431,0.008697
15190000,0.0324,0.013523,0.002678,0.000431,0.008462
15191000,0.0324,0.013523,0.002678,0.000431,0.007522
15192000,0.0324,0.013523,0.002678,0.000431,0.008580
15193000,0.0324,0.013523,0.002678,0.000431,0.008697
15194000,0.0324,0.013523,0.002678,0.000431,0.007757
15195000,0.0324,0.013523,0.002678,0.000431,0.008697
15196000,0.0324,0.013523,0.002678,0.000431,0.008345
15197000,0.0324,0.013523,0.002678,0.000431,0.008697
15198000,0.0324,0.013523,0.002678,0.000431,0.007992
15199000,0.0324,0.013523,0.002678,0.000431,0.007992
15200000,0.0324,0.013523,0.002678,0.000431,0.008227
15201000,0.0324,0.013523,0.002678,0.000431,0.008109
15202000,0.0324,0.013523,0.002678,0.000431,0.008462
15203000,0.0324,0.013523,0.002678,0.000431,0.008580
15204000,0.0324,0.013523,0.002678,0.000431,0.007874
15205000,0.0324,0.013523,0.002678,0.000431,0.007287
15206000,0.0324,0.013523,0.002678,0.000431,0.009050
15207000,0.0324,0.013523,0.002678,0.000431,0.008109
15208000,0.0324,0.013523,0.002678,0.000431,0.008815
15209000,0.0324,0.013523,0.002678,0.000431,0.008227
15210000,0.0324,0.013523,0.002678,0.000431,0.008580
15211000,0.0324,0.013523,0.002678,0.000431,0.007404
15212000,0.0324,0.013523,0.002678,0.000431,0.008227
15213000,0.0324,0.013523,0.002678,0.000431,0.007992
15214000,0.0324,0.013523,0.002678,0.000431,0.007874
15215000,0.0324,0.013523,0.002678,0.000431,0.008462
15216000,0.0324,0.013523,0.002678,0.000431,0.008932
15217000,0.0324,0.013523,0.002678,0.000431,0.008580
15218000,0.0324,0.013523,0.002678,0.000431,0.008227
15219000,0.0324,0.013523,0.002678,0.000431,0.007757
15220000,0.0324,0.013523,0.002678,0.000431,0.007874
15221000,0.0324,0.013523,0.002678,0.000431,0.007992
15222000,0.0324,0.013523,0.002678,0.000431,0.007757
15223000,0.0324,0.013523,0.002678,0.000431,0.007287
15224000,0.0324,0.013523,0.002678,0.000431,0.008227
15225000,0.0324,0.013523,0.002678,0.000431,0.008580
15226000,0.0324,0.013523,0.002678,0.000431,0.008109
15227000,0.0324,0.013523,0.002678,0.000431,0.007287
15228000,0.0324,0.013523,0.002678,0.000431,0.009167
15229000,0.0324,0.013523,0.002678,0.000431,0.008109
15230000,0.0324,0.013523,0.002678,0.000431,0.008462
15231000,0.0324,0.013523,0.002678,0.000431,0.007757
15232000,0.0324,0.013523,0.002678,0.000431,0.007522
15233000,0.0324,0.013523,0.002678,0.000431,0.008815
15234000,0.0324,0.013523,0.002678,0.000431,0.007522
15235000,0.0324,0.013523,0.002678,0.000431,0.008580
15236000,0.0324,0.013523,0.002678,0.000431,0.008462
15237000,0.0324,0.013523,0.002678,0.000431,0.007639
15238000,0.0324,0.013523,0.002678,0.000431,0.007639
15239000,0.0324,0.013523,0.002678,0.000431,0.008227
15240000,0.0324,0.013523,0.002678,0.000431,0.008345
15241000,0.0324,0.013523,0.002678,0.000431,0.008580
15242000,0.0324,0.013523,0.002678,0.000431,0.007757
15243000,0.0324,0.013523,0.002678,0.000431,0.008697
15244000,0.0324,0.013523,0.002678,0.000431,0.008697
15245000,0.0324,0.013523,0.002678,0.000431,0.008462
15246000,0.0324,0.013523,0.002678,0.000431,0.008345
15247000,0.0324,0.013523,0.002678,0.000431,0.008345
15248000,0.0324,0.013523,0.002678,0.000431,0.008462
15249000,0.0324,0.013523,0.002678,0.000431,0.007992
15250000,0.0324,0.013523,0.002678,0.000431,0.008815
15251000,0.0324,0.013523,0.002678,0.000431,0.007992
15252000,0.0324,0.013523,0.002678,0.000431,0.007992
15253000,0.0324,0.013523,0.002678,0.000431,0.007522
15254000,0.0324,0.013523,0.002678,0.000431,0.008580
15255000,0.0324,0.013523,0.002678,0.000431,0.008227
15256000,0.0324,0.013523,0.002678,0.000431,0.008345
15257000,0.0324,0.013523,0.002678,0.000431,0.007757
15258000,0.0324,0.013523,0.002678,0.000431,0.008109
15259000,0.0324,0.013523,0.002678,0.000431,0.007757
15260000,0.0324,0.013523,0.002678,0.000431,0.008462
15261000,0.0324,0.013523,0.002678,0.000431,0.009285
15262000,0.0324,0.013523,0.002678,0.000431,0.008109
15263000,0.0324,0.013523,0.002678,0.000431,0.008462
15264000,0.0324,0.013523,0.002678,0.000431,0.008345
15265000,0.0324,0.013523,0.002678,0.000431,0.008227
15266000,0.0324,0.013523,0.002678,0.000431,0.008227
15267000,0.0324,0.013523,0.002678,0.000431,0.008109
15268000,0.0324,0.013523,0.002678,0.000431,0.008462
15269000,0.0324,0.013523,0.002678,0.000431,0.007992
15270000,0.0324,0.013523,0.002678,0.000431,0.009285
15271000,0.0324,0.013523,0.002678,0.000431,0.007992
15272000,0.0324,0.013523,0.002678,0.000431,0.008697
15273000,0.0324,0.013523,0.002678,0.000431,0.008580
15274000,0.0324,0.013523,0.002678,0.000431,0.009050
15275000,0.0324,0.013523,0.002678,0.000431,0.007639
15276000,0.0324,0.013523,0.002678,0.000431,0.009050
15277000,0.0324,0.013523,0.002678,0.000431,0.007757
15278000,0.0324,0.013523,0.002678,0.000431,0.009050
15279000,0.0324,0.013523,0.002678,0.000431,0.007757
15280000,0.0324,0.013523,0.002678,0.000431,0.009637
15281000,0.0324,0.013523,0.002678,0.000431,0.008109
15282000,0.0324,0.013523,0.002678,0.000431,0.007757
15283000,0.0324,0.013523,0.002678,0.000431,0.007874
15284000,0.0324,0.013523,0.002678,0.000431,0.007404
15285000,0.0324,0.013523,0.002678,0.000431,0.009755
15286000,0.0324,0.013523,0.002678,0.000431,0.007639
15287000,0.0324,0.013523,0.002678,0.000431,0.007874
15288000,0.0324,0.013523,0.002678,0.000431,0.008462
15289000,0.0324,0.013523,0.002678,0.000431,0.008227
15290000,0.0324,0.013523,0.002678,0.000431,0.008109
15291000,0.0324,0.013523,0.002678,0.000431,0.008462
15292000,0.0324,0.013523,0.002678,0.000431,0.008345
15293000,0.0324,0.013523,0.002678,0.000431,0.008227
15294000,0.0324,0.013523,0.002678,0.000431,0.007874
15295000,0.0324,0.013523,0.002678,0.000431,0.008697
15296000,0.0324,0.013523,0.002678,0.000431,0.008227
15297000,0.0324,0.013523,0.002678,0.000431,0.007874
15298000,0.0324,0.013523,0.002678,0.000431,0.008815
15299000,0.0324,0.013523,0.002678,0.000431,0.008580
15300000,0.0324,0.013523,0.002678,0.000431,0.008815
15301000,0.0324,0.013523,0.002678,0.000431,0.007522
15302000,0.0324,0.013523,0.002678,0.000431,0.008580
15303000,0.0324,0.013523,0.002678,0.000431,0.008815
15304000,0.0324,0.013523,0.002678,0.000431,0.007992
15305000,0.0324,0.013523,0.002678,0.000431,0.008580
15306000,0.0324,0.013523,0.002678,0.000431,0.007874
15307000,0.0324,0.013523,0.002678,0.000431,0.008815
15308000,0.0324,0.013523,0.002678,0.000431,0.008345
15309000,0.0324,0.013523,0.002678,0.000431,0.008227
15310000,0.0324,0.013523,0.002678,0.000431,0.007639
15311000,0.0324,0.013523,0.002678,0.000431,0.007992
15312000,0.0324,0.013523,0.002678,0.000431,0.008345
15313000,0.0324,0.013523,0.002678,0.000431,0.008815
15314000,0.0324,0.013523,0.002678,0.000431,0.007992
15315000,0.0324,0.013523,0.002678,0.000431,0.009755
15316000,0.0324,0.013523,0.002678,0.000431,0.008697
15317000,0.0324,0.013523,0.002678,0.000431,0.008462
15318000,0.0324,0.013523,0.002678,0.000431,0.008815
15319000,0.0324,0.013523,0.002678,0.000431,0.008227
15320000,0.0324,0.013523,0.002678,0.000431,0.007757
15321000,0.0324,0.013523,0.002678,0.000431,0.008580
15322000,0.0324,0.013523,0.002678,0.000431,0.007522
15323000,0.0324,0.013523,0.002678,0.000431,0.008462
15324000,0.0324,0.013523,0.002678,0.000431,0.009050
15325000,0.0324,0.013523,0.002678,0.000431,0.008345
15326000,0.0324,0.013523,0.002678,0.000431,0.008580
15327000,0.0324,0.013523,0.002678,0.000431,0.008462
15328000,0.0324,0.013523,0.002678,0.000431,0.008932
15329000,0.0324,0.013523,0.002678,0.000431,0.007639
15330000,0.0324,0.013523,0.002678,0.000431,0.008462
15331000,0.0324,0.013523,0.002678,0.000431,0.008815
15332000,0.0324,0.013523,0.002678,0.000431,0.008697
15333000,0.0324,0.013523,0.002678,0.000431,0.007757
15334000,0.0324,0.013523,0.002678,0.000431,0.009050
15335000,0.0324,0.013523,0.002678,0.000431,0.007992
15336000,0.0324,0.013523,0.002678,0.000431,0.007639
15337000,0.0324,0.013523,0.002678,0.000431,0.007874
15338000,0.0324,0.013523,0.002678,0.000431,0.008462
15339000,0.0324,0.013523,0.002678,0.000431,0.008815
15340000,0.0324,0.013523,0.002678,0.000431,0.008815
15341000,0.0324,0.013523,0.002678,0.000431,0.007992
15342000,0.0324,0.013523,0.002678,0.000431,0.008697
15343000,0.0324,0.013523,0.002678,0.000431,0.008345
15344000,0.0324,0.013523,0.002678,0.000431,0.008815
15345000,0.0324,0.013523,0.002678,0.000431,0.008462
15346000,0.0324,0.013523,0.002678,0.000431,0.008815
15347000,0.0324,0.013523,0.002678,0.000431,0.008109
15348000,0.0324,0.013523,0.002678,0.000431,0.008932
15349000,0.0324,0.013523,0.002678,0.000431,0.008580
15350000,0.0324,0.013523,0.002678,0.000431,0.008580
15351000,0.0324,0.013523,0.002678,0.000431,0.008227
15352000,0.0324,0.013523,0.002678,0.000431,0.008697
15353000,0.0324,0.013523,0.002678,0.000431,0.008227
15354000,0.0324,0.013523,0.002678,0.000431,0.008462
15355000,0.0324,0.013523,0.002678,0.000431,0.009285
15356000,0.0324,0.013523,0.002678,0.000431,0.008227
15357000,0.0324,0.013523,0.002678,0.000431,0.007757
15358000,0.0324,0.013523,0.002678,0.000431,0.009050
15359000,0.0324,0.013523,0.002678,0.000431,0.007757
15360000,0.0324,0.013523,0.002678,0.000431,0.008345
15361000,0.0324,0.013523,0.002678,0.000431,0.007992
15362000,0.0324,0.013523,0.002678,0.000431,0.008345
15363000,0.0324,0.013523,0.002678,0.000431,0.008462
15364000,0.0324,0.013523,0.002678,0.000431,0.007992
15365000,0.0324,0.013523,0.002678,0.000431,0.008580
15366000,0.0324,0.013523,0.002678,0.000431,0.008697
15367000,0.0324,0.013523,0.002678,0.000431,0.009167
15368000,0.0324,0.013523,0.002678,0.000431,0.007639
15369000,0.0324,0.013523,0.002678,0.000431,0.007992
15370000,0.0324,0.013523,0.002678,0.000431,0.007522
15371000,0.0324,0.013523,0.002678,0.000431,0.008345
15372000,0.0324,0.013523,0.002678,0.000431,0.008227
15373000,0.0324,0.013523,0.002678,0.000431,0.007287
15374000,0.0324,0.013523,0.002678,0.000431,0.007169
15375000,0.0324,0.013523,0.002678,0.000431,0.007169
15376000,0.0324,0.013523,0.002678,0.000431,0.007639
15377000,0.0324,0.013523,0.002678,0.000431,0.008109
15378000,0.0324,0.013523,0.002678,0.000431,0.007757
15379000,0.0324,0.013523,0.002678,0.000431,0.007052
15380000,0.0324,0.013523,0.002678,0.000431,0.006582
15381000,0.0324,0.013523,0.002678,0.000431,0.007639
15382000,0.0324,0.013523,0.002678,0.000431,0.007757
15383000,0.0324,0.013523,0.002678,0.000431,0.007757
15384000,0.0324,0.013523,0.002678,0.000431,0.008697
15385000,0.0324,0.013523,0.002678,0.000431,0.007522
15386000,0.0324,0.013523,0.002678,0.000431,0.007874
15387000,0.0324,0.013523,0.002678,0.000431,0.007757
15388000,0.0324,0.013523,0.002678,0.000431,0.007757
15389000,0.0324,0.013523,0.002678,0.000431,0.007992
15390000,0.0324,0.013523,0.002678,0.000431,0.007522
15391000,0.0324,0.013523,0.002678,0.000431,0.007992
15392000,0.0324,0.013523,0.002678,0.000431,0.007757
15393000,0.0324,0.013523,0.002678,0.000431,0.008580
15394000,0.0324,0.013523,0.002678,0.000431,0.008109
15395000,0.0324,0.013523,0.002678,0.000431,0.007874
15396000,0.0324,0.013523,0.002678,0.000431,0.006699
15397000,0.0324,0.013523,0.002678,0.000431,0.007639
15398000,0.0324,0.013523,0.002678,0.000431,0.008227
15399000,0.0324,0.013523,0.002678,0.000431,0.007287
15400000,0.0324,0.013523,0.002678,0.000431,0.007757
15401000,0.0324,0.013523,0.002678,0.000431,0.007169
15402000,0.0324,0.013523,0.002678,0.000431,0.008227
15403000,0.0324,0.013523,0.002678,0.000431,0.007992
15404000,0.0324,0.013523,0.002678,0.000431,0.008109
15405000,0.0324,0.013523,0.002678,0.000431,0.007522
15406000,0.0324,0.013523,0.002678,0.000431,0.008227
15407000,0.0324,0.013523,0.002678,0.000431,0.007639
15408000,0.0324,0.013523,0.002678,0.000431,0.007522
15409000,0.0324,0.013523,0.002678,0.000431,0.007757
15410000,0.0324,0.013523,0.002678,0.000431,0.007992
15411000,0.0324,0.013523,0.002678,0.000431,0.007639
15412000,0.0324,0.013523,0.002678,0.000431,0.007639
15413000,0.0324,0.013523,0.002678,0.000431,0.007874
15414000,0.0324,0.013523,0.002678,0.000431,0.007639
15415000,0.0324,0.013523,0.002678,0.000431,0.007169
15416000,0.0324,0.013523,0.002678,0.000431,0.007757
15417000,0.0324,0.013523,0.002678,0.000431,0.007169
15418000,0.0324,0.013523,0.002678,0.000431,0.008109
15419000,0.0324,0.013523,0.002678,0.000431,0.007757
15420000,0.0324,0.013523,0.002678,0.000431,0.008227
15421000,0.0324,0.013523,0.002678,0.000431,0.007992
15422000,0.0324,0.013523,0.002678,0.000431,0.008109
15423000,0.0324,0.013523,0.002678,0.000431,0.007404
15424000,0.0324,0.013523,0.002678,0.000431,0.008109
15425000,0.0324,0.013523,0.002678,0.000431,0.007874
15426000,0.0324,0.013523,0.002678,0.000431,0.007874
15427000,0.0324,0.013523,0.002678,0.000431,0.008345
15428000,0.0324,0.013523,0.002678,0.000431,0.008345
15429000,0.0324,0.013523,0.002678,0.000431,0.007639
15430000,0.0324,0.013523,0.002678,0.000431,0.007874
15431000,0.0324,0.013523,0.002678,0.000431,0.008227
15432000,0.0324,0.013523,0.002678,0.000431,0.007992
15433000,0.0324,0.013523,0.002678,0.000431,0.008109
15434000,0.0324,0.013523,0.002678,0.000431,0.008227
15435000,0.0324,0.013523,0.002678,0.000431,0.007992
15436000,0.0324,0.013523,0.002678,0.000431,0.008580
15437000,0.0324,0.013523,0.002678,0.000431,0.006699
15438000,0.0324,0.013523,0.002678,0.000431,0.007874
15439000,0.0324,0.013523,0.002678,0.000431,0.007992
15440000,0.0324,0.013523,0.002678,0.000431,0.007874
15441000,0.0324,0.013523,0.002678,0.000431,0.007404
15442000,0.0324,0.013523,0.002678,0.000431,0.007522
15443000,0.0324,0.013523,0.002678,0.000431,0.008109
15444000,0.0324,0.013523,0.002678,0.000431,0.007522
15445000,0.0324,0.013523,0.002678,0.000431,0.008462
15446000,0.0324,0.013523,0.002678,0.000431,0.008109
15447000,0.0324,0.013523,0.002678,0.000431,0.007757
15448000,0.0324,0.013523,0.002678,0.000431,0.008345
15449000,0.0324,0.013523,0.002678,0.000431,0.007639
15450000,0.0324,0.013523,0.002678,0.000431,0.007522
15451000,0.0324,0.013523,0.002678,0.000431,0.007992
15452000,0.0324,0.013523,0.002678,0.000431,0.008462
15453000,0.0324,0.013523,0.002678,0.000431,0.008227
15454000,0.0324,0.013523,0.002678,0.000431,0.008345
15455000,0.0324,0.013523,0.002678,0.000431,0.007522
15456000,0.0324,0.013523,0.002678,0.000431,0.007757
15457000,0.0324,0.013523,0.002678,0.000431,0.008345
15458000,0.0324,0.013523,0.002678,0.000431,0.007757
15459000,0.0324,0.013523,0.002678,0.000431,0.008109
15460000,0.0324,0.013523,0.002678,0.000431,0.007522
15461000,0.0324,0.013523,0.002678,0.000431,0.006817
15462000,0.0324,0.013523,0.002678,0.000431,0.008345
15463000,0.0324,0.013523,0.002678,0.000431,0.007404
15464000,0.0324,0.013523,0.002678,0.000431,0.007874
15465000,0.0324,0.013523,0.002678,0.000431,0.007992
15466000,0.0324,0.013523,0.002678,0.000431,0.007757
15467000,0.0324,0.013523,0.002678,0.000431,0.008227
15468000,0.0324,0.013523,0.002678,0.000431,0.007992
15469000,0.0324,0.013523,0.002678,0.000431,0.007639
15470000,0.0324,0.013523,0.002678,0.000431,0.007757
15471000,0.0324,0.013523,0.002678,0.000431,0.007757
15472000,0.0324,0.013523,0.002678,0.000431,0.007874
15473000,0.0324,0.013523,0.002678,0.000431,0.008345
15474000,0.0324,0.013523,0.002678,0.000431,0.007287
15475000,0.0324,0.013523,0.002678,0.000431,0.007522
15476000,0.0324,0.013523,0.002678,0.000431,0.008109
15477000,0.0324,0.013523,0.002678,0.000431,0.007404
15478000,0.0324,0.013523,0.002678,0.000431,0.006464
15479000,0.0324,0.013523,0.002678,0.000431,0.007874
15480000,0.0324,0.013523,0.002678,0.000431,0.008109
15481000,0.0324,0.013523,0.002678,0.000431,0.008109
15482000,0.0324,0.013523,0.002678,0.000431,0.007404
15483000,0.0324,0.013523,0.002678,0.000431,0.007169
15484000,0.0324,0.013523,0.002678,0.000431,0.007522
15485000,0.0324,0.013523,0.002678,0.000431,0.008697
15486000,0.0324,0.013523,0.002678,0.000431,0.007757
15487000,0.0324,0.013523,0.002678,0.000431,0.007404
15488000,0.0324,0.013523,0.002678,0.000431,0.007874
15489000,0.0324,0.013523,0.002678,0.000431,0.008345
15490000,0.0324,0.013523,0.002678,0.000431,0.007287
15491000,0.0324,0.013523,0.002678,0.000431,0.007757
15492000,0.0324,0.013523,0.002678,0.000431,0.008815
15493000,0.0324,0.013523,0.002678,0.000431,0.006934
15494000,0.0324,0.013523,0.002678,0.000431,0.006934
15495000,0.0324,0.013523,0.002678,0.000431,0.008227
15496000,0.0324,0.013523,0.002678,0.000431,0.007052
15497000,0.0324,0.013523,0.002678,0.000431,0.007287
15498000,0.0324,0.013523,0.002678,0.000431,0.008345
15499000,0.0324,0.013523,0.002678,0.000431,0.007052
15500000,0.0324,0.013523,0.002678,0.000431,0.007757
15501000,0.0324,0.013523,0.002678,0.000431,0.007052
15502000,0.0324,0.013523,0.002678,0.000431,0.008462
15503000,0.0324,0.013523,0.002678,0.000431,0.008815
15504000,0.0324,0.013523,0.002678,0.000431,0.007522
15505000,0.0324,0.013523,0.002678,0.000431,0.008227
15506000,0.0324,0.013523,0.002678,0.000431,0.007287
15507000,0.0324,0.013523,0.002678,0.000431,0.007874
15508000,0.0324,0.013523,0.002678,0.000431,0.007992
15509000,0.0324,0.013523,0.002678,0.000431,0.007052
15510000,0.0324,0.013523,0.002678,0.000431,0.008109
15511000,0.0324,0.013523,0.002678,0.000431,0.007404
15512000,0.0324,0.013523,0.002678,0.000431,0.007874
15513000,0.0324,0.013523,0.002678,0.000431,0.007169
15514000,0.0324,0.013523,0.002678,0.000431,0.008815
15515000,0.0324,0.013523,0.002678,0.000431,0.007757
15516000,0.0324,0.013523,0.002678,0.000431,0.007757
15517000,0.0324,0.013523,0.002678,0.000431,0.007757
15518000,0.0324,0.013523,0.002678,0.000431,0.007757
15519000,0.0324,0.013523,0.002678,0.000431,0.007052
15520000,0.0324,0.013523,0.002678,0.000431,0.007404
15521000,0.0324,0.013523,0.002678,0.000431,0.007757
15522000,0.0324,0.013523,0.002678,0.000431,0.008227
15523000,0.0324,0.013523,0.002678,0.000431,0.007874
15524000,0.0324,0.013523,0.002678,0.000431,0.007639
15525000,0.0324,0.013523,0.002678,0.000431,0.007404
15526000,0.0324,0.013523,0.002678,0.000431,0.007992
15527000,0.0324,0.013523,0.002678,0.000431,0.008109
15528000,0.0324,0.013523,0.002678,0.000431,0.007169
15529000,0.0324,0.013523,0.002678,0.000431,0.007757
15530000,0.0324,0.013523,0.002678,0.000431,0.008109
15531000,0.0324,0.013523,0.002678,0.000431,0.007052
15532000,0.0324,0.013523,0.002678,0.000431,0.007639
15533000,0.0324,0.013523,0.002678,0.000431,0.008109
15534000,0.0324,0.013523,0.002678,0.000431,0.008697
15535000,0.0324,0.013523,0.002678,0.000431,0.006699
15536000,0.0324,0.013523,0.002678,0.000431,0.007639
15537000,0.0324,0.013523,0.002678,0.000431,0.007169
15538000,0.0324,0.013523,0.002678,0.000431,0.008227
15539000,0.0324,0.013523,0.002678,0.000431,0.007404
15540000,0.0324,0.013523,0.002678,0.000431,0.007169
15541000,0.0324,0.013523,0.002678,0.000431,0.008227
15542000,0.0324,0.013523,0.002678,0.000431,0.007992
15543000,0.0324,0.013523,0.002678,0.000431,0.007287
15544000,0.0324,0.013523,0.002678,0.000431,0.008345
15545000,0.0324,0.013523,0.002678,0.000431,0.008462
15546000,0.0324,0.013523,0.002678,0.000431,0.006582
15547000,0.0324,0.013523,0.002678,0.000431,0.007287
15548000,0.0324,0.013523,0.002678,0.000431,0.008932
15549000,0.0324,0.013523,0.002678,0.000431,0.007522
15550000,0.0324,0.013523,0.002678,0.000431,0.007287
15551000,0.0324,0.013523,0.002678,0.000431,0.008345
15552000,0.0324,0.013523,0.002678,0.000431,0.007992
15553000,0.0324,0.013523,0.002678,0.000431,0.007757
15554000,0.0324,0.013523,0.002678,0.000431,0.008227
15555000,0.0324,0.013523,0.002678,0.000431,0.007522
15556000,0.0324,0.013523,0.002678,0.000431,0.008227
15557000,0.0324,0.013523,0.002678,0.000431,0.007169
15558000,0.0324,0.013523,0.002678,0.000431,0.008345
15559000,0.0324,0.013523,0.002678,0.000431,0.008109
15560000,0.0324,0.013523,0.002678,0.000431,0.008345
15561000,0.0324,0.013523,0.002678,0.000431,0.007874
15562000,0.0324,0.013523,0.002678,0.000431,0.007404
15563000,0.0324,0.013523,0.002678,0.000431,0.008580
15564000,0.0324,0.013523,0.002678,0.000431,0.007639
15565000,0.0324,0.013523,0.002678,0.000431,0.008109
15566000,0.0324,0.013523,0.002678,0.000431,0.007757
15567000,0.0324,0.013523,0.002678,0.000431,0.008109
15568000,0.0324,0.013523,0.002678,0.000431,0.007404
15569000,0.0324,0.013523,0.002678,0.000431,0.007287
15570000,0.0324,0.013523,0.002678,0.000431,0.008815
15571000,0.0324,0.013523,0.002678,0.000431,0.007287
15572000,0.0324,0.013523,0.002678,0.000431,0.008462
15573000,0.0324,0.013523,0.002678,0.000431,0.007639
15574000,0.0324,0.013523,0.002678,0.000431,0.007992
15575000,0.0324,0.013523,0.002678,0.000431,0.007169
15576000,0.0324,0.013523,0.002678,0.000431,0.007874
15577000,0.0324,0.013523,0.002678,0.000431,0.007639
15578000,0.0324,0.013523,0.002678,0.000431,0.007404
15579000,0.0324,0.013523,0.002678,0.000431,0.007287
15580000,0.0324,0.013523,0.002678,0.000431,0.007404
15581000,0.0324,0.013523,0.002678,0.000431,0.008109
15582000,0.0324,0.013523,0.002678,0.000431,0.007757
15583000,0.0324,0.013523,0.002678,0.000431,0.007052
15584000,0.0324,0.013523,0.002678,0.000431,0.007404
15585000,0.0324,0.013523,0.002678,0.000431,0.008580
15586000,0.0324,0.013523,0.002678,0.000431,0.007287
15587000,0.0324,0.013523,0.002678,0.000431,0.007287
15588000,0.0324,0.013523,0.002678,0.000431,0.007757
15589000,0.0324,0.013523,0.002678,0.000431,0.007992
15590000,0.0324,0.013523,0.002678,0.000431,0.007639
15591000,0.0324,0.013523,0.002678,0.000431,0.007639
15592000,0.0324,0.013523,0.002678,0.000431,0.007522
15593000,0.0324,0.013523,0.002678,0.000431,0.007757
15594000,0.0324,0.013523,0.002678,0.000431,0.008227
15595000,0.0324,0.013523,0.002678,0.000431,0.007404
15596000,0.0324,0.013523,0.002678,0.000431,0.008345
15597000,0.0324,0.013523,0.002678,0.000431,0.007052
15598000,0.0324,0.013523,0.002678,0.000431,0.007757
15599000,0.0324,0.013523,0.002678,0.000431,0.007639
15600000,0.0324,0.013523,0.002678,0.000431,0.008227
15601000,0.0324,0.013523,0.002678,0.000431,0.008227
15602000,0.0324,0.013523,0.002678,0.000431,0.007404
15603000,0.0324,0.013523,0.002678,0.000431,0.008345
15604000,0.0324,0.013523,0.002678,0.000431,0.007639
15605000,0.0324,0.013523,0.002678,0.000431,0.007874
15606000,0.0324,0.013523,0.002678,0.000431,0.008462
15607000,0.0324,0.013523,0.002678,0.000431,0.007874
15608000,0.0324,0.013523,0.002678,0.000431,0.007404
15609000,0.0324,0.013523,0.002678,0.000431,0.007287
15610000,0.0324,0.013523,0.002678,0.000431,0.007992
15611000,0.0324,0.013523,0.002678,0.000431,0.007639
15612000,0.0324,0.013523,0.002678,0.000431,0.008345
15613000,0.0324,0.013523,0.002678,0.000431,0.007874
15614000,0.0324,0.013523,0.002678,0.000431,0.007874
15615000,0.0324,0.013523,0.002678,0.000431,0.007992
15616000,0.0324,0.013523,0.002678,0.000431,0.008227
15617000,0.0324,0.013523,0.002678,0.000431,0.007874
15618000,0.0324,0.013523,0.002678,0.000431,0.007639
15619000,0.0324,0.013523,0.002678,0.000431,0.007169
15620000,0.0324,0.013523,0.002678,0.000431,0.008462
15621000,0.0324,0.013523,0.002678,0.000431,0.007757
15622000,0.0324,0.013523,0.002678,0.000431,0.007874
15623000,0.0324,0.013523,0.002678,0.000431,0.007169
15624000,0.0324,0.013523,0.002678,0.000431,0.007992
15625000,0.0324,0.013523,0.002678,0.000431,0.007757
15626000,0.0324,0.013523,0.002678,0.000431,0.007874
15627000,0.0324,0.013523,0.002678,0.000431,0.007052
15628000,0.0324,0.013523,0.002678,0.000431,0.007052
15629000,0.0324,0.013523,0.002678,0.000431,0.008815
15630000,0.0324,0.013523,0.002678,0.000431,0.007404
15631000,0.0324,0.013523,0.002678,0.000431,0.007874
15632000,0.0324,0.013523,0.002678,0.000431,0.007874
15633000,0.0324,0.013523,0.002678,0.000431,0.008109
15634000,0.0324,0.013523,0.002678,0.000431,0.008227
15635000,0.0324,0.013523,0.002678,0.000431,0.007757
15636000,0.0324,0.013523,0.002678,0.000431,0.007522
15637000,0.0324,0.013523,0.002678,0.000431,0.007639
15638000,0.0324,0.013523,0.002678,0.000431,0.008462
15639000,0.0324,0.013523,0.002678,0.000431,0.006699
15640000,0.0324,0.013523,0.002678,0.000431,0.007874
15641000,0.0324,0.013523,0.002678,0.000431,0.007874
15642000,0.0324,0.013523,0.002678,0.000431,0.007757
15643000,0.0324,0.013523,0.002678,0.000431,0.008815
15644000,0.0324,0.013523,0.002678,0.000431,0.008462
15645000,0.0324,0.013523,0.002678,0.000431,0.006817
15646000,0.0324,0.013523,0.002678,0.000431,0.008227
15647000,0.0324,0.013523,0.002678,0.000431,0.007874
15648000,0.0324,0.013523,0.002678,0.000431,0.007874
15649000,0.0324,0.013523,0.002678,0.000431,0.007522
15650000,0.0324,0.013523,0.002678,0.000431,0.008109
15651000,0.0324,0.013523,0.002678,0.000431,0.008109
15652000,0.0324,0.013523,0.002678,0.000431,0.007522
15653000,0.0324,0.013523,0.002678,0.000431,0.007404
15654000,0.0324,0.013523,0.002678,0.000431,0.007639
15655000,0.0324,0.013523,0.002678,0.000431,0.007639
15656000,0.0324,0.013523,0.002678,0.000431,0.007639
15657000,0.0324,0.013523,0.002678,0.000431,0.007639
15658000,0.0324,0.013523,0.002678,0.000431,0.007639
15659000,0.0324,0.013523,0.002678,0.000431,0.007757
15660000,0.0324,0.013523,0.002678,0.000431,0.008227
15661000,0.0324,0.013523,0.002678,0.000431,0.007992
15662000,0.0324,0.013523,0.002678,0.000431,0.007522
15663000,0.0324,0.013523,0.002678,0.000431,0.007874
15664000,0.0324,0.013523,0.002678,0.000431,0.007874
15665000,0.0324,0.013523,0.002678,0.000431,0.008580
15666000,0.0324,0.013523,0.002678,0.000431,0.007874
15667000,0.0324,0.013523,0.002678,0.000431,0.007404
15668000,0.0324,0.013523,0.002678,0.000431,0.007757
15669000,0.0324,0.013523,0.002678,0.000431,0.008109
15670000,0.0324,0.013523,0.002678,0.000431,0.007992
15671000,0.0324,0.013523,0.002678,0.000431,0.007757
15672000,0.0324,0.013523,0.002678,0.000431,0.007169
15673000,0.0324,0.013523,0.002678,0.000431,0.007522
15674000,0.0324,0.013523,0.002678,0.000431,0.007874
15675000,0.0324,0.013523,0.002678,0.000431,0.007169
15676000,0.0324,0.013523,0.002678,0.000431,0.007874
15677000,0.0324,0.013523,0.002678,0.000431,0.007874
15678000,0.0324,0.013523,0.002678,0.000431,0.007992
15679000,0.0324,0.013523,0.002678,0.000431,0.007874
15680000,0.0324,0.013523,0.002678,0.000431,0.008227
15681000,0.0324,0.013523,0.002678,0.000431,0.008109
15682000,0.0324,0.013523,0.002678,0.000431,0.008227
15683000,0.0324,0.013523,0.002678,0.000431,0.008345
15684000,0.0324,0.013523,0.002678,0.000431,0.007874
15685000,0.0324,0.013523,0.002678,0.000431,0.007757
15686000,0.0324,0.013523,0.002678,0.000431,0.007874
15687000,0.0324,0.013523,0.002678,0.000431,0.007522
15688000,0.0324,0.013523,0.002678,0.000431,0.007874
15689000,0.0324,0.013523,0.002678,0.000431,0.007639
15690000,0.0324,0.013523,0.002678,0.000431,0.007992
15691000,0.0324,0.013523,0.002678,0.000431,0.008109
15692000,0.0324,0.013523,0.002678,0.000431,0.007992
15693000,0.0324,0.013523,0.002678,0.000431,0.008109
15694000,0.0324,0.013523,0.002678,0.000431,0.007404
15695000,0.0324,0.013523,0.002678,0.000431,0.007639
15696000,0.0324,0.013523,0.002678,0.000431,0.007992
15697000,0.0324,0.013523,0.002678,0.000431,0.008227
15698000,0.0324,0.013523,0.002678,0.000431,0.007522
15699000,0.0324,0.013523,0.002678,0.000431,0.007522
15700000,0.0324,0.013523,0.002678,0.000431,0.007874
15701000,0.0324,0.013523,0.002678,0.000431,0.007639
15702000,0.0324,0.013523,0.002678,0.000431,0.008109
15703000,0.0324,0.013523,0.002678,0.000431,0.007639
15704000,0.0324,0.013523,0.002678,0.000431,0.007874
15705000,0.0324,0.013523,0.002678,0.000431,0.007874
15706000,0.0324,0.013523,0.002678,0.000431,0.007169
15707000,0.0324,0.013523,0.002678,0.000431,0.007639
15708000,0.0324,0.013523,0.002678,0.000431,0.008345
15709000,0.0324,0.013523,0.002678,0.000431,0.007404
15710000,0.0324,0.013523,0.002678,0.000431,0.006699
15711000,0.0324,0.013523,0.002678,0.000431,0.007169
15712000,0.0324,0.013523,0.002678,0.000431,0.006934
15713000,0.0324,0.013523,0.002678,0.000431,0.007757
15714000,0.0324,0.013523,0.002678,0.000431,0.008345
15715000,0.0324,0.013523,0.002678,0.000431,0.007169
15716000,0.0324,0.013523,0.002678,0.000431,0.006934
15717000,0.0324,0.013523,0.002678,0.000431,0.006582
15718000,0.0324,0.013523,0.002678,0.000431,0.006934
15719000,0.0324,0.013523,0.002678,0.000431,0.007992
15720000,0.0324,0.013523,0.002678,0.000431,0.007287
15721000,0.0324,0.013523,0.002678,0.000431,0.006347
15722000,0.0324,0.013523,0.002678,0.000431,0.007522
15723000,0.0324,0.013523,0.002678,0.000431,0.006347
15724000,0.0324,0.013523,0.002678,0.000431,0.007052
15725000,0.0324,0.013523,0.002678,0.000431,0.007404
15726000,0.0324,0.013523,0.002678,0.000431,0.006699
15727000,0.0324,0.013523,0.002678,0.000431,0.006229
15728000,0.0324,0.013523,0.002678,0.000431,0.006229
15729000,0.0324,0.013523,0.002678,0.000431,0.006934
15730000,0.0324,0.013523,0.002678,0.000431,0.006934
15731000,0.0324,0.013523,0.002678,0.000431,0.007052
15732000,0.0324,0.013523,0.002678,0.000431,0.006582
15733000,0.0324,0.013523,0.002678,0.000431,0.007757
15734000,0.0324,0.013523,0.002678,0.000431,0.006817
15735000,0.0324,0.013523,0.002678,0.000431,0.007404
15736000,0.0324,0.013523,0.002678,0.000431,0.006699
15737000,0.0324,0.013523,0.002678,0.000431,0.007404
15738000,0.0324,0.013523,0.002678,0.000431,0.007052
15739000,0.0324,0.013523,0.002678,0.000431,0.007287
15740000,0.0324,0.013523,0.002678,0.000431,0.007169
15741000,0.0324,0.013523,0.002678,0.000431,0.006817
15742000,0.0324,0.013523,0.002678,0.000431,0.007404
15743000,0.0324,0.013523,0.002678,0.000431,0.006699
15744000,0.0324,0.013523,0.002678,0.000431,0.007757
15745000,0.0324,0.013523,0.002678,0.000431,0.006347
15746000,0.0324,0.013523,0.002678,0.000431,0.007052
15747000,0.0324,0.013523,0.002678,0.000431,0.007169
15748000,0.0324,0.013523,0.002678,0.000431,0.006464
15749000,0.0324,0.013523,0.002678,0.000431,0.007052
15750000,0.0324,0.013523,0.002678,0.000431,0.007404
15751000,0.0324,0.013523,0.002678,0.000431,0.007404
15752000,0.0324,0.013523,0.002678,0.000431,0.007169
15753000,0.0324,0.013523,0.002678,0.000431,0.006347
15754000,0.0324,0.013523,0.002678,0.000431,0.007287
15755000,0.0324,0.013523,0.002678,0.000431,0.006699
15756000,0.0324,0.013523,0.002678,0.000431,0.006817
15757000,0.0324,0.013523,0.002678,0.000431,0.006229
15758000,0.0324,0.013523,0.002678,0.000431,0.005994
15759000,0.0324,0.013523,0.002678,0.000431,0.006111
15760000,0.0324,0.013523,0.002678,0.000431,0.006582
15761000,0.0324,0.013523,0.002678,0.000431,0.006934
15762000,0.0324,0.013523,0.002678,0.000431,0.006934
15763000,0.0324,0.013523,0.002678,0.000431,0.006347
15764000,0.0324,0.013523,0.002678,0.000431,0.006229
15765000,0.0324,0.013523,0.002678,0.000431,0.006347
15766000,0.0324,0.013523,0.002678,0.000431,0.007052
15767000,0.0324,0.013523,0.002678,0.000431,0.006817
15768000,0.0324,0.013523,0.002678,0.000431,0.006699
15769000,0.0324,0.013523,0.002678,0.000431,0.005876
15770000,0.0324,0.013523,0.002678,0.000431,0.006934
15771000,0.0324,0.013523,0.002678,0.000431,0.006229
15772000,0.0324,0.013523,0.002678,0.000431,0.006699
15773000,0.0324,0.013523,0.002678,0.000431,0.006111
15774000,0.0324,0.013523,0.002678,0.000431,0.006111
15775000,0.0324,0.013523,0.002678,0.000431,0.005994
15776000,0.0324,0.013523,0.002678,0.000431,0.006699
15777000,0.0324,0.013523,0.002678,0.000431,0.006582
15778000,0.0324,0.013523,0.002678,0.000431,0.006464
15779000,0.0324,0.013523,0.002678,0.000431,0.005876
15780000,0.0324,0.013523,0.002678,0.000431,0.005876
15781000,0.0324,0.013523,0.002678,0.000431,0.006347
15782000,0.0324,0.013523,0.002678,0.000431,0.006817
15783000,0.0324,0.013523,0.002678,0.000431,0.005994
15784000,0.0324,0.013523,0.002678,0.000431,0.006699
15785000,0.0324,0.013523,0.002678,0.000431,0.006229
15786000,0.0324,0.013523,0.002678,0.000431,0.006347
15787000,0.0324,0.013523,0.002678,0.000431,0.006111
15788000,0.0324,0.013523,0.002678,0.000431,0.006699
15789000,0.0324,0.013523,0.002678,0.000431,0.006699
15790000,0.0324,0.013523,0.002678,0.000431,0.005876
15791000,0.0324,0.013523,0.002678,0.000431,0.006817
15792000,0.0324,0.013523,0.002678,0.000431,0.006934
15793000,0.0324,0.013523,0.002678,0.000431,0.006229
15794000,0.0324,0.013523,0.002678,0.000431,0.006817
15795000,0.0324,0.013523,0.002678,0.000431,0.006347
15796000,0.0324,0.013523,0.002678,0.000431,0.006817
15797000,0.0324,0.013523,0.002678,0.000431,0.006699
15798000,0.0324,0.013523,0.002678,0.000431,0.005994
15799000,0.0324,0.013523,0.002678,0.000431,0.007052
15800000,0.0324,0.013523,0.002678,0.000431,0.006582
15801000,0.0324,0.013523,0.002678,0.000431,0.005994
15802000,0.0324,0.013523,0.002678,0.000431,0.006699
15803000,0.0324,0.013523,0.002678,0.000431,0.006817
15804000,0.0324,0.013523,0.002678,0.000431,0.006347
15805000,0.0324,0.013523,0.002678,0.000431,0.006699
15806000,0.0324,0.013523,0.002678,0.000431,0.005994
15807000,0.0324,0.013523,0.002678,0.000431,0.007287
15808000,0.0324,0.013523,0.002678,0.000431,0.006464
15809000,0.0324,0.013523,0.002678,0.000431,0.006582
15810000,0.0324,0.013523,0.002678,0.000431,0.006229
15811000,0.0324,0.013523,0.002678,0.000431,0.007052
15812000,0.0324,0.013523,0.002678,0.000431,0.005641
15813000,0.0324,0.013523,0.002678,0.000431,0.006464
15814000,0.0324,0.013523,0.002678,0.000431,0.006347
15815000,0.0324,0.013523,0.002678,0.000431,0.006347
15816000,0.0324,0.013523,0.002678,0.000431,0.005876
15817000,0.0324,0.013523,0.002678,0.000431,0.006347
15818000,0.0324,0.013523,0.002678,0.000431,0.006934
15819000,0.0324,0.013523,0.002678,0.000431,0.005994
15820000,0.0324,0.013523,0.002678,0.000431,0.006111
15821000,0.0324,0.013523,0.002678,0.000431,0.006229
15822000,0.0324,0.013523,0.002678,0.000431,0.006229
15823000,0.0324,0.013523,0.002678,0.000431,0.006464
15824000,0.0324,0.013523,0.002678,0.000431,0.005759
15825000,0.0324,0.013523,0.002678,0.000431,0.006229
15826000,0.0324,0.013523,0.002678,0.000431,0.006464
15827000,0.0324,0.013523,0.002678,0.000431,0.006464
15828000,0.0324,0.013523,0.002678,0.000431,0.006347
15829000,0.0324,0.013523,0.002678,0.000431,0.007169
15830000,0.0324,0.013523,0.002678,0.000431,0.006111
15831000,0.0324,0.013523,0.002678,0.000431,0.006464
15832000,0.0324,0.013523,0.002678,0.000431,0.006111
15833000,0.0324,0.013523,0.002678,0.000431,0.006582
15834000,0.0324,0.013523,0.002678,0.000431,0.006699
15835000,0.0324,0.013523,0.002678,0.000431,0.005876
15836000,0.0324,0.013523,0.002678,0.000431,0.006699
15837000,0.0324,0.013523,0.002678,0.000431,0.006464
15838000,0.0324,0.013523,0.002678,0.000431,0.006229
15839000,0.0324,0.013523,0.002678,0.000431,0.005524
15840000,0.0324,0.013523,0.002678,0.000431,0.006582
15841000,0.0324,0.013523,0.002678,0.000431,0.007169
15842000,0.0324,0.013523,0.002678,0.000431,0.006464
15843000,0.0324,0.013523,0.002678,0.000431,0.006464
15844000,0.0324,0.013523,0.002678,0.000431,0.007404
15845000,0.0324,0.013523,0.002678,0.000431,0.005876
15846000,0.0324,0.013523,0.002678,0.000431,0.005171
15847000,0.0324,0.013523,0.002678,0.000431,0.007169
15848000,0.0324,0.013523,0.002678,0.000431,0.006111
15849000,0.0324,0.013523,0.002678,0.000431,0.005876
15850000,0.0324,0.013523,0.002678,0.000431,0.005876
15851000,0.0324,0.013523,0.002678,0.000431,0.005641
15852000,0.0324,0.013523,0.002678,0.000431,0.006817
15853000,0.0324,0.013523,0.002678,0.000431,0.006111
15854000,0.0324,0.013523,0.002678,0.000431,0.006229
15855000,0.0324,0.013523,0.002678,0.000431,0.007522
15856000,0.0324,0.013523,0.002678,0.000431,0.006464
15857000,0.0324,0.013523,0.002678,0.000431,0.006111
15858000,0.0324,0.013523,0.002678,0.000431,0.006229
15859000,0.0324,0.013523,0.002678,0.000431,0.006817
15860000,0.0324,0.013523,0.002678,0.000431,0.005759
15861000,0.0324,0.013523,0.002678,0.000431,0.006229
15862000,0.0324,0.013523,0.002678,0.000431,0.007169
15863000,0.0324,0.013523,0.002678,0.000431,0.006699
15864000,0.0324,0.013523,0.002678,0.000431,0.006582
15865000,0.0324,0.013523,0.002678,0.000431,0.006582
15866000,0.0324,0.013523,0.002678,0.000431,0.006229
15867000,0.0324,0.013523,0.002678,0.000431,0.005876
15868000,0.0324,0.013523,0.002678,0.000431,0.006582
15869000,0.0324,0.013523,0.002678,0.000431,0.006699
15870000,0.0324,0.013523,0.002678,0.000431,0.006111
15871000,0.0324,0.013523,0.002678,0.000431,0.006229
15872000,0.0324,0.013523,0.002678,0.000431,0.006111
15873000,0.0324,0.013523,0.002678,0.000431,0.006464
15874000,0.0324,0.013523,0.002678,0.000431,0.006934
15875000,0.0324,0.013523,0.002678,0.000431,0.005641
15876000,0.0324,0.013523,0.002678,0.000431,0.006229
15877000,0.0324,0.013523,0.002678,0.000431,0.006699
15878000,0.0324,0.013523,0.002678,0.000431,0.006699
15879000,0.0324,0.013523,0.002678,0.000431,0.006347
15880000,0.0324,0.013523,0.002678,0.000431,0.005759
15881000,0.0324,0.013523,0.002678,0.000431,0.006229
15882000,0.0324,0.013523,0.002678,0.000431,0.006111
15883000,0.0324,0.013523,0.002678,0.000431,0.006111
15884000,0.0324,0.013523,0.002678,0.000431,0.006111
15885000,0.0324,0.013523,0.002678,0.000431,0.006817
15886000,0.0324,0.013523,0.002678,0.000431,0.005876
15887000,0.0324,0.013523,0.002678,0.000431,0.006699
15888000,0.0324,0.013523,0.002678,0.000431,0.007052
15889000,0.0324,0.013523,0.002678,0.000431,0.005994
15890000,0.0324,0.013523,0.002678,0.000431,0.007404
15891000,0.0324,0.013523,0.002678,0.000431,0.006111
15892000,0.0324,0.013523,0.002678,0.000431,0.005759
15893000,0.0324,0.013523,0.002678,0.000431,0.007169
15894000,0.0324,0.013523,0.002678,0.000431,0.006229
15895000,0.0324,0.013523,0.002678,0.000431,0.005994
15896000,0.0324,0.013523,0.002678,0.000431,0.006582
15897000,0.0324,0.013523,0.002678,0.000431,0.006111
15898000,0.0324,0.013523,0.002678,0.000431,0.006347
15899000,0.0324,0.013523,0.002678,0.000431,0.006582
15900000,0.0324,0.013523,0.002678,0.000431,0.006464
15901000,0.0324,0.013523,0.002678,0.000431,0.005759
15902000,0.0324,0.013523,0.002678,0.000431,0.006817
15903000,0.0324,0.013523,0.002678,0.000431,0.007169
15904000,0.0324,0.013523,0.002678,0.000431,0.005876
15905000,0.0324,0.013523,0.002678,0.000431,0.006347
15906000,0.0324,0.013523,0.002678,0.000431,0.006464
15907000,0.0324,0.013523,0.002678,0.000431,0.006934
15908000,0.0324,0.013523,0.002678,0.000431,0.005876
15909000,0.0324,0.013523,0.002678,0.000431,0.006699
15910000,0.0324,0.013523,0.002678,0.000431,0.005994
15911000,0.0324,0.013523,0.002678,0.000431,0.006699
15912000,0.0324,0.013523,0.002678,0.000431,0.006347
15913000,0.0324,0.013523,0.002678,0.000431,0.006464
15914000,0.0324,0.013523,0.002678,0.000431,0.006229
15915000,0.0324,0.013523,0.002678,0.000431,0.005641
15916000,0.0324,0.013523,0.002678,0.000431,0.007052
15917000,0.0324,0.013523,0.002678,0.000431,0.006229
15918000,0.0324,0.013523,0.002678,0.000431,0.006229
15919000,0.0324,0.013523,0.002678,0.000431,0.005759
15920000,0.0324,0.013523,0.002678,0.000431,0.006699
15921000,0.0324,0.013523,0.002678,0.000431,0.006229
15922000,0.0324,0.013523,0.002678,0.000431,0.006699
15923000,0.0324,0.013523,0.002678,0.000431,0.006229
15924000,0.0324,0.013523,0.002678,0.000431,0.005994
15925000,0.0324,0.013523,0.002678,0.000431,0.005994
15926000,0.0324,0.013523,0.002678,0.000431,0.006229
15927000,0.0324,0.013523,0.002678,0.000431,0.005641
15928000,0.0324,0.013523,0.002678,0.000431,0.006464
15929000,0.0324,0.013523,0.002678,0.000431,0.006111
15930000,0.0324,0.013523,0.002678,0.000431,0.006229
15931000,0.0324,0.013523,0.002678,0.000431,0.006111
15932000,0.0324,0.013523,0.002678,0.000431,0.006464
15933000,0.0324,0.013523,0.002678,0.000431,0.006699
15934000,0.0324,0.013523,0.002678,0.000431,0.005406
15935000,0.0324,0.013523,0.002678,0.000431,0.006111
15936000,0.0324,0.013523,0.002678,0.000431,0.005641
15937000,0.0324,0.013523,0.002678,0.000431,0.005876
15938000,0.0324,0.013523,0.002678,0.000431,0.006817
15939000,0.0324,0.013523,0.002678,0.000431,0.005759
15940000,0.0324,0.013523,0.002678,0.000431,0.005759
15941000,0.0324,0.013523,0.002678,0.000431,0.006111
15942000,0.0324,0.013523,0.002678,0.000431,0.006347
15943000,0.0324,0.013523,0.002678,0.000431,0.006934
15944000,0.0324,0.013523,0.002678,0.000431,0.006699
15945000,0.0324,0.013523,0.002678,0.000431,0.007052
15946000,0.0324,0.013523,0.002678,0.000431,0.005759
15947000,0.0324,0.013523,0.002678,0.000431,0.006582
15948000,0.0324,0.013523,0.002678,0.000431,0.006229
15949000,0.0324,0.013523,0.002678,0.000431,0.005876
15950000,0.0324,0.013523,0.002678,0.000431,0.006699
15951000,0.0324,0.013523,0.002678,0.000431,0.005994
15952000,0.0324,0.013523,0.002678,0.000431,0.006934
15953000,0.0324,0.013523,0.002678,0.000431,0.006347
15954000,0.0324,0.013523,0.002678,0.000431,0.005994
15955000,0.0324,0.013523,0.002678,0.000431,0.006229
15956000,0.0324,0.013523,0.002678,0.000431,0.006111
15957000,0.0324,0.013523,0.002678,0.000431,0.006582
15958000,0.0324,0.013523,0.002678,0.000431,0.005171
15959000,0.0324,0.013523,0.002678,0.000431,0.005994
15960000,0.0324,0.013523,0.002678,0.000431,0.006582
15961000,0.0324,0.013523,0.002678,0.000431,0.006229
15962000,0.0324,0.013523,0.002678,0.000431,0.006699
15963000,0.0324,0.013523,0.002678,0.000431,0.006347
15964000,0.0324,0.013523,0.002678,0.000431,0.005876
15965000,0.0324,0.013523,0.002678,0.000431,0.006582
15966000,0.0324,0.013523,0.002678,0.000431,0.005406
15967000,0.0324,0.013523,0.002678,0.000431,0.006934
15968000,0.0324,0.013523,0.002678,0.000431,0.005524
15969000,0.0324,0.013523,0.002678,0.000431,0.006582
15970000,0.0324,0.013523,0.002678,0.000431,0.006582
15971000,0.0324,0.013523,0.002678,0.000431,0.006229
15972000,0.0324,0.013523,0.002678,0.000431,0.005759
15973000,0.0324,0.013523,0.002678,0.000431,0.006111
15974000,0.0324,0.013523,0.002678,0.000431,0.007052
15975000,0.0324,0.013523,0.002678,0.000431,0.005406
15976000,0.0324,0.013523,0.002678,0.000431,0.007052
15977000,0.0324,0.013523,0.002678,0.000431,0.006582
15978000,0.0324,0.013523,0.002678,0.000431,0.007169
15979000,0.0324,0.013523,0.002678,0.000431,0.005759
15980000,0.0324,0.013523,0.002678,0.000431,0.005641
15981000,0.0324,0.013523,0.002678,0.000431,0.006111
15982000,0.0324,0.013523,0.002678,0.000431,0.006111
15983000,0.0324,0.013523,0.002678,0.000431,0.006582
15984000,0.0324,0.013523,0.002678,0.000431,0.006464
15985000,0.0324,0.013523,0.002678,0.000431,0.006582
15986000,0.0324,0.013523,0.002678,0.000431,0.006111
15987000,0.0324,0.013523,0.002678,0.000431,0.006111
15988000,0.0324,0.013523,0.002678,0.000431,0.006464
15989000,0.0324,0.013523,0.002678,0.000431,0.005876
15990000,0.0324,0.013523,0.002678,0.000431,0.006111
15991000,0.0324,0.013523,0.002678,0.000431,0.006347
15992000,0.0324,0.013523,0.002678,0.000431,0.005994
15993000,0.0324,0.013523,0.002678,0.000431,0.007169
15994000,0.0324,0.013523,0.002678,0.000431,0.006229
15995000,0.0324,0.013523,0.002678,0.000431,0.005524
15996000,0.0324,0.013523,0.002678,0.000431,0.005289
15997000,0.0324,0.013523,0.002678,0.000431,0.006111
15998000,0.0324,0.013523,0.002678,0.000431,0.005524
15999000,0.0324,0.013523,0.002678,0.000431,0.006229
