Cycle,Area(mm^2),PeakDynamic(W),SubthresholdLeakage(W),GateLeakage(W),RunTimeDynamic(W)
17000000,0.0324,0.013523,0.002678,0.000431,0.004936
17001000,0.0324,0.013523,0.002678,0.000431,0.005406
17002000,0.0324,0.013523,0.002678,0.000431,0.005289
17003000,0.0324,0.013523,0.002678,0.000431,0.005171
17004000,0.0324,0.013523,0.002678,0.000431,0.005289
17005000,0.0324,0.013523,0.002678,0.000431,0.005054
17006000,0.0324,0.013523,0.002678,0.000431,0.004701
17007000,0.0324,0.013523,0.002678,0.000431,0.005289
17008000,0.0324,0.013523,0.002678,0.000431,0.003878
17009000,0.0324,0.013523,0.002678,0.000431,0.005641
17010000,0.0324,0.013523,0.002678,0.000431,0.005641
17011000,0.0324,0.013523,0.002678,0.000431,0.004936
17012000,0.0324,0.013523,0.002678,0.000431,0.005289
17013000,0.0324,0.013523,0.002678,0.000431,0.004701
17014000,0.0324,0.013523,0.002678,0.000431,0.005406
17015000,0.0324,0.013523,0.002678,0.000431,0.004466
17016000,0.0324,0.013523,0.002678,0.000431,0.005054
17017000,0.0324,0.013523,0.002678,0.000431,0.005054
17018000,0.0324,0.013523,0.002678,0.000431,0.005289
17019000,0.0324,0.013523,0.002678,0.000431,0.004936
17020000,0.0324,0.013523,0.002678,0.000431,0.005994
17021000,0.0324,0.013523,0.002678,0.000431,0.004936
17022000,0.0324,0.013523,0.002678,0.000431,0.004701
17023000,0.0324,0.013523,0.002678,0.000431,0.004936
17024000,0.0324,0.013523,0.002678,0.000431,0.005289
17025000,0.0324,0.013523,0.002678,0.000431,0.005054
17026000,0.0324,0.013523,0.002678,0.000431,0.005524
17027000,0.0324,0.013523,0.002678,0.000431,0.005171
17028000,0.0324,0.013523,0.002678,0.000431,0.005876
17029000,0.0324,0.013523,0.002678,0.000431,0.005289
17030000,0.0324,0.013523,0.002678,0.000431,0.005171
17031000,0.0324,0.013523,0.002678,0.000431,0.005171
17032000,0.0324,0.013523,0.002678,0.000431,0.005289
17033000,0.0324,0.013523,0.002678,0.000431,0.005641
17034000,0.0324,0.013523,0.002678,0.000431,0.004819
17035000,0.0324,0.013523,0.002678,0.000431,0.005289
17036000,0.0324,0.013523,0.002678,0.000431,0.004701
17037000,0.0324,0.013523,0.002678,0.000431,0.005406
17038000,0.0324,0.013523,0.002678,0.000431,0.004701
17039000,0.0324,0.013523,0.002678,0.000431,0.005171
17040000,0.0324,0.013523,0.002678,0.000431,0.005524
17041000,0.0324,0.013523,0.002678,0.000431,0.004701
17042000,0.0324,0.013523,0.002678,0.000431,0.005054
17043000,0.0324,0.013523,0.002678,0.000431,0.005171
17044000,0.0324,0.013523,0.002678,0.000431,0.005054
17045000,0.0324,0.013523,0.002678,0.000431,0.004584
17046000,0.0324,0.013523,0.002678,0.000431,0.005289
17047000,0.0324,0.013523,0.002678,0.000431,0.005171
17048000,0.0324,0.013523,0.002678,0.000431,0.004819
17049000,0.0324,0.013523,0.002678,0.000431,0.005054
17050000,0.0324,0.013523,0.002678,0.000431,0.005289
17051000,0.0324,0.013523,0.002678,0.000431,0.004701
17052000,0.0324,0.013523,0.002678,0.000431,0.004936
17053000,0.0324,0.013523,0.002678,0.000431,0.004936
17054000,0.0324,0.013523,0.002678,0.000431,0.005289
17055000,0.0324,0.013523,0.002678,0.000431,0.005289
17056000,0.0324,0.013523,0.002678,0.000431,0.005641
17057000,0.0324,0.013523,0.002678,0.000431,0.005054
17058000,0.0324,0.013523,0.002678,0.000431,0.005289
17059000,0.0324,0.013523,0.002678,0.000431,0.005171
17060000,0.0324,0.013523,0.002678,0.000431,0.004466
17061000,0.0324,0.013523,0.002678,0.000431,0.004466
17062000,0.0324,0.013523,0.002678,0.000431,0.005994
17063000,0.0324,0.013523,0.002678,0.000431,0.005524
17064000,0.0324,0.013523,0.002678,0.000431,0.004466
17065000,0.0324,0.013523,0.002678,0.000431,0.005289
17066000,0.0324,0.013523,0.002678,0.000431,0.005054
17067000,0.0324,0.013523,0.002678,0.000431,0.005054
17068000,0.0324,0.013523,0.002678,0.000431,0.005054
17069000,0.0324,0.013523,0.002678,0.000431,0.005759
17070000,0.0324,0.013523,0.002678,0.000431,0.004584
17071000,0.0324,0.013523,0.002678,0.000431,0.005289
17072000,0.0324,0.013523,0.002678,0.000431,0.005171
17073000,0.0324,0.013523,0.002678,0.000431,0.005171
17074000,0.0324,0.013523,0.002678,0.000431,0.005171
17075000,0.0324,0.013523,0.002678,0.000431,0.005054
17076000,0.0324,0.013523,0.002678,0.000431,0.004936
17077000,0.0324,0.013523,0.002678,0.000431,0.004936
17078000,0.0324,0.013523,0.002678,0.000431,0.004466
17079000,0.0324,0.013523,0.002678,0.000431,0.005406
17080000,0.0324,0.013523,0.002678,0.000431,0.004936
17081000,0.0324,0.013523,0.002678,0.000431,0.004819
17082000,0.0324,0.013523,0.002678,0.000431,0.005054
17083000,0.0324,0.013523,0.002678,0.000431,0.005406
17084000,0.0324,0.013523,0.002678,0.000431,0.005054
17085000,0.0324,0.013523,0.002678,0.000431,0.005054
17086000,0.0324,0.013523,0.002678,0.000431,0.005524
17087000,0.0324,0.013523,0.002678,0.000431,0.005641
17088000,0.0324,0.013523,0.002678,0.000431,0.005054
17089000,0.0324,0.013523,0.002678,0.000431,0.004819
17090000,0.0324,0.013523,0.002678,0.000431,0.005759
17091000,0.0324,0.013523,0.002678,0.000431,0.004936
17092000,0.0324,0.013523,0.002678,0.000431,0.004584
17093000,0.0324,0.013523,0.002678,0.000431,0.005171
17094000,0.0324,0.013523,0.002678,0.000431,0.004936
17095000,0.0324,0.013523,0.002678,0.000431,0.005054
17096000,0.0324,0.013523,0.002678,0.000431,0.005171
17097000,0.0324,0.013523,0.002678,0.000431,0.004936
17098000,0.0324,0.013523,0.002678,0.000431,0.005641
17099000,0.0324,0.013523,0.002678,0.000431,0.004466
17100000,0.0324,0.013523,0.002678,0.000431,0.005289
17101000,0.0324,0.013523,0.002678,0.000431,0.004584
17102000,0.0324,0.013523,0.002678,0.000431,0.005289
17103000,0.0324,0.013523,0.002678,0.000431,0.004936
17104000,0.0324,0.013523,0.002678,0.000431,0.005406
17105000,0.0324,0.013523,0.002678,0.000431,0.005054
17106000,0.0324,0.013523,0.002678,0.000431,0.004584
17107000,0.0324,0.013523,0.002678,0.000431,0.004349
17108000,0.0324,0.013523,0.002678,0.000431,0.005054
17109000,0.0324,0.013523,0.002678,0.000431,0.004584
17110000,0.0324,0.013523,0.002678,0.000431,0.005641
17111000,0.0324,0.013523,0.002678,0.000431,0.005171
17112000,0.0324,0.013523,0.002678,0.000431,0.005524
17113000,0.0324,0.013523,0.002678,0.000431,0.004584
17114000,0.0324,0.013523,0.002678,0.000431,0.005171
17115000,0.0324,0.013523,0.002678,0.000431,0.004936
17116000,0.0324,0.013523,0.002678,0.000431,0.004231
17117000,0.0324,0.013523,0.002678,0.000431,0.005054
17118000,0.0324,0.013523,0.002678,0.000431,0.005289
17119000,0.0324,0.013523,0.002678,0.000431,0.005054
17120000,0.0324,0.013523,0.002678,0.000431,0.005994
17121000,0.0324,0.013523,0.002678,0.000431,0.005171
17122000,0.0324,0.013523,0.002678,0.000431,0.005171
17123000,0.0324,0.013523,0.002678,0.000431,0.005406
17124000,0.0324,0.013523,0.002678,0.000431,0.004819
17125000,0.0324,0.013523,0.002678,0.000431,0.004584
17126000,0.0324,0.013523,0.002678,0.000431,0.005289
17127000,0.0324,0.013523,0.002678,0.000431,0.006111
17128000,0.0324,0.013523,0.002678,0.000431,0.004819
17129000,0.0324,0.013523,0.002678,0.000431,0.004936
17130000,0.0324,0.013523,0.002678,0.000431,0.004701
17131000,0.0324,0.013523,0.002678,0.000431,0.005641
17132000,0.0324,0.013523,0.002678,0.000431,0.004466
17133000,0.0324,0.013523,0.002678,0.000431,0.005054
17134000,0.0324,0.013523,0.002678,0.000431,0.005406
17135000,0.0324,0.013523,0.002678,0.000431,0.004819
17136000,0.0324,0.013523,0.002678,0.000431,0.004584
17137000,0.0324,0.013523,0.002678,0.000431,0.004936
17138000,0.0324,0.013523,0.002678,0.000431,0.005171
17139000,0.0324,0.013523,0.002678,0.000431,0.004701
17140000,0.0324,0.013523,0.002678,0.000431,0.005406
17141000,0.0324,0.013523,0.002678,0.000431,0.004584
17142000,0.0324,0.013523,0.002678,0.000431,0.005054
17143000,0.0324,0.013523,0.002678,0.000431,0.005054
17144000,0.0324,0.013523,0.002678,0.000431,0.004584
17145000,0.0324,0.013523,0.002678,0.000431,0.004936
17146000,0.0324,0.013523,0.002678,0.000431,0.004466
17147000,0.0324,0.013523,0.002678,0.000431,0.004819
17148000,0.0324,0.013523,0.002678,0.000431,0.005054
17149000,0.0324,0.013523,0.002678,0.000431,0.004701
17150000,0.0324,0.013523,0.002678,0.000431,0.005524
17151000,0.0324,0.013523,0.002678,0.000431,0.005054
17152000,0.0324,0.013523,0.002678,0.000431,0.005054
17153000,0.0324,0.013523,0.002678,0.000431,0.005524
17154000,0.0324,0.013523,0.002678,0.000431,0.005171
17155000,0.0324,0.013523,0.002678,0.000431,0.005406
17156000,0.0324,0.013523,0.002678,0.000431,0.005876
17157000,0.0324,0.013523,0.002678,0.000431,0.004584
17158000,0.0324,0.013523,0.002678,0.000431,0.004819
17159000,0.0324,0.013523,0.002678,0.000431,0.004701
17160000,0.0324,0.013523,0.002678,0.000431,0.004936
17161000,0.0324,0.013523,0.002678,0.000431,0.005171
17162000,0.0324,0.013523,0.002678,0.000431,0.004936
17163000,0.0324,0.013523,0.002678,0.000431,0.005289
17164000,0.0324,0.013523,0.002678,0.000431,0.004349
17165000,0.0324,0.013523,0.002678,0.000431,0.005289
17166000,0.0324,0.013523,0.002678,0.000431,0.005054
17167000,0.0324,0.013523,0.002678,0.000431,0.005171
17168000,0.0324,0.013523,0.002678,0.000431,0.005054
17169000,0.0324,0.013523,0.002678,0.000431,0.005524
17170000,0.0324,0.013523,0.002678,0.000431,0.005054
17171000,0.0324,0.013523,0.002678,0.000431,0.005054
17172000,0.0324,0.013523,0.002678,0.000431,0.005406
17173000,0.0324,0.013523,0.002678,0.000431,0.004819
17174000,0.0324,0.013523,0.002678,0.000431,0.004701
17175000,0.0324,0.013523,0.002678,0.000431,0.005641
17176000,0.0324,0.013523,0.002678,0.000431,0.005054
17177000,0.0324,0.013523,0.002678,0.000431,0.005054
17178000,0.0324,0.013523,0.002678,0.000431,0.005524
17179000,0.0324,0.013523,0.002678,0.000431,0.004584
17180000,0.0324,0.013523,0.002678,0.000431,0.004936
17181000,0.0324,0.013523,0.002678,0.000431,0.004584
17182000,0.0324,0.013523,0.002678,0.000431,0.005406
17183000,0.0324,0.013523,0.002678,0.000431,0.004584
17184000,0.0324,0.013523,0.002678,0.000431,0.004466
17185000,0.0324,0.013523,0.002678,0.000431,0.005406
17186000,0.0324,0.013523,0.002678,0.000431,0.004819
17187000,0.0324,0.013523,0.002678,0.000431,0.005054
17188000,0.0324,0.013523,0.002678,0.000431,0.004819
17189000,0.0324,0.013523,0.002678,0.000431,0.004349
17190000,0.0324,0.013523,0.002678,0.000431,0.004701
17191000,0.0324,0.013523,0.002678,0.000431,0.004584
17192000,0.0324,0.013523,0.002678,0.000431,0.005054
17193000,0.0324,0.013523,0.002678,0.000431,0.005289
17194000,0.0324,0.013523,0.002678,0.000431,0.004701
17195000,0.0324,0.013523,0.002678,0.000431,0.005171
17196000,0.0324,0.013523,0.002678,0.000431,0.005054
17197000,0.0324,0.013523,0.002678,0.000431,0.004936
17198000,0.0324,0.013523,0.002678,0.000431,0.004819
17199000,0.0324,0.013523,0.002678,0.000431,0.005054
17200000,0.0324,0.013523,0.002678,0.000431,0.005171
17201000,0.0324,0.013523,0.002678,0.000431,0.005524
17202000,0.0324,0.013523,0.002678,0.000431,0.004819
17203000,0.0324,0.013523,0.002678,0.000431,0.004584
17204000,0.0324,0.013523,0.002678,0.000431,0.004466
17205000,0.0324,0.013523,0.002678,0.000431,0.004584
17206000,0.0324,0.013523,0.002678,0.000431,0.005406
17207000,0.0324,0.013523,0.002678,0.000431,0.005054
17208000,0.0324,0.013523,0.002678,0.000431,0.005289
17209000,0.0324,0.013523,0.002678,0.000431,0.005406
17210000,0.0324,0.013523,0.002678,0.000431,0.004584
17211000,0.0324,0.013523,0.002678,0.000431,0.005524
17212000,0.0324,0.013523,0.002678,0.000431,0.004701
17213000,0.0324,0.013523,0.002678,0.000431,0.004936
17214000,0.0324,0.013523,0.002678,0.000431,0.004936
17215000,0.0324,0.013523,0.002678,0.000431,0.005171
17216000,0.0324,0.013523,0.002678,0.000431,0.005054
17217000,0.0324,0.013523,0.002678,0.000431,0.004701
17218000,0.0324,0.013523,0.002678,0.000431,0.005524
17219000,0.0324,0.013523,0.002678,0.000431,0.005171
17220000,0.0324,0.013523,0.002678,0.000431,0.005054
17221000,0.0324,0.013523,0.002678,0.000431,0.004936
17222000,0.0324,0.013523,0.002678,0.000431,0.004584
17223000,0.0324,0.013523,0.002678,0.000431,0.005289
17224000,0.0324,0.013523,0.002678,0.000431,0.004936
17225000,0.0324,0.013523,0.002678,0.000431,0.005406
17226000,0.0324,0.013523,0.002678,0.000431,0.005641
17227000,0.0324,0.013523,0.002678,0.000431,0.004819
17228000,0.0324,0.013523,0.002678,0.000431,0.004466
17229000,0.0324,0.013523,0.002678,0.000431,0.004819
17230000,0.0324,0.013523,0.002678,0.000431,0.004936
17231000,0.0324,0.013523,0.002678,0.000431,0.005759
17232000,0.0324,0.013523,0.002678,0.000431,0.004584
17233000,0.0324,0.013523,0.002678,0.000431,0.005054
17234000,0.0324,0.013523,0.002678,0.000431,0.005289
17235000,0.0324,0.013523,0.002678,0.000431,0.004819
17236000,0.0324,0.013523,0.002678,0.000431,0.004349
17237000,0.0324,0.013523,0.002678,0.000431,0.005171
17238000,0.0324,0.013523,0.002678,0.000431,0.005054
17239000,0.0324,0.013523,0.002678,0.000431,0.005289
17240000,0.0324,0.013523,0.002678,0.000431,0.004231
17241000,0.0324,0.013523,0.002678,0.000431,0.005289
17242000,0.0324,0.013523,0.002678,0.000431,0.004819
17243000,0.0324,0.013523,0.002678,0.000431,0.004819
17244000,0.0324,0.013523,0.002678,0.000431,0.005876
17245000,0.0324,0.013523,0.002678,0.000431,0.004936
17246000,0.0324,0.013523,0.002678,0.000431,0.005289
17247000,0.0324,0.013523,0.002678,0.000431,0.004584
17248000,0.0324,0.013523,0.002678,0.000431,0.005524
17249000,0.0324,0.013523,0.002678,0.000431,0.004466
17250000,0.0324,0.013523,0.002678,0.000431,0.005054
17251000,0.0324,0.013523,0.002678,0.000431,0.005289
17252000,0.0324,0.013523,0.002678,0.000431,0.004584
17253000,0.0324,0.013523,0.002678,0.000431,0.005759
17254000,0.0324,0.013523,0.002678,0.000431,0.004584
17255000,0.0324,0.013523,0.002678,0.000431,0.005171
17256000,0.0324,0.013523,0.002678,0.000431,0.004936
17257000,0.0324,0.013523,0.002678,0.000431,0.004349
17258000,0.0324,0.013523,0.002678,0.000431,0.005406
17259000,0.0324,0.013523,0.002678,0.000431,0.005406
17260000,0.0324,0.013523,0.002678,0.000431,0.005171
17261000,0.0324,0.013523,0.002678,0.000431,0.004819
17262000,0.0324,0.013523,0.002678,0.000431,0.005289
17263000,0.0324,0.013523,0.002678,0.000431,0.005054
17264000,0.0324,0.013523,0.002678,0.000431,0.005406
17265000,0.0324,0.013523,0.002678,0.000431,0.005524
17266000,0.0324,0.013523,0.002678,0.000431,0.004819
17267000,0.0324,0.013523,0.002678,0.000431,0.005406
17268000,0.0324,0.013523,0.002678,0.000431,0.004936
17269000,0.0324,0.013523,0.002678,0.000431,0.004936
17270000,0.0324,0.013523,0.002678,0.000431,0.005289
17271000,0.0324,0.013523,0.002678,0.000431,0.004936
17272000,0.0324,0.013523,0.002678,0.000431,0.004819
17273000,0.0324,0.013523,0.002678,0.000431,0.004819
17274000,0.0324,0.013523,0.002678,0.000431,0.004936
17275000,0.0324,0.013523,0.002678,0.000431,0.004819
17276000,0.0324,0.013523,0.002678,0.000431,0.005406
17277000,0.0324,0.013523,0.002678,0.000431,0.005171
17278000,0.0324,0.013523,0.002678,0.000431,0.004936
17279000,0.0324,0.013523,0.002678,0.000431,0.004819
17280000,0.0324,0.013523,0.002678,0.000431,0.005289
17281000,0.0324,0.013523,0.002678,0.000431,0.005641
17282000,0.0324,0.013523,0.002678,0.000431,0.005289
17283000,0.0324,0.013523,0.002678,0.000431,0.004701
17284000,0.0324,0.013523,0.002678,0.000431,0.004466
17285000,0.0324,0.013523,0.002678,0.000431,0.004466
17286000,0.0324,0.013523,0.002678,0.000431,0.005054
17287000,0.0324,0.013523,0.002678,0.000431,0.004584
17288000,0.0324,0.013523,0.002678,0.000431,0.005289
17289000,0.0324,0.013523,0.002678,0.000431,0.004701
17290000,0.0324,0.013523,0.002678,0.000431,0.004819
17291000,0.0324,0.013523,0.002678,0.000431,0.005171
17292000,0.0324,0.013523,0.002678,0.000431,0.004819
17293000,0.0324,0.013523,0.002678,0.000431,0.004701
17294000,0.0324,0.013523,0.002678,0.000431,0.005406
17295000,0.0324,0.013523,0.002678,0.000431,0.005759
17296000,0.0324,0.013523,0.002678,0.000431,0.005289
17297000,0.0324,0.013523,0.002678,0.000431,0.005054
17298000,0.0324,0.013523,0.002678,0.000431,0.005406
17299000,0.0324,0.013523,0.002678,0.000431,0.004701
17300000,0.0324,0.013523,0.002678,0.000431,0.004701
17301000,0.0324,0.013523,0.002678,0.000431,0.005054
17302000,0.0324,0.013523,0.002678,0.000431,0.004584
17303000,0.0324,0.013523,0.002678,0.000431,0.005289
17304000,0.0324,0.013523,0.002678,0.000431,0.004584
17305000,0.0324,0.013523,0.002678,0.000431,0.005054
17306000,0.0324,0.013523,0.002678,0.000431,0.004819
17307000,0.0324,0.013523,0.002678,0.000431,0.004584
17308000,0.0324,0.013523,0.002678,0.000431,0.005406
17309000,0.0324,0.013523,0.002678,0.000431,0.004584
17310000,0.0324,0.013523,0.002678,0.000431,0.004701
17311000,0.0324,0.013523,0.002678,0.000431,0.005054
17312000,0.0324,0.013523,0.002678,0.000431,0.005054
17313000,0.0324,0.013523,0.002678,0.000431,0.004466
17314000,0.0324,0.013523,0.002678,0.000431,0.004936
17315000,0.0324,0.013523,0.002678,0.000431,0.005406
17316000,0.0324,0.013523,0.002678,0.000431,0.004936
17317000,0.0324,0.013523,0.002678,0.000431,0.004584
17318000,0.0324,0.013523,0.002678,0.000431,0.004819
17319000,0.0324,0.013523,0.002678,0.000431,0.005641
17320000,0.0324,0.013523,0.002678,0.000431,0.005054
17321000,0.0324,0.013523,0.002678,0.000431,0.004701
17322000,0.0324,0.013523,0.002678,0.000431,0.005406
17323000,0.0324,0.013523,0.002678,0.000431,0.005171
17324000,0.0324,0.013523,0.002678,0.000431,0.004701
17325000,0.0324,0.013523,0.002678,0.000431,0.005641
17326000,0.0324,0.013523,0.002678,0.000431,0.004819
17327000,0.0324,0.013523,0.002678,0.000431,0.005054
17328000,0.0324,0.013523,0.002678,0.000431,0.005171
17329000,0.0324,0.013523,0.002678,0.000431,0.004819
17330000,0.0324,0.013523,0.002678,0.000431,0.005054
17331000,0.0324,0.013523,0.002678,0.000431,0.005406
17332000,0.0324,0.013523,0.002678,0.000431,0.005524
17333000,0.0324,0.013523,0.002678,0.000431,0.005289
17334000,0.0324,0.013523,0.002678,0.000431,0.004113
17335000,0.0324,0.013523,0.002678,0.000431,0.005289
17336000,0.0324,0.013523,0.002678,0.000431,0.005054
17337000,0.0324,0.013523,0.002678,0.000431,0.004819
17338000,0.0324,0.013523,0.002678,0.000431,0.005171
17339000,0.0324,0.013523,0.002678,0.000431,0.005054
17340000,0.0324,0.013523,0.002678,0.000431,0.004701
17341000,0.0324,0.013523,0.002678,0.000431,0.004936
17342000,0.0324,0.013523,0.002678,0.000431,0.005171
17343000,0.0324,0.013523,0.002678,0.000431,0.004701
17344000,0.0324,0.013523,0.002678,0.000431,0.005054
17345000,0.0324,0.013523,0.002678,0.000431,0.005054
17346000,0.0324,0.013523,0.002678,0.000431,0.004701
17347000,0.0324,0.013523,0.002678,0.000431,0.004819
17348000,0.0324,0.013523,0.002678,0.000431,0.005289
17349000,0.0324,0.013523,0.002678,0.000431,0.005171
17350000,0.0324,0.013523,0.002678,0.000431,0.004701
17351000,0.0324,0.013523,0.002678,0.000431,0.005641
17352000,0.0324,0.013523,0.002678,0.000431,0.005171
17353000,0.0324,0.013523,0.002678,0.000431,0.005524
17354000,0.0324,0.013523,0.002678,0.000431,0.005054
17355000,0.0324,0.013523,0.002678,0.000431,0.004936
17356000,0.0324,0.013523,0.002678,0.000431,0.004701
17357000,0.0324,0.013523,0.002678,0.000431,0.004701
17358000,0.0324,0.013523,0.002678,0.000431,0.005289
17359000,0.0324,0.013523,0.002678,0.000431,0.004936
17360000,0.0324,0.013523,0.002678,0.000431,0.004701
17361000,0.0324,0.013523,0.002678,0.000431,0.005171
17362000,0.0324,0.013523,0.002678,0.000431,0.005054
17363000,0.0324,0.013523,0.002678,0.000431,0.004701
17364000,0.0324,0.013523,0.002678,0.000431,0.004936
17365000,0.0324,0.013523,0.002678,0.000431,0.004584
17366000,0.0324,0.013523,0.002678,0.000431,0.004936
17367000,0.0324,0.013523,0.002678,0.000431,0.004936
17368000,0.0324,0.013523,0.002678,0.000431,0.005406
17369000,0.0324,0.013523,0.002678,0.000431,0.005054
17370000,0.0324,0.013523,0.002678,0.000431,0.004819
17371000,0.0324,0.013523,0.002678,0.000431,0.004936
17372000,0.0324,0.013523,0.002678,0.000431,0.005524
17373000,0.0324,0.013523,0.002678,0.000431,0.004701
17374000,0.0324,0.013523,0.002678,0.000431,0.005171
17375000,0.0324,0.013523,0.002678,0.000431,0.004584
17376000,0.0324,0.013523,0.002678,0.000431,0.005054
17377000,0.0324,0.013523,0.002678,0.000431,0.005876
17378000,0.0324,0.013523,0.002678,0.000431,0.005171
17379000,0.0324,0.013523,0.002678,0.000431,0.004584
17380000,0.0324,0.013523,0.002678,0.000431,0.005641
17381000,0.0324,0.013523,0.002678,0.000431,0.004936
17382000,0.0324,0.013523,0.002678,0.000431,0.004701
17383000,0.0324,0.013523,0.002678,0.000431,0.004701
17384000,0.0324,0.013523,0.002678,0.000431,0.004936
17385000,0.0324,0.013523,0.002678,0.000431,0.005171
17386000,0.0324,0.013523,0.002678,0.000431,0.005406
17387000,0.0324,0.013523,0.002678,0.000431,0.005054
17388000,0.0324,0.013523,0.002678,0.000431,0.005524
17389000,0.0324,0.013523,0.002678,0.000431,0.004819
17390000,0.0324,0.013523,0.002678,0.000431,0.005171
17391000,0.0324,0.013523,0.002678,0.000431,0.005054
17392000,0.0324,0.013523,0.002678,0.000431,0.004701
17393000,0.0324,0.013523,0.002678,0.000431,0.005054
17394000,0.0324,0.013523,0.002678,0.000431,0.004701
17395000,0.0324,0.013523,0.002678,0.000431,0.004936
17396000,0.0324,0.013523,0.002678,0.000431,0.004466
17397000,0.0324,0.013523,0.002678,0.000431,0.005289
17398000,0.0324,0.013523,0.002678,0.000431,0.004701
17399000,0.0324,0.013523,0.002678,0.000431,0.005524
17400000,0.0324,0.013523,0.002678,0.000431,0.004113
17401000,0.0324,0.013523,0.002678,0.000431,0.004231
17402000,0.0324,0.013523,0.002678,0.000431,0.004936
17403000,0.0324,0.013523,0.002678,0.000431,0.004584
17404000,0.0324,0.013523,0.002678,0.000431,0.004113
17405000,0.0324,0.013523,0.002678,0.000431,0.004701
17406000,0.0324,0.013523,0.002678,0.000431,0.004466
17407000,0.0324,0.013523,0.002678,0.000431,0.004584
17408000,0.0324,0.013523,0.002678,0.000431,0.004819
17409000,0.0324,0.013523,0.002678,0.000431,0.004113
17410000,0.0324,0.013523,0.002678,0.000431,0.004936
17411000,0.0324,0.013523,0.002678,0.000431,0.004231
17412000,0.0324,0.013523,0.002678,0.000431,0.004584
17413000,0.0324,0.013523,0.002678,0.000431,0.004584
17414000,0.0324,0.013523,0.002678,0.000431,0.003761
17415000,0.0324,0.013523,0.002678,0.000431,0.004584
17416000,0.0324,0.013523,0.002678,0.000431,0.004819
17417000,0.0324,0.013523,0.002678,0.000431,0.004349
17418000,0.0324,0.013523,0.002678,0.000431,0.004584
17419000,0.0324,0.013523,0.002678,0.000431,0.004701
17420000,0.0324,0.013523,0.002678,0.000431,0.004231
17421000,0.0324,0.013523,0.002678,0.000431,0.003878
17422000,0.0324,0.013523,0.002678,0.000431,0.004936
17423000,0.0324,0.013523,0.002678,0.000431,0.004819
17424000,0.0324,0.013523,0.002678,0.000431,0.004113
17425000,0.0324,0.013523,0.002678,0.000431,0.004349
17426000,0.0324,0.013523,0.002678,0.000431,0.004819
17427000,0.0324,0.013523,0.002678,0.000431,0.004701
17428000,0.0324,0.013523,0.002678,0.000431,0.004584
17429000,0.0324,0.013523,0.002678,0.000431,0.004819
17430000,0.0324,0.013523,0.002678,0.000431,0.004936
17431000,0.0324,0.013523,0.002678,0.000431,0.004584
17432000,0.0324,0.013523,0.002678,0.000431,0.004466
17433000,0.0324,0.013523,0.002678,0.000431,0.004819
17434000,0.0324,0.013523,0.002678,0.000431,0.004349
17435000,0.0324,0.013523,0.002678,0.000431,0.005054
17436000,0.0324,0.013523,0.002678,0.000431,0.004701
17437000,0.0324,0.013523,0.002678,0.000431,0.004349
17438000,0.0324,0.013523,0.002678,0.000431,0.004819
17439000,0.0324,0.013523,0.002678,0.000431,0.004466
17440000,0.0324,0.013523,0.002678,0.000431,0.004466
17441000,0.0324,0.013523,0.002678,0.000431,0.004231
17442000,0.0324,0.013523,0.002678,0.000431,0.004701
17443000,0.0324,0.013523,0.002678,0.000431,0.004231
17444000,0.0324,0.013523,0.002678,0.000431,0.005054
17445000,0.0324,0.013523,0.002678,0.000431,0.004349
17446000,0.0324,0.013523,0.002678,0.000431,0.004584
17447000,0.0324,0.013523,0.002678,0.000431,0.004584
17448000,0.0324,0.013523,0.002678,0.000431,0.004466
17449000,0.0324,0.013523,0.002678,0.000431,0.004349
17450000,0.0324,0.013523,0.002678,0.000431,0.004701
17451000,0.0324,0.013523,0.002678,0.000431,0.004701
17452000,0.0324,0.013523,0.002678,0.000431,0.004466
17453000,0.0324,0.013523,0.002678,0.000431,0.004584
17454000,0.0324,0.013523,0.002678,0.000431,0.004819
17455000,0.0324,0.013523,0.002678,0.000431,0.004584
17456000,0.0324,0.013523,0.002678,0.000431,0.004349
17457000,0.0324,0.013523,0.002678,0.000431,0.004819
17458000,0.0324,0.013523,0.002678,0.000431,0.004349
17459000,0.0324,0.013523,0.002678,0.000431,0.004349
17460000,0.0324,0.013523,0.002678,0.000431,0.004936
17461000,0.0324,0.013523,0.002678,0.000431,0.004231
17462000,0.0324,0.013523,0.002678,0.000431,0.004701
17463000,0.0324,0.013523,0.002678,0.000431,0.004584
17464000,0.0324,0.013523,0.002678,0.000431,0.004231
17465000,0.0324,0.013523,0.002678,0.000431,0.004936
17466000,0.0324,0.013523,0.002678,0.000431,0.004349
17467000,0.0324,0.013523,0.002678,0.000431,0.004701
17468000,0.0324,0.013523,0.002678,0.000431,0.004113
17469000,0.0324,0.013523,0.002678,0.000431,0.004584
17470000,0.0324,0.013523,0.002678,0.000431,0.004819
17471000,0.0324,0.013523,0.002678,0.000431,0.005289
17472000,0.0324,0.013523,0.002678,0.000431,0.004584
17473000,0.0324,0.013523,0.002678,0.000431,0.004584
17474000,0.0324,0.013523,0.002678,0.000431,0.004584
17475000,0.0324,0.013523,0.002678,0.000431,0.004349
17476000,0.0324,0.013523,0.002678,0.000431,0.004349
17477000,0.0324,0.013523,0.002678,0.000431,0.004466
17478000,0.0324,0.013523,0.002678,0.000431,0.004113
17479000,0.0324,0.013523,0.002678,0.000431,0.004349
17480000,0.0324,0.013523,0.002678,0.000431,0.005054
17481000,0.0324,0.013523,0.002678,0.000431,0.004231
17482000,0.0324,0.013523,0.002678,0.000431,0.004936
17483000,0.0324,0.013523,0.002678,0.000431,0.004701
17484000,0.0324,0.013523,0.002678,0.000431,0.004466
17485000,0.0324,0.013523,0.002678,0.000431,0.004231
17486000,0.0324,0.013523,0.002678,0.000431,0.004936
17487000,0.0324,0.013523,0.002678,0.000431,0.005054
17488000,0.0324,0.013523,0.002678,0.000431,0.004466
17489000,0.0324,0.013523,0.002678,0.000431,0.004113
17490000,0.0324,0.013523,0.002678,0.000431,0.004231
17491000,0.0324,0.013523,0.002678,0.000431,0.004349
17492000,0.0324,0.013523,0.002678,0.000431,0.004936
17493000,0.0324,0.013523,0.002678,0.000431,0.004936
17494000,0.0324,0.013523,0.002678,0.000431,0.004113
17495000,0.0324,0.013523,0.002678,0.000431,0.004701
17496000,0.0324,0.013523,0.002678,0.000431,0.004349
17497000,0.0324,0.013523,0.002678,0.000431,0.004113
17498000,0.0324,0.013523,0.002678,0.000431,0.004466
17499000,0.0324,0.013523,0.002678,0.000431,0.005054
17500000,0.0324,0.013523,0.002678,0.000431,0.005054
17501000,0.0324,0.013523,0.002678,0.000431,0.003526
17502000,0.0324,0.013523,0.002678,0.000431,0.004113
17503000,0.0324,0.013523,0.002678,0.000431,0.004466
17504000,0.0324,0.013523,0.002678,0.000431,0.004701
17505000,0.0324,0.013523,0.002678,0.000431,0.004231
17506000,0.0324,0.013523,0.002678,0.000431,0.004466
17507000,0.0324,0.013523,0.002678,0.000431,0.004466
17508000,0.0324,0.013523,0.002678,0.000431,0.004936
17509000,0.0324,0.013523,0.002678,0.000431,0.004701
17510000,0.0324,0.013523,0.002678,0.000431,0.004936
17511000,0.0324,0.013523,0.002678,0.000431,0.004349
17512000,0.0324,0.013523,0.002678,0.000431,0.004584
17513000,0.0324,0.013523,0.002678,0.000431,0.003996
17514000,0.0324,0.013523,0.002678,0.000431,0.004584
17515000,0.0324,0.013523,0.002678,0.000431,0.003996
17516000,0.0324,0.013523,0.002678,0.000431,0.004701
17517000,0.0324,0.013523,0.002678,0.000431,0.004584
17518000,0.0324,0.013523,0.002678,0.000431,0.004701
17519000,0.0324,0.013523,0.002678,0.000431,0.004349
17520000,0.0324,0.013523,0.002678,0.000431,0.004701
17521000,0.0324,0.013523,0.002678,0.000431,0.004584
17522000,0.0324,0.013523,0.002678,0.000431,0.004584
17523000,0.0324,0.013523,0.002678,0.000431,0.004584
17524000,0.0324,0.013523,0.002678,0.000431,0.005406
17525000,0.0324,0.013523,0.002678,0.000431,0.004701
17526000,0.0324,0.013523,0.002678,0.000431,0.004584
17527000,0.0324,0.013523,0.002678,0.000431,0.004113
17528000,0.0324,0.013523,0.002678,0.000431,0.004349
17529000,0.0324,0.013523,0.002678,0.000431,0.004466
17530000,0.0324,0.013523,0.002678,0.000431,0.004231
17531000,0.0324,0.013523,0.002678,0.000431,0.005171
17532000,0.0324,0.013523,0.002678,0.000431,0.004349
17533000,0.0324,0.013523,0.002678,0.000431,0.004113
17534000,0.0324,0.013523,0.002678,0.000431,0.005406
17535000,0.0324,0.013523,0.002678,0.000431,0.004819
17536000,0.0324,0.013523,0.002678,0.000431,0.004819
17537000,0.0324,0.013523,0.002678,0.000431,0.004936
17538000,0.0324,0.013523,0.002678,0.000431,0.004701
17539000,0.0324,0.013523,0.002678,0.000431,0.004701
17540000,0.0324,0.013523,0.002678,0.000431,0.004349
17541000,0.0324,0.013523,0.002678,0.000431,0.004231
17542000,0.0324,0.013523,0.002678,0.000431,0.004584
17543000,0.0324,0.013523,0.002678,0.000431,0.004701
17544000,0.0324,0.013523,0.002678,0.000431,0.004584
17545000,0.0324,0.013523,0.002678,0.000431,0.004701
17546000,0.0324,0.013523,0.002678,0.000431,0.004349
17547000,0.0324,0.013523,0.002678,0.000431,0.004349
17548000,0.0324,0.013523,0.002678,0.000431,0.005054
17549000,0.0324,0.013523,0.002678,0.000431,0.004819
17550000,0.0324,0.013523,0.002678,0.000431,0.004584
17551000,0.0324,0.013523,0.002678,0.000431,0.004584
17552000,0.0324,0.013523,0.002678,0.000431,0.004819
17553000,0.0324,0.013523,0.002678,0.000431,0.003643
17554000,0.0324,0.013523,0.002678,0.000431,0.004349
17555000,0.0324,0.013523,0.002678,0.000431,0.004819
17556000,0.0324,0.013523,0.002678,0.000431,0.004349
17557000,0.0324,0.013523,0.002678,0.000431,0.004349
17558000,0.0324,0.013523,0.002678,0.000431,0.004584
17559000,0.0324,0.013523,0.002678,0.000431,0.004584
17560000,0.0324,0.013523,0.002678,0.000431,0.004701
17561000,0.0324,0.013523,0.002678,0.000431,0.005054
17562000,0.0324,0.013523,0.002678,0.000431,0.004819
17563000,0.0324,0.013523,0.002678,0.000431,0.004231
17564000,0.0324,0.013523,0.002678,0.000431,0.004231
17565000,0.0324,0.013523,0.002678,0.000431,0.004349
17566000,0.0324,0.013523,0.002678,0.000431,0.004231
17567000,0.0324,0.013523,0.002678,0.000431,0.004701
17568000,0.0324,0.013523,0.002678,0.000431,0.004701
17569000,0.0324,0.013523,0.002678,0.000431,0.004701
17570000,0.0324,0.013523,0.002678,0.000431,0.005171
17571000,0.0324,0.013523,0.002678,0.000431,0.004819
17572000,0.0324,0.013523,0.002678,0.000431,0.003761
17573000,0.0324,0.013523,0.002678,0.000431,0.004936
17574000,0.0324,0.013523,0.002678,0.000431,0.004466
17575000,0.0324,0.013523,0.002678,0.000431,0.004349
17576000,0.0324,0.013523,0.002678,0.000431,0.004936
17577000,0.0324,0.013523,0.002678,0.000431,0.004231
17578000,0.0324,0.013523,0.002678,0.000431,0.004584
17579000,0.0324,0.013523,0.002678,0.000431,0.004936
17580000,0.0324,0.013523,0.002678,0.000431,0.004584
17581000,0.0324,0.013523,0.002678,0.000431,0.005054
17582000,0.0324,0.013523,0.002678,0.000431,0.004231
17583000,0.0324,0.013523,0.002678,0.000431,0.003878
17584000,0.0324,0.013523,0.002678,0.000431,0.003996
17585000,0.0324,0.013523,0.002678,0.000431,0.004466
17586000,0.0324,0.013523,0.002678,0.000431,0.004584
17587000,0.0324,0.013523,0.002678,0.000431,0.004701
17588000,0.0324,0.013523,0.002678,0.000431,0.004701
17589000,0.0324,0.013523,0.002678,0.000431,0.004936
17590000,0.0324,0.013523,0.002678,0.000431,0.004231
17591000,0.0324,0.013523,0.002678,0.000431,0.004584
17592000,0.0324,0.013523,0.002678,0.000431,0.004349
17593000,0.0324,0.013523,0.002678,0.000431,0.004349
17594000,0.0324,0.013523,0.002678,0.000431,0.004584
17595000,0.0324,0.013523,0.002678,0.000431,0.004701
17596000,0.0324,0.013523,0.002678,0.000431,0.004584
17597000,0.0324,0.013523,0.002678,0.000431,0.005054
17598000,0.0324,0.013523,0.002678,0.000431,0.004113
17599000,0.0324,0.013523,0.002678,0.000431,0.004584
17600000,0.0324,0.013523,0.002678,0.000431,0.004584
17601000,0.0324,0.013523,0.002678,0.000431,0.004231
17602000,0.0324,0.013523,0.002678,0.000431,0.004231
17603000,0.0324,0.013523,0.002678,0.000431,0.004349
17604000,0.0324,0.013523,0.002678,0.000431,0.004231
17605000,0.0324,0.013523,0.002678,0.000431,0.004113
17606000,0.0324,0.013523,0.002678,0.000431,0.004701
17607000,0.0324,0.013523,0.002678,0.000431,0.004936
17608000,0.0324,0.013523,0.002678,0.000431,0.004349
17609000,0.0324,0.013523,0.002678,0.000431,0.005171
17610000,0.0324,0.013523,0.002678,0.000431,0.004936
17611000,0.0324,0.013523,0.002678,0.000431,0.003996
17612000,0.0324,0.013523,0.002678,0.000431,0.004466
17613000,0.0324,0.013523,0.002678,0.000431,0.004819
17614000,0.0324,0.013523,0.002678,0.000431,0.004349
17615000,0.0324,0.013523,0.002678,0.000431,0.004819
17616000,0.0324,0.013523,0.002678,0.000431,0.004466
17617000,0.0324,0.013523,0.002678,0.000431,0.003526
17618000,0.0324,0.013523,0.002678,0.000431,0.004466
17619000,0.0324,0.013523,0.002678,0.000431,0.004349
17620000,0.0324,0.013523,0.002678,0.000431,0.004819
17621000,0.0324,0.013523,0.002678,0.000431,0.004819
17622000,0.0324,0.013523,0.002678,0.000431,0.004466
17623000,0.0324,0.013523,0.002678,0.000431,0.004231
17624000,0.0324,0.013523,0.002678,0.000431,0.004819
17625000,0.0324,0.013523,0.002678,0.000431,0.004349
17626000,0.0324,0.013523,0.002678,0.000431,0.004819
17627000,0.0324,0.013523,0.002678,0.000431,0.004936
17628000,0.0324,0.013523,0.002678,0.000431,0.004584
17629000,0.0324,0.013523,0.002678,0.000431,0.005054
17630000,0.0324,0.013523,0.002678,0.000431,0.004936
17631000,0.0324,0.013523,0.002678,0.000431,0.004466
17632000,0.0324,0.013523,0.002678,0.000431,0.004466
17633000,0.0324,0.013523,0.002678,0.000431,0.004584
17634000,0.0324,0.013523,0.002678,0.000431,0.004349
17635000,0.0324,0.013523,0.002678,0.000431,0.004819
17636000,0.0324,0.013523,0.002678,0.000431,0.004231
17637000,0.0324,0.013523,0.002678,0.000431,0.005171
17638000,0.0324,0.013523,0.002678,0.000431,0.004819
17639000,0.0324,0.013523,0.002678,0.000431,0.004936
17640000,0.0324,0.013523,0.002678,0.000431,0.004466
17641000,0.0324,0.013523,0.002678,0.000431,0.004819
17642000,0.0324,0.013523,0.002678,0.000431,0.004936
17643000,0.0324,0.013523,0.002678,0.000431,0.004349
17644000,0.0324,0.013523,0.002678,0.000431,0.004936
17645000,0.0324,0.013523,0.002678,0.000431,0.004466
17646000,0.0324,0.013523,0.002678,0.000431,0.004466
17647000,0.0324,0.013523,0.002678,0.000431,0.004466
17648000,0.0324,0.013523,0.002678,0.000431,0.004349
17649000,0.0324,0.013523,0.002678,0.000431,0.003996
17650000,0.0324,0.013523,0.002678,0.000431,0.004701
17651000,0.0324,0.013523,0.002678,0.000431,0.004231
17652000,0.0324,0.013523,0.002678,0.000431,0.004113
17653000,0.0324,0.013523,0.002678,0.000431,0.004466
17654000,0.0324,0.013523,0.002678,0.000431,0.004231
17655000,0.0324,0.013523,0.002678,0.000431,0.004466
17656000,0.0324,0.013523,0.002678,0.000431,0.005054
17657000,0.0324,0.013523,0.002678,0.000431,0.004349
17658000,0.0324,0.013523,0.002678,0.000431,0.004701
17659000,0.0324,0.013523,0.002678,0.000431,0.004231
17660000,0.0324,0.013523,0.002678,0.000431,0.004701
17661000,0.0324,0.013523,0.002678,0.000431,0.003878
17662000,0.0324,0.013523,0.002678,0.000431,0.005171
17663000,0.0324,0.013523,0.002678,0.000431,0.004584
17664000,0.0324,0.013523,0.002678,0.000431,0.004584
17665000,0.0324,0.013523,0.002678,0.000431,0.005054
17666000,0.0324,0.013523,0.002678,0.000431,0.004466
17667000,0.0324,0.013523,0.002678,0.000431,0.004701
17668000,0.0324,0.013523,0.002678,0.000431,0.004701
17669000,0.0324,0.013523,0.002678,0.000431,0.004349
17670000,0.0324,0.013523,0.002678,0.000431,0.004819
17671000,0.0324,0.013523,0.002678,0.000431,0.004113
17672000,0.0324,0.013523,0.002678,0.000431,0.004584
17673000,0.0324,0.013523,0.002678,0.000431,0.004349
17674000,0.0324,0.013523,0.002678,0.000431,0.004584
17675000,0.0324,0.013523,0.002678,0.000431,0.005171
17676000,0.0324,0.013523,0.002678,0.000431,0.004349
17677000,0.0324,0.013523,0.002678,0.000431,0.004701
17678000,0.0324,0.013523,0.002678,0.000431,0.004231
17679000,0.0324,0.013523,0.002678,0.000431,0.004584
17680000,0.0324,0.013523,0.002678,0.000431,0.004701
17681000,0.0324,0.013523,0.002678,0.000431,0.004701
17682000,0.0324,0.013523,0.002678,0.000431,0.004231
17683000,0.0324,0.013523,0.002678,0.000431,0.004819
17684000,0.0324,0.013523,0.002678,0.000431,0.003643
17685000,0.0324,0.013523,0.002678,0.000431,0.004701
17686000,0.0324,0.013523,0.002678,0.000431,0.004584
17687000,0.0324,0.013523,0.002678,0.000431,0.003996
17688000,0.0324,0.013523,0.002678,0.000431,0.004936
17689000,0.0324,0.013523,0.002678,0.000431,0.004584
17690000,0.0324,0.013523,0.002678,0.000431,0.005054
17691000,0.0324,0.013523,0.002678,0.000431,0.004584
17692000,0.0324,0.013523,0.002678,0.000431,0.004466
17693000,0.0324,0.013523,0.002678,0.000431,0.004466
17694000,0.0324,0.013523,0.002678,0.000431,0.005054
17695000,0.0324,0.013523,0.002678,0.000431,0.003761
17696000,0.0324,0.013523,0.002678,0.000431,0.004584
17697000,0.0324,0.013523,0.002678,0.000431,0.004701
17698000,0.0324,0.013523,0.002678,0.000431,0.004466
17699000,0.0324,0.013523,0.002678,0.000431,0.004701
17700000,0.0324,0.013523,0.002678,0.000431,0.005171
17701000,0.0324,0.013523,0.002678,0.000431,0.004819
17702000,0.0324,0.013523,0.002678,0.000431,0.004819
17703000,0.0324,0.013523,0.002678,0.000431,0.004701
17704000,0.0324,0.013523,0.002678,0.000431,0.004349
17705000,0.0324,0.013523,0.002678,0.000431,0.004466
17706000,0.0324,0.013523,0.002678,0.000431,0.004349
17707000,0.0324,0.013523,0.002678,0.000431,0.004349
17708000,0.0324,0.013523,0.002678,0.000431,0.004701
17709000,0.0324,0.013523,0.002678,0.000431,0.004466
17710000,0.0324,0.013523,0.002678,0.000431,0.004349
17711000,0.0324,0.013523,0.002678,0.000431,0.004701
17712000,0.0324,0.013523,0.002678,0.000431,0.004584
17713000,0.0324,0.013523,0.002678,0.000431,0.004349
17714000,0.0324,0.013523,0.002678,0.000431,0.004701
17715000,0.0324,0.013523,0.002678,0.000431,0.004584
17716000,0.0324,0.013523,0.002678,0.000431,0.004936
17717000,0.0324,0.013523,0.002678,0.000431,0.003878
17718000,0.0324,0.013523,0.002678,0.000431,0.004936
17719000,0.0324,0.013523,0.002678,0.000431,0.004701
17720000,0.0324,0.013523,0.002678,0.000431,0.004701
17721000,0.0324,0.013523,0.002678,0.000431,0.004936
17722000,0.0324,0.013523,0.002678,0.000431,0.004113
17723000,0.0324,0.013523,0.002678,0.000431,0.004113
17724000,0.0324,0.013523,0.002678,0.000431,0.004936
17725000,0.0324,0.013523,0.002678,0.000431,0.004349
17726000,0.0324,0.013523,0.002678,0.000431,0.003878
17727000,0.0324,0.013523,0.002678,0.000431,0.004701
17728000,0.0324,0.013523,0.002678,0.000431,0.004231
17729000,0.0324,0.013523,0.002678,0.000431,0.004113
17730000,0.0324,0.013523,0.002678,0.000431,0.004466
17731000,0.0324,0.013523,0.002678,0.000431,0.004584
17732000,0.0324,0.013523,0.002678,0.000431,0.003878
17733000,0.0324,0.013523,0.002678,0.000431,0.004701
17734000,0.0324,0.013523,0.002678,0.000431,0.004349
17735000,0.0324,0.013523,0.002678,0.000431,0.004936
17736000,0.0324,0.013523,0.002678,0.000431,0.004231
17737000,0.0324,0.013523,0.002678,0.000431,0.003996
17738000,0.0324,0.013523,0.002678,0.000431,0.004466
17739000,0.0324,0.013523,0.002678,0.000431,0.004466
17740000,0.0324,0.013523,0.002678,0.000431,0.004819
17741000,0.0324,0.013523,0.002678,0.000431,0.004113
17742000,0.0324,0.013523,0.002678,0.000431,0.004701
17743000,0.0324,0.013523,0.002678,0.000431,0.004231
17744000,0.0324,0.013523,0.002678,0.000431,0.003996
17745000,0.0324,0.013523,0.002678,0.000431,0.004701
17746000,0.0324,0.013523,0.002678,0.000431,0.004466
17747000,0.0324,0.013523,0.002678,0.000431,0.005171
17748000,0.0324,0.013523,0.002678,0.000431,0.004819
17749000,0.0324,0.013523,0.002678,0.000431,0.004113
17750000,0.0324,0.013523,0.002678,0.000431,0.004584
17751000,0.0324,0.013523,0.002678,0.000431,0.004466
17752000,0.0324,0.013523,0.002678,0.000431,0.004819
17753000,0.0324,0.013523,0.002678,0.000431,0.004349
17754000,0.0324,0.013523,0.002678,0.000431,0.004466
17755000,0.0324,0.013523,0.002678,0.000431,0.004584
17756000,0.0324,0.013523,0.002678,0.000431,0.004349
17757000,0.0324,0.013523,0.002678,0.000431,0.004701
17758000,0.0324,0.013523,0.002678,0.000431,0.004701
17759000,0.0324,0.013523,0.002678,0.000431,0.004113
17760000,0.0324,0.013523,0.002678,0.000431,0.004584
17761000,0.0324,0.013523,0.002678,0.000431,0.004113
17762000,0.0324,0.013523,0.002678,0.000431,0.005171
17763000,0.0324,0.013523,0.002678,0.000431,0.004113
17764000,0.0324,0.013523,0.002678,0.000431,0.004466
17765000,0.0324,0.013523,0.002678,0.000431,0.005289
17766000,0.0324,0.013523,0.002678,0.000431,0.004466
17767000,0.0324,0.013523,0.002678,0.000431,0.004819
17768000,0.0324,0.013523,0.002678,0.000431,0.003996
17769000,0.0324,0.013523,0.002678,0.000431,0.004231
17770000,0.0324,0.013523,0.002678,0.000431,0.004701
17771000,0.0324,0.013523,0.002678,0.000431,0.004819
17772000,0.0324,0.013523,0.002678,0.000431,0.004113
17773000,0.0324,0.013523,0.002678,0.000431,0.004936
17774000,0.0324,0.013523,0.002678,0.000431,0.004466
17775000,0.0324,0.013523,0.002678,0.000431,0.004113
17776000,0.0324,0.013523,0.002678,0.000431,0.004349
17777000,0.0324,0.013523,0.002678,0.000431,0.004701
17778000,0.0324,0.013523,0.002678,0.000431,0.004349
17779000,0.0324,0.013523,0.002678,0.000431,0.004936
17780000,0.0324,0.013523,0.002678,0.000431,0.004936
17781000,0.0324,0.013523,0.002678,0.000431,0.004113
17782000,0.0324,0.013523,0.002678,0.000431,0.004466
17783000,0.0324,0.013523,0.002678,0.000431,0.003996
17784000,0.0324,0.013523,0.002678,0.000431,0.005054
17785000,0.0324,0.013523,0.002678,0.000431,0.004466
17786000,0.0324,0.013523,0.002678,0.000431,0.004819
17787000,0.0324,0.013523,0.002678,0.000431,0.004936
17788000,0.0324,0.013523,0.002678,0.000431,0.004819
17789000,0.0324,0.013523,0.002678,0.000431,0.005054
17790000,0.0324,0.013523,0.002678,0.000431,0.005289
17791000,0.0324,0.013523,0.002678,0.000431,0.004819
17792000,0.0324,0.013523,0.002678,0.000431,0.004231
17793000,0.0324,0.013523,0.002678,0.000431,0.004584
17794000,0.0324,0.013523,0.002678,0.000431,0.005171
17795000,0.0324,0.013523,0.002678,0.000431,0.004819
17796000,0.0324,0.013523,0.002678,0.000431,0.004231
17797000,0.0324,0.013523,0.002678,0.000431,0.004819
17798000,0.0324,0.013523,0.002678,0.000431,0.004113
17799000,0.0324,0.013523,0.002678,0.000431,0.004936
17800000,0.0324,0.013523,0.002678,0.000431,0.004584
17801000,0.0324,0.013523,0.002678,0.000431,0.004819
17802000,0.0324,0.013523,0.002678,0.000431,0.004466
17803000,0.0324,0.013523,0.002678,0.000431,0.004466
17804000,0.0324,0.013523,0.002678,0.000431,0.004819
17805000,0.0324,0.013523,0.002678,0.000431,0.004584
17806000,0.0324,0.013523,0.002678,0.000431,0.004113
17807000,0.0324,0.013523,0.002678,0.000431,0.004113
17808000,0.0324,0.013523,0.002678,0.000431,0.004466
17809000,0.0324,0.013523,0.002678,0.000431,0.005054
17810000,0.0324,0.013523,0.002678,0.000431,0.004701
17811000,0.0324,0.013523,0.002678,0.000431,0.004466
17812000,0.0324,0.013523,0.002678,0.000431,0.004701
17813000,0.0324,0.013523,0.002678,0.000431,0.004584
17814000,0.0324,0.013523,0.002678,0.000431,0.004701
17815000,0.0324,0.013523,0.002678,0.000431,0.004584
17816000,0.0324,0.013523,0.002678,0.000431,0.004349
17817000,0.0324,0.013523,0.002678,0.000431,0.004701
17818000,0.0324,0.013523,0.002678,0.000431,0.004113
17819000,0.0324,0.013523,0.002678,0.000431,0.004349
17820000,0.0324,0.013523,0.002678,0.000431,0.004349
17821000,0.0324,0.013523,0.002678,0.000431,0.003996
17822000,0.0324,0.013523,0.002678,0.000431,0.004349
17823000,0.0324,0.013523,0.002678,0.000431,0.004819
17824000,0.0324,0.013523,0.002678,0.000431,0.004936
17825000,0.0324,0.013523,0.002678,0.000431,0.004466
17826000,0.0324,0.013523,0.002678,0.000431,0.004701
17827000,0.0324,0.013523,0.002678,0.000431,0.004231
17828000,0.0324,0.013523,0.002678,0.000431,0.004701
17829000,0.0324,0.013523,0.002678,0.000431,0.004466
17830000,0.0324,0.013523,0.002678,0.000431,0.003996
17831000,0.0324,0.013523,0.002678,0.000431,0.003761
17832000,0.0324,0.013523,0.002678,0.000431,0.004819
17833000,0.0324,0.013523,0.002678,0.000431,0.004466
17834000,0.0324,0.013523,0.002678,0.000431,0.003996
17835000,0.0324,0.013523,0.002678,0.000431,0.004936
17836000,0.0324,0.013523,0.002678,0.000431,0.004701
17837000,0.0324,0.013523,0.002678,0.000431,0.004113
17838000,0.0324,0.013523,0.002678,0.000431,0.004584
17839000,0.0324,0.013523,0.002678,0.000431,0.004936
17840000,0.0324,0.013523,0.002678,0.000431,0.004231
17841000,0.0324,0.013523,0.002678,0.000431,0.004701
17842000,0.0324,0.013523,0.002678,0.000431,0.004701
17843000,0.0324,0.013523,0.002678,0.000431,0.004701
17844000,0.0324,0.013523,0.002678,0.000431,0.004466
17845000,0.0324,0.013523,0.002678,0.000431,0.004936
17846000,0.0324,0.013523,0.002678,0.000431,0.004701
17847000,0.0324,0.013523,0.002678,0.000431,0.004349
17848000,0.0324,0.013523,0.002678,0.000431,0.004819
17849000,0.0324,0.013523,0.002678,0.000431,0.004231
17850000,0.0324,0.013523,0.002678,0.000431,0.005054
17851000,0.0324,0.013523,0.002678,0.000431,0.003761
17852000,0.0324,0.013523,0.002678,0.000431,0.005054
17853000,0.0324,0.013523,0.002678,0.000431,0.004819
17854000,0.0324,0.013523,0.002678,0.000431,0.004466
17855000,0.0324,0.013523,0.002678,0.000431,0.004349
17856000,0.0324,0.013523,0.002678,0.000431,0.004936
17857000,0.0324,0.013523,0.002678,0.000431,0.004701
17858000,0.0324,0.013523,0.002678,0.000431,0.004349
17859000,0.0324,0.013523,0.002678,0.000431,0.004584
17860000,0.0324,0.013523,0.002678,0.000431,0.004349
17861000,0.0324,0.013523,0.002678,0.000431,0.004819
17862000,0.0324,0.013523,0.002678,0.000431,0.004466
17863000,0.0324,0.013523,0.002678,0.000431,0.004466
17864000,0.0324,0.013523,0.002678,0.000431,0.004349
17865000,0.0324,0.013523,0.002678,0.000431,0.004936
17866000,0.0324,0.013523,0.002678,0.000431,0.004701
17867000,0.0324,0.013523,0.002678,0.000431,0.004819
17868000,0.0324,0.013523,0.002678,0.000431,0.004466
17869000,0.0324,0.013523,0.002678,0.000431,0.004349
17870000,0.0324,0.013523,0.002678,0.000431,0.004466
17871000,0.0324,0.013523,0.002678,0.000431,0.004584
17872000,0.0324,0.013523,0.002678,0.000431,0.004349
17873000,0.0324,0.013523,0.002678,0.000431,0.004113
17874000,0.0324,0.013523,0.002678,0.000431,0.004701
17875000,0.0324,0.013523,0.002678,0.000431,0.004113
17876000,0.0324,0.013523,0.002678,0.000431,0.004819
17877000,0.0324,0.013523,0.002678,0.000431,0.004349
17878000,0.0324,0.013523,0.002678,0.000431,0.005054
17879000,0.0324,0.013523,0.002678,0.000431,0.004466
17880000,0.0324,0.013523,0.002678,0.000431,0.004701
17881000,0.0324,0.013523,0.002678,0.000431,0.004819
17882000,0.0324,0.013523,0.002678,0.000431,0.003996
17883000,0.0324,0.013523,0.002678,0.000431,0.004349
17884000,0.0324,0.013523,0.002678,0.000431,0.004113
17885000,0.0324,0.013523,0.002678,0.000431,0.004819
17886000,0.0324,0.013523,0.002678,0.000431,0.004231
17887000,0.0324,0.013523,0.002678,0.000431,0.004584
17888000,0.0324,0.013523,0.002678,0.000431,0.004701
17889000,0.0324,0.013523,0.002678,0.000431,0.004349
17890000,0.0324,0.013523,0.002678,0.000431,0.004349
17891000,0.0324,0.013523,0.002678,0.000431,0.005054
17892000,0.0324,0.013523,0.002678,0.000431,0.004819
17893000,0.0324,0.013523,0.002678,0.000431,0.004584
17894000,0.0324,0.013523,0.002678,0.000431,0.004936
17895000,0.0324,0.013523,0.002678,0.000431,0.004584
17896000,0.0324,0.013523,0.002678,0.000431,0.004466
17897000,0.0324,0.013523,0.002678,0.000431,0.004819
17898000,0.0324,0.013523,0.002678,0.000431,0.004819
17899000,0.0324,0.013523,0.002678,0.000431,0.004349
17900000,0.0324,0.013523,0.002678,0.000431,0.004819
17901000,0.0324,0.013523,0.002678,0.000431,0.003878
17902000,0.0324,0.013523,0.002678,0.000431,0.004819
17903000,0.0324,0.013523,0.002678,0.000431,0.004349
17904000,0.0324,0.013523,0.002678,0.000431,0.004231
17905000,0.0324,0.013523,0.002678,0.000431,0.004701
17906000,0.0324,0.013523,0.002678,0.000431,0.004466
17907000,0.0324,0.013523,0.002678,0.000431,0.004584
17908000,0.0324,0.013523,0.002678,0.000431,0.004466
17909000,0.0324,0.013523,0.002678,0.000431,0.004936
17910000,0.0324,0.013523,0.002678,0.000431,0.004584
17911000,0.0324,0.013523,0.002678,0.000431,0.004819
17912000,0.0324,0.013523,0.002678,0.000431,0.003996
17913000,0.0324,0.013523,0.002678,0.000431,0.004466
17914000,0.0324,0.013523,0.002678,0.000431,0.004584
17915000,0.0324,0.013523,0.002678,0.000431,0.004113
17916000,0.0324,0.013523,0.002678,0.000431,0.004936
17917000,0.0324,0.013523,0.002678,0.000431,0.004466
17918000,0.0324,0.013523,0.002678,0.000431,0.004349
17919000,0.0324,0.013523,0.002678,0.000431,0.004936
17920000,0.0324,0.013523,0.002678,0.000431,0.004466
17921000,0.0324,0.013523,0.002678,0.000431,0.004231
17922000,0.0324,0.013523,0.002678,0.000431,0.003996
17923000,0.0324,0.013523,0.002678,0.000431,0.005289
17924000,0.0324,0.013523,0.002678,0.000431,0.004231
17925000,0.0324,0.013523,0.002678,0.000431,0.004349
17926000,0.0324,0.013523,0.002678,0.000431,0.004231
17927000,0.0324,0.013523,0.002678,0.000431,0.004231
17928000,0.0324,0.013523,0.002678,0.000431,0.005054
17929000,0.0324,0.013523,0.002678,0.000431,0.004231
17930000,0.0324,0.013523,0.002678,0.000431,0.004349
17931000,0.0324,0.013523,0.002678,0.000431,0.004231
17932000,0.0324,0.013523,0.002678,0.000431,0.004231
17933000,0.0324,0.013523,0.002678,0.000431,0.004349
17934000,0.0324,0.013523,0.002678,0.000431,0.004349
17935000,0.0324,0.013523,0.002678,0.000431,0.004584
17936000,0.0324,0.013523,0.002678,0.000431,0.004584
17937000,0.0324,0.013523,0.002678,0.000431,0.004349
17938000,0.0324,0.013523,0.002678,0.000431,0.004231
17939000,0.0324,0.013523,0.002678,0.000431,0.004584
17940000,0.0324,0.013523,0.002678,0.000431,0.004701
17941000,0.0324,0.013523,0.002678,0.000431,0.004819
17942000,0.0324,0.013523,0.002678,0.000431,0.004936
17943000,0.0324,0.013523,0.002678,0.000431,0.005054
17944000,0.0324,0.013523,0.002678,0.000431,0.004936
17945000,0.0324,0.013523,0.002678,0.000431,0.004231
17946000,0.0324,0.013523,0.002678,0.000431,0.004819
17947000,0.0324,0.013523,0.002678,0.000431,0.004701
17948000,0.0324,0.013523,0.002678,0.000431,0.004231
17949000,0.0324,0.013523,0.002678,0.000431,0.004584
17950000,0.0324,0.013523,0.002678,0.000431,0.004819
17951000,0.0324,0.013523,0.002678,0.000431,0.004936
17952000,0.0324,0.013523,0.002678,0.000431,0.005171
17953000,0.0324,0.013523,0.002678,0.000431,0.004701
17954000,0.0324,0.013523,0.002678,0.000431,0.004466
17955000,0.0324,0.013523,0.002678,0.000431,0.004819
17956000,0.0324,0.013523,0.002678,0.000431,0.004584
17957000,0.0324,0.013523,0.002678,0.000431,0.004231
17958000,0.0324,0.013523,0.002678,0.000431,0.004349
17959000,0.0324,0.013523,0.002678,0.000431,0.004113
17960000,0.0324,0.013523,0.002678,0.000431,0.004466
17961000,0.0324,0.013523,0.002678,0.000431,0.004466
17962000,0.0324,0.013523,0.002678,0.000431,0.004701
17963000,0.0324,0.013523,0.002678,0.000431,0.004466
17964000,0.0324,0.013523,0.002678,0.000431,0.003996
17965000,0.0324,0.013523,0.002678,0.000431,0.004231
17966000,0.0324,0.013523,0.002678,0.000431,0.005054
17967000,0.0324,0.013523,0.002678,0.000431,0.004584
17968000,0.0324,0.013523,0.002678,0.000431,0.005054
17969000,0.0324,0.013523,0.002678,0.000431,0.005054
17970000,0.0324,0.013523,0.002678,0.000431,0.004819
17971000,0.0324,0.013523,0.002678,0.000431,0.004936
17972000,0.0324,0.013523,0.002678,0.000431,0.004819
17973000,0.0324,0.013523,0.002678,0.000431,0.004701
17974000,0.0324,0.013523,0.002678,0.000431,0.004584
17975000,0.0324,0.013523,0.002678,0.000431,0.004936
17976000,0.0324,0.013523,0.002678,0.000431,0.004349
17977000,0.0324,0.013523,0.002678,0.000431,0.004466
17978000,0.0324,0.013523,0.002678,0.000431,0.004584
17979000,0.0324,0.013523,0.002678,0.000431,0.004584
17980000,0.0324,0.013523,0.002678,0.000431,0.004466
17981000,0.0324,0.013523,0.002678,0.000431,0.004584
17982000,0.0324,0.013523,0.002678,0.000431,0.004819
17983000,0.0324,0.013523,0.002678,0.000431,0.004819
17984000,0.0324,0.013523,0.002678,0.000431,0.004466
17985000,0.0324,0.013523,0.002678,0.000431,0.004584
17986000,0.0324,0.013523,0.002678,0.000431,0.004113
17987000,0.0324,0.013523,0.002678,0.000431,0.004584
17988000,0.0324,0.013523,0.002678,0.000431,0.004936
17989000,0.0324,0.013523,0.002678,0.000431,0.004584
17990000,0.0324,0.013523,0.002678,0.000431,0.004584
17991000,0.0324,0.013523,0.002678,0.000431,0.004349
17992000,0.0324,0.013523,0.002678,0.000431,0.005054
17993000,0.0324,0.013523,0.002678,0.000431,0.004231
17994000,0.0324,0.013523,0.002678,0.000431,0.004231
17995000,0.0324,0.013523,0.002678,0.000431,0.004466
17996000,0.0324,0.013523,0.002678,0.000431,0.004349
17997000,0.0324,0.013523,0.002678,0.000431,0.004584
17998000,0.0324,0.013523,0.002678,0.000431,0.004936
17999000,0.0324,0.013523,0.002678,0.000431,0.003996
