Cycle,Area(mm^2),PeakDynamic(W),SubthresholdLeakage(W),GateLeakage(W),RunTimeDynamic(W)
8000000,0.0324,0.013523,0.002678,0.000431,0.027149
8001000,0.0324,0.013523,0.002678,0.000431,0.026209
8002000,0.0324,0.013523,0.002678,0.000431,0.029382
8003000,0.0324,0.013523,0.002678,0.000431,0.030205
8004000,0.0324,0.013523,0.002678,0.000431,0.031145
8005000,0.0324,0.013523,0.002678,0.000431,0.028677
8006000,0.0324,0.013523,0.002678,0.000431,0.026914
8007000,0.0324,0.013523,0.002678,0.000431,0.029382
8008000,0.0324,0.013523,0.002678,0.000431,0.030322
8009000,0.0324,0.013523,0.002678,0.000431,0.028559
8010000,0.0324,0.013523,0.002678,0.000431,0.030322
8011000,0.0324,0.013523,0.002678,0.000431,0.027619
8012000,0.0324,0.013523,0.002678,0.000431,0.026679
8013000,0.0324,0.013523,0.002678,0.000431,0.029735
8014000,0.0324,0.013523,0.002678,0.000431,0.028677
8015000,0.0324,0.013523,0.002678,0.000431,0.029970
8016000,0.0324,0.013523,0.002678,0.000431,0.026209
8017000,0.0324,0.013523,0.002678,0.000431,0.029382
8018000,0.0324,0.013523,0.002678,0.000431,0.027737
8019000,0.0324,0.013523,0.002678,0.000431,0.029617
8020000,0.0324,0.013523,0.002678,0.000431,0.028442
8021000,0.0324,0.013523,0.002678,0.000431,0.028794
8022000,0.0324,0.013523,0.002678,0.000431,0.026679
8023000,0.0324,0.013523,0.002678,0.000431,0.029382
8024000,0.0324,0.013523,0.002678,0.000431,0.027619
8025000,0.0324,0.013523,0.002678,0.000431,0.026326
8026000,0.0324,0.013523,0.002678,0.000431,0.028559
8027000,0.0324,0.013523,0.002678,0.000431,0.028442
8028000,0.0324,0.013523,0.002678,0.000431,0.028442
8029000,0.0324,0.013523,0.002678,0.000431,0.027502
8030000,0.0324,0.013523,0.002678,0.000431,0.028089
8031000,0.0324,0.013523,0.002678,0.000431,0.027619
8032000,0.0324,0.013523,0.002678,0.000431,0.028207
8033000,0.0324,0.013523,0.002678,0.000431,0.029617
8034000,0.0324,0.013523,0.002678,0.000431,0.029029
8035000,0.0324,0.013523,0.002678,0.000431,0.029500
8036000,0.0324,0.013523,0.002678,0.000431,0.027972
8037000,0.0324,0.013523,0.002678,0.000431,0.029382
8038000,0.0324,0.013523,0.002678,0.000431,0.028442
8039000,0.0324,0.013523,0.002678,0.000431,0.030087
8040000,0.0324,0.013523,0.002678,0.000431,0.030322
8041000,0.0324,0.013523,0.002678,0.000431,0.023506
8042000,0.0324,0.013523,0.002678,0.000431,0.029500
8043000,0.0324,0.013523,0.002678,0.000431,0.028677
8044000,0.0324,0.013523,0.002678,0.000431,0.030322
8045000,0.0324,0.013523,0.002678,0.000431,0.028559
8046000,0.0324,0.013523,0.002678,0.000431,0.028442
8047000,0.0324,0.013523,0.002678,0.000431,0.029265
8048000,0.0324,0.013523,0.002678,0.000431,0.027972
8049000,0.0324,0.013523,0.002678,0.000431,0.029970
8050000,0.0324,0.013523,0.002678,0.000431,0.028559
8051000,0.0324,0.013523,0.002678,0.000431,0.027854
8052000,0.0324,0.013523,0.002678,0.000431,0.026679
8053000,0.0324,0.013523,0.002678,0.000431,0.030205
8054000,0.0324,0.013523,0.002678,0.000431,0.026326
8055000,0.0324,0.013523,0.002678,0.000431,0.029852
8056000,0.0324,0.013523,0.002678,0.000431,0.027972
8057000,0.0324,0.013523,0.002678,0.000431,0.029029
8058000,0.0324,0.013523,0.002678,0.000431,0.028677
8059000,0.0324,0.013523,0.002678,0.000431,0.029617
8060000,0.0324,0.013523,0.002678,0.000431,0.029617
8061000,0.0324,0.013523,0.002678,0.000431,0.028324
8062000,0.0324,0.013523,0.002678,0.000431,0.026679
8063000,0.0324,0.013523,0.002678,0.000431,0.028912
8064000,0.0324,0.013523,0.002678,0.000431,0.028442
8065000,0.0324,0.013523,0.002678,0.000431,0.029852
8066000,0.0324,0.013523,0.002678,0.000431,0.026561
8067000,0.0324,0.013523,0.002678,0.000431,0.029500
8068000,0.0324,0.013523,0.002678,0.000431,0.026679
8069000,0.0324,0.013523,0.002678,0.000431,0.027384
8070000,0.0324,0.013523,0.002678,0.000431,0.027854
8071000,0.0324,0.013523,0.002678,0.000431,0.027267
8072000,0.0324,0.013523,0.002678,0.000431,0.027267
8073000,0.0324,0.013523,0.002678,0.000431,0.028677
8074000,0.0324,0.013523,0.002678,0.000431,0.028442
8075000,0.0324,0.013523,0.002678,0.000431,0.027972
8076000,0.0324,0.013523,0.002678,0.000431,0.027737
8077000,0.0324,0.013523,0.002678,0.000431,0.029735
8078000,0.0324,0.013523,0.002678,0.000431,0.025504
8079000,0.0324,0.013523,0.002678,0.000431,0.028794
8080000,0.0324,0.013523,0.002678,0.000431,0.027972
8081000,0.0324,0.013523,0.002678,0.000431,0.029147
8082000,0.0324,0.013523,0.002678,0.000431,0.025856
8083000,0.0324,0.013523,0.002678,0.000431,0.027972
8084000,0.0324,0.013523,0.002678,0.000431,0.026326
8085000,0.0324,0.013523,0.002678,0.000431,0.028324
8086000,0.0324,0.013523,0.002678,0.000431,0.027384
8087000,0.0324,0.013523,0.002678,0.000431,0.025504
8088000,0.0324,0.013523,0.002678,0.000431,0.027149
8089000,0.0324,0.013523,0.002678,0.000431,0.027972
8090000,0.0324,0.013523,0.002678,0.000431,0.029500
8091000,0.0324,0.013523,0.002678,0.000431,0.026679
8092000,0.0324,0.013523,0.002678,0.000431,0.026444
8093000,0.0324,0.013523,0.002678,0.000431,0.028324
8094000,0.0324,0.013523,0.002678,0.000431,0.026209
8095000,0.0324,0.013523,0.002678,0.000431,0.029852
8096000,0.0324,0.013523,0.002678,0.000431,0.028559
8097000,0.0324,0.013523,0.002678,0.000431,0.026444
8098000,0.0324,0.013523,0.002678,0.000431,0.027854
8099000,0.0324,0.013523,0.002678,0.000431,0.030792
8100000,0.0324,0.013523,0.002678,0.000431,0.026209
8101000,0.0324,0.013523,0.002678,0.000431,0.027149
8102000,0.0324,0.013523,0.002678,0.000431,0.029617
8103000,0.0324,0.013523,0.002678,0.000431,0.027149
8104000,0.0324,0.013523,0.002678,0.000431,0.028207
8105000,0.0324,0.013523,0.002678,0.000431,0.027854
8106000,0.0324,0.013523,0.002678,0.000431,0.029265
8107000,0.0324,0.013523,0.002678,0.000431,0.028912
8108000,0.0324,0.013523,0.002678,0.000431,0.026796
8109000,0.0324,0.013523,0.002678,0.000431,0.028207
8110000,0.0324,0.013523,0.002678,0.000431,0.025974
8111000,0.0324,0.013523,0.002678,0.000431,0.027619
8112000,0.0324,0.013523,0.002678,0.000431,0.029029
8113000,0.0324,0.013523,0.002678,0.000431,0.027972
8114000,0.0324,0.013523,0.002678,0.000431,0.025739
8115000,0.0324,0.013523,0.002678,0.000431,0.027149
8116000,0.0324,0.013523,0.002678,0.000431,0.030205
8117000,0.0324,0.013523,0.002678,0.000431,0.027737
8118000,0.0324,0.013523,0.002678,0.000431,0.027972
8119000,0.0324,0.013523,0.002678,0.000431,0.027502
8120000,0.0324,0.013523,0.002678,0.000431,0.029852
8121000,0.0324,0.013523,0.002678,0.000431,0.026914
8122000,0.0324,0.013523,0.002678,0.000431,0.026326
8123000,0.0324,0.013523,0.002678,0.000431,0.028324
8124000,0.0324,0.013523,0.002678,0.000431,0.027972
8125000,0.0324,0.013523,0.002678,0.000431,0.029147
8126000,0.0324,0.013523,0.002678,0.000431,0.026796
8127000,0.0324,0.013523,0.002678,0.000431,0.027149
8128000,0.0324,0.013523,0.002678,0.000431,0.029382
8129000,0.0324,0.013523,0.002678,0.000431,0.029147
8130000,0.0324,0.013523,0.002678,0.000431,0.026444
8131000,0.0324,0.013523,0.002678,0.000431,0.028442
8132000,0.0324,0.013523,0.002678,0.000431,0.030557
8133000,0.0324,0.013523,0.002678,0.000431,0.027502
8134000,0.0324,0.013523,0.002678,0.000431,0.028324
8135000,0.0324,0.013523,0.002678,0.000431,0.029147
8136000,0.0324,0.013523,0.002678,0.000431,0.028912
8137000,0.0324,0.013523,0.002678,0.000431,0.027502
8138000,0.0324,0.013523,0.002678,0.000431,0.027031
8139000,0.0324,0.013523,0.002678,0.000431,0.029735
8140000,0.0324,0.013523,0.002678,0.000431,0.027384
8141000,0.0324,0.013523,0.002678,0.000431,0.030087
8142000,0.0324,0.013523,0.002678,0.000431,0.027737
8143000,0.0324,0.013523,0.002678,0.000431,0.028324
8144000,0.0324,0.013523,0.002678,0.000431,0.024211
8145000,0.0324,0.013523,0.002678,0.000431,0.029617
8146000,0.0324,0.013523,0.002678,0.000431,0.029735
8147000,0.0324,0.013523,0.002678,0.000431,0.027972
8148000,0.0324,0.013523,0.002678,0.000431,0.027149
8149000,0.0324,0.013523,0.002678,0.000431,0.028912
8150000,0.0324,0.013523,0.002678,0.000431,0.026444
8151000,0.0324,0.013523,0.002678,0.000431,0.028794
8152000,0.0324,0.013523,0.002678,0.000431,0.029735
8153000,0.0324,0.013523,0.002678,0.000431,0.027502
8154000,0.0324,0.013523,0.002678,0.000431,0.026796
8155000,0.0324,0.013523,0.002678,0.000431,0.029029
8156000,0.0324,0.013523,0.002678,0.000431,0.028442
8157000,0.0324,0.013523,0.002678,0.000431,0.027737
8158000,0.0324,0.013523,0.002678,0.000431,0.028794
8159000,0.0324,0.013523,0.002678,0.000431,0.028089
8160000,0.0324,0.013523,0.002678,0.000431,0.026914
8161000,0.0324,0.013523,0.002678,0.000431,0.027737
8162000,0.0324,0.013523,0.002678,0.000431,0.029147
8163000,0.0324,0.013523,0.002678,0.000431,0.027502
8164000,0.0324,0.013523,0.002678,0.000431,0.027031
8165000,0.0324,0.013523,0.002678,0.000431,0.026914
8166000,0.0324,0.013523,0.002678,0.000431,0.029500
8167000,0.0324,0.013523,0.002678,0.000431,0.026796
8168000,0.0324,0.013523,0.002678,0.000431,0.027384
8169000,0.0324,0.013523,0.002678,0.000431,0.029265
8170000,0.0324,0.013523,0.002678,0.000431,0.028442
8171000,0.0324,0.013523,0.002678,0.000431,0.028559
8172000,0.0324,0.013523,0.002678,0.000431,0.029029
8173000,0.0324,0.013523,0.002678,0.000431,0.026796
8174000,0.0324,0.013523,0.002678,0.000431,0.025856
8175000,0.0324,0.013523,0.002678,0.000431,0.029970
8176000,0.0324,0.013523,0.002678,0.000431,0.026209
8177000,0.0324,0.013523,0.002678,0.000431,0.028207
8178000,0.0324,0.013523,0.002678,0.000431,0.028677
8179000,0.0324,0.013523,0.002678,0.000431,0.029147
8180000,0.0324,0.013523,0.002678,0.000431,0.028912
8181000,0.0324,0.013523,0.002678,0.000431,0.027854
8182000,0.0324,0.013523,0.002678,0.000431,0.029617
8183000,0.0324,0.013523,0.002678,0.000431,0.027972
8184000,0.0324,0.013523,0.002678,0.000431,0.026091
8185000,0.0324,0.013523,0.002678,0.000431,0.028089
8186000,0.0324,0.013523,0.002678,0.000431,0.028089
8187000,0.0324,0.013523,0.002678,0.000431,0.029735
8188000,0.0324,0.013523,0.002678,0.000431,0.026444
8189000,0.0324,0.013523,0.002678,0.000431,0.027267
8190000,0.0324,0.013523,0.002678,0.000431,0.027031
8191000,0.0324,0.013523,0.002678,0.000431,0.028559
8192000,0.0324,0.013523,0.002678,0.000431,0.026796
8193000,0.0324,0.013523,0.002678,0.000431,0.027737
8194000,0.0324,0.013523,0.002678,0.000431,0.029617
8195000,0.0324,0.013523,0.002678,0.000431,0.028089
8196000,0.0324,0.013523,0.002678,0.000431,0.026209
8197000,0.0324,0.013523,0.002678,0.000431,0.029265
8198000,0.0324,0.013523,0.002678,0.000431,0.028559
8199000,0.0324,0.013523,0.002678,0.000431,0.024211
8200000,0.0324,0.013523,0.002678,0.000431,0.026561
8201000,0.0324,0.013523,0.002678,0.000431,0.029265
8202000,0.0324,0.013523,0.002678,0.000431,0.028559
8203000,0.0324,0.013523,0.002678,0.000431,0.027149
8204000,0.0324,0.013523,0.002678,0.000431,0.030087
8205000,0.0324,0.013523,0.002678,0.000431,0.027737
8206000,0.0324,0.013523,0.002678,0.000431,0.027737
8207000,0.0324,0.013523,0.002678,0.000431,0.027384
8208000,0.0324,0.013523,0.002678,0.000431,0.028677
8209000,0.0324,0.013523,0.002678,0.000431,0.029147
8210000,0.0324,0.013523,0.002678,0.000431,0.027854
8211000,0.0324,0.013523,0.002678,0.000431,0.029265
8212000,0.0324,0.013523,0.002678,0.000431,0.025621
8213000,0.0324,0.013523,0.002678,0.000431,0.029500
8214000,0.0324,0.013523,0.002678,0.000431,0.028324
8215000,0.0324,0.013523,0.002678,0.000431,0.027031
8216000,0.0324,0.013523,0.002678,0.000431,0.029265
8217000,0.0324,0.013523,0.002678,0.000431,0.027384
8218000,0.0324,0.013523,0.002678,0.000431,0.029029
8219000,0.0324,0.013523,0.002678,0.000431,0.028089
8220000,0.0324,0.013523,0.002678,0.000431,0.029147
8221000,0.0324,0.013523,0.002678,0.000431,0.026796
8222000,0.0324,0.013523,0.002678,0.000431,0.029029
8223000,0.0324,0.013523,0.002678,0.000431,0.028794
8224000,0.0324,0.013523,0.002678,0.000431,0.028089
8225000,0.0324,0.013523,0.002678,0.000431,0.027737
8226000,0.0324,0.013523,0.002678,0.000431,0.027031
8227000,0.0324,0.013523,0.002678,0.000431,0.027854
8228000,0.0324,0.013523,0.002678,0.000431,0.028794
8229000,0.0324,0.013523,0.002678,0.000431,0.028559
8230000,0.0324,0.013523,0.002678,0.000431,0.027972
8231000,0.0324,0.013523,0.002678,0.000431,0.028089
8232000,0.0324,0.013523,0.002678,0.000431,0.026326
8233000,0.0324,0.013523,0.002678,0.000431,0.029500
8234000,0.0324,0.013523,0.002678,0.000431,0.029970
8235000,0.0324,0.013523,0.002678,0.000431,0.027149
8236000,0.0324,0.013523,0.002678,0.000431,0.027502
8237000,0.0324,0.013523,0.002678,0.000431,0.028324
8238000,0.0324,0.013523,0.002678,0.000431,0.029617
8239000,0.0324,0.013523,0.002678,0.000431,0.027972
8240000,0.0324,0.013523,0.002678,0.000431,0.029852
8241000,0.0324,0.013523,0.002678,0.000431,0.026326
8242000,0.0324,0.013523,0.002678,0.000431,0.028324
8243000,0.0324,0.013523,0.002678,0.000431,0.029029
8244000,0.0324,0.013523,0.002678,0.000431,0.027854
8245000,0.0324,0.013523,0.002678,0.000431,0.028442
8246000,0.0324,0.013523,0.002678,0.000431,0.027619
8247000,0.0324,0.013523,0.002678,0.000431,0.028442
8248000,0.0324,0.013523,0.002678,0.000431,0.027031
8249000,0.0324,0.013523,0.002678,0.000431,0.027149
8250000,0.0324,0.013523,0.002678,0.000431,0.030675
8251000,0.0324,0.013523,0.002678,0.000431,0.026209
8252000,0.0324,0.013523,0.002678,0.000431,0.026796
8253000,0.0324,0.013523,0.002678,0.000431,0.026914
8254000,0.0324,0.013523,0.002678,0.000431,0.029735
8255000,0.0324,0.013523,0.002678,0.000431,0.028912
8256000,0.0324,0.013523,0.002678,0.000431,0.026914
8257000,0.0324,0.013523,0.002678,0.000431,0.027854
8258000,0.0324,0.013523,0.002678,0.000431,0.028559
8259000,0.0324,0.013523,0.002678,0.000431,0.029265
8260000,0.0324,0.013523,0.002678,0.000431,0.027737
8261000,0.0324,0.013523,0.002678,0.000431,0.028442
8262000,0.0324,0.013523,0.002678,0.000431,0.026091
8263000,0.0324,0.013523,0.002678,0.000431,0.028559
8264000,0.0324,0.013523,0.002678,0.000431,0.027972
8265000,0.0324,0.013523,0.002678,0.000431,0.028207
8266000,0.0324,0.013523,0.002678,0.000431,0.029147
8267000,0.0324,0.013523,0.002678,0.000431,0.027737
8268000,0.0324,0.013523,0.002678,0.000431,0.026444
8269000,0.0324,0.013523,0.002678,0.000431,0.027502
8270000,0.0324,0.013523,0.002678,0.000431,0.028912
8271000,0.0324,0.013523,0.002678,0.000431,0.027267
8272000,0.0324,0.013523,0.002678,0.000431,0.026561
8273000,0.0324,0.013523,0.002678,0.000431,0.027619
8274000,0.0324,0.013523,0.002678,0.000431,0.029735
8275000,0.0324,0.013523,0.002678,0.000431,0.029029
8276000,0.0324,0.013523,0.002678,0.000431,0.027972
8277000,0.0324,0.013523,0.002678,0.000431,0.030910
8278000,0.0324,0.013523,0.002678,0.000431,0.026679
8279000,0.0324,0.013523,0.002678,0.000431,0.027972
8280000,0.0324,0.013523,0.002678,0.000431,0.028324
8281000,0.0324,0.013523,0.002678,0.000431,0.027267
8282000,0.0324,0.013523,0.002678,0.000431,0.026796
8283000,0.0324,0.013523,0.002678,0.000431,0.028677
8284000,0.0324,0.013523,0.002678,0.000431,0.027267
8285000,0.0324,0.013523,0.002678,0.000431,0.029617
8286000,0.0324,0.013523,0.002678,0.000431,0.028794
8287000,0.0324,0.013523,0.002678,0.000431,0.026796
8288000,0.0324,0.013523,0.002678,0.000431,0.026326
8289000,0.0324,0.013523,0.002678,0.000431,0.028794
8290000,0.0324,0.013523,0.002678,0.000431,0.029382
8291000,0.0324,0.013523,0.002678,0.000431,0.029382
8292000,0.0324,0.013523,0.002678,0.000431,0.026209
8293000,0.0324,0.013523,0.002678,0.000431,0.027737
8294000,0.0324,0.013523,0.002678,0.000431,0.026914
8295000,0.0324,0.013523,0.002678,0.000431,0.029265
8296000,0.0324,0.013523,0.002678,0.000431,0.027267
8297000,0.0324,0.013523,0.002678,0.000431,0.025269
8298000,0.0324,0.013523,0.002678,0.000431,0.027031
8299000,0.0324,0.013523,0.002678,0.000431,0.027619
8300000,0.0324,0.013523,0.002678,0.000431,0.029735
8301000,0.0324,0.013523,0.002678,0.000431,0.028324
8302000,0.0324,0.013523,0.002678,0.000431,0.028559
8303000,0.0324,0.013523,0.002678,0.000431,0.026561
8304000,0.0324,0.013523,0.002678,0.000431,0.027149
8305000,0.0324,0.013523,0.002678,0.000431,0.029382
8306000,0.0324,0.013523,0.002678,0.000431,0.028794
8307000,0.0324,0.013523,0.002678,0.000431,0.026326
8308000,0.0324,0.013523,0.002678,0.000431,0.028912
8309000,0.0324,0.013523,0.002678,0.000431,0.027502
8310000,0.0324,0.013523,0.002678,0.000431,0.028442
8311000,0.0324,0.013523,0.002678,0.000431,0.030675
8312000,0.0324,0.013523,0.002678,0.000431,0.027502
8313000,0.0324,0.013523,0.002678,0.000431,0.026914
8314000,0.0324,0.013523,0.002678,0.000431,0.027972
8315000,0.0324,0.013523,0.002678,0.000431,0.028207
8316000,0.0324,0.013523,0.002678,0.000431,0.028912
8317000,0.0324,0.013523,0.002678,0.000431,0.027737
8318000,0.0324,0.013523,0.002678,0.000431,0.027149
8319000,0.0324,0.013523,0.002678,0.000431,0.026914
8320000,0.0324,0.013523,0.002678,0.000431,0.027619
8321000,0.0324,0.013523,0.002678,0.000431,0.026444
8322000,0.0324,0.013523,0.002678,0.000431,0.026914
8323000,0.0324,0.013523,0.002678,0.000431,0.028559
8324000,0.0324,0.013523,0.002678,0.000431,0.027737
8325000,0.0324,0.013523,0.002678,0.000431,0.029617
8326000,0.0324,0.013523,0.002678,0.000431,0.027972
8327000,0.0324,0.013523,0.002678,0.000431,0.029265
8328000,0.0324,0.013523,0.002678,0.000431,0.025856
8329000,0.0324,0.013523,0.002678,0.000431,0.028677
8330000,0.0324,0.013523,0.002678,0.000431,0.027502
8331000,0.0324,0.013523,0.002678,0.000431,0.028559
8332000,0.0324,0.013523,0.002678,0.000431,0.027267
8333000,0.0324,0.013523,0.002678,0.000431,0.026209
8334000,0.0324,0.013523,0.002678,0.000431,0.028794
8335000,0.0324,0.013523,0.002678,0.000431,0.026679
8336000,0.0324,0.013523,0.002678,0.000431,0.028324
8337000,0.0324,0.013523,0.002678,0.000431,0.027384
8338000,0.0324,0.013523,0.002678,0.000431,0.028324
8339000,0.0324,0.013523,0.002678,0.000431,0.026091
8340000,0.0324,0.013523,0.002678,0.000431,0.029382
8341000,0.0324,0.013523,0.002678,0.000431,0.027972
8342000,0.0324,0.013523,0.002678,0.000431,0.028089
8343000,0.0324,0.013523,0.002678,0.000431,0.026209
8344000,0.0324,0.013523,0.002678,0.000431,0.027267
8345000,0.0324,0.013523,0.002678,0.000431,0.028442
8346000,0.0324,0.013523,0.002678,0.000431,0.028677
8347000,0.0324,0.013523,0.002678,0.000431,0.028324
8348000,0.0324,0.013523,0.002678,0.000431,0.028207
8349000,0.0324,0.013523,0.002678,0.000431,0.026561
8350000,0.0324,0.013523,0.002678,0.000431,0.026796
8351000,0.0324,0.013523,0.002678,0.000431,0.026914
8352000,0.0324,0.013523,0.002678,0.000431,0.028089
8353000,0.0324,0.013523,0.002678,0.000431,0.029617
8354000,0.0324,0.013523,0.002678,0.000431,0.027384
8355000,0.0324,0.013523,0.002678,0.000431,0.027972
8356000,0.0324,0.013523,0.002678,0.000431,0.026561
8357000,0.0324,0.013523,0.002678,0.000431,0.029029
8358000,0.0324,0.013523,0.002678,0.000431,0.028324
8359000,0.0324,0.013523,0.002678,0.000431,0.026914
8360000,0.0324,0.013523,0.002678,0.000431,0.027267
8361000,0.0324,0.013523,0.002678,0.000431,0.029147
8362000,0.0324,0.013523,0.002678,0.000431,0.029852
8363000,0.0324,0.013523,0.002678,0.000431,0.028442
8364000,0.0324,0.013523,0.002678,0.000431,0.027619
8365000,0.0324,0.013523,0.002678,0.000431,0.027854
8366000,0.0324,0.013523,0.002678,0.000431,0.029029
8367000,0.0324,0.013523,0.002678,0.000431,0.027737
8368000,0.0324,0.013523,0.002678,0.000431,0.026561
8369000,0.0324,0.013523,0.002678,0.000431,0.027149
8370000,0.0324,0.013523,0.002678,0.000431,0.027267
8371000,0.0324,0.013523,0.002678,0.000431,0.028677
8372000,0.0324,0.013523,0.002678,0.000431,0.028677
8373000,0.0324,0.013523,0.002678,0.000431,0.030322
8374000,0.0324,0.013523,0.002678,0.000431,0.026679
8375000,0.0324,0.013523,0.002678,0.000431,0.029382
8376000,0.0324,0.013523,0.002678,0.000431,0.027031
8377000,0.0324,0.013523,0.002678,0.000431,0.028324
8378000,0.0324,0.013523,0.002678,0.000431,0.027502
8379000,0.0324,0.013523,0.002678,0.000431,0.028089
8380000,0.0324,0.013523,0.002678,0.000431,0.026679
8381000,0.0324,0.013523,0.002678,0.000431,0.026326
8382000,0.0324,0.013523,0.002678,0.000431,0.028912
8383000,0.0324,0.013523,0.002678,0.000431,0.026444
8384000,0.0324,0.013523,0.002678,0.000431,0.027267
8385000,0.0324,0.013523,0.002678,0.000431,0.028324
8386000,0.0324,0.013523,0.002678,0.000431,0.027267
8387000,0.0324,0.013523,0.002678,0.000431,0.029147
8388000,0.0324,0.013523,0.002678,0.000431,0.028324
8389000,0.0324,0.013523,0.002678,0.000431,0.026796
8390000,0.0324,0.013523,0.002678,0.000431,0.025974
8391000,0.0324,0.013523,0.002678,0.000431,0.027031
8392000,0.0324,0.013523,0.002678,0.000431,0.027031
8393000,0.0324,0.013523,0.002678,0.000431,0.026561
8394000,0.0324,0.013523,0.002678,0.000431,0.028442
8395000,0.0324,0.013523,0.002678,0.000431,0.025974
8396000,0.0324,0.013523,0.002678,0.000431,0.027737
8397000,0.0324,0.013523,0.002678,0.000431,0.025504
8398000,0.0324,0.013523,0.002678,0.000431,0.027619
8399000,0.0324,0.013523,0.002678,0.000431,0.027972
8400000,0.0324,0.013523,0.002678,0.000431,0.026561
8401000,0.0324,0.013523,0.002678,0.000431,0.025621
8402000,0.0324,0.013523,0.002678,0.000431,0.027737
8403000,0.0324,0.013523,0.002678,0.000431,0.028442
8404000,0.0324,0.013523,0.002678,0.000431,0.026914
8405000,0.0324,0.013523,0.002678,0.000431,0.026561
8406000,0.0324,0.013523,0.002678,0.000431,0.026209
8407000,0.0324,0.013523,0.002678,0.000431,0.025504
8408000,0.0324,0.013523,0.002678,0.000431,0.028089
8409000,0.0324,0.013523,0.002678,0.000431,0.026679
8410000,0.0324,0.013523,0.002678,0.000431,0.028324
8411000,0.0324,0.013523,0.002678,0.000431,0.026209
8412000,0.0324,0.013523,0.002678,0.000431,0.027031
8413000,0.0324,0.013523,0.002678,0.000431,0.026561
8414000,0.0324,0.013523,0.002678,0.000431,0.027031
8415000,0.0324,0.013523,0.002678,0.000431,0.026679
8416000,0.0324,0.013523,0.002678,0.000431,0.027267
8417000,0.0324,0.013523,0.002678,0.000431,0.026091
8418000,0.0324,0.013523,0.002678,0.000431,0.025856
8419000,0.0324,0.013523,0.002678,0.000431,0.027502
8420000,0.0324,0.013523,0.002678,0.000431,0.026091
8421000,0.0324,0.013523,0.002678,0.000431,0.027854
8422000,0.0324,0.013523,0.002678,0.000431,0.027854
8423000,0.0324,0.013523,0.002678,0.000431,0.027854
8424000,0.0324,0.013523,0.002678,0.000431,0.028324
8425000,0.0324,0.013523,0.002678,0.000431,0.026091
8426000,0.0324,0.013523,0.002678,0.000431,0.027619
8427000,0.0324,0.013523,0.002678,0.000431,0.026326
8428000,0.0324,0.013523,0.002678,0.000431,0.029970
8429000,0.0324,0.013523,0.002678,0.000431,0.027267
8430000,0.0324,0.013523,0.002678,0.000431,0.025386
8431000,0.0324,0.013523,0.002678,0.000431,0.026326
8432000,0.0324,0.013523,0.002678,0.000431,0.027149
8433000,0.0324,0.013523,0.002678,0.000431,0.026914
8434000,0.0324,0.013523,0.002678,0.000431,0.026679
8435000,0.0324,0.013523,0.002678,0.000431,0.025504
8436000,0.0324,0.013523,0.002678,0.000431,0.026209
8437000,0.0324,0.013523,0.002678,0.000431,0.025856
8438000,0.0324,0.013523,0.002678,0.000431,0.028794
8439000,0.0324,0.013523,0.002678,0.000431,0.028442
8440000,0.0324,0.013523,0.002678,0.000431,0.026679
8441000,0.0324,0.013523,0.002678,0.000431,0.025974
8442000,0.0324,0.013523,0.002678,0.000431,0.024916
8443000,0.0324,0.013523,0.002678,0.000431,0.026561
8444000,0.0324,0.013523,0.002678,0.000431,0.026679
8445000,0.0324,0.013523,0.002678,0.000431,0.027972
8446000,0.0324,0.013523,0.002678,0.000431,0.025974
8447000,0.0324,0.013523,0.002678,0.000431,0.024798
8448000,0.0324,0.013523,0.002678,0.000431,0.027267
8449000,0.0324,0.013523,0.002678,0.000431,0.026209
8450000,0.0324,0.013523,0.002678,0.000431,0.027267
8451000,0.0324,0.013523,0.002678,0.000431,0.025504
8452000,0.0324,0.013523,0.002678,0.000431,0.028442
8453000,0.0324,0.013523,0.002678,0.000431,0.026444
8454000,0.0324,0.013523,0.002678,0.000431,0.027502
8455000,0.0324,0.013523,0.002678,0.000431,0.025739
8456000,0.0324,0.013523,0.002678,0.000431,0.026561
8457000,0.0324,0.013523,0.002678,0.000431,0.027031
8458000,0.0324,0.013523,0.002678,0.000431,0.026444
8459000,0.0324,0.013523,0.002678,0.000431,0.026091
8460000,0.0324,0.013523,0.002678,0.000431,0.025974
8461000,0.0324,0.013523,0.002678,0.000431,0.027031
8462000,0.0324,0.013523,0.002678,0.000431,0.026326
8463000,0.0324,0.013523,0.002678,0.000431,0.025269
8464000,0.0324,0.013523,0.002678,0.000431,0.027149
8465000,0.0324,0.013523,0.002678,0.000431,0.027619
8466000,0.0324,0.013523,0.002678,0.000431,0.026561
8467000,0.0324,0.013523,0.002678,0.000431,0.025034
8468000,0.0324,0.013523,0.002678,0.000431,0.027619
8469000,0.0324,0.013523,0.002678,0.000431,0.028794
8470000,0.0324,0.013523,0.002678,0.000431,0.025269
8471000,0.0324,0.013523,0.002678,0.000431,0.026561
8472000,0.0324,0.013523,0.002678,0.000431,0.026679
8473000,0.0324,0.013523,0.002678,0.000431,0.027149
8474000,0.0324,0.013523,0.002678,0.000431,0.027619
8475000,0.0324,0.013523,0.002678,0.000431,0.027854
8476000,0.0324,0.013523,0.002678,0.000431,0.027031
8477000,0.0324,0.013523,0.002678,0.000431,0.023858
8478000,0.0324,0.013523,0.002678,0.000431,0.026679
8479000,0.0324,0.013523,0.002678,0.000431,0.027267
8480000,0.0324,0.013523,0.002678,0.000431,0.027149
8481000,0.0324,0.013523,0.002678,0.000431,0.027854
8482000,0.0324,0.013523,0.002678,0.000431,0.025856
8483000,0.0324,0.013523,0.002678,0.000431,0.026209
8484000,0.0324,0.013523,0.002678,0.000431,0.027502
8485000,0.0324,0.013523,0.002678,0.000431,0.029147
8486000,0.0324,0.013523,0.002678,0.000431,0.025269
8487000,0.0324,0.013523,0.002678,0.000431,0.025621
8488000,0.0324,0.013523,0.002678,0.000431,0.026091
8489000,0.0324,0.013523,0.002678,0.000431,0.028207
8490000,0.0324,0.013523,0.002678,0.000431,0.027972
8491000,0.0324,0.013523,0.002678,0.000431,0.026679
8492000,0.0324,0.013523,0.002678,0.000431,0.027149
8493000,0.0324,0.013523,0.002678,0.000431,0.025739
8494000,0.0324,0.013523,0.002678,0.000431,0.028089
8495000,0.0324,0.013523,0.002678,0.000431,0.024798
8496000,0.0324,0.013523,0.002678,0.000431,0.026444
8497000,0.0324,0.013523,0.002678,0.000431,0.027384
8498000,0.0324,0.013523,0.002678,0.000431,0.026796
8499000,0.0324,0.013523,0.002678,0.000431,0.026679
8500000,0.0324,0.013523,0.002678,0.000431,0.027502
8501000,0.0324,0.013523,0.002678,0.000431,0.026914
8502000,0.0324,0.013523,0.002678,0.000431,0.024798
8503000,0.0324,0.013523,0.002678,0.000431,0.025621
8504000,0.0324,0.013523,0.002678,0.000431,0.026561
8505000,0.0324,0.013523,0.002678,0.000431,0.026914
8506000,0.0324,0.013523,0.002678,0.000431,0.025856
8507000,0.0324,0.013523,0.002678,0.000431,0.025504
8508000,0.0324,0.013523,0.002678,0.000431,0.026444
8509000,0.0324,0.013523,0.002678,0.000431,0.024093
8510000,0.0324,0.013523,0.002678,0.000431,0.027972
8511000,0.0324,0.013523,0.002678,0.000431,0.026326
8512000,0.0324,0.013523,0.002678,0.000431,0.025739
8513000,0.0324,0.013523,0.002678,0.000431,0.024563
8514000,0.0324,0.013523,0.002678,0.000431,0.027619
8515000,0.0324,0.013523,0.002678,0.000431,0.024916
8516000,0.0324,0.013523,0.002678,0.000431,0.026679
8517000,0.0324,0.013523,0.002678,0.000431,0.024798
8518000,0.0324,0.013523,0.002678,0.000431,0.023976
8519000,0.0324,0.013523,0.002678,0.000431,0.027031
8520000,0.0324,0.013523,0.002678,0.000431,0.026561
8521000,0.0324,0.013523,0.002678,0.000431,0.023976
8522000,0.0324,0.013523,0.002678,0.000431,0.025034
8523000,0.0324,0.013523,0.002678,0.000431,0.025739
8524000,0.0324,0.013523,0.002678,0.000431,0.028089
8525000,0.0324,0.013523,0.002678,0.000431,0.027149
8526000,0.0324,0.013523,0.002678,0.000431,0.027737
8527000,0.0324,0.013523,0.002678,0.000431,0.025151
8528000,0.0324,0.013523,0.002678,0.000431,0.026091
8529000,0.0324,0.013523,0.002678,0.000431,0.025621
8530000,0.0324,0.013523,0.002678,0.000431,0.028089
8531000,0.0324,0.013523,0.002678,0.000431,0.026796
8532000,0.0324,0.013523,0.002678,0.000431,0.025386
8533000,0.0324,0.013523,0.002678,0.000431,0.026914
8534000,0.0324,0.013523,0.002678,0.000431,0.024563
8535000,0.0324,0.013523,0.002678,0.000431,0.027149
8536000,0.0324,0.013523,0.002678,0.000431,0.026914
8537000,0.0324,0.013523,0.002678,0.000431,0.026444
8538000,0.0324,0.013523,0.002678,0.000431,0.025621
8539000,0.0324,0.013523,0.002678,0.000431,0.027384
8540000,0.0324,0.013523,0.002678,0.000431,0.027502
8541000,0.0324,0.013523,0.002678,0.000431,0.027384
8542000,0.0324,0.013523,0.002678,0.000431,0.026209
8543000,0.0324,0.013523,0.002678,0.000431,0.025504
8544000,0.0324,0.013523,0.002678,0.000431,0.023506
8545000,0.0324,0.013523,0.002678,0.000431,0.025974
8546000,0.0324,0.013523,0.002678,0.000431,0.025739
8547000,0.0324,0.013523,0.002678,0.000431,0.023623
8548000,0.0324,0.013523,0.002678,0.000431,0.025856
8549000,0.0324,0.013523,0.002678,0.000431,0.025856
8550000,0.0324,0.013523,0.002678,0.000431,0.026796
8551000,0.0324,0.013523,0.002678,0.000431,0.025974
8552000,0.0324,0.013523,0.002678,0.000431,0.025974
8553000,0.0324,0.013523,0.002678,0.000431,0.025269
8554000,0.0324,0.013523,0.002678,0.000431,0.024563
8555000,0.0324,0.013523,0.002678,0.000431,0.025151
8556000,0.0324,0.013523,0.002678,0.000431,0.027031
8557000,0.0324,0.013523,0.002678,0.000431,0.025151
8558000,0.0324,0.013523,0.002678,0.000431,0.027149
8559000,0.0324,0.013523,0.002678,0.000431,0.024681
8560000,0.0324,0.013523,0.002678,0.000431,0.023271
8561000,0.0324,0.013523,0.002678,0.000431,0.025504
8562000,0.0324,0.013523,0.002678,0.000431,0.027031
8563000,0.0324,0.013523,0.002678,0.000431,0.025269
8564000,0.0324,0.013523,0.002678,0.000431,0.023153
8565000,0.0324,0.013523,0.002678,0.000431,0.023506
8566000,0.0324,0.013523,0.002678,0.000431,0.026444
8567000,0.0324,0.013523,0.002678,0.000431,0.024916
8568000,0.0324,0.013523,0.002678,0.000431,0.025269
8569000,0.0324,0.013523,0.002678,0.000431,0.025974
8570000,0.0324,0.013523,0.002678,0.000431,0.024563
8571000,0.0324,0.013523,0.002678,0.000431,0.025856
8572000,0.0324,0.013523,0.002678,0.000431,0.025386
8573000,0.0324,0.013523,0.002678,0.000431,0.025151
8574000,0.0324,0.013523,0.002678,0.000431,0.025034
8575000,0.0324,0.013523,0.002678,0.000431,0.025269
8576000,0.0324,0.013523,0.002678,0.000431,0.026796
8577000,0.0324,0.013523,0.002678,0.000431,0.025269
8578000,0.0324,0.013523,0.002678,0.000431,0.025856
8579000,0.0324,0.013523,0.002678,0.000431,0.025269
8580000,0.0324,0.013523,0.002678,0.000431,0.026091
8581000,0.0324,0.013523,0.002678,0.000431,0.024446
8582000,0.0324,0.013523,0.002678,0.000431,0.025739
8583000,0.0324,0.013523,0.002678,0.000431,0.026796
8584000,0.0324,0.013523,0.002678,0.000431,0.023506
8585000,0.0324,0.013523,0.002678,0.000431,0.025151
8586000,0.0324,0.013523,0.002678,0.000431,0.025974
8587000,0.0324,0.013523,0.002678,0.000431,0.025974
8588000,0.0324,0.013523,0.002678,0.000431,0.025739
8589000,0.0324,0.013523,0.002678,0.000431,0.023506
8590000,0.0324,0.013523,0.002678,0.000431,0.024681
8591000,0.0324,0.013523,0.002678,0.000431,0.025269
8592000,0.0324,0.013523,0.002678,0.000431,0.024798
8593000,0.0324,0.013523,0.002678,0.000431,0.025269
8594000,0.0324,0.013523,0.002678,0.000431,0.023858
8595000,0.0324,0.013523,0.002678,0.000431,0.022565
8596000,0.0324,0.013523,0.002678,0.000431,0.025386
8597000,0.0324,0.013523,0.002678,0.000431,0.026209
8598000,0.0324,0.013523,0.002678,0.000431,0.026091
8599000,0.0324,0.013523,0.002678,0.000431,0.024798
8600000,0.0324,0.013523,0.002678,0.000431,0.024563
8601000,0.0324,0.013523,0.002678,0.000431,0.024563
8602000,0.0324,0.013523,0.002678,0.000431,0.025856
8603000,0.0324,0.013523,0.002678,0.000431,0.025386
8604000,0.0324,0.013523,0.002678,0.000431,0.024681
8605000,0.0324,0.013523,0.002678,0.000431,0.023271
8606000,0.0324,0.013523,0.002678,0.000431,0.024093
8607000,0.0324,0.013523,0.002678,0.000431,0.025386
8608000,0.0324,0.013523,0.002678,0.000431,0.024211
8609000,0.0324,0.013523,0.002678,0.000431,0.024563
8610000,0.0324,0.013523,0.002678,0.000431,0.023036
8611000,0.0324,0.013523,0.002678,0.000431,0.022800
8612000,0.0324,0.013523,0.002678,0.000431,0.024798
8613000,0.0324,0.013523,0.002678,0.000431,0.027031
8614000,0.0324,0.013523,0.002678,0.000431,0.024328
8615000,0.0324,0.013523,0.002678,0.000431,0.024211
8616000,0.0324,0.013523,0.002678,0.000431,0.023741
8617000,0.0324,0.013523,0.002678,0.000431,0.023623
8618000,0.0324,0.013523,0.002678,0.000431,0.023271
8619000,0.0324,0.013523,0.002678,0.000431,0.024446
8620000,0.0324,0.013523,0.002678,0.000431,0.023976
8621000,0.0324,0.013523,0.002678,0.000431,0.024681
8622000,0.0324,0.013523,0.002678,0.000431,0.022800
8623000,0.0324,0.013523,0.002678,0.000431,0.026091
8624000,0.0324,0.013523,0.002678,0.000431,0.022095
8625000,0.0324,0.013523,0.002678,0.000431,0.025621
8626000,0.0324,0.013523,0.002678,0.000431,0.024328
8627000,0.0324,0.013523,0.002678,0.000431,0.024798
8628000,0.0324,0.013523,0.002678,0.000431,0.025504
8629000,0.0324,0.013523,0.002678,0.000431,0.025151
8630000,0.0324,0.013523,0.002678,0.000431,0.023623
8631000,0.0324,0.013523,0.002678,0.000431,0.023388
8632000,0.0324,0.013523,0.002678,0.000431,0.024916
8633000,0.0324,0.013523,0.002678,0.000431,0.027267
8634000,0.0324,0.013523,0.002678,0.000431,0.023506
8635000,0.0324,0.013523,0.002678,0.000431,0.024563
8636000,0.0324,0.013523,0.002678,0.000431,0.022330
8637000,0.0324,0.013523,0.002678,0.000431,0.024211
8638000,0.0324,0.013523,0.002678,0.000431,0.024916
8639000,0.0324,0.013523,0.002678,0.000431,0.024093
8640000,0.0324,0.013523,0.002678,0.000431,0.025621
8641000,0.0324,0.013523,0.002678,0.000431,0.022213
8642000,0.0324,0.013523,0.002678,0.000431,0.024916
8643000,0.0324,0.013523,0.002678,0.000431,0.024681
8644000,0.0324,0.013523,0.002678,0.000431,0.022800
8645000,0.0324,0.013523,0.002678,0.000431,0.024681
8646000,0.0324,0.013523,0.002678,0.000431,0.025386
8647000,0.0324,0.013523,0.002678,0.000431,0.023388
8648000,0.0324,0.013523,0.002678,0.000431,0.024211
8649000,0.0324,0.013523,0.002678,0.000431,0.023741
8650000,0.0324,0.013523,0.002678,0.000431,0.024681
8651000,0.0324,0.013523,0.002678,0.000431,0.023623
8652000,0.0324,0.013523,0.002678,0.000431,0.023388
8653000,0.0324,0.013523,0.002678,0.000431,0.024563
8654000,0.0324,0.013523,0.002678,0.000431,0.023153
8655000,0.0324,0.013523,0.002678,0.000431,0.024446
8656000,0.0324,0.013523,0.002678,0.000431,0.024211
8657000,0.0324,0.013523,0.002678,0.000431,0.024093
8658000,0.0324,0.013523,0.002678,0.000431,0.025504
8659000,0.0324,0.013523,0.002678,0.000431,0.025621
8660000,0.0324,0.013523,0.002678,0.000431,0.026914
8661000,0.0324,0.013523,0.002678,0.000431,0.023036
8662000,0.0324,0.013523,0.002678,0.000431,0.024798
8663000,0.0324,0.013523,0.002678,0.000431,0.026444
8664000,0.0324,0.013523,0.002678,0.000431,0.023741
8665000,0.0324,0.013523,0.002678,0.000431,0.027149
8666000,0.0324,0.013523,0.002678,0.000431,0.023271
8667000,0.0324,0.013523,0.002678,0.000431,0.023858
8668000,0.0324,0.013523,0.002678,0.000431,0.023623
8669000,0.0324,0.013523,0.002678,0.000431,0.025151
8670000,0.0324,0.013523,0.002678,0.000431,0.024681
8671000,0.0324,0.013523,0.002678,0.000431,0.024563
8672000,0.0324,0.013523,0.002678,0.000431,0.023388
8673000,0.0324,0.013523,0.002678,0.000431,0.022565
8674000,0.0324,0.013523,0.002678,0.000431,0.026209
8675000,0.0324,0.013523,0.002678,0.000431,0.022800
8676000,0.0324,0.013523,0.002678,0.000431,0.025504
8677000,0.0324,0.013523,0.002678,0.000431,0.023506
8678000,0.0324,0.013523,0.002678,0.000431,0.021743
8679000,0.0324,0.013523,0.002678,0.000431,0.024211
8680000,0.0324,0.013523,0.002678,0.000431,0.024798
8681000,0.0324,0.013523,0.002678,0.000431,0.022565
8682000,0.0324,0.013523,0.002678,0.000431,0.024446
8683000,0.0324,0.013523,0.002678,0.000431,0.021273
8684000,0.0324,0.013523,0.002678,0.000431,0.025621
8685000,0.0324,0.013523,0.002678,0.000431,0.023388
8686000,0.0324,0.013523,0.002678,0.000431,0.024681
8687000,0.0324,0.013523,0.002678,0.000431,0.024916
8688000,0.0324,0.013523,0.002678,0.000431,0.023976
8689000,0.0324,0.013523,0.002678,0.000431,0.024681
8690000,0.0324,0.013523,0.002678,0.000431,0.025269
8691000,0.0324,0.013523,0.002678,0.000431,0.023036
8692000,0.0324,0.013523,0.002678,0.000431,0.024446
8693000,0.0324,0.013523,0.002678,0.000431,0.024563
8694000,0.0324,0.013523,0.002678,0.000431,0.024916
8695000,0.0324,0.013523,0.002678,0.000431,0.024211
8696000,0.0324,0.013523,0.002678,0.000431,0.024446
8697000,0.0324,0.013523,0.002678,0.000431,0.021860
8698000,0.0324,0.013523,0.002678,0.000431,0.024916
8699000,0.0324,0.013523,0.002678,0.000431,0.022683
8700000,0.0324,0.013523,0.002678,0.000431,0.025151
8701000,0.0324,0.013523,0.002678,0.000431,0.024328
8702000,0.0324,0.013523,0.002678,0.000431,0.021155
8703000,0.0324,0.013523,0.002678,0.000431,0.025269
8704000,0.0324,0.013523,0.002678,0.000431,0.023976
8705000,0.0324,0.013523,0.002678,0.000431,0.024798
8706000,0.0324,0.013523,0.002678,0.000431,0.024563
8707000,0.0324,0.013523,0.002678,0.000431,0.023271
8708000,0.0324,0.013523,0.002678,0.000431,0.024798
8709000,0.0324,0.013523,0.002678,0.000431,0.023976
8710000,0.0324,0.013523,0.002678,0.000431,0.024798
8711000,0.0324,0.013523,0.002678,0.000431,0.026209
8712000,0.0324,0.013523,0.002678,0.000431,0.022448
8713000,0.0324,0.013523,0.002678,0.000431,0.022095
8714000,0.0324,0.013523,0.002678,0.000431,0.023741
8715000,0.0324,0.013523,0.002678,0.000431,0.024328
8716000,0.0324,0.013523,0.002678,0.000431,0.025034
8717000,0.0324,0.013523,0.002678,0.000431,0.024446
8718000,0.0324,0.013523,0.002678,0.000431,0.025034
8719000,0.0324,0.013523,0.002678,0.000431,0.023506
8720000,0.0324,0.013523,0.002678,0.000431,0.025504
8721000,0.0324,0.013523,0.002678,0.000431,0.024798
8722000,0.0324,0.013523,0.002678,0.000431,0.024093
8723000,0.0324,0.013523,0.002678,0.000431,0.024446
8724000,0.0324,0.013523,0.002678,0.000431,0.021860
8725000,0.0324,0.013523,0.002678,0.000431,0.024446
8726000,0.0324,0.013523,0.002678,0.000431,0.025269
8727000,0.0324,0.013523,0.002678,0.000431,0.024093
8728000,0.0324,0.013523,0.002678,0.000431,0.022095
8729000,0.0324,0.013523,0.002678,0.000431,0.025269
8730000,0.0324,0.013523,0.002678,0.000431,0.024916
8731000,0.0324,0.013523,0.002678,0.000431,0.026091
8732000,0.0324,0.013523,0.002678,0.000431,0.022800
8733000,0.0324,0.013523,0.002678,0.000431,0.024798
8734000,0.0324,0.013523,0.002678,0.000431,0.023858
8735000,0.0324,0.013523,0.002678,0.000431,0.023506
8736000,0.0324,0.013523,0.002678,0.000431,0.024798
8737000,0.0324,0.013523,0.002678,0.000431,0.024328
8738000,0.0324,0.013523,0.002678,0.000431,0.023623
8739000,0.0324,0.013523,0.002678,0.000431,0.023506
8740000,0.0324,0.013523,0.002678,0.000431,0.024446
8741000,0.0324,0.013523,0.002678,0.000431,0.023388
8742000,0.0324,0.013523,0.002678,0.000431,0.025621
8743000,0.0324,0.013523,0.002678,0.000431,0.023388
8744000,0.0324,0.013523,0.002678,0.000431,0.023388
8745000,0.0324,0.013523,0.002678,0.000431,0.023036
8746000,0.0324,0.013523,0.002678,0.000431,0.025151
8747000,0.0324,0.013523,0.002678,0.000431,0.023506
8748000,0.0324,0.013523,0.002678,0.000431,0.023858
8749000,0.0324,0.013523,0.002678,0.000431,0.023388
8750000,0.0324,0.013523,0.002678,0.000431,0.023153
8751000,0.0324,0.013523,0.002678,0.000431,0.025504
8752000,0.0324,0.013523,0.002678,0.000431,0.022330
8753000,0.0324,0.013523,0.002678,0.000431,0.023858
8754000,0.0324,0.013523,0.002678,0.000431,0.025151
8755000,0.0324,0.013523,0.002678,0.000431,0.022918
8756000,0.0324,0.013523,0.002678,0.000431,0.025504
8757000,0.0324,0.013523,0.002678,0.000431,0.023153
8758000,0.0324,0.013523,0.002678,0.000431,0.024798
8759000,0.0324,0.013523,0.002678,0.000431,0.022565
8760000,0.0324,0.013523,0.002678,0.000431,0.024328
8761000,0.0324,0.013523,0.002678,0.000431,0.025386
8762000,0.0324,0.013523,0.002678,0.000431,0.022565
8763000,0.0324,0.013523,0.002678,0.000431,0.023506
8764000,0.0324,0.013523,0.002678,0.000431,0.022330
8765000,0.0324,0.013523,0.002678,0.000431,0.021978
8766000,0.0324,0.013523,0.002678,0.000431,0.023858
8767000,0.0324,0.013523,0.002678,0.000431,0.024681
8768000,0.0324,0.013523,0.002678,0.000431,0.026561
8769000,0.0324,0.013523,0.002678,0.000431,0.022800
8770000,0.0324,0.013523,0.002678,0.000431,0.022213
8771000,0.0324,0.013523,0.002678,0.000431,0.024211
8772000,0.0324,0.013523,0.002678,0.000431,0.024681
8773000,0.0324,0.013523,0.002678,0.000431,0.022565
8774000,0.0324,0.013523,0.002678,0.000431,0.024563
8775000,0.0324,0.013523,0.002678,0.000431,0.023506
8776000,0.0324,0.013523,0.002678,0.000431,0.024211
8777000,0.0324,0.013523,0.002678,0.000431,0.025386
8778000,0.0324,0.013523,0.002678,0.000431,0.022918
8779000,0.0324,0.013523,0.002678,0.000431,0.024446
8780000,0.0324,0.013523,0.002678,0.000431,0.023623
8781000,0.0324,0.013523,0.002678,0.000431,0.024563
8782000,0.0324,0.013523,0.002678,0.000431,0.025151
8783000,0.0324,0.013523,0.002678,0.000431,0.023741
8784000,0.0324,0.013523,0.002678,0.000431,0.024093
8785000,0.0324,0.013523,0.002678,0.000431,0.022800
8786000,0.0324,0.013523,0.002678,0.000431,0.023858
8787000,0.0324,0.013523,0.002678,0.000431,0.025034
8788000,0.0324,0.013523,0.002678,0.000431,0.021508
8789000,0.0324,0.013523,0.002678,0.000431,0.023153
8790000,0.0324,0.013523,0.002678,0.000431,0.021508
8791000,0.0324,0.013523,0.002678,0.000431,0.024328
8792000,0.0324,0.013523,0.002678,0.000431,0.026209
8793000,0.0324,0.013523,0.002678,0.000431,0.024446
8794000,0.0324,0.013523,0.002678,0.000431,0.023741
8795000,0.0324,0.013523,0.002678,0.000431,0.021155
8796000,0.0324,0.013523,0.002678,0.000431,0.024093
8797000,0.0324,0.013523,0.002678,0.000431,0.025974
8798000,0.0324,0.013523,0.002678,0.000431,0.023506
8799000,0.0324,0.013523,0.002678,0.000431,0.023858
8800000,0.0324,0.013523,0.002678,0.000431,0.023623
8801000,0.0324,0.013523,0.002678,0.000431,0.024563
8802000,0.0324,0.013523,0.002678,0.000431,0.025739
8803000,0.0324,0.013523,0.002678,0.000431,0.023623
8804000,0.0324,0.013523,0.002678,0.000431,0.024446
8805000,0.0324,0.013523,0.002678,0.000431,0.023976
8806000,0.0324,0.013523,0.002678,0.000431,0.023858
8807000,0.0324,0.013523,0.002678,0.000431,0.024328
8808000,0.0324,0.013523,0.002678,0.000431,0.024093
8809000,0.0324,0.013523,0.002678,0.000431,0.023858
8810000,0.0324,0.013523,0.002678,0.000431,0.022918
8811000,0.0324,0.013523,0.002678,0.000431,0.024093
8812000,0.0324,0.013523,0.002678,0.000431,0.023623
8813000,0.0324,0.013523,0.002678,0.000431,0.025151
8814000,0.0324,0.013523,0.002678,0.000431,0.025504
8815000,0.0324,0.013523,0.002678,0.000431,0.022330
8816000,0.0324,0.013523,0.002678,0.000431,0.023506
8817000,0.0324,0.013523,0.002678,0.000431,0.023623
8818000,0.0324,0.013523,0.002678,0.000431,0.023976
8819000,0.0324,0.013523,0.002678,0.000431,0.022800
8820000,0.0324,0.013523,0.002678,0.000431,0.023623
8821000,0.0324,0.013523,0.002678,0.000431,0.025621
8822000,0.0324,0.013523,0.002678,0.000431,0.023741
8823000,0.0324,0.013523,0.002678,0.000431,0.024798
8824000,0.0324,0.013523,0.002678,0.000431,0.024093
8825000,0.0324,0.013523,0.002678,0.000431,0.021743
8826000,0.0324,0.013523,0.002678,0.000431,0.025739
8827000,0.0324,0.013523,0.002678,0.000431,0.022800
8828000,0.0324,0.013523,0.002678,0.000431,0.025151
8829000,0.0324,0.013523,0.002678,0.000431,0.024211
8830000,0.0324,0.013523,0.002678,0.000431,0.021860
8831000,0.0324,0.013523,0.002678,0.000431,0.024211
8832000,0.0324,0.013523,0.002678,0.000431,0.023036
8833000,0.0324,0.013523,0.002678,0.000431,0.023741
8834000,0.0324,0.013523,0.002678,0.000431,0.024916
8835000,0.0324,0.013523,0.002678,0.000431,0.024328
8836000,0.0324,0.013523,0.002678,0.000431,0.023858
8837000,0.0324,0.013523,0.002678,0.000431,0.023976
8838000,0.0324,0.013523,0.002678,0.000431,0.024916
8839000,0.0324,0.013523,0.002678,0.000431,0.023976
8840000,0.0324,0.013523,0.002678,0.000431,0.023858
8841000,0.0324,0.013523,0.002678,0.000431,0.021625
8842000,0.0324,0.013523,0.002678,0.000431,0.023153
8843000,0.0324,0.013523,0.002678,0.000431,0.024681
8844000,0.0324,0.013523,0.002678,0.000431,0.025151
8845000,0.0324,0.013523,0.002678,0.000431,0.023741
8846000,0.0324,0.013523,0.002678,0.000431,0.023271
8847000,0.0324,0.013523,0.002678,0.000431,0.023741
8848000,0.0324,0.013523,0.002678,0.000431,0.024211
8849000,0.0324,0.013523,0.002678,0.000431,0.023388
8850000,0.0324,0.013523,0.002678,0.000431,0.021743
8851000,0.0324,0.013523,0.002678,0.000431,0.023623
8852000,0.0324,0.013523,0.002678,0.000431,0.022800
8853000,0.0324,0.013523,0.002678,0.000431,0.023153
8854000,0.0324,0.013523,0.002678,0.000431,0.024798
8855000,0.0324,0.013523,0.002678,0.000431,0.025269
8856000,0.0324,0.013523,0.002678,0.000431,0.021743
8857000,0.0324,0.013523,0.002678,0.000431,0.024563
8858000,0.0324,0.013523,0.002678,0.000431,0.021508
8859000,0.0324,0.013523,0.002678,0.000431,0.025269
8860000,0.0324,0.013523,0.002678,0.000431,0.024328
8861000,0.0324,0.013523,0.002678,0.000431,0.023153
8862000,0.0324,0.013523,0.002678,0.000431,0.023858
8863000,0.0324,0.013523,0.002678,0.000431,0.022800
8864000,0.0324,0.013523,0.002678,0.000431,0.025269
8865000,0.0324,0.013523,0.002678,0.000431,0.022565
8866000,0.0324,0.013523,0.002678,0.000431,0.023741
8867000,0.0324,0.013523,0.002678,0.000431,0.024916
8868000,0.0324,0.013523,0.002678,0.000431,0.022565
8869000,0.0324,0.013523,0.002678,0.000431,0.024328
8870000,0.0324,0.013523,0.002678,0.000431,0.024681
8871000,0.0324,0.013523,0.002678,0.000431,0.024563
8872000,0.0324,0.013523,0.002678,0.000431,0.023153
8873000,0.0324,0.013523,0.002678,0.000431,0.023976
8874000,0.0324,0.013523,0.002678,0.000431,0.024446
8875000,0.0324,0.013523,0.002678,0.000431,0.024093
8876000,0.0324,0.013523,0.002678,0.000431,0.023153
8877000,0.0324,0.013523,0.002678,0.000431,0.023153
8878000,0.0324,0.013523,0.002678,0.000431,0.022683
8879000,0.0324,0.013523,0.002678,0.000431,0.022800
8880000,0.0324,0.013523,0.002678,0.000431,0.025034
8881000,0.0324,0.013523,0.002678,0.000431,0.024093
8882000,0.0324,0.013523,0.002678,0.000431,0.024328
8883000,0.0324,0.013523,0.002678,0.000431,0.023506
8884000,0.0324,0.013523,0.002678,0.000431,0.024328
8885000,0.0324,0.013523,0.002678,0.000431,0.024328
8886000,0.0324,0.013523,0.002678,0.000431,0.023858
8887000,0.0324,0.013523,0.002678,0.000431,0.024798
8888000,0.0324,0.013523,0.002678,0.000431,0.022565
8889000,0.0324,0.013523,0.002678,0.000431,0.024681
8890000,0.0324,0.013523,0.002678,0.000431,0.026209
8891000,0.0324,0.013523,0.002678,0.000431,0.023153
8892000,0.0324,0.013523,0.002678,0.000431,0.024563
8893000,0.0324,0.013523,0.002678,0.000431,0.023976
8894000,0.0324,0.013523,0.002678,0.000431,0.025151
8895000,0.0324,0.013523,0.002678,0.000431,0.025034
8896000,0.0324,0.013523,0.002678,0.000431,0.024328
8897000,0.0324,0.013523,0.002678,0.000431,0.023153
8898000,0.0324,0.013523,0.002678,0.000431,0.022683
8899000,0.0324,0.013523,0.002678,0.000431,0.023858
8900000,0.0324,0.013523,0.002678,0.000431,0.025034
8901000,0.0324,0.013523,0.002678,0.000431,0.023036
8902000,0.0324,0.013523,0.002678,0.000431,0.024916
8903000,0.0324,0.013523,0.002678,0.000431,0.023858
8904000,0.0324,0.013523,0.002678,0.000431,0.022213
8905000,0.0324,0.013523,0.002678,0.000431,0.024563
8906000,0.0324,0.013523,0.002678,0.000431,0.024328
8907000,0.0324,0.013523,0.002678,0.000431,0.025621
8908000,0.0324,0.013523,0.002678,0.000431,0.021625
8909000,0.0324,0.013523,0.002678,0.000431,0.024093
8910000,0.0324,0.013523,0.002678,0.000431,0.024798
8911000,0.0324,0.013523,0.002678,0.000431,0.022800
8912000,0.0324,0.013523,0.002678,0.000431,0.023036
8913000,0.0324,0.013523,0.002678,0.000431,0.025739
8914000,0.0324,0.013523,0.002678,0.000431,0.023858
8915000,0.0324,0.013523,0.002678,0.000431,0.024798
8916000,0.0324,0.013523,0.002678,0.000431,0.024681
8917000,0.0324,0.013523,0.002678,0.000431,0.023506
8918000,0.0324,0.013523,0.002678,0.000431,0.024211
8919000,0.0324,0.013523,0.002678,0.000431,0.023506
8920000,0.0324,0.013523,0.002678,0.000431,0.025269
8921000,0.0324,0.013523,0.002678,0.000431,0.025386
8922000,0.0324,0.013523,0.002678,0.000431,0.024093
8923000,0.0324,0.013523,0.002678,0.000431,0.024211
8924000,0.0324,0.013523,0.002678,0.000431,0.022095
8925000,0.0324,0.013523,0.002678,0.000431,0.023976
8926000,0.0324,0.013523,0.002678,0.000431,0.024563
8927000,0.0324,0.013523,0.002678,0.000431,0.024211
8928000,0.0324,0.013523,0.002678,0.000431,0.023388
8929000,0.0324,0.013523,0.002678,0.000431,0.023153
8930000,0.0324,0.013523,0.002678,0.000431,0.024446
8931000,0.0324,0.013523,0.002678,0.000431,0.025856
8932000,0.0324,0.013523,0.002678,0.000431,0.024093
8933000,0.0324,0.013523,0.002678,0.000431,0.024916
8934000,0.0324,0.013523,0.002678,0.000431,0.023858
8935000,0.0324,0.013523,0.002678,0.000431,0.023858
8936000,0.0324,0.013523,0.002678,0.000431,0.025269
8937000,0.0324,0.013523,0.002678,0.000431,0.023976
8938000,0.0324,0.013523,0.002678,0.000431,0.024563
8939000,0.0324,0.013523,0.002678,0.000431,0.024681
8940000,0.0324,0.013523,0.002678,0.000431,0.022683
8941000,0.0324,0.013523,0.002678,0.000431,0.022918
8942000,0.0324,0.013523,0.002678,0.000431,0.024798
8943000,0.0324,0.013523,0.002678,0.000431,0.023741
8944000,0.0324,0.013523,0.002678,0.000431,0.022800
8945000,0.0324,0.013523,0.002678,0.000431,0.021860
8946000,0.0324,0.013523,0.002678,0.000431,0.025151
8947000,0.0324,0.013523,0.002678,0.000431,0.023153
8948000,0.0324,0.013523,0.002678,0.000431,0.024211
8949000,0.0324,0.013523,0.002678,0.000431,0.021978
8950000,0.0324,0.013523,0.002678,0.000431,0.022095
8951000,0.0324,0.013523,0.002678,0.000431,0.023858
8952000,0.0324,0.013523,0.002678,0.000431,0.023271
8953000,0.0324,0.013523,0.002678,0.000431,0.025034
8954000,0.0324,0.013523,0.002678,0.000431,0.023506
8955000,0.0324,0.013523,0.002678,0.000431,0.022565
8956000,0.0324,0.013523,0.002678,0.000431,0.023623
8957000,0.0324,0.013523,0.002678,0.000431,0.023036
8958000,0.0324,0.013523,0.002678,0.000431,0.024093
8959000,0.0324,0.013523,0.002678,0.000431,0.022918
8960000,0.0324,0.013523,0.002678,0.000431,0.024093
8961000,0.0324,0.013523,0.002678,0.000431,0.022330
8962000,0.0324,0.013523,0.002678,0.000431,0.023623
8963000,0.0324,0.013523,0.002678,0.000431,0.026561
8964000,0.0324,0.013523,0.002678,0.000431,0.022095
8965000,0.0324,0.013523,0.002678,0.000431,0.022683
8966000,0.0324,0.013523,0.002678,0.000431,0.024093
8967000,0.0324,0.013523,0.002678,0.000431,0.024563
8968000,0.0324,0.013523,0.002678,0.000431,0.023271
8969000,0.0324,0.013523,0.002678,0.000431,0.021273
8970000,0.0324,0.013523,0.002678,0.000431,0.023153
8971000,0.0324,0.013523,0.002678,0.000431,0.023506
8972000,0.0324,0.013523,0.002678,0.000431,0.024563
8973000,0.0324,0.013523,0.002678,0.000431,0.025034
8974000,0.0324,0.013523,0.002678,0.000431,0.021743
8975000,0.0324,0.013523,0.002678,0.000431,0.023388
8976000,0.0324,0.013523,0.002678,0.000431,0.023858
8977000,0.0324,0.013523,0.002678,0.000431,0.022330
8978000,0.0324,0.013523,0.002678,0.000431,0.023741
8979000,0.0324,0.013523,0.002678,0.000431,0.022565
8980000,0.0324,0.013523,0.002678,0.000431,0.021743
8981000,0.0324,0.013523,0.002678,0.000431,0.022800
8982000,0.0324,0.013523,0.002678,0.000431,0.022918
8983000,0.0324,0.013523,0.002678,0.000431,0.023271
8984000,0.0324,0.013523,0.002678,0.000431,0.025504
8985000,0.0324,0.013523,0.002678,0.000431,0.022918
8986000,0.0324,0.013523,0.002678,0.000431,0.023976
8987000,0.0324,0.013523,0.002678,0.000431,0.021743
8988000,0.0324,0.013523,0.002678,0.000431,0.023741
8989000,0.0324,0.013523,0.002678,0.000431,0.023623
8990000,0.0324,0.013523,0.002678,0.000431,0.024328
8991000,0.0324,0.013523,0.002678,0.000431,0.020332
8992000,0.0324,0.013523,0.002678,0.000431,0.023741
8993000,0.0324,0.013523,0.002678,0.000431,0.025504
8994000,0.0324,0.013523,0.002678,0.000431,0.023271
8995000,0.0324,0.013523,0.002678,0.000431,0.022095
8996000,0.0324,0.013523,0.002678,0.000431,0.022800
8997000,0.0324,0.013523,0.002678,0.000431,0.022918
8998000,0.0324,0.013523,0.002678,0.000431,0.024563
8999000,0.0324,0.013523,0.002678,0.000431,0.023858
