Cycle,Area(mm^2),PeakDynamic(W),SubthresholdLeakage(W),GateLeakage(W),RunTimeDynamic(W)
5000000,0.0324,0.013523,0.002678,0.000431,0.071222
5001000,0.0324,0.013523,0.002678,0.000431,0.068401
5002000,0.0324,0.013523,0.002678,0.000431,0.070869
5003000,0.0324,0.013523,0.002678,0.000431,0.065933
5004000,0.0324,0.013523,0.002678,0.000431,0.072632
5005000,0.0324,0.013523,0.002678,0.000431,0.067226
5006000,0.0324,0.013523,0.002678,0.000431,0.070164
5007000,0.0324,0.013523,0.002678,0.000431,0.066874
5008000,0.0324,0.013523,0.002678,0.000431,0.069812
5009000,0.0324,0.013523,0.002678,0.000431,0.066403
5010000,0.0324,0.013523,0.002678,0.000431,0.068872
5011000,0.0324,0.013523,0.002678,0.000431,0.069342
5012000,0.0324,0.013523,0.002678,0.000431,0.070399
5013000,0.0324,0.013523,0.002678,0.000431,0.069694
5014000,0.0324,0.013523,0.002678,0.000431,0.065698
5015000,0.0324,0.013523,0.002678,0.000431,0.070869
5016000,0.0324,0.013523,0.002678,0.000431,0.067814
5017000,0.0324,0.013523,0.002678,0.000431,0.069107
5018000,0.0324,0.013523,0.002678,0.000431,0.071457
5019000,0.0324,0.013523,0.002678,0.000431,0.069694
5020000,0.0324,0.013523,0.002678,0.000431,0.066521
5021000,0.0324,0.013523,0.002678,0.000431,0.070282
5022000,0.0324,0.013523,0.002678,0.000431,0.067579
5023000,0.0324,0.013523,0.002678,0.000431,0.067696
5024000,0.0324,0.013523,0.002678,0.000431,0.065816
5025000,0.0324,0.013523,0.002678,0.000431,0.068636
5026000,0.0324,0.013523,0.002678,0.000431,0.070399
5027000,0.0324,0.013523,0.002678,0.000431,0.070987
5028000,0.0324,0.013523,0.002678,0.000431,0.068049
5029000,0.0324,0.013523,0.002678,0.000431,0.069342
5030000,0.0324,0.013523,0.002678,0.000431,0.067814
5031000,0.0324,0.013523,0.002678,0.000431,0.070399
5032000,0.0324,0.013523,0.002678,0.000431,0.065111
5033000,0.0324,0.013523,0.002678,0.000431,0.068754
5034000,0.0324,0.013523,0.002678,0.000431,0.070282
5035000,0.0324,0.013523,0.002678,0.000431,0.066168
5036000,0.0324,0.013523,0.002678,0.000431,0.068166
5037000,0.0324,0.013523,0.002678,0.000431,0.068166
5038000,0.0324,0.013523,0.002678,0.000431,0.070047
5039000,0.0324,0.013523,0.002678,0.000431,0.070047
5040000,0.0324,0.013523,0.002678,0.000431,0.066756
5041000,0.0324,0.013523,0.002678,0.000431,0.066051
5042000,0.0324,0.013523,0.002678,0.000431,0.066756
5043000,0.0324,0.013523,0.002678,0.000431,0.068166
5044000,0.0324,0.013523,0.002678,0.000431,0.069929
5045000,0.0324,0.013523,0.002678,0.000431,0.065816
5046000,0.0324,0.013523,0.002678,0.000431,0.063935
5047000,0.0324,0.013523,0.002678,0.000431,0.068401
5048000,0.0324,0.013523,0.002678,0.000431,0.063113
5049000,0.0324,0.013523,0.002678,0.000431,0.064523
5050000,0.0324,0.013523,0.002678,0.000431,0.067226
5051000,0.0324,0.013523,0.002678,0.000431,0.067814
5052000,0.0324,0.013523,0.002678,0.000431,0.066286
5053000,0.0324,0.013523,0.002678,0.000431,0.066403
5054000,0.0324,0.013523,0.002678,0.000431,0.065933
5055000,0.0324,0.013523,0.002678,0.000431,0.066874
5056000,0.0324,0.013523,0.002678,0.000431,0.071927
5057000,0.0324,0.013523,0.002678,0.000431,0.064405
5058000,0.0324,0.013523,0.002678,0.000431,0.064405
5059000,0.0324,0.013523,0.002678,0.000431,0.066638
5060000,0.0324,0.013523,0.002678,0.000431,0.066756
5061000,0.0324,0.013523,0.002678,0.000431,0.069459
5062000,0.0324,0.013523,0.002678,0.000431,0.063583
5063000,0.0324,0.013523,0.002678,0.000431,0.065228
5064000,0.0324,0.013523,0.002678,0.000431,0.069342
5065000,0.0324,0.013523,0.002678,0.000431,0.067579
5066000,0.0324,0.013523,0.002678,0.000431,0.066168
5067000,0.0324,0.013523,0.002678,0.000431,0.067344
5068000,0.0324,0.013523,0.002678,0.000431,0.062760
5069000,0.0324,0.013523,0.002678,0.000431,0.066403
5070000,0.0324,0.013523,0.002678,0.000431,0.065463
5071000,0.0324,0.013523,0.002678,0.000431,0.066521
5072000,0.0324,0.013523,0.002678,0.000431,0.066756
5073000,0.0324,0.013523,0.002678,0.000431,0.065346
5074000,0.0324,0.013523,0.002678,0.000431,0.064170
5075000,0.0324,0.013523,0.002678,0.000431,0.064288
5076000,0.0324,0.013523,0.002678,0.000431,0.063583
5077000,0.0324,0.013523,0.002678,0.000431,0.066991
5078000,0.0324,0.013523,0.002678,0.000431,0.064876
5079000,0.0324,0.013523,0.002678,0.000431,0.065463
5080000,0.0324,0.013523,0.002678,0.000431,0.064288
5081000,0.0324,0.013523,0.002678,0.000431,0.067931
5082000,0.0324,0.013523,0.002678,0.000431,0.069342
5083000,0.0324,0.013523,0.002678,0.000431,0.063818
5084000,0.0324,0.013523,0.002678,0.000431,0.064641
5085000,0.0324,0.013523,0.002678,0.000431,0.061585
5086000,0.0324,0.013523,0.002678,0.000431,0.067344
5087000,0.0324,0.013523,0.002678,0.000431,0.067579
5088000,0.0324,0.013523,0.002678,0.000431,0.066051
5089000,0.0324,0.013523,0.002678,0.000431,0.063465
5090000,0.0324,0.013523,0.002678,0.000431,0.066403
5091000,0.0324,0.013523,0.002678,0.000431,0.066638
5092000,0.0324,0.013523,0.002678,0.000431,0.064523
5093000,0.0324,0.013523,0.002678,0.000431,0.061820
5094000,0.0324,0.013523,0.002678,0.000431,0.065581
5095000,0.0324,0.013523,0.002678,0.000431,0.061350
5096000,0.0324,0.013523,0.002678,0.000431,0.065581
5097000,0.0324,0.013523,0.002678,0.000431,0.062760
5098000,0.0324,0.013523,0.002678,0.000431,0.064876
5099000,0.0324,0.013523,0.002678,0.000431,0.067461
5100000,0.0324,0.013523,0.002678,0.000431,0.065111
5101000,0.0324,0.013523,0.002678,0.000431,0.061467
5102000,0.0324,0.013523,0.002678,0.000431,0.064876
5103000,0.0324,0.013523,0.002678,0.000431,0.063583
5104000,0.0324,0.013523,0.002678,0.000431,0.067814
5105000,0.0324,0.013523,0.002678,0.000431,0.063818
5106000,0.0324,0.013523,0.002678,0.000431,0.062878
5107000,0.0324,0.013523,0.002678,0.000431,0.066521
5108000,0.0324,0.013523,0.002678,0.000431,0.064288
5109000,0.0324,0.013523,0.002678,0.000431,0.065346
5110000,0.0324,0.013523,0.002678,0.000431,0.062995
5111000,0.0324,0.013523,0.002678,0.000431,0.062407
5112000,0.0324,0.013523,0.002678,0.000431,0.062995
5113000,0.0324,0.013523,0.002678,0.000431,0.070047
5114000,0.0324,0.013523,0.002678,0.000431,0.063113
5115000,0.0324,0.013523,0.002678,0.000431,0.063583
5116000,0.0324,0.013523,0.002678,0.000431,0.064053
5117000,0.0324,0.013523,0.002678,0.000431,0.065463
5118000,0.0324,0.013523,0.002678,0.000431,0.063700
5119000,0.0324,0.013523,0.002678,0.000431,0.065346
5120000,0.0324,0.013523,0.002678,0.000431,0.063700
5121000,0.0324,0.013523,0.002678,0.000431,0.065346
5122000,0.0324,0.013523,0.002678,0.000431,0.064758
5123000,0.0324,0.013523,0.002678,0.000431,0.060762
5124000,0.0324,0.013523,0.002678,0.000431,0.065816
5125000,0.0324,0.013523,0.002678,0.000431,0.066403
5126000,0.0324,0.013523,0.002678,0.000431,0.065933
5127000,0.0324,0.013523,0.002678,0.000431,0.065463
5128000,0.0324,0.013523,0.002678,0.000431,0.065111
5129000,0.0324,0.013523,0.002678,0.000431,0.064523
5130000,0.0324,0.013523,0.002678,0.000431,0.066168
5131000,0.0324,0.013523,0.002678,0.000431,0.064405
5132000,0.0324,0.013523,0.002678,0.000431,0.064641
5133000,0.0324,0.013523,0.002678,0.000431,0.065816
5134000,0.0324,0.013523,0.002678,0.000431,0.063113
5135000,0.0324,0.013523,0.002678,0.000431,0.062407
5136000,0.0324,0.013523,0.002678,0.000431,0.062643
5137000,0.0324,0.013523,0.002678,0.000431,0.066403
5138000,0.0324,0.013523,0.002678,0.000431,0.064523
5139000,0.0324,0.013523,0.002678,0.000431,0.064170
5140000,0.0324,0.013523,0.002678,0.000431,0.064993
5141000,0.0324,0.013523,0.002678,0.000431,0.063465
5142000,0.0324,0.013523,0.002678,0.000431,0.066286
5143000,0.0324,0.013523,0.002678,0.000431,0.061937
5144000,0.0324,0.013523,0.002678,0.000431,0.065346
5145000,0.0324,0.013523,0.002678,0.000431,0.062055
5146000,0.0324,0.013523,0.002678,0.000431,0.066874
5147000,0.0324,0.013523,0.002678,0.000431,0.065698
5148000,0.0324,0.013523,0.002678,0.000431,0.065346
5149000,0.0324,0.013523,0.002678,0.000431,0.063465
5150000,0.0324,0.013523,0.002678,0.000431,0.062525
5151000,0.0324,0.013523,0.002678,0.000431,0.066286
5152000,0.0324,0.013523,0.002678,0.000431,0.066051
5153000,0.0324,0.013523,0.002678,0.000431,0.064288
5154000,0.0324,0.013523,0.002678,0.000431,0.063935
5155000,0.0324,0.013523,0.002678,0.000431,0.064641
5156000,0.0324,0.013523,0.002678,0.000431,0.065111
5157000,0.0324,0.013523,0.002678,0.000431,0.063230
5158000,0.0324,0.013523,0.002678,0.000431,0.063935
5159000,0.0324,0.013523,0.002678,0.000431,0.063113
5160000,0.0324,0.013523,0.002678,0.000431,0.066521
5161000,0.0324,0.013523,0.002678,0.000431,0.063583
5162000,0.0324,0.013523,0.002678,0.000431,0.066521
5163000,0.0324,0.013523,0.002678,0.000431,0.065463
5164000,0.0324,0.013523,0.002678,0.000431,0.063583
5165000,0.0324,0.013523,0.002678,0.000431,0.062643
5166000,0.0324,0.013523,0.002678,0.000431,0.064405
5167000,0.0324,0.013523,0.002678,0.000431,0.066168
5168000,0.0324,0.013523,0.002678,0.000431,0.065816
5169000,0.0324,0.013523,0.002678,0.000431,0.065698
5170000,0.0324,0.013523,0.002678,0.000431,0.062407
5171000,0.0324,0.013523,0.002678,0.000431,0.065933
5172000,0.0324,0.013523,0.002678,0.000431,0.064170
5173000,0.0324,0.013523,0.002678,0.000431,0.066521
5174000,0.0324,0.013523,0.002678,0.000431,0.065346
5175000,0.0324,0.013523,0.002678,0.000431,0.064641
5176000,0.0324,0.013523,0.002678,0.000431,0.064523
5177000,0.0324,0.013523,0.002678,0.000431,0.066168
5178000,0.0324,0.013523,0.002678,0.000431,0.065346
5179000,0.0324,0.013523,0.002678,0.000431,0.063700
5180000,0.0324,0.013523,0.002678,0.000431,0.063348
5181000,0.0324,0.013523,0.002678,0.000431,0.064405
5182000,0.0324,0.013523,0.002678,0.000431,0.061937
5183000,0.0324,0.013523,0.002678,0.000431,0.065346
5184000,0.0324,0.013523,0.002678,0.000431,0.067461
5185000,0.0324,0.013523,0.002678,0.000431,0.067226
5186000,0.0324,0.013523,0.002678,0.000431,0.063583
5187000,0.0324,0.013523,0.002678,0.000431,0.059939
5188000,0.0324,0.013523,0.002678,0.000431,0.064641
5189000,0.0324,0.013523,0.002678,0.000431,0.063935
5190000,0.0324,0.013523,0.002678,0.000431,0.065581
5191000,0.0324,0.013523,0.002678,0.000431,0.062407
5192000,0.0324,0.013523,0.002678,0.000431,0.062878
5193000,0.0324,0.013523,0.002678,0.000431,0.061585
5194000,0.0324,0.013523,0.002678,0.000431,0.064876
5195000,0.0324,0.013523,0.002678,0.000431,0.058882
5196000,0.0324,0.013523,0.002678,0.000431,0.063583
5197000,0.0324,0.013523,0.002678,0.000431,0.061820
5198000,0.0324,0.013523,0.002678,0.000431,0.064170
5199000,0.0324,0.013523,0.002678,0.000431,0.061232
5200000,0.0324,0.013523,0.002678,0.000431,0.062172
5201000,0.0324,0.013523,0.002678,0.000431,0.063818
5202000,0.0324,0.013523,0.002678,0.000431,0.063113
5203000,0.0324,0.013523,0.002678,0.000431,0.063935
5204000,0.0324,0.013523,0.002678,0.000431,0.063230
5205000,0.0324,0.013523,0.002678,0.000431,0.063113
5206000,0.0324,0.013523,0.002678,0.000431,0.061350
5207000,0.0324,0.013523,0.002678,0.000431,0.064053
5208000,0.0324,0.013523,0.002678,0.000431,0.064170
5209000,0.0324,0.013523,0.002678,0.000431,0.060527
5210000,0.0324,0.013523,0.002678,0.000431,0.061820
5211000,0.0324,0.013523,0.002678,0.000431,0.063935
5212000,0.0324,0.013523,0.002678,0.000431,0.062995
5213000,0.0324,0.013523,0.002678,0.000431,0.060409
5214000,0.0324,0.013523,0.002678,0.000431,0.063465
5215000,0.0324,0.013523,0.002678,0.000431,0.061232
5216000,0.0324,0.013523,0.002678,0.000431,0.062643
5217000,0.0324,0.013523,0.002678,0.000431,0.059587
5218000,0.0324,0.013523,0.002678,0.000431,0.061232
5219000,0.0324,0.013523,0.002678,0.000431,0.062290
5220000,0.0324,0.013523,0.002678,0.000431,0.059469
5221000,0.0324,0.013523,0.002678,0.000431,0.061467
5222000,0.0324,0.013523,0.002678,0.000431,0.062290
5223000,0.0324,0.013523,0.002678,0.000431,0.062290
5224000,0.0324,0.013523,0.002678,0.000431,0.058647
5225000,0.0324,0.013523,0.002678,0.000431,0.061585
5226000,0.0324,0.013523,0.002678,0.000431,0.062055
5227000,0.0324,0.013523,0.002678,0.000431,0.063465
5228000,0.0324,0.013523,0.002678,0.000431,0.060292
5229000,0.0324,0.013523,0.002678,0.000431,0.062643
5230000,0.0324,0.013523,0.002678,0.000431,0.060057
5231000,0.0324,0.013523,0.002678,0.000431,0.061702
5232000,0.0324,0.013523,0.002678,0.000431,0.062407
5233000,0.0324,0.013523,0.002678,0.000431,0.059469
5234000,0.0324,0.013523,0.002678,0.000431,0.063230
5235000,0.0324,0.013523,0.002678,0.000431,0.060292
5236000,0.0324,0.013523,0.002678,0.000431,0.065346
5237000,0.0324,0.013523,0.002678,0.000431,0.058294
5238000,0.0324,0.013523,0.002678,0.000431,0.062172
5239000,0.0324,0.013523,0.002678,0.000431,0.062290
5240000,0.0324,0.013523,0.002678,0.000431,0.062525
5241000,0.0324,0.013523,0.002678,0.000431,0.060762
5242000,0.0324,0.013523,0.002678,0.000431,0.058176
5243000,0.0324,0.013523,0.002678,0.000431,0.060057
5244000,0.0324,0.013523,0.002678,0.000431,0.062290
5245000,0.0324,0.013523,0.002678,0.000431,0.059939
5246000,0.0324,0.013523,0.002678,0.000431,0.061585
5247000,0.0324,0.013523,0.002678,0.000431,0.060645
5248000,0.0324,0.013523,0.002678,0.000431,0.062760
5249000,0.0324,0.013523,0.002678,0.000431,0.059469
5250000,0.0324,0.013523,0.002678,0.000431,0.060880
5251000,0.0324,0.013523,0.002678,0.000431,0.061467
5252000,0.0324,0.013523,0.002678,0.000431,0.060880
5253000,0.0324,0.013523,0.002678,0.000431,0.059939
5254000,0.0324,0.013523,0.002678,0.000431,0.059234
5255000,0.0324,0.013523,0.002678,0.000431,0.063113
5256000,0.0324,0.013523,0.002678,0.000431,0.064641
5257000,0.0324,0.013523,0.002678,0.000431,0.061937
5258000,0.0324,0.013523,0.002678,0.000431,0.059587
5259000,0.0324,0.013523,0.002678,0.000431,0.062525
5260000,0.0324,0.013523,0.002678,0.000431,0.062290
5261000,0.0324,0.013523,0.002678,0.000431,0.063935
5262000,0.0324,0.013523,0.002678,0.000431,0.062290
5263000,0.0324,0.013523,0.002678,0.000431,0.060880
5264000,0.0324,0.013523,0.002678,0.000431,0.061937
5265000,0.0324,0.013523,0.002678,0.000431,0.063230
5266000,0.0324,0.013523,0.002678,0.000431,0.064405
5267000,0.0324,0.013523,0.002678,0.000431,0.059939
5268000,0.0324,0.013523,0.002678,0.000431,0.062995
5269000,0.0324,0.013523,0.002678,0.000431,0.064758
5270000,0.0324,0.013523,0.002678,0.000431,0.059469
5271000,0.0324,0.013523,0.002678,0.000431,0.060880
5272000,0.0324,0.013523,0.002678,0.000431,0.062172
5273000,0.0324,0.013523,0.002678,0.000431,0.062760
5274000,0.0324,0.013523,0.002678,0.000431,0.058647
5275000,0.0324,0.013523,0.002678,0.000431,0.063113
5276000,0.0324,0.013523,0.002678,0.000431,0.061467
5277000,0.0324,0.013523,0.002678,0.000431,0.062290
5278000,0.0324,0.013523,0.002678,0.000431,0.064053
5279000,0.0324,0.013523,0.002678,0.000431,0.060645
5280000,0.0324,0.013523,0.002678,0.000431,0.061702
5281000,0.0324,0.013523,0.002678,0.000431,0.063113
5282000,0.0324,0.013523,0.002678,0.000431,0.065463
5283000,0.0324,0.013523,0.002678,0.000431,0.061350
5284000,0.0324,0.013523,0.002678,0.000431,0.060762
5285000,0.0324,0.013523,0.002678,0.000431,0.061820
5286000,0.0324,0.013523,0.002678,0.000431,0.065581
5287000,0.0324,0.013523,0.002678,0.000431,0.059704
5288000,0.0324,0.013523,0.002678,0.000431,0.062407
5289000,0.0324,0.013523,0.002678,0.000431,0.061115
5290000,0.0324,0.013523,0.002678,0.000431,0.064641
5291000,0.0324,0.013523,0.002678,0.000431,0.062055
5292000,0.0324,0.013523,0.002678,0.000431,0.063465
5293000,0.0324,0.013523,0.002678,0.000431,0.064053
5294000,0.0324,0.013523,0.002678,0.000431,0.066051
5295000,0.0324,0.013523,0.002678,0.000431,0.056296
5296000,0.0324,0.013523,0.002678,0.000431,0.063113
5297000,0.0324,0.013523,0.002678,0.000431,0.061585
5298000,0.0324,0.013523,0.002678,0.000431,0.064288
5299000,0.0324,0.013523,0.002678,0.000431,0.058764
5300000,0.0324,0.013523,0.002678,0.000431,0.062407
5301000,0.0324,0.013523,0.002678,0.000431,0.064170
5302000,0.0324,0.013523,0.002678,0.000431,0.063113
5303000,0.0324,0.013523,0.002678,0.000431,0.067109
5304000,0.0324,0.013523,0.002678,0.000431,0.060174
5305000,0.0324,0.013523,0.002678,0.000431,0.061232
5306000,0.0324,0.013523,0.002678,0.000431,0.062172
5307000,0.0324,0.013523,0.002678,0.000431,0.065228
5308000,0.0324,0.013523,0.002678,0.000431,0.061467
5309000,0.0324,0.013523,0.002678,0.000431,0.062878
5310000,0.0324,0.013523,0.002678,0.000431,0.061585
5311000,0.0324,0.013523,0.002678,0.000431,0.062055
5312000,0.0324,0.013523,0.002678,0.000431,0.062055
5313000,0.0324,0.013523,0.002678,0.000431,0.063113
5314000,0.0324,0.013523,0.002678,0.000431,0.061937
5315000,0.0324,0.013523,0.002678,0.000431,0.063818
5316000,0.0324,0.013523,0.002678,0.000431,0.061115
5317000,0.0324,0.013523,0.002678,0.000431,0.066168
5318000,0.0324,0.013523,0.002678,0.000431,0.063935
5319000,0.0324,0.013523,0.002678,0.000431,0.059469
5320000,0.0324,0.013523,0.002678,0.000431,0.064758
5321000,0.0324,0.013523,0.002678,0.000431,0.060174
5322000,0.0324,0.013523,0.002678,0.000431,0.060645
5323000,0.0324,0.013523,0.002678,0.000431,0.062055
5324000,0.0324,0.013523,0.002678,0.000431,0.061937
5325000,0.0324,0.013523,0.002678,0.000431,0.062878
5326000,0.0324,0.013523,0.002678,0.000431,0.061232
5327000,0.0324,0.013523,0.002678,0.000431,0.061585
5328000,0.0324,0.013523,0.002678,0.000431,0.060645
5329000,0.0324,0.013523,0.002678,0.000431,0.061350
5330000,0.0324,0.013523,0.002678,0.000431,0.063348
5331000,0.0324,0.013523,0.002678,0.000431,0.061232
5332000,0.0324,0.013523,0.002678,0.000431,0.061702
5333000,0.0324,0.013523,0.002678,0.000431,0.062878
5334000,0.0324,0.013523,0.002678,0.000431,0.059352
5335000,0.0324,0.013523,0.002678,0.000431,0.065698
5336000,0.0324,0.013523,0.002678,0.000431,0.063583
5337000,0.0324,0.013523,0.002678,0.000431,0.060409
5338000,0.0324,0.013523,0.002678,0.000431,0.060527
5339000,0.0324,0.013523,0.002678,0.000431,0.063700
5340000,0.0324,0.013523,0.002678,0.000431,0.064288
5341000,0.0324,0.013523,0.002678,0.000431,0.063818
5342000,0.0324,0.013523,0.002678,0.000431,0.059704
5343000,0.0324,0.013523,0.002678,0.000431,0.061115
5344000,0.0324,0.013523,0.002678,0.000431,0.064758
5345000,0.0324,0.013523,0.002678,0.000431,0.063465
5346000,0.0324,0.013523,0.002678,0.000431,0.058647
5347000,0.0324,0.013523,0.002678,0.000431,0.061585
5348000,0.0324,0.013523,0.002678,0.000431,0.059822
5349000,0.0324,0.013523,0.002678,0.000431,0.063230
5350000,0.0324,0.013523,0.002678,0.000431,0.058529
5351000,0.0324,0.013523,0.002678,0.000431,0.062525
5352000,0.0324,0.013523,0.002678,0.000431,0.065698
5353000,0.0324,0.013523,0.002678,0.000431,0.062760
5354000,0.0324,0.013523,0.002678,0.000431,0.059704
5355000,0.0324,0.013523,0.002678,0.000431,0.060645
5356000,0.0324,0.013523,0.002678,0.000431,0.062525
5357000,0.0324,0.013523,0.002678,0.000431,0.061937
5358000,0.0324,0.013523,0.002678,0.000431,0.057119
5359000,0.0324,0.013523,0.002678,0.000431,0.060997
5360000,0.0324,0.013523,0.002678,0.000431,0.060527
5361000,0.0324,0.013523,0.002678,0.000431,0.064641
5362000,0.0324,0.013523,0.002678,0.000431,0.058647
5363000,0.0324,0.013523,0.002678,0.000431,0.058999
5364000,0.0324,0.013523,0.002678,0.000431,0.063818
5365000,0.0324,0.013523,0.002678,0.000431,0.060292
5366000,0.0324,0.013523,0.002678,0.000431,0.063700
5367000,0.0324,0.013523,0.002678,0.000431,0.060645
5368000,0.0324,0.013523,0.002678,0.000431,0.056884
5369000,0.0324,0.013523,0.002678,0.000431,0.061937
5370000,0.0324,0.013523,0.002678,0.000431,0.062878
5371000,0.0324,0.013523,0.002678,0.000431,0.061702
5372000,0.0324,0.013523,0.002678,0.000431,0.058529
5373000,0.0324,0.013523,0.002678,0.000431,0.062760
5374000,0.0324,0.013523,0.002678,0.000431,0.058529
5375000,0.0324,0.013523,0.002678,0.000431,0.061350
5376000,0.0324,0.013523,0.002678,0.000431,0.059587
5377000,0.0324,0.013523,0.002678,0.000431,0.064170
5378000,0.0324,0.013523,0.002678,0.000431,0.062878
5379000,0.0324,0.013523,0.002678,0.000431,0.060057
5380000,0.0324,0.013523,0.002678,0.000431,0.057236
5381000,0.0324,0.013523,0.002678,0.000431,0.063818
5382000,0.0324,0.013523,0.002678,0.000431,0.063113
5383000,0.0324,0.013523,0.002678,0.000431,0.059704
5384000,0.0324,0.013523,0.002678,0.000431,0.062172
5385000,0.0324,0.013523,0.002678,0.000431,0.057001
5386000,0.0324,0.013523,0.002678,0.000431,0.061937
5387000,0.0324,0.013523,0.002678,0.000431,0.064758
5388000,0.0324,0.013523,0.002678,0.000431,0.058999
5389000,0.0324,0.013523,0.002678,0.000431,0.059704
5390000,0.0324,0.013523,0.002678,0.000431,0.063113
5391000,0.0324,0.013523,0.002678,0.000431,0.060057
5392000,0.0324,0.013523,0.002678,0.000431,0.063583
5393000,0.0324,0.013523,0.002678,0.000431,0.059939
5394000,0.0324,0.013523,0.002678,0.000431,0.064405
5395000,0.0324,0.013523,0.002678,0.000431,0.057941
5396000,0.0324,0.013523,0.002678,0.000431,0.058294
5397000,0.0324,0.013523,0.002678,0.000431,0.059587
5398000,0.0324,0.013523,0.002678,0.000431,0.066051
5399000,0.0324,0.013523,0.002678,0.000431,0.059587
5400000,0.0324,0.013523,0.002678,0.000431,0.061232
5401000,0.0324,0.013523,0.002678,0.000431,0.059704
5402000,0.0324,0.013523,0.002678,0.000431,0.061115
5403000,0.0324,0.013523,0.002678,0.000431,0.061467
5404000,0.0324,0.013523,0.002678,0.000431,0.060409
5405000,0.0324,0.013523,0.002678,0.000431,0.057824
5406000,0.0324,0.013523,0.002678,0.000431,0.058647
5407000,0.0324,0.013523,0.002678,0.000431,0.059704
5408000,0.0324,0.013523,0.002678,0.000431,0.061937
5409000,0.0324,0.013523,0.002678,0.000431,0.060645
5410000,0.0324,0.013523,0.002678,0.000431,0.059822
5411000,0.0324,0.013523,0.002678,0.000431,0.059939
5412000,0.0324,0.013523,0.002678,0.000431,0.060174
5413000,0.0324,0.013523,0.002678,0.000431,0.060057
5414000,0.0324,0.013523,0.002678,0.000431,0.061937
5415000,0.0324,0.013523,0.002678,0.000431,0.059587
5416000,0.0324,0.013523,0.002678,0.000431,0.059587
5417000,0.0324,0.013523,0.002678,0.000431,0.057471
5418000,0.0324,0.013523,0.002678,0.000431,0.060292
5419000,0.0324,0.013523,0.002678,0.000431,0.061350
5420000,0.0324,0.013523,0.002678,0.000431,0.059822
5421000,0.0324,0.013523,0.002678,0.000431,0.060174
5422000,0.0324,0.013523,0.002678,0.000431,0.056649
5423000,0.0324,0.013523,0.002678,0.000431,0.061350
5424000,0.0324,0.013523,0.002678,0.000431,0.059352
5425000,0.0324,0.013523,0.002678,0.000431,0.059939
5426000,0.0324,0.013523,0.002678,0.000431,0.060880
5427000,0.0324,0.013523,0.002678,0.000431,0.061115
5428000,0.0324,0.013523,0.002678,0.000431,0.057119
5429000,0.0324,0.013523,0.002678,0.000431,0.059234
5430000,0.0324,0.013523,0.002678,0.000431,0.063348
5431000,0.0324,0.013523,0.002678,0.000431,0.061350
5432000,0.0324,0.013523,0.002678,0.000431,0.060174
5433000,0.0324,0.013523,0.002678,0.000431,0.060880
5434000,0.0324,0.013523,0.002678,0.000431,0.059587
5435000,0.0324,0.013523,0.002678,0.000431,0.062525
5436000,0.0324,0.013523,0.002678,0.000431,0.062525
5437000,0.0324,0.013523,0.002678,0.000431,0.060880
5438000,0.0324,0.013523,0.002678,0.000431,0.060409
5439000,0.0324,0.013523,0.002678,0.000431,0.062055
5440000,0.0324,0.013523,0.002678,0.000431,0.061115
5441000,0.0324,0.013523,0.002678,0.000431,0.059822
5442000,0.0324,0.013523,0.002678,0.000431,0.058294
5443000,0.0324,0.013523,0.002678,0.000431,0.064876
5444000,0.0324,0.013523,0.002678,0.000431,0.057589
5445000,0.0324,0.013523,0.002678,0.000431,0.058882
5446000,0.0324,0.013523,0.002678,0.000431,0.063935
5447000,0.0324,0.013523,0.002678,0.000431,0.061350
5448000,0.0324,0.013523,0.002678,0.000431,0.062172
5449000,0.0324,0.013523,0.002678,0.000431,0.058882
5450000,0.0324,0.013523,0.002678,0.000431,0.060527
5451000,0.0324,0.013523,0.002678,0.000431,0.061467
5452000,0.0324,0.013523,0.002678,0.000431,0.063113
5453000,0.0324,0.013523,0.002678,0.000431,0.056884
5454000,0.0324,0.013523,0.002678,0.000431,0.061115
5455000,0.0324,0.013523,0.002678,0.000431,0.062055
5456000,0.0324,0.013523,0.002678,0.000431,0.060527
5457000,0.0324,0.013523,0.002678,0.000431,0.060880
5458000,0.0324,0.013523,0.002678,0.000431,0.062525
5459000,0.0324,0.013523,0.002678,0.000431,0.061467
5460000,0.0324,0.013523,0.002678,0.000431,0.057941
5461000,0.0324,0.013523,0.002678,0.000431,0.058294
5462000,0.0324,0.013523,0.002678,0.000431,0.060645
5463000,0.0324,0.013523,0.002678,0.000431,0.060645
5464000,0.0324,0.013523,0.002678,0.000431,0.060527
5465000,0.0324,0.013523,0.002678,0.000431,0.058412
5466000,0.0324,0.013523,0.002678,0.000431,0.063113
5467000,0.0324,0.013523,0.002678,0.000431,0.062878
5468000,0.0324,0.013523,0.002678,0.000431,0.061702
5469000,0.0324,0.013523,0.002678,0.000431,0.058176
5470000,0.0324,0.013523,0.002678,0.000431,0.059822
5471000,0.0324,0.013523,0.002678,0.000431,0.062995
5472000,0.0324,0.013523,0.002678,0.000431,0.060997
5473000,0.0324,0.013523,0.002678,0.000431,0.059704
5474000,0.0324,0.013523,0.002678,0.000431,0.059117
5475000,0.0324,0.013523,0.002678,0.000431,0.058882
5476000,0.0324,0.013523,0.002678,0.000431,0.060292
5477000,0.0324,0.013523,0.002678,0.000431,0.059469
5478000,0.0324,0.013523,0.002678,0.000431,0.059117
5479000,0.0324,0.013523,0.002678,0.000431,0.061820
5480000,0.0324,0.013523,0.002678,0.000431,0.061350
5481000,0.0324,0.013523,0.002678,0.000431,0.058647
5482000,0.0324,0.013523,0.002678,0.000431,0.061467
5483000,0.0324,0.013523,0.002678,0.000431,0.063465
5484000,0.0324,0.013523,0.002678,0.000431,0.062643
5485000,0.0324,0.013523,0.002678,0.000431,0.058176
5486000,0.0324,0.013523,0.002678,0.000431,0.059704
5487000,0.0324,0.013523,0.002678,0.000431,0.061115
5488000,0.0324,0.013523,0.002678,0.000431,0.064876
5489000,0.0324,0.013523,0.002678,0.000431,0.061232
5490000,0.0324,0.013523,0.002678,0.000431,0.061232
5491000,0.0324,0.013523,0.002678,0.000431,0.060880
5492000,0.0324,0.013523,0.002678,0.000431,0.060057
5493000,0.0324,0.013523,0.002678,0.000431,0.062290
5494000,0.0324,0.013523,0.002678,0.000431,0.059469
5495000,0.0324,0.013523,0.002678,0.000431,0.057824
5496000,0.0324,0.013523,0.002678,0.000431,0.060997
5497000,0.0324,0.013523,0.002678,0.000431,0.060174
5498000,0.0324,0.013523,0.002678,0.000431,0.060645
5499000,0.0324,0.013523,0.002678,0.000431,0.058529
5500000,0.0324,0.013523,0.002678,0.000431,0.064170
5501000,0.0324,0.013523,0.002678,0.000431,0.064170
5502000,0.0324,0.013523,0.002678,0.000431,0.058882
5503000,0.0324,0.013523,0.002678,0.000431,0.060762
5504000,0.0324,0.013523,0.002678,0.000431,0.064053
5505000,0.0324,0.013523,0.002678,0.000431,0.059234
5506000,0.0324,0.013523,0.002678,0.000431,0.058059
5507000,0.0324,0.013523,0.002678,0.000431,0.060762
5508000,0.0324,0.013523,0.002678,0.000431,0.059822
5509000,0.0324,0.013523,0.002678,0.000431,0.061350
5510000,0.0324,0.013523,0.002678,0.000431,0.060057
5511000,0.0324,0.013523,0.002678,0.000431,0.062995
5512000,0.0324,0.013523,0.002678,0.000431,0.060645
5513000,0.0324,0.013523,0.002678,0.000431,0.059939
5514000,0.0324,0.013523,0.002678,0.000431,0.060174
5515000,0.0324,0.013523,0.002678,0.000431,0.061232
5516000,0.0324,0.013523,0.002678,0.000431,0.062055
5517000,0.0324,0.013523,0.002678,0.000431,0.057941
5518000,0.0324,0.013523,0.002678,0.000431,0.058529
5519000,0.0324,0.013523,0.002678,0.000431,0.062290
5520000,0.0324,0.013523,0.002678,0.000431,0.059117
5521000,0.0324,0.013523,0.002678,0.000431,0.057236
5522000,0.0324,0.013523,0.002678,0.000431,0.058999
5523000,0.0324,0.013523,0.002678,0.000431,0.061467
5524000,0.0324,0.013523,0.002678,0.000431,0.060409
5525000,0.0324,0.013523,0.002678,0.000431,0.058059
5526000,0.0324,0.013523,0.002678,0.000431,0.060762
5527000,0.0324,0.013523,0.002678,0.000431,0.061115
5528000,0.0324,0.013523,0.002678,0.000431,0.057824
5529000,0.0324,0.013523,0.002678,0.000431,0.058294
5530000,0.0324,0.013523,0.002678,0.000431,0.059587
5531000,0.0324,0.013523,0.002678,0.000431,0.059939
5532000,0.0324,0.013523,0.002678,0.000431,0.061232
5533000,0.0324,0.013523,0.002678,0.000431,0.060997
5534000,0.0324,0.013523,0.002678,0.000431,0.058529
5535000,0.0324,0.013523,0.002678,0.000431,0.063583
5536000,0.0324,0.013523,0.002678,0.000431,0.060174
5537000,0.0324,0.013523,0.002678,0.000431,0.061115
5538000,0.0324,0.013523,0.002678,0.000431,0.059587
5539000,0.0324,0.013523,0.002678,0.000431,0.060292
5540000,0.0324,0.013523,0.002678,0.000431,0.060762
5541000,0.0324,0.013523,0.002678,0.000431,0.059587
5542000,0.0324,0.013523,0.002678,0.000431,0.058176
5543000,0.0324,0.013523,0.002678,0.000431,0.059704
5544000,0.0324,0.013523,0.002678,0.000431,0.061350
5545000,0.0324,0.013523,0.002678,0.000431,0.059587
5546000,0.0324,0.013523,0.002678,0.000431,0.058999
5547000,0.0324,0.013523,0.002678,0.000431,0.061820
5548000,0.0324,0.013523,0.002678,0.000431,0.058294
5549000,0.0324,0.013523,0.002678,0.000431,0.058529
5550000,0.0324,0.013523,0.002678,0.000431,0.057589
5551000,0.0324,0.013523,0.002678,0.000431,0.062995
5552000,0.0324,0.013523,0.002678,0.000431,0.054298
5553000,0.0324,0.013523,0.002678,0.000431,0.057471
5554000,0.0324,0.013523,0.002678,0.000431,0.059704
5555000,0.0324,0.013523,0.002678,0.000431,0.060527
5556000,0.0324,0.013523,0.002678,0.000431,0.059939
5557000,0.0324,0.013523,0.002678,0.000431,0.060527
5558000,0.0324,0.013523,0.002678,0.000431,0.057941
5559000,0.0324,0.013523,0.002678,0.000431,0.059822
5560000,0.0324,0.013523,0.002678,0.000431,0.059234
5561000,0.0324,0.013523,0.002678,0.000431,0.059234
5562000,0.0324,0.013523,0.002678,0.000431,0.057354
5563000,0.0324,0.013523,0.002678,0.000431,0.057941
5564000,0.0324,0.013523,0.002678,0.000431,0.057941
5565000,0.0324,0.013523,0.002678,0.000431,0.056649
5566000,0.0324,0.013523,0.002678,0.000431,0.056884
5567000,0.0324,0.013523,0.002678,0.000431,0.056296
5568000,0.0324,0.013523,0.002678,0.000431,0.056884
5569000,0.0324,0.013523,0.002678,0.000431,0.056766
5570000,0.0324,0.013523,0.002678,0.000431,0.057471
5571000,0.0324,0.013523,0.002678,0.000431,0.058999
5572000,0.0324,0.013523,0.002678,0.000431,0.057824
5573000,0.0324,0.013523,0.002678,0.000431,0.057589
5574000,0.0324,0.013523,0.002678,0.000431,0.055238
5575000,0.0324,0.013523,0.002678,0.000431,0.058059
5576000,0.0324,0.013523,0.002678,0.000431,0.060292
5577000,0.0324,0.013523,0.002678,0.000431,0.053710
5578000,0.0324,0.013523,0.002678,0.000431,0.059352
5579000,0.0324,0.013523,0.002678,0.000431,0.060997
5580000,0.0324,0.013523,0.002678,0.000431,0.057236
5581000,0.0324,0.013523,0.002678,0.000431,0.058882
5582000,0.0324,0.013523,0.002678,0.000431,0.057471
5583000,0.0324,0.013523,0.002678,0.000431,0.058764
5584000,0.0324,0.013523,0.002678,0.000431,0.057471
5585000,0.0324,0.013523,0.002678,0.000431,0.056649
5586000,0.0324,0.013523,0.002678,0.000431,0.057706
5587000,0.0324,0.013523,0.002678,0.000431,0.057706
5588000,0.0324,0.013523,0.002678,0.000431,0.059352
5589000,0.0324,0.013523,0.002678,0.000431,0.058059
5590000,0.0324,0.013523,0.002678,0.000431,0.058059
5591000,0.0324,0.013523,0.002678,0.000431,0.057471
5592000,0.0324,0.013523,0.002678,0.000431,0.056649
5593000,0.0324,0.013523,0.002678,0.000431,0.053358
5594000,0.0324,0.013523,0.002678,0.000431,0.059587
5595000,0.0324,0.013523,0.002678,0.000431,0.056061
5596000,0.0324,0.013523,0.002678,0.000431,0.056178
5597000,0.0324,0.013523,0.002678,0.000431,0.057119
5598000,0.0324,0.013523,0.002678,0.000431,0.056649
5599000,0.0324,0.013523,0.002678,0.000431,0.058647
5600000,0.0324,0.013523,0.002678,0.000431,0.056884
5601000,0.0324,0.013523,0.002678,0.000431,0.059234
5602000,0.0324,0.013523,0.002678,0.000431,0.057119
5603000,0.0324,0.013523,0.002678,0.000431,0.060292
5604000,0.0324,0.013523,0.002678,0.000431,0.057706
5605000,0.0324,0.013523,0.002678,0.000431,0.056414
5606000,0.0324,0.013523,0.002678,0.000431,0.059234
5607000,0.0324,0.013523,0.002678,0.000431,0.060645
5608000,0.0324,0.013523,0.002678,0.000431,0.056414
5609000,0.0324,0.013523,0.002678,0.000431,0.059469
5610000,0.0324,0.013523,0.002678,0.000431,0.055003
5611000,0.0324,0.013523,0.002678,0.000431,0.056296
5612000,0.0324,0.013523,0.002678,0.000431,0.057001
5613000,0.0324,0.013523,0.002678,0.000431,0.058059
5614000,0.0324,0.013523,0.002678,0.000431,0.053593
5615000,0.0324,0.013523,0.002678,0.000431,0.057001
5616000,0.0324,0.013523,0.002678,0.000431,0.055708
5617000,0.0324,0.013523,0.002678,0.000431,0.058882
5618000,0.0324,0.013523,0.002678,0.000431,0.057589
5619000,0.0324,0.013523,0.002678,0.000431,0.058294
5620000,0.0324,0.013523,0.002678,0.000431,0.057354
5621000,0.0324,0.013523,0.002678,0.000431,0.056766
5622000,0.0324,0.013523,0.002678,0.000431,0.056414
5623000,0.0324,0.013523,0.002678,0.000431,0.054886
5624000,0.0324,0.013523,0.002678,0.000431,0.057471
5625000,0.0324,0.013523,0.002678,0.000431,0.056414
5626000,0.0324,0.013523,0.002678,0.000431,0.057236
5627000,0.0324,0.013523,0.002678,0.000431,0.058529
5628000,0.0324,0.013523,0.002678,0.000431,0.058412
5629000,0.0324,0.013523,0.002678,0.000431,0.050655
5630000,0.0324,0.013523,0.002678,0.000431,0.059587
5631000,0.0324,0.013523,0.002678,0.000431,0.057354
5632000,0.0324,0.013523,0.002678,0.000431,0.058647
5633000,0.0324,0.013523,0.002678,0.000431,0.055591
5634000,0.0324,0.013523,0.002678,0.000431,0.056414
5635000,0.0324,0.013523,0.002678,0.000431,0.055708
5636000,0.0324,0.013523,0.002678,0.000431,0.058529
5637000,0.0324,0.013523,0.002678,0.000431,0.056884
5638000,0.0324,0.013523,0.002678,0.000431,0.056296
5639000,0.0324,0.013523,0.002678,0.000431,0.055943
5640000,0.0324,0.013523,0.002678,0.000431,0.057119
5641000,0.0324,0.013523,0.002678,0.000431,0.058176
5642000,0.0324,0.013523,0.002678,0.000431,0.055473
5643000,0.0324,0.013523,0.002678,0.000431,0.055591
5644000,0.0324,0.013523,0.002678,0.000431,0.057589
5645000,0.0324,0.013523,0.002678,0.000431,0.058059
5646000,0.0324,0.013523,0.002678,0.000431,0.056178
5647000,0.0324,0.013523,0.002678,0.000431,0.057001
5648000,0.0324,0.013523,0.002678,0.000431,0.059704
5649000,0.0324,0.013523,0.002678,0.000431,0.057706
5650000,0.0324,0.013523,0.002678,0.000431,0.056766
5651000,0.0324,0.013523,0.002678,0.000431,0.057236
5652000,0.0324,0.013523,0.002678,0.000431,0.054180
5653000,0.0324,0.013523,0.002678,0.000431,0.058529
5654000,0.0324,0.013523,0.002678,0.000431,0.057354
5655000,0.0324,0.013523,0.002678,0.000431,0.058294
5656000,0.0324,0.013523,0.002678,0.000431,0.057589
5657000,0.0324,0.013523,0.002678,0.000431,0.056414
5658000,0.0324,0.013523,0.002678,0.000431,0.056531
5659000,0.0324,0.013523,0.002678,0.000431,0.058412
5660000,0.0324,0.013523,0.002678,0.000431,0.058059
5661000,0.0324,0.013523,0.002678,0.000431,0.055238
5662000,0.0324,0.013523,0.002678,0.000431,0.058176
5663000,0.0324,0.013523,0.002678,0.000431,0.055121
5664000,0.0324,0.013523,0.002678,0.000431,0.057354
5665000,0.0324,0.013523,0.002678,0.000431,0.058529
5666000,0.0324,0.013523,0.002678,0.000431,0.053945
5667000,0.0324,0.013523,0.002678,0.000431,0.051242
5668000,0.0324,0.013523,0.002678,0.000431,0.058529
5669000,0.0324,0.013523,0.002678,0.000431,0.058059
5670000,0.0324,0.013523,0.002678,0.000431,0.056296
5671000,0.0324,0.013523,0.002678,0.000431,0.056414
5672000,0.0324,0.013523,0.002678,0.000431,0.055826
5673000,0.0324,0.013523,0.002678,0.000431,0.058882
5674000,0.0324,0.013523,0.002678,0.000431,0.053593
5675000,0.0324,0.013523,0.002678,0.000431,0.055591
5676000,0.0324,0.013523,0.002678,0.000431,0.056178
5677000,0.0324,0.013523,0.002678,0.000431,0.052888
5678000,0.0324,0.013523,0.002678,0.000431,0.059234
5679000,0.0324,0.013523,0.002678,0.000431,0.054180
5680000,0.0324,0.013523,0.002678,0.000431,0.056766
5681000,0.0324,0.013523,0.002678,0.000431,0.057001
5682000,0.0324,0.013523,0.002678,0.000431,0.054416
5683000,0.0324,0.013523,0.002678,0.000431,0.055708
5684000,0.0324,0.013523,0.002678,0.000431,0.054886
5685000,0.0324,0.013523,0.002678,0.000431,0.058059
5686000,0.0324,0.013523,0.002678,0.000431,0.056296
5687000,0.0324,0.013523,0.002678,0.000431,0.051595
5688000,0.0324,0.013523,0.002678,0.000431,0.057471
5689000,0.0324,0.013523,0.002678,0.000431,0.058176
5690000,0.0324,0.013523,0.002678,0.000431,0.054063
5691000,0.0324,0.013523,0.002678,0.000431,0.056414
5692000,0.0324,0.013523,0.002678,0.000431,0.056766
5693000,0.0324,0.013523,0.002678,0.000431,0.054533
5694000,0.0324,0.013523,0.002678,0.000431,0.055943
5695000,0.0324,0.013523,0.002678,0.000431,0.054886
5696000,0.0324,0.013523,0.002678,0.000431,0.054886
5697000,0.0324,0.013523,0.002678,0.000431,0.058412
5698000,0.0324,0.013523,0.002678,0.000431,0.056414
5699000,0.0324,0.013523,0.002678,0.000431,0.053593
5700000,0.0324,0.013523,0.002678,0.000431,0.055708
5701000,0.0324,0.013523,0.002678,0.000431,0.053945
5702000,0.0324,0.013523,0.002678,0.000431,0.059939
5703000,0.0324,0.013523,0.002678,0.000431,0.055356
5704000,0.0324,0.013523,0.002678,0.000431,0.055356
5705000,0.0324,0.013523,0.002678,0.000431,0.053123
5706000,0.0324,0.013523,0.002678,0.000431,0.055708
5707000,0.0324,0.013523,0.002678,0.000431,0.054180
5708000,0.0324,0.013523,0.002678,0.000431,0.056884
5709000,0.0324,0.013523,0.002678,0.000431,0.055238
5710000,0.0324,0.013523,0.002678,0.000431,0.053828
5711000,0.0324,0.013523,0.002678,0.000431,0.054651
5712000,0.0324,0.013523,0.002678,0.000431,0.053240
5713000,0.0324,0.013523,0.002678,0.000431,0.058294
5714000,0.0324,0.013523,0.002678,0.000431,0.052418
5715000,0.0324,0.013523,0.002678,0.000431,0.051830
5716000,0.0324,0.013523,0.002678,0.000431,0.059352
5717000,0.0324,0.013523,0.002678,0.000431,0.053123
5718000,0.0324,0.013523,0.002678,0.000431,0.056531
5719000,0.0324,0.013523,0.002678,0.000431,0.051242
5720000,0.0324,0.013523,0.002678,0.000431,0.055121
5721000,0.0324,0.013523,0.002678,0.000431,0.055591
5722000,0.0324,0.013523,0.002678,0.000431,0.056766
5723000,0.0324,0.013523,0.002678,0.000431,0.054416
5724000,0.0324,0.013523,0.002678,0.000431,0.054651
5725000,0.0324,0.013523,0.002678,0.000431,0.056414
5726000,0.0324,0.013523,0.002678,0.000431,0.058294
5727000,0.0324,0.013523,0.002678,0.000431,0.056178
5728000,0.0324,0.013523,0.002678,0.000431,0.054298
5729000,0.0324,0.013523,0.002678,0.000431,0.060174
5730000,0.0324,0.013523,0.002678,0.000431,0.051007
5731000,0.0324,0.013523,0.002678,0.000431,0.056414
5732000,0.0324,0.013523,0.002678,0.000431,0.057941
5733000,0.0324,0.013523,0.002678,0.000431,0.057001
5734000,0.0324,0.013523,0.002678,0.000431,0.055121
5735000,0.0324,0.013523,0.002678,0.000431,0.054886
5736000,0.0324,0.013523,0.002678,0.000431,0.057824
5737000,0.0324,0.013523,0.002678,0.000431,0.057824
5738000,0.0324,0.013523,0.002678,0.000431,0.055473
5739000,0.0324,0.013523,0.002678,0.000431,0.053123
5740000,0.0324,0.013523,0.002678,0.000431,0.054533
5741000,0.0324,0.013523,0.002678,0.000431,0.059704
5742000,0.0324,0.013523,0.002678,0.000431,0.053005
5743000,0.0324,0.013523,0.002678,0.000431,0.056649
5744000,0.0324,0.013523,0.002678,0.000431,0.057471
5745000,0.0324,0.013523,0.002678,0.000431,0.054768
5746000,0.0324,0.013523,0.002678,0.000431,0.053240
5747000,0.0324,0.013523,0.002678,0.000431,0.051595
5748000,0.0324,0.013523,0.002678,0.000431,0.055943
5749000,0.0324,0.013523,0.002678,0.000431,0.054651
5750000,0.0324,0.013523,0.002678,0.000431,0.055238
5751000,0.0324,0.013523,0.002678,0.000431,0.055943
5752000,0.0324,0.013523,0.002678,0.000431,0.053828
5753000,0.0324,0.013523,0.002678,0.000431,0.053828
5754000,0.0324,0.013523,0.002678,0.000431,0.058412
5755000,0.0324,0.013523,0.002678,0.000431,0.055003
5756000,0.0324,0.013523,0.002678,0.000431,0.058176
5757000,0.0324,0.013523,0.002678,0.000431,0.055003
5758000,0.0324,0.013523,0.002678,0.000431,0.056766
5759000,0.0324,0.013523,0.002678,0.000431,0.052300
5760000,0.0324,0.013523,0.002678,0.000431,0.060645
5761000,0.0324,0.013523,0.002678,0.000431,0.055356
5762000,0.0324,0.013523,0.002678,0.000431,0.055121
5763000,0.0324,0.013523,0.002678,0.000431,0.057941
5764000,0.0324,0.013523,0.002678,0.000431,0.057941
5765000,0.0324,0.013523,0.002678,0.000431,0.056884
5766000,0.0324,0.013523,0.002678,0.000431,0.055591
5767000,0.0324,0.013523,0.002678,0.000431,0.054651
5768000,0.0324,0.013523,0.002678,0.000431,0.057706
5769000,0.0324,0.013523,0.002678,0.000431,0.057119
5770000,0.0324,0.013523,0.002678,0.000431,0.055356
5771000,0.0324,0.013523,0.002678,0.000431,0.055943
5772000,0.0324,0.013523,0.002678,0.000431,0.052183
5773000,0.0324,0.013523,0.002678,0.000431,0.055708
5774000,0.0324,0.013523,0.002678,0.000431,0.053240
5775000,0.0324,0.013523,0.002678,0.000431,0.055591
5776000,0.0324,0.013523,0.002678,0.000431,0.055708
5777000,0.0324,0.013523,0.002678,0.000431,0.056884
5778000,0.0324,0.013523,0.002678,0.000431,0.053828
5779000,0.0324,0.013523,0.002678,0.000431,0.058176
5780000,0.0324,0.013523,0.002678,0.000431,0.057354
5781000,0.0324,0.013523,0.002678,0.000431,0.053945
5782000,0.0324,0.013523,0.002678,0.000431,0.055238
5783000,0.0324,0.013523,0.002678,0.000431,0.054298
5784000,0.0324,0.013523,0.002678,0.000431,0.057824
5785000,0.0324,0.013523,0.002678,0.000431,0.053945
5786000,0.0324,0.013523,0.002678,0.000431,0.054768
5787000,0.0324,0.013523,0.002678,0.000431,0.057119
5788000,0.0324,0.013523,0.002678,0.000431,0.057119
5789000,0.0324,0.013523,0.002678,0.000431,0.056531
5790000,0.0324,0.013523,0.002678,0.000431,0.055943
5791000,0.0324,0.013523,0.002678,0.000431,0.056766
5792000,0.0324,0.013523,0.002678,0.000431,0.053240
5793000,0.0324,0.013523,0.002678,0.000431,0.055591
5794000,0.0324,0.013523,0.002678,0.000431,0.057589
5795000,0.0324,0.013523,0.002678,0.000431,0.058294
5796000,0.0324,0.013523,0.002678,0.000431,0.056531
5797000,0.0324,0.013523,0.002678,0.000431,0.053358
5798000,0.0324,0.013523,0.002678,0.000431,0.052770
5799000,0.0324,0.013523,0.002678,0.000431,0.057354
5800000,0.0324,0.013523,0.002678,0.000431,0.054416
5801000,0.0324,0.013523,0.002678,0.000431,0.053828
5802000,0.0324,0.013523,0.002678,0.000431,0.056414
5803000,0.0324,0.013523,0.002678,0.000431,0.055238
5804000,0.0324,0.013523,0.002678,0.000431,0.053358
5805000,0.0324,0.013523,0.002678,0.000431,0.058176
5806000,0.0324,0.013523,0.002678,0.000431,0.055708
5807000,0.0324,0.013523,0.002678,0.000431,0.057824
5808000,0.0324,0.013523,0.002678,0.000431,0.055591
5809000,0.0324,0.013523,0.002678,0.000431,0.052888
5810000,0.0324,0.013523,0.002678,0.000431,0.055238
5811000,0.0324,0.013523,0.002678,0.000431,0.056414
5812000,0.0324,0.013523,0.002678,0.000431,0.057001
5813000,0.0324,0.013523,0.002678,0.000431,0.051242
5814000,0.0324,0.013523,0.002678,0.000431,0.056649
5815000,0.0324,0.013523,0.002678,0.000431,0.056649
5816000,0.0324,0.013523,0.002678,0.000431,0.053945
5817000,0.0324,0.013523,0.002678,0.000431,0.057471
5818000,0.0324,0.013523,0.002678,0.000431,0.054651
5819000,0.0324,0.013523,0.002678,0.000431,0.054886
5820000,0.0324,0.013523,0.002678,0.000431,0.054416
5821000,0.0324,0.013523,0.002678,0.000431,0.055826
5822000,0.0324,0.013523,0.002678,0.000431,0.056296
5823000,0.0324,0.013523,0.002678,0.000431,0.058647
5824000,0.0324,0.013523,0.002678,0.000431,0.051477
5825000,0.0324,0.013523,0.002678,0.000431,0.058294
5826000,0.0324,0.013523,0.002678,0.000431,0.059117
5827000,0.0324,0.013523,0.002678,0.000431,0.055826
5828000,0.0324,0.013523,0.002678,0.000431,0.053240
5829000,0.0324,0.013523,0.002678,0.000431,0.056061
5830000,0.0324,0.013523,0.002678,0.000431,0.057119
5831000,0.0324,0.013523,0.002678,0.000431,0.053828
5832000,0.0324,0.013523,0.002678,0.000431,0.054180
5833000,0.0324,0.013523,0.002678,0.000431,0.054416
5834000,0.0324,0.013523,0.002678,0.000431,0.058176
5835000,0.0324,0.013523,0.002678,0.000431,0.056649
5836000,0.0324,0.013523,0.002678,0.000431,0.055121
5837000,0.0324,0.013523,0.002678,0.000431,0.056061
5838000,0.0324,0.013523,0.002678,0.000431,0.056531
5839000,0.0324,0.013523,0.002678,0.000431,0.054063
5840000,0.0324,0.013523,0.002678,0.000431,0.056061
5841000,0.0324,0.013523,0.002678,0.000431,0.056296
5842000,0.0324,0.013523,0.002678,0.000431,0.055708
5843000,0.0324,0.013523,0.002678,0.000431,0.053828
5844000,0.0324,0.013523,0.002678,0.000431,0.056296
5845000,0.0324,0.013523,0.002678,0.000431,0.055356
5846000,0.0324,0.013523,0.002678,0.000431,0.057824
5847000,0.0324,0.013523,0.002678,0.000431,0.053710
5848000,0.0324,0.013523,0.002678,0.000431,0.055826
5849000,0.0324,0.013523,0.002678,0.000431,0.054063
5850000,0.0324,0.013523,0.002678,0.000431,0.057001
5851000,0.0324,0.013523,0.002678,0.000431,0.053828
5852000,0.0324,0.013523,0.002678,0.000431,0.053828
5853000,0.0324,0.013523,0.002678,0.000431,0.058294
5854000,0.0324,0.013523,0.002678,0.000431,0.054298
5855000,0.0324,0.013523,0.002678,0.000431,0.053945
5856000,0.0324,0.013523,0.002678,0.000431,0.055591
5857000,0.0324,0.013523,0.002678,0.000431,0.055591
5858000,0.0324,0.013523,0.002678,0.000431,0.055238
5859000,0.0324,0.013523,0.002678,0.000431,0.054886
5860000,0.0324,0.013523,0.002678,0.000431,0.052300
5861000,0.0324,0.013523,0.002678,0.000431,0.054298
5862000,0.0324,0.013523,0.002678,0.000431,0.054298
5863000,0.0324,0.013523,0.002678,0.000431,0.056531
5864000,0.0324,0.013523,0.002678,0.000431,0.055356
5865000,0.0324,0.013523,0.002678,0.000431,0.054180
5866000,0.0324,0.013523,0.002678,0.000431,0.055003
5867000,0.0324,0.013523,0.002678,0.000431,0.051477
5868000,0.0324,0.013523,0.002678,0.000431,0.054651
5869000,0.0324,0.013523,0.002678,0.000431,0.056178
5870000,0.0324,0.013523,0.002678,0.000431,0.052888
5871000,0.0324,0.013523,0.002678,0.000431,0.054651
5872000,0.0324,0.013523,0.002678,0.000431,0.053945
5873000,0.0324,0.013523,0.002678,0.000431,0.058764
5874000,0.0324,0.013523,0.002678,0.000431,0.055356
5875000,0.0324,0.013523,0.002678,0.000431,0.054768
5876000,0.0324,0.013523,0.002678,0.000431,0.056061
5877000,0.0324,0.013523,0.002678,0.000431,0.057824
5878000,0.0324,0.013523,0.002678,0.000431,0.057354
5879000,0.0324,0.013523,0.002678,0.000431,0.050655
5880000,0.0324,0.013523,0.002678,0.000431,0.055708
5881000,0.0324,0.013523,0.002678,0.000431,0.052418
5882000,0.0324,0.013523,0.002678,0.000431,0.055356
5883000,0.0324,0.013523,0.002678,0.000431,0.053358
5884000,0.0324,0.013523,0.002678,0.000431,0.059587
5885000,0.0324,0.013523,0.002678,0.000431,0.053593
5886000,0.0324,0.013523,0.002678,0.000431,0.052183
5887000,0.0324,0.013523,0.002678,0.000431,0.052653
5888000,0.0324,0.013523,0.002678,0.000431,0.055121
5889000,0.0324,0.013523,0.002678,0.000431,0.053358
5890000,0.0324,0.013523,0.002678,0.000431,0.053005
5891000,0.0324,0.013523,0.002678,0.000431,0.053945
5892000,0.0324,0.013523,0.002678,0.000431,0.051360
5893000,0.0324,0.013523,0.002678,0.000431,0.055473
5894000,0.0324,0.013523,0.002678,0.000431,0.053123
5895000,0.0324,0.013523,0.002678,0.000431,0.052183
5896000,0.0324,0.013523,0.002678,0.000431,0.053710
5897000,0.0324,0.013523,0.002678,0.000431,0.053828
5898000,0.0324,0.013523,0.002678,0.000431,0.053945
5899000,0.0324,0.013523,0.002678,0.000431,0.054180
5900000,0.0324,0.013523,0.002678,0.000431,0.052183
5901000,0.0324,0.013523,0.002678,0.000431,0.055708
5902000,0.0324,0.013523,0.002678,0.000431,0.052300
5903000,0.0324,0.013523,0.002678,0.000431,0.053945
5904000,0.0324,0.013523,0.002678,0.000431,0.053240
5905000,0.0324,0.013523,0.002678,0.000431,0.055943
5906000,0.0324,0.013523,0.002678,0.000431,0.052535
5907000,0.0324,0.013523,0.002678,0.000431,0.050772
5908000,0.0324,0.013523,0.002678,0.000431,0.055356
5909000,0.0324,0.013523,0.002678,0.000431,0.053358
5910000,0.0324,0.013523,0.002678,0.000431,0.053475
5911000,0.0324,0.013523,0.002678,0.000431,0.054298
5912000,0.0324,0.013523,0.002678,0.000431,0.055121
5913000,0.0324,0.013523,0.002678,0.000431,0.053828
5914000,0.0324,0.013523,0.002678,0.000431,0.053358
5915000,0.0324,0.013523,0.002678,0.000431,0.053005
5916000,0.0324,0.013523,0.002678,0.000431,0.055708
5917000,0.0324,0.013523,0.002678,0.000431,0.055003
5918000,0.0324,0.013523,0.002678,0.000431,0.050067
5919000,0.0324,0.013523,0.002678,0.000431,0.055708
5920000,0.0324,0.013523,0.002678,0.000431,0.052653
5921000,0.0324,0.013523,0.002678,0.000431,0.053475
5922000,0.0324,0.013523,0.002678,0.000431,0.051007
5923000,0.0324,0.013523,0.002678,0.000431,0.051007
5924000,0.0324,0.013523,0.002678,0.000431,0.055121
5925000,0.0324,0.013523,0.002678,0.000431,0.054063
5926000,0.0324,0.013523,0.002678,0.000431,0.050185
5927000,0.0324,0.013523,0.002678,0.000431,0.050420
5928000,0.0324,0.013523,0.002678,0.000431,0.052770
5929000,0.0324,0.013523,0.002678,0.000431,0.052888
5930000,0.0324,0.013523,0.002678,0.000431,0.053005
5931000,0.0324,0.013523,0.002678,0.000431,0.051477
5932000,0.0324,0.013523,0.002678,0.000431,0.052653
5933000,0.0324,0.013523,0.002678,0.000431,0.051830
5934000,0.0324,0.013523,0.002678,0.000431,0.053593
5935000,0.0324,0.013523,0.002678,0.000431,0.052653
5936000,0.0324,0.013523,0.002678,0.000431,0.053593
5937000,0.0324,0.013523,0.002678,0.000431,0.051712
5938000,0.0324,0.013523,0.002678,0.000431,0.051595
5939000,0.0324,0.013523,0.002678,0.000431,0.053240
5940000,0.0324,0.013523,0.002678,0.000431,0.053945
5941000,0.0324,0.013523,0.002678,0.000431,0.052535
5942000,0.0324,0.013523,0.002678,0.000431,0.052653
5943000,0.0324,0.013523,0.002678,0.000431,0.049597
5944000,0.0324,0.013523,0.002678,0.000431,0.051007
5945000,0.0324,0.013523,0.002678,0.000431,0.053945
5946000,0.0324,0.013523,0.002678,0.000431,0.052065
5947000,0.0324,0.013523,0.002678,0.000431,0.051595
5948000,0.0324,0.013523,0.002678,0.000431,0.051947
5949000,0.0324,0.013523,0.002678,0.000431,0.054298
5950000,0.0324,0.013523,0.002678,0.000431,0.053593
5951000,0.0324,0.013523,0.002678,0.000431,0.052418
5952000,0.0324,0.013523,0.002678,0.000431,0.051830
5953000,0.0324,0.013523,0.002678,0.000431,0.052653
5954000,0.0324,0.013523,0.002678,0.000431,0.049714
5955000,0.0324,0.013523,0.002678,0.000431,0.052770
5956000,0.0324,0.013523,0.002678,0.000431,0.053593
5957000,0.0324,0.013523,0.002678,0.000431,0.052418
5958000,0.0324,0.013523,0.002678,0.000431,0.052770
5959000,0.0324,0.013523,0.002678,0.000431,0.053005
5960000,0.0324,0.013523,0.002678,0.000431,0.050655
5961000,0.0324,0.013523,0.002678,0.000431,0.053240
5962000,0.0324,0.013523,0.002678,0.000431,0.053593
5963000,0.0324,0.013523,0.002678,0.000431,0.051712
5964000,0.0324,0.013523,0.002678,0.000431,0.051242
5965000,0.0324,0.013523,0.002678,0.000431,0.049714
5966000,0.0324,0.013523,0.002678,0.000431,0.053593
5967000,0.0324,0.013523,0.002678,0.000431,0.049714
5968000,0.0324,0.013523,0.002678,0.000431,0.052535
5969000,0.0324,0.013523,0.002678,0.000431,0.050420
5970000,0.0324,0.013523,0.002678,0.000431,0.051595
5971000,0.0324,0.013523,0.002678,0.000431,0.051947
5972000,0.0324,0.013523,0.002678,0.000431,0.052770
5973000,0.0324,0.013523,0.002678,0.000431,0.052183
5974000,0.0324,0.013523,0.002678,0.000431,0.050067
5975000,0.0324,0.013523,0.002678,0.000431,0.053593
5976000,0.0324,0.013523,0.002678,0.000431,0.050185
5977000,0.0324,0.013523,0.002678,0.000431,0.052535
5978000,0.0324,0.013523,0.002678,0.000431,0.053358
5979000,0.0324,0.013523,0.002678,0.000431,0.049832
5980000,0.0324,0.013523,0.002678,0.000431,0.048304
5981000,0.0324,0.013523,0.002678,0.000431,0.053475
5982000,0.0324,0.013523,0.002678,0.000431,0.051712
5983000,0.0324,0.013523,0.002678,0.000431,0.049362
5984000,0.0324,0.013523,0.002678,0.000431,0.051125
5985000,0.0324,0.013523,0.002678,0.000431,0.053710
5986000,0.0324,0.013523,0.002678,0.000431,0.054180
5987000,0.0324,0.013523,0.002678,0.000431,0.052418
5988000,0.0324,0.013523,0.002678,0.000431,0.049127
5989000,0.0324,0.013523,0.002678,0.000431,0.052183
5990000,0.0324,0.013523,0.002678,0.000431,0.051360
5991000,0.0324,0.013523,0.002678,0.000431,0.049949
5992000,0.0324,0.013523,0.002678,0.000431,0.052770
5993000,0.0324,0.013523,0.002678,0.000431,0.052300
5994000,0.0324,0.013523,0.002678,0.000431,0.050890
5995000,0.0324,0.013523,0.002678,0.000431,0.051595
5996000,0.0324,0.013523,0.002678,0.000431,0.051712
5997000,0.0324,0.013523,0.002678,0.000431,0.055238
5998000,0.0324,0.013523,0.002678,0.000431,0.052418
5999000,0.0324,0.013523,0.002678,0.000431,0.051007
