Cycle,Area(mm^2),PeakDynamic(W),SubthresholdLeakage(W),GateLeakage(W),RunTimeDynamic(W)
1000000,0.0324,0.013523,0.002678,0.000431,0.217075
1001000,0.0324,0.013523,0.002678,0.000431,0.299814
1002000,0.0324,0.013523,0.002678,0.000431,0.432621
1003000,0.0324,0.013523,0.002678,0.000431,0.417813
1004000,0.0324,0.013523,0.002678,0.000431,0.515479
1005000,0.0324,0.013523,0.002678,0.000431,0.634652
1006000,0.0324,0.013523,0.002678,0.000431,0.431328
1007000,0.0324,0.013523,0.002678,0.000431,0.260913
1008000,0.0324,0.013523,0.002678,0.000431,0.232118
1009000,0.0324,0.013523,0.002678,0.000431,0.403709
1010000,0.0324,0.013523,0.002678,0.000431,0.587288
1011000,0.0324,0.013523,0.002678,0.000431,0.594810
1012000,0.0324,0.013523,0.002678,0.000431,0.524881
1013000,0.0324,0.013523,0.002678,0.000431,0.652046
1014000,0.0324,0.013523,0.002678,0.000431,0.587053
1015000,0.0324,0.013523,0.002678,0.000431,0.513598
1016000,0.0324,0.013523,0.002678,0.000431,0.449193
1017000,0.0324,0.013523,0.002678,0.000431,0.310274
1018000,0.0324,0.013523,0.002678,0.000431,0.522530
1019000,0.0324,0.013523,0.002678,0.000431,0.779917
1020000,0.0324,0.013523,0.002678,0.000431,0.665915
1021000,0.0324,0.013523,0.002678,0.000431,0.677197
1022000,0.0324,0.013523,0.002678,0.000431,0.582235
1023000,0.0324,0.013523,0.002678,0.000431,0.623134
1024000,0.0324,0.013523,0.002678,0.000431,0.643114
1025000,0.0324,0.013523,0.002678,0.000431,0.591167
1026000,0.0324,0.013523,0.002678,0.000431,0.642292
1027000,0.0324,0.013523,0.002678,0.000431,0.778977
1028000,0.0324,0.013523,0.002678,0.000431,0.768752
1029000,0.0324,0.013523,0.002678,0.000431,0.852079
1030000,0.0324,0.013523,0.002678,0.000431,0.817761
1031000,0.0324,0.013523,0.002678,0.000431,0.787086
1032000,0.0324,0.013523,0.002678,0.000431,0.873705
1033000,0.0324,0.013523,0.002678,0.000431,1.003456
1034000,0.0324,0.013523,0.002678,0.000431,0.879698
1035000,0.0324,0.013523,0.002678,0.000431,1.010742
1036000,0.0324,0.013523,0.002678,0.000431,1.155890
1037000,0.0324,0.013523,0.002678,0.000431,0.946925
1038000,0.0324,0.013523,0.002678,0.000431,0.890394
1039000,0.0324,0.013523,0.002678,0.000431,0.868886
1040000,0.0324,0.013523,0.002678,0.000431,0.986884
1041000,0.0324,0.013523,0.002678,0.000431,0.966199
1042000,0.0324,0.013523,0.002678,0.000431,0.938580
1043000,0.0324,0.013523,0.002678,0.000431,0.883342
1044000,0.0324,0.013523,0.002678,0.000431,1.096655
1045000,0.0324,0.013523,0.002678,0.000431,0.958325
1046000,0.0324,0.013523,0.002678,0.000431,0.954564
1047000,0.0324,0.013523,0.002678,0.000431,0.888983
1048000,0.0324,0.013523,0.002678,0.000431,0.855958
1049000,0.0324,0.013523,0.002678,0.000431,0.871236
1050000,0.0324,0.013523,0.002678,0.000431,0.873705
1051000,0.0324,0.013523,0.002678,0.000431,0.948452
1052000,0.0324,0.013523,0.002678,0.000431,0.939050
1053000,0.0324,0.013523,0.002678,0.000431,0.843147
1054000,0.0324,0.013523,0.002678,0.000431,0.777802
1055000,0.0324,0.013523,0.002678,0.000431,0.859366
1056000,0.0324,0.013523,0.002678,0.000431,0.830337
1057000,0.0324,0.013523,0.002678,0.000431,0.706344
1058000,0.0324,0.013523,0.002678,0.000431,0.708812
1059000,0.0324,0.013523,0.002678,0.000431,0.721035
1060000,0.0324,0.013523,0.002678,0.000431,0.814588
1061000,0.0324,0.013523,0.002678,0.000431,1.010742
1062000,0.0324,0.013523,0.002678,0.000431,0.871707
1063000,0.0324,0.013523,0.002678,0.000431,0.806831
1064000,0.0324,0.013523,0.002678,0.000431,0.900501
1065000,0.0324,0.013523,0.002678,0.000431,0.888983
1066000,0.0324,0.013523,0.002678,0.000431,0.897093
1067000,0.0324,0.013523,0.002678,0.000431,0.952096
1068000,0.0324,0.013523,0.002678,0.000431,0.859719
1069000,0.0324,0.013523,0.002678,0.000431,0.969608
1070000,0.0324,0.013523,0.002678,0.000431,0.947512
1071000,0.0324,0.013523,0.002678,0.000431,1.013563
1072000,0.0324,0.013523,0.002678,0.000431,0.799544
1073000,0.0324,0.013523,0.002678,0.000431,0.985239
1074000,0.0324,0.013523,0.002678,0.000431,0.919070
1075000,0.0324,0.013523,0.002678,0.000431,0.947982
1076000,0.0324,0.013523,0.002678,0.000431,0.975954
1077000,0.0324,0.013523,0.002678,0.000431,0.914252
1078000,0.0324,0.013523,0.002678,0.000431,0.883107
1079000,0.0324,0.013523,0.002678,0.000431,0.942929
1080000,0.0324,0.013523,0.002678,0.000431,0.861599
1081000,0.0324,0.013523,0.002678,0.000431,0.840091
1082000,0.0324,0.013523,0.002678,0.000431,0.813177
1083000,0.0324,0.013523,0.002678,0.000431,0.660038
1084000,0.0324,0.013523,0.002678,0.000431,0.653692
1085000,0.0324,0.013523,0.002678,0.000431,0.681193
1086000,0.0324,0.013523,0.002678,0.000431,0.694709
1087000,0.0324,0.013523,0.002678,0.000431,0.780622
1088000,0.0324,0.013523,0.002678,0.000431,0.767459
1089000,0.0324,0.013523,0.002678,0.000431,0.625838
1090000,0.0324,0.013523,0.002678,0.000431,0.441553
1091000,0.0324,0.013523,0.002678,0.000431,0.753473
1092000,0.0324,0.013523,0.002678,0.000431,0.896387
1093000,0.0324,0.013523,0.002678,0.000431,0.713749
1094000,0.0324,0.013523,0.002678,0.000431,0.823873
1095000,0.0324,0.013523,0.002678,0.000431,0.797546
1096000,0.0324,0.013523,0.002678,0.000431,0.673554
1097000,0.0324,0.013523,0.002678,0.000431,0.756646
1098000,0.0324,0.013523,0.002678,0.000431,0.890981
1099000,0.0324,0.013523,0.002678,0.000431,0.810122
1100000,0.0324,0.013523,0.002678,0.000431,0.889453
1101000,0.0324,0.013523,0.002678,0.000431,0.817879
1102000,0.0324,0.013523,0.002678,0.000431,0.773218
1103000,0.0324,0.013523,0.002678,0.000431,0.892979
1104000,0.0324,0.013523,0.002678,0.000431,1.068919
1105000,0.0324,0.013523,0.002678,0.000431,0.896623
1106000,0.0324,0.013523,0.002678,0.000431,0.933291
1107000,0.0324,0.013523,0.002678,0.000431,0.849964
1108000,0.0324,0.013523,0.002678,0.000431,0.886868
1109000,0.0324,0.013523,0.002678,0.000431,0.877700
1110000,0.0324,0.013523,0.002678,0.000431,0.880756
1111000,0.0324,0.013523,0.002678,0.000431,0.941401
1112000,0.0324,0.013523,0.002678,0.000431,0.882402
1113000,0.0324,0.013523,0.002678,0.000431,0.937287
1114000,0.0324,0.013523,0.002678,0.000431,0.839151
1115000,0.0324,0.013523,0.002678,0.000431,0.861482
1116000,0.0324,0.013523,0.002678,0.000431,0.868416
1117000,0.0324,0.013523,0.002678,0.000431,0.868298
1118000,0.0324,0.013523,0.002678,0.000431,0.851139
1119000,0.0324,0.013523,0.002678,0.000431,0.834568
1120000,0.0324,0.013523,0.002678,0.000431,0.849141
1121000,0.0324,0.013523,0.002678,0.000431,0.817644
1122000,0.0324,0.013523,0.002678,0.000431,0.629598
1123000,0.0324,0.013523,0.002678,0.000431,0.591872
1124000,0.0324,0.013523,0.002678,0.000431,0.567309
1125000,0.0324,0.013523,0.002678,0.000431,0.561315
1126000,0.0324,0.013523,0.002678,0.000431,0.667443
1127000,0.0324,0.013523,0.002678,0.000431,0.780035
1128000,0.0324,0.013523,0.002678,0.000431,0.775098
1129000,0.0324,0.013523,0.002678,0.000431,0.913782
1130000,0.0324,0.013523,0.002678,0.000431,0.919776
1131000,0.0324,0.013523,0.002678,0.000431,0.961616
1132000,0.0324,0.013523,0.002678,0.000431,0.916015
1133000,0.0324,0.013523,0.002678,0.000431,0.926240
1134000,0.0324,0.013523,0.002678,0.000431,1.080202
1135000,0.0324,0.013523,0.002678,0.000431,1.034718
1136000,0.0324,0.013523,0.002678,0.000431,0.943986
1137000,0.0324,0.013523,0.002678,0.000431,1.073032
1138000,0.0324,0.013523,0.002678,0.000431,1.150836
1139000,0.0324,0.013523,0.002678,0.000431,1.015443
1140000,0.0324,0.013523,0.002678,0.000431,1.021672
1141000,0.0324,0.013523,0.002678,0.000431,0.942811
1142000,0.0324,0.013523,0.002678,0.000431,1.031075
1143000,0.0324,0.013523,0.002678,0.000431,1.065511
1144000,0.0324,0.013523,0.002678,0.000431,1.075030
1145000,0.0324,0.013523,0.002678,0.000431,1.033895
1146000,0.0324,0.013523,0.002678,0.000431,0.990645
1147000,0.0324,0.013523,0.002678,0.000431,0.901676
1148000,0.0324,0.013523,0.002678,0.000431,1.091954
1149000,0.0324,0.013523,0.002678,0.000431,1.031780
1150000,0.0324,0.013523,0.002678,0.000431,0.948335
1151000,0.0324,0.013523,0.002678,0.000431,0.970078
1152000,0.0324,0.013523,0.002678,0.000431,1.051172
1153000,0.0324,0.013523,0.002678,0.000431,0.910491
1154000,0.0324,0.013523,0.002678,0.000431,0.883107
1155000,0.0324,0.013523,0.002678,0.000431,0.860541
1156000,0.0324,0.013523,0.002678,0.000431,0.784031
1157000,0.0324,0.013523,0.002678,0.000431,0.746186
1158000,0.0324,0.013523,0.002678,0.000431,0.780975
1159000,0.0324,0.013523,0.002678,0.000431,0.857368
1160000,0.0324,0.013523,0.002678,0.000431,0.919070
1161000,0.0324,0.013523,0.002678,0.000431,0.991233
1162000,0.0324,0.013523,0.002678,0.000431,0.999812
1163000,0.0324,0.013523,0.002678,0.000431,0.975131
1164000,0.0324,0.013523,0.002678,0.000431,0.995699
1165000,0.0324,0.013523,0.002678,0.000431,0.946690
1166000,0.0324,0.013523,0.002678,0.000431,0.929060
1167000,0.0324,0.013523,0.002678,0.000431,1.020145
1168000,0.0324,0.013523,0.002678,0.000431,0.831982
1169000,0.0324,0.013523,0.002678,0.000431,0.993466
1170000,0.0324,0.013523,0.002678,0.000431,1.009332
1171000,0.0324,0.013523,0.002678,0.000431,0.948217
1172000,0.0324,0.013523,0.002678,0.000431,1.039889
1173000,0.0324,0.013523,0.002678,0.000431,0.961968
1174000,0.0324,0.013523,0.002678,0.000431,0.910961
1175000,0.0324,0.013523,0.002678,0.000431,0.961733
1176000,0.0324,0.013523,0.002678,0.000431,1.038714
1177000,0.0324,0.013523,0.002678,0.000431,0.968315
1178000,0.0324,0.013523,0.002678,0.000431,0.941401
1179000,0.0324,0.013523,0.002678,0.000431,0.816233
1180000,0.0324,0.013523,0.002678,0.000431,0.636063
1181000,0.0324,0.013523,0.002678,0.000431,0.610441
1182000,0.0324,0.013523,0.002678,0.000431,0.762640
1183000,0.0324,0.013523,0.002678,0.000431,0.814940
1184000,0.0324,0.013523,0.002678,0.000431,0.741720
1185000,0.0324,0.013523,0.002678,0.000431,0.712573
1186000,0.0324,0.013523,0.002678,0.000431,0.699293
1187000,0.0324,0.013523,0.002678,0.000431,0.473286
1188000,0.0324,0.013523,0.002678,0.000431,0.463061
1189000,0.0324,0.013523,0.002678,0.000431,0.593165
1190000,0.0324,0.013523,0.002678,0.000431,0.550972
1191000,0.0324,0.013523,0.002678,0.000431,0.595868
1192000,0.0324,0.013523,0.002678,0.000431,0.537104
1193000,0.0324,0.013523,0.002678,0.000431,0.400771
1194000,0.0324,0.013523,0.002678,0.000431,0.499612
1195000,0.0324,0.013523,0.002678,0.000431,0.595750
1196000,0.0324,0.013523,0.002678,0.000431,0.782150
1197000,0.0324,0.013523,0.002678,0.000431,0.787674
1198000,0.0324,0.013523,0.002678,0.000431,0.771690
1199000,0.0324,0.013523,0.002678,0.000431,0.701526
1200000,0.0324,0.013523,0.002678,0.000431,0.818584
1201000,0.0324,0.013523,0.002678,0.000431,1.016736
1202000,0.0324,0.013523,0.002678,0.000431,0.834450
1203000,0.0324,0.013523,0.002678,0.000431,0.819289
1204000,0.0324,0.013523,0.002678,0.000431,1.028254
1205000,0.0324,0.013523,0.002678,0.000431,0.911784
1206000,0.0324,0.013523,0.002678,0.000431,0.943869
1207000,0.0324,0.013523,0.002678,0.000431,0.969608
1208000,0.0324,0.013523,0.002678,0.000431,1.025316
1209000,0.0324,0.013523,0.002678,0.000431,1.043533
1210000,0.0324,0.013523,0.002678,0.000431,1.045766
1211000,0.0324,0.013523,0.002678,0.000431,1.043533
1212000,0.0324,0.013523,0.002678,0.000431,0.916602
1213000,0.0324,0.013523,0.002678,0.000431,0.955387
1214000,0.0324,0.013523,0.002678,0.000431,1.021320
1215000,0.0324,0.013523,0.002678,0.000431,1.174107
1216000,0.0324,0.013523,0.002678,0.000431,1.156712
1217000,0.0324,0.013523,0.002678,0.000431,0.991468
1218000,0.0324,0.013523,0.002678,0.000431,0.957267
1219000,0.0324,0.013523,0.002678,0.000431,1.006981
1220000,0.0324,0.013523,0.002678,0.000431,1.039184
1221000,0.0324,0.013523,0.002678,0.000431,1.009567
1222000,0.0324,0.013523,0.002678,0.000431,1.036716
1223000,0.0324,0.013523,0.002678,0.000431,0.895682
1224000,0.0324,0.013523,0.002678,0.000431,0.827163
1225000,0.0324,0.013523,0.002678,0.000431,0.750653
1226000,0.0324,0.013523,0.002678,0.000431,0.785323
1227000,0.0324,0.013523,0.002678,0.000431,0.935054
1228000,0.0324,0.013523,0.002678,0.000431,0.910491
1229000,0.0324,0.013523,0.002678,0.000431,0.962438
1230000,0.0324,0.013523,0.002678,0.000431,1.007452
1231000,0.0324,0.013523,0.002678,0.000431,0.987707
1232000,0.0324,0.013523,0.002678,0.000431,0.943046
1233000,0.0324,0.013523,0.002678,0.000431,0.978540
1234000,0.0324,0.013523,0.002678,0.000431,0.975836
1235000,0.0324,0.013523,0.002678,0.000431,0.877700
1236000,0.0324,0.013523,0.002678,0.000431,0.904144
1237000,0.0324,0.013523,0.002678,0.000431,1.053993
1238000,0.0324,0.013523,0.002678,0.000431,1.000400
1239000,0.0324,0.013523,0.002678,0.000431,1.026609
1240000,0.0324,0.013523,0.002678,0.000431,0.932469
1241000,0.0324,0.013523,0.002678,0.000431,1.007099
1242000,0.0324,0.013523,0.002678,0.000431,0.982536
1243000,0.0324,0.013523,0.002678,0.000431,0.949980
1244000,0.0324,0.013523,0.002678,0.000431,1.052465
1245000,0.0324,0.013523,0.002678,0.000431,1.014386
1246000,0.0324,0.013523,0.002678,0.000431,1.080084
1247000,0.0324,0.013523,0.002678,0.000431,0.916485
1248000,0.0324,0.013523,0.002678,0.000431,0.818584
1249000,0.0324,0.013523,0.002678,0.000431,0.865007
1250000,0.0324,0.013523,0.002678,0.000431,0.828574
1251000,0.0324,0.013523,0.002678,0.000431,0.922714
1252000,0.0324,0.013523,0.002678,0.000431,0.885810
1253000,0.0324,0.013523,0.002678,0.000431,0.918835
1254000,0.0324,0.013523,0.002678,0.000431,0.865125
1255000,0.0324,0.013523,0.002678,0.000431,0.779917
1256000,0.0324,0.013523,0.002678,0.000431,0.774746
1257000,0.0324,0.013523,0.002678,0.000431,0.817291
1258000,0.0324,0.013523,0.002678,0.000431,1.030252
1259000,0.0324,0.013523,0.002678,0.000431,0.856310
1260000,0.0324,0.013523,0.002678,0.000431,0.872059
1261000,0.0324,0.013523,0.002678,0.000431,1.032838
1262000,0.0324,0.013523,0.002678,0.000431,0.972193
1263000,0.0324,0.013523,0.002678,0.000431,0.881109
1264000,0.0324,0.013523,0.002678,0.000431,0.945397
1265000,0.0324,0.013523,0.002678,0.000431,0.968902
1266000,0.0324,0.013523,0.002678,0.000431,1.070212
1267000,0.0324,0.013523,0.002678,0.000431,0.937052
1268000,0.0324,0.013523,0.002678,0.000431,0.981948
1269000,0.0324,0.013523,0.002678,0.000431,1.033660
1270000,0.0324,0.013523,0.002678,0.000431,0.941871
1271000,0.0324,0.013523,0.002678,0.000431,0.934349
1272000,0.0324,0.013523,0.002678,0.000431,1.071504
1273000,0.0324,0.013523,0.002678,0.000431,0.921656
1274000,0.0324,0.013523,0.002678,0.000431,1.135205
1275000,0.0324,0.013523,0.002678,0.000431,1.032015
1276000,0.0324,0.013523,0.002678,0.000431,0.965612
1277000,0.0324,0.013523,0.002678,0.000431,0.955857
1278000,0.0324,0.013523,0.002678,0.000431,1.050114
1279000,0.0324,0.013523,0.002678,0.000431,1.026609
1280000,0.0324,0.013523,0.002678,0.000431,0.893332
1281000,0.0324,0.013523,0.002678,0.000431,0.964084
1282000,0.0324,0.013523,0.002678,0.000431,0.849024
1283000,0.0324,0.013523,0.002678,0.000431,0.837741
1284000,0.0324,0.013523,0.002678,0.000431,0.954564
1285000,0.0324,0.013523,0.002678,0.000431,0.917307
1286000,0.0324,0.013523,0.002678,0.000431,0.882872
1287000,0.0324,0.013523,0.002678,0.000431,0.833980
1288000,0.0324,0.013523,0.002678,0.000431,0.794373
1289000,0.0324,0.013523,0.002678,0.000431,0.761818
1290000,0.0324,0.013523,0.002678,0.000431,0.764051
1291000,0.0324,0.013523,0.002678,0.000431,0.715982
1292000,0.0324,0.013523,0.002678,0.000431,0.675199
1293000,0.0324,0.013523,0.002678,0.000431,0.691066
1294000,0.0324,0.013523,0.002678,0.000431,0.724209
1295000,0.0324,0.013523,0.002678,0.000431,0.853842
1296000,0.0324,0.013523,0.002678,0.000431,1.035188
1297000,0.0324,0.013523,0.002678,0.000431,0.911549
1298000,0.0324,0.013523,0.002678,0.000431,0.869709
1299000,0.0324,0.013523,0.002678,0.000431,1.022613
1300000,0.0324,0.013523,0.002678,0.000431,1.033073
1301000,0.0324,0.013523,0.002678,0.000431,1.068919
1302000,0.0324,0.013523,0.002678,0.000431,0.946925
1303000,0.0324,0.013523,0.002678,0.000431,0.959147
1304000,0.0324,0.013523,0.002678,0.000431,0.985004
1305000,0.0324,0.013523,0.002678,0.000431,1.006159
1306000,0.0324,0.013523,0.002678,0.000431,1.198905
1307000,0.0324,0.013523,0.002678,0.000431,0.960558
1308000,0.0324,0.013523,0.002678,0.000431,1.015443
1309000,0.0324,0.013523,0.002678,0.000431,1.014268
1310000,0.0324,0.013523,0.002678,0.000431,1.265073
1311000,0.0324,0.013523,0.002678,0.000431,1.107586
1312000,0.0324,0.013523,0.002678,0.000431,0.989352
1313000,0.0324,0.013523,0.002678,0.000431,1.022965
1314000,0.0324,0.013523,0.002678,0.000431,1.063630
1315000,0.0324,0.013523,0.002678,0.000431,1.117811
1316000,0.0324,0.013523,0.002678,0.000431,1.108526
1317000,0.0324,0.013523,0.002678,0.000431,1.038126
1318000,0.0324,0.013523,0.002678,0.000431,1.029547
1319000,0.0324,0.013523,0.002678,0.000431,1.027549
1320000,0.0324,0.013523,0.002678,0.000431,1.115695
1321000,0.0324,0.013523,0.002678,0.000431,0.924359
1322000,0.0324,0.013523,0.002678,0.000431,1.093247
1323000,0.0324,0.013523,0.002678,0.000431,1.124627
1324000,0.0324,0.013523,0.002678,0.000431,0.952801
1325000,0.0324,0.013523,0.002678,0.000431,0.977834
1326000,0.0324,0.013523,0.002678,0.000431,1.103825
1327000,0.0324,0.013523,0.002678,0.000431,1.039654
1328000,0.0324,0.013523,0.002678,0.000431,0.959735
1329000,0.0324,0.013523,0.002678,0.000431,0.951861
1330000,0.0324,0.013523,0.002678,0.000431,0.892391
1331000,0.0324,0.013523,0.002678,0.000431,0.863597
1332000,0.0324,0.013523,0.002678,0.000431,1.005924
1333000,0.0324,0.013523,0.002678,0.000431,0.881931
1334000,0.0324,0.013523,0.002678,0.000431,1.015091
1335000,0.0324,0.013523,0.002678,0.000431,0.890394
1336000,0.0324,0.013523,0.002678,0.000431,0.904849
1337000,0.0324,0.013523,0.002678,0.000431,0.943164
1338000,0.0324,0.013523,0.002678,0.000431,0.967022
1339000,0.0324,0.013523,0.002678,0.000431,0.800484
1340000,0.0324,0.013523,0.002678,0.000431,0.852667
1341000,0.0324,0.013523,0.002678,0.000431,0.833862
1342000,0.0324,0.013523,0.002678,0.000431,0.960205
1343000,0.0324,0.013523,0.002678,0.000431,0.868651
1344000,0.0324,0.013523,0.002678,0.000431,0.932586
1345000,0.0324,0.013523,0.002678,0.000431,0.972193
1346000,0.0324,0.013523,0.002678,0.000431,0.950921
1347000,0.0324,0.013523,0.002678,0.000431,1.010742
1348000,0.0324,0.013523,0.002678,0.000431,1.125685
1349000,0.0324,0.013523,0.002678,0.000431,0.913312
1350000,0.0324,0.013523,0.002678,0.000431,0.935994
1351000,0.0324,0.013523,0.002678,0.000431,0.831864
1352000,0.0324,0.013523,0.002678,0.000431,0.994288
1353000,0.0324,0.013523,0.002678,0.000431,1.000282
1354000,0.0324,0.013523,0.002678,0.000431,0.954681
1355000,0.0324,0.013523,0.002678,0.000431,1.056343
1356000,0.0324,0.013523,0.002678,0.000431,0.880286
1357000,0.0324,0.013523,0.002678,0.000431,1.146017
1358000,0.0324,0.013523,0.002678,0.000431,1.051172
1359000,0.0324,0.013523,0.002678,0.000431,1.029547
1360000,0.0324,0.013523,0.002678,0.000431,1.065393
1361000,0.0324,0.013523,0.002678,0.000431,1.023906
1362000,0.0324,0.013523,0.002678,0.000431,1.139318
1363000,0.0324,0.013523,0.002678,0.000431,1.039654
1364000,0.0324,0.013523,0.002678,0.000431,0.960675
1365000,0.0324,0.013523,0.002678,0.000431,0.959853
1366000,0.0324,0.013523,0.002678,0.000431,0.941988
1367000,0.0324,0.013523,0.002678,0.000431,0.770397
1368000,0.0324,0.013523,0.002678,0.000431,0.623957
1369000,0.0324,0.013523,0.002678,0.000431,0.509720
1370000,0.0324,0.013523,0.002678,0.000431,0.441788
1371000,0.0324,0.013523,0.002678,0.000431,0.386433
1372000,0.0324,0.013523,0.002678,0.000431,0.312625
1373000,0.0324,0.013523,0.002678,0.000431,0.264203
1374000,0.0324,0.013523,0.002678,0.000431,0.220835
1375000,0.0324,0.013523,0.002678,0.000431,0.193686
1376000,0.0324,0.013523,0.002678,0.000431,0.165715
1377000,0.0324,0.013523,0.002678,0.000431,0.142092
1378000,0.0324,0.013523,0.002678,0.000431,0.123875
1379000,0.0324,0.013523,0.002678,0.000431,0.106245
1380000,0.0324,0.013523,0.002678,0.000431,0.088851
1381000,0.0324,0.013523,0.002678,0.000431,0.074160
1382000,0.0324,0.013523,0.002678,0.000431,0.061350
1383000,0.0324,0.013523,0.002678,0.000431,0.053593
1384000,0.0324,0.013523,0.002678,0.000431,0.043956
1385000,0.0324,0.013523,0.002678,0.000431,0.038784
1386000,0.0324,0.013523,0.002678,0.000431,0.033731
1387000,0.0324,0.013523,0.002678,0.000431,0.029970
1388000,0.0324,0.013523,0.002678,0.000431,0.026444
1389000,0.0324,0.013523,0.002678,0.000431,0.021978
1390000,0.0324,0.013523,0.002678,0.000431,0.018687
1391000,0.0324,0.013523,0.002678,0.000431,0.016571
1392000,0.0324,0.013523,0.002678,0.000431,0.012576
1393000,0.0324,0.013523,0.002678,0.000431,0.012458
1394000,0.0324,0.013523,0.002678,0.000431,0.010813
1395000,0.0324,0.013523,0.002678,0.000431,0.009872
1396000,0.0324,0.013523,0.002678,0.000431,0.009755
1397000,0.0324,0.013523,0.002678,0.000431,0.008462
1398000,0.0324,0.013523,0.002678,0.000431,0.007874
1399000,0.0324,0.013523,0.002678,0.000431,0.007169
1400000,0.0324,0.013523,0.002678,0.000431,0.007052
1401000,0.0324,0.013523,0.002678,0.000431,0.005994
1402000,0.0324,0.013523,0.002678,0.000431,0.006347
1403000,0.0324,0.013523,0.002678,0.000431,0.006464
1404000,0.0324,0.013523,0.002678,0.000431,0.005994
1405000,0.0324,0.013523,0.002678,0.000431,0.005289
1406000,0.0324,0.013523,0.002678,0.000431,0.005289
1407000,0.0324,0.013523,0.002678,0.000431,0.002116
1408000,0.0324,0.013523,0.002678,0.000431,0.001410
1409000,0.0324,0.013523,0.002678,0.000431,0.001528
1410000,0.0324,0.013523,0.002678,0.000431,0.001410
1411000,0.0324,0.013523,0.002678,0.000431,0.001293
1412000,0.0324,0.013523,0.002678,0.000431,0.001528
1413000,0.0324,0.013523,0.002678,0.000431,0.000940
1414000,0.0324,0.013523,0.002678,0.000431,0.001175
1415000,0.0324,0.013523,0.002678,0.000431,0.000940
1416000,0.0324,0.013523,0.002678,0.000431,0.001175
1417000,0.0324,0.013523,0.002678,0.000431,0.001175
1418000,0.0324,0.013523,0.002678,0.000431,0.000940
1419000,0.0324,0.013523,0.002678,0.000431,0.001175
1420000,0.0324,0.013523,0.002678,0.000431,0.001058
1421000,0.0324,0.013523,0.002678,0.000431,0.001058
1422000,0.0324,0.013523,0.002678,0.000431,0.001175
1423000,0.0324,0.013523,0.002678,0.000431,0.000705
1424000,0.0324,0.013523,0.002678,0.000431,0.000940
1425000,0.0324,0.013523,0.002678,0.000431,0.001058
1426000,0.0324,0.013523,0.002678,0.000431,0.001175
1427000,0.0324,0.013523,0.002678,0.000431,0.001058
1428000,0.0324,0.013523,0.002678,0.000431,0.001058
1429000,0.0324,0.013523,0.002678,0.000431,0.001058
1430000,0.0324,0.013523,0.002678,0.000431,0.000940
1431000,0.0324,0.013523,0.002678,0.000431,0.001058
1432000,0.0324,0.013523,0.002678,0.000431,0.000940
1433000,0.0324,0.013523,0.002678,0.000431,0.001058
1434000,0.0324,0.013523,0.002678,0.000431,0.001058
1435000,0.0324,0.013523,0.002678,0.000431,0.001058
1436000,0.0324,0.013523,0.002678,0.000431,0.001058
1437000,0.0324,0.013523,0.002678,0.000431,0.001058
1438000,0.0324,0.013523,0.002678,0.000431,0.000940
1439000,0.0324,0.013523,0.002678,0.000431,0.000940
1440000,0.0324,0.013523,0.002678,0.000431,0.001058
1441000,0.0324,0.013523,0.002678,0.000431,0.001058
1442000,0.0324,0.013523,0.002678,0.000431,0.001058
1443000,0.0324,0.013523,0.002678,0.000431,0.001058
1444000,0.0324,0.013523,0.002678,0.000431,0.001058
1445000,0.0324,0.013523,0.002678,0.000431,0.001175
1446000,0.0324,0.013523,0.002678,0.000431,0.000823
1447000,0.0324,0.013523,0.002678,0.000431,0.000940
1448000,0.0324,0.013523,0.002678,0.000431,0.000940
1449000,0.0324,0.013523,0.002678,0.000431,0.001175
1450000,0.0324,0.013523,0.002678,0.000431,0.000940
1451000,0.0324,0.013523,0.002678,0.000431,0.001175
1452000,0.0324,0.013523,0.002678,0.000431,0.001058
1453000,0.0324,0.013523,0.002678,0.000431,0.001175
1454000,0.0324,0.013523,0.002678,0.000431,0.000823
1455000,0.0324,0.013523,0.002678,0.000431,0.000940
1456000,0.0324,0.013523,0.002678,0.000431,0.000940
1457000,0.0324,0.013523,0.002678,0.000431,0.001058
1458000,0.0324,0.013523,0.002678,0.000431,0.001175
1459000,0.0324,0.013523,0.002678,0.000431,0.001058
1460000,0.0324,0.013523,0.002678,0.000431,0.001058
1461000,0.0324,0.013523,0.002678,0.000431,0.001058
1462000,0.0324,0.013523,0.002678,0.000431,0.000823
1463000,0.0324,0.013523,0.002678,0.000431,0.000940
1464000,0.0324,0.013523,0.002678,0.000431,0.001175
1465000,0.0324,0.013523,0.002678,0.000431,0.001058
1466000,0.0324,0.013523,0.002678,0.000431,0.001058
1467000,0.0324,0.013523,0.002678,0.000431,0.001058
1468000,0.0324,0.013523,0.002678,0.000431,0.001175
1469000,0.0324,0.013523,0.002678,0.000431,0.000940
1470000,0.0324,0.013523,0.002678,0.000431,0.000940
1471000,0.0324,0.013523,0.002678,0.000431,0.000940
1472000,0.0324,0.013523,0.002678,0.000431,0.001058
1473000,0.0324,0.013523,0.002678,0.000431,0.001058
1474000,0.0324,0.013523,0.002678,0.000431,0.001058
1475000,0.0324,0.013523,0.002678,0.000431,0.001058
1476000,0.0324,0.013523,0.002678,0.000431,0.001058
1477000,0.0324,0.013523,0.002678,0.000431,0.000823
1478000,0.0324,0.013523,0.002678,0.000431,0.001058
1479000,0.0324,0.013523,0.002678,0.000431,0.001058
1480000,0.0324,0.013523,0.002678,0.000431,0.000940
1481000,0.0324,0.013523,0.002678,0.000431,0.001175
1482000,0.0324,0.013523,0.002678,0.000431,0.000940
1483000,0.0324,0.013523,0.002678,0.000431,0.001175
1484000,0.0324,0.013523,0.002678,0.000431,0.001058
1485000,0.0324,0.013523,0.002678,0.000431,0.000823
1486000,0.0324,0.013523,0.002678,0.000431,0.000940
1487000,0.0324,0.013523,0.002678,0.000431,0.001175
1488000,0.0324,0.013523,0.002678,0.000431,0.000940
1489000,0.0324,0.013523,0.002678,0.000431,0.001175
1490000,0.0324,0.013523,0.002678,0.000431,0.001058
1491000,0.0324,0.013523,0.002678,0.000431,0.001058
1492000,0.0324,0.013523,0.002678,0.000431,0.001175
1493000,0.0324,0.013523,0.002678,0.000431,0.000705
1494000,0.0324,0.013523,0.002678,0.000431,0.000940
1495000,0.0324,0.013523,0.002678,0.000431,0.001058
1496000,0.0324,0.013523,0.002678,0.000431,0.001175
1497000,0.0324,0.013523,0.002678,0.000431,0.001058
1498000,0.0324,0.013523,0.002678,0.000431,0.001058
1499000,0.0324,0.013523,0.002678,0.000431,0.001058
1500000,0.0324,0.013523,0.002678,0.000431,0.001058
1501000,0.0324,0.013523,0.002678,0.000431,0.000940
1502000,0.0324,0.013523,0.002678,0.000431,0.000940
1503000,0.0324,0.013523,0.002678,0.000431,0.001058
1504000,0.0324,0.013523,0.002678,0.000431,0.001058
