Cycle,Area(mm^2),PeakDynamic(W),SubthresholdLeakage(W),GateLeakage(W),RunTimeDynamic(W)
5000000,0.0324,0.013523,0.002678,0.000431,0.995229
5001000,0.0324,0.013523,0.002678,0.000431,0.961145
5002000,0.0324,0.013523,0.002678,0.000431,0.924947
5003000,0.0324,0.013523,0.002678,0.000431,1.059987
5004000,0.0324,0.013523,0.002678,0.000431,1.020497
5005000,0.0324,0.013523,0.002678,0.000431,1.028607
5006000,0.0324,0.013523,0.002678,0.000431,1.019792
5007000,0.0324,0.013523,0.002678,0.000431,0.992173
5008000,0.0324,0.013523,0.002678,0.000431,1.126508
5009000,0.0324,0.013523,0.002678,0.000431,1.051407
5010000,0.0324,0.013523,0.002678,0.000431,1.103942
5011000,0.0324,0.013523,0.002678,0.000431,0.993936
5012000,0.0324,0.013523,0.002678,0.000431,0.994288
5013000,0.0324,0.013523,0.002678,0.000431,0.941518
5014000,0.0324,0.013523,0.002678,0.000431,1.011212
5015000,0.0324,0.013523,0.002678,0.000431,0.998754
5016000,0.0324,0.013523,0.002678,0.000431,0.984651
5017000,0.0324,0.013523,0.002678,0.000431,0.975366
5018000,0.0324,0.013523,0.002678,0.000431,1.028959
5019000,0.0324,0.013523,0.002678,0.000431,0.932351
5020000,0.0324,0.013523,0.002678,0.000431,0.983006
5021000,0.0324,0.013523,0.002678,0.000431,0.915074
5022000,0.0324,0.013523,0.002678,0.000431,0.956327
5023000,0.0324,0.013523,0.002678,0.000431,0.911431
5024000,0.0324,0.013523,0.002678,0.000431,0.937287
5025000,0.0324,0.013523,0.002678,0.000431,1.055168
5026000,0.0324,0.013523,0.002678,0.000431,0.980420
5027000,0.0324,0.013523,0.002678,0.000431,0.907435
5028000,0.0324,0.013523,0.002678,0.000431,0.950333
5029000,0.0324,0.013523,0.002678,0.000431,1.003691
5030000,0.0324,0.013523,0.002678,0.000431,0.980655
5031000,0.0324,0.013523,0.002678,0.000431,1.004161
5032000,0.0324,0.013523,0.002678,0.000431,0.934114
5033000,0.0324,0.013523,0.002678,0.000431,0.973603
5034000,0.0324,0.013523,0.002678,0.000431,0.980420
5035000,0.0324,0.013523,0.002678,0.000431,0.922479
5036000,0.0324,0.013523,0.002678,0.000431,0.953976
5037000,0.0324,0.013523,0.002678,0.000431,0.954681
5038000,0.0324,0.013523,0.002678,0.000431,1.019910
5039000,0.0324,0.013523,0.002678,0.000431,0.906847
5040000,0.0324,0.013523,0.002678,0.000431,1.027079
5041000,0.0324,0.013523,0.002678,0.000431,1.004396
5042000,0.0324,0.013523,0.002678,0.000431,1.026726
5043000,0.0324,0.013523,0.002678,0.000431,1.024611
5044000,0.0324,0.013523,0.002678,0.000431,0.958090
5045000,0.0324,0.013523,0.002678,0.000431,0.958912
5046000,0.0324,0.013523,0.002678,0.000431,0.939168
5047000,0.0324,0.013523,0.002678,0.000431,1.006394
5048000,0.0324,0.013523,0.002678,0.000431,0.958207
5049000,0.0324,0.013523,0.002678,0.000431,1.012035
5050000,0.0324,0.013523,0.002678,0.000431,1.014856
5051000,0.0324,0.013523,0.002678,0.000431,0.969255
5052000,0.0324,0.013523,0.002678,0.000431,0.946219
5053000,0.0324,0.013523,0.002678,0.000431,0.953624
5054000,0.0324,0.013523,0.002678,0.000431,0.991468
5055000,0.0324,0.013523,0.002678,0.000431,0.999577
5056000,0.0324,0.013523,0.002678,0.000431,0.959853
5057000,0.0324,0.013523,0.002678,0.000431,0.957972
5058000,0.0324,0.013523,0.002678,0.000431,0.940225
5059000,0.0324,0.013523,0.002678,0.000431,0.978775
5060000,0.0324,0.013523,0.002678,0.000431,0.936935
5061000,0.0324,0.013523,0.002678,0.000431,1.010977
5062000,0.0324,0.013523,0.002678,0.000431,1.034248
5063000,0.0324,0.013523,0.002678,0.000431,0.906730
5064000,0.0324,0.013523,0.002678,0.000431,1.059869
5065000,0.0324,0.013523,0.002678,0.000431,0.954564
5066000,0.0324,0.013523,0.002678,0.000431,0.893684
5067000,0.0324,0.013523,0.002678,0.000431,0.988177
5068000,0.0324,0.013523,0.002678,0.000431,1.016971
5069000,0.0324,0.013523,0.002678,0.000431,0.997227
5070000,0.0324,0.013523,0.002678,0.000431,0.993113
5071000,0.0324,0.013523,0.002678,0.000431,1.059164
5072000,0.0324,0.013523,0.002678,0.000431,1.074208
5073000,0.0324,0.013523,0.002678,0.000431,1.002986
5074000,0.0324,0.013523,0.002678,0.000431,1.009685
5075000,0.0324,0.013523,0.002678,0.000431,1.047881
5076000,0.0324,0.013523,0.002678,0.000431,1.141669
5077000,0.0324,0.013523,0.002678,0.000431,1.002633
5078000,0.0324,0.013523,0.002678,0.000431,1.124040
5079000,0.0324,0.013523,0.002678,0.000431,1.062807
5080000,0.0324,0.013523,0.002678,0.000431,1.136733
5081000,0.0324,0.013523,0.002678,0.000431,1.069389
5082000,0.0324,0.013523,0.002678,0.000431,1.064335
5083000,0.0324,0.013523,0.002678,0.000431,1.126038
5084000,0.0324,0.013523,0.002678,0.000431,1.104060
5085000,0.0324,0.013523,0.002678,0.000431,1.099829
5086000,0.0324,0.013523,0.002678,0.000431,1.097713
5087000,0.0324,0.013523,0.002678,0.000431,1.020850
5088000,0.0324,0.013523,0.002678,0.000431,1.099594
5089000,0.0324,0.013523,0.002678,0.000431,1.095245
5090000,0.0324,0.013523,0.002678,0.000431,1.011565
5091000,0.0324,0.013523,0.002678,0.000431,1.013916
5092000,0.0324,0.013523,0.002678,0.000431,1.183509
5093000,0.0324,0.013523,0.002678,0.000431,1.148838
5094000,0.0324,0.013523,0.002678,0.000431,1.106293
5095000,0.0324,0.013523,0.002678,0.000431,1.053170
5096000,0.0324,0.013523,0.002678,0.000431,1.057284
5097000,0.0324,0.013523,0.002678,0.000431,1.077733
5098000,0.0324,0.013523,0.002678,0.000431,1.074795
5099000,0.0324,0.013523,0.002678,0.000431,1.063277
5100000,0.0324,0.013523,0.002678,0.000431,1.081259
5101000,0.0324,0.013523,0.002678,0.000431,1.095715
5102000,0.0324,0.013523,0.002678,0.000431,1.118986
5103000,0.0324,0.013523,0.002678,0.000431,1.085020
5104000,0.0324,0.013523,0.002678,0.000431,1.104177
5105000,0.0324,0.013523,0.002678,0.000431,1.068566
5106000,0.0324,0.013523,0.002678,0.000431,1.096068
5107000,0.0324,0.013523,0.002678,0.000431,1.081024
5108000,0.0324,0.013523,0.002678,0.000431,1.035306
5109000,0.0324,0.013523,0.002678,0.000431,1.183626
5110000,0.0324,0.013523,0.002678,0.000431,1.078791
5111000,0.0324,0.013523,0.002678,0.000431,1.025904
5112000,0.0324,0.013523,0.002678,0.000431,1.063865
5113000,0.0324,0.013523,0.002678,0.000431,1.061867
5114000,0.0324,0.013523,0.002678,0.000431,1.049292
5115000,0.0324,0.013523,0.002678,0.000431,1.078321
5116000,0.0324,0.013523,0.002678,0.000431,1.120866
5117000,0.0324,0.013523,0.002678,0.000431,1.029664
5118000,0.0324,0.013523,0.002678,0.000431,1.007334
5119000,0.0324,0.013523,0.002678,0.000431,1.088781
5120000,0.0324,0.013523,0.002678,0.000431,1.070212
5121000,0.0324,0.013523,0.002678,0.000431,1.047411
5122000,0.0324,0.013523,0.002678,0.000431,1.009332
5123000,0.0324,0.013523,0.002678,0.000431,0.989705
5124000,0.0324,0.013523,0.002678,0.000431,0.990880
5125000,0.0324,0.013523,0.002678,0.000431,0.946807
5126000,0.0324,0.013523,0.002678,0.000431,0.939285
5127000,0.0324,0.013523,0.002678,0.000431,0.994641
5128000,0.0324,0.013523,0.002678,0.000431,0.990763
5129000,0.0324,0.013523,0.002678,0.000431,0.982065
5130000,0.0324,0.013523,0.002678,0.000431,1.012975
5131000,0.0324,0.013523,0.002678,0.000431,1.070329
5132000,0.0324,0.013523,0.002678,0.000431,0.937875
5133000,0.0324,0.013523,0.002678,0.000431,0.912841
5134000,0.0324,0.013523,0.002678,0.000431,1.061515
5135000,0.0324,0.013523,0.002678,0.000431,0.968315
5136000,0.0324,0.013523,0.002678,0.000431,0.970548
5137000,0.0324,0.013523,0.002678,0.000431,1.004983
5138000,0.0324,0.013523,0.002678,0.000431,1.026256
5139000,0.0324,0.013523,0.002678,0.000431,1.057989
5140000,0.0324,0.013523,0.002678,0.000431,0.944456
5141000,0.0324,0.013523,0.002678,0.000431,0.979832
5142000,0.0324,0.013523,0.002678,0.000431,1.036599
5143000,0.0324,0.013523,0.002678,0.000431,1.044003
5144000,0.0324,0.013523,0.002678,0.000431,0.969843
5145000,0.0324,0.013523,0.002678,0.000431,1.027549
5146000,0.0324,0.013523,0.002678,0.000431,1.064570
5147000,0.0324,0.013523,0.002678,0.000431,1.066098
5148000,0.0324,0.013523,0.002678,0.000431,1.079849
5149000,0.0324,0.013523,0.002678,0.000431,1.011800
5150000,0.0324,0.013523,0.002678,0.000431,1.166350
5151000,0.0324,0.013523,0.002678,0.000431,1.179395
5152000,0.0324,0.013523,0.002678,0.000431,1.129446
5153000,0.0324,0.013523,0.002678,0.000431,1.087841
5154000,0.0324,0.013523,0.002678,0.000431,0.997932
5155000,0.0324,0.013523,0.002678,0.000431,0.930001
5156000,0.0324,0.013523,0.002678,0.000431,1.037421
5157000,0.0324,0.013523,0.002678,0.000431,1.114520
5158000,0.0324,0.013523,0.002678,0.000431,1.091132
5159000,0.0324,0.013523,0.002678,0.000431,1.100769
5160000,0.0324,0.013523,0.002678,0.000431,1.106645
5161000,0.0324,0.013523,0.002678,0.000431,1.130739
5162000,0.0324,0.013523,0.002678,0.000431,1.106410
5163000,0.0324,0.013523,0.002678,0.000431,1.185389
5164000,0.0324,0.013523,0.002678,0.000431,1.139083
5165000,0.0324,0.013523,0.002678,0.000431,1.108173
5166000,0.0324,0.013523,0.002678,0.000431,1.104882
5167000,0.0324,0.013523,0.002678,0.000431,1.113109
5168000,0.0324,0.013523,0.002678,0.000431,1.083845
5169000,0.0324,0.013523,0.002678,0.000431,1.065158
5170000,0.0324,0.013523,0.002678,0.000431,1.001810
5171000,0.0324,0.013523,0.002678,0.000431,1.041300
5172000,0.0324,0.013523,0.002678,0.000431,1.161649
5173000,0.0324,0.013523,0.002678,0.000431,1.092072
5174000,0.0324,0.013523,0.002678,0.000431,1.109584
5175000,0.0324,0.013523,0.002678,0.000431,1.089956
5176000,0.0324,0.013523,0.002678,0.000431,1.136615
5177000,0.0324,0.013523,0.002678,0.000431,1.171168
5178000,0.0324,0.013523,0.002678,0.000431,1.125215
5179000,0.0324,0.013523,0.002678,0.000431,1.049174
5180000,0.0324,0.013523,0.002678,0.000431,1.120514
5181000,0.0324,0.013523,0.002678,0.000431,0.996169
5182000,0.0324,0.013523,0.002678,0.000431,0.990763
5183000,0.0324,0.013523,0.002678,0.000431,1.056343
5184000,0.0324,0.013523,0.002678,0.000431,0.986179
5185000,0.0324,0.013523,0.002678,0.000431,1.029077
5186000,0.0324,0.013523,0.002678,0.000431,1.033660
5187000,0.0324,0.013523,0.002678,0.000431,1.103590
5188000,0.0324,0.013523,0.002678,0.000431,1.137673
5189000,0.0324,0.013523,0.002678,0.000431,1.032015
5190000,0.0324,0.013523,0.002678,0.000431,1.137908
5191000,0.0324,0.013523,0.002678,0.000431,1.056813
5192000,0.0324,0.013523,0.002678,0.000431,1.079379
5193000,0.0324,0.013523,0.002678,0.000431,1.154479
5194000,0.0324,0.013523,0.002678,0.000431,1.023435
5195000,0.0324,0.013523,0.002678,0.000431,0.963026
5196000,0.0324,0.013523,0.002678,0.000431,1.056461
5197000,0.0324,0.013523,0.002678,0.000431,1.137790
5198000,0.0324,0.013523,0.002678,0.000431,1.096655
5199000,0.0324,0.013523,0.002678,0.000431,1.116283
5200000,0.0324,0.013523,0.002678,0.000431,1.017324
5201000,0.0324,0.013523,0.002678,0.000431,1.181511
5202000,0.0324,0.013523,0.002678,0.000431,1.057871
5203000,0.0324,0.013523,0.002678,0.000431,1.100534
5204000,0.0324,0.013523,0.002678,0.000431,1.057871
5205000,0.0324,0.013523,0.002678,0.000431,1.160708
5206000,0.0324,0.013523,0.002678,0.000431,1.157300
5207000,0.0324,0.013523,0.002678,0.000431,1.183509
5208000,0.0324,0.013523,0.002678,0.000431,1.110994
5209000,0.0324,0.013523,0.002678,0.000431,1.080554
5210000,0.0324,0.013523,0.002678,0.000431,1.128858
5211000,0.0324,0.013523,0.002678,0.000431,1.143079
5212000,0.0324,0.013523,0.002678,0.000431,1.136850
5213000,0.0324,0.013523,0.002678,0.000431,1.057519
5214000,0.0324,0.013523,0.002678,0.000431,1.131914
5215000,0.0324,0.013523,0.002678,0.000431,1.097713
5216000,0.0324,0.013523,0.002678,0.000431,1.119338
5217000,0.0324,0.013523,0.002678,0.000431,1.159651
5218000,0.0324,0.013523,0.002678,0.000431,1.167172
5219000,0.0324,0.013523,0.002678,0.000431,1.149661
5220000,0.0324,0.013523,0.002678,0.000431,1.076088
5221000,0.0324,0.013523,0.002678,0.000431,1.162706
5222000,0.0324,0.013523,0.002678,0.000431,1.166702
5223000,0.0324,0.013523,0.002678,0.000431,1.052112
5224000,0.0324,0.013523,0.002678,0.000431,1.194909
5225000,0.0324,0.013523,0.002678,0.000431,1.138966
5226000,0.0324,0.013523,0.002678,0.000431,1.154009
5227000,0.0324,0.013523,0.002678,0.000431,1.142962
5228000,0.0324,0.013523,0.002678,0.000431,1.109819
5229000,0.0324,0.013523,0.002678,0.000431,1.136733
5230000,0.0324,0.013523,0.002678,0.000431,1.071504
5231000,0.0324,0.013523,0.002678,0.000431,1.187387
5232000,0.0324,0.013523,0.002678,0.000431,1.066098
5233000,0.0324,0.013523,0.002678,0.000431,1.091132
5234000,0.0324,0.013523,0.002678,0.000431,1.180688
5235000,0.0324,0.013523,0.002678,0.000431,1.182569
5236000,0.0324,0.013523,0.002678,0.000431,1.014151
5237000,0.0324,0.013523,0.002678,0.000431,1.088781
5238000,0.0324,0.013523,0.002678,0.000431,1.193969
5239000,0.0324,0.013523,0.002678,0.000431,1.101004
5240000,0.0324,0.013523,0.002678,0.000431,1.060104
5241000,0.0324,0.013523,0.002678,0.000431,1.153304
5242000,0.0324,0.013523,0.002678,0.000431,1.097478
5243000,0.0324,0.013523,0.002678,0.000431,1.068919
5244000,0.0324,0.013523,0.002678,0.000431,1.003103
5245000,0.0324,0.013523,0.002678,0.000431,1.094893
5246000,0.0324,0.013523,0.002678,0.000431,1.071387
5247000,0.0324,0.013523,0.002678,0.000431,1.107468
5248000,0.0324,0.013523,0.002678,0.000431,1.024728
5249000,0.0324,0.013523,0.002678,0.000431,1.105235
5250000,0.0324,0.013523,0.002678,0.000431,1.025198
5251000,0.0324,0.013523,0.002678,0.000431,1.079614
5252000,0.0324,0.013523,0.002678,0.000431,1.063748
5253000,0.0324,0.013523,0.002678,0.000431,1.038597
5254000,0.0324,0.013523,0.002678,0.000431,1.002398
5255000,0.0324,0.013523,0.002678,0.000431,1.002398
5256000,0.0324,0.013523,0.002678,0.000431,1.081259
5257000,0.0324,0.013523,0.002678,0.000431,0.982418
5258000,0.0324,0.013523,0.002678,0.000431,1.061397
5259000,0.0324,0.013523,0.002678,0.000431,1.004866
5260000,0.0324,0.013523,0.002678,0.000431,0.955739
5261000,0.0324,0.013523,0.002678,0.000431,1.041065
5262000,0.0324,0.013523,0.002678,0.000431,0.954329
5263000,0.0324,0.013523,0.002678,0.000431,0.954329
5264000,0.0324,0.013523,0.002678,0.000431,1.002750
5265000,0.0324,0.013523,0.002678,0.000431,0.930941
5266000,0.0324,0.013523,0.002678,0.000431,1.021672
5267000,0.0324,0.013523,0.002678,0.000431,0.915545
5268000,0.0324,0.013523,0.002678,0.000431,0.926005
5269000,0.0324,0.013523,0.002678,0.000431,1.005454
5270000,0.0324,0.013523,0.002678,0.000431,0.929295
5271000,0.0324,0.013523,0.002678,0.000431,0.904144
5272000,0.0324,0.013523,0.002678,0.000431,0.943869
5273000,0.0324,0.013523,0.002678,0.000431,0.939873
5274000,0.0324,0.013523,0.002678,0.000431,0.855370
5275000,0.0324,0.013523,0.002678,0.000431,0.964671
5276000,0.0324,0.013523,0.002678,0.000431,0.899796
5277000,0.0324,0.013523,0.002678,0.000431,0.884870
5278000,0.0324,0.013523,0.002678,0.000431,0.914252
5279000,0.0324,0.013523,0.002678,0.000431,0.847026
5280000,0.0324,0.013523,0.002678,0.000431,0.875467
5281000,0.0324,0.013523,0.002678,0.000431,0.862187
5282000,0.0324,0.013523,0.002678,0.000431,0.853137
5283000,0.0324,0.013523,0.002678,0.000431,0.857368
5284000,0.0324,0.013523,0.002678,0.000431,0.857486
5285000,0.0324,0.013523,0.002678,0.000431,0.808946
5286000,0.0324,0.013523,0.002678,0.000431,0.817409
5287000,0.0324,0.013523,0.002678,0.000431,0.776156
5288000,0.0324,0.013523,0.002678,0.000431,0.803893
5289000,0.0324,0.013523,0.002678,0.000431,0.780975
5290000,0.0324,0.013523,0.002678,0.000431,0.772513
5291000,0.0324,0.013523,0.002678,0.000431,0.792493
5292000,0.0324,0.013523,0.002678,0.000431,0.783325
5293000,0.0324,0.013523,0.002678,0.000431,0.755706
5294000,0.0324,0.013523,0.002678,0.000431,0.747479
5295000,0.0324,0.013523,0.002678,0.000431,0.728910
5296000,0.0324,0.013523,0.002678,0.000431,0.736432
5297000,0.0324,0.013523,0.002678,0.000431,0.698117
5298000,0.0324,0.013523,0.002678,0.000431,0.706227
5299000,0.0324,0.013523,0.002678,0.000431,0.688128
5300000,0.0324,0.013523,0.002678,0.000431,0.715394
5301000,0.0324,0.013523,0.002678,0.000431,0.667913
5302000,0.0324,0.013523,0.002678,0.000431,0.675199
5303000,0.0324,0.013523,0.002678,0.000431,0.665210
5304000,0.0324,0.013523,0.002678,0.000431,0.654279
5305000,0.0324,0.013523,0.002678,0.000431,0.657218
5306000,0.0324,0.013523,0.002678,0.000431,0.654162
5307000,0.0324,0.013523,0.002678,0.000431,0.647580
5308000,0.0324,0.013523,0.002678,0.000431,0.609149
5309000,0.0324,0.013523,0.002678,0.000431,0.613145
5310000,0.0324,0.013523,0.002678,0.000431,0.591989
5311000,0.0324,0.013523,0.002678,0.000431,0.589756
5312000,0.0324,0.013523,0.002678,0.000431,0.558024
5313000,0.0324,0.013523,0.002678,0.000431,0.561197
5314000,0.0324,0.013523,0.002678,0.000431,0.538397
5315000,0.0324,0.013523,0.002678,0.000431,0.538867
5316000,0.0324,0.013523,0.002678,0.000431,0.520532
5317000,0.0324,0.013523,0.002678,0.000431,0.528407
5318000,0.0324,0.013523,0.002678,0.000431,0.503021
5319000,0.0324,0.013523,0.002678,0.000431,0.513128
5320000,0.0324,0.013523,0.002678,0.000431,0.484451
5321000,0.0324,0.013523,0.002678,0.000431,0.496792
5322000,0.0324,0.013523,0.002678,0.000431,0.458712
5323000,0.0324,0.013523,0.002678,0.000431,0.469408
5324000,0.0324,0.013523,0.002678,0.000431,0.447430
5325000,0.0324,0.013523,0.002678,0.000431,0.438145
5326000,0.0324,0.013523,0.002678,0.000431,0.426980
5327000,0.0324,0.013523,0.002678,0.000431,0.425452
5328000,0.0324,0.013523,0.002678,0.000431,0.420516
5329000,0.0324,0.013523,0.002678,0.000431,0.410526
5330000,0.0324,0.013523,0.002678,0.000431,0.387843
5331000,0.0324,0.013523,0.002678,0.000431,0.394307
5332000,0.0324,0.013523,0.002678,0.000431,0.389371
5333000,0.0324,0.013523,0.002678,0.000431,0.368803
5334000,0.0324,0.013523,0.002678,0.000431,0.372564
5335000,0.0324,0.013523,0.002678,0.000431,0.378088
5336000,0.0324,0.013523,0.002678,0.000431,0.359519
5337000,0.0324,0.013523,0.002678,0.000431,0.351409
5338000,0.0324,0.013523,0.002678,0.000431,0.348824
5339000,0.0324,0.013523,0.002678,0.000431,0.342125
5340000,0.0324,0.013523,0.002678,0.000431,0.336836
5341000,0.0324,0.013523,0.002678,0.000431,0.330019
5342000,0.0324,0.013523,0.002678,0.000431,0.327434
5343000,0.0324,0.013523,0.002678,0.000431,0.328139
5344000,0.0324,0.013523,0.002678,0.000431,0.322380
5345000,0.0324,0.013523,0.002678,0.000431,0.310862
5346000,0.0324,0.013523,0.002678,0.000431,0.313330
5347000,0.0324,0.013523,0.002678,0.000431,0.292645
5348000,0.0324,0.013523,0.002678,0.000431,0.294643
5349000,0.0324,0.013523,0.002678,0.000431,0.287591
5350000,0.0324,0.013523,0.002678,0.000431,0.282185
5351000,0.0324,0.013523,0.002678,0.000431,0.280422
5352000,0.0324,0.013523,0.002678,0.000431,0.276661
5353000,0.0324,0.013523,0.002678,0.000431,0.278894
5354000,0.0324,0.013523,0.002678,0.000431,0.270432
5355000,0.0324,0.013523,0.002678,0.000431,0.271725
5356000,0.0324,0.013523,0.002678,0.000431,0.264791
5357000,0.0324,0.013523,0.002678,0.000431,0.263733
5358000,0.0324,0.013523,0.002678,0.000431,0.258209
5359000,0.0324,0.013523,0.002678,0.000431,0.255036
5360000,0.0324,0.013523,0.002678,0.000431,0.250570
5361000,0.0324,0.013523,0.002678,0.000431,0.246104
5362000,0.0324,0.013523,0.002678,0.000431,0.243283
5363000,0.0324,0.013523,0.002678,0.000431,0.240580
5364000,0.0324,0.013523,0.002678,0.000431,0.233999
5365000,0.0324,0.013523,0.002678,0.000431,0.228122
5366000,0.0324,0.013523,0.002678,0.000431,0.218485
5367000,0.0324,0.013523,0.002678,0.000431,0.218132
5368000,0.0324,0.013523,0.002678,0.000431,0.211316
5369000,0.0324,0.013523,0.002678,0.000431,0.214489
5370000,0.0324,0.013523,0.002678,0.000431,0.202854
5371000,0.0324,0.013523,0.002678,0.000431,0.209200
5372000,0.0324,0.013523,0.002678,0.000431,0.200621
5373000,0.0324,0.013523,0.002678,0.000431,0.199798
5374000,0.0324,0.013523,0.002678,0.000431,0.197095
5375000,0.0324,0.013523,0.002678,0.000431,0.190513
5376000,0.0324,0.013523,0.002678,0.000431,0.190513
5377000,0.0324,0.013523,0.002678,0.000431,0.187340
5378000,0.0324,0.013523,0.002678,0.000431,0.188515
5379000,0.0324,0.013523,0.002678,0.000431,0.182286
5380000,0.0324,0.013523,0.002678,0.000431,0.183344
5381000,0.0324,0.013523,0.002678,0.000431,0.181581
5382000,0.0324,0.013523,0.002678,0.000431,0.179936
5383000,0.0324,0.013523,0.002678,0.000431,0.174882
5384000,0.0324,0.013523,0.002678,0.000431,0.167830
5385000,0.0324,0.013523,0.002678,0.000431,0.169358
5386000,0.0324,0.013523,0.002678,0.000431,0.169593
5387000,0.0324,0.013523,0.002678,0.000431,0.161601
5388000,0.0324,0.013523,0.002678,0.000431,0.154079
5389000,0.0324,0.013523,0.002678,0.000431,0.163012
5390000,0.0324,0.013523,0.002678,0.000431,0.161249
5391000,0.0324,0.013523,0.002678,0.000431,0.155255
5392000,0.0324,0.013523,0.002678,0.000431,0.157723
5393000,0.0324,0.013523,0.002678,0.000431,0.152434
5394000,0.0324,0.013523,0.002678,0.000431,0.151259
5395000,0.0324,0.013523,0.002678,0.000431,0.147968
5396000,0.0324,0.013523,0.002678,0.000431,0.144207
5397000,0.0324,0.013523,0.002678,0.000431,0.141504
5398000,0.0324,0.013523,0.002678,0.000431,0.136803
5399000,0.0324,0.013523,0.002678,0.000431,0.133630
5400000,0.0324,0.013523,0.002678,0.000431,0.131867
5401000,0.0324,0.013523,0.002678,0.000431,0.128458
5402000,0.0324,0.013523,0.002678,0.000431,0.129986
5403000,0.0324,0.013523,0.002678,0.000431,0.126108
5404000,0.0324,0.013523,0.002678,0.000431,0.125755
5405000,0.0324,0.013523,0.002678,0.000431,0.125168
5406000,0.0324,0.013523,0.002678,0.000431,0.119409
5407000,0.0324,0.013523,0.002678,0.000431,0.118821
5408000,0.0324,0.013523,0.002678,0.000431,0.117528
5409000,0.0324,0.013523,0.002678,0.000431,0.115530
5410000,0.0324,0.013523,0.002678,0.000431,0.112474
5411000,0.0324,0.013523,0.002678,0.000431,0.110241
5412000,0.0324,0.013523,0.002678,0.000431,0.111534
5413000,0.0324,0.013523,0.002678,0.000431,0.114708
5414000,0.0324,0.013523,0.002678,0.000431,0.110947
5415000,0.0324,0.013523,0.002678,0.000431,0.104600
5416000,0.0324,0.013523,0.002678,0.000431,0.101544
5417000,0.0324,0.013523,0.002678,0.000431,0.101779
5418000,0.0324,0.013523,0.002678,0.000431,0.103660
5419000,0.0324,0.013523,0.002678,0.000431,0.106598
5420000,0.0324,0.013523,0.002678,0.000431,0.106716
5421000,0.0324,0.013523,0.002678,0.000431,0.103072
5422000,0.0324,0.013523,0.002678,0.000431,0.096843
5423000,0.0324,0.013523,0.002678,0.000431,0.102367
5424000,0.0324,0.013523,0.002678,0.000431,0.095080
5425000,0.0324,0.013523,0.002678,0.000431,0.094140
5426000,0.0324,0.013523,0.002678,0.000431,0.092730
5427000,0.0324,0.013523,0.002678,0.000431,0.090497
5428000,0.0324,0.013523,0.002678,0.000431,0.096138
5429000,0.0324,0.013523,0.002678,0.000431,0.091202
5430000,0.0324,0.013523,0.002678,0.000431,0.090849
5431000,0.0324,0.013523,0.002678,0.000431,0.090967
5432000,0.0324,0.013523,0.002678,0.000431,0.090849
5433000,0.0324,0.013523,0.002678,0.000431,0.089204
5434000,0.0324,0.013523,0.002678,0.000431,0.088029
5435000,0.0324,0.013523,0.002678,0.000431,0.087088
5436000,0.0324,0.013523,0.002678,0.000431,0.088969
5437000,0.0324,0.013523,0.002678,0.000431,0.089204
5438000,0.0324,0.013523,0.002678,0.000431,0.084503
5439000,0.0324,0.013523,0.002678,0.000431,0.080742
5440000,0.0324,0.013523,0.002678,0.000431,0.079919
5441000,0.0324,0.013523,0.002678,0.000431,0.074748
5442000,0.0324,0.013523,0.002678,0.000431,0.079332
5443000,0.0324,0.013523,0.002678,0.000431,0.080977
5444000,0.0324,0.013523,0.002678,0.000431,0.074748
5445000,0.0324,0.013523,0.002678,0.000431,0.074983
5446000,0.0324,0.013523,0.002678,0.000431,0.073573
5447000,0.0324,0.013523,0.002678,0.000431,0.072985
5448000,0.0324,0.013523,0.002678,0.000431,0.071810
5449000,0.0324,0.013523,0.002678,0.000431,0.071810
5450000,0.0324,0.013523,0.002678,0.000431,0.068754
5451000,0.0324,0.013523,0.002678,0.000431,0.065933
5452000,0.0324,0.013523,0.002678,0.000431,0.070634
5453000,0.0324,0.013523,0.002678,0.000431,0.068401
5454000,0.0324,0.013523,0.002678,0.000431,0.065581
5455000,0.0324,0.013523,0.002678,0.000431,0.069107
5456000,0.0324,0.013523,0.002678,0.000431,0.069107
5457000,0.0324,0.013523,0.002678,0.000431,0.065228
5458000,0.0324,0.013523,0.002678,0.000431,0.066403
5459000,0.0324,0.013523,0.002678,0.000431,0.067461
5460000,0.0324,0.013523,0.002678,0.000431,0.066521
5461000,0.0324,0.013523,0.002678,0.000431,0.062055
5462000,0.0324,0.013523,0.002678,0.000431,0.065111
5463000,0.0324,0.013523,0.002678,0.000431,0.065698
5464000,0.0324,0.013523,0.002678,0.000431,0.063465
5465000,0.0324,0.013523,0.002678,0.000431,0.062878
5466000,0.0324,0.013523,0.002678,0.000431,0.061467
5467000,0.0324,0.013523,0.002678,0.000431,0.060292
5468000,0.0324,0.013523,0.002678,0.000431,0.060057
5469000,0.0324,0.013523,0.002678,0.000431,0.060527
5470000,0.0324,0.013523,0.002678,0.000431,0.057236
5471000,0.0324,0.013523,0.002678,0.000431,0.060762
5472000,0.0324,0.013523,0.002678,0.000431,0.056531
5473000,0.0324,0.013523,0.002678,0.000431,0.058529
5474000,0.0324,0.013523,0.002678,0.000431,0.057354
5475000,0.0324,0.013523,0.002678,0.000431,0.055003
5476000,0.0324,0.013523,0.002678,0.000431,0.053710
5477000,0.0324,0.013523,0.002678,0.000431,0.053240
5478000,0.0324,0.013523,0.002678,0.000431,0.051477
5479000,0.0324,0.013523,0.002678,0.000431,0.050890
5480000,0.0324,0.013523,0.002678,0.000431,0.050185
5481000,0.0324,0.013523,0.002678,0.000431,0.048422
5482000,0.0324,0.013523,0.002678,0.000431,0.051125
5483000,0.0324,0.013523,0.002678,0.000431,0.051125
5484000,0.0324,0.013523,0.002678,0.000431,0.050067
5485000,0.0324,0.013523,0.002678,0.000431,0.047951
5486000,0.0324,0.013523,0.002678,0.000431,0.049009
5487000,0.0324,0.013523,0.002678,0.000431,0.049479
5488000,0.0324,0.013523,0.002678,0.000431,0.049949
5489000,0.0324,0.013523,0.002678,0.000431,0.049127
5490000,0.0324,0.013523,0.002678,0.000431,0.048422
5491000,0.0324,0.013523,0.002678,0.000431,0.048304
5492000,0.0324,0.013523,0.002678,0.000431,0.045718
5493000,0.0324,0.013523,0.002678,0.000431,0.044778
5494000,0.0324,0.013523,0.002678,0.000431,0.048422
5495000,0.0324,0.013523,0.002678,0.000431,0.045718
5496000,0.0324,0.013523,0.002678,0.000431,0.041252
5497000,0.0324,0.013523,0.002678,0.000431,0.042780
5498000,0.0324,0.013523,0.002678,0.000431,0.044426
5499000,0.0324,0.013523,0.002678,0.000431,0.041723
5500000,0.0324,0.013523,0.002678,0.000431,0.042310
5501000,0.0324,0.013523,0.002678,0.000431,0.040195
5502000,0.0324,0.013523,0.002678,0.000431,0.041840
5503000,0.0324,0.013523,0.002678,0.000431,0.039372
5504000,0.0324,0.013523,0.002678,0.000431,0.040312
5505000,0.0324,0.013523,0.002678,0.000431,0.039842
5506000,0.0324,0.013523,0.002678,0.000431,0.040195
5507000,0.0324,0.013523,0.002678,0.000431,0.041958
5508000,0.0324,0.013523,0.002678,0.000431,0.040547
5509000,0.0324,0.013523,0.002678,0.000431,0.038549
5510000,0.0324,0.013523,0.002678,0.000431,0.038667
5511000,0.0324,0.013523,0.002678,0.000431,0.038079
5512000,0.0324,0.013523,0.002678,0.000431,0.037374
5513000,0.0324,0.013523,0.002678,0.000431,0.036904
5514000,0.0324,0.013523,0.002678,0.000431,0.039489
5515000,0.0324,0.013523,0.002678,0.000431,0.037491
5516000,0.0324,0.013523,0.002678,0.000431,0.037491
5517000,0.0324,0.013523,0.002678,0.000431,0.036904
5518000,0.0324,0.013523,0.002678,0.000431,0.035846
5519000,0.0324,0.013523,0.002678,0.000431,0.034318
5520000,0.0324,0.013523,0.002678,0.000431,0.034553
5521000,0.0324,0.013523,0.002678,0.000431,0.032790
5522000,0.0324,0.013523,0.002678,0.000431,0.033966
5523000,0.0324,0.013523,0.002678,0.000431,0.035494
5524000,0.0324,0.013523,0.002678,0.000431,0.035729
5525000,0.0324,0.013523,0.002678,0.000431,0.034671
5526000,0.0324,0.013523,0.002678,0.000431,0.033966
5527000,0.0324,0.013523,0.002678,0.000431,0.035141
5528000,0.0324,0.013523,0.002678,0.000431,0.034436
5529000,0.0324,0.013523,0.002678,0.000431,0.033143
5530000,0.0324,0.013523,0.002678,0.000431,0.032438
5531000,0.0324,0.013523,0.002678,0.000431,0.034436
5532000,0.0324,0.013523,0.002678,0.000431,0.031262
5533000,0.0324,0.013523,0.002678,0.000431,0.030440
5534000,0.0324,0.013523,0.002678,0.000431,0.032320
5535000,0.0324,0.013523,0.002678,0.000431,0.031850
5536000,0.0324,0.013523,0.002678,0.000431,0.030205
5537000,0.0324,0.013523,0.002678,0.000431,0.028089
5538000,0.0324,0.013523,0.002678,0.000431,0.029265
5539000,0.0324,0.013523,0.002678,0.000431,0.031027
5540000,0.0324,0.013523,0.002678,0.000431,0.029029
5541000,0.0324,0.013523,0.002678,0.000431,0.029265
5542000,0.0324,0.013523,0.002678,0.000431,0.027854
5543000,0.0324,0.013523,0.002678,0.000431,0.029265
5544000,0.0324,0.013523,0.002678,0.000431,0.027619
5545000,0.0324,0.013523,0.002678,0.000431,0.028089
5546000,0.0324,0.013523,0.002678,0.000431,0.026444
5547000,0.0324,0.013523,0.002678,0.000431,0.024211
5548000,0.0324,0.013523,0.002678,0.000431,0.025504
5549000,0.0324,0.013523,0.002678,0.000431,0.025739
5550000,0.0324,0.013523,0.002678,0.000431,0.024211
5551000,0.0324,0.013523,0.002678,0.000431,0.025739
5552000,0.0324,0.013523,0.002678,0.000431,0.022800
5553000,0.0324,0.013523,0.002678,0.000431,0.025856
5554000,0.0324,0.013523,0.002678,0.000431,0.023036
5555000,0.0324,0.013523,0.002678,0.000431,0.024211
5556000,0.0324,0.013523,0.002678,0.000431,0.023036
5557000,0.0324,0.013523,0.002678,0.000431,0.023271
5558000,0.0324,0.013523,0.002678,0.000431,0.023506
5559000,0.0324,0.013523,0.002678,0.000431,0.023858
5560000,0.0324,0.013523,0.002678,0.000431,0.024211
5561000,0.0324,0.013523,0.002678,0.000431,0.022565
5562000,0.0324,0.013523,0.002678,0.000431,0.022095
5563000,0.0324,0.013523,0.002678,0.000431,0.021155
5564000,0.0324,0.013523,0.002678,0.000431,0.020567
5565000,0.0324,0.013523,0.002678,0.000431,0.021860
5566000,0.0324,0.013523,0.002678,0.000431,0.021508
5567000,0.0324,0.013523,0.002678,0.000431,0.022095
5568000,0.0324,0.013523,0.002678,0.000431,0.022918
5569000,0.0324,0.013523,0.002678,0.000431,0.022565
5570000,0.0324,0.013523,0.002678,0.000431,0.021038
5571000,0.0324,0.013523,0.002678,0.000431,0.019627
5572000,0.0324,0.013523,0.002678,0.000431,0.019627
5573000,0.0324,0.013523,0.002678,0.000431,0.018452
5574000,0.0324,0.013523,0.002678,0.000431,0.020215
5575000,0.0324,0.013523,0.002678,0.000431,0.019510
5576000,0.0324,0.013523,0.002678,0.000431,0.019157
5577000,0.0324,0.013523,0.002678,0.000431,0.018334
5578000,0.0324,0.013523,0.002678,0.000431,0.019157
5579000,0.0324,0.013523,0.002678,0.000431,0.018687
5580000,0.0324,0.013523,0.002678,0.000431,0.018099
5581000,0.0324,0.013523,0.002678,0.000431,0.018922
5582000,0.0324,0.013523,0.002678,0.000431,0.019392
5583000,0.0324,0.013523,0.002678,0.000431,0.017629
5584000,0.0324,0.013523,0.002678,0.000431,0.019862
5585000,0.0324,0.013523,0.002678,0.000431,0.020215
5586000,0.0324,0.013523,0.002678,0.000431,0.017159
5587000,0.0324,0.013523,0.002678,0.000431,0.018452
5588000,0.0324,0.013523,0.002678,0.000431,0.019392
5589000,0.0324,0.013523,0.002678,0.000431,0.017159
5590000,0.0324,0.013523,0.002678,0.000431,0.018687
5591000,0.0324,0.013523,0.002678,0.000431,0.018217
5592000,0.0324,0.013523,0.002678,0.000431,0.017747
5593000,0.0324,0.013523,0.002678,0.000431,0.018217
5594000,0.0324,0.013523,0.002678,0.000431,0.018217
5595000,0.0324,0.013523,0.002678,0.000431,0.018217
5596000,0.0324,0.013523,0.002678,0.000431,0.017747
5597000,0.0324,0.013523,0.002678,0.000431,0.018334
5598000,0.0324,0.013523,0.002678,0.000431,0.015631
5599000,0.0324,0.013523,0.002678,0.000431,0.017864
5600000,0.0324,0.013523,0.002678,0.000431,0.016924
5601000,0.0324,0.013523,0.002678,0.000431,0.018217
5602000,0.0324,0.013523,0.002678,0.000431,0.017512
5603000,0.0324,0.013523,0.002678,0.000431,0.018687
5604000,0.0324,0.013523,0.002678,0.000431,0.017277
5605000,0.0324,0.013523,0.002678,0.000431,0.016924
5606000,0.0324,0.013523,0.002678,0.000431,0.017747
5607000,0.0324,0.013523,0.002678,0.000431,0.016571
5608000,0.0324,0.013523,0.002678,0.000431,0.018687
5609000,0.0324,0.013523,0.002678,0.000431,0.017394
5610000,0.0324,0.013523,0.002678,0.000431,0.015631
5611000,0.0324,0.013523,0.002678,0.000431,0.016924
5612000,0.0324,0.013523,0.002678,0.000431,0.016807
5613000,0.0324,0.013523,0.002678,0.000431,0.017512
5614000,0.0324,0.013523,0.002678,0.000431,0.016336
5615000,0.0324,0.013523,0.002678,0.000431,0.016689
5616000,0.0324,0.013523,0.002678,0.000431,0.016571
5617000,0.0324,0.013523,0.002678,0.000431,0.016219
5618000,0.0324,0.013523,0.002678,0.000431,0.015161
5619000,0.0324,0.013523,0.002678,0.000431,0.013281
5620000,0.0324,0.013523,0.002678,0.000431,0.015044
5621000,0.0324,0.013523,0.002678,0.000431,0.013046
5622000,0.0324,0.013523,0.002678,0.000431,0.012928
5623000,0.0324,0.013523,0.002678,0.000431,0.013281
5624000,0.0324,0.013523,0.002678,0.000431,0.012693
5625000,0.0324,0.013523,0.002678,0.000431,0.013398
5626000,0.0324,0.013523,0.002678,0.000431,0.013046
5627000,0.0324,0.013523,0.002678,0.000431,0.011988
5628000,0.0324,0.013523,0.002678,0.000431,0.012223
5629000,0.0324,0.013523,0.002678,0.000431,0.013046
5630000,0.0324,0.013523,0.002678,0.000431,0.012576
5631000,0.0324,0.013523,0.002678,0.000431,0.012693
5632000,0.0324,0.013523,0.002678,0.000431,0.011753
5633000,0.0324,0.013523,0.002678,0.000431,0.013633
5634000,0.0324,0.013523,0.002678,0.000431,0.011870
5635000,0.0324,0.013523,0.002678,0.000431,0.010695
5636000,0.0324,0.013523,0.002678,0.000431,0.011870
5637000,0.0324,0.013523,0.002678,0.000431,0.011400
5638000,0.0324,0.013523,0.002678,0.000431,0.012223
5639000,0.0324,0.013523,0.002678,0.000431,0.012811
5640000,0.0324,0.013523,0.002678,0.000431,0.011518
5641000,0.0324,0.013523,0.002678,0.000431,0.011283
5642000,0.0324,0.013523,0.002678,0.000431,0.011988
5643000,0.0324,0.013523,0.002678,0.000431,0.011635
5644000,0.0324,0.013523,0.002678,0.000431,0.010813
5645000,0.0324,0.013523,0.002678,0.000431,0.010342
5646000,0.0324,0.013523,0.002678,0.000431,0.010107
5647000,0.0324,0.013523,0.002678,0.000431,0.008932
5648000,0.0324,0.013523,0.002678,0.000431,0.010930
5649000,0.0324,0.013523,0.002678,0.000431,0.010578
5650000,0.0324,0.013523,0.002678,0.000431,0.009050
5651000,0.0324,0.013523,0.002678,0.000431,0.010107
5652000,0.0324,0.013523,0.002678,0.000431,0.010225
5653000,0.0324,0.013523,0.002678,0.000431,0.010460
5654000,0.0324,0.013523,0.002678,0.000431,0.010107
5655000,0.0324,0.013523,0.002678,0.000431,0.009637
5656000,0.0324,0.013523,0.002678,0.000431,0.010578
5657000,0.0324,0.013523,0.002678,0.000431,0.010578
5658000,0.0324,0.013523,0.002678,0.000431,0.010342
5659000,0.0324,0.013523,0.002678,0.000431,0.009637
5660000,0.0324,0.013523,0.002678,0.000431,0.010578
5661000,0.0324,0.013523,0.002678,0.000431,0.010342
5662000,0.0324,0.013523,0.002678,0.000431,0.009872
5663000,0.0324,0.013523,0.002678,0.000431,0.010813
5664000,0.0324,0.013523,0.002678,0.000431,0.010107
5665000,0.0324,0.013523,0.002678,0.000431,0.010460
5666000,0.0324,0.013523,0.002678,0.000431,0.011048
5667000,0.0324,0.013523,0.002678,0.000431,0.010930
5668000,0.0324,0.013523,0.002678,0.000431,0.011400
5669000,0.0324,0.013523,0.002678,0.000431,0.010225
5670000,0.0324,0.013523,0.002678,0.000431,0.011283
5671000,0.0324,0.013523,0.002678,0.000431,0.009872
5672000,0.0324,0.013523,0.002678,0.000431,0.009637
5673000,0.0324,0.013523,0.002678,0.000431,0.010578
5674000,0.0324,0.013523,0.002678,0.000431,0.009285
5675000,0.0324,0.013523,0.002678,0.000431,0.008932
5676000,0.0324,0.013523,0.002678,0.000431,0.009637
5677000,0.0324,0.013523,0.002678,0.000431,0.007874
5678000,0.0324,0.013523,0.002678,0.000431,0.007169
5679000,0.0324,0.013523,0.002678,0.000431,0.007287
5680000,0.0324,0.013523,0.002678,0.000431,0.007522
5681000,0.0324,0.013523,0.002678,0.000431,0.007404
5682000,0.0324,0.013523,0.002678,0.000431,0.007992
5683000,0.0324,0.013523,0.002678,0.000431,0.007287
5684000,0.0324,0.013523,0.002678,0.000431,0.007639
5685000,0.0324,0.013523,0.002678,0.000431,0.008109
5686000,0.0324,0.013523,0.002678,0.000431,0.007052
5687000,0.0324,0.013523,0.002678,0.000431,0.007639
5688000,0.0324,0.013523,0.002678,0.000431,0.007874
5689000,0.0324,0.013523,0.002678,0.000431,0.007404
5690000,0.0324,0.013523,0.002678,0.000431,0.006464
5691000,0.0324,0.013523,0.002678,0.000431,0.006464
5692000,0.0324,0.013523,0.002678,0.000431,0.006111
5693000,0.0324,0.013523,0.002678,0.000431,0.007169
5694000,0.0324,0.013523,0.002678,0.000431,0.006111
5695000,0.0324,0.013523,0.002678,0.000431,0.005406
5696000,0.0324,0.013523,0.002678,0.000431,0.006699
5697000,0.0324,0.013523,0.002678,0.000431,0.006817
5698000,0.0324,0.013523,0.002678,0.000431,0.006111
5699000,0.0324,0.013523,0.002678,0.000431,0.005289
5700000,0.0324,0.013523,0.002678,0.000431,0.005054
5701000,0.0324,0.013523,0.002678,0.000431,0.005289
5702000,0.0324,0.013523,0.002678,0.000431,0.004701
5703000,0.0324,0.013523,0.002678,0.000431,0.004466
5704000,0.0324,0.013523,0.002678,0.000431,0.004936
5705000,0.0324,0.013523,0.002678,0.000431,0.004936
5706000,0.0324,0.013523,0.002678,0.000431,0.005406
5707000,0.0324,0.013523,0.002678,0.000431,0.004936
5708000,0.0324,0.013523,0.002678,0.000431,0.005171
5709000,0.0324,0.013523,0.002678,0.000431,0.005054
5710000,0.0324,0.013523,0.002678,0.000431,0.004466
5711000,0.0324,0.013523,0.002678,0.000431,0.004349
5712000,0.0324,0.013523,0.002678,0.000431,0.003996
5713000,0.0324,0.013523,0.002678,0.000431,0.003878
5714000,0.0324,0.013523,0.002678,0.000431,0.004701
5715000,0.0324,0.013523,0.002678,0.000431,0.003291
5716000,0.0324,0.013523,0.002678,0.000431,0.003878
5717000,0.0324,0.013523,0.002678,0.000431,0.003643
5718000,0.0324,0.013523,0.002678,0.000431,0.003996
5719000,0.0324,0.013523,0.002678,0.000431,0.004231
5720000,0.0324,0.013523,0.002678,0.000431,0.003643
5721000,0.0324,0.013523,0.002678,0.000431,0.004113
5722000,0.0324,0.013523,0.002678,0.000431,0.003526
5723000,0.0324,0.013523,0.002678,0.000431,0.003408
5724000,0.0324,0.013523,0.002678,0.000431,0.003996
5725000,0.0324,0.013523,0.002678,0.000431,0.003643
5726000,0.0324,0.013523,0.002678,0.000431,0.003996
5727000,0.0324,0.013523,0.002678,0.000431,0.004349
5728000,0.0324,0.013523,0.002678,0.000431,0.004113
5729000,0.0324,0.013523,0.002678,0.000431,0.003643
5730000,0.0324,0.013523,0.002678,0.000431,0.004584
5731000,0.0324,0.013523,0.002678,0.000431,0.003643
5732000,0.0324,0.013523,0.002678,0.000431,0.004231
5733000,0.0324,0.013523,0.002678,0.000431,0.003408
5734000,0.0324,0.013523,0.002678,0.000431,0.004466
5735000,0.0324,0.013523,0.002678,0.000431,0.003291
5736000,0.0324,0.013523,0.002678,0.000431,0.003408
5737000,0.0324,0.013523,0.002678,0.000431,0.003173
5738000,0.0324,0.013523,0.002678,0.000431,0.003173
5739000,0.0324,0.013523,0.002678,0.000431,0.003291
5740000,0.0324,0.013523,0.002678,0.000431,0.002938
5741000,0.0324,0.013523,0.002678,0.000431,0.003526
5742000,0.0324,0.013523,0.002678,0.000431,0.003643
5743000,0.0324,0.013523,0.002678,0.000431,0.003173
5744000,0.0324,0.013523,0.002678,0.000431,0.002703
5745000,0.0324,0.013523,0.002678,0.000431,0.003056
5746000,0.0324,0.013523,0.002678,0.000431,0.003408
5747000,0.0324,0.013523,0.002678,0.000431,0.003643
5748000,0.0324,0.013523,0.002678,0.000431,0.003408
5749000,0.0324,0.013523,0.002678,0.000431,0.003291
5750000,0.0324,0.013523,0.002678,0.000431,0.003408
5751000,0.0324,0.013523,0.002678,0.000431,0.003291
5752000,0.0324,0.013523,0.002678,0.000431,0.003173
5753000,0.0324,0.013523,0.002678,0.000431,0.003056
5754000,0.0324,0.013523,0.002678,0.000431,0.003056
5755000,0.0324,0.013523,0.002678,0.000431,0.002703
5756000,0.0324,0.013523,0.002678,0.000431,0.003173
5757000,0.0324,0.013523,0.002678,0.000431,0.003291
5758000,0.0324,0.013523,0.002678,0.000431,0.003408
5759000,0.0324,0.013523,0.002678,0.000431,0.003173
5760000,0.0324,0.013523,0.002678,0.000431,0.002938
5761000,0.0324,0.013523,0.002678,0.000431,0.003526
5762000,0.0324,0.013523,0.002678,0.000431,0.003761
5763000,0.0324,0.013523,0.002678,0.000431,0.002938
5764000,0.0324,0.013523,0.002678,0.000431,0.002468
5765000,0.0324,0.013523,0.002678,0.000431,0.003291
5766000,0.0324,0.013523,0.002678,0.000431,0.003291
5767000,0.0324,0.013523,0.002678,0.000431,0.003408
5768000,0.0324,0.013523,0.002678,0.000431,0.003173
5769000,0.0324,0.013523,0.002678,0.000431,0.003056
5770000,0.0324,0.013523,0.002678,0.000431,0.003291
5771000,0.0324,0.013523,0.002678,0.000431,0.003173
5772000,0.0324,0.013523,0.002678,0.000431,0.003291
5773000,0.0324,0.013523,0.002678,0.000431,0.003173
5774000,0.0324,0.013523,0.002678,0.000431,0.003526
5775000,0.0324,0.013523,0.002678,0.000431,0.003291
5776000,0.0324,0.013523,0.002678,0.000431,0.002938
5777000,0.0324,0.013523,0.002678,0.000431,0.003408
5778000,0.0324,0.013523,0.002678,0.000431,0.002938
5779000,0.0324,0.013523,0.002678,0.000431,0.002703
5780000,0.0324,0.013523,0.002678,0.000431,0.003408
5781000,0.0324,0.013523,0.002678,0.000431,0.002821
5782000,0.0324,0.013523,0.002678,0.000431,0.003408
5783000,0.0324,0.013523,0.002678,0.000431,0.003291
5784000,0.0324,0.013523,0.002678,0.000431,0.003056
5785000,0.0324,0.013523,0.002678,0.000431,0.003526
5786000,0.0324,0.013523,0.002678,0.000431,0.003056
5787000,0.0324,0.013523,0.002678,0.000431,0.003291
5788000,0.0324,0.013523,0.002678,0.000431,0.003173
5789000,0.0324,0.013523,0.002678,0.000431,0.003173
5790000,0.0324,0.013523,0.002678,0.000431,0.003291
5791000,0.0324,0.013523,0.002678,0.000431,0.003291
5792000,0.0324,0.013523,0.002678,0.000431,0.003173
5793000,0.0324,0.013523,0.002678,0.000431,0.002703
5794000,0.0324,0.013523,0.002678,0.000431,0.002938
5795000,0.0324,0.013523,0.002678,0.000431,0.003526
5796000,0.0324,0.013523,0.002678,0.000431,0.002821
5797000,0.0324,0.013523,0.002678,0.000431,0.003408
5798000,0.0324,0.013523,0.002678,0.000431,0.002938
5799000,0.0324,0.013523,0.002678,0.000431,0.003408
5800000,0.0324,0.013523,0.002678,0.000431,0.003291
5801000,0.0324,0.013523,0.002678,0.000431,0.003173
5802000,0.0324,0.013523,0.002678,0.000431,0.003173
5803000,0.0324,0.013523,0.002678,0.000431,0.003291
5804000,0.0324,0.013523,0.002678,0.000431,0.002351
5805000,0.0324,0.013523,0.002678,0.000431,0.002468
5806000,0.0324,0.013523,0.002678,0.000431,0.002233
5807000,0.0324,0.013523,0.002678,0.000431,0.001880
5808000,0.0324,0.013523,0.002678,0.000431,0.002351
5809000,0.0324,0.013523,0.002678,0.000431,0.001880
5810000,0.0324,0.013523,0.002678,0.000431,0.001763
5811000,0.0324,0.013523,0.002678,0.000431,0.002468
5812000,0.0324,0.013523,0.002678,0.000431,0.002351
5813000,0.0324,0.013523,0.002678,0.000431,0.002821
5814000,0.0324,0.013523,0.002678,0.000431,0.001998
5815000,0.0324,0.013523,0.002678,0.000431,0.002233
5816000,0.0324,0.013523,0.002678,0.000431,0.001998
5817000,0.0324,0.013523,0.002678,0.000431,0.002233
5818000,0.0324,0.013523,0.002678,0.000431,0.002233
5819000,0.0324,0.013523,0.002678,0.000431,0.001880
5820000,0.0324,0.013523,0.002678,0.000431,0.002351
5821000,0.0324,0.013523,0.002678,0.000431,0.001880
5822000,0.0324,0.013523,0.002678,0.000431,0.001880
5823000,0.0324,0.013523,0.002678,0.000431,0.002233
5824000,0.0324,0.013523,0.002678,0.000431,0.001528
5825000,0.0324,0.013523,0.002678,0.000431,0.002116
5826000,0.0324,0.013523,0.002678,0.000431,0.001998
5827000,0.0324,0.013523,0.002678,0.000431,0.001998
5828000,0.0324,0.013523,0.002678,0.000431,0.002116
5829000,0.0324,0.013523,0.002678,0.000431,0.002468
5830000,0.0324,0.013523,0.002678,0.000431,0.001998
5831000,0.0324,0.013523,0.002678,0.000431,0.001880
5832000,0.0324,0.013523,0.002678,0.000431,0.002468
5833000,0.0324,0.013523,0.002678,0.000431,0.001645
5834000,0.0324,0.013523,0.002678,0.000431,0.002703
5835000,0.0324,0.013523,0.002678,0.000431,0.002351
5836000,0.0324,0.013523,0.002678,0.000431,0.002233
5837000,0.0324,0.013523,0.002678,0.000431,0.002703
5838000,0.0324,0.013523,0.002678,0.000431,0.001998
5839000,0.0324,0.013523,0.002678,0.000431,0.001998
5840000,0.0324,0.013523,0.002678,0.000431,0.002233
5841000,0.0324,0.013523,0.002678,0.000431,0.002468
5842000,0.0324,0.013523,0.002678,0.000431,0.001880
5843000,0.0324,0.013523,0.002678,0.000431,0.002116
5844000,0.0324,0.013523,0.002678,0.000431,0.002703
5845000,0.0324,0.013523,0.002678,0.000431,0.002351
5846000,0.0324,0.013523,0.002678,0.000431,0.002233
5847000,0.0324,0.013523,0.002678,0.000431,0.002116
5848000,0.0324,0.013523,0.002678,0.000431,0.002233
5849000,0.0324,0.013523,0.002678,0.000431,0.001998
5850000,0.0324,0.013523,0.002678,0.000431,0.002233
5851000,0.0324,0.013523,0.002678,0.000431,0.001763
5852000,0.0324,0.013523,0.002678,0.000431,0.002351
5853000,0.0324,0.013523,0.002678,0.000431,0.001645
5854000,0.0324,0.013523,0.002678,0.000431,0.002233
5855000,0.0324,0.013523,0.002678,0.000431,0.001880
5856000,0.0324,0.013523,0.002678,0.000431,0.001998
5857000,0.0324,0.013523,0.002678,0.000431,0.002351
5858000,0.0324,0.013523,0.002678,0.000431,0.001998
5859000,0.0324,0.013523,0.002678,0.000431,0.001998
5860000,0.0324,0.013523,0.002678,0.000431,0.002116
5861000,0.0324,0.013523,0.002678,0.000431,0.002116
5862000,0.0324,0.013523,0.002678,0.000431,0.002116
5863000,0.0324,0.013523,0.002678,0.000431,0.002351
5864000,0.0324,0.013523,0.002678,0.000431,0.002351
5865000,0.0324,0.013523,0.002678,0.000431,0.002116
5866000,0.0324,0.013523,0.002678,0.000431,0.002116
5867000,0.0324,0.013523,0.002678,0.000431,0.002233
5868000,0.0324,0.013523,0.002678,0.000431,0.002116
5869000,0.0324,0.013523,0.002678,0.000431,0.001998
5870000,0.0324,0.013523,0.002678,0.000431,0.002233
5871000,0.0324,0.013523,0.002678,0.000431,0.002116
5872000,0.0324,0.013523,0.002678,0.000431,0.001998
5873000,0.0324,0.013523,0.002678,0.000431,0.002586
5874000,0.0324,0.013523,0.002678,0.000431,0.001880
5875000,0.0324,0.013523,0.002678,0.000431,0.001998
5876000,0.0324,0.013523,0.002678,0.000431,0.002233
5877000,0.0324,0.013523,0.002678,0.000431,0.002233
5878000,0.0324,0.013523,0.002678,0.000431,0.001998
5879000,0.0324,0.013523,0.002678,0.000431,0.002116
5880000,0.0324,0.013523,0.002678,0.000431,0.001998
5881000,0.0324,0.013523,0.002678,0.000431,0.002351
5882000,0.0324,0.013523,0.002678,0.000431,0.001880
5883000,0.0324,0.013523,0.002678,0.000431,0.002703
5884000,0.0324,0.013523,0.002678,0.000431,0.001528
5885000,0.0324,0.013523,0.002678,0.000431,0.001998
5886000,0.0324,0.013523,0.002678,0.000431,0.002351
5887000,0.0324,0.013523,0.002678,0.000431,0.002351
5888000,0.0324,0.013523,0.002678,0.000431,0.002233
5889000,0.0324,0.013523,0.002678,0.000431,0.001880
5890000,0.0324,0.013523,0.002678,0.000431,0.002586
5891000,0.0324,0.013523,0.002678,0.000431,0.002821
5892000,0.0324,0.013523,0.002678,0.000431,0.002116
5893000,0.0324,0.013523,0.002678,0.000431,0.002233
5894000,0.0324,0.013523,0.002678,0.000431,0.002233
5895000,0.0324,0.013523,0.002678,0.000431,0.002586
5896000,0.0324,0.013523,0.002678,0.000431,0.002116
5897000,0.0324,0.013523,0.002678,0.000431,0.002351
5898000,0.0324,0.013523,0.002678,0.000431,0.001998
5899000,0.0324,0.013523,0.002678,0.000431,0.001998
5900000,0.0324,0.013523,0.002678,0.000431,0.001998
5901000,0.0324,0.013523,0.002678,0.000431,0.002233
5902000,0.0324,0.013523,0.002678,0.000431,0.002116
5903000,0.0324,0.013523,0.002678,0.000431,0.002351
5904000,0.0324,0.013523,0.002678,0.000431,0.002468
5905000,0.0324,0.013523,0.002678,0.000431,0.001998
5906000,0.0324,0.013523,0.002678,0.000431,0.002351
5907000,0.0324,0.013523,0.002678,0.000431,0.002351
5908000,0.0324,0.013523,0.002678,0.000431,0.002116
5909000,0.0324,0.013523,0.002678,0.000431,0.002116
5910000,0.0324,0.013523,0.002678,0.000431,0.001998
5911000,0.0324,0.013523,0.002678,0.000431,0.001880
5912000,0.0324,0.013523,0.002678,0.000431,0.002116
5913000,0.0324,0.013523,0.002678,0.000431,0.002116
5914000,0.0324,0.013523,0.002678,0.000431,0.001880
5915000,0.0324,0.013523,0.002678,0.000431,0.001998
5916000,0.0324,0.013523,0.002678,0.000431,0.002938
5917000,0.0324,0.013523,0.002678,0.000431,0.002468
5918000,0.0324,0.013523,0.002678,0.000431,0.002938
5919000,0.0324,0.013523,0.002678,0.000431,0.002468
5920000,0.0324,0.013523,0.002678,0.000431,0.002586
5921000,0.0324,0.013523,0.002678,0.000431,0.002351
5922000,0.0324,0.013523,0.002678,0.000431,0.001998
5923000,0.0324,0.013523,0.002678,0.000431,0.002233
5924000,0.0324,0.013523,0.002678,0.000431,0.002703
5925000,0.0324,0.013523,0.002678,0.000431,0.002351
5926000,0.0324,0.013523,0.002678,0.000431,0.002468
5927000,0.0324,0.013523,0.002678,0.000431,0.002351
5928000,0.0324,0.013523,0.002678,0.000431,0.001763
5929000,0.0324,0.013523,0.002678,0.000431,0.002351
5930000,0.0324,0.013523,0.002678,0.000431,0.002233
5931000,0.0324,0.013523,0.002678,0.000431,0.002233
5932000,0.0324,0.013523,0.002678,0.000431,0.002586
5933000,0.0324,0.013523,0.002678,0.000431,0.001998
5934000,0.0324,0.013523,0.002678,0.000431,0.002351
5935000,0.0324,0.013523,0.002678,0.000431,0.002351
5936000,0.0324,0.013523,0.002678,0.000431,0.002351
5937000,0.0324,0.013523,0.002678,0.000431,0.002351
5938000,0.0324,0.013523,0.002678,0.000431,0.001998
5939000,0.0324,0.013523,0.002678,0.000431,0.002351
5940000,0.0324,0.013523,0.002678,0.000431,0.002351
5941000,0.0324,0.013523,0.002678,0.000431,0.002586
5942000,0.0324,0.013523,0.002678,0.000431,0.002116
5943000,0.0324,0.013523,0.002678,0.000431,0.002351
5944000,0.0324,0.013523,0.002678,0.000431,0.001880
5945000,0.0324,0.013523,0.002678,0.000431,0.002468
5946000,0.0324,0.013523,0.002678,0.000431,0.002468
5947000,0.0324,0.013523,0.002678,0.000431,0.001998
5948000,0.0324,0.013523,0.002678,0.000431,0.002351
5949000,0.0324,0.013523,0.002678,0.000431,0.001998
5950000,0.0324,0.013523,0.002678,0.000431,0.002703
5951000,0.0324,0.013523,0.002678,0.000431,0.002468
5952000,0.0324,0.013523,0.002678,0.000431,0.002116
5953000,0.0324,0.013523,0.002678,0.000431,0.002468
5954000,0.0324,0.013523,0.002678,0.000431,0.001998
5955000,0.0324,0.013523,0.002678,0.000431,0.002351
5956000,0.0324,0.013523,0.002678,0.000431,0.002351
5957000,0.0324,0.013523,0.002678,0.000431,0.002351
5958000,0.0324,0.013523,0.002678,0.000431,0.002703
5959000,0.0324,0.013523,0.002678,0.000431,0.002116
5960000,0.0324,0.013523,0.002678,0.000431,0.002116
5961000,0.0324,0.013523,0.002678,0.000431,0.002468
5962000,0.0324,0.013523,0.002678,0.000431,0.002468
5963000,0.0324,0.013523,0.002678,0.000431,0.001998
5964000,0.0324,0.013523,0.002678,0.000431,0.002821
5965000,0.0324,0.013523,0.002678,0.000431,0.002233
5966000,0.0324,0.013523,0.002678,0.000431,0.002703
5967000,0.0324,0.013523,0.002678,0.000431,0.002586
5968000,0.0324,0.013523,0.002678,0.000431,0.001998
5969000,0.0324,0.013523,0.002678,0.000431,0.002233
5970000,0.0324,0.013523,0.002678,0.000431,0.002468
5971000,0.0324,0.013523,0.002678,0.000431,0.002233
5972000,0.0324,0.013523,0.002678,0.000431,0.002468
5973000,0.0324,0.013523,0.002678,0.000431,0.002233
5974000,0.0324,0.013523,0.002678,0.000431,0.002116
5975000,0.0324,0.013523,0.002678,0.000431,0.002703
5976000,0.0324,0.013523,0.002678,0.000431,0.002233
5977000,0.0324,0.013523,0.002678,0.000431,0.002703
5978000,0.0324,0.013523,0.002678,0.000431,0.001880
5979000,0.0324,0.013523,0.002678,0.000431,0.002351
5980000,0.0324,0.013523,0.002678,0.000431,0.002468
5981000,0.0324,0.013523,0.002678,0.000431,0.002233
5982000,0.0324,0.013523,0.002678,0.000431,0.002233
5983000,0.0324,0.013523,0.002678,0.000431,0.003056
5984000,0.0324,0.013523,0.002678,0.000431,0.002233
5985000,0.0324,0.013523,0.002678,0.000431,0.002351
5986000,0.0324,0.013523,0.002678,0.000431,0.001645
5987000,0.0324,0.013523,0.002678,0.000431,0.001998
5988000,0.0324,0.013523,0.002678,0.000431,0.002586
5989000,0.0324,0.013523,0.002678,0.000431,0.002233
5990000,0.0324,0.013523,0.002678,0.000431,0.002116
5991000,0.0324,0.013523,0.002678,0.000431,0.001880
5992000,0.0324,0.013523,0.002678,0.000431,0.002351
5993000,0.0324,0.013523,0.002678,0.000431,0.002351
5994000,0.0324,0.013523,0.002678,0.000431,0.002351
5995000,0.0324,0.013523,0.002678,0.000431,0.002703
5996000,0.0324,0.013523,0.002678,0.000431,0.002351
5997000,0.0324,0.013523,0.002678,0.000431,0.002468
5998000,0.0324,0.013523,0.002678,0.000431,0.002586
5999000,0.0324,0.013523,0.002678,0.000431,0.002351
