Cycle,Area(mm^2),PeakDynamic(W),SubthresholdLeakage(W),GateLeakage(W),RunTimeDynamic(W)
14000000,0.0324,0.013523,0.002678,0.000431,0.000705
14001000,0.0324,0.013523,0.002678,0.000431,0.000940
14002000,0.0324,0.013523,0.002678,0.000431,0.000940
14003000,0.0324,0.013523,0.002678,0.000431,0.000940
14004000,0.0324,0.013523,0.002678,0.000431,0.000940
14005000,0.0324,0.013523,0.002678,0.000431,0.000705
14006000,0.0324,0.013523,0.002678,0.000431,0.001058
14007000,0.0324,0.013523,0.002678,0.000431,0.000823
14008000,0.0324,0.013523,0.002678,0.000431,0.000705
14009000,0.0324,0.013523,0.002678,0.000431,0.001058
14010000,0.0324,0.013523,0.002678,0.000431,0.000940
14011000,0.0324,0.013523,0.002678,0.000431,0.000588
14012000,0.0324,0.013523,0.002678,0.000431,0.000588
14013000,0.0324,0.013523,0.002678,0.000431,0.001058
14014000,0.0324,0.013523,0.002678,0.000431,0.000940
14015000,0.0324,0.013523,0.002678,0.000431,0.000705
14016000,0.0324,0.013523,0.002678,0.000431,0.001058
14017000,0.0324,0.013523,0.002678,0.000431,0.000940
14018000,0.0324,0.013523,0.002678,0.000431,0.000823
14019000,0.0324,0.013523,0.002678,0.000431,0.000705
14020000,0.0324,0.013523,0.002678,0.000431,0.000705
14021000,0.0324,0.013523,0.002678,0.000431,0.000940
14022000,0.0324,0.013523,0.002678,0.000431,0.000470
14023000,0.0324,0.013523,0.002678,0.000431,0.001058
14024000,0.0324,0.013523,0.002678,0.000431,0.000588
14025000,0.0324,0.013523,0.002678,0.000431,0.000940
14026000,0.0324,0.013523,0.002678,0.000431,0.000940
14027000,0.0324,0.013523,0.002678,0.000431,0.000705
14028000,0.0324,0.013523,0.002678,0.000431,0.001058
14029000,0.0324,0.013523,0.002678,0.000431,0.000940
14030000,0.0324,0.013523,0.002678,0.000431,0.000823
14031000,0.0324,0.013523,0.002678,0.000431,0.000705
14032000,0.0324,0.013523,0.002678,0.000431,0.001058
14033000,0.0324,0.013523,0.002678,0.000431,0.000940
14034000,0.0324,0.013523,0.002678,0.000431,0.000588
14035000,0.0324,0.013523,0.002678,0.000431,0.000705
14036000,0.0324,0.013523,0.002678,0.000431,0.000940
14037000,0.0324,0.013523,0.002678,0.000431,0.000940
14038000,0.0324,0.013523,0.002678,0.000431,0.000823
14039000,0.0324,0.013523,0.002678,0.000431,0.000823
14040000,0.0324,0.013523,0.002678,0.000431,0.000940
14041000,0.0324,0.013523,0.002678,0.000431,0.000940
14042000,0.0324,0.013523,0.002678,0.000431,0.000940
14043000,0.0324,0.013523,0.002678,0.000431,0.000705
14044000,0.0324,0.013523,0.002678,0.000431,0.000470
14045000,0.0324,0.013523,0.002678,0.000431,0.000823
14046000,0.0324,0.013523,0.002678,0.000431,0.000823
14047000,0.0324,0.013523,0.002678,0.000431,0.001058
14048000,0.0324,0.013523,0.002678,0.000431,0.000940
14049000,0.0324,0.013523,0.002678,0.000431,0.000823
14050000,0.0324,0.013523,0.002678,0.000431,0.000705
14051000,0.0324,0.013523,0.002678,0.000431,0.001175
14052000,0.0324,0.013523,0.002678,0.000431,0.000588
14053000,0.0324,0.013523,0.002678,0.000431,0.000823
14054000,0.0324,0.013523,0.002678,0.000431,0.000823
14055000,0.0324,0.013523,0.002678,0.000431,0.000823
14056000,0.0324,0.013523,0.002678,0.000431,0.000705
14057000,0.0324,0.013523,0.002678,0.000431,0.000705
14058000,0.0324,0.013523,0.002678,0.000431,0.000940
14059000,0.0324,0.013523,0.002678,0.000431,0.000940
14060000,0.0324,0.013523,0.002678,0.000431,0.000823
14061000,0.0324,0.013523,0.002678,0.000431,0.000823
14062000,0.0324,0.013523,0.002678,0.000431,0.000470
14063000,0.0324,0.013523,0.002678,0.000431,0.000705
14064000,0.0324,0.013523,0.002678,0.000431,0.000940
14065000,0.0324,0.013523,0.002678,0.000431,0.000940
14066000,0.0324,0.013523,0.002678,0.000431,0.000940
14067000,0.0324,0.013523,0.002678,0.000431,0.000705
14068000,0.0324,0.013523,0.002678,0.000431,0.000470
14069000,0.0324,0.013523,0.002678,0.000431,0.000940
14070000,0.0324,0.013523,0.002678,0.000431,0.000705
14071000,0.0324,0.013523,0.002678,0.000431,0.000705
14072000,0.0324,0.013523,0.002678,0.000431,0.000940
14073000,0.0324,0.013523,0.002678,0.000431,0.000940
14074000,0.0324,0.013523,0.002678,0.000431,0.000470
14075000,0.0324,0.013523,0.002678,0.000431,0.000940
14076000,0.0324,0.013523,0.002678,0.000431,0.000823
14077000,0.0324,0.013523,0.002678,0.000431,0.000823
14078000,0.0324,0.013523,0.002678,0.000431,0.000588
14079000,0.0324,0.013523,0.002678,0.000431,0.000588
14080000,0.0324,0.013523,0.002678,0.000431,0.000940
14081000,0.0324,0.013523,0.002678,0.000431,0.000705
14082000,0.0324,0.013523,0.002678,0.000431,0.000470
14083000,0.0324,0.013523,0.002678,0.000431,0.000470
14084000,0.0324,0.013523,0.002678,0.000431,0.000705
14085000,0.0324,0.013523,0.002678,0.000431,0.000940
14086000,0.0324,0.013523,0.002678,0.000431,0.000940
14087000,0.0324,0.013523,0.002678,0.000431,0.000705
14088000,0.0324,0.013523,0.002678,0.000431,0.000940
14089000,0.0324,0.013523,0.002678,0.000431,0.000940
14090000,0.0324,0.013523,0.002678,0.000431,0.000705
14091000,0.0324,0.013523,0.002678,0.000431,0.000705
14092000,0.0324,0.013523,0.002678,0.000431,0.000940
14093000,0.0324,0.013523,0.002678,0.000431,0.000823
14094000,0.0324,0.013523,0.002678,0.000431,0.000823
14095000,0.0324,0.013523,0.002678,0.000431,0.000940
14096000,0.0324,0.013523,0.002678,0.000431,0.000940
14097000,0.0324,0.013523,0.002678,0.000431,0.000470
14098000,0.0324,0.013523,0.002678,0.000431,0.000470
14099000,0.0324,0.013523,0.002678,0.000431,0.000705
14100000,0.0324,0.013523,0.002678,0.000431,0.000705
14101000,0.0324,0.013523,0.002678,0.000431,0.000940
14102000,0.0324,0.013523,0.002678,0.000431,0.000940
14103000,0.0324,0.013523,0.002678,0.000431,0.000940
14104000,0.0324,0.013523,0.002678,0.000431,0.000940
14105000,0.0324,0.013523,0.002678,0.000431,0.001058
14106000,0.0324,0.013523,0.002678,0.000431,0.001058
14107000,0.0324,0.013523,0.002678,0.000431,0.000940
14108000,0.0324,0.013523,0.002678,0.000431,0.000705
14109000,0.0324,0.013523,0.002678,0.000431,0.000940
14110000,0.0324,0.013523,0.002678,0.000431,0.001175
14111000,0.0324,0.013523,0.002678,0.000431,0.000940
14112000,0.0324,0.013523,0.002678,0.000431,0.001175
14113000,0.0324,0.013523,0.002678,0.000431,0.000470
14114000,0.0324,0.013523,0.002678,0.000431,0.000940
14115000,0.0324,0.013523,0.002678,0.000431,0.000940
14116000,0.0324,0.013523,0.002678,0.000431,0.000823
14117000,0.0324,0.013523,0.002678,0.000431,0.000823
14118000,0.0324,0.013523,0.002678,0.000431,0.000705
14119000,0.0324,0.013523,0.002678,0.000431,0.000940
14120000,0.0324,0.013523,0.002678,0.000431,0.000705
14121000,0.0324,0.013523,0.002678,0.000431,0.000940
14122000,0.0324,0.013523,0.002678,0.000431,0.000940
14123000,0.0324,0.013523,0.002678,0.000431,0.000940
14124000,0.0324,0.013523,0.002678,0.000431,0.000823
14125000,0.0324,0.013523,0.002678,0.000431,0.000823
14126000,0.0324,0.013523,0.002678,0.000431,0.000705
14127000,0.0324,0.013523,0.002678,0.000431,0.000705
14128000,0.0324,0.013523,0.002678,0.000431,0.000940
14129000,0.0324,0.013523,0.002678,0.000431,0.000940
14130000,0.0324,0.013523,0.002678,0.000431,0.000823
14131000,0.0324,0.013523,0.002678,0.000431,0.000823
14132000,0.0324,0.013523,0.002678,0.000431,0.000823
14133000,0.0324,0.013523,0.002678,0.000431,0.001058
14134000,0.0324,0.013523,0.002678,0.000431,0.000823
14135000,0.0324,0.013523,0.002678,0.000431,0.000823
14136000,0.0324,0.013523,0.002678,0.000431,0.000823
14137000,0.0324,0.013523,0.002678,0.000431,0.001058
14138000,0.0324,0.013523,0.002678,0.000431,0.000588
14139000,0.0324,0.013523,0.002678,0.000431,0.000823
14140000,0.0324,0.013523,0.002678,0.000431,0.000705
14141000,0.0324,0.013523,0.002678,0.000431,0.000705
14142000,0.0324,0.013523,0.002678,0.000431,0.000823
14143000,0.0324,0.013523,0.002678,0.000431,0.000588
14144000,0.0324,0.013523,0.002678,0.000431,0.000823
14145000,0.0324,0.013523,0.002678,0.000431,0.000823
14146000,0.0324,0.013523,0.002678,0.000431,0.000705
14147000,0.0324,0.013523,0.002678,0.000431,0.000940
14148000,0.0324,0.013523,0.002678,0.000431,0.000940
14149000,0.0324,0.013523,0.002678,0.000431,0.000823
14150000,0.0324,0.013523,0.002678,0.000431,0.000823
14151000,0.0324,0.013523,0.002678,0.000431,0.000705
14152000,0.0324,0.013523,0.002678,0.000431,0.000705
14153000,0.0324,0.013523,0.002678,0.000431,0.001058
14154000,0.0324,0.013523,0.002678,0.000431,0.000588
14155000,0.0324,0.013523,0.002678,0.000431,0.000940
14156000,0.0324,0.013523,0.002678,0.000431,0.000705
14157000,0.0324,0.013523,0.002678,0.000431,0.000940
14158000,0.0324,0.013523,0.002678,0.000431,0.000470
14159000,0.0324,0.013523,0.002678,0.000431,0.000705
14160000,0.0324,0.013523,0.002678,0.000431,0.000940
14161000,0.0324,0.013523,0.002678,0.000431,0.000940
14162000,0.0324,0.013523,0.002678,0.000431,0.000470
14163000,0.0324,0.013523,0.002678,0.000431,0.000940
14164000,0.0324,0.013523,0.002678,0.000431,0.000823
14165000,0.0324,0.013523,0.002678,0.000431,0.000823
14166000,0.0324,0.013523,0.002678,0.000431,0.000940
14167000,0.0324,0.013523,0.002678,0.000431,0.000940
14168000,0.0324,0.013523,0.002678,0.000431,0.000705
14169000,0.0324,0.013523,0.002678,0.000431,0.000705
14170000,0.0324,0.013523,0.002678,0.000431,0.000940
14171000,0.0324,0.013523,0.002678,0.000431,0.000940
14172000,0.0324,0.013523,0.002678,0.000431,0.000823
14173000,0.0324,0.013523,0.002678,0.000431,0.000823
14174000,0.0324,0.013523,0.002678,0.000431,0.000940
14175000,0.0324,0.013523,0.002678,0.000431,0.000940
14176000,0.0324,0.013523,0.002678,0.000431,0.000705
14177000,0.0324,0.013523,0.002678,0.000431,0.000470
14178000,0.0324,0.013523,0.002678,0.000431,0.000823
14179000,0.0324,0.013523,0.002678,0.000431,0.000823
14180000,0.0324,0.013523,0.002678,0.000431,0.000705
14181000,0.0324,0.013523,0.002678,0.000431,0.000705
14182000,0.0324,0.013523,0.002678,0.000431,0.000588
14183000,0.0324,0.013523,0.002678,0.000431,0.000823
14184000,0.0324,0.013523,0.002678,0.000431,0.000705
14185000,0.0324,0.013523,0.002678,0.000431,0.001058
14186000,0.0324,0.013523,0.002678,0.000431,0.000588
14187000,0.0324,0.013523,0.002678,0.000431,0.000823
14188000,0.0324,0.013523,0.002678,0.000431,0.000823
14189000,0.0324,0.013523,0.002678,0.000431,0.000940
14190000,0.0324,0.013523,0.002678,0.000431,0.000705
14191000,0.0324,0.013523,0.002678,0.000431,0.000705
14192000,0.0324,0.013523,0.002678,0.000431,0.000823
14193000,0.0324,0.013523,0.002678,0.000431,0.001058
14194000,0.0324,0.013523,0.002678,0.000431,0.000705
14195000,0.0324,0.013523,0.002678,0.000431,0.000940
14196000,0.0324,0.013523,0.002678,0.000431,0.000940
14197000,0.0324,0.013523,0.002678,0.000431,0.000470
14198000,0.0324,0.013523,0.002678,0.000431,0.001058
14199000,0.0324,0.013523,0.002678,0.000431,0.000588
14200000,0.0324,0.013523,0.002678,0.000431,0.000940
14201000,0.0324,0.013523,0.002678,0.000431,0.000588
14202000,0.0324,0.013523,0.002678,0.000431,0.000940
14203000,0.0324,0.013523,0.002678,0.000431,0.000588
14204000,0.0324,0.013523,0.002678,0.000431,0.001058
14205000,0.0324,0.013523,0.002678,0.000431,0.000940
14206000,0.0324,0.013523,0.002678,0.000431,0.000823
14207000,0.0324,0.013523,0.002678,0.000431,0.000705
14208000,0.0324,0.013523,0.002678,0.000431,0.001058
14209000,0.0324,0.013523,0.002678,0.000431,0.000588
14210000,0.0324,0.013523,0.002678,0.000431,0.000940
14211000,0.0324,0.013523,0.002678,0.000431,0.000823
14212000,0.0324,0.013523,0.002678,0.000431,0.001058
14213000,0.0324,0.013523,0.002678,0.000431,0.000940
14214000,0.0324,0.013523,0.002678,0.000431,0.001175
14215000,0.0324,0.013523,0.002678,0.000431,0.000470
14216000,0.0324,0.013523,0.002678,0.000431,0.000940
14217000,0.0324,0.013523,0.002678,0.000431,0.000823
14218000,0.0324,0.013523,0.002678,0.000431,0.000940
14219000,0.0324,0.013523,0.002678,0.000431,0.000940
14220000,0.0324,0.013523,0.002678,0.000431,0.000705
14221000,0.0324,0.013523,0.002678,0.000431,0.001175
14222000,0.0324,0.013523,0.002678,0.000431,0.000823
14223000,0.0324,0.013523,0.002678,0.000431,0.000705
14224000,0.0324,0.013523,0.002678,0.000431,0.001058
14225000,0.0324,0.013523,0.002678,0.000431,0.000940
14226000,0.0324,0.013523,0.002678,0.000431,0.000940
14227000,0.0324,0.013523,0.002678,0.000431,0.000940
14228000,0.0324,0.013523,0.002678,0.000431,0.000823
14229000,0.0324,0.013523,0.002678,0.000431,0.000705
14230000,0.0324,0.013523,0.002678,0.000431,0.000705
14231000,0.0324,0.013523,0.002678,0.000431,0.001058
14232000,0.0324,0.013523,0.002678,0.000431,0.000823
14233000,0.0324,0.013523,0.002678,0.000431,0.000705
14234000,0.0324,0.013523,0.002678,0.000431,0.001058
14235000,0.0324,0.013523,0.002678,0.000431,0.000940
14236000,0.0324,0.013523,0.002678,0.000431,0.000588
14237000,0.0324,0.013523,0.002678,0.000431,0.000823
14238000,0.0324,0.013523,0.002678,0.000431,0.000823
14239000,0.0324,0.013523,0.002678,0.000431,0.000940
14240000,0.0324,0.013523,0.002678,0.000431,0.000940
14241000,0.0324,0.013523,0.002678,0.000431,0.000705
14242000,0.0324,0.013523,0.002678,0.000431,0.000823
14243000,0.0324,0.013523,0.002678,0.000431,0.000940
14244000,0.0324,0.013523,0.002678,0.000431,0.000823
14245000,0.0324,0.013523,0.002678,0.000431,0.000940
14246000,0.0324,0.013523,0.002678,0.000431,0.000588
14247000,0.0324,0.013523,0.002678,0.000431,0.001058
14248000,0.0324,0.013523,0.002678,0.000431,0.000823
14249000,0.0324,0.013523,0.002678,0.000431,0.000588
14250000,0.0324,0.013523,0.002678,0.000431,0.000705
14251000,0.0324,0.013523,0.002678,0.000431,0.000940
14252000,0.0324,0.013523,0.002678,0.000431,0.000823
14253000,0.0324,0.013523,0.002678,0.000431,0.000823
14254000,0.0324,0.013523,0.002678,0.000431,0.000705
14255000,0.0324,0.013523,0.002678,0.000431,0.000940
14256000,0.0324,0.013523,0.002678,0.000431,0.000940
14257000,0.0324,0.013523,0.002678,0.000431,0.000470
14258000,0.0324,0.013523,0.002678,0.000431,0.000940
14259000,0.0324,0.013523,0.002678,0.000431,0.001058
14260000,0.0324,0.013523,0.002678,0.000431,0.000588
14261000,0.0324,0.013523,0.002678,0.000431,0.000823
14262000,0.0324,0.013523,0.002678,0.000431,0.001058
14263000,0.0324,0.013523,0.002678,0.000431,0.000940
14264000,0.0324,0.013523,0.002678,0.000431,0.000940
14265000,0.0324,0.013523,0.002678,0.000431,0.000940
14266000,0.0324,0.013523,0.002678,0.000431,0.000940
14267000,0.0324,0.013523,0.002678,0.000431,0.000823
14268000,0.0324,0.013523,0.002678,0.000431,0.000823
14269000,0.0324,0.013523,0.002678,0.000431,0.000940
14270000,0.0324,0.013523,0.002678,0.000431,0.000823
14271000,0.0324,0.013523,0.002678,0.000431,0.000823
14272000,0.0324,0.013523,0.002678,0.000431,0.000940
14273000,0.0324,0.013523,0.002678,0.000431,0.000940
14274000,0.0324,0.013523,0.002678,0.000431,0.000940
14275000,0.0324,0.013523,0.002678,0.000431,0.000823
14276000,0.0324,0.013523,0.002678,0.000431,0.000823
14277000,0.0324,0.013523,0.002678,0.000431,0.001058
14278000,0.0324,0.013523,0.002678,0.000431,0.000940
14279000,0.0324,0.013523,0.002678,0.000431,0.000823
14280000,0.0324,0.013523,0.002678,0.000431,0.000823
14281000,0.0324,0.013523,0.002678,0.000431,0.000940
14282000,0.0324,0.013523,0.002678,0.000431,0.000823
14283000,0.0324,0.013523,0.002678,0.000431,0.000940
14284000,0.0324,0.013523,0.002678,0.000431,0.000940
14285000,0.0324,0.013523,0.002678,0.000431,0.000940
14286000,0.0324,0.013523,0.002678,0.000431,0.001058
14287000,0.0324,0.013523,0.002678,0.000431,0.000940
14288000,0.0324,0.013523,0.002678,0.000431,0.000823
14289000,0.0324,0.013523,0.002678,0.000431,0.000823
14290000,0.0324,0.013523,0.002678,0.000431,0.000823
14291000,0.0324,0.013523,0.002678,0.000431,0.000940
14292000,0.0324,0.013523,0.002678,0.000431,0.000940
14293000,0.0324,0.013523,0.002678,0.000431,0.000940
14294000,0.0324,0.013523,0.002678,0.000431,0.000940
14295000,0.0324,0.013523,0.002678,0.000431,0.000588
14296000,0.0324,0.013523,0.002678,0.000431,0.001058
14297000,0.0324,0.013523,0.002678,0.000431,0.000940
14298000,0.0324,0.013523,0.002678,0.000431,0.000823
14299000,0.0324,0.013523,0.002678,0.000431,0.001058
14300000,0.0324,0.013523,0.002678,0.000431,0.000705
14301000,0.0324,0.013523,0.002678,0.000431,0.001058
14302000,0.0324,0.013523,0.002678,0.000431,0.000940
14303000,0.0324,0.013523,0.002678,0.000431,0.000940
14304000,0.0324,0.013523,0.002678,0.000431,0.001175
14305000,0.0324,0.013523,0.002678,0.000431,0.000940
14306000,0.0324,0.013523,0.002678,0.000431,0.000940
14307000,0.0324,0.013523,0.002678,0.000431,0.000823
14308000,0.0324,0.013523,0.002678,0.000431,0.000940
14309000,0.0324,0.013523,0.002678,0.000431,0.000940
14310000,0.0324,0.013523,0.002678,0.000431,0.000823
14311000,0.0324,0.013523,0.002678,0.000431,0.000940
14312000,0.0324,0.013523,0.002678,0.000431,0.001058
14313000,0.0324,0.013523,0.002678,0.000431,0.000940
14314000,0.0324,0.013523,0.002678,0.000431,0.000940
14315000,0.0324,0.013523,0.002678,0.000431,0.000940
14316000,0.0324,0.013523,0.002678,0.000431,0.000940
14317000,0.0324,0.013523,0.002678,0.000431,0.000940
14318000,0.0324,0.013523,0.002678,0.000431,0.000940
14319000,0.0324,0.013523,0.002678,0.000431,0.000705
14320000,0.0324,0.013523,0.002678,0.000431,0.001058
14321000,0.0324,0.013523,0.002678,0.000431,0.001058
14322000,0.0324,0.013523,0.002678,0.000431,0.000940
14323000,0.0324,0.013523,0.002678,0.000431,0.000705
14324000,0.0324,0.013523,0.002678,0.000431,0.000940
14325000,0.0324,0.013523,0.002678,0.000431,0.000940
14326000,0.0324,0.013523,0.002678,0.000431,0.000823
14327000,0.0324,0.013523,0.002678,0.000431,0.001058
14328000,0.0324,0.013523,0.002678,0.000431,0.000705
14329000,0.0324,0.013523,0.002678,0.000431,0.001058
14330000,0.0324,0.013523,0.002678,0.000431,0.000940
14331000,0.0324,0.013523,0.002678,0.000431,0.000823
14332000,0.0324,0.013523,0.002678,0.000431,0.000940
14333000,0.0324,0.013523,0.002678,0.000431,0.000823
14334000,0.0324,0.013523,0.002678,0.000431,0.001058
14335000,0.0324,0.013523,0.002678,0.000431,0.000940
14336000,0.0324,0.013523,0.002678,0.000431,0.000823
14337000,0.0324,0.013523,0.002678,0.000431,0.000823
14338000,0.0324,0.013523,0.002678,0.000431,0.001058
14339000,0.0324,0.013523,0.002678,0.000431,0.001058
14340000,0.0324,0.013523,0.002678,0.000431,0.000823
14341000,0.0324,0.013523,0.002678,0.000431,0.000940
14342000,0.0324,0.013523,0.002678,0.000431,0.001058
14343000,0.0324,0.013523,0.002678,0.000431,0.000705
14344000,0.0324,0.013523,0.002678,0.000431,0.000940
14345000,0.0324,0.013523,0.002678,0.000431,0.000705
14346000,0.0324,0.013523,0.002678,0.000431,0.000940
14347000,0.0324,0.013523,0.002678,0.000431,0.000940
14348000,0.0324,0.013523,0.002678,0.000431,0.001058
14349000,0.0324,0.013523,0.002678,0.000431,0.000940
14350000,0.0324,0.013523,0.002678,0.000431,0.000940
14351000,0.0324,0.013523,0.002678,0.000431,0.000940
14352000,0.0324,0.013523,0.002678,0.000431,0.000940
14353000,0.0324,0.013523,0.002678,0.000431,0.001058
14354000,0.0324,0.013523,0.002678,0.000431,0.000823
14355000,0.0324,0.013523,0.002678,0.000431,0.000940
14356000,0.0324,0.013523,0.002678,0.000431,0.000823
14357000,0.0324,0.013523,0.002678,0.000431,0.000940
14358000,0.0324,0.013523,0.002678,0.000431,0.000940
14359000,0.0324,0.013523,0.002678,0.000431,0.000940
14360000,0.0324,0.013523,0.002678,0.000431,0.000823
14361000,0.0324,0.013523,0.002678,0.000431,0.000940
14362000,0.0324,0.013523,0.002678,0.000431,0.001058
14363000,0.0324,0.013523,0.002678,0.000431,0.000940
14364000,0.0324,0.013523,0.002678,0.000431,0.000940
14365000,0.0324,0.013523,0.002678,0.000431,0.000940
14366000,0.0324,0.013523,0.002678,0.000431,0.000823
14367000,0.0324,0.013523,0.002678,0.000431,0.000940
14368000,0.0324,0.013523,0.002678,0.000431,0.001058
14369000,0.0324,0.013523,0.002678,0.000431,0.000940
14370000,0.0324,0.013523,0.002678,0.000431,0.000940
14371000,0.0324,0.013523,0.002678,0.000431,0.000940
14372000,0.0324,0.013523,0.002678,0.000431,0.001175
14373000,0.0324,0.013523,0.002678,0.000431,0.000940
14374000,0.0324,0.013523,0.002678,0.000431,0.000940
14375000,0.0324,0.013523,0.002678,0.000431,0.000940
14376000,0.0324,0.013523,0.002678,0.000431,0.000940
14377000,0.0324,0.013523,0.002678,0.000431,0.000940
14378000,0.0324,0.013523,0.002678,0.000431,0.000940
14379000,0.0324,0.013523,0.002678,0.000431,0.001058
14380000,0.0324,0.013523,0.002678,0.000431,0.001058
14381000,0.0324,0.013523,0.002678,0.000431,0.000940
14382000,0.0324,0.013523,0.002678,0.000431,0.000940
14383000,0.0324,0.013523,0.002678,0.000431,0.000940
14384000,0.0324,0.013523,0.002678,0.000431,0.000940
14385000,0.0324,0.013523,0.002678,0.000431,0.001058
14386000,0.0324,0.013523,0.002678,0.000431,0.000940
14387000,0.0324,0.013523,0.002678,0.000431,0.000940
14388000,0.0324,0.013523,0.002678,0.000431,0.001175
14389000,0.0324,0.013523,0.002678,0.000431,0.000823
14390000,0.0324,0.013523,0.002678,0.000431,0.000940
14391000,0.0324,0.013523,0.002678,0.000431,0.001175
14392000,0.0324,0.013523,0.002678,0.000431,0.000940
14393000,0.0324,0.013523,0.002678,0.000431,0.000940
14394000,0.0324,0.013523,0.002678,0.000431,0.000940
14395000,0.0324,0.013523,0.002678,0.000431,0.000823
14396000,0.0324,0.013523,0.002678,0.000431,0.000823
14397000,0.0324,0.013523,0.002678,0.000431,0.000940
14398000,0.0324,0.013523,0.002678,0.000431,0.000705
14399000,0.0324,0.013523,0.002678,0.000431,0.000940
14400000,0.0324,0.013523,0.002678,0.000431,0.000940
14401000,0.0324,0.013523,0.002678,0.000431,0.000940
14402000,0.0324,0.013523,0.002678,0.000431,0.000940
14403000,0.0324,0.013523,0.002678,0.000431,0.000940
14404000,0.0324,0.013523,0.002678,0.000431,0.000940
14405000,0.0324,0.013523,0.002678,0.000431,0.000705
14406000,0.0324,0.013523,0.002678,0.000431,0.000705
14407000,0.0324,0.013523,0.002678,0.000431,0.000705
14408000,0.0324,0.013523,0.002678,0.000431,0.000823
14409000,0.0324,0.013523,0.002678,0.000431,0.000823
14410000,0.0324,0.013523,0.002678,0.000431,0.000940
14411000,0.0324,0.013523,0.002678,0.000431,0.000705
14412000,0.0324,0.013523,0.002678,0.000431,0.000940
14413000,0.0324,0.013523,0.002678,0.000431,0.000940
14414000,0.0324,0.013523,0.002678,0.000431,0.000940
14415000,0.0324,0.013523,0.002678,0.000431,0.000940
14416000,0.0324,0.013523,0.002678,0.000431,0.000705
14417000,0.0324,0.013523,0.002678,0.000431,0.001058
14418000,0.0324,0.013523,0.002678,0.000431,0.000588
14419000,0.0324,0.013523,0.002678,0.000431,0.000940
14420000,0.0324,0.013523,0.002678,0.000431,0.000940
14421000,0.0324,0.013523,0.002678,0.000431,0.000940
14422000,0.0324,0.013523,0.002678,0.000431,0.000705
14423000,0.0324,0.013523,0.002678,0.000431,0.001058
14424000,0.0324,0.013523,0.002678,0.000431,0.000940
14425000,0.0324,0.013523,0.002678,0.000431,0.000823
14426000,0.0324,0.013523,0.002678,0.000431,0.000823
14427000,0.0324,0.013523,0.002678,0.000431,0.000940
14428000,0.0324,0.013523,0.002678,0.000431,0.000823
14429000,0.0324,0.013523,0.002678,0.000431,0.000705
14430000,0.0324,0.013523,0.002678,0.000431,0.000705
14431000,0.0324,0.013523,0.002678,0.000431,0.000940
14432000,0.0324,0.013523,0.002678,0.000431,0.000940
14433000,0.0324,0.013523,0.002678,0.000431,0.000588
14434000,0.0324,0.013523,0.002678,0.000431,0.000823
14435000,0.0324,0.013523,0.002678,0.000431,0.000940
14436000,0.0324,0.013523,0.002678,0.000431,0.000823
14437000,0.0324,0.013523,0.002678,0.000431,0.000940
14438000,0.0324,0.013523,0.002678,0.000431,0.000588
14439000,0.0324,0.013523,0.002678,0.000431,0.000705
14440000,0.0324,0.013523,0.002678,0.000431,0.000823
14441000,0.0324,0.013523,0.002678,0.000431,0.000823
14442000,0.0324,0.013523,0.002678,0.000431,0.000705
14443000,0.0324,0.013523,0.002678,0.000431,0.001058
14444000,0.0324,0.013523,0.002678,0.000431,0.000940
14445000,0.0324,0.013523,0.002678,0.000431,0.000823
14446000,0.0324,0.013523,0.002678,0.000431,0.000705
14447000,0.0324,0.013523,0.002678,0.000431,0.001058
14448000,0.0324,0.013523,0.002678,0.000431,0.000823
14449000,0.0324,0.013523,0.002678,0.000431,0.000705
14450000,0.0324,0.013523,0.002678,0.000431,0.001058
14451000,0.0324,0.013523,0.002678,0.000431,0.000940
14452000,0.0324,0.013523,0.002678,0.000431,0.000823
14453000,0.0324,0.013523,0.002678,0.000431,0.000705
14454000,0.0324,0.013523,0.002678,0.000431,0.000705
14455000,0.0324,0.013523,0.002678,0.000431,0.000940
14456000,0.0324,0.013523,0.002678,0.000431,0.000940
14457000,0.0324,0.013523,0.002678,0.000431,0.000705
14458000,0.0324,0.013523,0.002678,0.000431,0.000940
14459000,0.0324,0.013523,0.002678,0.000431,0.000940
14460000,0.0324,0.013523,0.002678,0.000431,0.000940
14461000,0.0324,0.013523,0.002678,0.000431,0.000705
14462000,0.0324,0.013523,0.002678,0.000431,0.000940
14463000,0.0324,0.013523,0.002678,0.000431,0.000705
14464000,0.0324,0.013523,0.002678,0.000431,0.000940
14465000,0.0324,0.013523,0.002678,0.000431,0.000940
14466000,0.0324,0.013523,0.002678,0.000431,0.000940
14467000,0.0324,0.013523,0.002678,0.000431,0.000705
14468000,0.0324,0.013523,0.002678,0.000431,0.000940
14469000,0.0324,0.013523,0.002678,0.000431,0.000940
14470000,0.0324,0.013523,0.002678,0.000431,0.000705
14471000,0.0324,0.013523,0.002678,0.000431,0.000705
14472000,0.0324,0.013523,0.002678,0.000431,0.000940
14473000,0.0324,0.013523,0.002678,0.000431,0.001058
14474000,0.0324,0.013523,0.002678,0.000431,0.000940
14475000,0.0324,0.013523,0.002678,0.000431,0.000823
14476000,0.0324,0.013523,0.002678,0.000431,0.000823
14477000,0.0324,0.013523,0.002678,0.000431,0.000940
14478000,0.0324,0.013523,0.002678,0.000431,0.000823
14479000,0.0324,0.013523,0.002678,0.000431,0.001058
14480000,0.0324,0.013523,0.002678,0.000431,0.000588
14481000,0.0324,0.013523,0.002678,0.000431,0.000823
14482000,0.0324,0.013523,0.002678,0.000431,0.000823
14483000,0.0324,0.013523,0.002678,0.000431,0.000705
14484000,0.0324,0.013523,0.002678,0.000431,0.000940
14485000,0.0324,0.013523,0.002678,0.000431,0.000823
14486000,0.0324,0.013523,0.002678,0.000431,0.000823
14487000,0.0324,0.013523,0.002678,0.000431,0.000940
14488000,0.0324,0.013523,0.002678,0.000431,0.001175
14489000,0.0324,0.013523,0.002678,0.000431,0.000940
14490000,0.0324,0.013523,0.002678,0.000431,0.000940
14491000,0.0324,0.013523,0.002678,0.000431,0.000940
14492000,0.0324,0.013523,0.002678,0.000431,0.000705
14493000,0.0324,0.013523,0.002678,0.000431,0.000940
14494000,0.0324,0.013523,0.002678,0.000431,0.000940
14495000,0.0324,0.013523,0.002678,0.000431,0.000823
14496000,0.0324,0.013523,0.002678,0.000431,0.000823
14497000,0.0324,0.013523,0.002678,0.000431,0.000940
14498000,0.0324,0.013523,0.002678,0.000431,0.000470
14499000,0.0324,0.013523,0.002678,0.000431,0.000705
14500000,0.0324,0.013523,0.002678,0.000431,0.000940
14501000,0.0324,0.013523,0.002678,0.000431,0.000940
14502000,0.0324,0.013523,0.002678,0.000431,0.000823
14503000,0.0324,0.013523,0.002678,0.000431,0.000823
14504000,0.0324,0.013523,0.002678,0.000431,0.000940
14505000,0.0324,0.013523,0.002678,0.000431,0.000823
14506000,0.0324,0.013523,0.002678,0.000431,0.000823
14507000,0.0324,0.013523,0.002678,0.000431,0.000940
14508000,0.0324,0.013523,0.002678,0.000431,0.000940
14509000,0.0324,0.013523,0.002678,0.000431,0.000940
14510000,0.0324,0.013523,0.002678,0.000431,0.000940
14511000,0.0324,0.013523,0.002678,0.000431,0.000705
14512000,0.0324,0.013523,0.002678,0.000431,0.001058
14513000,0.0324,0.013523,0.002678,0.000431,0.001058
14514000,0.0324,0.013523,0.002678,0.000431,0.000823
14515000,0.0324,0.013523,0.002678,0.000431,0.000823
14516000,0.0324,0.013523,0.002678,0.000431,0.000470
14517000,0.0324,0.013523,0.002678,0.000431,0.000705
14518000,0.0324,0.013523,0.002678,0.000431,0.000705
14519000,0.0324,0.013523,0.002678,0.000431,0.000940
14520000,0.0324,0.013523,0.002678,0.000431,0.000940
14521000,0.0324,0.013523,0.002678,0.000431,0.000705
14522000,0.0324,0.013523,0.002678,0.000431,0.000940
14523000,0.0324,0.013523,0.002678,0.000431,0.000940
14524000,0.0324,0.013523,0.002678,0.000431,0.000705
14525000,0.0324,0.013523,0.002678,0.000431,0.000940
14526000,0.0324,0.013523,0.002678,0.000431,0.000940
14527000,0.0324,0.013523,0.002678,0.000431,0.000940
14528000,0.0324,0.013523,0.002678,0.000431,0.000588
14529000,0.0324,0.013523,0.002678,0.000431,0.001058
14530000,0.0324,0.013523,0.002678,0.000431,0.000940
14531000,0.0324,0.013523,0.002678,0.000431,0.000823
14532000,0.0324,0.013523,0.002678,0.000431,0.000823
14533000,0.0324,0.013523,0.002678,0.000431,0.000705
14534000,0.0324,0.013523,0.002678,0.000431,0.000940
14535000,0.0324,0.013523,0.002678,0.000431,0.000823
14536000,0.0324,0.013523,0.002678,0.000431,0.000823
14537000,0.0324,0.013523,0.002678,0.000431,0.000940
14538000,0.0324,0.013523,0.002678,0.000431,0.000940
14539000,0.0324,0.013523,0.002678,0.000431,0.000823
14540000,0.0324,0.013523,0.002678,0.000431,0.000823
14541000,0.0324,0.013523,0.002678,0.000431,0.000940
14542000,0.0324,0.013523,0.002678,0.000431,0.001058
14543000,0.0324,0.013523,0.002678,0.000431,0.000940
14544000,0.0324,0.013523,0.002678,0.000431,0.000823
14545000,0.0324,0.013523,0.002678,0.000431,0.000940
14546000,0.0324,0.013523,0.002678,0.000431,0.000940
14547000,0.0324,0.013523,0.002678,0.000431,0.000705
14548000,0.0324,0.013523,0.002678,0.000431,0.000823
14549000,0.0324,0.013523,0.002678,0.000431,0.000823
14550000,0.0324,0.013523,0.002678,0.000431,0.000940
14551000,0.0324,0.013523,0.002678,0.000431,0.000940
14552000,0.0324,0.013523,0.002678,0.000431,0.000705
14553000,0.0324,0.013523,0.002678,0.000431,0.000940
14554000,0.0324,0.013523,0.002678,0.000431,0.000705
14555000,0.0324,0.013523,0.002678,0.000431,0.000940
14556000,0.0324,0.013523,0.002678,0.000431,0.000823
14557000,0.0324,0.013523,0.002678,0.000431,0.000823
14558000,0.0324,0.013523,0.002678,0.000431,0.000940
14559000,0.0324,0.013523,0.002678,0.000431,0.000940
14560000,0.0324,0.013523,0.002678,0.000431,0.000705
14561000,0.0324,0.013523,0.002678,0.000431,0.001058
14562000,0.0324,0.013523,0.002678,0.000431,0.000588
14563000,0.0324,0.013523,0.002678,0.000431,0.000823
14564000,0.0324,0.013523,0.002678,0.000431,0.000940
14565000,0.0324,0.013523,0.002678,0.000431,0.000823
14566000,0.0324,0.013523,0.002678,0.000431,0.000940
14567000,0.0324,0.013523,0.002678,0.000431,0.001058
14568000,0.0324,0.013523,0.002678,0.000431,0.000940
14569000,0.0324,0.013523,0.002678,0.000431,0.000823
14570000,0.0324,0.013523,0.002678,0.000431,0.000940
14571000,0.0324,0.013523,0.002678,0.000431,0.000470
14572000,0.0324,0.013523,0.002678,0.000431,0.000705
14573000,0.0324,0.013523,0.002678,0.000431,0.000940
14574000,0.0324,0.013523,0.002678,0.000431,0.000705
14575000,0.0324,0.013523,0.002678,0.000431,0.000823
14576000,0.0324,0.013523,0.002678,0.000431,0.000823
14577000,0.0324,0.013523,0.002678,0.000431,0.000940
14578000,0.0324,0.013523,0.002678,0.000431,0.001058
14579000,0.0324,0.013523,0.002678,0.000431,0.001058
14580000,0.0324,0.013523,0.002678,0.000431,0.000470
14581000,0.0324,0.013523,0.002678,0.000431,0.000940
14582000,0.0324,0.013523,0.002678,0.000431,0.000823
14583000,0.0324,0.013523,0.002678,0.000431,0.000940
14584000,0.0324,0.013523,0.002678,0.000431,0.000823
14585000,0.0324,0.013523,0.002678,0.000431,0.000705
14586000,0.0324,0.013523,0.002678,0.000431,0.000705
14587000,0.0324,0.013523,0.002678,0.000431,0.000940
14588000,0.0324,0.013523,0.002678,0.000431,0.001175
14589000,0.0324,0.013523,0.002678,0.000431,0.000940
14590000,0.0324,0.013523,0.002678,0.000431,0.000823
14591000,0.0324,0.013523,0.002678,0.000431,0.000823
14592000,0.0324,0.013523,0.002678,0.000431,0.000940
14593000,0.0324,0.013523,0.002678,0.000431,0.000823
14594000,0.0324,0.013523,0.002678,0.000431,0.001058
14595000,0.0324,0.013523,0.002678,0.000431,0.000940
14596000,0.0324,0.013523,0.002678,0.000431,0.000823
14597000,0.0324,0.013523,0.002678,0.000431,0.000823
14598000,0.0324,0.013523,0.002678,0.000431,0.000940
14599000,0.0324,0.013523,0.002678,0.000431,0.000940
14600000,0.0324,0.013523,0.002678,0.000431,0.000940
14601000,0.0324,0.013523,0.002678,0.000431,0.000705
14602000,0.0324,0.013523,0.002678,0.000431,0.001058
14603000,0.0324,0.013523,0.002678,0.000431,0.000940
14604000,0.0324,0.013523,0.002678,0.000431,0.000823
14605000,0.0324,0.013523,0.002678,0.000431,0.000705
14606000,0.0324,0.013523,0.002678,0.000431,0.001058
14607000,0.0324,0.013523,0.002678,0.000431,0.000940
14608000,0.0324,0.013523,0.002678,0.000431,0.000588
14609000,0.0324,0.013523,0.002678,0.000431,0.000823
14610000,0.0324,0.013523,0.002678,0.000431,0.000823
14611000,0.0324,0.013523,0.002678,0.000431,0.000940
14612000,0.0324,0.013523,0.002678,0.000431,0.000705
14613000,0.0324,0.013523,0.002678,0.000431,0.000705
14614000,0.0324,0.013523,0.002678,0.000431,0.000705
14615000,0.0324,0.013523,0.002678,0.000431,0.000705
14616000,0.0324,0.013523,0.002678,0.000431,0.000940
14617000,0.0324,0.013523,0.002678,0.000431,0.000940
14618000,0.0324,0.013523,0.002678,0.000431,0.000823
14619000,0.0324,0.013523,0.002678,0.000431,0.000823
14620000,0.0324,0.013523,0.002678,0.000431,0.000940
14621000,0.0324,0.013523,0.002678,0.000431,0.000940
14622000,0.0324,0.013523,0.002678,0.000431,0.000940
14623000,0.0324,0.013523,0.002678,0.000431,0.000705
14624000,0.0324,0.013523,0.002678,0.000431,0.001058
14625000,0.0324,0.013523,0.002678,0.000431,0.000940
14626000,0.0324,0.013523,0.002678,0.000431,0.000823
14627000,0.0324,0.013523,0.002678,0.000431,0.000940
14628000,0.0324,0.013523,0.002678,0.000431,0.000940
14629000,0.0324,0.013523,0.002678,0.000431,0.000940
14630000,0.0324,0.013523,0.002678,0.000431,0.000940
14631000,0.0324,0.013523,0.002678,0.000431,0.000705
14632000,0.0324,0.013523,0.002678,0.000431,0.001058
14633000,0.0324,0.013523,0.002678,0.000431,0.000940
14634000,0.0324,0.013523,0.002678,0.000431,0.000823
14635000,0.0324,0.013523,0.002678,0.000431,0.000705
14636000,0.0324,0.013523,0.002678,0.000431,0.001058
14637000,0.0324,0.013523,0.002678,0.000431,0.000940
14638000,0.0324,0.013523,0.002678,0.000431,0.000823
14639000,0.0324,0.013523,0.002678,0.000431,0.000940
14640000,0.0324,0.013523,0.002678,0.000431,0.000940
14641000,0.0324,0.013523,0.002678,0.000431,0.000823
14642000,0.0324,0.013523,0.002678,0.000431,0.000823
14643000,0.0324,0.013523,0.002678,0.000431,0.000940
14644000,0.0324,0.013523,0.002678,0.000431,0.000940
14645000,0.0324,0.013523,0.002678,0.000431,0.000823
14646000,0.0324,0.013523,0.002678,0.000431,0.000823
14647000,0.0324,0.013523,0.002678,0.000431,0.000940
14648000,0.0324,0.013523,0.002678,0.000431,0.000940
14649000,0.0324,0.013523,0.002678,0.000431,0.000705
14650000,0.0324,0.013523,0.002678,0.000431,0.000940
14651000,0.0324,0.013523,0.002678,0.000431,0.000940
14652000,0.0324,0.013523,0.002678,0.000431,0.000940
14653000,0.0324,0.013523,0.002678,0.000431,0.000940
14654000,0.0324,0.013523,0.002678,0.000431,0.000823
14655000,0.0324,0.013523,0.002678,0.000431,0.000588
14656000,0.0324,0.013523,0.002678,0.000431,0.000705
14657000,0.0324,0.013523,0.002678,0.000431,0.000823
14658000,0.0324,0.013523,0.002678,0.000431,0.000823
14659000,0.0324,0.013523,0.002678,0.000431,0.000470
14660000,0.0324,0.013523,0.002678,0.000431,0.000705
14661000,0.0324,0.013523,0.002678,0.000431,0.000940
14662000,0.0324,0.013523,0.002678,0.000431,0.000823
14663000,0.0324,0.013523,0.002678,0.000431,0.000823
14664000,0.0324,0.013523,0.002678,0.000431,0.000940
14665000,0.0324,0.013523,0.002678,0.000431,0.000470
14666000,0.0324,0.013523,0.002678,0.000431,0.001058
14667000,0.0324,0.013523,0.002678,0.000431,0.000940
14668000,0.0324,0.013523,0.002678,0.000431,0.000823
14669000,0.0324,0.013523,0.002678,0.000431,0.000705
14670000,0.0324,0.013523,0.002678,0.000431,0.000705
14671000,0.0324,0.013523,0.002678,0.000431,0.000940
14672000,0.0324,0.013523,0.002678,0.000431,0.000823
14673000,0.0324,0.013523,0.002678,0.000431,0.000823
14674000,0.0324,0.013523,0.002678,0.000431,0.000940
14675000,0.0324,0.013523,0.002678,0.000431,0.000470
14676000,0.0324,0.013523,0.002678,0.000431,0.000705
14677000,0.0324,0.013523,0.002678,0.000431,0.000940
14678000,0.0324,0.013523,0.002678,0.000431,0.000940
14679000,0.0324,0.013523,0.002678,0.000431,0.000705
14680000,0.0324,0.013523,0.002678,0.000431,0.000940
14681000,0.0324,0.013523,0.002678,0.000431,0.000940
14682000,0.0324,0.013523,0.002678,0.000431,0.000823
14683000,0.0324,0.013523,0.002678,0.000431,0.000823
14684000,0.0324,0.013523,0.002678,0.000431,0.000940
14685000,0.0324,0.013523,0.002678,0.000431,0.000940
14686000,0.0324,0.013523,0.002678,0.000431,0.000823
14687000,0.0324,0.013523,0.002678,0.000431,0.000823
14688000,0.0324,0.013523,0.002678,0.000431,0.000705
14689000,0.0324,0.013523,0.002678,0.000431,0.000705
14690000,0.0324,0.013523,0.002678,0.000431,0.001175
14691000,0.0324,0.013523,0.002678,0.000431,0.000705
14692000,0.0324,0.013523,0.002678,0.000431,0.000823
14693000,0.0324,0.013523,0.002678,0.000431,0.000940
14694000,0.0324,0.013523,0.002678,0.000431,0.000940
14695000,0.0324,0.013523,0.002678,0.000431,0.000588
14696000,0.0324,0.013523,0.002678,0.000431,0.001058
14697000,0.0324,0.013523,0.002678,0.000431,0.000940
14698000,0.0324,0.013523,0.002678,0.000431,0.000823
14699000,0.0324,0.013523,0.002678,0.000431,0.000940
14700000,0.0324,0.013523,0.002678,0.000431,0.000940
14701000,0.0324,0.013523,0.002678,0.000431,0.000705
14702000,0.0324,0.013523,0.002678,0.000431,0.000940
14703000,0.0324,0.013523,0.002678,0.000431,0.000940
14704000,0.0324,0.013523,0.002678,0.000431,0.000588
14705000,0.0324,0.013523,0.002678,0.000431,0.000823
14706000,0.0324,0.013523,0.002678,0.000431,0.000940
14707000,0.0324,0.013523,0.002678,0.000431,0.000940
14708000,0.0324,0.013523,0.002678,0.000431,0.000940
14709000,0.0324,0.013523,0.002678,0.000431,0.000588
14710000,0.0324,0.013523,0.002678,0.000431,0.000940
14711000,0.0324,0.013523,0.002678,0.000431,0.000823
14712000,0.0324,0.013523,0.002678,0.000431,0.000705
14713000,0.0324,0.013523,0.002678,0.000431,0.000705
14714000,0.0324,0.013523,0.002678,0.000431,0.000940
14715000,0.0324,0.013523,0.002678,0.000431,0.000940
14716000,0.0324,0.013523,0.002678,0.000431,0.000823
14717000,0.0324,0.013523,0.002678,0.000431,0.000823
14718000,0.0324,0.013523,0.002678,0.000431,0.000940
14719000,0.0324,0.013523,0.002678,0.000431,0.000940
14720000,0.0324,0.013523,0.002678,0.000431,0.000705
14721000,0.0324,0.013523,0.002678,0.000431,0.000940
14722000,0.0324,0.013523,0.002678,0.000431,0.000940
14723000,0.0324,0.013523,0.002678,0.000431,0.000823
14724000,0.0324,0.013523,0.002678,0.000431,0.000823
14725000,0.0324,0.013523,0.002678,0.000431,0.000940
14726000,0.0324,0.013523,0.002678,0.000431,0.000940
14727000,0.0324,0.013523,0.002678,0.000431,0.000823
14728000,0.0324,0.013523,0.002678,0.000431,0.000823
14729000,0.0324,0.013523,0.002678,0.000431,0.000940
14730000,0.0324,0.013523,0.002678,0.000431,0.000705
14731000,0.0324,0.013523,0.002678,0.000431,0.001058
14732000,0.0324,0.013523,0.002678,0.000431,0.000940
14733000,0.0324,0.013523,0.002678,0.000431,0.000823
14734000,0.0324,0.013523,0.002678,0.000431,0.001058
14735000,0.0324,0.013523,0.002678,0.000431,0.000940
14736000,0.0324,0.013523,0.002678,0.000431,0.000940
14737000,0.0324,0.013523,0.002678,0.000431,0.001175
14738000,0.0324,0.013523,0.002678,0.000431,0.001058
14739000,0.0324,0.013523,0.002678,0.000431,0.000940
14740000,0.0324,0.013523,0.002678,0.000431,0.000705
14741000,0.0324,0.013523,0.002678,0.000431,0.001175
14742000,0.0324,0.013523,0.002678,0.000431,0.000823
14743000,0.0324,0.013523,0.002678,0.000431,0.000940
14744000,0.0324,0.013523,0.002678,0.000431,0.000940
14745000,0.0324,0.013523,0.002678,0.000431,0.001058
14746000,0.0324,0.013523,0.002678,0.000431,0.000940
14747000,0.0324,0.013523,0.002678,0.000431,0.001058
14748000,0.0324,0.013523,0.002678,0.000431,0.001175
14749000,0.0324,0.013523,0.002678,0.000431,0.000823
14750000,0.0324,0.013523,0.002678,0.000431,0.000940
14751000,0.0324,0.013523,0.002678,0.000431,0.001058
14752000,0.0324,0.013523,0.002678,0.000431,0.001175
14753000,0.0324,0.013523,0.002678,0.000431,0.000940
14754000,0.0324,0.013523,0.002678,0.000431,0.000823
14755000,0.0324,0.013523,0.002678,0.000431,0.001175
14756000,0.0324,0.013523,0.002678,0.000431,0.000940
14757000,0.0324,0.013523,0.002678,0.000431,0.000940
14758000,0.0324,0.013523,0.002678,0.000431,0.001175
14759000,0.0324,0.013523,0.002678,0.000431,0.000940
14760000,0.0324,0.013523,0.002678,0.000431,0.000940
14761000,0.0324,0.013523,0.002678,0.000431,0.001175
14762000,0.0324,0.013523,0.002678,0.000431,0.000940
14763000,0.0324,0.013523,0.002678,0.000431,0.001175
14764000,0.0324,0.013523,0.002678,0.000431,0.000940
14765000,0.0324,0.013523,0.002678,0.000431,0.000940
14766000,0.0324,0.013523,0.002678,0.000431,0.000940
14767000,0.0324,0.013523,0.002678,0.000431,0.000940
14768000,0.0324,0.013523,0.002678,0.000431,0.000823
14769000,0.0324,0.013523,0.002678,0.000431,0.001175
14770000,0.0324,0.013523,0.002678,0.000431,0.001058
14771000,0.0324,0.013523,0.002678,0.000431,0.000940
14772000,0.0324,0.013523,0.002678,0.000431,0.000940
14773000,0.0324,0.013523,0.002678,0.000431,0.001058
14774000,0.0324,0.013523,0.002678,0.000431,0.001175
14775000,0.0324,0.013523,0.002678,0.000431,0.000940
14776000,0.0324,0.013523,0.002678,0.000431,0.001058
14777000,0.0324,0.013523,0.002678,0.000431,0.001058
14778000,0.0324,0.013523,0.002678,0.000431,0.000823
14779000,0.0324,0.013523,0.002678,0.000431,0.000940
14780000,0.0324,0.013523,0.002678,0.000431,0.000940
14781000,0.0324,0.013523,0.002678,0.000431,0.000940
14782000,0.0324,0.013523,0.002678,0.000431,0.000470
14783000,0.0324,0.013523,0.002678,0.000431,0.000588
14784000,0.0324,0.013523,0.002678,0.000431,0.000588
14785000,0.0324,0.013523,0.002678,0.000431,0.000705
14786000,0.0324,0.013523,0.002678,0.000431,0.000588
14787000,0.0324,0.013523,0.002678,0.000431,0.000588
14788000,0.0324,0.013523,0.002678,0.000431,0.000588
14789000,0.0324,0.013523,0.002678,0.000431,0.000588
14790000,0.0324,0.013523,0.002678,0.000431,0.000705
14791000,0.0324,0.013523,0.002678,0.000431,0.000705
14792000,0.0324,0.013523,0.002678,0.000431,0.000470
14793000,0.0324,0.013523,0.002678,0.000431,0.000588
14794000,0.0324,0.013523,0.002678,0.000431,0.000705
14795000,0.0324,0.013523,0.002678,0.000431,0.000588
14796000,0.0324,0.013523,0.002678,0.000431,0.000588
14797000,0.0324,0.013523,0.002678,0.000431,0.000588
14798000,0.0324,0.013523,0.002678,0.000431,0.000705
14799000,0.0324,0.013523,0.002678,0.000431,0.000470
14800000,0.0324,0.013523,0.002678,0.000431,0.000705
14801000,0.0324,0.013523,0.002678,0.000431,0.000705
14802000,0.0324,0.013523,0.002678,0.000431,0.000470
14803000,0.0324,0.013523,0.002678,0.000431,0.000705
14804000,0.0324,0.013523,0.002678,0.000431,0.000470
14805000,0.0324,0.013523,0.002678,0.000431,0.000705
14806000,0.0324,0.013523,0.002678,0.000431,0.000705
14807000,0.0324,0.013523,0.002678,0.000431,0.000470
14808000,0.0324,0.013523,0.002678,0.000431,0.000823
14809000,0.0324,0.013523,0.002678,0.000431,0.000940
14810000,0.0324,0.013523,0.002678,0.000431,0.001175
14811000,0.0324,0.013523,0.002678,0.000431,0.000940
14812000,0.0324,0.013523,0.002678,0.000431,0.000823
14813000,0.0324,0.013523,0.002678,0.000431,0.000940
14814000,0.0324,0.013523,0.002678,0.000431,0.000940
14815000,0.0324,0.013523,0.002678,0.000431,0.001058
14816000,0.0324,0.013523,0.002678,0.000431,0.000940
14817000,0.0324,0.013523,0.002678,0.000431,0.000823
14818000,0.0324,0.013523,0.002678,0.000431,0.000705
14819000,0.0324,0.013523,0.002678,0.000431,0.001058
14820000,0.0324,0.013523,0.002678,0.000431,0.000940
14821000,0.0324,0.013523,0.002678,0.000431,0.000823
14822000,0.0324,0.013523,0.002678,0.000431,0.000823
14823000,0.0324,0.013523,0.002678,0.000431,0.000940
14824000,0.0324,0.013523,0.002678,0.000431,0.000823
14825000,0.0324,0.013523,0.002678,0.000431,0.000940
14826000,0.0324,0.013523,0.002678,0.000431,0.001058
14827000,0.0324,0.013523,0.002678,0.000431,0.001058
14828000,0.0324,0.013523,0.002678,0.000431,0.000940
14829000,0.0324,0.013523,0.002678,0.000431,0.000940
14830000,0.0324,0.013523,0.002678,0.000431,0.000940
14831000,0.0324,0.013523,0.002678,0.000431,0.000823
14832000,0.0324,0.013523,0.002678,0.000431,0.000823
14833000,0.0324,0.013523,0.002678,0.000431,0.000940
14834000,0.0324,0.013523,0.002678,0.000431,0.000823
14835000,0.0324,0.013523,0.002678,0.000431,0.000823
14836000,0.0324,0.013523,0.002678,0.000431,0.000823
14837000,0.0324,0.013523,0.002678,0.000431,0.000588
14838000,0.0324,0.013523,0.002678,0.000431,0.000940
14839000,0.0324,0.013523,0.002678,0.000431,0.000940
14840000,0.0324,0.013523,0.002678,0.000431,0.000705
14841000,0.0324,0.013523,0.002678,0.000431,0.000823
14842000,0.0324,0.013523,0.002678,0.000431,0.000705
14843000,0.0324,0.013523,0.002678,0.000431,0.001058
14844000,0.0324,0.013523,0.002678,0.000431,0.000823
14845000,0.0324,0.013523,0.002678,0.000431,0.000823
14846000,0.0324,0.013523,0.002678,0.000431,0.000705
14847000,0.0324,0.013523,0.002678,0.000431,0.001058
14848000,0.0324,0.013523,0.002678,0.000431,0.000940
14849000,0.0324,0.013523,0.002678,0.000431,0.000588
14850000,0.0324,0.013523,0.002678,0.000431,0.000588
14851000,0.0324,0.013523,0.002678,0.000431,0.000940
14852000,0.0324,0.013523,0.002678,0.000431,0.000588
14853000,0.0324,0.013523,0.002678,0.000431,0.001058
14854000,0.0324,0.013523,0.002678,0.000431,0.000940
14855000,0.0324,0.013523,0.002678,0.000431,0.000588
14856000,0.0324,0.013523,0.002678,0.000431,0.000588
14857000,0.0324,0.013523,0.002678,0.000431,0.000940
14858000,0.0324,0.013523,0.002678,0.000431,0.000823
14859000,0.0324,0.013523,0.002678,0.000431,0.000940
14860000,0.0324,0.013523,0.002678,0.000431,0.001058
14861000,0.0324,0.013523,0.002678,0.000431,0.000940
14862000,0.0324,0.013523,0.002678,0.000431,0.001058
14863000,0.0324,0.013523,0.002678,0.000431,0.000823
14864000,0.0324,0.013523,0.002678,0.000431,0.001058
14865000,0.0324,0.013523,0.002678,0.000431,0.000940
14866000,0.0324,0.013523,0.002678,0.000431,0.000823
14867000,0.0324,0.013523,0.002678,0.000431,0.000823
14868000,0.0324,0.013523,0.002678,0.000431,0.000940
14869000,0.0324,0.013523,0.002678,0.000431,0.000940
14870000,0.0324,0.013523,0.002678,0.000431,0.000823
14871000,0.0324,0.013523,0.002678,0.000431,0.000823
14872000,0.0324,0.013523,0.002678,0.000431,0.001058
14873000,0.0324,0.013523,0.002678,0.000431,0.000940
14874000,0.0324,0.013523,0.002678,0.000431,0.001058
14875000,0.0324,0.013523,0.002678,0.000431,0.001175
14876000,0.0324,0.013523,0.002678,0.000431,0.000940
14877000,0.0324,0.013523,0.002678,0.000431,0.000940
14878000,0.0324,0.013523,0.002678,0.000431,0.000940
14879000,0.0324,0.013523,0.002678,0.000431,0.001058
14880000,0.0324,0.013523,0.002678,0.000431,0.001058
14881000,0.0324,0.013523,0.002678,0.000431,0.001058
14882000,0.0324,0.013523,0.002678,0.000431,0.000940
14883000,0.0324,0.013523,0.002678,0.000431,0.000940
14884000,0.0324,0.013523,0.002678,0.000431,0.001058
14885000,0.0324,0.013523,0.002678,0.000431,0.001175
14886000,0.0324,0.013523,0.002678,0.000431,0.000940
14887000,0.0324,0.013523,0.002678,0.000431,0.000940
14888000,0.0324,0.013523,0.002678,0.000431,0.000940
14889000,0.0324,0.013523,0.002678,0.000431,0.001058
14890000,0.0324,0.013523,0.002678,0.000431,0.001058
14891000,0.0324,0.013523,0.002678,0.000431,0.000940
14892000,0.0324,0.013523,0.002678,0.000431,0.000823
14893000,0.0324,0.013523,0.002678,0.000431,0.000823
14894000,0.0324,0.013523,0.002678,0.000431,0.000940
14895000,0.0324,0.013523,0.002678,0.000431,0.000940
14896000,0.0324,0.013523,0.002678,0.000431,0.001175
14897000,0.0324,0.013523,0.002678,0.000431,0.000823
14898000,0.0324,0.013523,0.002678,0.000431,0.001175
14899000,0.0324,0.013523,0.002678,0.000431,0.000940
14900000,0.0324,0.013523,0.002678,0.000431,0.000940
14901000,0.0324,0.013523,0.002678,0.000431,0.001058
14902000,0.0324,0.013523,0.002678,0.000431,0.001058
14903000,0.0324,0.013523,0.002678,0.000431,0.000940
14904000,0.0324,0.013523,0.002678,0.000431,0.000940
14905000,0.0324,0.013523,0.002678,0.000431,0.000823
14906000,0.0324,0.013523,0.002678,0.000431,0.000940
14907000,0.0324,0.013523,0.002678,0.000431,0.001175
14908000,0.0324,0.013523,0.002678,0.000431,0.000940
14909000,0.0324,0.013523,0.002678,0.000431,0.001058
14910000,0.0324,0.013523,0.002678,0.000431,0.001175
14911000,0.0324,0.013523,0.002678,0.000431,0.000940
14912000,0.0324,0.013523,0.002678,0.000431,0.000823
14913000,0.0324,0.013523,0.002678,0.000431,0.000940
14914000,0.0324,0.013523,0.002678,0.000431,0.001058
14915000,0.0324,0.013523,0.002678,0.000431,0.000940
14916000,0.0324,0.013523,0.002678,0.000431,0.000823
14917000,0.0324,0.013523,0.002678,0.000431,0.000705
14918000,0.0324,0.013523,0.002678,0.000431,0.001058
14919000,0.0324,0.013523,0.002678,0.000431,0.000940
14920000,0.0324,0.013523,0.002678,0.000431,0.000823
14921000,0.0324,0.013523,0.002678,0.000431,0.000705
14922000,0.0324,0.013523,0.002678,0.000431,0.001058
14923000,0.0324,0.013523,0.002678,0.000431,0.000940
14924000,0.0324,0.013523,0.002678,0.000431,0.000823
14925000,0.0324,0.013523,0.002678,0.000431,0.000940
14926000,0.0324,0.013523,0.002678,0.000431,0.000940
14927000,0.0324,0.013523,0.002678,0.000431,0.000705
14928000,0.0324,0.013523,0.002678,0.000431,0.000940
14929000,0.0324,0.013523,0.002678,0.000431,0.000940
14930000,0.0324,0.013523,0.002678,0.000431,0.001175
14931000,0.0324,0.013523,0.002678,0.000431,0.000940
14932000,0.0324,0.013523,0.002678,0.000431,0.001058
14933000,0.0324,0.013523,0.002678,0.000431,0.000940
14934000,0.0324,0.013523,0.002678,0.000431,0.001058
14935000,0.0324,0.013523,0.002678,0.000431,0.000823
14936000,0.0324,0.013523,0.002678,0.000431,0.000823
14937000,0.0324,0.013523,0.002678,0.000431,0.000940
14938000,0.0324,0.013523,0.002678,0.000431,0.000940
14939000,0.0324,0.013523,0.002678,0.000431,0.000940
14940000,0.0324,0.013523,0.002678,0.000431,0.000940
14941000,0.0324,0.013523,0.002678,0.000431,0.000823
14942000,0.0324,0.013523,0.002678,0.000431,0.000823
14943000,0.0324,0.013523,0.002678,0.000431,0.000940
14944000,0.0324,0.013523,0.002678,0.000431,0.001058
14945000,0.0324,0.013523,0.002678,0.000431,0.000823
14946000,0.0324,0.013523,0.002678,0.000431,0.000705
14947000,0.0324,0.013523,0.002678,0.000431,0.001058
14948000,0.0324,0.013523,0.002678,0.000431,0.000940
14949000,0.0324,0.013523,0.002678,0.000431,0.000940
14950000,0.0324,0.013523,0.002678,0.000431,0.001058
14951000,0.0324,0.013523,0.002678,0.000431,0.001058
14952000,0.0324,0.013523,0.002678,0.000431,0.000940
14953000,0.0324,0.013523,0.002678,0.000431,0.000823
14954000,0.0324,0.013523,0.002678,0.000431,0.001058
14955000,0.0324,0.013523,0.002678,0.000431,0.000823
14956000,0.0324,0.013523,0.002678,0.000431,0.000705
14957000,0.0324,0.013523,0.002678,0.000431,0.000940
14958000,0.0324,0.013523,0.002678,0.000431,0.000940
14959000,0.0324,0.013523,0.002678,0.000431,0.000940
14960000,0.0324,0.013523,0.002678,0.000431,0.000940
14961000,0.0324,0.013523,0.002678,0.000431,0.001175
14962000,0.0324,0.013523,0.002678,0.000431,0.000823
14963000,0.0324,0.013523,0.002678,0.000431,0.000940
14964000,0.0324,0.013523,0.002678,0.000431,0.000823
14965000,0.0324,0.013523,0.002678,0.000431,0.000940
14966000,0.0324,0.013523,0.002678,0.000431,0.000940
14967000,0.0324,0.013523,0.002678,0.000431,0.000823
14968000,0.0324,0.013523,0.002678,0.000431,0.000823
14969000,0.0324,0.013523,0.002678,0.000431,0.000940
14970000,0.0324,0.013523,0.002678,0.000431,0.000940
14971000,0.0324,0.013523,0.002678,0.000431,0.000823
14972000,0.0324,0.013523,0.002678,0.000431,0.000823
14973000,0.0324,0.013523,0.002678,0.000431,0.000940
14974000,0.0324,0.013523,0.002678,0.000431,0.000940
14975000,0.0324,0.013523,0.002678,0.000431,0.000705
14976000,0.0324,0.013523,0.002678,0.000431,0.000940
14977000,0.0324,0.013523,0.002678,0.000431,0.000940
14978000,0.0324,0.013523,0.002678,0.000431,0.000705
14979000,0.0324,0.013523,0.002678,0.000431,0.000823
14980000,0.0324,0.013523,0.002678,0.000431,0.000940
14981000,0.0324,0.013523,0.002678,0.000431,0.001175
14982000,0.0324,0.013523,0.002678,0.000431,0.000940
14983000,0.0324,0.013523,0.002678,0.000431,0.000823
14984000,0.0324,0.013523,0.002678,0.000431,0.000940
14985000,0.0324,0.013523,0.002678,0.000431,0.001175
14986000,0.0324,0.013523,0.002678,0.000431,0.000940
14987000,0.0324,0.013523,0.002678,0.000431,0.000823
14988000,0.0324,0.013523,0.002678,0.000431,0.000588
14989000,0.0324,0.013523,0.002678,0.000431,0.000940
14990000,0.0324,0.013523,0.002678,0.000431,0.000940
14991000,0.0324,0.013523,0.002678,0.000431,0.000705
14992000,0.0324,0.013523,0.002678,0.000431,0.000940
14993000,0.0324,0.013523,0.002678,0.000431,0.000940
14994000,0.0324,0.013523,0.002678,0.000431,0.000823
14995000,0.0324,0.013523,0.002678,0.000431,0.000823
14996000,0.0324,0.013523,0.002678,0.000431,0.000940
14997000,0.0324,0.013523,0.002678,0.000431,0.000940
14998000,0.0324,0.013523,0.002678,0.000431,0.000823
14999000,0.0324,0.013523,0.002678,0.000431,0.000823
