Cycle,Area(mm^2),PeakDynamic(W),SubthresholdLeakage(W),GateLeakage(W),RunTimeDynamic(W)
12000000,0.0324,0.013523,0.002678,0.000431,0.000940
12001000,0.0324,0.013523,0.002678,0.000431,0.000588
12002000,0.0324,0.013523,0.002678,0.000431,0.000588
12003000,0.0324,0.013523,0.002678,0.000431,0.000940
12004000,0.0324,0.013523,0.002678,0.000431,0.000823
12005000,0.0324,0.013523,0.002678,0.000431,0.000823
12006000,0.0324,0.013523,0.002678,0.000431,0.000705
12007000,0.0324,0.013523,0.002678,0.000431,0.001058
12008000,0.0324,0.013523,0.002678,0.000431,0.000823
12009000,0.0324,0.013523,0.002678,0.000431,0.000823
12010000,0.0324,0.013523,0.002678,0.000431,0.000823
12011000,0.0324,0.013523,0.002678,0.000431,0.000705
12012000,0.0324,0.013523,0.002678,0.000431,0.000588
12013000,0.0324,0.013523,0.002678,0.000431,0.000940
12014000,0.0324,0.013523,0.002678,0.000431,0.000823
12015000,0.0324,0.013523,0.002678,0.000431,0.000705
12016000,0.0324,0.013523,0.002678,0.000431,0.000940
12017000,0.0324,0.013523,0.002678,0.000431,0.000588
12018000,0.0324,0.013523,0.002678,0.000431,0.000823
12019000,0.0324,0.013523,0.002678,0.000431,0.000705
12020000,0.0324,0.013523,0.002678,0.000431,0.000705
12021000,0.0324,0.013523,0.002678,0.000431,0.000940
12022000,0.0324,0.013523,0.002678,0.000431,0.000940
12023000,0.0324,0.013523,0.002678,0.000431,0.001058
12024000,0.0324,0.013523,0.002678,0.000431,0.000588
12025000,0.0324,0.013523,0.002678,0.000431,0.001058
12026000,0.0324,0.013523,0.002678,0.000431,0.000940
12027000,0.0324,0.013523,0.002678,0.000431,0.000588
12028000,0.0324,0.013523,0.002678,0.000431,0.000705
12029000,0.0324,0.013523,0.002678,0.000431,0.000470
12030000,0.0324,0.013523,0.002678,0.000431,0.000588
12031000,0.0324,0.013523,0.002678,0.000431,0.000588
12032000,0.0324,0.013523,0.002678,0.000431,0.000823
12033000,0.0324,0.013523,0.002678,0.000431,0.000823
12034000,0.0324,0.013523,0.002678,0.000431,0.000470
12035000,0.0324,0.013523,0.002678,0.000431,0.000940
12036000,0.0324,0.013523,0.002678,0.000431,0.000588
12037000,0.0324,0.013523,0.002678,0.000431,0.000940
12038000,0.0324,0.013523,0.002678,0.000431,0.000823
12039000,0.0324,0.013523,0.002678,0.000431,0.000823
12040000,0.0324,0.013523,0.002678,0.000431,0.000705
12041000,0.0324,0.013523,0.002678,0.000431,0.000705
12042000,0.0324,0.013523,0.002678,0.000431,0.000940
12043000,0.0324,0.013523,0.002678,0.000431,0.000588
12044000,0.0324,0.013523,0.002678,0.000431,0.000588
12045000,0.0324,0.013523,0.002678,0.000431,0.000588
12046000,0.0324,0.013523,0.002678,0.000431,0.000940
12047000,0.0324,0.013523,0.002678,0.000431,0.000705
12048000,0.0324,0.013523,0.002678,0.000431,0.000470
12049000,0.0324,0.013523,0.002678,0.000431,0.000705
12050000,0.0324,0.013523,0.002678,0.000431,0.000588
12051000,0.0324,0.013523,0.002678,0.000431,0.000588
12052000,0.0324,0.013523,0.002678,0.000431,0.000470
12053000,0.0324,0.013523,0.002678,0.000431,0.000823
12054000,0.0324,0.013523,0.002678,0.000431,0.000823
12055000,0.0324,0.013523,0.002678,0.000431,0.000470
12056000,0.0324,0.013523,0.002678,0.000431,0.000705
12057000,0.0324,0.013523,0.002678,0.000431,0.000705
12058000,0.0324,0.013523,0.002678,0.000431,0.000823
12059000,0.0324,0.013523,0.002678,0.000431,0.000588
12060000,0.0324,0.013523,0.002678,0.000431,0.000940
12061000,0.0324,0.013523,0.002678,0.000431,0.000940
12062000,0.0324,0.013523,0.002678,0.000431,0.000705
12063000,0.0324,0.013523,0.002678,0.000431,0.000470
12064000,0.0324,0.013523,0.002678,0.000431,0.000705
12065000,0.0324,0.013523,0.002678,0.000431,0.000470
12066000,0.0324,0.013523,0.002678,0.000431,0.000705
12067000,0.0324,0.013523,0.002678,0.000431,0.000470
12068000,0.0324,0.013523,0.002678,0.000431,0.000823
12069000,0.0324,0.013523,0.002678,0.000431,0.000823
12070000,0.0324,0.013523,0.002678,0.000431,0.000705
12071000,0.0324,0.013523,0.002678,0.000431,0.000940
12072000,0.0324,0.013523,0.002678,0.000431,0.000823
12073000,0.0324,0.013523,0.002678,0.000431,0.000588
12074000,0.0324,0.013523,0.002678,0.000431,0.000705
12075000,0.0324,0.013523,0.002678,0.000431,0.000470
12076000,0.0324,0.013523,0.002678,0.000431,0.000705
12077000,0.0324,0.013523,0.002678,0.000431,0.000823
12078000,0.0324,0.013523,0.002678,0.000431,0.000588
12079000,0.0324,0.013523,0.002678,0.000431,0.000705
12080000,0.0324,0.013523,0.002678,0.000431,0.000940
12081000,0.0324,0.013523,0.002678,0.000431,0.000823
12082000,0.0324,0.013523,0.002678,0.000431,0.000588
12083000,0.0324,0.013523,0.002678,0.000431,0.000588
12084000,0.0324,0.013523,0.002678,0.000431,0.000588
12085000,0.0324,0.013523,0.002678,0.000431,0.000470
12086000,0.0324,0.013523,0.002678,0.000431,0.000705
12087000,0.0324,0.013523,0.002678,0.000431,0.000470
12088000,0.0324,0.013523,0.002678,0.000431,0.000705
12089000,0.0324,0.013523,0.002678,0.000431,0.000940
12090000,0.0324,0.013523,0.002678,0.000431,0.000940
12091000,0.0324,0.013523,0.002678,0.000431,0.000705
12092000,0.0324,0.013523,0.002678,0.000431,0.000705
12093000,0.0324,0.013523,0.002678,0.000431,0.000940
12094000,0.0324,0.013523,0.002678,0.000431,0.000940
12095000,0.0324,0.013523,0.002678,0.000431,0.000823
12096000,0.0324,0.013523,0.002678,0.000431,0.000588
12097000,0.0324,0.013523,0.002678,0.000431,0.000940
12098000,0.0324,0.013523,0.002678,0.000431,0.000940
12099000,0.0324,0.013523,0.002678,0.000431,0.000940
12100000,0.0324,0.013523,0.002678,0.000431,0.000940
12101000,0.0324,0.013523,0.002678,0.000431,0.001058
12102000,0.0324,0.013523,0.002678,0.000431,0.000705
12103000,0.0324,0.013523,0.002678,0.000431,0.000823
12104000,0.0324,0.013523,0.002678,0.000431,0.000705
12105000,0.0324,0.013523,0.002678,0.000431,0.000705
12106000,0.0324,0.013523,0.002678,0.000431,0.000470
12107000,0.0324,0.013523,0.002678,0.000431,0.000588
12108000,0.0324,0.013523,0.002678,0.000431,0.000588
12109000,0.0324,0.013523,0.002678,0.000431,0.000470
12110000,0.0324,0.013523,0.002678,0.000431,0.000705
12111000,0.0324,0.013523,0.002678,0.000431,0.000470
12112000,0.0324,0.013523,0.002678,0.000431,0.000588
12113000,0.0324,0.013523,0.002678,0.000431,0.000940
12114000,0.0324,0.013523,0.002678,0.000431,0.000588
12115000,0.0324,0.013523,0.002678,0.000431,0.000705
12116000,0.0324,0.013523,0.002678,0.000431,0.000823
12117000,0.0324,0.013523,0.002678,0.000431,0.000823
12118000,0.0324,0.013523,0.002678,0.000431,0.001058
12119000,0.0324,0.013523,0.002678,0.000431,0.000940
12120000,0.0324,0.013523,0.002678,0.000431,0.000823
12121000,0.0324,0.013523,0.002678,0.000431,0.000705
12122000,0.0324,0.013523,0.002678,0.000431,0.001058
12123000,0.0324,0.013523,0.002678,0.000431,0.000940
12124000,0.0324,0.013523,0.002678,0.000431,0.000588
12125000,0.0324,0.013523,0.002678,0.000431,0.000588
12126000,0.0324,0.013523,0.002678,0.000431,0.000588
12127000,0.0324,0.013523,0.002678,0.000431,0.000823
12128000,0.0324,0.013523,0.002678,0.000431,0.000823
12129000,0.0324,0.013523,0.002678,0.000431,0.000470
12130000,0.0324,0.013523,0.002678,0.000431,0.000705
12131000,0.0324,0.013523,0.002678,0.000431,0.000470
12132000,0.0324,0.013523,0.002678,0.000431,0.000588
12133000,0.0324,0.013523,0.002678,0.000431,0.000588
12134000,0.0324,0.013523,0.002678,0.000431,0.000588
12135000,0.0324,0.013523,0.002678,0.000431,0.000705
12136000,0.0324,0.013523,0.002678,0.000431,0.000588
12137000,0.0324,0.013523,0.002678,0.000431,0.001175
12138000,0.0324,0.013523,0.002678,0.000431,0.000823
12139000,0.0324,0.013523,0.002678,0.000431,0.000588
12140000,0.0324,0.013523,0.002678,0.000431,0.000823
12141000,0.0324,0.013523,0.002678,0.000431,0.000823
12142000,0.0324,0.013523,0.002678,0.000431,0.001058
12143000,0.0324,0.013523,0.002678,0.000431,0.000940
12144000,0.0324,0.013523,0.002678,0.000431,0.000823
12145000,0.0324,0.013523,0.002678,0.000431,0.000940
12146000,0.0324,0.013523,0.002678,0.000431,0.000470
12147000,0.0324,0.013523,0.002678,0.000431,0.000705
12148000,0.0324,0.013523,0.002678,0.000431,0.000940
12149000,0.0324,0.013523,0.002678,0.000431,0.000470
12150000,0.0324,0.013523,0.002678,0.000431,0.000705
12151000,0.0324,0.013523,0.002678,0.000431,0.001058
12152000,0.0324,0.013523,0.002678,0.000431,0.000588
12153000,0.0324,0.013523,0.002678,0.000431,0.000940
12154000,0.0324,0.013523,0.002678,0.000431,0.000823
12155000,0.0324,0.013523,0.002678,0.000431,0.000705
12156000,0.0324,0.013523,0.002678,0.000431,0.000940
12157000,0.0324,0.013523,0.002678,0.000431,0.000823
12158000,0.0324,0.013523,0.002678,0.000431,0.000940
12159000,0.0324,0.013523,0.002678,0.000431,0.000470
12160000,0.0324,0.013523,0.002678,0.000431,0.000588
12161000,0.0324,0.013523,0.002678,0.000431,0.000588
12162000,0.0324,0.013523,0.002678,0.000431,0.000470
12163000,0.0324,0.013523,0.002678,0.000431,0.000588
12164000,0.0324,0.013523,0.002678,0.000431,0.000940
12165000,0.0324,0.013523,0.002678,0.000431,0.000588
12166000,0.0324,0.013523,0.002678,0.000431,0.000705
12167000,0.0324,0.013523,0.002678,0.000431,0.000470
12168000,0.0324,0.013523,0.002678,0.000431,0.000705
12169000,0.0324,0.013523,0.002678,0.000431,0.000588
12170000,0.0324,0.013523,0.002678,0.000431,0.001058
12171000,0.0324,0.013523,0.002678,0.000431,0.000823
12172000,0.0324,0.013523,0.002678,0.000431,0.000588
12173000,0.0324,0.013523,0.002678,0.000431,0.000705
12174000,0.0324,0.013523,0.002678,0.000431,0.000940
12175000,0.0324,0.013523,0.002678,0.000431,0.001058
12176000,0.0324,0.013523,0.002678,0.000431,0.000588
12177000,0.0324,0.013523,0.002678,0.000431,0.000470
12178000,0.0324,0.013523,0.002678,0.000431,0.000705
12179000,0.0324,0.013523,0.002678,0.000431,0.000940
12180000,0.0324,0.013523,0.002678,0.000431,0.000823
12181000,0.0324,0.013523,0.002678,0.000431,0.000588
12182000,0.0324,0.013523,0.002678,0.000431,0.000705
12183000,0.0324,0.013523,0.002678,0.000431,0.000940
12184000,0.0324,0.013523,0.002678,0.000431,0.000940
12185000,0.0324,0.013523,0.002678,0.000431,0.000705
12186000,0.0324,0.013523,0.002678,0.000431,0.000470
12187000,0.0324,0.013523,0.002678,0.000431,0.000823
12188000,0.0324,0.013523,0.002678,0.000431,0.000823
12189000,0.0324,0.013523,0.002678,0.000431,0.000940
12190000,0.0324,0.013523,0.002678,0.000431,0.000588
12191000,0.0324,0.013523,0.002678,0.000431,0.000588
12192000,0.0324,0.013523,0.002678,0.000431,0.001175
12193000,0.0324,0.013523,0.002678,0.000431,0.000940
12194000,0.0324,0.013523,0.002678,0.000431,0.000588
12195000,0.0324,0.013523,0.002678,0.000431,0.000823
12196000,0.0324,0.013523,0.002678,0.000431,0.000705
12197000,0.0324,0.013523,0.002678,0.000431,0.001058
12198000,0.0324,0.013523,0.002678,0.000431,0.000588
12199000,0.0324,0.013523,0.002678,0.000431,0.000823
12200000,0.0324,0.013523,0.002678,0.000431,0.000823
12201000,0.0324,0.013523,0.002678,0.000431,0.000940
12202000,0.0324,0.013523,0.002678,0.000431,0.000940
12203000,0.0324,0.013523,0.002678,0.000431,0.000588
12204000,0.0324,0.013523,0.002678,0.000431,0.000940
12205000,0.0324,0.013523,0.002678,0.000431,0.000823
12206000,0.0324,0.013523,0.002678,0.000431,0.000823
12207000,0.0324,0.013523,0.002678,0.000431,0.000705
12208000,0.0324,0.013523,0.002678,0.000431,0.000823
12209000,0.0324,0.013523,0.002678,0.000431,0.000705
12210000,0.0324,0.013523,0.002678,0.000431,0.000705
12211000,0.0324,0.013523,0.002678,0.000431,0.000940
12212000,0.0324,0.013523,0.002678,0.000431,0.000940
12213000,0.0324,0.013523,0.002678,0.000431,0.000823
12214000,0.0324,0.013523,0.002678,0.000431,0.000940
12215000,0.0324,0.013523,0.002678,0.000431,0.000823
12216000,0.0324,0.013523,0.002678,0.000431,0.000588
12217000,0.0324,0.013523,0.002678,0.000431,0.000823
12218000,0.0324,0.013523,0.002678,0.000431,0.000940
12219000,0.0324,0.013523,0.002678,0.000431,0.000705
12220000,0.0324,0.013523,0.002678,0.000431,0.000940
12221000,0.0324,0.013523,0.002678,0.000431,0.000823
12222000,0.0324,0.013523,0.002678,0.000431,0.001058
12223000,0.0324,0.013523,0.002678,0.000431,0.000705
12224000,0.0324,0.013523,0.002678,0.000431,0.001058
12225000,0.0324,0.013523,0.002678,0.000431,0.000588
12226000,0.0324,0.013523,0.002678,0.000431,0.000588
12227000,0.0324,0.013523,0.002678,0.000431,0.000588
12228000,0.0324,0.013523,0.002678,0.000431,0.000470
12229000,0.0324,0.013523,0.002678,0.000431,0.001058
12230000,0.0324,0.013523,0.002678,0.000431,0.000940
12231000,0.0324,0.013523,0.002678,0.000431,0.000588
12232000,0.0324,0.013523,0.002678,0.000431,0.000588
12233000,0.0324,0.013523,0.002678,0.000431,0.000940
12234000,0.0324,0.013523,0.002678,0.000431,0.000588
12235000,0.0324,0.013523,0.002678,0.000431,0.001058
12236000,0.0324,0.013523,0.002678,0.000431,0.000940
12237000,0.0324,0.013523,0.002678,0.000431,0.000588
12238000,0.0324,0.013523,0.002678,0.000431,0.000823
12239000,0.0324,0.013523,0.002678,0.000431,0.000823
12240000,0.0324,0.013523,0.002678,0.000431,0.000940
12241000,0.0324,0.013523,0.002678,0.000431,0.000940
12242000,0.0324,0.013523,0.002678,0.000431,0.000823
12243000,0.0324,0.013523,0.002678,0.000431,0.000823
12244000,0.0324,0.013523,0.002678,0.000431,0.000940
12245000,0.0324,0.013523,0.002678,0.000431,0.000705
12246000,0.0324,0.013523,0.002678,0.000431,0.001058
12247000,0.0324,0.013523,0.002678,0.000431,0.000588
12248000,0.0324,0.013523,0.002678,0.000431,0.000705
12249000,0.0324,0.013523,0.002678,0.000431,0.000940
12250000,0.0324,0.013523,0.002678,0.000431,0.001058
12251000,0.0324,0.013523,0.002678,0.000431,0.000588
12252000,0.0324,0.013523,0.002678,0.000431,0.000940
12253000,0.0324,0.013523,0.002678,0.000431,0.000705
12254000,0.0324,0.013523,0.002678,0.000431,0.000940
12255000,0.0324,0.013523,0.002678,0.000431,0.000823
12256000,0.0324,0.013523,0.002678,0.000431,0.000940
12257000,0.0324,0.013523,0.002678,0.000431,0.000823
12258000,0.0324,0.013523,0.002678,0.000431,0.000705
12259000,0.0324,0.013523,0.002678,0.000431,0.001058
12260000,0.0324,0.013523,0.002678,0.000431,0.000940
12261000,0.0324,0.013523,0.002678,0.000431,0.000588
12262000,0.0324,0.013523,0.002678,0.000431,0.000823
12263000,0.0324,0.013523,0.002678,0.000431,0.000940
12264000,0.0324,0.013523,0.002678,0.000431,0.000940
12265000,0.0324,0.013523,0.002678,0.000431,0.000823
12266000,0.0324,0.013523,0.002678,0.000431,0.001058
12267000,0.0324,0.013523,0.002678,0.000431,0.000823
12268000,0.0324,0.013523,0.002678,0.000431,0.001058
12269000,0.0324,0.013523,0.002678,0.000431,0.000823
12270000,0.0324,0.013523,0.002678,0.000431,0.000705
12271000,0.0324,0.013523,0.002678,0.000431,0.001058
12272000,0.0324,0.013523,0.002678,0.000431,0.000940
12273000,0.0324,0.013523,0.002678,0.000431,0.000940
12274000,0.0324,0.013523,0.002678,0.000431,0.000823
12275000,0.0324,0.013523,0.002678,0.000431,0.000940
12276000,0.0324,0.013523,0.002678,0.000431,0.000940
12277000,0.0324,0.013523,0.002678,0.000431,0.000940
12278000,0.0324,0.013523,0.002678,0.000431,0.000823
12279000,0.0324,0.013523,0.002678,0.000431,0.001058
12280000,0.0324,0.013523,0.002678,0.000431,0.000940
12281000,0.0324,0.013523,0.002678,0.000431,0.000940
12282000,0.0324,0.013523,0.002678,0.000431,0.001058
12283000,0.0324,0.013523,0.002678,0.000431,0.001058
12284000,0.0324,0.013523,0.002678,0.000431,0.000705
12285000,0.0324,0.013523,0.002678,0.000431,0.001058
12286000,0.0324,0.013523,0.002678,0.000431,0.000705
12287000,0.0324,0.013523,0.002678,0.000431,0.000588
12288000,0.0324,0.013523,0.002678,0.000431,0.000705
12289000,0.0324,0.013523,0.002678,0.000431,0.000940
12290000,0.0324,0.013523,0.002678,0.000431,0.000823
12291000,0.0324,0.013523,0.002678,0.000431,0.000588
12292000,0.0324,0.013523,0.002678,0.000431,0.000940
12293000,0.0324,0.013523,0.002678,0.000431,0.000705
12294000,0.0324,0.013523,0.002678,0.000431,0.000823
12295000,0.0324,0.013523,0.002678,0.000431,0.001058
12296000,0.0324,0.013523,0.002678,0.000431,0.000940
12297000,0.0324,0.013523,0.002678,0.000431,0.001058
12298000,0.0324,0.013523,0.002678,0.000431,0.000588
12299000,0.0324,0.013523,0.002678,0.000431,0.000588
12300000,0.0324,0.013523,0.002678,0.000431,0.000705
12301000,0.0324,0.013523,0.002678,0.000431,0.000705
12302000,0.0324,0.013523,0.002678,0.000431,0.001058
12303000,0.0324,0.013523,0.002678,0.000431,0.000940
12304000,0.0324,0.013523,0.002678,0.000431,0.000940
12305000,0.0324,0.013523,0.002678,0.000431,0.000823
12306000,0.0324,0.013523,0.002678,0.000431,0.000823
12307000,0.0324,0.013523,0.002678,0.000431,0.000705
12308000,0.0324,0.013523,0.002678,0.000431,0.000940
12309000,0.0324,0.013523,0.002678,0.000431,0.000940
12310000,0.0324,0.013523,0.002678,0.000431,0.000940
12311000,0.0324,0.013523,0.002678,0.000431,0.000940
12312000,0.0324,0.013523,0.002678,0.000431,0.000588
12313000,0.0324,0.013523,0.002678,0.000431,0.000940
12314000,0.0324,0.013523,0.002678,0.000431,0.000823
12315000,0.0324,0.013523,0.002678,0.000431,0.000940
12316000,0.0324,0.013523,0.002678,0.000431,0.000940
12317000,0.0324,0.013523,0.002678,0.000431,0.001175
12318000,0.0324,0.013523,0.002678,0.000431,0.000823
12319000,0.0324,0.013523,0.002678,0.000431,0.000823
12320000,0.0324,0.013523,0.002678,0.000431,0.000940
12321000,0.0324,0.013523,0.002678,0.000431,0.000940
12322000,0.0324,0.013523,0.002678,0.000431,0.000940
12323000,0.0324,0.013523,0.002678,0.000431,0.000940
12324000,0.0324,0.013523,0.002678,0.000431,0.000940
12325000,0.0324,0.013523,0.002678,0.000431,0.000940
12326000,0.0324,0.013523,0.002678,0.000431,0.000470
12327000,0.0324,0.013523,0.002678,0.000431,0.001058
12328000,0.0324,0.013523,0.002678,0.000431,0.000940
12329000,0.0324,0.013523,0.002678,0.000431,0.000588
12330000,0.0324,0.013523,0.002678,0.000431,0.000940
12331000,0.0324,0.013523,0.002678,0.000431,0.000940
12332000,0.0324,0.013523,0.002678,0.000431,0.000470
12333000,0.0324,0.013523,0.002678,0.000431,0.000823
12334000,0.0324,0.013523,0.002678,0.000431,0.000823
12335000,0.0324,0.013523,0.002678,0.000431,0.000705
12336000,0.0324,0.013523,0.002678,0.000431,0.000940
12337000,0.0324,0.013523,0.002678,0.000431,0.000705
12338000,0.0324,0.013523,0.002678,0.000431,0.000705
12339000,0.0324,0.013523,0.002678,0.000431,0.000940
12340000,0.0324,0.013523,0.002678,0.000431,0.001058
12341000,0.0324,0.013523,0.002678,0.000431,0.000823
12342000,0.0324,0.013523,0.002678,0.000431,0.000940
12343000,0.0324,0.013523,0.002678,0.000431,0.000940
12344000,0.0324,0.013523,0.002678,0.000431,0.000940
12345000,0.0324,0.013523,0.002678,0.000431,0.001058
12346000,0.0324,0.013523,0.002678,0.000431,0.000588
12347000,0.0324,0.013523,0.002678,0.000431,0.000705
12348000,0.0324,0.013523,0.002678,0.000431,0.000705
12349000,0.0324,0.013523,0.002678,0.000431,0.000940
12350000,0.0324,0.013523,0.002678,0.000431,0.000940
12351000,0.0324,0.013523,0.002678,0.000431,0.000823
12352000,0.0324,0.013523,0.002678,0.000431,0.000823
12353000,0.0324,0.013523,0.002678,0.000431,0.000940
12354000,0.0324,0.013523,0.002678,0.000431,0.000940
12355000,0.0324,0.013523,0.002678,0.000431,0.000705
12356000,0.0324,0.013523,0.002678,0.000431,0.000705
12357000,0.0324,0.013523,0.002678,0.000431,0.000823
12358000,0.0324,0.013523,0.002678,0.000431,0.001058
12359000,0.0324,0.013523,0.002678,0.000431,0.000940
12360000,0.0324,0.013523,0.002678,0.000431,0.001058
12361000,0.0324,0.013523,0.002678,0.000431,0.000940
12362000,0.0324,0.013523,0.002678,0.000431,0.000823
12363000,0.0324,0.013523,0.002678,0.000431,0.000940
12364000,0.0324,0.013523,0.002678,0.000431,0.000940
12365000,0.0324,0.013523,0.002678,0.000431,0.000940
12366000,0.0324,0.013523,0.002678,0.000431,0.001058
12367000,0.0324,0.013523,0.002678,0.000431,0.000588
12368000,0.0324,0.013523,0.002678,0.000431,0.000940
12369000,0.0324,0.013523,0.002678,0.000431,0.000940
12370000,0.0324,0.013523,0.002678,0.000431,0.000705
12371000,0.0324,0.013523,0.002678,0.000431,0.000940
12372000,0.0324,0.013523,0.002678,0.000431,0.001058
12373000,0.0324,0.013523,0.002678,0.000431,0.000823
12374000,0.0324,0.013523,0.002678,0.000431,0.000823
12375000,0.0324,0.013523,0.002678,0.000431,0.000823
12376000,0.0324,0.013523,0.002678,0.000431,0.000940
12377000,0.0324,0.013523,0.002678,0.000431,0.000823
12378000,0.0324,0.013523,0.002678,0.000431,0.000823
12379000,0.0324,0.013523,0.002678,0.000431,0.000940
12380000,0.0324,0.013523,0.002678,0.000431,0.000588
12381000,0.0324,0.013523,0.002678,0.000431,0.000588
12382000,0.0324,0.013523,0.002678,0.000431,0.001058
12383000,0.0324,0.013523,0.002678,0.000431,0.000588
12384000,0.0324,0.013523,0.002678,0.000431,0.000940
12385000,0.0324,0.013523,0.002678,0.000431,0.001058
12386000,0.0324,0.013523,0.002678,0.000431,0.000940
12387000,0.0324,0.013523,0.002678,0.000431,0.000588
12388000,0.0324,0.013523,0.002678,0.000431,0.000940
12389000,0.0324,0.013523,0.002678,0.000431,0.000940
12390000,0.0324,0.013523,0.002678,0.000431,0.000823
12391000,0.0324,0.013523,0.002678,0.000431,0.000705
12392000,0.0324,0.013523,0.002678,0.000431,0.000588
12393000,0.0324,0.013523,0.002678,0.000431,0.000940
12394000,0.0324,0.013523,0.002678,0.000431,0.001058
12395000,0.0324,0.013523,0.002678,0.000431,0.001058
12396000,0.0324,0.013523,0.002678,0.000431,0.000940
12397000,0.0324,0.013523,0.002678,0.000431,0.000823
12398000,0.0324,0.013523,0.002678,0.000431,0.000823
12399000,0.0324,0.013523,0.002678,0.000431,0.001175
12400000,0.0324,0.013523,0.002678,0.000431,0.000940
12401000,0.0324,0.013523,0.002678,0.000431,0.000823
12402000,0.0324,0.013523,0.002678,0.000431,0.000823
12403000,0.0324,0.013523,0.002678,0.000431,0.000705
12404000,0.0324,0.013523,0.002678,0.000431,0.001058
12405000,0.0324,0.013523,0.002678,0.000431,0.000940
12406000,0.0324,0.013523,0.002678,0.000431,0.000823
12407000,0.0324,0.013523,0.002678,0.000431,0.000705
12408000,0.0324,0.013523,0.002678,0.000431,0.001058
12409000,0.0324,0.013523,0.002678,0.000431,0.000940
12410000,0.0324,0.013523,0.002678,0.000431,0.000823
12411000,0.0324,0.013523,0.002678,0.000431,0.000940
12412000,0.0324,0.013523,0.002678,0.000431,0.000940
12413000,0.0324,0.013523,0.002678,0.000431,0.000940
12414000,0.0324,0.013523,0.002678,0.000431,0.000940
12415000,0.0324,0.013523,0.002678,0.000431,0.000940
12416000,0.0324,0.013523,0.002678,0.000431,0.000823
12417000,0.0324,0.013523,0.002678,0.000431,0.000940
12418000,0.0324,0.013523,0.002678,0.000431,0.000823
12419000,0.0324,0.013523,0.002678,0.000431,0.000940
12420000,0.0324,0.013523,0.002678,0.000431,0.000940
12421000,0.0324,0.013523,0.002678,0.000431,0.000823
12422000,0.0324,0.013523,0.002678,0.000431,0.000705
12423000,0.0324,0.013523,0.002678,0.000431,0.000940
12424000,0.0324,0.013523,0.002678,0.000431,0.000823
12425000,0.0324,0.013523,0.002678,0.000431,0.000940
12426000,0.0324,0.013523,0.002678,0.000431,0.000470
12427000,0.0324,0.013523,0.002678,0.000431,0.000940
12428000,0.0324,0.013523,0.002678,0.000431,0.000705
12429000,0.0324,0.013523,0.002678,0.000431,0.001058
12430000,0.0324,0.013523,0.002678,0.000431,0.000588
12431000,0.0324,0.013523,0.002678,0.000431,0.000940
12432000,0.0324,0.013523,0.002678,0.000431,0.000705
12433000,0.0324,0.013523,0.002678,0.000431,0.001058
12434000,0.0324,0.013523,0.002678,0.000431,0.000588
12435000,0.0324,0.013523,0.002678,0.000431,0.000705
12436000,0.0324,0.013523,0.002678,0.000431,0.000823
12437000,0.0324,0.013523,0.002678,0.000431,0.000823
12438000,0.0324,0.013523,0.002678,0.000431,0.000940
12439000,0.0324,0.013523,0.002678,0.000431,0.000823
12440000,0.0324,0.013523,0.002678,0.000431,0.000823
12441000,0.0324,0.013523,0.002678,0.000431,0.001058
12442000,0.0324,0.013523,0.002678,0.000431,0.000940
12443000,0.0324,0.013523,0.002678,0.000431,0.000823
12444000,0.0324,0.013523,0.002678,0.000431,0.000940
12445000,0.0324,0.013523,0.002678,0.000431,0.001058
12446000,0.0324,0.013523,0.002678,0.000431,0.000588
12447000,0.0324,0.013523,0.002678,0.000431,0.000940
12448000,0.0324,0.013523,0.002678,0.000431,0.000823
12449000,0.0324,0.013523,0.002678,0.000431,0.000823
12450000,0.0324,0.013523,0.002678,0.000431,0.000823
12451000,0.0324,0.013523,0.002678,0.000431,0.001058
12452000,0.0324,0.013523,0.002678,0.000431,0.000705
12453000,0.0324,0.013523,0.002678,0.000431,0.000940
12454000,0.0324,0.013523,0.002678,0.000431,0.000940
12455000,0.0324,0.013523,0.002678,0.000431,0.000940
12456000,0.0324,0.013523,0.002678,0.000431,0.000705
12457000,0.0324,0.013523,0.002678,0.000431,0.001058
12458000,0.0324,0.013523,0.002678,0.000431,0.001058
12459000,0.0324,0.013523,0.002678,0.000431,0.000823
12460000,0.0324,0.013523,0.002678,0.000431,0.000823
12461000,0.0324,0.013523,0.002678,0.000431,0.000940
12462000,0.0324,0.013523,0.002678,0.000431,0.000705
12463000,0.0324,0.013523,0.002678,0.000431,0.000940
12464000,0.0324,0.013523,0.002678,0.000431,0.000470
12465000,0.0324,0.013523,0.002678,0.000431,0.001058
12466000,0.0324,0.013523,0.002678,0.000431,0.001058
12467000,0.0324,0.013523,0.002678,0.000431,0.000940
12468000,0.0324,0.013523,0.002678,0.000431,0.000588
12469000,0.0324,0.013523,0.002678,0.000431,0.000940
12470000,0.0324,0.013523,0.002678,0.000431,0.000823
12471000,0.0324,0.013523,0.002678,0.000431,0.000940
12472000,0.0324,0.013523,0.002678,0.000431,0.000470
12473000,0.0324,0.013523,0.002678,0.000431,0.000705
12474000,0.0324,0.013523,0.002678,0.000431,0.000705
12475000,0.0324,0.013523,0.002678,0.000431,0.000940
12476000,0.0324,0.013523,0.002678,0.000431,0.000823
12477000,0.0324,0.013523,0.002678,0.000431,0.000823
12478000,0.0324,0.013523,0.002678,0.000431,0.000940
12479000,0.0324,0.013523,0.002678,0.000431,0.000940
12480000,0.0324,0.013523,0.002678,0.000431,0.000823
12481000,0.0324,0.013523,0.002678,0.000431,0.001058
12482000,0.0324,0.013523,0.002678,0.000431,0.001058
12483000,0.0324,0.013523,0.002678,0.000431,0.001058
12484000,0.0324,0.013523,0.002678,0.000431,0.000940
12485000,0.0324,0.013523,0.002678,0.000431,0.000940
12486000,0.0324,0.013523,0.002678,0.000431,0.001058
12487000,0.0324,0.013523,0.002678,0.000431,0.000588
12488000,0.0324,0.013523,0.002678,0.000431,0.000705
12489000,0.0324,0.013523,0.002678,0.000431,0.000823
12490000,0.0324,0.013523,0.002678,0.000431,0.000823
12491000,0.0324,0.013523,0.002678,0.000431,0.000940
12492000,0.0324,0.013523,0.002678,0.000431,0.000940
12493000,0.0324,0.013523,0.002678,0.000431,0.001058
12494000,0.0324,0.013523,0.002678,0.000431,0.001058
12495000,0.0324,0.013523,0.002678,0.000431,0.000823
12496000,0.0324,0.013523,0.002678,0.000431,0.000705
12497000,0.0324,0.013523,0.002678,0.000431,0.000940
12498000,0.0324,0.013523,0.002678,0.000431,0.000940
12499000,0.0324,0.013523,0.002678,0.000431,0.000823
12500000,0.0324,0.013523,0.002678,0.000431,0.000940
12501000,0.0324,0.013523,0.002678,0.000431,0.000940
12502000,0.0324,0.013523,0.002678,0.000431,0.000705
12503000,0.0324,0.013523,0.002678,0.000431,0.001175
12504000,0.0324,0.013523,0.002678,0.000431,0.000470
12505000,0.0324,0.013523,0.002678,0.000431,0.001058
12506000,0.0324,0.013523,0.002678,0.000431,0.000823
12507000,0.0324,0.013523,0.002678,0.000431,0.001058
12508000,0.0324,0.013523,0.002678,0.000431,0.000940
12509000,0.0324,0.013523,0.002678,0.000431,0.000705
12510000,0.0324,0.013523,0.002678,0.000431,0.000940
12511000,0.0324,0.013523,0.002678,0.000431,0.000823
12512000,0.0324,0.013523,0.002678,0.000431,0.000823
12513000,0.0324,0.013523,0.002678,0.000431,0.001058
12514000,0.0324,0.013523,0.002678,0.000431,0.000705
12515000,0.0324,0.013523,0.002678,0.000431,0.000705
12516000,0.0324,0.013523,0.002678,0.000431,0.000940
12517000,0.0324,0.013523,0.002678,0.000431,0.000940
12518000,0.0324,0.013523,0.002678,0.000431,0.000705
12519000,0.0324,0.013523,0.002678,0.000431,0.000940
12520000,0.0324,0.013523,0.002678,0.000431,0.001175
12521000,0.0324,0.013523,0.002678,0.000431,0.000823
12522000,0.0324,0.013523,0.002678,0.000431,0.000823
12523000,0.0324,0.013523,0.002678,0.000431,0.000940
12524000,0.0324,0.013523,0.002678,0.000431,0.000940
12525000,0.0324,0.013523,0.002678,0.000431,0.000940
12526000,0.0324,0.013523,0.002678,0.000431,0.000823
12527000,0.0324,0.013523,0.002678,0.000431,0.000823
12528000,0.0324,0.013523,0.002678,0.000431,0.000940
12529000,0.0324,0.013523,0.002678,0.000431,0.000940
12530000,0.0324,0.013523,0.002678,0.000431,0.000940
12531000,0.0324,0.013523,0.002678,0.000431,0.000940
12532000,0.0324,0.013523,0.002678,0.000431,0.000705
12533000,0.0324,0.013523,0.002678,0.000431,0.001058
12534000,0.0324,0.013523,0.002678,0.000431,0.001058
12535000,0.0324,0.013523,0.002678,0.000431,0.000823
12536000,0.0324,0.013523,0.002678,0.000431,0.000823
12537000,0.0324,0.013523,0.002678,0.000431,0.000940
12538000,0.0324,0.013523,0.002678,0.000431,0.001058
12539000,0.0324,0.013523,0.002678,0.000431,0.000940
12540000,0.0324,0.013523,0.002678,0.000431,0.000823
12541000,0.0324,0.013523,0.002678,0.000431,0.000940
12542000,0.0324,0.013523,0.002678,0.000431,0.000823
12543000,0.0324,0.013523,0.002678,0.000431,0.000823
12544000,0.0324,0.013523,0.002678,0.000431,0.001058
12545000,0.0324,0.013523,0.002678,0.000431,0.000940
12546000,0.0324,0.013523,0.002678,0.000431,0.000823
12547000,0.0324,0.013523,0.002678,0.000431,0.000823
12548000,0.0324,0.013523,0.002678,0.000431,0.000823
12549000,0.0324,0.013523,0.002678,0.000431,0.000940
12550000,0.0324,0.013523,0.002678,0.000431,0.000940
12551000,0.0324,0.013523,0.002678,0.000431,0.000940
12552000,0.0324,0.013523,0.002678,0.000431,0.000940
12553000,0.0324,0.013523,0.002678,0.000431,0.000470
12554000,0.0324,0.013523,0.002678,0.000431,0.000705
12555000,0.0324,0.013523,0.002678,0.000431,0.000940
12556000,0.0324,0.013523,0.002678,0.000431,0.000940
12557000,0.0324,0.013523,0.002678,0.000431,0.000705
12558000,0.0324,0.013523,0.002678,0.000431,0.000705
12559000,0.0324,0.013523,0.002678,0.000431,0.001058
12560000,0.0324,0.013523,0.002678,0.000431,0.000823
12561000,0.0324,0.013523,0.002678,0.000431,0.000940
12562000,0.0324,0.013523,0.002678,0.000431,0.000940
12563000,0.0324,0.013523,0.002678,0.000431,0.000940
12564000,0.0324,0.013523,0.002678,0.000431,0.000705
12565000,0.0324,0.013523,0.002678,0.000431,0.001058
12566000,0.0324,0.013523,0.002678,0.000431,0.000588
12567000,0.0324,0.013523,0.002678,0.000431,0.000823
12568000,0.0324,0.013523,0.002678,0.000431,0.000823
12569000,0.0324,0.013523,0.002678,0.000431,0.000705
12570000,0.0324,0.013523,0.002678,0.000431,0.000940
12571000,0.0324,0.013523,0.002678,0.000431,0.000940
12572000,0.0324,0.013523,0.002678,0.000431,0.001175
12573000,0.0324,0.013523,0.002678,0.000431,0.000940
12574000,0.0324,0.013523,0.002678,0.000431,0.000705
12575000,0.0324,0.013523,0.002678,0.000431,0.000823
12576000,0.0324,0.013523,0.002678,0.000431,0.001058
12577000,0.0324,0.013523,0.002678,0.000431,0.000823
12578000,0.0324,0.013523,0.002678,0.000431,0.001058
12579000,0.0324,0.013523,0.002678,0.000431,0.000823
12580000,0.0324,0.013523,0.002678,0.000431,0.000823
12581000,0.0324,0.013523,0.002678,0.000431,0.000940
12582000,0.0324,0.013523,0.002678,0.000431,0.000940
12583000,0.0324,0.013523,0.002678,0.000431,0.000940
12584000,0.0324,0.013523,0.002678,0.000431,0.000705
12585000,0.0324,0.013523,0.002678,0.000431,0.000705
12586000,0.0324,0.013523,0.002678,0.000431,0.000940
12587000,0.0324,0.013523,0.002678,0.000431,0.000940
12588000,0.0324,0.013523,0.002678,0.000431,0.000940
12589000,0.0324,0.013523,0.002678,0.000431,0.000823
12590000,0.0324,0.013523,0.002678,0.000431,0.000823
12591000,0.0324,0.013523,0.002678,0.000431,0.000940
12592000,0.0324,0.013523,0.002678,0.000431,0.000588
12593000,0.0324,0.013523,0.002678,0.000431,0.000588
12594000,0.0324,0.013523,0.002678,0.000431,0.000940
12595000,0.0324,0.013523,0.002678,0.000431,0.000940
12596000,0.0324,0.013523,0.002678,0.000431,0.000940
12597000,0.0324,0.013523,0.002678,0.000431,0.000823
12598000,0.0324,0.013523,0.002678,0.000431,0.000823
12599000,0.0324,0.013523,0.002678,0.000431,0.000940
12600000,0.0324,0.013523,0.002678,0.000431,0.000940
12601000,0.0324,0.013523,0.002678,0.000431,0.000940
12602000,0.0324,0.013523,0.002678,0.000431,0.001058
12603000,0.0324,0.013523,0.002678,0.000431,0.000940
12604000,0.0324,0.013523,0.002678,0.000431,0.000823
12605000,0.0324,0.013523,0.002678,0.000431,0.000940
12606000,0.0324,0.013523,0.002678,0.000431,0.000940
12607000,0.0324,0.013523,0.002678,0.000431,0.000940
12608000,0.0324,0.013523,0.002678,0.000431,0.000705
12609000,0.0324,0.013523,0.002678,0.000431,0.000940
12610000,0.0324,0.013523,0.002678,0.000431,0.000705
12611000,0.0324,0.013523,0.002678,0.000431,0.001175
12612000,0.0324,0.013523,0.002678,0.000431,0.000588
12613000,0.0324,0.013523,0.002678,0.000431,0.000940
12614000,0.0324,0.013523,0.002678,0.000431,0.000588
12615000,0.0324,0.013523,0.002678,0.000431,0.000705
12616000,0.0324,0.013523,0.002678,0.000431,0.000705
12617000,0.0324,0.013523,0.002678,0.000431,0.000940
12618000,0.0324,0.013523,0.002678,0.000431,0.000940
12619000,0.0324,0.013523,0.002678,0.000431,0.000588
12620000,0.0324,0.013523,0.002678,0.000431,0.000940
12621000,0.0324,0.013523,0.002678,0.000431,0.000823
12622000,0.0324,0.013523,0.002678,0.000431,0.000940
12623000,0.0324,0.013523,0.002678,0.000431,0.000940
12624000,0.0324,0.013523,0.002678,0.000431,0.000588
12625000,0.0324,0.013523,0.002678,0.000431,0.000940
12626000,0.0324,0.013523,0.002678,0.000431,0.000940
12627000,0.0324,0.013523,0.002678,0.000431,0.000940
12628000,0.0324,0.013523,0.002678,0.000431,0.000823
12629000,0.0324,0.013523,0.002678,0.000431,0.000705
12630000,0.0324,0.013523,0.002678,0.000431,0.000940
12631000,0.0324,0.013523,0.002678,0.000431,0.000823
12632000,0.0324,0.013523,0.002678,0.000431,0.000823
12633000,0.0324,0.013523,0.002678,0.000431,0.000470
12634000,0.0324,0.013523,0.002678,0.000431,0.000588
12635000,0.0324,0.013523,0.002678,0.000431,0.000940
12636000,0.0324,0.013523,0.002678,0.000431,0.000823
12637000,0.0324,0.013523,0.002678,0.000431,0.000823
12638000,0.0324,0.013523,0.002678,0.000431,0.000588
12639000,0.0324,0.013523,0.002678,0.000431,0.000470
12640000,0.0324,0.013523,0.002678,0.000431,0.001058
12641000,0.0324,0.013523,0.002678,0.000431,0.000940
12642000,0.0324,0.013523,0.002678,0.000431,0.000588
12643000,0.0324,0.013523,0.002678,0.000431,0.000823
12644000,0.0324,0.013523,0.002678,0.000431,0.001058
12645000,0.0324,0.013523,0.002678,0.000431,0.000823
12646000,0.0324,0.013523,0.002678,0.000431,0.000588
12647000,0.0324,0.013523,0.002678,0.000431,0.000705
12648000,0.0324,0.013523,0.002678,0.000431,0.000940
12649000,0.0324,0.013523,0.002678,0.000431,0.000940
12650000,0.0324,0.013523,0.002678,0.000431,0.000705
12651000,0.0324,0.013523,0.002678,0.000431,0.000940
12652000,0.0324,0.013523,0.002678,0.000431,0.001175
12653000,0.0324,0.013523,0.002678,0.000431,0.000940
12654000,0.0324,0.013523,0.002678,0.000431,0.000940
12655000,0.0324,0.013523,0.002678,0.000431,0.000823
12656000,0.0324,0.013523,0.002678,0.000431,0.000940
12657000,0.0324,0.013523,0.002678,0.000431,0.001058
12658000,0.0324,0.013523,0.002678,0.000431,0.000940
12659000,0.0324,0.013523,0.002678,0.000431,0.000940
12660000,0.0324,0.013523,0.002678,0.000431,0.000940
12661000,0.0324,0.013523,0.002678,0.000431,0.000940
12662000,0.0324,0.013523,0.002678,0.000431,0.000940
12663000,0.0324,0.013523,0.002678,0.000431,0.000705
12664000,0.0324,0.013523,0.002678,0.000431,0.001058
12665000,0.0324,0.013523,0.002678,0.000431,0.001058
12666000,0.0324,0.013523,0.002678,0.000431,0.000823
12667000,0.0324,0.013523,0.002678,0.000431,0.000940
12668000,0.0324,0.013523,0.002678,0.000431,0.000823
12669000,0.0324,0.013523,0.002678,0.000431,0.000940
12670000,0.0324,0.013523,0.002678,0.000431,0.000940
12671000,0.0324,0.013523,0.002678,0.000431,0.000940
12672000,0.0324,0.013523,0.002678,0.000431,0.000705
12673000,0.0324,0.013523,0.002678,0.000431,0.001058
12674000,0.0324,0.013523,0.002678,0.000431,0.000823
12675000,0.0324,0.013523,0.002678,0.000431,0.000940
12676000,0.0324,0.013523,0.002678,0.000431,0.000470
12677000,0.0324,0.013523,0.002678,0.000431,0.001058
12678000,0.0324,0.013523,0.002678,0.000431,0.000823
12679000,0.0324,0.013523,0.002678,0.000431,0.000940
12680000,0.0324,0.013523,0.002678,0.000431,0.000940
12681000,0.0324,0.013523,0.002678,0.000431,0.000940
12682000,0.0324,0.013523,0.002678,0.000431,0.000823
12683000,0.0324,0.013523,0.002678,0.000431,0.000705
12684000,0.0324,0.013523,0.002678,0.000431,0.000823
12685000,0.0324,0.013523,0.002678,0.000431,0.000705
12686000,0.0324,0.013523,0.002678,0.000431,0.000940
12687000,0.0324,0.013523,0.002678,0.000431,0.000705
12688000,0.0324,0.013523,0.002678,0.000431,0.000705
12689000,0.0324,0.013523,0.002678,0.000431,0.000940
12690000,0.0324,0.013523,0.002678,0.000431,0.000823
12691000,0.0324,0.013523,0.002678,0.000431,0.000823
12692000,0.0324,0.013523,0.002678,0.000431,0.000940
12693000,0.0324,0.013523,0.002678,0.000431,0.000940
12694000,0.0324,0.013523,0.002678,0.000431,0.000940
12695000,0.0324,0.013523,0.002678,0.000431,0.001058
12696000,0.0324,0.013523,0.002678,0.000431,0.000823
12697000,0.0324,0.013523,0.002678,0.000431,0.000940
12698000,0.0324,0.013523,0.002678,0.000431,0.000705
12699000,0.0324,0.013523,0.002678,0.000431,0.000940
12700000,0.0324,0.013523,0.002678,0.000431,0.000823
12701000,0.0324,0.013523,0.002678,0.000431,0.000823
12702000,0.0324,0.013523,0.002678,0.000431,0.000940
12703000,0.0324,0.013523,0.002678,0.000431,0.000940
12704000,0.0324,0.013523,0.002678,0.000431,0.000823
12705000,0.0324,0.013523,0.002678,0.000431,0.000823
12706000,0.0324,0.013523,0.002678,0.000431,0.000823
12707000,0.0324,0.013523,0.002678,0.000431,0.000823
12708000,0.0324,0.013523,0.002678,0.000431,0.001058
12709000,0.0324,0.013523,0.002678,0.000431,0.000588
12710000,0.0324,0.013523,0.002678,0.000431,0.000940
12711000,0.0324,0.013523,0.002678,0.000431,0.000823
12712000,0.0324,0.013523,0.002678,0.000431,0.000823
12713000,0.0324,0.013523,0.002678,0.000431,0.000940
12714000,0.0324,0.013523,0.002678,0.000431,0.000705
12715000,0.0324,0.013523,0.002678,0.000431,0.000823
12716000,0.0324,0.013523,0.002678,0.000431,0.000823
12717000,0.0324,0.013523,0.002678,0.000431,0.000940
12718000,0.0324,0.013523,0.002678,0.000431,0.000705
12719000,0.0324,0.013523,0.002678,0.000431,0.000940
12720000,0.0324,0.013523,0.002678,0.000431,0.000940
12721000,0.0324,0.013523,0.002678,0.000431,0.000705
12722000,0.0324,0.013523,0.002678,0.000431,0.000705
12723000,0.0324,0.013523,0.002678,0.000431,0.000705
12724000,0.0324,0.013523,0.002678,0.000431,0.000940
12725000,0.0324,0.013523,0.002678,0.000431,0.000470
12726000,0.0324,0.013523,0.002678,0.000431,0.000940
12727000,0.0324,0.013523,0.002678,0.000431,0.000705
12728000,0.0324,0.013523,0.002678,0.000431,0.000940
12729000,0.0324,0.013523,0.002678,0.000431,0.000940
12730000,0.0324,0.013523,0.002678,0.000431,0.000705
12731000,0.0324,0.013523,0.002678,0.000431,0.000705
12732000,0.0324,0.013523,0.002678,0.000431,0.000940
12733000,0.0324,0.013523,0.002678,0.000431,0.000705
12734000,0.0324,0.013523,0.002678,0.000431,0.001058
12735000,0.0324,0.013523,0.002678,0.000431,0.001058
12736000,0.0324,0.013523,0.002678,0.000431,0.000940
12737000,0.0324,0.013523,0.002678,0.000431,0.000940
12738000,0.0324,0.013523,0.002678,0.000431,0.000705
12739000,0.0324,0.013523,0.002678,0.000431,0.001058
12740000,0.0324,0.013523,0.002678,0.000431,0.000940
12741000,0.0324,0.013523,0.002678,0.000431,0.000823
12742000,0.0324,0.013523,0.002678,0.000431,0.001058
12743000,0.0324,0.013523,0.002678,0.000431,0.000940
12744000,0.0324,0.013523,0.002678,0.000431,0.000823
12745000,0.0324,0.013523,0.002678,0.000431,0.000940
12746000,0.0324,0.013523,0.002678,0.000431,0.000705
12747000,0.0324,0.013523,0.002678,0.000431,0.000705
12748000,0.0324,0.013523,0.002678,0.000431,0.001058
12749000,0.0324,0.013523,0.002678,0.000431,0.000940
12750000,0.0324,0.013523,0.002678,0.000431,0.000823
12751000,0.0324,0.013523,0.002678,0.000431,0.000940
12752000,0.0324,0.013523,0.002678,0.000431,0.000705
12753000,0.0324,0.013523,0.002678,0.000431,0.000940
12754000,0.0324,0.013523,0.002678,0.000431,0.000940
12755000,0.0324,0.013523,0.002678,0.000431,0.000940
12756000,0.0324,0.013523,0.002678,0.000431,0.000705
12757000,0.0324,0.013523,0.002678,0.000431,0.000823
12758000,0.0324,0.013523,0.002678,0.000431,0.000588
12759000,0.0324,0.013523,0.002678,0.000431,0.000705
12760000,0.0324,0.013523,0.002678,0.000431,0.000940
12761000,0.0324,0.013523,0.002678,0.000431,0.000705
12762000,0.0324,0.013523,0.002678,0.000431,0.000940
12763000,0.0324,0.013523,0.002678,0.000431,0.000940
12764000,0.0324,0.013523,0.002678,0.000431,0.000588
12765000,0.0324,0.013523,0.002678,0.000431,0.000588
12766000,0.0324,0.013523,0.002678,0.000431,0.000940
12767000,0.0324,0.013523,0.002678,0.000431,0.001058
12768000,0.0324,0.013523,0.002678,0.000431,0.000823
12769000,0.0324,0.013523,0.002678,0.000431,0.000705
12770000,0.0324,0.013523,0.002678,0.000431,0.001058
12771000,0.0324,0.013523,0.002678,0.000431,0.000588
12772000,0.0324,0.013523,0.002678,0.000431,0.000940
12773000,0.0324,0.013523,0.002678,0.000431,0.000823
12774000,0.0324,0.013523,0.002678,0.000431,0.000823
12775000,0.0324,0.013523,0.002678,0.000431,0.000940
12776000,0.0324,0.013523,0.002678,0.000431,0.000705
12777000,0.0324,0.013523,0.002678,0.000431,0.000940
12778000,0.0324,0.013523,0.002678,0.000431,0.000470
12779000,0.0324,0.013523,0.002678,0.000431,0.000705
12780000,0.0324,0.013523,0.002678,0.000431,0.001058
12781000,0.0324,0.013523,0.002678,0.000431,0.000940
12782000,0.0324,0.013523,0.002678,0.000431,0.000823
12783000,0.0324,0.013523,0.002678,0.000431,0.000940
12784000,0.0324,0.013523,0.002678,0.000431,0.000940
12785000,0.0324,0.013523,0.002678,0.000431,0.000823
12786000,0.0324,0.013523,0.002678,0.000431,0.000940
12787000,0.0324,0.013523,0.002678,0.000431,0.000823
12788000,0.0324,0.013523,0.002678,0.000431,0.000940
12789000,0.0324,0.013523,0.002678,0.000431,0.001058
12790000,0.0324,0.013523,0.002678,0.000431,0.000823
12791000,0.0324,0.013523,0.002678,0.000431,0.000940
12792000,0.0324,0.013523,0.002678,0.000431,0.000705
12793000,0.0324,0.013523,0.002678,0.000431,0.001175
12794000,0.0324,0.013523,0.002678,0.000431,0.000823
12795000,0.0324,0.013523,0.002678,0.000431,0.000823
12796000,0.0324,0.013523,0.002678,0.000431,0.000823
12797000,0.0324,0.013523,0.002678,0.000431,0.000588
12798000,0.0324,0.013523,0.002678,0.000431,0.001058
12799000,0.0324,0.013523,0.002678,0.000431,0.000823
12800000,0.0324,0.013523,0.002678,0.000431,0.001058
12801000,0.0324,0.013523,0.002678,0.000431,0.000823
12802000,0.0324,0.013523,0.002678,0.000431,0.000940
12803000,0.0324,0.013523,0.002678,0.000431,0.000940
12804000,0.0324,0.013523,0.002678,0.000431,0.001058
12805000,0.0324,0.013523,0.002678,0.000431,0.000940
12806000,0.0324,0.013523,0.002678,0.000431,0.000705
12807000,0.0324,0.013523,0.002678,0.000431,0.000588
12808000,0.0324,0.013523,0.002678,0.000431,0.000940
12809000,0.0324,0.013523,0.002678,0.000431,0.000940
12810000,0.0324,0.013523,0.002678,0.000431,0.000940
12811000,0.0324,0.013523,0.002678,0.000431,0.001175
12812000,0.0324,0.013523,0.002678,0.000431,0.000940
12813000,0.0324,0.013523,0.002678,0.000431,0.000940
12814000,0.0324,0.013523,0.002678,0.000431,0.000940
12815000,0.0324,0.013523,0.002678,0.000431,0.000705
12816000,0.0324,0.013523,0.002678,0.000431,0.000470
12817000,0.0324,0.013523,0.002678,0.000431,0.000588
12818000,0.0324,0.013523,0.002678,0.000431,0.000940
12819000,0.0324,0.013523,0.002678,0.000431,0.000823
12820000,0.0324,0.013523,0.002678,0.000431,0.000940
12821000,0.0324,0.013523,0.002678,0.000431,0.000940
12822000,0.0324,0.013523,0.002678,0.000431,0.000940
12823000,0.0324,0.013523,0.002678,0.000431,0.000940
12824000,0.0324,0.013523,0.002678,0.000431,0.000940
12825000,0.0324,0.013523,0.002678,0.000431,0.000940
12826000,0.0324,0.013523,0.002678,0.000431,0.001058
12827000,0.0324,0.013523,0.002678,0.000431,0.000940
12828000,0.0324,0.013523,0.002678,0.000431,0.000940
12829000,0.0324,0.013523,0.002678,0.000431,0.001058
12830000,0.0324,0.013523,0.002678,0.000431,0.000823
12831000,0.0324,0.013523,0.002678,0.000431,0.000823
12832000,0.0324,0.013523,0.002678,0.000431,0.000705
12833000,0.0324,0.013523,0.002678,0.000431,0.000823
12834000,0.0324,0.013523,0.002678,0.000431,0.000705
12835000,0.0324,0.013523,0.002678,0.000431,0.000940
12836000,0.0324,0.013523,0.002678,0.000431,0.000823
12837000,0.0324,0.013523,0.002678,0.000431,0.000823
12838000,0.0324,0.013523,0.002678,0.000431,0.000588
12839000,0.0324,0.013523,0.002678,0.000431,0.000705
12840000,0.0324,0.013523,0.002678,0.000431,0.000470
12841000,0.0324,0.013523,0.002678,0.000431,0.000705
12842000,0.0324,0.013523,0.002678,0.000431,0.000705
12843000,0.0324,0.013523,0.002678,0.000431,0.000940
12844000,0.0324,0.013523,0.002678,0.000431,0.000470
12845000,0.0324,0.013523,0.002678,0.000431,0.000588
12846000,0.0324,0.013523,0.002678,0.000431,0.000588
12847000,0.0324,0.013523,0.002678,0.000431,0.000470
12848000,0.0324,0.013523,0.002678,0.000431,0.000705
12849000,0.0324,0.013523,0.002678,0.000431,0.000705
12850000,0.0324,0.013523,0.002678,0.000431,0.000705
12851000,0.0324,0.013523,0.002678,0.000431,0.001058
12852000,0.0324,0.013523,0.002678,0.000431,0.000940
12853000,0.0324,0.013523,0.002678,0.000431,0.000823
12854000,0.0324,0.013523,0.002678,0.000431,0.000705
12855000,0.0324,0.013523,0.002678,0.000431,0.000705
12856000,0.0324,0.013523,0.002678,0.000431,0.000940
12857000,0.0324,0.013523,0.002678,0.000431,0.000470
12858000,0.0324,0.013523,0.002678,0.000431,0.000705
12859000,0.0324,0.013523,0.002678,0.000431,0.000705
12860000,0.0324,0.013523,0.002678,0.000431,0.000940
12861000,0.0324,0.013523,0.002678,0.000431,0.000470
12862000,0.0324,0.013523,0.002678,0.000431,0.001058
12863000,0.0324,0.013523,0.002678,0.000431,0.000705
12864000,0.0324,0.013523,0.002678,0.000431,0.000588
12865000,0.0324,0.013523,0.002678,0.000431,0.000705
12866000,0.0324,0.013523,0.002678,0.000431,0.000940
12867000,0.0324,0.013523,0.002678,0.000431,0.000470
12868000,0.0324,0.013523,0.002678,0.000431,0.000705
12869000,0.0324,0.013523,0.002678,0.000431,0.000940
12870000,0.0324,0.013523,0.002678,0.000431,0.000470
12871000,0.0324,0.013523,0.002678,0.000431,0.000940
12872000,0.0324,0.013523,0.002678,0.000431,0.000705
12873000,0.0324,0.013523,0.002678,0.000431,0.000823
12874000,0.0324,0.013523,0.002678,0.000431,0.000705
12875000,0.0324,0.013523,0.002678,0.000431,0.000588
12876000,0.0324,0.013523,0.002678,0.000431,0.000705
12877000,0.0324,0.013523,0.002678,0.000431,0.000940
12878000,0.0324,0.013523,0.002678,0.000431,0.000940
12879000,0.0324,0.013523,0.002678,0.000431,0.000940
12880000,0.0324,0.013523,0.002678,0.000431,0.000940
12881000,0.0324,0.013523,0.002678,0.000431,0.000705
12882000,0.0324,0.013523,0.002678,0.000431,0.000823
12883000,0.0324,0.013523,0.002678,0.000431,0.000823
12884000,0.0324,0.013523,0.002678,0.000431,0.000940
12885000,0.0324,0.013523,0.002678,0.000431,0.000588
12886000,0.0324,0.013523,0.002678,0.000431,0.000940
12887000,0.0324,0.013523,0.002678,0.000431,0.000588
12888000,0.0324,0.013523,0.002678,0.000431,0.000823
12889000,0.0324,0.013523,0.002678,0.000431,0.000823
12890000,0.0324,0.013523,0.002678,0.000431,0.000470
12891000,0.0324,0.013523,0.002678,0.000431,0.000705
12892000,0.0324,0.013523,0.002678,0.000431,0.000823
12893000,0.0324,0.013523,0.002678,0.000431,0.000823
12894000,0.0324,0.013523,0.002678,0.000431,0.000940
12895000,0.0324,0.013523,0.002678,0.000431,0.000940
12896000,0.0324,0.013523,0.002678,0.000431,0.000705
12897000,0.0324,0.013523,0.002678,0.000431,0.000940
12898000,0.0324,0.013523,0.002678,0.000431,0.000940
12899000,0.0324,0.013523,0.002678,0.000431,0.000588
12900000,0.0324,0.013523,0.002678,0.000431,0.000940
12901000,0.0324,0.013523,0.002678,0.000431,0.000705
12902000,0.0324,0.013523,0.002678,0.000431,0.000823
12903000,0.0324,0.013523,0.002678,0.000431,0.000823
12904000,0.0324,0.013523,0.002678,0.000431,0.000823
12905000,0.0324,0.013523,0.002678,0.000431,0.000705
12906000,0.0324,0.013523,0.002678,0.000431,0.001058
12907000,0.0324,0.013523,0.002678,0.000431,0.000588
12908000,0.0324,0.013523,0.002678,0.000431,0.000470
12909000,0.0324,0.013523,0.002678,0.000431,0.000705
12910000,0.0324,0.013523,0.002678,0.000431,0.000470
12911000,0.0324,0.013523,0.002678,0.000431,0.000588
12912000,0.0324,0.013523,0.002678,0.000431,0.000823
12913000,0.0324,0.013523,0.002678,0.000431,0.000940
12914000,0.0324,0.013523,0.002678,0.000431,0.000823
12915000,0.0324,0.013523,0.002678,0.000431,0.000588
12916000,0.0324,0.013523,0.002678,0.000431,0.000940
12917000,0.0324,0.013523,0.002678,0.000431,0.000705
12918000,0.0324,0.013523,0.002678,0.000431,0.000823
12919000,0.0324,0.013523,0.002678,0.000431,0.000823
12920000,0.0324,0.013523,0.002678,0.000431,0.000823
12921000,0.0324,0.013523,0.002678,0.000431,0.001058
12922000,0.0324,0.013523,0.002678,0.000431,0.000823
12923000,0.0324,0.013523,0.002678,0.000431,0.000823
12924000,0.0324,0.013523,0.002678,0.000431,0.000940
12925000,0.0324,0.013523,0.002678,0.000431,0.000940
12926000,0.0324,0.013523,0.002678,0.000431,0.000823
12927000,0.0324,0.013523,0.002678,0.000431,0.000823
12928000,0.0324,0.013523,0.002678,0.000431,0.000940
12929000,0.0324,0.013523,0.002678,0.000431,0.000470
12930000,0.0324,0.013523,0.002678,0.000431,0.000705
12931000,0.0324,0.013523,0.002678,0.000431,0.000940
12932000,0.0324,0.013523,0.002678,0.000431,0.000940
12933000,0.0324,0.013523,0.002678,0.000431,0.000705
12934000,0.0324,0.013523,0.002678,0.000431,0.000823
12935000,0.0324,0.013523,0.002678,0.000431,0.000705
12936000,0.0324,0.013523,0.002678,0.000431,0.000823
12937000,0.0324,0.013523,0.002678,0.000431,0.000940
12938000,0.0324,0.013523,0.002678,0.000431,0.000705
12939000,0.0324,0.013523,0.002678,0.000431,0.000470
12940000,0.0324,0.013523,0.002678,0.000431,0.000705
12941000,0.0324,0.013523,0.002678,0.000431,0.000940
12942000,0.0324,0.013523,0.002678,0.000431,0.000588
12943000,0.0324,0.013523,0.002678,0.000431,0.000588
12944000,0.0324,0.013523,0.002678,0.000431,0.000588
12945000,0.0324,0.013523,0.002678,0.000431,0.000588
12946000,0.0324,0.013523,0.002678,0.000431,0.000940
12947000,0.0324,0.013523,0.002678,0.000431,0.000588
12948000,0.0324,0.013523,0.002678,0.000431,0.000588
12949000,0.0324,0.013523,0.002678,0.000431,0.000588
12950000,0.0324,0.013523,0.002678,0.000431,0.000940
12951000,0.0324,0.013523,0.002678,0.000431,0.000940
12952000,0.0324,0.013523,0.002678,0.000431,0.000823
12953000,0.0324,0.013523,0.002678,0.000431,0.000823
12954000,0.0324,0.013523,0.002678,0.000431,0.001175
12955000,0.0324,0.013523,0.002678,0.000431,0.000588
12956000,0.0324,0.013523,0.002678,0.000431,0.001058
12957000,0.0324,0.013523,0.002678,0.000431,0.000588
12958000,0.0324,0.013523,0.002678,0.000431,0.000470
12959000,0.0324,0.013523,0.002678,0.000431,0.001058
12960000,0.0324,0.013523,0.002678,0.000431,0.000940
12961000,0.0324,0.013523,0.002678,0.000431,0.000823
12962000,0.0324,0.013523,0.002678,0.000431,0.000823
12963000,0.0324,0.013523,0.002678,0.000431,0.000588
12964000,0.0324,0.013523,0.002678,0.000431,0.001175
12965000,0.0324,0.013523,0.002678,0.000431,0.000940
12966000,0.0324,0.013523,0.002678,0.000431,0.000588
12967000,0.0324,0.013523,0.002678,0.000431,0.000588
12968000,0.0324,0.013523,0.002678,0.000431,0.000705
12969000,0.0324,0.013523,0.002678,0.000431,0.000940
12970000,0.0324,0.013523,0.002678,0.000431,0.000940
12971000,0.0324,0.013523,0.002678,0.000431,0.000470
12972000,0.0324,0.013523,0.002678,0.000431,0.000705
12973000,0.0324,0.013523,0.002678,0.000431,0.000940
12974000,0.0324,0.013523,0.002678,0.000431,0.000470
12975000,0.0324,0.013523,0.002678,0.000431,0.000705
12976000,0.0324,0.013523,0.002678,0.000431,0.000705
12977000,0.0324,0.013523,0.002678,0.000431,0.000705
12978000,0.0324,0.013523,0.002678,0.000431,0.000705
12979000,0.0324,0.013523,0.002678,0.000431,0.000940
12980000,0.0324,0.013523,0.002678,0.000431,0.000588
12981000,0.0324,0.013523,0.002678,0.000431,0.000588
12982000,0.0324,0.013523,0.002678,0.000431,0.000470
12983000,0.0324,0.013523,0.002678,0.000431,0.001058
12984000,0.0324,0.013523,0.002678,0.000431,0.000823
12985000,0.0324,0.013523,0.002678,0.000431,0.000940
12986000,0.0324,0.013523,0.002678,0.000431,0.000940
12987000,0.0324,0.013523,0.002678,0.000431,0.000940
12988000,0.0324,0.013523,0.002678,0.000431,0.000940
12989000,0.0324,0.013523,0.002678,0.000431,0.000705
12990000,0.0324,0.013523,0.002678,0.000431,0.000940
12991000,0.0324,0.013523,0.002678,0.000431,0.000940
12992000,0.0324,0.013523,0.002678,0.000431,0.000705
12993000,0.0324,0.013523,0.002678,0.000431,0.000470
12994000,0.0324,0.013523,0.002678,0.000431,0.000823
12995000,0.0324,0.013523,0.002678,0.000431,0.000823
12996000,0.0324,0.013523,0.002678,0.000431,0.000940
12997000,0.0324,0.013523,0.002678,0.000431,0.000940
12998000,0.0324,0.013523,0.002678,0.000431,0.000705
12999000,0.0324,0.013523,0.002678,0.000431,0.000940
