Cycle,Area(mm^2),PeakDynamic(W),SubthresholdLeakage(W),GateLeakage(W),RunTimeDynamic(W)
13000000,0.0324,0.013523,0.002678,0.000431,0.001058
13001000,0.0324,0.013523,0.002678,0.000431,0.000940
13002000,0.0324,0.013523,0.002678,0.000431,0.000588
13003000,0.0324,0.013523,0.002678,0.000431,0.000705
13004000,0.0324,0.013523,0.002678,0.000431,0.000823
13005000,0.0324,0.013523,0.002678,0.000431,0.000588
13006000,0.0324,0.013523,0.002678,0.000431,0.000940
13007000,0.0324,0.013523,0.002678,0.000431,0.000940
13008000,0.0324,0.013523,0.002678,0.000431,0.000940
13009000,0.0324,0.013523,0.002678,0.000431,0.000940
13010000,0.0324,0.013523,0.002678,0.000431,0.001058
13011000,0.0324,0.013523,0.002678,0.000431,0.000588
13012000,0.0324,0.013523,0.002678,0.000431,0.000470
13013000,0.0324,0.013523,0.002678,0.000431,0.000705
13014000,0.0324,0.013523,0.002678,0.000431,0.000470
13015000,0.0324,0.013523,0.002678,0.000431,0.000705
13016000,0.0324,0.013523,0.002678,0.000431,0.000940
13017000,0.0324,0.013523,0.002678,0.000431,0.000470
13018000,0.0324,0.013523,0.002678,0.000431,0.000705
13019000,0.0324,0.013523,0.002678,0.000431,0.000940
13020000,0.0324,0.013523,0.002678,0.000431,0.000940
13021000,0.0324,0.013523,0.002678,0.000431,0.000588
13022000,0.0324,0.013523,0.002678,0.000431,0.000588
13023000,0.0324,0.013523,0.002678,0.000431,0.000705
13024000,0.0324,0.013523,0.002678,0.000431,0.000940
13025000,0.0324,0.013523,0.002678,0.000431,0.000470
13026000,0.0324,0.013523,0.002678,0.000431,0.001058
13027000,0.0324,0.013523,0.002678,0.000431,0.000588
13028000,0.0324,0.013523,0.002678,0.000431,0.000588
13029000,0.0324,0.013523,0.002678,0.000431,0.000588
13030000,0.0324,0.013523,0.002678,0.000431,0.000940
13031000,0.0324,0.013523,0.002678,0.000431,0.000940
13032000,0.0324,0.013523,0.002678,0.000431,0.000705
13033000,0.0324,0.013523,0.002678,0.000431,0.000588
13034000,0.0324,0.013523,0.002678,0.000431,0.000705
13035000,0.0324,0.013523,0.002678,0.000431,0.000823
13036000,0.0324,0.013523,0.002678,0.000431,0.000940
13037000,0.0324,0.013523,0.002678,0.000431,0.000588
13038000,0.0324,0.013523,0.002678,0.000431,0.000823
13039000,0.0324,0.013523,0.002678,0.000431,0.000940
13040000,0.0324,0.013523,0.002678,0.000431,0.000823
13041000,0.0324,0.013523,0.002678,0.000431,0.000588
13042000,0.0324,0.013523,0.002678,0.000431,0.000705
13043000,0.0324,0.013523,0.002678,0.000431,0.000940
13044000,0.0324,0.013523,0.002678,0.000431,0.000940
13045000,0.0324,0.013523,0.002678,0.000431,0.000823
13046000,0.0324,0.013523,0.002678,0.000431,0.001058
13047000,0.0324,0.013523,0.002678,0.000431,0.000940
13048000,0.0324,0.013523,0.002678,0.000431,0.000940
13049000,0.0324,0.013523,0.002678,0.000431,0.000823
13050000,0.0324,0.013523,0.002678,0.000431,0.000823
13051000,0.0324,0.013523,0.002678,0.000431,0.000823
13052000,0.0324,0.013523,0.002678,0.000431,0.000588
13053000,0.0324,0.013523,0.002678,0.000431,0.000470
13054000,0.0324,0.013523,0.002678,0.000431,0.000705
13055000,0.0324,0.013523,0.002678,0.000431,0.000470
13056000,0.0324,0.013523,0.002678,0.000431,0.000705
13057000,0.0324,0.013523,0.002678,0.000431,0.000470
13058000,0.0324,0.013523,0.002678,0.000431,0.000940
13059000,0.0324,0.013523,0.002678,0.000431,0.000823
13060000,0.0324,0.013523,0.002678,0.000431,0.000588
13061000,0.0324,0.013523,0.002678,0.000431,0.000940
13062000,0.0324,0.013523,0.002678,0.000431,0.000705
13063000,0.0324,0.013523,0.002678,0.000431,0.000823
13064000,0.0324,0.013523,0.002678,0.000431,0.000940
13065000,0.0324,0.013523,0.002678,0.000431,0.000823
13066000,0.0324,0.013523,0.002678,0.000431,0.000940
13067000,0.0324,0.013523,0.002678,0.000431,0.000940
13068000,0.0324,0.013523,0.002678,0.000431,0.000940
13069000,0.0324,0.013523,0.002678,0.000431,0.000588
13070000,0.0324,0.013523,0.002678,0.000431,0.001058
13071000,0.0324,0.013523,0.002678,0.000431,0.000823
13072000,0.0324,0.013523,0.002678,0.000431,0.000823
13073000,0.0324,0.013523,0.002678,0.000431,0.001058
13074000,0.0324,0.013523,0.002678,0.000431,0.000940
13075000,0.0324,0.013523,0.002678,0.000431,0.000940
13076000,0.0324,0.013523,0.002678,0.000431,0.000940
13077000,0.0324,0.013523,0.002678,0.000431,0.000823
13078000,0.0324,0.013523,0.002678,0.000431,0.000940
13079000,0.0324,0.013523,0.002678,0.000431,0.000940
13080000,0.0324,0.013523,0.002678,0.000431,0.000705
13081000,0.0324,0.013523,0.002678,0.000431,0.000470
13082000,0.0324,0.013523,0.002678,0.000431,0.000940
13083000,0.0324,0.013523,0.002678,0.000431,0.000940
13084000,0.0324,0.013523,0.002678,0.000431,0.001058
13085000,0.0324,0.013523,0.002678,0.000431,0.000823
13086000,0.0324,0.013523,0.002678,0.000431,0.000823
13087000,0.0324,0.013523,0.002678,0.000431,0.000823
13088000,0.0324,0.013523,0.002678,0.000431,0.000823
13089000,0.0324,0.013523,0.002678,0.000431,0.000823
13090000,0.0324,0.013523,0.002678,0.000431,0.000940
13091000,0.0324,0.013523,0.002678,0.000431,0.000940
13092000,0.0324,0.013523,0.002678,0.000431,0.000705
13093000,0.0324,0.013523,0.002678,0.000431,0.000940
13094000,0.0324,0.013523,0.002678,0.000431,0.000940
13095000,0.0324,0.013523,0.002678,0.000431,0.000705
13096000,0.0324,0.013523,0.002678,0.000431,0.000940
13097000,0.0324,0.013523,0.002678,0.000431,0.000940
13098000,0.0324,0.013523,0.002678,0.000431,0.000705
13099000,0.0324,0.013523,0.002678,0.000431,0.000940
13100000,0.0324,0.013523,0.002678,0.000431,0.000940
13101000,0.0324,0.013523,0.002678,0.000431,0.000940
13102000,0.0324,0.013523,0.002678,0.000431,0.000940
13103000,0.0324,0.013523,0.002678,0.000431,0.001058
13104000,0.0324,0.013523,0.002678,0.000431,0.001175
13105000,0.0324,0.013523,0.002678,0.000431,0.000940
13106000,0.0324,0.013523,0.002678,0.000431,0.000823
13107000,0.0324,0.013523,0.002678,0.000431,0.000940
13108000,0.0324,0.013523,0.002678,0.000431,0.000940
13109000,0.0324,0.013523,0.002678,0.000431,0.000823
13110000,0.0324,0.013523,0.002678,0.000431,0.000823
13111000,0.0324,0.013523,0.002678,0.000431,0.000940
13112000,0.0324,0.013523,0.002678,0.000431,0.000823
13113000,0.0324,0.013523,0.002678,0.000431,0.000823
13114000,0.0324,0.013523,0.002678,0.000431,0.000940
13115000,0.0324,0.013523,0.002678,0.000431,0.000470
13116000,0.0324,0.013523,0.002678,0.000431,0.000705
13117000,0.0324,0.013523,0.002678,0.000431,0.000470
13118000,0.0324,0.013523,0.002678,0.000431,0.000705
13119000,0.0324,0.013523,0.002678,0.000431,0.000705
13120000,0.0324,0.013523,0.002678,0.000431,0.000823
13121000,0.0324,0.013523,0.002678,0.000431,0.000823
13122000,0.0324,0.013523,0.002678,0.000431,0.000705
13123000,0.0324,0.013523,0.002678,0.000431,0.000940
13124000,0.0324,0.013523,0.002678,0.000431,0.000705
13125000,0.0324,0.013523,0.002678,0.000431,0.000470
13126000,0.0324,0.013523,0.002678,0.000431,0.000705
13127000,0.0324,0.013523,0.002678,0.000431,0.000470
13128000,0.0324,0.013523,0.002678,0.000431,0.000940
13129000,0.0324,0.013523,0.002678,0.000431,0.000705
13130000,0.0324,0.013523,0.002678,0.000431,0.000470
13131000,0.0324,0.013523,0.002678,0.000431,0.000588
13132000,0.0324,0.013523,0.002678,0.000431,0.000588
13133000,0.0324,0.013523,0.002678,0.000431,0.000705
13134000,0.0324,0.013523,0.002678,0.000431,0.000940
13135000,0.0324,0.013523,0.002678,0.000431,0.000470
13136000,0.0324,0.013523,0.002678,0.000431,0.000705
13137000,0.0324,0.013523,0.002678,0.000431,0.000823
13138000,0.0324,0.013523,0.002678,0.000431,0.000588
13139000,0.0324,0.013523,0.002678,0.000431,0.000470
13140000,0.0324,0.013523,0.002678,0.000431,0.000705
13141000,0.0324,0.013523,0.002678,0.000431,0.000588
13142000,0.0324,0.013523,0.002678,0.000431,0.000940
13143000,0.0324,0.013523,0.002678,0.000431,0.000823
13144000,0.0324,0.013523,0.002678,0.000431,0.000705
13145000,0.0324,0.013523,0.002678,0.000431,0.001058
13146000,0.0324,0.013523,0.002678,0.000431,0.000940
13147000,0.0324,0.013523,0.002678,0.000431,0.000823
13148000,0.0324,0.013523,0.002678,0.000431,0.000705
13149000,0.0324,0.013523,0.002678,0.000431,0.000705
13150000,0.0324,0.013523,0.002678,0.000431,0.000940
13151000,0.0324,0.013523,0.002678,0.000431,0.000823
13152000,0.0324,0.013523,0.002678,0.000431,0.000823
13153000,0.0324,0.013523,0.002678,0.000431,0.000705
13154000,0.0324,0.013523,0.002678,0.000431,0.000823
13155000,0.0324,0.013523,0.002678,0.000431,0.000823
13156000,0.0324,0.013523,0.002678,0.000431,0.000823
13157000,0.0324,0.013523,0.002678,0.000431,0.001058
13158000,0.0324,0.013523,0.002678,0.000431,0.000823
13159000,0.0324,0.013523,0.002678,0.000431,0.000823
13160000,0.0324,0.013523,0.002678,0.000431,0.000940
13161000,0.0324,0.013523,0.002678,0.000431,0.000470
13162000,0.0324,0.013523,0.002678,0.000431,0.000940
13163000,0.0324,0.013523,0.002678,0.000431,0.000705
13164000,0.0324,0.013523,0.002678,0.000431,0.000470
13165000,0.0324,0.013523,0.002678,0.000431,0.000470
13166000,0.0324,0.013523,0.002678,0.000431,0.000705
13167000,0.0324,0.013523,0.002678,0.000431,0.000705
13168000,0.0324,0.013523,0.002678,0.000431,0.000940
13169000,0.0324,0.013523,0.002678,0.000431,0.001058
13170000,0.0324,0.013523,0.002678,0.000431,0.000940
13171000,0.0324,0.013523,0.002678,0.000431,0.000823
13172000,0.0324,0.013523,0.002678,0.000431,0.000823
13173000,0.0324,0.013523,0.002678,0.000431,0.000823
13174000,0.0324,0.013523,0.002678,0.000431,0.000823
13175000,0.0324,0.013523,0.002678,0.000431,0.000940
13176000,0.0324,0.013523,0.002678,0.000431,0.000705
13177000,0.0324,0.013523,0.002678,0.000431,0.001058
13178000,0.0324,0.013523,0.002678,0.000431,0.000823
13179000,0.0324,0.013523,0.002678,0.000431,0.000823
13180000,0.0324,0.013523,0.002678,0.000431,0.000705
13181000,0.0324,0.013523,0.002678,0.000431,0.000705
13182000,0.0324,0.013523,0.002678,0.000431,0.000940
13183000,0.0324,0.013523,0.002678,0.000431,0.000940
13184000,0.0324,0.013523,0.002678,0.000431,0.000588
13185000,0.0324,0.013523,0.002678,0.000431,0.000940
13186000,0.0324,0.013523,0.002678,0.000431,0.000823
13187000,0.0324,0.013523,0.002678,0.000431,0.000940
13188000,0.0324,0.013523,0.002678,0.000431,0.000823
13189000,0.0324,0.013523,0.002678,0.000431,0.000940
13190000,0.0324,0.013523,0.002678,0.000431,0.001058
13191000,0.0324,0.013523,0.002678,0.000431,0.000940
13192000,0.0324,0.013523,0.002678,0.000431,0.000940
13193000,0.0324,0.013523,0.002678,0.000431,0.000940
13194000,0.0324,0.013523,0.002678,0.000431,0.001058
13195000,0.0324,0.013523,0.002678,0.000431,0.000588
13196000,0.0324,0.013523,0.002678,0.000431,0.000823
13197000,0.0324,0.013523,0.002678,0.000431,0.000823
13198000,0.0324,0.013523,0.002678,0.000431,0.000940
13199000,0.0324,0.013523,0.002678,0.000431,0.000940
13200000,0.0324,0.013523,0.002678,0.000431,0.000823
13201000,0.0324,0.013523,0.002678,0.000431,0.000823
13202000,0.0324,0.013523,0.002678,0.000431,0.000940
13203000,0.0324,0.013523,0.002678,0.000431,0.000940
13204000,0.0324,0.013523,0.002678,0.000431,0.000823
13205000,0.0324,0.013523,0.002678,0.000431,0.000823
13206000,0.0324,0.013523,0.002678,0.000431,0.000940
13207000,0.0324,0.013523,0.002678,0.000431,0.001058
13208000,0.0324,0.013523,0.002678,0.000431,0.001175
13209000,0.0324,0.013523,0.002678,0.000431,0.000588
13210000,0.0324,0.013523,0.002678,0.000431,0.000940
13211000,0.0324,0.013523,0.002678,0.000431,0.000705
13212000,0.0324,0.013523,0.002678,0.000431,0.000470
13213000,0.0324,0.013523,0.002678,0.000431,0.000705
13214000,0.0324,0.013523,0.002678,0.000431,0.000470
13215000,0.0324,0.013523,0.002678,0.000431,0.001058
13216000,0.0324,0.013523,0.002678,0.000431,0.000940
13217000,0.0324,0.013523,0.002678,0.000431,0.000823
13218000,0.0324,0.013523,0.002678,0.000431,0.000705
13219000,0.0324,0.013523,0.002678,0.000431,0.001058
13220000,0.0324,0.013523,0.002678,0.000431,0.000940
13221000,0.0324,0.013523,0.002678,0.000431,0.000823
13222000,0.0324,0.013523,0.002678,0.000431,0.000705
13223000,0.0324,0.013523,0.002678,0.000431,0.000705
13224000,0.0324,0.013523,0.002678,0.000431,0.000940
13225000,0.0324,0.013523,0.002678,0.000431,0.000588
13226000,0.0324,0.013523,0.002678,0.000431,0.000588
13227000,0.0324,0.013523,0.002678,0.000431,0.000470
13228000,0.0324,0.013523,0.002678,0.000431,0.001058
13229000,0.0324,0.013523,0.002678,0.000431,0.000940
13230000,0.0324,0.013523,0.002678,0.000431,0.000588
13231000,0.0324,0.013523,0.002678,0.000431,0.000588
13232000,0.0324,0.013523,0.002678,0.000431,0.001058
13233000,0.0324,0.013523,0.002678,0.000431,0.000705
13234000,0.0324,0.013523,0.002678,0.000431,0.000940
13235000,0.0324,0.013523,0.002678,0.000431,0.000940
13236000,0.0324,0.013523,0.002678,0.000431,0.000705
13237000,0.0324,0.013523,0.002678,0.000431,0.000940
13238000,0.0324,0.013523,0.002678,0.000431,0.000823
13239000,0.0324,0.013523,0.002678,0.000431,0.000705
13240000,0.0324,0.013523,0.002678,0.000431,0.000588
13241000,0.0324,0.013523,0.002678,0.000431,0.000823
13242000,0.0324,0.013523,0.002678,0.000431,0.000823
13243000,0.0324,0.013523,0.002678,0.000431,0.000470
13244000,0.0324,0.013523,0.002678,0.000431,0.000588
13245000,0.0324,0.013523,0.002678,0.000431,0.000940
13246000,0.0324,0.013523,0.002678,0.000431,0.000823
13247000,0.0324,0.013523,0.002678,0.000431,0.000705
13248000,0.0324,0.013523,0.002678,0.000431,0.001058
13249000,0.0324,0.013523,0.002678,0.000431,0.000940
13250000,0.0324,0.013523,0.002678,0.000431,0.000588
13251000,0.0324,0.013523,0.002678,0.000431,0.000705
13252000,0.0324,0.013523,0.002678,0.000431,0.000940
13253000,0.0324,0.013523,0.002678,0.000431,0.000940
13254000,0.0324,0.013523,0.002678,0.000431,0.000705
13255000,0.0324,0.013523,0.002678,0.000431,0.000470
13256000,0.0324,0.013523,0.002678,0.000431,0.001058
13257000,0.0324,0.013523,0.002678,0.000431,0.000588
13258000,0.0324,0.013523,0.002678,0.000431,0.000705
13259000,0.0324,0.013523,0.002678,0.000431,0.000940
13260000,0.0324,0.013523,0.002678,0.000431,0.000940
13261000,0.0324,0.013523,0.002678,0.000431,0.000705
13262000,0.0324,0.013523,0.002678,0.000431,0.000940
13263000,0.0324,0.013523,0.002678,0.000431,0.000940
13264000,0.0324,0.013523,0.002678,0.000431,0.000940
13265000,0.0324,0.013523,0.002678,0.000431,0.000940
13266000,0.0324,0.013523,0.002678,0.000431,0.000823
13267000,0.0324,0.013523,0.002678,0.000431,0.000823
13268000,0.0324,0.013523,0.002678,0.000431,0.000940
13269000,0.0324,0.013523,0.002678,0.000431,0.000588
13270000,0.0324,0.013523,0.002678,0.000431,0.000940
13271000,0.0324,0.013523,0.002678,0.000431,0.000823
13272000,0.0324,0.013523,0.002678,0.000431,0.000940
13273000,0.0324,0.013523,0.002678,0.000431,0.000940
13274000,0.0324,0.013523,0.002678,0.000431,0.000588
13275000,0.0324,0.013523,0.002678,0.000431,0.000588
13276000,0.0324,0.013523,0.002678,0.000431,0.000588
13277000,0.0324,0.013523,0.002678,0.000431,0.000823
13278000,0.0324,0.013523,0.002678,0.000431,0.000705
13279000,0.0324,0.013523,0.002678,0.000431,0.000588
13280000,0.0324,0.013523,0.002678,0.000431,0.000588
13281000,0.0324,0.013523,0.002678,0.000431,0.000470
13282000,0.0324,0.013523,0.002678,0.000431,0.000823
13283000,0.0324,0.013523,0.002678,0.000431,0.000823
13284000,0.0324,0.013523,0.002678,0.000431,0.000588
13285000,0.0324,0.013523,0.002678,0.000431,0.000588
13286000,0.0324,0.013523,0.002678,0.000431,0.000470
13287000,0.0324,0.013523,0.002678,0.000431,0.000940
13288000,0.0324,0.013523,0.002678,0.000431,0.000940
13289000,0.0324,0.013523,0.002678,0.000431,0.000705
13290000,0.0324,0.013523,0.002678,0.000431,0.000823
13291000,0.0324,0.013523,0.002678,0.000431,0.000823
13292000,0.0324,0.013523,0.002678,0.000431,0.000588
13293000,0.0324,0.013523,0.002678,0.000431,0.000588
13294000,0.0324,0.013523,0.002678,0.000431,0.000940
13295000,0.0324,0.013523,0.002678,0.000431,0.000588
13296000,0.0324,0.013523,0.002678,0.000431,0.001058
13297000,0.0324,0.013523,0.002678,0.000431,0.001058
13298000,0.0324,0.013523,0.002678,0.000431,0.000940
13299000,0.0324,0.013523,0.002678,0.000431,0.000823
13300000,0.0324,0.013523,0.002678,0.000431,0.000823
13301000,0.0324,0.013523,0.002678,0.000431,0.000823
13302000,0.0324,0.013523,0.002678,0.000431,0.000940
13303000,0.0324,0.013523,0.002678,0.000431,0.000940
13304000,0.0324,0.013523,0.002678,0.000431,0.000470
13305000,0.0324,0.013523,0.002678,0.000431,0.001058
13306000,0.0324,0.013523,0.002678,0.000431,0.001058
13307000,0.0324,0.013523,0.002678,0.000431,0.001058
13308000,0.0324,0.013523,0.002678,0.000431,0.000823
13309000,0.0324,0.013523,0.002678,0.000431,0.000705
13310000,0.0324,0.013523,0.002678,0.000431,0.000940
13311000,0.0324,0.013523,0.002678,0.000431,0.000705
13312000,0.0324,0.013523,0.002678,0.000431,0.000705
13313000,0.0324,0.013523,0.002678,0.000431,0.000940
13314000,0.0324,0.013523,0.002678,0.000431,0.001058
13315000,0.0324,0.013523,0.002678,0.000431,0.000940
13316000,0.0324,0.013523,0.002678,0.000431,0.000823
13317000,0.0324,0.013523,0.002678,0.000431,0.000705
13318000,0.0324,0.013523,0.002678,0.000431,0.001058
13319000,0.0324,0.013523,0.002678,0.000431,0.001058
13320000,0.0324,0.013523,0.002678,0.000431,0.000705
13321000,0.0324,0.013523,0.002678,0.000431,0.000705
13322000,0.0324,0.013523,0.002678,0.000431,0.000940
13323000,0.0324,0.013523,0.002678,0.000431,0.000823
13324000,0.0324,0.013523,0.002678,0.000431,0.000823
13325000,0.0324,0.013523,0.002678,0.000431,0.000940
13326000,0.0324,0.013523,0.002678,0.000431,0.000940
13327000,0.0324,0.013523,0.002678,0.000431,0.000940
13328000,0.0324,0.013523,0.002678,0.000431,0.000940
13329000,0.0324,0.013523,0.002678,0.000431,0.000823
13330000,0.0324,0.013523,0.002678,0.000431,0.000940
13331000,0.0324,0.013523,0.002678,0.000431,0.000823
13332000,0.0324,0.013523,0.002678,0.000431,0.000823
13333000,0.0324,0.013523,0.002678,0.000431,0.001058
13334000,0.0324,0.013523,0.002678,0.000431,0.000470
13335000,0.0324,0.013523,0.002678,0.000431,0.001058
13336000,0.0324,0.013523,0.002678,0.000431,0.000823
13337000,0.0324,0.013523,0.002678,0.000431,0.000588
13338000,0.0324,0.013523,0.002678,0.000431,0.000823
13339000,0.0324,0.013523,0.002678,0.000431,0.000705
13340000,0.0324,0.013523,0.002678,0.000431,0.001058
13341000,0.0324,0.013523,0.002678,0.000431,0.000940
13342000,0.0324,0.013523,0.002678,0.000431,0.000588
13343000,0.0324,0.013523,0.002678,0.000431,0.000823
13344000,0.0324,0.013523,0.002678,0.000431,0.000823
13345000,0.0324,0.013523,0.002678,0.000431,0.000705
13346000,0.0324,0.013523,0.002678,0.000431,0.000823
13347000,0.0324,0.013523,0.002678,0.000431,0.000588
13348000,0.0324,0.013523,0.002678,0.000431,0.001058
13349000,0.0324,0.013523,0.002678,0.000431,0.000940
13350000,0.0324,0.013523,0.002678,0.000431,0.000588
13351000,0.0324,0.013523,0.002678,0.000431,0.000940
13352000,0.0324,0.013523,0.002678,0.000431,0.000940
13353000,0.0324,0.013523,0.002678,0.000431,0.000940
13354000,0.0324,0.013523,0.002678,0.000431,0.000940
13355000,0.0324,0.013523,0.002678,0.000431,0.000470
13356000,0.0324,0.013523,0.002678,0.000431,0.000940
13357000,0.0324,0.013523,0.002678,0.000431,0.000705
13358000,0.0324,0.013523,0.002678,0.000431,0.001058
13359000,0.0324,0.013523,0.002678,0.000431,0.000940
13360000,0.0324,0.013523,0.002678,0.000431,0.000940
13361000,0.0324,0.013523,0.002678,0.000431,0.000823
13362000,0.0324,0.013523,0.002678,0.000431,0.000940
13363000,0.0324,0.013523,0.002678,0.000431,0.000940
13364000,0.0324,0.013523,0.002678,0.000431,0.000705
13365000,0.0324,0.013523,0.002678,0.000431,0.000940
13366000,0.0324,0.013523,0.002678,0.000431,0.000940
13367000,0.0324,0.013523,0.002678,0.000431,0.000823
13368000,0.0324,0.013523,0.002678,0.000431,0.000823
13369000,0.0324,0.013523,0.002678,0.000431,0.000940
13370000,0.0324,0.013523,0.002678,0.000431,0.000940
13371000,0.0324,0.013523,0.002678,0.000431,0.000940
13372000,0.0324,0.013523,0.002678,0.000431,0.000940
13373000,0.0324,0.013523,0.002678,0.000431,0.000940
13374000,0.0324,0.013523,0.002678,0.000431,0.000705
13375000,0.0324,0.013523,0.002678,0.000431,0.000940
13376000,0.0324,0.013523,0.002678,0.000431,0.000940
13377000,0.0324,0.013523,0.002678,0.000431,0.000940
13378000,0.0324,0.013523,0.002678,0.000431,0.000940
13379000,0.0324,0.013523,0.002678,0.000431,0.000940
13380000,0.0324,0.013523,0.002678,0.000431,0.000940
13381000,0.0324,0.013523,0.002678,0.000431,0.000705
13382000,0.0324,0.013523,0.002678,0.000431,0.000940
13383000,0.0324,0.013523,0.002678,0.000431,0.000940
13384000,0.0324,0.013523,0.002678,0.000431,0.000940
13385000,0.0324,0.013523,0.002678,0.000431,0.000705
13386000,0.0324,0.013523,0.002678,0.000431,0.001058
13387000,0.0324,0.013523,0.002678,0.000431,0.001058
13388000,0.0324,0.013523,0.002678,0.000431,0.000940
13389000,0.0324,0.013523,0.002678,0.000431,0.000940
13390000,0.0324,0.013523,0.002678,0.000431,0.000705
13391000,0.0324,0.013523,0.002678,0.000431,0.000705
13392000,0.0324,0.013523,0.002678,0.000431,0.000940
13393000,0.0324,0.013523,0.002678,0.000431,0.000940
13394000,0.0324,0.013523,0.002678,0.000431,0.000705
13395000,0.0324,0.013523,0.002678,0.000431,0.000705
13396000,0.0324,0.013523,0.002678,0.000431,0.000940
13397000,0.0324,0.013523,0.002678,0.000431,0.000940
13398000,0.0324,0.013523,0.002678,0.000431,0.000823
13399000,0.0324,0.013523,0.002678,0.000431,0.000823
13400000,0.0324,0.013523,0.002678,0.000431,0.000940
13401000,0.0324,0.013523,0.002678,0.000431,0.000470
13402000,0.0324,0.013523,0.002678,0.000431,0.000940
13403000,0.0324,0.013523,0.002678,0.000431,0.000705
13404000,0.0324,0.013523,0.002678,0.000431,0.000588
13405000,0.0324,0.013523,0.002678,0.000431,0.000588
13406000,0.0324,0.013523,0.002678,0.000431,0.000705
13407000,0.0324,0.013523,0.002678,0.000431,0.000823
13408000,0.0324,0.013523,0.002678,0.000431,0.000823
13409000,0.0324,0.013523,0.002678,0.000431,0.000940
13410000,0.0324,0.013523,0.002678,0.000431,0.000940
13411000,0.0324,0.013523,0.002678,0.000431,0.000940
13412000,0.0324,0.013523,0.002678,0.000431,0.000705
13413000,0.0324,0.013523,0.002678,0.000431,0.000705
13414000,0.0324,0.013523,0.002678,0.000431,0.000823
13415000,0.0324,0.013523,0.002678,0.000431,0.000823
13416000,0.0324,0.013523,0.002678,0.000431,0.000705
13417000,0.0324,0.013523,0.002678,0.000431,0.000705
13418000,0.0324,0.013523,0.002678,0.000431,0.000940
13419000,0.0324,0.013523,0.002678,0.000431,0.000940
13420000,0.0324,0.013523,0.002678,0.000431,0.000940
13421000,0.0324,0.013523,0.002678,0.000431,0.000705
13422000,0.0324,0.013523,0.002678,0.000431,0.000940
13423000,0.0324,0.013523,0.002678,0.000431,0.000940
13424000,0.0324,0.013523,0.002678,0.000431,0.000588
13425000,0.0324,0.013523,0.002678,0.000431,0.000940
13426000,0.0324,0.013523,0.002678,0.000431,0.000940
13427000,0.0324,0.013523,0.002678,0.000431,0.000940
13428000,0.0324,0.013523,0.002678,0.000431,0.000823
13429000,0.0324,0.013523,0.002678,0.000431,0.000940
13430000,0.0324,0.013523,0.002678,0.000431,0.000940
13431000,0.0324,0.013523,0.002678,0.000431,0.000705
13432000,0.0324,0.013523,0.002678,0.000431,0.000940
13433000,0.0324,0.013523,0.002678,0.000431,0.000705
13434000,0.0324,0.013523,0.002678,0.000431,0.000470
13435000,0.0324,0.013523,0.002678,0.000431,0.000705
13436000,0.0324,0.013523,0.002678,0.000431,0.000823
13437000,0.0324,0.013523,0.002678,0.000431,0.000588
13438000,0.0324,0.013523,0.002678,0.000431,0.000940
13439000,0.0324,0.013523,0.002678,0.000431,0.000940
13440000,0.0324,0.013523,0.002678,0.000431,0.000705
13441000,0.0324,0.013523,0.002678,0.000431,0.001058
13442000,0.0324,0.013523,0.002678,0.000431,0.000823
13443000,0.0324,0.013523,0.002678,0.000431,0.000940
13444000,0.0324,0.013523,0.002678,0.000431,0.000470
13445000,0.0324,0.013523,0.002678,0.000431,0.000940
13446000,0.0324,0.013523,0.002678,0.000431,0.000940
13447000,0.0324,0.013523,0.002678,0.000431,0.000705
13448000,0.0324,0.013523,0.002678,0.000431,0.001058
13449000,0.0324,0.013523,0.002678,0.000431,0.001058
13450000,0.0324,0.013523,0.002678,0.000431,0.000705
13451000,0.0324,0.013523,0.002678,0.000431,0.000588
13452000,0.0324,0.013523,0.002678,0.000431,0.000940
13453000,0.0324,0.013523,0.002678,0.000431,0.000823
13454000,0.0324,0.013523,0.002678,0.000431,0.000940
13455000,0.0324,0.013523,0.002678,0.000431,0.000940
13456000,0.0324,0.013523,0.002678,0.000431,0.000705
13457000,0.0324,0.013523,0.002678,0.000431,0.000940
13458000,0.0324,0.013523,0.002678,0.000431,0.000940
13459000,0.0324,0.013523,0.002678,0.000431,0.000823
13460000,0.0324,0.013523,0.002678,0.000431,0.000823
13461000,0.0324,0.013523,0.002678,0.000431,0.001058
13462000,0.0324,0.013523,0.002678,0.000431,0.000823
13463000,0.0324,0.013523,0.002678,0.000431,0.000705
13464000,0.0324,0.013523,0.002678,0.000431,0.000588
13465000,0.0324,0.013523,0.002678,0.000431,0.000940
13466000,0.0324,0.013523,0.002678,0.000431,0.000823
13467000,0.0324,0.013523,0.002678,0.000431,0.000940
13468000,0.0324,0.013523,0.002678,0.000431,0.000940
13469000,0.0324,0.013523,0.002678,0.000431,0.000823
13470000,0.0324,0.013523,0.002678,0.000431,0.001058
13471000,0.0324,0.013523,0.002678,0.000431,0.000940
13472000,0.0324,0.013523,0.002678,0.000431,0.000705
13473000,0.0324,0.013523,0.002678,0.000431,0.000705
13474000,0.0324,0.013523,0.002678,0.000431,0.000940
13475000,0.0324,0.013523,0.002678,0.000431,0.000705
13476000,0.0324,0.013523,0.002678,0.000431,0.000940
13477000,0.0324,0.013523,0.002678,0.000431,0.000823
13478000,0.0324,0.013523,0.002678,0.000431,0.001058
13479000,0.0324,0.013523,0.002678,0.000431,0.000823
13480000,0.0324,0.013523,0.002678,0.000431,0.000588
13481000,0.0324,0.013523,0.002678,0.000431,0.000940
13482000,0.0324,0.013523,0.002678,0.000431,0.000940
13483000,0.0324,0.013523,0.002678,0.000431,0.000705
13484000,0.0324,0.013523,0.002678,0.000431,0.000940
13485000,0.0324,0.013523,0.002678,0.000431,0.000705
13486000,0.0324,0.013523,0.002678,0.000431,0.000940
13487000,0.0324,0.013523,0.002678,0.000431,0.001058
13488000,0.0324,0.013523,0.002678,0.000431,0.000588
13489000,0.0324,0.013523,0.002678,0.000431,0.000940
13490000,0.0324,0.013523,0.002678,0.000431,0.000823
13491000,0.0324,0.013523,0.002678,0.000431,0.000588
13492000,0.0324,0.013523,0.002678,0.000431,0.000940
13493000,0.0324,0.013523,0.002678,0.000431,0.000823
13494000,0.0324,0.013523,0.002678,0.000431,0.001058
13495000,0.0324,0.013523,0.002678,0.000431,0.000940
13496000,0.0324,0.013523,0.002678,0.000431,0.000940
13497000,0.0324,0.013523,0.002678,0.000431,0.000823
13498000,0.0324,0.013523,0.002678,0.000431,0.000823
13499000,0.0324,0.013523,0.002678,0.000431,0.000705
13500000,0.0324,0.013523,0.002678,0.000431,0.000940
13501000,0.0324,0.013523,0.002678,0.000431,0.000940
13502000,0.0324,0.013523,0.002678,0.000431,0.000470
13503000,0.0324,0.013523,0.002678,0.000431,0.001175
13504000,0.0324,0.013523,0.002678,0.000431,0.000705
13505000,0.0324,0.013523,0.002678,0.000431,0.000940
13506000,0.0324,0.013523,0.002678,0.000431,0.001175
13507000,0.0324,0.013523,0.002678,0.000431,0.000940
13508000,0.0324,0.013523,0.002678,0.000431,0.000940
13509000,0.0324,0.013523,0.002678,0.000431,0.000940
13510000,0.0324,0.013523,0.002678,0.000431,0.000823
13511000,0.0324,0.013523,0.002678,0.000431,0.000823
13512000,0.0324,0.013523,0.002678,0.000431,0.000940
13513000,0.0324,0.013523,0.002678,0.000431,0.000940
13514000,0.0324,0.013523,0.002678,0.000431,0.000705
13515000,0.0324,0.013523,0.002678,0.000431,0.000940
13516000,0.0324,0.013523,0.002678,0.000431,0.000705
13517000,0.0324,0.013523,0.002678,0.000431,0.000940
13518000,0.0324,0.013523,0.002678,0.000431,0.000940
13519000,0.0324,0.013523,0.002678,0.000431,0.000823
13520000,0.0324,0.013523,0.002678,0.000431,0.000823
13521000,0.0324,0.013523,0.002678,0.000431,0.000705
13522000,0.0324,0.013523,0.002678,0.000431,0.000940
13523000,0.0324,0.013523,0.002678,0.000431,0.000940
13524000,0.0324,0.013523,0.002678,0.000431,0.000588
13525000,0.0324,0.013523,0.002678,0.000431,0.000940
13526000,0.0324,0.013523,0.002678,0.000431,0.000588
13527000,0.0324,0.013523,0.002678,0.000431,0.000823
13528000,0.0324,0.013523,0.002678,0.000431,0.000823
13529000,0.0324,0.013523,0.002678,0.000431,0.000705
13530000,0.0324,0.013523,0.002678,0.000431,0.000823
13531000,0.0324,0.013523,0.002678,0.000431,0.001058
13532000,0.0324,0.013523,0.002678,0.000431,0.000470
13533000,0.0324,0.013523,0.002678,0.000431,0.000705
13534000,0.0324,0.013523,0.002678,0.000431,0.000705
13535000,0.0324,0.013523,0.002678,0.000431,0.000940
13536000,0.0324,0.013523,0.002678,0.000431,0.000823
13537000,0.0324,0.013523,0.002678,0.000431,0.000823
13538000,0.0324,0.013523,0.002678,0.000431,0.000470
13539000,0.0324,0.013523,0.002678,0.000431,0.000705
13540000,0.0324,0.013523,0.002678,0.000431,0.000470
13541000,0.0324,0.013523,0.002678,0.000431,0.000940
13542000,0.0324,0.013523,0.002678,0.000431,0.000823
13543000,0.0324,0.013523,0.002678,0.000431,0.000823
13544000,0.0324,0.013523,0.002678,0.000431,0.001058
13545000,0.0324,0.013523,0.002678,0.000431,0.000823
13546000,0.0324,0.013523,0.002678,0.000431,0.000940
13547000,0.0324,0.013523,0.002678,0.000431,0.000705
13548000,0.0324,0.013523,0.002678,0.000431,0.000588
13549000,0.0324,0.013523,0.002678,0.000431,0.000588
13550000,0.0324,0.013523,0.002678,0.000431,0.000705
13551000,0.0324,0.013523,0.002678,0.000431,0.000940
13552000,0.0324,0.013523,0.002678,0.000431,0.000940
13553000,0.0324,0.013523,0.002678,0.000431,0.000588
13554000,0.0324,0.013523,0.002678,0.000431,0.000940
13555000,0.0324,0.013523,0.002678,0.000431,0.000823
13556000,0.0324,0.013523,0.002678,0.000431,0.000940
13557000,0.0324,0.013523,0.002678,0.000431,0.000940
13558000,0.0324,0.013523,0.002678,0.000431,0.000705
13559000,0.0324,0.013523,0.002678,0.000431,0.000940
13560000,0.0324,0.013523,0.002678,0.000431,0.000823
13561000,0.0324,0.013523,0.002678,0.000431,0.001058
13562000,0.0324,0.013523,0.002678,0.000431,0.000940
13563000,0.0324,0.013523,0.002678,0.000431,0.000940
13564000,0.0324,0.013523,0.002678,0.000431,0.000705
13565000,0.0324,0.013523,0.002678,0.000431,0.000940
13566000,0.0324,0.013523,0.002678,0.000431,0.000940
13567000,0.0324,0.013523,0.002678,0.000431,0.000705
13568000,0.0324,0.013523,0.002678,0.000431,0.000705
13569000,0.0324,0.013523,0.002678,0.000431,0.000705
13570000,0.0324,0.013523,0.002678,0.000431,0.000940
13571000,0.0324,0.013523,0.002678,0.000431,0.001058
13572000,0.0324,0.013523,0.002678,0.000431,0.000823
13573000,0.0324,0.013523,0.002678,0.000431,0.000940
13574000,0.0324,0.013523,0.002678,0.000431,0.000823
13575000,0.0324,0.013523,0.002678,0.000431,0.000823
13576000,0.0324,0.013523,0.002678,0.000431,0.000940
13577000,0.0324,0.013523,0.002678,0.000431,0.001175
13578000,0.0324,0.013523,0.002678,0.000431,0.000823
13579000,0.0324,0.013523,0.002678,0.000431,0.000823
13580000,0.0324,0.013523,0.002678,0.000431,0.000940
13581000,0.0324,0.013523,0.002678,0.000431,0.000940
13582000,0.0324,0.013523,0.002678,0.000431,0.000940
13583000,0.0324,0.013523,0.002678,0.000431,0.000705
13584000,0.0324,0.013523,0.002678,0.000431,0.000940
13585000,0.0324,0.013523,0.002678,0.000431,0.000940
13586000,0.0324,0.013523,0.002678,0.000431,0.000940
13587000,0.0324,0.013523,0.002678,0.000431,0.000940
13588000,0.0324,0.013523,0.002678,0.000431,0.000940
13589000,0.0324,0.013523,0.002678,0.000431,0.001058
13590000,0.0324,0.013523,0.002678,0.000431,0.000940
13591000,0.0324,0.013523,0.002678,0.000431,0.000823
13592000,0.0324,0.013523,0.002678,0.000431,0.000823
13593000,0.0324,0.013523,0.002678,0.000431,0.000823
13594000,0.0324,0.013523,0.002678,0.000431,0.000940
13595000,0.0324,0.013523,0.002678,0.000431,0.000940
13596000,0.0324,0.013523,0.002678,0.000431,0.000823
13597000,0.0324,0.013523,0.002678,0.000431,0.001058
13598000,0.0324,0.013523,0.002678,0.000431,0.000940
13599000,0.0324,0.013523,0.002678,0.000431,0.000940
13600000,0.0324,0.013523,0.002678,0.000431,0.000823
13601000,0.0324,0.013523,0.002678,0.000431,0.000940
13602000,0.0324,0.013523,0.002678,0.000431,0.001058
13603000,0.0324,0.013523,0.002678,0.000431,0.000823
13604000,0.0324,0.013523,0.002678,0.000431,0.001058
13605000,0.0324,0.013523,0.002678,0.000431,0.000823
13606000,0.0324,0.013523,0.002678,0.000431,0.000823
13607000,0.0324,0.013523,0.002678,0.000431,0.001058
13608000,0.0324,0.013523,0.002678,0.000431,0.000940
13609000,0.0324,0.013523,0.002678,0.000431,0.000940
13610000,0.0324,0.013523,0.002678,0.000431,0.000823
13611000,0.0324,0.013523,0.002678,0.000431,0.000940
13612000,0.0324,0.013523,0.002678,0.000431,0.000940
13613000,0.0324,0.013523,0.002678,0.000431,0.000940
13614000,0.0324,0.013523,0.002678,0.000431,0.000705
13615000,0.0324,0.013523,0.002678,0.000431,0.000940
13616000,0.0324,0.013523,0.002678,0.000431,0.000940
13617000,0.0324,0.013523,0.002678,0.000431,0.000823
13618000,0.0324,0.013523,0.002678,0.000431,0.000823
13619000,0.0324,0.013523,0.002678,0.000431,0.000940
13620000,0.0324,0.013523,0.002678,0.000431,0.000940
13621000,0.0324,0.013523,0.002678,0.000431,0.000823
13622000,0.0324,0.013523,0.002678,0.000431,0.000823
13623000,0.0324,0.013523,0.002678,0.000431,0.000940
13624000,0.0324,0.013523,0.002678,0.000431,0.000940
13625000,0.0324,0.013523,0.002678,0.000431,0.000705
13626000,0.0324,0.013523,0.002678,0.000431,0.000470
13627000,0.0324,0.013523,0.002678,0.000431,0.000705
13628000,0.0324,0.013523,0.002678,0.000431,0.000823
13629000,0.0324,0.013523,0.002678,0.000431,0.000823
13630000,0.0324,0.013523,0.002678,0.000431,0.000940
13631000,0.0324,0.013523,0.002678,0.000431,0.000940
13632000,0.0324,0.013523,0.002678,0.000431,0.000705
13633000,0.0324,0.013523,0.002678,0.000431,0.000940
13634000,0.0324,0.013523,0.002678,0.000431,0.000940
13635000,0.0324,0.013523,0.002678,0.000431,0.000823
13636000,0.0324,0.013523,0.002678,0.000431,0.000823
13637000,0.0324,0.013523,0.002678,0.000431,0.000940
13638000,0.0324,0.013523,0.002678,0.000431,0.000823
13639000,0.0324,0.013523,0.002678,0.000431,0.000823
13640000,0.0324,0.013523,0.002678,0.000431,0.000470
13641000,0.0324,0.013523,0.002678,0.000431,0.000823
13642000,0.0324,0.013523,0.002678,0.000431,0.000823
13643000,0.0324,0.013523,0.002678,0.000431,0.000940
13644000,0.0324,0.013523,0.002678,0.000431,0.000940
13645000,0.0324,0.013523,0.002678,0.000431,0.000705
13646000,0.0324,0.013523,0.002678,0.000431,0.000705
13647000,0.0324,0.013523,0.002678,0.000431,0.000940
13648000,0.0324,0.013523,0.002678,0.000431,0.000705
13649000,0.0324,0.013523,0.002678,0.000431,0.000940
13650000,0.0324,0.013523,0.002678,0.000431,0.000823
13651000,0.0324,0.013523,0.002678,0.000431,0.000823
13652000,0.0324,0.013523,0.002678,0.000431,0.000940
13653000,0.0324,0.013523,0.002678,0.000431,0.000940
13654000,0.0324,0.013523,0.002678,0.000431,0.000823
13655000,0.0324,0.013523,0.002678,0.000431,0.000705
13656000,0.0324,0.013523,0.002678,0.000431,0.000588
13657000,0.0324,0.013523,0.002678,0.000431,0.000705
13658000,0.0324,0.013523,0.002678,0.000431,0.000940
13659000,0.0324,0.013523,0.002678,0.000431,0.000940
13660000,0.0324,0.013523,0.002678,0.000431,0.000705
13661000,0.0324,0.013523,0.002678,0.000431,0.000940
13662000,0.0324,0.013523,0.002678,0.000431,0.000940
13663000,0.0324,0.013523,0.002678,0.000431,0.000823
13664000,0.0324,0.013523,0.002678,0.000431,0.000823
13665000,0.0324,0.013523,0.002678,0.000431,0.001058
13666000,0.0324,0.013523,0.002678,0.000431,0.000823
13667000,0.0324,0.013523,0.002678,0.000431,0.000823
13668000,0.0324,0.013523,0.002678,0.000431,0.000823
13669000,0.0324,0.013523,0.002678,0.000431,0.000705
13670000,0.0324,0.013523,0.002678,0.000431,0.000705
13671000,0.0324,0.013523,0.002678,0.000431,0.000705
13672000,0.0324,0.013523,0.002678,0.000431,0.000940
13673000,0.0324,0.013523,0.002678,0.000431,0.000823
13674000,0.0324,0.013523,0.002678,0.000431,0.000823
13675000,0.0324,0.013523,0.002678,0.000431,0.000940
13676000,0.0324,0.013523,0.002678,0.000431,0.000940
13677000,0.0324,0.013523,0.002678,0.000431,0.000470
13678000,0.0324,0.013523,0.002678,0.000431,0.001058
13679000,0.0324,0.013523,0.002678,0.000431,0.000940
13680000,0.0324,0.013523,0.002678,0.000431,0.000940
13681000,0.0324,0.013523,0.002678,0.000431,0.000705
13682000,0.0324,0.013523,0.002678,0.000431,0.000823
13683000,0.0324,0.013523,0.002678,0.000431,0.000940
13684000,0.0324,0.013523,0.002678,0.000431,0.000940
13685000,0.0324,0.013523,0.002678,0.000431,0.000940
13686000,0.0324,0.013523,0.002678,0.000431,0.000705
13687000,0.0324,0.013523,0.002678,0.000431,0.000940
13688000,0.0324,0.013523,0.002678,0.000431,0.000940
13689000,0.0324,0.013523,0.002678,0.000431,0.000705
13690000,0.0324,0.013523,0.002678,0.000431,0.001175
13691000,0.0324,0.013523,0.002678,0.000431,0.000470
13692000,0.0324,0.013523,0.002678,0.000431,0.000705
13693000,0.0324,0.013523,0.002678,0.000431,0.000823
13694000,0.0324,0.013523,0.002678,0.000431,0.000588
13695000,0.0324,0.013523,0.002678,0.000431,0.000940
13696000,0.0324,0.013523,0.002678,0.000431,0.000705
13697000,0.0324,0.013523,0.002678,0.000431,0.000470
13698000,0.0324,0.013523,0.002678,0.000431,0.000705
13699000,0.0324,0.013523,0.002678,0.000431,0.000705
13700000,0.0324,0.013523,0.002678,0.000431,0.000940
13701000,0.0324,0.013523,0.002678,0.000431,0.000823
13702000,0.0324,0.013523,0.002678,0.000431,0.000823
13703000,0.0324,0.013523,0.002678,0.000431,0.000940
13704000,0.0324,0.013523,0.002678,0.000431,0.000940
13705000,0.0324,0.013523,0.002678,0.000431,0.001058
13706000,0.0324,0.013523,0.002678,0.000431,0.000940
13707000,0.0324,0.013523,0.002678,0.000431,0.000823
13708000,0.0324,0.013523,0.002678,0.000431,0.000940
13709000,0.0324,0.013523,0.002678,0.000431,0.000823
13710000,0.0324,0.013523,0.002678,0.000431,0.000823
13711000,0.0324,0.013523,0.002678,0.000431,0.000940
13712000,0.0324,0.013523,0.002678,0.000431,0.000940
13713000,0.0324,0.013523,0.002678,0.000431,0.000823
13714000,0.0324,0.013523,0.002678,0.000431,0.000823
13715000,0.0324,0.013523,0.002678,0.000431,0.000940
13716000,0.0324,0.013523,0.002678,0.000431,0.000940
13717000,0.0324,0.013523,0.002678,0.000431,0.000705
13718000,0.0324,0.013523,0.002678,0.000431,0.000470
13719000,0.0324,0.013523,0.002678,0.000431,0.000705
13720000,0.0324,0.013523,0.002678,0.000431,0.000705
13721000,0.0324,0.013523,0.002678,0.000431,0.000940
13722000,0.0324,0.013523,0.002678,0.000431,0.000940
13723000,0.0324,0.013523,0.002678,0.000431,0.000470
13724000,0.0324,0.013523,0.002678,0.000431,0.000705
13725000,0.0324,0.013523,0.002678,0.000431,0.000940
13726000,0.0324,0.013523,0.002678,0.000431,0.000470
13727000,0.0324,0.013523,0.002678,0.000431,0.000940
13728000,0.0324,0.013523,0.002678,0.000431,0.000940
13729000,0.0324,0.013523,0.002678,0.000431,0.000940
13730000,0.0324,0.013523,0.002678,0.000431,0.000940
13731000,0.0324,0.013523,0.002678,0.000431,0.000940
13732000,0.0324,0.013523,0.002678,0.000431,0.000823
13733000,0.0324,0.013523,0.002678,0.000431,0.000823
13734000,0.0324,0.013523,0.002678,0.000431,0.000940
13735000,0.0324,0.013523,0.002678,0.000431,0.000940
13736000,0.0324,0.013523,0.002678,0.000431,0.000705
13737000,0.0324,0.013523,0.002678,0.000431,0.000705
13738000,0.0324,0.013523,0.002678,0.000431,0.000940
13739000,0.0324,0.013523,0.002678,0.000431,0.000470
13740000,0.0324,0.013523,0.002678,0.000431,0.000705
13741000,0.0324,0.013523,0.002678,0.000431,0.000823
13742000,0.0324,0.013523,0.002678,0.000431,0.000823
13743000,0.0324,0.013523,0.002678,0.000431,0.000940
13744000,0.0324,0.013523,0.002678,0.000431,0.000588
13745000,0.0324,0.013523,0.002678,0.000431,0.000823
13746000,0.0324,0.013523,0.002678,0.000431,0.000705
13747000,0.0324,0.013523,0.002678,0.000431,0.001058
13748000,0.0324,0.013523,0.002678,0.000431,0.000588
13749000,0.0324,0.013523,0.002678,0.000431,0.000940
13750000,0.0324,0.013523,0.002678,0.000431,0.000940
13751000,0.0324,0.013523,0.002678,0.000431,0.000823
13752000,0.0324,0.013523,0.002678,0.000431,0.000940
13753000,0.0324,0.013523,0.002678,0.000431,0.001058
13754000,0.0324,0.013523,0.002678,0.000431,0.000940
13755000,0.0324,0.013523,0.002678,0.000431,0.000470
13756000,0.0324,0.013523,0.002678,0.000431,0.000823
13757000,0.0324,0.013523,0.002678,0.000431,0.000823
13758000,0.0324,0.013523,0.002678,0.000431,0.000470
13759000,0.0324,0.013523,0.002678,0.000431,0.000823
13760000,0.0324,0.013523,0.002678,0.000431,0.000940
13761000,0.0324,0.013523,0.002678,0.000431,0.000823
13762000,0.0324,0.013523,0.002678,0.000431,0.000705
13763000,0.0324,0.013523,0.002678,0.000431,0.000940
13764000,0.0324,0.013523,0.002678,0.000431,0.000940
13765000,0.0324,0.013523,0.002678,0.000431,0.000705
13766000,0.0324,0.013523,0.002678,0.000431,0.000940
13767000,0.0324,0.013523,0.002678,0.000431,0.000823
13768000,0.0324,0.013523,0.002678,0.000431,0.000823
13769000,0.0324,0.013523,0.002678,0.000431,0.000823
13770000,0.0324,0.013523,0.002678,0.000431,0.000588
13771000,0.0324,0.013523,0.002678,0.000431,0.000705
13772000,0.0324,0.013523,0.002678,0.000431,0.000940
13773000,0.0324,0.013523,0.002678,0.000431,0.000470
13774000,0.0324,0.013523,0.002678,0.000431,0.001175
13775000,0.0324,0.013523,0.002678,0.000431,0.000940
13776000,0.0324,0.013523,0.002678,0.000431,0.000588
13777000,0.0324,0.013523,0.002678,0.000431,0.000940
13778000,0.0324,0.013523,0.002678,0.000431,0.000823
13779000,0.0324,0.013523,0.002678,0.000431,0.000705
13780000,0.0324,0.013523,0.002678,0.000431,0.001058
13781000,0.0324,0.013523,0.002678,0.000431,0.000940
13782000,0.0324,0.013523,0.002678,0.000431,0.000588
13783000,0.0324,0.013523,0.002678,0.000431,0.001058
13784000,0.0324,0.013523,0.002678,0.000431,0.000940
13785000,0.0324,0.013523,0.002678,0.000431,0.000823
13786000,0.0324,0.013523,0.002678,0.000431,0.000705
13787000,0.0324,0.013523,0.002678,0.000431,0.001058
13788000,0.0324,0.013523,0.002678,0.000431,0.001058
13789000,0.0324,0.013523,0.002678,0.000431,0.000940
13790000,0.0324,0.013523,0.002678,0.000431,0.000705
13791000,0.0324,0.013523,0.002678,0.000431,0.000940
13792000,0.0324,0.013523,0.002678,0.000431,0.000940
13793000,0.0324,0.013523,0.002678,0.000431,0.000940
13794000,0.0324,0.013523,0.002678,0.000431,0.000705
13795000,0.0324,0.013523,0.002678,0.000431,0.000705
13796000,0.0324,0.013523,0.002678,0.000431,0.000940
13797000,0.0324,0.013523,0.002678,0.000431,0.000940
13798000,0.0324,0.013523,0.002678,0.000431,0.000705
13799000,0.0324,0.013523,0.002678,0.000431,0.000823
13800000,0.0324,0.013523,0.002678,0.000431,0.000588
13801000,0.0324,0.013523,0.002678,0.000431,0.000940
13802000,0.0324,0.013523,0.002678,0.000431,0.000705
13803000,0.0324,0.013523,0.002678,0.000431,0.000940
13804000,0.0324,0.013523,0.002678,0.000431,0.000940
13805000,0.0324,0.013523,0.002678,0.000431,0.000823
13806000,0.0324,0.013523,0.002678,0.000431,0.000823
13807000,0.0324,0.013523,0.002678,0.000431,0.000940
13808000,0.0324,0.013523,0.002678,0.000431,0.000705
13809000,0.0324,0.013523,0.002678,0.000431,0.000705
13810000,0.0324,0.013523,0.002678,0.000431,0.000823
13811000,0.0324,0.013523,0.002678,0.000431,0.000588
13812000,0.0324,0.013523,0.002678,0.000431,0.001058
13813000,0.0324,0.013523,0.002678,0.000431,0.000940
13814000,0.0324,0.013523,0.002678,0.000431,0.000823
13815000,0.0324,0.013523,0.002678,0.000431,0.000705
13816000,0.0324,0.013523,0.002678,0.000431,0.001058
13817000,0.0324,0.013523,0.002678,0.000431,0.000823
13818000,0.0324,0.013523,0.002678,0.000431,0.000940
13819000,0.0324,0.013523,0.002678,0.000431,0.000705
13820000,0.0324,0.013523,0.002678,0.000431,0.001058
13821000,0.0324,0.013523,0.002678,0.000431,0.000940
13822000,0.0324,0.013523,0.002678,0.000431,0.000588
13823000,0.0324,0.013523,0.002678,0.000431,0.001058
13824000,0.0324,0.013523,0.002678,0.000431,0.000940
13825000,0.0324,0.013523,0.002678,0.000431,0.000823
13826000,0.0324,0.013523,0.002678,0.000431,0.000940
13827000,0.0324,0.013523,0.002678,0.000431,0.000940
13828000,0.0324,0.013523,0.002678,0.000431,0.000705
13829000,0.0324,0.013523,0.002678,0.000431,0.000940
13830000,0.0324,0.013523,0.002678,0.000431,0.000588
13831000,0.0324,0.013523,0.002678,0.000431,0.000705
13832000,0.0324,0.013523,0.002678,0.000431,0.001058
13833000,0.0324,0.013523,0.002678,0.000431,0.000823
13834000,0.0324,0.013523,0.002678,0.000431,0.000823
13835000,0.0324,0.013523,0.002678,0.000431,0.000705
13836000,0.0324,0.013523,0.002678,0.000431,0.000705
13837000,0.0324,0.013523,0.002678,0.000431,0.000940
13838000,0.0324,0.013523,0.002678,0.000431,0.000940
13839000,0.0324,0.013523,0.002678,0.000431,0.000940
13840000,0.0324,0.013523,0.002678,0.000431,0.000705
13841000,0.0324,0.013523,0.002678,0.000431,0.000705
13842000,0.0324,0.013523,0.002678,0.000431,0.000940
13843000,0.0324,0.013523,0.002678,0.000431,0.000940
13844000,0.0324,0.013523,0.002678,0.000431,0.001058
13845000,0.0324,0.013523,0.002678,0.000431,0.001058
13846000,0.0324,0.013523,0.002678,0.000431,0.000470
13847000,0.0324,0.013523,0.002678,0.000431,0.001058
13848000,0.0324,0.013523,0.002678,0.000431,0.001058
13849000,0.0324,0.013523,0.002678,0.000431,0.000940
13850000,0.0324,0.013523,0.002678,0.000431,0.000940
13851000,0.0324,0.013523,0.002678,0.000431,0.000823
13852000,0.0324,0.013523,0.002678,0.000431,0.000823
13853000,0.0324,0.013523,0.002678,0.000431,0.000940
13854000,0.0324,0.013523,0.002678,0.000431,0.000823
13855000,0.0324,0.013523,0.002678,0.000431,0.001058
13856000,0.0324,0.013523,0.002678,0.000431,0.000823
13857000,0.0324,0.013523,0.002678,0.000431,0.000823
13858000,0.0324,0.013523,0.002678,0.000431,0.000940
13859000,0.0324,0.013523,0.002678,0.000431,0.000940
13860000,0.0324,0.013523,0.002678,0.000431,0.000823
13861000,0.0324,0.013523,0.002678,0.000431,0.000823
13862000,0.0324,0.013523,0.002678,0.000431,0.000940
13863000,0.0324,0.013523,0.002678,0.000431,0.000940
13864000,0.0324,0.013523,0.002678,0.000431,0.000823
13865000,0.0324,0.013523,0.002678,0.000431,0.000940
13866000,0.0324,0.013523,0.002678,0.000431,0.000823
13867000,0.0324,0.013523,0.002678,0.000431,0.000705
13868000,0.0324,0.013523,0.002678,0.000431,0.000470
13869000,0.0324,0.013523,0.002678,0.000431,0.000705
13870000,0.0324,0.013523,0.002678,0.000431,0.000940
13871000,0.0324,0.013523,0.002678,0.000431,0.001058
13872000,0.0324,0.013523,0.002678,0.000431,0.000823
13873000,0.0324,0.013523,0.002678,0.000431,0.000705
13874000,0.0324,0.013523,0.002678,0.000431,0.000940
13875000,0.0324,0.013523,0.002678,0.000431,0.001058
13876000,0.0324,0.013523,0.002678,0.000431,0.001058
13877000,0.0324,0.013523,0.002678,0.000431,0.000705
13878000,0.0324,0.013523,0.002678,0.000431,0.001058
13879000,0.0324,0.013523,0.002678,0.000431,0.000823
13880000,0.0324,0.013523,0.002678,0.000431,0.000940
13881000,0.0324,0.013523,0.002678,0.000431,0.000705
13882000,0.0324,0.013523,0.002678,0.000431,0.000940
13883000,0.0324,0.013523,0.002678,0.000431,0.000940
13884000,0.0324,0.013523,0.002678,0.000431,0.000940
13885000,0.0324,0.013523,0.002678,0.000431,0.000705
13886000,0.0324,0.013523,0.002678,0.000431,0.001175
13887000,0.0324,0.013523,0.002678,0.000431,0.000940
13888000,0.0324,0.013523,0.002678,0.000431,0.000940
13889000,0.0324,0.013523,0.002678,0.000431,0.000940
13890000,0.0324,0.013523,0.002678,0.000431,0.000823
13891000,0.0324,0.013523,0.002678,0.000431,0.001058
13892000,0.0324,0.013523,0.002678,0.000431,0.000823
13893000,0.0324,0.013523,0.002678,0.000431,0.000588
13894000,0.0324,0.013523,0.002678,0.000431,0.001058
13895000,0.0324,0.013523,0.002678,0.000431,0.000940
13896000,0.0324,0.013523,0.002678,0.000431,0.000823
13897000,0.0324,0.013523,0.002678,0.000431,0.000940
13898000,0.0324,0.013523,0.002678,0.000431,0.000588
13899000,0.0324,0.013523,0.002678,0.000431,0.001058
13900000,0.0324,0.013523,0.002678,0.000431,0.000470
13901000,0.0324,0.013523,0.002678,0.000431,0.000940
13902000,0.0324,0.013523,0.002678,0.000431,0.000940
13903000,0.0324,0.013523,0.002678,0.000431,0.000940
13904000,0.0324,0.013523,0.002678,0.000431,0.000705
13905000,0.0324,0.013523,0.002678,0.000431,0.001058
13906000,0.0324,0.013523,0.002678,0.000431,0.000940
13907000,0.0324,0.013523,0.002678,0.000431,0.000588
13908000,0.0324,0.013523,0.002678,0.000431,0.001058
13909000,0.0324,0.013523,0.002678,0.000431,0.000588
13910000,0.0324,0.013523,0.002678,0.000431,0.000940
13911000,0.0324,0.013523,0.002678,0.000431,0.000823
13912000,0.0324,0.013523,0.002678,0.000431,0.000823
13913000,0.0324,0.013523,0.002678,0.000431,0.000940
13914000,0.0324,0.013523,0.002678,0.000431,0.000940
13915000,0.0324,0.013523,0.002678,0.000431,0.000823
13916000,0.0324,0.013523,0.002678,0.000431,0.001058
13917000,0.0324,0.013523,0.002678,0.000431,0.000940
13918000,0.0324,0.013523,0.002678,0.000431,0.000940
13919000,0.0324,0.013523,0.002678,0.000431,0.000588
13920000,0.0324,0.013523,0.002678,0.000431,0.001058
13921000,0.0324,0.013523,0.002678,0.000431,0.001058
13922000,0.0324,0.013523,0.002678,0.000431,0.000823
13923000,0.0324,0.013523,0.002678,0.000431,0.000705
13924000,0.0324,0.013523,0.002678,0.000431,0.000705
13925000,0.0324,0.013523,0.002678,0.000431,0.000940
13926000,0.0324,0.013523,0.002678,0.000431,0.000940
13927000,0.0324,0.013523,0.002678,0.000431,0.000705
13928000,0.0324,0.013523,0.002678,0.000431,0.000940
13929000,0.0324,0.013523,0.002678,0.000431,0.000940
13930000,0.0324,0.013523,0.002678,0.000431,0.000705
13931000,0.0324,0.013523,0.002678,0.000431,0.000470
13932000,0.0324,0.013523,0.002678,0.000431,0.000705
13933000,0.0324,0.013523,0.002678,0.000431,0.000940
13934000,0.0324,0.013523,0.002678,0.000431,0.000470
13935000,0.0324,0.013523,0.002678,0.000431,0.001175
13936000,0.0324,0.013523,0.002678,0.000431,0.000705
13937000,0.0324,0.013523,0.002678,0.000431,0.000705
13938000,0.0324,0.013523,0.002678,0.000431,0.001058
13939000,0.0324,0.013523,0.002678,0.000431,0.000940
13940000,0.0324,0.013523,0.002678,0.000431,0.000823
13941000,0.0324,0.013523,0.002678,0.000431,0.000823
13942000,0.0324,0.013523,0.002678,0.000431,0.000705
13943000,0.0324,0.013523,0.002678,0.000431,0.000823
13944000,0.0324,0.013523,0.002678,0.000431,0.000705
13945000,0.0324,0.013523,0.002678,0.000431,0.000940
13946000,0.0324,0.013523,0.002678,0.000431,0.000823
13947000,0.0324,0.013523,0.002678,0.000431,0.000823
13948000,0.0324,0.013523,0.002678,0.000431,0.000940
13949000,0.0324,0.013523,0.002678,0.000431,0.000470
13950000,0.0324,0.013523,0.002678,0.000431,0.000705
13951000,0.0324,0.013523,0.002678,0.000431,0.000940
13952000,0.0324,0.013523,0.002678,0.000431,0.000705
13953000,0.0324,0.013523,0.002678,0.000431,0.000940
13954000,0.0324,0.013523,0.002678,0.000431,0.001058
13955000,0.0324,0.013523,0.002678,0.000431,0.000588
13956000,0.0324,0.013523,0.002678,0.000431,0.000588
13957000,0.0324,0.013523,0.002678,0.000431,0.000940
13958000,0.0324,0.013523,0.002678,0.000431,0.000588
13959000,0.0324,0.013523,0.002678,0.000431,0.000823
13960000,0.0324,0.013523,0.002678,0.000431,0.000823
13961000,0.0324,0.013523,0.002678,0.000431,0.000940
13962000,0.0324,0.013523,0.002678,0.000431,0.000940
13963000,0.0324,0.013523,0.002678,0.000431,0.000940
13964000,0.0324,0.013523,0.002678,0.000431,0.000705
13965000,0.0324,0.013523,0.002678,0.000431,0.001058
13966000,0.0324,0.013523,0.002678,0.000431,0.000940
13967000,0.0324,0.013523,0.002678,0.000431,0.000823
13968000,0.0324,0.013523,0.002678,0.000431,0.000823
13969000,0.0324,0.013523,0.002678,0.000431,0.000940
13970000,0.0324,0.013523,0.002678,0.000431,0.000940
13971000,0.0324,0.013523,0.002678,0.000431,0.000588
13972000,0.0324,0.013523,0.002678,0.000431,0.000940
13973000,0.0324,0.013523,0.002678,0.000431,0.000940
13974000,0.0324,0.013523,0.002678,0.000431,0.000705
13975000,0.0324,0.013523,0.002678,0.000431,0.000705
13976000,0.0324,0.013523,0.002678,0.000431,0.000940
13977000,0.0324,0.013523,0.002678,0.000431,0.000823
13978000,0.0324,0.013523,0.002678,0.000431,0.000823
13979000,0.0324,0.013523,0.002678,0.000431,0.000940
13980000,0.0324,0.013523,0.002678,0.000431,0.000940
13981000,0.0324,0.013523,0.002678,0.000431,0.000823
13982000,0.0324,0.013523,0.002678,0.000431,0.000823
13983000,0.0324,0.013523,0.002678,0.000431,0.000705
13984000,0.0324,0.013523,0.002678,0.000431,0.000940
13985000,0.0324,0.013523,0.002678,0.000431,0.001058
13986000,0.0324,0.013523,0.002678,0.000431,0.000940
13987000,0.0324,0.013523,0.002678,0.000431,0.000823
13988000,0.0324,0.013523,0.002678,0.000431,0.000705
13989000,0.0324,0.013523,0.002678,0.000431,0.001058
13990000,0.0324,0.013523,0.002678,0.000431,0.000940
13991000,0.0324,0.013523,0.002678,0.000431,0.000823
13992000,0.0324,0.013523,0.002678,0.000431,0.000823
13993000,0.0324,0.013523,0.002678,0.000431,0.001058
13994000,0.0324,0.013523,0.002678,0.000431,0.000823
13995000,0.0324,0.013523,0.002678,0.000431,0.000823
13996000,0.0324,0.013523,0.002678,0.000431,0.000940
13997000,0.0324,0.013523,0.002678,0.000431,0.000823
13998000,0.0324,0.013523,0.002678,0.000431,0.000588
13999000,0.0324,0.013523,0.002678,0.000431,0.000940
