Cycle,Area(mm^2),PeakDynamic(W),SubthresholdLeakage(W),GateLeakage(W),RunTimeDynamic(W)
10000000,0.0324,0.013523,0.002678,0.000431,0.000705
10001000,0.0324,0.013523,0.002678,0.000431,0.000588
10002000,0.0324,0.013523,0.002678,0.000431,0.000588
10003000,0.0324,0.013523,0.002678,0.000431,0.000588
10004000,0.0324,0.013523,0.002678,0.000431,0.000588
10005000,0.0324,0.013523,0.002678,0.000431,0.000823
10006000,0.0324,0.013523,0.002678,0.000431,0.000588
10007000,0.0324,0.013523,0.002678,0.000431,0.001058
10008000,0.0324,0.013523,0.002678,0.000431,0.000940
10009000,0.0324,0.013523,0.002678,0.000431,0.000823
10010000,0.0324,0.013523,0.002678,0.000431,0.000705
10011000,0.0324,0.013523,0.002678,0.000431,0.000705
10012000,0.0324,0.013523,0.002678,0.000431,0.001058
10013000,0.0324,0.013523,0.002678,0.000431,0.000823
10014000,0.0324,0.013523,0.002678,0.000431,0.000940
10015000,0.0324,0.013523,0.002678,0.000431,0.000588
10016000,0.0324,0.013523,0.002678,0.000431,0.000940
10017000,0.0324,0.013523,0.002678,0.000431,0.000823
10018000,0.0324,0.013523,0.002678,0.000431,0.000705
10019000,0.0324,0.013523,0.002678,0.000431,0.001058
10020000,0.0324,0.013523,0.002678,0.000431,0.000588
10021000,0.0324,0.013523,0.002678,0.000431,0.000588
10022000,0.0324,0.013523,0.002678,0.000431,0.000588
10023000,0.0324,0.013523,0.002678,0.000431,0.000823
10024000,0.0324,0.013523,0.002678,0.000431,0.000823
10025000,0.0324,0.013523,0.002678,0.000431,0.000940
10026000,0.0324,0.013523,0.002678,0.000431,0.001058
10027000,0.0324,0.013523,0.002678,0.000431,0.000940
10028000,0.0324,0.013523,0.002678,0.000431,0.000705
10029000,0.0324,0.013523,0.002678,0.000431,0.000940
10030000,0.0324,0.013523,0.002678,0.000431,0.000588
10031000,0.0324,0.013523,0.002678,0.000431,0.000823
10032000,0.0324,0.013523,0.002678,0.000431,0.000823
10033000,0.0324,0.013523,0.002678,0.000431,0.000940
10034000,0.0324,0.013523,0.002678,0.000431,0.000705
10035000,0.0324,0.013523,0.002678,0.000431,0.000940
10036000,0.0324,0.013523,0.002678,0.000431,0.000823
10037000,0.0324,0.013523,0.002678,0.000431,0.000940
10038000,0.0324,0.013523,0.002678,0.000431,0.001058
10039000,0.0324,0.013523,0.002678,0.000431,0.000823
10040000,0.0324,0.013523,0.002678,0.000431,0.000823
10041000,0.0324,0.013523,0.002678,0.000431,0.000823
10042000,0.0324,0.013523,0.002678,0.000431,0.000588
10043000,0.0324,0.013523,0.002678,0.000431,0.001175
10044000,0.0324,0.013523,0.002678,0.000431,0.000588
10045000,0.0324,0.013523,0.002678,0.000431,0.001058
10046000,0.0324,0.013523,0.002678,0.000431,0.000823
10047000,0.0324,0.013523,0.002678,0.000431,0.000823
10048000,0.0324,0.013523,0.002678,0.000431,0.000705
10049000,0.0324,0.013523,0.002678,0.000431,0.001058
10050000,0.0324,0.013523,0.002678,0.000431,0.000705
10051000,0.0324,0.013523,0.002678,0.000431,0.000588
10052000,0.0324,0.013523,0.002678,0.000431,0.000705
10053000,0.0324,0.013523,0.002678,0.000431,0.000470
10054000,0.0324,0.013523,0.002678,0.000431,0.000705
10055000,0.0324,0.013523,0.002678,0.000431,0.000588
10056000,0.0324,0.013523,0.002678,0.000431,0.000588
10057000,0.0324,0.013523,0.002678,0.000431,0.001058
10058000,0.0324,0.013523,0.002678,0.000431,0.000823
10059000,0.0324,0.013523,0.002678,0.000431,0.000940
10060000,0.0324,0.013523,0.002678,0.000431,0.000705
10061000,0.0324,0.013523,0.002678,0.000431,0.000940
10062000,0.0324,0.013523,0.002678,0.000431,0.000705
10063000,0.0324,0.013523,0.002678,0.000431,0.000705
10064000,0.0324,0.013523,0.002678,0.000431,0.000705
10065000,0.0324,0.013523,0.002678,0.000431,0.000823
10066000,0.0324,0.013523,0.002678,0.000431,0.000588
10067000,0.0324,0.013523,0.002678,0.000431,0.000823
10068000,0.0324,0.013523,0.002678,0.000431,0.000705
10069000,0.0324,0.013523,0.002678,0.000431,0.000705
10070000,0.0324,0.013523,0.002678,0.000431,0.000705
10071000,0.0324,0.013523,0.002678,0.000431,0.000588
10072000,0.0324,0.013523,0.002678,0.000431,0.001058
10073000,0.0324,0.013523,0.002678,0.000431,0.000823
10074000,0.0324,0.013523,0.002678,0.000431,0.000940
10075000,0.0324,0.013523,0.002678,0.000431,0.000705
10076000,0.0324,0.013523,0.002678,0.000431,0.000705
10077000,0.0324,0.013523,0.002678,0.000431,0.000940
10078000,0.0324,0.013523,0.002678,0.000431,0.000940
10079000,0.0324,0.013523,0.002678,0.000431,0.000705
10080000,0.0324,0.013523,0.002678,0.000431,0.000940
10081000,0.0324,0.013523,0.002678,0.000431,0.001175
10082000,0.0324,0.013523,0.002678,0.000431,0.000588
10083000,0.0324,0.013523,0.002678,0.000431,0.000940
10084000,0.0324,0.013523,0.002678,0.000431,0.001058
10085000,0.0324,0.013523,0.002678,0.000431,0.000940
10086000,0.0324,0.013523,0.002678,0.000431,0.000470
10087000,0.0324,0.013523,0.002678,0.000431,0.000588
10088000,0.0324,0.013523,0.002678,0.000431,0.000588
10089000,0.0324,0.013523,0.002678,0.000431,0.000705
10090000,0.0324,0.013523,0.002678,0.000431,0.000940
10091000,0.0324,0.013523,0.002678,0.000431,0.000470
10092000,0.0324,0.013523,0.002678,0.000431,0.000705
10093000,0.0324,0.013523,0.002678,0.000431,0.000705
10094000,0.0324,0.013523,0.002678,0.000431,0.000588
10095000,0.0324,0.013523,0.002678,0.000431,0.000588
10096000,0.0324,0.013523,0.002678,0.000431,0.000940
10097000,0.0324,0.013523,0.002678,0.000431,0.000705
10098000,0.0324,0.013523,0.002678,0.000431,0.001058
10099000,0.0324,0.013523,0.002678,0.000431,0.000588
10100000,0.0324,0.013523,0.002678,0.000431,0.000705
10101000,0.0324,0.013523,0.002678,0.000431,0.000705
10102000,0.0324,0.013523,0.002678,0.000431,0.000940
10103000,0.0324,0.013523,0.002678,0.000431,0.000705
10104000,0.0324,0.013523,0.002678,0.000431,0.000940
10105000,0.0324,0.013523,0.002678,0.000431,0.000705
10106000,0.0324,0.013523,0.002678,0.000431,0.000940
10107000,0.0324,0.013523,0.002678,0.000431,0.000705
10108000,0.0324,0.013523,0.002678,0.000431,0.000940
10109000,0.0324,0.013523,0.002678,0.000431,0.000470
10110000,0.0324,0.013523,0.002678,0.000431,0.000588
10111000,0.0324,0.013523,0.002678,0.000431,0.000588
10112000,0.0324,0.013523,0.002678,0.000431,0.000588
10113000,0.0324,0.013523,0.002678,0.000431,0.000588
10114000,0.0324,0.013523,0.002678,0.000431,0.000588
10115000,0.0324,0.013523,0.002678,0.000431,0.000588
10116000,0.0324,0.013523,0.002678,0.000431,0.000470
10117000,0.0324,0.013523,0.002678,0.000431,0.000705
10118000,0.0324,0.013523,0.002678,0.000431,0.000940
10119000,0.0324,0.013523,0.002678,0.000431,0.000940
10120000,0.0324,0.013523,0.002678,0.000431,0.000588
10121000,0.0324,0.013523,0.002678,0.000431,0.000588
10122000,0.0324,0.013523,0.002678,0.000431,0.000705
10123000,0.0324,0.013523,0.002678,0.000431,0.000940
10124000,0.0324,0.013523,0.002678,0.000431,0.000705
10125000,0.0324,0.013523,0.002678,0.000431,0.000470
10126000,0.0324,0.013523,0.002678,0.000431,0.000705
10127000,0.0324,0.013523,0.002678,0.000431,0.000470
10128000,0.0324,0.013523,0.002678,0.000431,0.000940
10129000,0.0324,0.013523,0.002678,0.000431,0.000705
10130000,0.0324,0.013523,0.002678,0.000431,0.000940
10131000,0.0324,0.013523,0.002678,0.000431,0.000705
10132000,0.0324,0.013523,0.002678,0.000431,0.000705
10133000,0.0324,0.013523,0.002678,0.000431,0.000705
10134000,0.0324,0.013523,0.002678,0.000431,0.000940
10135000,0.0324,0.013523,0.002678,0.000431,0.000705
10136000,0.0324,0.013523,0.002678,0.000431,0.000588
10137000,0.0324,0.013523,0.002678,0.000431,0.000823
10138000,0.0324,0.013523,0.002678,0.000431,0.001175
10139000,0.0324,0.013523,0.002678,0.000431,0.001058
10140000,0.0324,0.013523,0.002678,0.000431,0.001058
10141000,0.0324,0.013523,0.002678,0.000431,0.000705
10142000,0.0324,0.013523,0.002678,0.000431,0.001058
10143000,0.0324,0.013523,0.002678,0.000431,0.000588
10144000,0.0324,0.013523,0.002678,0.000431,0.000588
10145000,0.0324,0.013523,0.002678,0.000431,0.000588
10146000,0.0324,0.013523,0.002678,0.000431,0.000470
10147000,0.0324,0.013523,0.002678,0.000431,0.000705
10148000,0.0324,0.013523,0.002678,0.000431,0.000470
10149000,0.0324,0.013523,0.002678,0.000431,0.000588
10150000,0.0324,0.013523,0.002678,0.000431,0.000588
10151000,0.0324,0.013523,0.002678,0.000431,0.000470
10152000,0.0324,0.013523,0.002678,0.000431,0.000588
10153000,0.0324,0.013523,0.002678,0.000431,0.000940
10154000,0.0324,0.013523,0.002678,0.000431,0.000588
10155000,0.0324,0.013523,0.002678,0.000431,0.000705
10156000,0.0324,0.013523,0.002678,0.000431,0.000470
10157000,0.0324,0.013523,0.002678,0.000431,0.000705
10158000,0.0324,0.013523,0.002678,0.000431,0.000940
10159000,0.0324,0.013523,0.002678,0.000431,0.000470
10160000,0.0324,0.013523,0.002678,0.000431,0.000588
10161000,0.0324,0.013523,0.002678,0.000431,0.000588
10162000,0.0324,0.013523,0.002678,0.000431,0.000470
10163000,0.0324,0.013523,0.002678,0.000431,0.000705
10164000,0.0324,0.013523,0.002678,0.000431,0.000588
10165000,0.0324,0.013523,0.002678,0.000431,0.000940
10166000,0.0324,0.013523,0.002678,0.000431,0.000588
10167000,0.0324,0.013523,0.002678,0.000431,0.000705
10168000,0.0324,0.013523,0.002678,0.000431,0.000588
10169000,0.0324,0.013523,0.002678,0.000431,0.000823
10170000,0.0324,0.013523,0.002678,0.000431,0.000470
10171000,0.0324,0.013523,0.002678,0.000431,0.000823
10172000,0.0324,0.013523,0.002678,0.000431,0.000823
10173000,0.0324,0.013523,0.002678,0.000431,0.001058
10174000,0.0324,0.013523,0.002678,0.000431,0.000705
10175000,0.0324,0.013523,0.002678,0.000431,0.000588
10176000,0.0324,0.013523,0.002678,0.000431,0.000470
10177000,0.0324,0.013523,0.002678,0.000431,0.000705
10178000,0.0324,0.013523,0.002678,0.000431,0.000705
10179000,0.0324,0.013523,0.002678,0.000431,0.000705
10180000,0.0324,0.013523,0.002678,0.000431,0.000705
10181000,0.0324,0.013523,0.002678,0.000431,0.000470
10182000,0.0324,0.013523,0.002678,0.000431,0.000823
10183000,0.0324,0.013523,0.002678,0.000431,0.000823
10184000,0.0324,0.013523,0.002678,0.000431,0.000705
10185000,0.0324,0.013523,0.002678,0.000431,0.000940
10186000,0.0324,0.013523,0.002678,0.000431,0.000705
10187000,0.0324,0.013523,0.002678,0.000431,0.000705
10188000,0.0324,0.013523,0.002678,0.000431,0.000470
10189000,0.0324,0.013523,0.002678,0.000431,0.001058
10190000,0.0324,0.013523,0.002678,0.000431,0.000588
10191000,0.0324,0.013523,0.002678,0.000431,0.000470
10192000,0.0324,0.013523,0.002678,0.000431,0.000705
10193000,0.0324,0.013523,0.002678,0.000431,0.000470
10194000,0.0324,0.013523,0.002678,0.000431,0.000823
10195000,0.0324,0.013523,0.002678,0.000431,0.000823
10196000,0.0324,0.013523,0.002678,0.000431,0.000705
10197000,0.0324,0.013523,0.002678,0.000431,0.000823
10198000,0.0324,0.013523,0.002678,0.000431,0.000588
10199000,0.0324,0.013523,0.002678,0.000431,0.000588
10200000,0.0324,0.013523,0.002678,0.000431,0.000705
10201000,0.0324,0.013523,0.002678,0.000431,0.000588
10202000,0.0324,0.013523,0.002678,0.000431,0.000470
10203000,0.0324,0.013523,0.002678,0.000431,0.000588
10204000,0.0324,0.013523,0.002678,0.000431,0.000588
10205000,0.0324,0.013523,0.002678,0.000431,0.000588
10206000,0.0324,0.013523,0.002678,0.000431,0.000588
10207000,0.0324,0.013523,0.002678,0.000431,0.000470
10208000,0.0324,0.013523,0.002678,0.000431,0.000705
10209000,0.0324,0.013523,0.002678,0.000431,0.000470
10210000,0.0324,0.013523,0.002678,0.000431,0.000588
10211000,0.0324,0.013523,0.002678,0.000431,0.000588
10212000,0.0324,0.013523,0.002678,0.000431,0.000470
10213000,0.0324,0.013523,0.002678,0.000431,0.000705
10214000,0.0324,0.013523,0.002678,0.000431,0.000470
10215000,0.0324,0.013523,0.002678,0.000431,0.000470
10216000,0.0324,0.013523,0.002678,0.000431,0.000705
10217000,0.0324,0.013523,0.002678,0.000431,0.000470
10218000,0.0324,0.013523,0.002678,0.000431,0.000470
10219000,0.0324,0.013523,0.002678,0.000431,0.000705
10220000,0.0324,0.013523,0.002678,0.000431,0.000470
10221000,0.0324,0.013523,0.002678,0.000431,0.000940
10222000,0.0324,0.013523,0.002678,0.000431,0.000940
10223000,0.0324,0.013523,0.002678,0.000431,0.000705
10224000,0.0324,0.013523,0.002678,0.000431,0.000588
10225000,0.0324,0.013523,0.002678,0.000431,0.000588
10226000,0.0324,0.013523,0.002678,0.000431,0.000940
10227000,0.0324,0.013523,0.002678,0.000431,0.000705
10228000,0.0324,0.013523,0.002678,0.000431,0.000470
10229000,0.0324,0.013523,0.002678,0.000431,0.000940
10230000,0.0324,0.013523,0.002678,0.000431,0.000705
10231000,0.0324,0.013523,0.002678,0.000431,0.000470
10232000,0.0324,0.013523,0.002678,0.000431,0.000705
10233000,0.0324,0.013523,0.002678,0.000431,0.000705
10234000,0.0324,0.013523,0.002678,0.000431,0.000940
10235000,0.0324,0.013523,0.002678,0.000431,0.000588
10236000,0.0324,0.013523,0.002678,0.000431,0.001058
10237000,0.0324,0.013523,0.002678,0.000431,0.000470
10238000,0.0324,0.013523,0.002678,0.000431,0.000705
10239000,0.0324,0.013523,0.002678,0.000431,0.000470
10240000,0.0324,0.013523,0.002678,0.000431,0.000823
10241000,0.0324,0.013523,0.002678,0.000431,0.000823
10242000,0.0324,0.013523,0.002678,0.000431,0.000588
10243000,0.0324,0.013523,0.002678,0.000431,0.000705
10244000,0.0324,0.013523,0.002678,0.000431,0.000588
10245000,0.0324,0.013523,0.002678,0.000431,0.000705
10246000,0.0324,0.013523,0.002678,0.000431,0.000940
10247000,0.0324,0.013523,0.002678,0.000431,0.000940
10248000,0.0324,0.013523,0.002678,0.000431,0.001175
10249000,0.0324,0.013523,0.002678,0.000431,0.000470
10250000,0.0324,0.013523,0.002678,0.000431,0.000470
10251000,0.0324,0.013523,0.002678,0.000431,0.001058
10252000,0.0324,0.013523,0.002678,0.000431,0.000940
10253000,0.0324,0.013523,0.002678,0.000431,0.000823
10254000,0.0324,0.013523,0.002678,0.000431,0.000705
10255000,0.0324,0.013523,0.002678,0.000431,0.000940
10256000,0.0324,0.013523,0.002678,0.000431,0.000823
10257000,0.0324,0.013523,0.002678,0.000431,0.001058
10258000,0.0324,0.013523,0.002678,0.000431,0.000705
10259000,0.0324,0.013523,0.002678,0.000431,0.000823
10260000,0.0324,0.013523,0.002678,0.000431,0.001175
10261000,0.0324,0.013523,0.002678,0.000431,0.000940
10262000,0.0324,0.013523,0.002678,0.000431,0.000823
10263000,0.0324,0.013523,0.002678,0.000431,0.000705
10264000,0.0324,0.013523,0.002678,0.000431,0.000588
10265000,0.0324,0.013523,0.002678,0.000431,0.000823
10266000,0.0324,0.013523,0.002678,0.000431,0.001175
10267000,0.0324,0.013523,0.002678,0.000431,0.001058
10268000,0.0324,0.013523,0.002678,0.000431,0.000823
10269000,0.0324,0.013523,0.002678,0.000431,0.000705
10270000,0.0324,0.013523,0.002678,0.000431,0.000705
10271000,0.0324,0.013523,0.002678,0.000431,0.000705
10272000,0.0324,0.013523,0.002678,0.000431,0.001058
10273000,0.0324,0.013523,0.002678,0.000431,0.000588
10274000,0.0324,0.013523,0.002678,0.000431,0.000940
10275000,0.0324,0.013523,0.002678,0.000431,0.000705
10276000,0.0324,0.013523,0.002678,0.000431,0.000940
10277000,0.0324,0.013523,0.002678,0.000431,0.000823
10278000,0.0324,0.013523,0.002678,0.000431,0.000588
10279000,0.0324,0.013523,0.002678,0.000431,0.000940
10280000,0.0324,0.013523,0.002678,0.000431,0.000940
10281000,0.0324,0.013523,0.002678,0.000431,0.000940
10282000,0.0324,0.013523,0.002678,0.000431,0.000940
10283000,0.0324,0.013523,0.002678,0.000431,0.001175
10284000,0.0324,0.013523,0.002678,0.000431,0.000470
10285000,0.0324,0.013523,0.002678,0.000431,0.000588
10286000,0.0324,0.013523,0.002678,0.000431,0.000705
10287000,0.0324,0.013523,0.002678,0.000431,0.000705
10288000,0.0324,0.013523,0.002678,0.000431,0.000823
10289000,0.0324,0.013523,0.002678,0.000431,0.000705
10290000,0.0324,0.013523,0.002678,0.000431,0.000823
10291000,0.0324,0.013523,0.002678,0.000431,0.000823
10292000,0.0324,0.013523,0.002678,0.000431,0.000705
10293000,0.0324,0.013523,0.002678,0.000431,0.000705
10294000,0.0324,0.013523,0.002678,0.000431,0.000823
10295000,0.0324,0.013523,0.002678,0.000431,0.000823
10296000,0.0324,0.013523,0.002678,0.000431,0.000823
10297000,0.0324,0.013523,0.002678,0.000431,0.000823
10298000,0.0324,0.013523,0.002678,0.000431,0.000705
10299000,0.0324,0.013523,0.002678,0.000431,0.000823
10300000,0.0324,0.013523,0.002678,0.000431,0.000705
10301000,0.0324,0.013523,0.002678,0.000431,0.000940
10302000,0.0324,0.013523,0.002678,0.000431,0.001058
10303000,0.0324,0.013523,0.002678,0.000431,0.000705
10304000,0.0324,0.013523,0.002678,0.000431,0.001175
10305000,0.0324,0.013523,0.002678,0.000431,0.000940
10306000,0.0324,0.013523,0.002678,0.000431,0.000940
10307000,0.0324,0.013523,0.002678,0.000431,0.000705
10308000,0.0324,0.013523,0.002678,0.000431,0.000705
10309000,0.0324,0.013523,0.002678,0.000431,0.000588
10310000,0.0324,0.013523,0.002678,0.000431,0.000823
10311000,0.0324,0.013523,0.002678,0.000431,0.000705
10312000,0.0324,0.013523,0.002678,0.000431,0.000940
10313000,0.0324,0.013523,0.002678,0.000431,0.000470
10314000,0.0324,0.013523,0.002678,0.000431,0.000705
10315000,0.0324,0.013523,0.002678,0.000431,0.000705
10316000,0.0324,0.013523,0.002678,0.000431,0.001058
10317000,0.0324,0.013523,0.002678,0.000431,0.000823
10318000,0.0324,0.013523,0.002678,0.000431,0.000823
10319000,0.0324,0.013523,0.002678,0.000431,0.001058
10320000,0.0324,0.013523,0.002678,0.000431,0.000823
10321000,0.0324,0.013523,0.002678,0.000431,0.000823
10322000,0.0324,0.013523,0.002678,0.000431,0.000940
10323000,0.0324,0.013523,0.002678,0.000431,0.000940
10324000,0.0324,0.013523,0.002678,0.000431,0.001175
10325000,0.0324,0.013523,0.002678,0.000431,0.000470
10326000,0.0324,0.013523,0.002678,0.000431,0.000940
10327000,0.0324,0.013523,0.002678,0.000431,0.000705
10328000,0.0324,0.013523,0.002678,0.000431,0.000705
10329000,0.0324,0.013523,0.002678,0.000431,0.001058
10330000,0.0324,0.013523,0.002678,0.000431,0.000588
10331000,0.0324,0.013523,0.002678,0.000431,0.000940
10332000,0.0324,0.013523,0.002678,0.000431,0.001058
10333000,0.0324,0.013523,0.002678,0.000431,0.000940
10334000,0.0324,0.013523,0.002678,0.000431,0.000588
10335000,0.0324,0.013523,0.002678,0.000431,0.001175
10336000,0.0324,0.013523,0.002678,0.000431,0.000470
10337000,0.0324,0.013523,0.002678,0.000431,0.000940
10338000,0.0324,0.013523,0.002678,0.000431,0.001175
10339000,0.0324,0.013523,0.002678,0.000431,0.000705
10340000,0.0324,0.013523,0.002678,0.000431,0.000823
10341000,0.0324,0.013523,0.002678,0.000431,0.000705
10342000,0.0324,0.013523,0.002678,0.000431,0.000705
10343000,0.0324,0.013523,0.002678,0.000431,0.000823
10344000,0.0324,0.013523,0.002678,0.000431,0.001058
10345000,0.0324,0.013523,0.002678,0.000431,0.000823
10346000,0.0324,0.013523,0.002678,0.000431,0.000940
10347000,0.0324,0.013523,0.002678,0.000431,0.000705
10348000,0.0324,0.013523,0.002678,0.000431,0.000940
10349000,0.0324,0.013523,0.002678,0.000431,0.000940
10350000,0.0324,0.013523,0.002678,0.000431,0.000588
10351000,0.0324,0.013523,0.002678,0.000431,0.000823
10352000,0.0324,0.013523,0.002678,0.000431,0.000940
10353000,0.0324,0.013523,0.002678,0.000431,0.000705
10354000,0.0324,0.013523,0.002678,0.000431,0.000588
10355000,0.0324,0.013523,0.002678,0.000431,0.000823
10356000,0.0324,0.013523,0.002678,0.000431,0.000823
10357000,0.0324,0.013523,0.002678,0.000431,0.000588
10358000,0.0324,0.013523,0.002678,0.000431,0.000705
10359000,0.0324,0.013523,0.002678,0.000431,0.000940
10360000,0.0324,0.013523,0.002678,0.000431,0.000823
10361000,0.0324,0.013523,0.002678,0.000431,0.000588
10362000,0.0324,0.013523,0.002678,0.000431,0.001175
10363000,0.0324,0.013523,0.002678,0.000431,0.000823
10364000,0.0324,0.013523,0.002678,0.000431,0.000823
10365000,0.0324,0.013523,0.002678,0.000431,0.000940
10366000,0.0324,0.013523,0.002678,0.000431,0.000705
10367000,0.0324,0.013523,0.002678,0.000431,0.000823
10368000,0.0324,0.013523,0.002678,0.000431,0.000823
10369000,0.0324,0.013523,0.002678,0.000431,0.000940
10370000,0.0324,0.013523,0.002678,0.000431,0.000705
10371000,0.0324,0.013523,0.002678,0.000431,0.001058
10372000,0.0324,0.013523,0.002678,0.000431,0.000823
10373000,0.0324,0.013523,0.002678,0.000431,0.000940
10374000,0.0324,0.013523,0.002678,0.000431,0.000823
10375000,0.0324,0.013523,0.002678,0.000431,0.000940
10376000,0.0324,0.013523,0.002678,0.000431,0.000823
10377000,0.0324,0.013523,0.002678,0.000431,0.000940
10378000,0.0324,0.013523,0.002678,0.000431,0.000705
10379000,0.0324,0.013523,0.002678,0.000431,0.000705
10380000,0.0324,0.013523,0.002678,0.000431,0.001175
10381000,0.0324,0.013523,0.002678,0.000431,0.000940
10382000,0.0324,0.013523,0.002678,0.000431,0.000940
10383000,0.0324,0.013523,0.002678,0.000431,0.000940
10384000,0.0324,0.013523,0.002678,0.000431,0.001175
10385000,0.0324,0.013523,0.002678,0.000431,0.000705
10386000,0.0324,0.013523,0.002678,0.000431,0.001058
10387000,0.0324,0.013523,0.002678,0.000431,0.000823
10388000,0.0324,0.013523,0.002678,0.000431,0.001175
10389000,0.0324,0.013523,0.002678,0.000431,0.000705
10390000,0.0324,0.013523,0.002678,0.000431,0.000705
10391000,0.0324,0.013523,0.002678,0.000431,0.000823
10392000,0.0324,0.013523,0.002678,0.000431,0.000588
10393000,0.0324,0.013523,0.002678,0.000431,0.000823
10394000,0.0324,0.013523,0.002678,0.000431,0.000823
10395000,0.0324,0.013523,0.002678,0.000431,0.000940
10396000,0.0324,0.013523,0.002678,0.000431,0.000705
10397000,0.0324,0.013523,0.002678,0.000431,0.000823
10398000,0.0324,0.013523,0.002678,0.000431,0.000588
10399000,0.0324,0.013523,0.002678,0.000431,0.000823
10400000,0.0324,0.013523,0.002678,0.000431,0.000940
10401000,0.0324,0.013523,0.002678,0.000431,0.000940
10402000,0.0324,0.013523,0.002678,0.000431,0.000588
10403000,0.0324,0.013523,0.002678,0.000431,0.000705
10404000,0.0324,0.013523,0.002678,0.000431,0.000823
10405000,0.0324,0.013523,0.002678,0.000431,0.000823
10406000,0.0324,0.013523,0.002678,0.000431,0.000940
10407000,0.0324,0.013523,0.002678,0.000431,0.000705
10408000,0.0324,0.013523,0.002678,0.000431,0.000705
10409000,0.0324,0.013523,0.002678,0.000431,0.000940
10410000,0.0324,0.013523,0.002678,0.000431,0.000705
10411000,0.0324,0.013523,0.002678,0.000431,0.000588
10412000,0.0324,0.013523,0.002678,0.000431,0.000705
10413000,0.0324,0.013523,0.002678,0.000431,0.000705
10414000,0.0324,0.013523,0.002678,0.000431,0.000588
10415000,0.0324,0.013523,0.002678,0.000431,0.000940
10416000,0.0324,0.013523,0.002678,0.000431,0.000940
10417000,0.0324,0.013523,0.002678,0.000431,0.000940
10418000,0.0324,0.013523,0.002678,0.000431,0.000705
10419000,0.0324,0.013523,0.002678,0.000431,0.000705
10420000,0.0324,0.013523,0.002678,0.000431,0.000470
10421000,0.0324,0.013523,0.002678,0.000431,0.000705
10422000,0.0324,0.013523,0.002678,0.000431,0.000823
10423000,0.0324,0.013523,0.002678,0.000431,0.000588
10424000,0.0324,0.013523,0.002678,0.000431,0.000705
10425000,0.0324,0.013523,0.002678,0.000431,0.000470
10426000,0.0324,0.013523,0.002678,0.000431,0.000823
10427000,0.0324,0.013523,0.002678,0.000431,0.000823
10428000,0.0324,0.013523,0.002678,0.000431,0.001175
10429000,0.0324,0.013523,0.002678,0.000431,0.001058
10430000,0.0324,0.013523,0.002678,0.000431,0.001058
10431000,0.0324,0.013523,0.002678,0.000431,0.000705
10432000,0.0324,0.013523,0.002678,0.000431,0.000940
10433000,0.0324,0.013523,0.002678,0.000431,0.000940
10434000,0.0324,0.013523,0.002678,0.000431,0.000705
10435000,0.0324,0.013523,0.002678,0.000431,0.000940
10436000,0.0324,0.013523,0.002678,0.000431,0.000705
10437000,0.0324,0.013523,0.002678,0.000431,0.000705
10438000,0.0324,0.013523,0.002678,0.000431,0.000705
10439000,0.0324,0.013523,0.002678,0.000431,0.000940
10440000,0.0324,0.013523,0.002678,0.000431,0.000705
10441000,0.0324,0.013523,0.002678,0.000431,0.000705
10442000,0.0324,0.013523,0.002678,0.000431,0.000705
10443000,0.0324,0.013523,0.002678,0.000431,0.001058
10444000,0.0324,0.013523,0.002678,0.000431,0.001058
10445000,0.0324,0.013523,0.002678,0.000431,0.000705
10446000,0.0324,0.013523,0.002678,0.000431,0.001058
10447000,0.0324,0.013523,0.002678,0.000431,0.000823
10448000,0.0324,0.013523,0.002678,0.000431,0.000705
10449000,0.0324,0.013523,0.002678,0.000431,0.000823
10450000,0.0324,0.013523,0.002678,0.000431,0.000588
10451000,0.0324,0.013523,0.002678,0.000431,0.001058
10452000,0.0324,0.013523,0.002678,0.000431,0.000588
10453000,0.0324,0.013523,0.002678,0.000431,0.000705
10454000,0.0324,0.013523,0.002678,0.000431,0.000940
10455000,0.0324,0.013523,0.002678,0.000431,0.000940
10456000,0.0324,0.013523,0.002678,0.000431,0.000588
10457000,0.0324,0.013523,0.002678,0.000431,0.000940
10458000,0.0324,0.013523,0.002678,0.000431,0.000588
10459000,0.0324,0.013523,0.002678,0.000431,0.000823
10460000,0.0324,0.013523,0.002678,0.000431,0.001058
10461000,0.0324,0.013523,0.002678,0.000431,0.001058
10462000,0.0324,0.013523,0.002678,0.000431,0.000940
10463000,0.0324,0.013523,0.002678,0.000431,0.000823
10464000,0.0324,0.013523,0.002678,0.000431,0.000823
10465000,0.0324,0.013523,0.002678,0.000431,0.001058
10466000,0.0324,0.013523,0.002678,0.000431,0.000940
10467000,0.0324,0.013523,0.002678,0.000431,0.000940
10468000,0.0324,0.013523,0.002678,0.000431,0.000705
10469000,0.0324,0.013523,0.002678,0.000431,0.000940
10470000,0.0324,0.013523,0.002678,0.000431,0.000705
10471000,0.0324,0.013523,0.002678,0.000431,0.000705
10472000,0.0324,0.013523,0.002678,0.000431,0.001058
10473000,0.0324,0.013523,0.002678,0.000431,0.000940
10474000,0.0324,0.013523,0.002678,0.000431,0.000823
10475000,0.0324,0.013523,0.002678,0.000431,0.000940
10476000,0.0324,0.013523,0.002678,0.000431,0.000940
10477000,0.0324,0.013523,0.002678,0.000431,0.000588
10478000,0.0324,0.013523,0.002678,0.000431,0.000940
10479000,0.0324,0.013523,0.002678,0.000431,0.000823
10480000,0.0324,0.013523,0.002678,0.000431,0.000940
10481000,0.0324,0.013523,0.002678,0.000431,0.000940
10482000,0.0324,0.013523,0.002678,0.000431,0.000705
10483000,0.0324,0.013523,0.002678,0.000431,0.000940
10484000,0.0324,0.013523,0.002678,0.000431,0.000940
10485000,0.0324,0.013523,0.002678,0.000431,0.000940
10486000,0.0324,0.013523,0.002678,0.000431,0.000823
10487000,0.0324,0.013523,0.002678,0.000431,0.000823
10488000,0.0324,0.013523,0.002678,0.000431,0.000823
10489000,0.0324,0.013523,0.002678,0.000431,0.000823
10490000,0.0324,0.013523,0.002678,0.000431,0.000823
10491000,0.0324,0.013523,0.002678,0.000431,0.000705
10492000,0.0324,0.013523,0.002678,0.000431,0.000940
10493000,0.0324,0.013523,0.002678,0.000431,0.000940
10494000,0.0324,0.013523,0.002678,0.000431,0.001058
10495000,0.0324,0.013523,0.002678,0.000431,0.000940
10496000,0.0324,0.013523,0.002678,0.000431,0.000823
10497000,0.0324,0.013523,0.002678,0.000431,0.001058
10498000,0.0324,0.013523,0.002678,0.000431,0.000940
10499000,0.0324,0.013523,0.002678,0.000431,0.000940
10500000,0.0324,0.013523,0.002678,0.000431,0.000705
10501000,0.0324,0.013523,0.002678,0.000431,0.001175
10502000,0.0324,0.013523,0.002678,0.000431,0.001058
10503000,0.0324,0.013523,0.002678,0.000431,0.001058
10504000,0.0324,0.013523,0.002678,0.000431,0.001058
10505000,0.0324,0.013523,0.002678,0.000431,0.000823
10506000,0.0324,0.013523,0.002678,0.000431,0.000588
10507000,0.0324,0.013523,0.002678,0.000431,0.000940
10508000,0.0324,0.013523,0.002678,0.000431,0.000588
10509000,0.0324,0.013523,0.002678,0.000431,0.000705
10510000,0.0324,0.013523,0.002678,0.000431,0.000940
10511000,0.0324,0.013523,0.002678,0.000431,0.000940
10512000,0.0324,0.013523,0.002678,0.000431,0.001058
10513000,0.0324,0.013523,0.002678,0.000431,0.001175
10514000,0.0324,0.013523,0.002678,0.000431,0.000940
10515000,0.0324,0.013523,0.002678,0.000431,0.001058
10516000,0.0324,0.013523,0.002678,0.000431,0.000705
10517000,0.0324,0.013523,0.002678,0.000431,0.000940
10518000,0.0324,0.013523,0.002678,0.000431,0.000705
10519000,0.0324,0.013523,0.002678,0.000431,0.001058
10520000,0.0324,0.013523,0.002678,0.000431,0.000940
10521000,0.0324,0.013523,0.002678,0.000431,0.000823
10522000,0.0324,0.013523,0.002678,0.000431,0.000940
10523000,0.0324,0.013523,0.002678,0.000431,0.000823
10524000,0.0324,0.013523,0.002678,0.000431,0.001058
10525000,0.0324,0.013523,0.002678,0.000431,0.000940
10526000,0.0324,0.013523,0.002678,0.000431,0.001058
10527000,0.0324,0.013523,0.002678,0.000431,0.000705
10528000,0.0324,0.013523,0.002678,0.000431,0.001175
10529000,0.0324,0.013523,0.002678,0.000431,0.000588
10530000,0.0324,0.013523,0.002678,0.000431,0.001175
10531000,0.0324,0.013523,0.002678,0.000431,0.000470
10532000,0.0324,0.013523,0.002678,0.000431,0.001058
10533000,0.0324,0.013523,0.002678,0.000431,0.000940
10534000,0.0324,0.013523,0.002678,0.000431,0.000588
10535000,0.0324,0.013523,0.002678,0.000431,0.000940
10536000,0.0324,0.013523,0.002678,0.000431,0.000588
10537000,0.0324,0.013523,0.002678,0.000431,0.000588
10538000,0.0324,0.013523,0.002678,0.000431,0.000705
10539000,0.0324,0.013523,0.002678,0.000431,0.000705
10540000,0.0324,0.013523,0.002678,0.000431,0.000588
10541000,0.0324,0.013523,0.002678,0.000431,0.000588
10542000,0.0324,0.013523,0.002678,0.000431,0.000705
10543000,0.0324,0.013523,0.002678,0.000431,0.000470
10544000,0.0324,0.013523,0.002678,0.000431,0.000940
10545000,0.0324,0.013523,0.002678,0.000431,0.000940
10546000,0.0324,0.013523,0.002678,0.000431,0.000940
10547000,0.0324,0.013523,0.002678,0.000431,0.000823
10548000,0.0324,0.013523,0.002678,0.000431,0.001175
10549000,0.0324,0.013523,0.002678,0.000431,0.000940
10550000,0.0324,0.013523,0.002678,0.000431,0.000940
10551000,0.0324,0.013523,0.002678,0.000431,0.000940
10552000,0.0324,0.013523,0.002678,0.000431,0.000588
10553000,0.0324,0.013523,0.002678,0.000431,0.000823
10554000,0.0324,0.013523,0.002678,0.000431,0.000588
10555000,0.0324,0.013523,0.002678,0.000431,0.000588
10556000,0.0324,0.013523,0.002678,0.000431,0.000940
10557000,0.0324,0.013523,0.002678,0.000431,0.000705
10558000,0.0324,0.013523,0.002678,0.000431,0.000705
10559000,0.0324,0.013523,0.002678,0.000431,0.001058
10560000,0.0324,0.013523,0.002678,0.000431,0.001058
10561000,0.0324,0.013523,0.002678,0.000431,0.000823
10562000,0.0324,0.013523,0.002678,0.000431,0.000705
10563000,0.0324,0.013523,0.002678,0.000431,0.000940
10564000,0.0324,0.013523,0.002678,0.000431,0.000940
10565000,0.0324,0.013523,0.002678,0.000431,0.001175
10566000,0.0324,0.013523,0.002678,0.000431,0.000588
10567000,0.0324,0.013523,0.002678,0.000431,0.000588
10568000,0.0324,0.013523,0.002678,0.000431,0.000940
10569000,0.0324,0.013523,0.002678,0.000431,0.000823
10570000,0.0324,0.013523,0.002678,0.000431,0.000823
10571000,0.0324,0.013523,0.002678,0.000431,0.000705
10572000,0.0324,0.013523,0.002678,0.000431,0.001058
10573000,0.0324,0.013523,0.002678,0.000431,0.000588
10574000,0.0324,0.013523,0.002678,0.000431,0.000823
10575000,0.0324,0.013523,0.002678,0.000431,0.000823
10576000,0.0324,0.013523,0.002678,0.000431,0.001058
10577000,0.0324,0.013523,0.002678,0.000431,0.000823
10578000,0.0324,0.013523,0.002678,0.000431,0.000470
10579000,0.0324,0.013523,0.002678,0.000431,0.000705
10580000,0.0324,0.013523,0.002678,0.000431,0.000940
10581000,0.0324,0.013523,0.002678,0.000431,0.000588
10582000,0.0324,0.013523,0.002678,0.000431,0.000705
10583000,0.0324,0.013523,0.002678,0.000431,0.000823
10584000,0.0324,0.013523,0.002678,0.000431,0.000470
10585000,0.0324,0.013523,0.002678,0.000431,0.001175
10586000,0.0324,0.013523,0.002678,0.000431,0.000940
10587000,0.0324,0.013523,0.002678,0.000431,0.000940
10588000,0.0324,0.013523,0.002678,0.000431,0.000940
10589000,0.0324,0.013523,0.002678,0.000431,0.000940
10590000,0.0324,0.013523,0.002678,0.000431,0.000940
10591000,0.0324,0.013523,0.002678,0.000431,0.000940
10592000,0.0324,0.013523,0.002678,0.000431,0.000940
10593000,0.0324,0.013523,0.002678,0.000431,0.000705
10594000,0.0324,0.013523,0.002678,0.000431,0.000705
10595000,0.0324,0.013523,0.002678,0.000431,0.000470
10596000,0.0324,0.013523,0.002678,0.000431,0.001058
10597000,0.0324,0.013523,0.002678,0.000431,0.000823
10598000,0.0324,0.013523,0.002678,0.000431,0.000705
10599000,0.0324,0.013523,0.002678,0.000431,0.001058
10600000,0.0324,0.013523,0.002678,0.000431,0.000588
10601000,0.0324,0.013523,0.002678,0.000431,0.000823
10602000,0.0324,0.013523,0.002678,0.000431,0.000588
10603000,0.0324,0.013523,0.002678,0.000431,0.000705
10604000,0.0324,0.013523,0.002678,0.000431,0.000940
10605000,0.0324,0.013523,0.002678,0.000431,0.000823
10606000,0.0324,0.013523,0.002678,0.000431,0.000940
10607000,0.0324,0.013523,0.002678,0.000431,0.000940
10608000,0.0324,0.013523,0.002678,0.000431,0.000588
10609000,0.0324,0.013523,0.002678,0.000431,0.000705
10610000,0.0324,0.013523,0.002678,0.000431,0.000940
10611000,0.0324,0.013523,0.002678,0.000431,0.000940
10612000,0.0324,0.013523,0.002678,0.000431,0.000705
10613000,0.0324,0.013523,0.002678,0.000431,0.000940
10614000,0.0324,0.013523,0.002678,0.000431,0.000588
10615000,0.0324,0.013523,0.002678,0.000431,0.000823
10616000,0.0324,0.013523,0.002678,0.000431,0.000823
10617000,0.0324,0.013523,0.002678,0.000431,0.000823
10618000,0.0324,0.013523,0.002678,0.000431,0.000705
10619000,0.0324,0.013523,0.002678,0.000431,0.000705
10620000,0.0324,0.013523,0.002678,0.000431,0.000705
10621000,0.0324,0.013523,0.002678,0.000431,0.001175
10622000,0.0324,0.013523,0.002678,0.000431,0.000940
10623000,0.0324,0.013523,0.002678,0.000431,0.000705
10624000,0.0324,0.013523,0.002678,0.000431,0.001058
10625000,0.0324,0.013523,0.002678,0.000431,0.000588
10626000,0.0324,0.013523,0.002678,0.000431,0.000940
10627000,0.0324,0.013523,0.002678,0.000431,0.000940
10628000,0.0324,0.013523,0.002678,0.000431,0.000470
10629000,0.0324,0.013523,0.002678,0.000431,0.001058
10630000,0.0324,0.013523,0.002678,0.000431,0.000705
10631000,0.0324,0.013523,0.002678,0.000431,0.001175
10632000,0.0324,0.013523,0.002678,0.000431,0.000823
10633000,0.0324,0.013523,0.002678,0.000431,0.000823
10634000,0.0324,0.013523,0.002678,0.000431,0.000823
10635000,0.0324,0.013523,0.002678,0.000431,0.000588
10636000,0.0324,0.013523,0.002678,0.000431,0.000588
10637000,0.0324,0.013523,0.002678,0.000431,0.001058
10638000,0.0324,0.013523,0.002678,0.000431,0.001175
10639000,0.0324,0.013523,0.002678,0.000431,0.000823
10640000,0.0324,0.013523,0.002678,0.000431,0.000940
10641000,0.0324,0.013523,0.002678,0.000431,0.000705
10642000,0.0324,0.013523,0.002678,0.000431,0.000940
10643000,0.0324,0.013523,0.002678,0.000431,0.000940
10644000,0.0324,0.013523,0.002678,0.000431,0.000705
10645000,0.0324,0.013523,0.002678,0.000431,0.000823
10646000,0.0324,0.013523,0.002678,0.000431,0.001058
10647000,0.0324,0.013523,0.002678,0.000431,0.000705
10648000,0.0324,0.013523,0.002678,0.000431,0.000940
10649000,0.0324,0.013523,0.002678,0.000431,0.001058
10650000,0.0324,0.013523,0.002678,0.000431,0.000823
10651000,0.0324,0.013523,0.002678,0.000431,0.000940
10652000,0.0324,0.013523,0.002678,0.000431,0.000705
10653000,0.0324,0.013523,0.002678,0.000431,0.000588
10654000,0.0324,0.013523,0.002678,0.000431,0.001058
10655000,0.0324,0.013523,0.002678,0.000431,0.000705
10656000,0.0324,0.013523,0.002678,0.000431,0.000705
10657000,0.0324,0.013523,0.002678,0.000431,0.000705
10658000,0.0324,0.013523,0.002678,0.000431,0.000470
10659000,0.0324,0.013523,0.002678,0.000431,0.001058
10660000,0.0324,0.013523,0.002678,0.000431,0.000823
10661000,0.0324,0.013523,0.002678,0.000431,0.000823
10662000,0.0324,0.013523,0.002678,0.000431,0.000940
10663000,0.0324,0.013523,0.002678,0.000431,0.000940
10664000,0.0324,0.013523,0.002678,0.000431,0.001058
10665000,0.0324,0.013523,0.002678,0.000431,0.000940
10666000,0.0324,0.013523,0.002678,0.000431,0.000940
10667000,0.0324,0.013523,0.002678,0.000431,0.000705
10668000,0.0324,0.013523,0.002678,0.000431,0.000470
10669000,0.0324,0.013523,0.002678,0.000431,0.000705
10670000,0.0324,0.013523,0.002678,0.000431,0.001058
10671000,0.0324,0.013523,0.002678,0.000431,0.001175
10672000,0.0324,0.013523,0.002678,0.000431,0.000823
10673000,0.0324,0.013523,0.002678,0.000431,0.000705
10674000,0.0324,0.013523,0.002678,0.000431,0.000823
10675000,0.0324,0.013523,0.002678,0.000431,0.001058
10676000,0.0324,0.013523,0.002678,0.000431,0.000940
10677000,0.0324,0.013523,0.002678,0.000431,0.000940
10678000,0.0324,0.013523,0.002678,0.000431,0.000588
10679000,0.0324,0.013523,0.002678,0.000431,0.000823
10680000,0.0324,0.013523,0.002678,0.000431,0.000588
10681000,0.0324,0.013523,0.002678,0.000431,0.000940
10682000,0.0324,0.013523,0.002678,0.000431,0.000705
10683000,0.0324,0.013523,0.002678,0.000431,0.000823
10684000,0.0324,0.013523,0.002678,0.000431,0.000705
10685000,0.0324,0.013523,0.002678,0.000431,0.000823
10686000,0.0324,0.013523,0.002678,0.000431,0.000823
10687000,0.0324,0.013523,0.002678,0.000431,0.000705
10688000,0.0324,0.013523,0.002678,0.000431,0.000823
10689000,0.0324,0.013523,0.002678,0.000431,0.000823
10690000,0.0324,0.013523,0.002678,0.000431,0.000588
10691000,0.0324,0.013523,0.002678,0.000431,0.000705
10692000,0.0324,0.013523,0.002678,0.000431,0.000940
10693000,0.0324,0.013523,0.002678,0.000431,0.000823
10694000,0.0324,0.013523,0.002678,0.000431,0.000823
10695000,0.0324,0.013523,0.002678,0.000431,0.000588
10696000,0.0324,0.013523,0.002678,0.000431,0.001175
10697000,0.0324,0.013523,0.002678,0.000431,0.000940
10698000,0.0324,0.013523,0.002678,0.000431,0.000940
10699000,0.0324,0.013523,0.002678,0.000431,0.000940
10700000,0.0324,0.013523,0.002678,0.000431,0.000940
10701000,0.0324,0.013523,0.002678,0.000431,0.001058
10702000,0.0324,0.013523,0.002678,0.000431,0.000705
10703000,0.0324,0.013523,0.002678,0.000431,0.000705
10704000,0.0324,0.013523,0.002678,0.000431,0.001058
10705000,0.0324,0.013523,0.002678,0.000431,0.000823
10706000,0.0324,0.013523,0.002678,0.000431,0.001058
10707000,0.0324,0.013523,0.002678,0.000431,0.000705
10708000,0.0324,0.013523,0.002678,0.000431,0.000470
10709000,0.0324,0.013523,0.002678,0.000431,0.000705
10710000,0.0324,0.013523,0.002678,0.000431,0.000588
10711000,0.0324,0.013523,0.002678,0.000431,0.000823
10712000,0.0324,0.013523,0.002678,0.000431,0.000705
10713000,0.0324,0.013523,0.002678,0.000431,0.001175
10714000,0.0324,0.013523,0.002678,0.000431,0.000705
10715000,0.0324,0.013523,0.002678,0.000431,0.000823
10716000,0.0324,0.013523,0.002678,0.000431,0.000705
10717000,0.0324,0.013523,0.002678,0.000431,0.000588
10718000,0.0324,0.013523,0.002678,0.000431,0.000705
10719000,0.0324,0.013523,0.002678,0.000431,0.000705
10720000,0.0324,0.013523,0.002678,0.000431,0.000705
10721000,0.0324,0.013523,0.002678,0.000431,0.001058
10722000,0.0324,0.013523,0.002678,0.000431,0.000588
10723000,0.0324,0.013523,0.002678,0.000431,0.000940
10724000,0.0324,0.013523,0.002678,0.000431,0.001058
10725000,0.0324,0.013523,0.002678,0.000431,0.000705
10726000,0.0324,0.013523,0.002678,0.000431,0.000940
10727000,0.0324,0.013523,0.002678,0.000431,0.000823
10728000,0.0324,0.013523,0.002678,0.000431,0.000940
10729000,0.0324,0.013523,0.002678,0.000431,0.000705
10730000,0.0324,0.013523,0.002678,0.000431,0.000705
10731000,0.0324,0.013523,0.002678,0.000431,0.000470
10732000,0.0324,0.013523,0.002678,0.000431,0.000823
10733000,0.0324,0.013523,0.002678,0.000431,0.000940
10734000,0.0324,0.013523,0.002678,0.000431,0.000823
10735000,0.0324,0.013523,0.002678,0.000431,0.000940
10736000,0.0324,0.013523,0.002678,0.000431,0.000588
10737000,0.0324,0.013523,0.002678,0.000431,0.000588
10738000,0.0324,0.013523,0.002678,0.000431,0.000588
10739000,0.0324,0.013523,0.002678,0.000431,0.000705
10740000,0.0324,0.013523,0.002678,0.000431,0.001058
10741000,0.0324,0.013523,0.002678,0.000431,0.000705
10742000,0.0324,0.013523,0.002678,0.000431,0.000940
10743000,0.0324,0.013523,0.002678,0.000431,0.001175
10744000,0.0324,0.013523,0.002678,0.000431,0.000940
10745000,0.0324,0.013523,0.002678,0.000431,0.000470
10746000,0.0324,0.013523,0.002678,0.000431,0.000705
10747000,0.0324,0.013523,0.002678,0.000431,0.000705
10748000,0.0324,0.013523,0.002678,0.000431,0.000940
10749000,0.0324,0.013523,0.002678,0.000431,0.000705
10750000,0.0324,0.013523,0.002678,0.000431,0.000470
10751000,0.0324,0.013523,0.002678,0.000431,0.000705
10752000,0.0324,0.013523,0.002678,0.000431,0.000470
10753000,0.0324,0.013523,0.002678,0.000431,0.000588
10754000,0.0324,0.013523,0.002678,0.000431,0.001058
10755000,0.0324,0.013523,0.002678,0.000431,0.000705
10756000,0.0324,0.013523,0.002678,0.000431,0.001058
10757000,0.0324,0.013523,0.002678,0.000431,0.000588
10758000,0.0324,0.013523,0.002678,0.000431,0.001058
10759000,0.0324,0.013523,0.002678,0.000431,0.000705
10760000,0.0324,0.013523,0.002678,0.000431,0.000823
10761000,0.0324,0.013523,0.002678,0.000431,0.000588
10762000,0.0324,0.013523,0.002678,0.000431,0.000940
10763000,0.0324,0.013523,0.002678,0.000431,0.000823
10764000,0.0324,0.013523,0.002678,0.000431,0.000940
10765000,0.0324,0.013523,0.002678,0.000431,0.000823
10766000,0.0324,0.013523,0.002678,0.000431,0.000823
10767000,0.0324,0.013523,0.002678,0.000431,0.001058
10768000,0.0324,0.013523,0.002678,0.000431,0.000823
10769000,0.0324,0.013523,0.002678,0.000431,0.000470
10770000,0.0324,0.013523,0.002678,0.000431,0.000705
10771000,0.0324,0.013523,0.002678,0.000431,0.000940
10772000,0.0324,0.013523,0.002678,0.000431,0.000940
10773000,0.0324,0.013523,0.002678,0.000431,0.000940
10774000,0.0324,0.013523,0.002678,0.000431,0.000823
10775000,0.0324,0.013523,0.002678,0.000431,0.000588
10776000,0.0324,0.013523,0.002678,0.000431,0.000940
10777000,0.0324,0.013523,0.002678,0.000431,0.000705
10778000,0.0324,0.013523,0.002678,0.000431,0.001058
10779000,0.0324,0.013523,0.002678,0.000431,0.000940
10780000,0.0324,0.013523,0.002678,0.000431,0.000823
10781000,0.0324,0.013523,0.002678,0.000431,0.000470
10782000,0.0324,0.013523,0.002678,0.000431,0.001058
10783000,0.0324,0.013523,0.002678,0.000431,0.000823
10784000,0.0324,0.013523,0.002678,0.000431,0.000823
10785000,0.0324,0.013523,0.002678,0.000431,0.001058
10786000,0.0324,0.013523,0.002678,0.000431,0.000940
10787000,0.0324,0.013523,0.002678,0.000431,0.000705
10788000,0.0324,0.013523,0.002678,0.000431,0.001058
10789000,0.0324,0.013523,0.002678,0.000431,0.000940
10790000,0.0324,0.013523,0.002678,0.000431,0.000588
10791000,0.0324,0.013523,0.002678,0.000431,0.000705
10792000,0.0324,0.013523,0.002678,0.000431,0.001175
10793000,0.0324,0.013523,0.002678,0.000431,0.000470
10794000,0.0324,0.013523,0.002678,0.000431,0.000940
10795000,0.0324,0.013523,0.002678,0.000431,0.000705
10796000,0.0324,0.013523,0.002678,0.000431,0.000705
10797000,0.0324,0.013523,0.002678,0.000431,0.000823
10798000,0.0324,0.013523,0.002678,0.000431,0.001058
10799000,0.0324,0.013523,0.002678,0.000431,0.000823
10800000,0.0324,0.013523,0.002678,0.000431,0.000823
10801000,0.0324,0.013523,0.002678,0.000431,0.000940
10802000,0.0324,0.013523,0.002678,0.000431,0.000940
10803000,0.0324,0.013523,0.002678,0.000431,0.000940
10804000,0.0324,0.013523,0.002678,0.000431,0.000940
10805000,0.0324,0.013523,0.002678,0.000431,0.000705
10806000,0.0324,0.013523,0.002678,0.000431,0.000940
10807000,0.0324,0.013523,0.002678,0.000431,0.000940
10808000,0.0324,0.013523,0.002678,0.000431,0.000940
10809000,0.0324,0.013523,0.002678,0.000431,0.000823
10810000,0.0324,0.013523,0.002678,0.000431,0.000588
10811000,0.0324,0.013523,0.002678,0.000431,0.000705
10812000,0.0324,0.013523,0.002678,0.000431,0.000588
10813000,0.0324,0.013523,0.002678,0.000431,0.000823
10814000,0.0324,0.013523,0.002678,0.000431,0.000823
10815000,0.0324,0.013523,0.002678,0.000431,0.000940
10816000,0.0324,0.013523,0.002678,0.000431,0.000823
10817000,0.0324,0.013523,0.002678,0.000431,0.000823
10818000,0.0324,0.013523,0.002678,0.000431,0.000588
10819000,0.0324,0.013523,0.002678,0.000431,0.000470
10820000,0.0324,0.013523,0.002678,0.000431,0.000705
10821000,0.0324,0.013523,0.002678,0.000431,0.001058
10822000,0.0324,0.013523,0.002678,0.000431,0.000588
10823000,0.0324,0.013523,0.002678,0.000431,0.000705
10824000,0.0324,0.013523,0.002678,0.000431,0.000940
10825000,0.0324,0.013523,0.002678,0.000431,0.000705
10826000,0.0324,0.013523,0.002678,0.000431,0.000588
10827000,0.0324,0.013523,0.002678,0.000431,0.000940
10828000,0.0324,0.013523,0.002678,0.000431,0.000823
10829000,0.0324,0.013523,0.002678,0.000431,0.000940
10830000,0.0324,0.013523,0.002678,0.000431,0.000823
10831000,0.0324,0.013523,0.002678,0.000431,0.000823
10832000,0.0324,0.013523,0.002678,0.000431,0.000940
10833000,0.0324,0.013523,0.002678,0.000431,0.001058
10834000,0.0324,0.013523,0.002678,0.000431,0.000823
10835000,0.0324,0.013523,0.002678,0.000431,0.000940
10836000,0.0324,0.013523,0.002678,0.000431,0.000823
10837000,0.0324,0.013523,0.002678,0.000431,0.000823
10838000,0.0324,0.013523,0.002678,0.000431,0.000940
10839000,0.0324,0.013523,0.002678,0.000431,0.000940
10840000,0.0324,0.013523,0.002678,0.000431,0.000823
10841000,0.0324,0.013523,0.002678,0.000431,0.001058
10842000,0.0324,0.013523,0.002678,0.000431,0.000940
10843000,0.0324,0.013523,0.002678,0.000431,0.000940
10844000,0.0324,0.013523,0.002678,0.000431,0.000823
10845000,0.0324,0.013523,0.002678,0.000431,0.000823
10846000,0.0324,0.013523,0.002678,0.000431,0.000823
10847000,0.0324,0.013523,0.002678,0.000431,0.000588
10848000,0.0324,0.013523,0.002678,0.000431,0.001058
10849000,0.0324,0.013523,0.002678,0.000431,0.000588
10850000,0.0324,0.013523,0.002678,0.000431,0.000940
10851000,0.0324,0.013523,0.002678,0.000431,0.000705
10852000,0.0324,0.013523,0.002678,0.000431,0.000940
10853000,0.0324,0.013523,0.002678,0.000431,0.000705
10854000,0.0324,0.013523,0.002678,0.000431,0.001058
10855000,0.0324,0.013523,0.002678,0.000431,0.001058
10856000,0.0324,0.013523,0.002678,0.000431,0.000705
10857000,0.0324,0.013523,0.002678,0.000431,0.000823
10858000,0.0324,0.013523,0.002678,0.000431,0.000823
10859000,0.0324,0.013523,0.002678,0.000431,0.000705
10860000,0.0324,0.013523,0.002678,0.000431,0.000470
10861000,0.0324,0.013523,0.002678,0.000431,0.000940
10862000,0.0324,0.013523,0.002678,0.000431,0.000940
10863000,0.0324,0.013523,0.002678,0.000431,0.000823
10864000,0.0324,0.013523,0.002678,0.000431,0.001058
10865000,0.0324,0.013523,0.002678,0.000431,0.000705
10866000,0.0324,0.013523,0.002678,0.000431,0.000705
10867000,0.0324,0.013523,0.002678,0.000431,0.000940
10868000,0.0324,0.013523,0.002678,0.000431,0.001058
10869000,0.0324,0.013523,0.002678,0.000431,0.000823
10870000,0.0324,0.013523,0.002678,0.000431,0.000823
10871000,0.0324,0.013523,0.002678,0.000431,0.000588
10872000,0.0324,0.013523,0.002678,0.000431,0.001058
10873000,0.0324,0.013523,0.002678,0.000431,0.001058
10874000,0.0324,0.013523,0.002678,0.000431,0.000940
10875000,0.0324,0.013523,0.002678,0.000431,0.000705
10876000,0.0324,0.013523,0.002678,0.000431,0.000940
10877000,0.0324,0.013523,0.002678,0.000431,0.000588
10878000,0.0324,0.013523,0.002678,0.000431,0.000588
10879000,0.0324,0.013523,0.002678,0.000431,0.000705
10880000,0.0324,0.013523,0.002678,0.000431,0.000588
10881000,0.0324,0.013523,0.002678,0.000431,0.000588
10882000,0.0324,0.013523,0.002678,0.000431,0.000705
10883000,0.0324,0.013523,0.002678,0.000431,0.000470
10884000,0.0324,0.013523,0.002678,0.000431,0.001058
10885000,0.0324,0.013523,0.002678,0.000431,0.000940
10886000,0.0324,0.013523,0.002678,0.000431,0.000705
10887000,0.0324,0.013523,0.002678,0.000431,0.000588
10888000,0.0324,0.013523,0.002678,0.000431,0.000940
10889000,0.0324,0.013523,0.002678,0.000431,0.000823
10890000,0.0324,0.013523,0.002678,0.000431,0.000588
10891000,0.0324,0.013523,0.002678,0.000431,0.000705
10892000,0.0324,0.013523,0.002678,0.000431,0.000705
10893000,0.0324,0.013523,0.002678,0.000431,0.000705
10894000,0.0324,0.013523,0.002678,0.000431,0.000470
10895000,0.0324,0.013523,0.002678,0.000431,0.000823
10896000,0.0324,0.013523,0.002678,0.000431,0.000705
10897000,0.0324,0.013523,0.002678,0.000431,0.000823
10898000,0.0324,0.013523,0.002678,0.000431,0.000588
10899000,0.0324,0.013523,0.002678,0.000431,0.000823
10900000,0.0324,0.013523,0.002678,0.000431,0.000705
10901000,0.0324,0.013523,0.002678,0.000431,0.000705
10902000,0.0324,0.013523,0.002678,0.000431,0.000705
10903000,0.0324,0.013523,0.002678,0.000431,0.000823
10904000,0.0324,0.013523,0.002678,0.000431,0.000823
10905000,0.0324,0.013523,0.002678,0.000431,0.000588
10906000,0.0324,0.013523,0.002678,0.000431,0.000823
10907000,0.0324,0.013523,0.002678,0.000431,0.000940
10908000,0.0324,0.013523,0.002678,0.000431,0.000823
10909000,0.0324,0.013523,0.002678,0.000431,0.000823
10910000,0.0324,0.013523,0.002678,0.000431,0.000705
10911000,0.0324,0.013523,0.002678,0.000431,0.000588
10912000,0.0324,0.013523,0.002678,0.000431,0.000588
10913000,0.0324,0.013523,0.002678,0.000431,0.000705
10914000,0.0324,0.013523,0.002678,0.000431,0.000940
10915000,0.0324,0.013523,0.002678,0.000431,0.000940
10916000,0.0324,0.013523,0.002678,0.000431,0.000823
10917000,0.0324,0.013523,0.002678,0.000431,0.000823
10918000,0.0324,0.013523,0.002678,0.000431,0.000823
10919000,0.0324,0.013523,0.002678,0.000431,0.000823
10920000,0.0324,0.013523,0.002678,0.000431,0.000588
10921000,0.0324,0.013523,0.002678,0.000431,0.000588
10922000,0.0324,0.013523,0.002678,0.000431,0.000940
10923000,0.0324,0.013523,0.002678,0.000431,0.000705
10924000,0.0324,0.013523,0.002678,0.000431,0.001058
10925000,0.0324,0.013523,0.002678,0.000431,0.000823
10926000,0.0324,0.013523,0.002678,0.000431,0.000940
10927000,0.0324,0.013523,0.002678,0.000431,0.000705
10928000,0.0324,0.013523,0.002678,0.000431,0.001058
10929000,0.0324,0.013523,0.002678,0.000431,0.000823
10930000,0.0324,0.013523,0.002678,0.000431,0.000940
10931000,0.0324,0.013523,0.002678,0.000431,0.000705
10932000,0.0324,0.013523,0.002678,0.000431,0.000705
10933000,0.0324,0.013523,0.002678,0.000431,0.000705
10934000,0.0324,0.013523,0.002678,0.000431,0.000940
10935000,0.0324,0.013523,0.002678,0.000431,0.000823
10936000,0.0324,0.013523,0.002678,0.000431,0.000823
10937000,0.0324,0.013523,0.002678,0.000431,0.000705
10938000,0.0324,0.013523,0.002678,0.000431,0.000470
10939000,0.0324,0.013523,0.002678,0.000431,0.001175
10940000,0.0324,0.013523,0.002678,0.000431,0.000823
10941000,0.0324,0.013523,0.002678,0.000431,0.000823
10942000,0.0324,0.013523,0.002678,0.000431,0.000940
10943000,0.0324,0.013523,0.002678,0.000431,0.001058
10944000,0.0324,0.013523,0.002678,0.000431,0.000940
10945000,0.0324,0.013523,0.002678,0.000431,0.000940
10946000,0.0324,0.013523,0.002678,0.000431,0.001058
10947000,0.0324,0.013523,0.002678,0.000431,0.000823
10948000,0.0324,0.013523,0.002678,0.000431,0.000588
10949000,0.0324,0.013523,0.002678,0.000431,0.000705
10950000,0.0324,0.013523,0.002678,0.000431,0.000940
10951000,0.0324,0.013523,0.002678,0.000431,0.000940
10952000,0.0324,0.013523,0.002678,0.000431,0.000705
10953000,0.0324,0.013523,0.002678,0.000431,0.000705
10954000,0.0324,0.013523,0.002678,0.000431,0.000940
10955000,0.0324,0.013523,0.002678,0.000431,0.000940
10956000,0.0324,0.013523,0.002678,0.000431,0.000823
10957000,0.0324,0.013523,0.002678,0.000431,0.000940
10958000,0.0324,0.013523,0.002678,0.000431,0.000823
10959000,0.0324,0.013523,0.002678,0.000431,0.001175
10960000,0.0324,0.013523,0.002678,0.000431,0.000940
10961000,0.0324,0.013523,0.002678,0.000431,0.000705
10962000,0.0324,0.013523,0.002678,0.000431,0.000940
10963000,0.0324,0.013523,0.002678,0.000431,0.000940
10964000,0.0324,0.013523,0.002678,0.000431,0.000823
10965000,0.0324,0.013523,0.002678,0.000431,0.000588
10966000,0.0324,0.013523,0.002678,0.000431,0.001058
10967000,0.0324,0.013523,0.002678,0.000431,0.000705
10968000,0.0324,0.013523,0.002678,0.000431,0.000588
10969000,0.0324,0.013523,0.002678,0.000431,0.000823
10970000,0.0324,0.013523,0.002678,0.000431,0.001058
10971000,0.0324,0.013523,0.002678,0.000431,0.000823
10972000,0.0324,0.013523,0.002678,0.000431,0.000823
10973000,0.0324,0.013523,0.002678,0.000431,0.000940
10974000,0.0324,0.013523,0.002678,0.000431,0.000940
10975000,0.0324,0.013523,0.002678,0.000431,0.000705
10976000,0.0324,0.013523,0.002678,0.000431,0.000470
10977000,0.0324,0.013523,0.002678,0.000431,0.000823
10978000,0.0324,0.013523,0.002678,0.000431,0.000940
10979000,0.0324,0.013523,0.002678,0.000431,0.000940
10980000,0.0324,0.013523,0.002678,0.000431,0.000823
10981000,0.0324,0.013523,0.002678,0.000431,0.000940
10982000,0.0324,0.013523,0.002678,0.000431,0.000705
10983000,0.0324,0.013523,0.002678,0.000431,0.001058
10984000,0.0324,0.013523,0.002678,0.000431,0.000705
10985000,0.0324,0.013523,0.002678,0.000431,0.000823
10986000,0.0324,0.013523,0.002678,0.000431,0.000940
10987000,0.0324,0.013523,0.002678,0.000431,0.000823
10988000,0.0324,0.013523,0.002678,0.000431,0.000823
10989000,0.0324,0.013523,0.002678,0.000431,0.000705
10990000,0.0324,0.013523,0.002678,0.000431,0.000705
10991000,0.0324,0.013523,0.002678,0.000431,0.000705
10992000,0.0324,0.013523,0.002678,0.000431,0.000705
10993000,0.0324,0.013523,0.002678,0.000431,0.000705
10994000,0.0324,0.013523,0.002678,0.000431,0.000705
10995000,0.0324,0.013523,0.002678,0.000431,0.000588
10996000,0.0324,0.013523,0.002678,0.000431,0.000588
10997000,0.0324,0.013523,0.002678,0.000431,0.000705
10998000,0.0324,0.013523,0.002678,0.000431,0.000470
10999000,0.0324,0.013523,0.002678,0.000431,0.000705
