Cycle,Area(mm^2),PeakDynamic(W),SubthresholdLeakage(W),GateLeakage(W),RunTimeDynamic(W)
1000000,0.0324,0.013523,0.002678,0.000431,0.001175
1001000,0.0324,0.013523,0.002678,0.000431,0.001293
1002000,0.0324,0.013523,0.002678,0.000431,0.001058
1003000,0.0324,0.013523,0.002678,0.000431,0.001175
1004000,0.0324,0.013523,0.002678,0.000431,0.001058
1005000,0.0324,0.013523,0.002678,0.000431,0.001410
1006000,0.0324,0.013523,0.002678,0.000431,0.000940
1007000,0.0324,0.013523,0.002678,0.000431,0.001058
1008000,0.0324,0.013523,0.002678,0.000431,0.001175
1009000,0.0324,0.013523,0.002678,0.000431,0.001293
1010000,0.0324,0.013523,0.002678,0.000431,0.001058
1011000,0.0324,0.013523,0.002678,0.000431,0.001293
1012000,0.0324,0.013523,0.002678,0.000431,0.000940
1013000,0.0324,0.013523,0.002678,0.000431,0.001175
1014000,0.0324,0.013523,0.002678,0.000431,0.001410
1015000,0.0324,0.013523,0.002678,0.000431,0.001175
1016000,0.0324,0.013523,0.002678,0.000431,0.001175
1017000,0.0324,0.013523,0.002678,0.000431,0.000940
1018000,0.0324,0.013523,0.002678,0.000431,0.001175
1019000,0.0324,0.013523,0.002678,0.000431,0.001293
1020000,0.0324,0.013523,0.002678,0.000431,0.001293
1021000,0.0324,0.013523,0.002678,0.000431,0.001293
1022000,0.0324,0.013523,0.002678,0.000431,0.001293
1023000,0.0324,0.013523,0.002678,0.000431,0.001058
1024000,0.0324,0.013523,0.002678,0.000431,0.001058
1025000,0.0324,0.013523,0.002678,0.000431,0.001058
1026000,0.0324,0.013523,0.002678,0.000431,0.001175
1027000,0.0324,0.013523,0.002678,0.000431,0.001175
1028000,0.0324,0.013523,0.002678,0.000431,0.001410
1029000,0.0324,0.013523,0.002678,0.000431,0.000705
1030000,0.0324,0.013523,0.002678,0.000431,0.001293
1031000,0.0324,0.013523,0.002678,0.000431,0.001175
1032000,0.0324,0.013523,0.002678,0.000431,0.001293
1033000,0.0324,0.013523,0.002678,0.000431,0.000940
1034000,0.0324,0.013523,0.002678,0.000431,0.001058
1035000,0.0324,0.013523,0.002678,0.000431,0.001058
1036000,0.0324,0.013523,0.002678,0.000431,0.001058
1037000,0.0324,0.013523,0.002678,0.000431,0.000940
1038000,0.0324,0.013523,0.002678,0.000431,0.000940
1039000,0.0324,0.013523,0.002678,0.000431,0.001175
1040000,0.0324,0.013523,0.002678,0.000431,0.001175
1041000,0.0324,0.013523,0.002678,0.000431,0.001175
1042000,0.0324,0.013523,0.002678,0.000431,0.001058
1043000,0.0324,0.013523,0.002678,0.000431,0.001293
1044000,0.0324,0.013523,0.002678,0.000431,0.001175
1045000,0.0324,0.013523,0.002678,0.000431,0.001058
1046000,0.0324,0.013523,0.002678,0.000431,0.001175
1047000,0.0324,0.013523,0.002678,0.000431,0.001058
1048000,0.0324,0.013523,0.002678,0.000431,0.001175
1049000,0.0324,0.013523,0.002678,0.000431,0.000705
1050000,0.0324,0.013523,0.002678,0.000431,0.000470
1051000,0.0324,0.013523,0.002678,0.000431,0.000588
1052000,0.0324,0.013523,0.002678,0.000431,0.000353
1053000,0.0324,0.013523,0.002678,0.000431,0.000588
1054000,0.0324,0.013523,0.002678,0.000431,0.000588
1055000,0.0324,0.013523,0.002678,0.000431,0.000353
1056000,0.0324,0.013523,0.002678,0.000431,0.000588
1057000,0.0324,0.013523,0.002678,0.000431,0.000588
1058000,0.0324,0.013523,0.002678,0.000431,0.000588
1059000,0.0324,0.013523,0.002678,0.000431,0.000588
1060000,0.0324,0.013523,0.002678,0.000431,0.000470
1061000,0.0324,0.013523,0.002678,0.000431,0.000353
1062000,0.0324,0.013523,0.002678,0.000431,0.000470
1063000,0.0324,0.013523,0.002678,0.000431,0.000705
1064000,0.0324,0.013523,0.002678,0.000431,0.000588
1065000,0.0324,0.013523,0.002678,0.000431,0.000470
1066000,0.0324,0.013523,0.002678,0.000431,0.000470
1067000,0.0324,0.013523,0.002678,0.000431,0.000705
1068000,0.0324,0.013523,0.002678,0.000431,0.000470
1069000,0.0324,0.013523,0.002678,0.000431,0.000470
1070000,0.0324,0.013523,0.002678,0.000431,0.000470
1071000,0.0324,0.013523,0.002678,0.000431,0.000470
1072000,0.0324,0.013523,0.002678,0.000431,0.000588
1073000,0.0324,0.013523,0.002678,0.000431,0.000470
1074000,0.0324,0.013523,0.002678,0.000431,0.000470
1075000,0.0324,0.013523,0.002678,0.000431,0.000588
1076000,0.0324,0.013523,0.002678,0.000431,0.000470
1077000,0.0324,0.013523,0.002678,0.000431,0.000353
1078000,0.0324,0.013523,0.002678,0.000431,0.000470
1079000,0.0324,0.013523,0.002678,0.000431,0.000353
1080000,0.0324,0.013523,0.002678,0.000431,0.000470
1081000,0.0324,0.013523,0.002678,0.000431,0.000588
1082000,0.0324,0.013523,0.002678,0.000431,0.000588
1083000,0.0324,0.013523,0.002678,0.000431,0.000470
1084000,0.0324,0.013523,0.002678,0.000431,0.000588
1085000,0.0324,0.013523,0.002678,0.000431,0.000588
1086000,0.0324,0.013523,0.002678,0.000431,0.000705
1087000,0.0324,0.013523,0.002678,0.000431,0.000470
1088000,0.0324,0.013523,0.002678,0.000431,0.000588
1089000,0.0324,0.013523,0.002678,0.000431,0.000705
1090000,0.0324,0.013523,0.002678,0.000431,0.000470
1091000,0.0324,0.013523,0.002678,0.000431,0.000588
1092000,0.0324,0.013523,0.002678,0.000431,0.000470
1093000,0.0324,0.013523,0.002678,0.000431,0.000588
1094000,0.0324,0.013523,0.002678,0.000431,0.000588
1095000,0.0324,0.013523,0.002678,0.000431,0.000705
1096000,0.0324,0.013523,0.002678,0.000431,0.000353
1097000,0.0324,0.013523,0.002678,0.000431,0.000588
1098000,0.0324,0.013523,0.002678,0.000431,0.000470
1099000,0.0324,0.013523,0.002678,0.000431,0.000235
1100000,0.0324,0.013523,0.002678,0.000431,0.000470
1101000,0.0324,0.013523,0.002678,0.000431,0.000588
1102000,0.0324,0.013523,0.002678,0.000431,0.000353
1103000,0.0324,0.013523,0.002678,0.000431,0.000705
1104000,0.0324,0.013523,0.002678,0.000431,0.000588
1105000,0.0324,0.013523,0.002678,0.000431,0.000470
1106000,0.0324,0.013523,0.002678,0.000431,0.000470
1107000,0.0324,0.013523,0.002678,0.000431,0.000235
1108000,0.0324,0.013523,0.002678,0.000431,0.000705
1109000,0.0324,0.013523,0.002678,0.000431,0.000588
1110000,0.0324,0.013523,0.002678,0.000431,0.000470
1111000,0.0324,0.013523,0.002678,0.000431,0.000588
1112000,0.0324,0.013523,0.002678,0.000431,0.000470
1113000,0.0324,0.013523,0.002678,0.000431,0.000588
1114000,0.0324,0.013523,0.002678,0.000431,0.000705
1115000,0.0324,0.013523,0.002678,0.000431,0.000235
1116000,0.0324,0.013523,0.002678,0.000431,0.000588
1117000,0.0324,0.013523,0.002678,0.000431,0.000470
1118000,0.0324,0.013523,0.002678,0.000431,0.000470
1119000,0.0324,0.013523,0.002678,0.000431,0.000588
1120000,0.0324,0.013523,0.002678,0.000431,0.000470
1121000,0.0324,0.013523,0.002678,0.000431,0.000470
1122000,0.0324,0.013523,0.002678,0.000431,0.000588
1123000,0.0324,0.013523,0.002678,0.000431,0.000588
1124000,0.0324,0.013523,0.002678,0.000431,0.000470
1125000,0.0324,0.013523,0.002678,0.000431,0.000705
1126000,0.0324,0.013523,0.002678,0.000431,0.000353
1127000,0.0324,0.013523,0.002678,0.000431,0.000470
1128000,0.0324,0.013523,0.002678,0.000431,0.000470
1129000,0.0324,0.013523,0.002678,0.000431,0.000353
1130000,0.0324,0.013523,0.002678,0.000431,0.000470
1131000,0.0324,0.013523,0.002678,0.000431,0.000353
1132000,0.0324,0.013523,0.002678,0.000431,0.000470
1133000,0.0324,0.013523,0.002678,0.000431,0.000588
1134000,0.0324,0.013523,0.002678,0.000431,0.000588
1135000,0.0324,0.013523,0.002678,0.000431,0.000705
1136000,0.0324,0.013523,0.002678,0.000431,0.000470
1137000,0.0324,0.013523,0.002678,0.000431,0.000470
1138000,0.0324,0.013523,0.002678,0.000431,0.000588
1139000,0.0324,0.013523,0.002678,0.000431,0.000588
1140000,0.0324,0.013523,0.002678,0.000431,0.000353
1141000,0.0324,0.013523,0.002678,0.000431,0.000470
1142000,0.0324,0.013523,0.002678,0.000431,0.000470
1143000,0.0324,0.013523,0.002678,0.000431,0.000588
1144000,0.0324,0.013523,0.002678,0.000431,0.000353
1145000,0.0324,0.013523,0.002678,0.000431,0.000470
1146000,0.0324,0.013523,0.002678,0.000431,0.000470
1147000,0.0324,0.013523,0.002678,0.000431,0.000705
1148000,0.0324,0.013523,0.002678,0.000431,0.000470
1149000,0.0324,0.013523,0.002678,0.000431,0.000470
1150000,0.0324,0.013523,0.002678,0.000431,0.000235
1151000,0.0324,0.013523,0.002678,0.000431,0.000588
1152000,0.0324,0.013523,0.002678,0.000431,0.000470
1153000,0.0324,0.013523,0.002678,0.000431,0.000470
1154000,0.0324,0.013523,0.002678,0.000431,0.000470
1155000,0.0324,0.013523,0.002678,0.000431,0.000588
1156000,0.0324,0.013523,0.002678,0.000431,0.000470
1157000,0.0324,0.013523,0.002678,0.000431,0.000705
1158000,0.0324,0.013523,0.002678,0.000431,0.000353
1159000,0.0324,0.013523,0.002678,0.000431,0.000470
1160000,0.0324,0.013523,0.002678,0.000431,0.000705
1161000,0.0324,0.013523,0.002678,0.000431,0.000470
1162000,0.0324,0.013523,0.002678,0.000431,0.000470
1163000,0.0324,0.013523,0.002678,0.000431,0.000588
1164000,0.0324,0.013523,0.002678,0.000431,0.000588
1165000,0.0324,0.013523,0.002678,0.000431,0.000588
1166000,0.0324,0.013523,0.002678,0.000431,0.000588
1167000,0.0324,0.013523,0.002678,0.000431,0.000353
1168000,0.0324,0.013523,0.002678,0.000431,0.000588
1169000,0.0324,0.013523,0.002678,0.000431,0.000353
1170000,0.0324,0.013523,0.002678,0.000431,0.000588
1171000,0.0324,0.013523,0.002678,0.000431,0.000353
1172000,0.0324,0.013523,0.002678,0.000431,0.000470
1173000,0.0324,0.013523,0.002678,0.000431,0.000470
1174000,0.0324,0.013523,0.002678,0.000431,0.000470
1175000,0.0324,0.013523,0.002678,0.000431,0.000470
1176000,0.0324,0.013523,0.002678,0.000431,0.000705
1177000,0.0324,0.013523,0.002678,0.000431,0.000470
1178000,0.0324,0.013523,0.002678,0.000431,0.000353
1179000,0.0324,0.013523,0.002678,0.000431,0.000705
1180000,0.0324,0.013523,0.002678,0.000431,0.000588
1181000,0.0324,0.013523,0.002678,0.000431,0.000588
1182000,0.0324,0.013523,0.002678,0.000431,0.000470
1183000,0.0324,0.013523,0.002678,0.000431,0.000588
1184000,0.0324,0.013523,0.002678,0.000431,0.000353
1185000,0.0324,0.013523,0.002678,0.000431,0.000470
1186000,0.0324,0.013523,0.002678,0.000431,0.000588
1187000,0.0324,0.013523,0.002678,0.000431,0.000470
1188000,0.0324,0.013523,0.002678,0.000431,0.000470
1189000,0.0324,0.013523,0.002678,0.000431,0.000353
1190000,0.0324,0.013523,0.002678,0.000431,0.000588
1191000,0.0324,0.013523,0.002678,0.000431,0.000705
1192000,0.0324,0.013523,0.002678,0.000431,0.000353
1193000,0.0324,0.013523,0.002678,0.000431,0.000588
1194000,0.0324,0.013523,0.002678,0.000431,0.000235
1195000,0.0324,0.013523,0.002678,0.000431,0.000705
1196000,0.0324,0.013523,0.002678,0.000431,0.000353
1197000,0.0324,0.013523,0.002678,0.000431,0.000705
1198000,0.0324,0.013523,0.002678,0.000431,0.000353
1199000,0.0324,0.013523,0.002678,0.000431,0.000470
1200000,0.0324,0.013523,0.002678,0.000431,0.000588
1201000,0.0324,0.013523,0.002678,0.000431,0.000470
1202000,0.0324,0.013523,0.002678,0.000431,0.000353
1203000,0.0324,0.013523,0.002678,0.000431,0.000588
1204000,0.0324,0.013523,0.002678,0.000431,0.000470
1205000,0.0324,0.013523,0.002678,0.000431,0.000470
1206000,0.0324,0.013523,0.002678,0.000431,0.000705
1207000,0.0324,0.013523,0.002678,0.000431,0.000588
1208000,0.0324,0.013523,0.002678,0.000431,0.000588
1209000,0.0324,0.013523,0.002678,0.000431,0.000588
1210000,0.0324,0.013523,0.002678,0.000431,0.000588
1211000,0.0324,0.013523,0.002678,0.000431,0.000470
1212000,0.0324,0.013523,0.002678,0.000431,0.000588
1213000,0.0324,0.013523,0.002678,0.000431,0.000588
1214000,0.0324,0.013523,0.002678,0.000431,0.000470
1215000,0.0324,0.013523,0.002678,0.000431,0.000470
1216000,0.0324,0.013523,0.002678,0.000431,0.000588
1217000,0.0324,0.013523,0.002678,0.000431,0.000588
1218000,0.0324,0.013523,0.002678,0.000431,0.000470
1219000,0.0324,0.013523,0.002678,0.000431,0.000353
1220000,0.0324,0.013523,0.002678,0.000431,0.000588
1221000,0.0324,0.013523,0.002678,0.000431,0.000588
1222000,0.0324,0.013523,0.002678,0.000431,0.000353
1223000,0.0324,0.013523,0.002678,0.000431,0.000470
1224000,0.0324,0.013523,0.002678,0.000431,0.000588
1225000,0.0324,0.013523,0.002678,0.000431,0.000470
1226000,0.0324,0.013523,0.002678,0.000431,0.000353
1227000,0.0324,0.013523,0.002678,0.000431,0.000470
1228000,0.0324,0.013523,0.002678,0.000431,0.000588
1229000,0.0324,0.013523,0.002678,0.000431,0.000588
1230000,0.0324,0.013523,0.002678,0.000431,0.000470
1231000,0.0324,0.013523,0.002678,0.000431,0.000470
1232000,0.0324,0.013523,0.002678,0.000431,0.000588
1233000,0.0324,0.013523,0.002678,0.000431,0.000588
1234000,0.0324,0.013523,0.002678,0.000431,0.000588
1235000,0.0324,0.013523,0.002678,0.000431,0.000353
1236000,0.0324,0.013523,0.002678,0.000431,0.000588
1237000,0.0324,0.013523,0.002678,0.000431,0.000470
1238000,0.0324,0.013523,0.002678,0.000431,0.000470
1239000,0.0324,0.013523,0.002678,0.000431,0.000470
1240000,0.0324,0.013523,0.002678,0.000431,0.000705
1241000,0.0324,0.013523,0.002678,0.000431,0.000470
1242000,0.0324,0.013523,0.002678,0.000431,0.000470
1243000,0.0324,0.013523,0.002678,0.000431,0.000470
1244000,0.0324,0.013523,0.002678,0.000431,0.000470
1245000,0.0324,0.013523,0.002678,0.000431,0.000353
1246000,0.0324,0.013523,0.002678,0.000431,0.000588
1247000,0.0324,0.013523,0.002678,0.000431,0.000470
1248000,0.0324,0.013523,0.002678,0.000431,0.000470
1249000,0.0324,0.013523,0.002678,0.000431,0.000470
1250000,0.0324,0.013523,0.002678,0.000431,0.000470
1251000,0.0324,0.013523,0.002678,0.000431,0.000353
1252000,0.0324,0.013523,0.002678,0.000431,0.000588
1253000,0.0324,0.013523,0.002678,0.000431,0.000588
1254000,0.0324,0.013523,0.002678,0.000431,0.000588
1255000,0.0324,0.013523,0.002678,0.000431,0.000470
1256000,0.0324,0.013523,0.002678,0.000431,0.000705
1257000,0.0324,0.013523,0.002678,0.000431,0.000470
1258000,0.0324,0.013523,0.002678,0.000431,0.000588
1259000,0.0324,0.013523,0.002678,0.000431,0.000470
1260000,0.0324,0.013523,0.002678,0.000431,0.000470
1261000,0.0324,0.013523,0.002678,0.000431,0.000470
1262000,0.0324,0.013523,0.002678,0.000431,0.000353
1263000,0.0324,0.013523,0.002678,0.000431,0.000588
1264000,0.0324,0.013523,0.002678,0.000431,0.000588
1265000,0.0324,0.013523,0.002678,0.000431,0.000470
1266000,0.0324,0.013523,0.002678,0.000431,0.000470
1267000,0.0324,0.013523,0.002678,0.000431,0.000470
1268000,0.0324,0.013523,0.002678,0.000431,0.000588
1269000,0.0324,0.013523,0.002678,0.000431,0.000353
1270000,0.0324,0.013523,0.002678,0.000431,0.000470
1271000,0.0324,0.013523,0.002678,0.000431,0.000470
1272000,0.0324,0.013523,0.002678,0.000431,0.000353
1273000,0.0324,0.013523,0.002678,0.000431,0.000470
1274000,0.0324,0.013523,0.002678,0.000431,0.000588
1275000,0.0324,0.013523,0.002678,0.000431,0.000353
1276000,0.0324,0.013523,0.002678,0.000431,0.000705
1277000,0.0324,0.013523,0.002678,0.000431,0.000353
1278000,0.0324,0.013523,0.002678,0.000431,0.000353
1279000,0.0324,0.013523,0.002678,0.000431,0.000588
1280000,0.0324,0.013523,0.002678,0.000431,0.000470
1281000,0.0324,0.013523,0.002678,0.000431,0.000588
1282000,0.0324,0.013523,0.002678,0.000431,0.000353
1283000,0.0324,0.013523,0.002678,0.000431,0.000353
1284000,0.0324,0.013523,0.002678,0.000431,0.000705
1285000,0.0324,0.013523,0.002678,0.000431,0.000470
1286000,0.0324,0.013523,0.002678,0.000431,0.000470
1287000,0.0324,0.013523,0.002678,0.000431,0.000588
1288000,0.0324,0.013523,0.002678,0.000431,0.000588
1289000,0.0324,0.013523,0.002678,0.000431,0.000588
1290000,0.0324,0.013523,0.002678,0.000431,0.000470
1291000,0.0324,0.013523,0.002678,0.000431,0.000353
1292000,0.0324,0.013523,0.002678,0.000431,0.000588
