Cycle,Area(mm^2),PeakDynamic(W),SubthresholdLeakage(W),GateLeakage(W),RunTimeDynamic(W)
1000,0.0324,0.013523,0.002678,0.000431,0.001645
2000,0.0324,0.013523,0.002678,0.000431,0.000000
3000,0.0324,0.013523,0.002678,0.000431,0.000000
4000,0.0324,0.013523,0.002678,0.000431,0.000000
5000,0.0324,0.013523,0.002678,0.000431,0.000000
6000,0.0324,0.013523,0.002678,0.000431,2.109866
7000,0.0324,0.013523,0.002678,0.000431,2.215524
8000,0.0324,0.013523,0.002678,0.000431,1.291165
9000,0.0324,0.013523,0.002678,0.000431,2.008204
10000,0.0324,0.013523,0.002678,0.000431,2.171451
11000,0.0324,0.013523,0.002678,0.000431,3.423243
12000,0.0324,0.013523,0.002678,0.000431,3.988084
13000,0.0324,0.013523,0.002678,0.000431,4.200105
14000,0.0324,0.013523,0.002678,0.000431,4.124534
15000,0.0324,0.013523,0.002678,0.000431,4.041324
16000,0.0324,0.013523,0.002678,0.000431,4.062127
17000,0.0324,0.013523,0.002678,0.000431,4.078228
18000,0.0324,0.013523,0.002678,0.000431,4.004890
19000,0.0324,0.013523,0.002678,0.000431,4.103026
20000,0.0324,0.013523,0.002678,0.000431,4.044262
21000,0.0324,0.013523,0.002678,0.000431,4.070354
22000,0.0324,0.013523,0.002678,0.000431,4.033567
23000,0.0324,0.013523,0.002678,0.000431,4.055663
24000,0.0324,0.013523,0.002678,0.000431,4.037328
25000,0.0324,0.013523,0.002678,0.000431,4.073879
26000,0.0324,0.013523,0.002678,0.000431,4.068826
27000,0.0324,0.013523,0.002678,0.000431,4.064830
28000,0.0324,0.013523,0.002678,0.000431,4.078345
29000,0.0324,0.013523,0.002678,0.000431,4.044027
30000,0.0324,0.013523,0.002678,0.000431,3.997604
31000,0.0324,0.013523,0.002678,0.000431,4.034625
32000,0.0324,0.013523,0.002678,0.000431,4.081754
33000,0.0324,0.013523,0.002678,0.000431,4.005360
34000,0.0324,0.013523,0.002678,0.000431,4.078698
35000,0.0324,0.013523,0.002678,0.000431,4.048258
36000,0.0324,0.013523,0.002678,0.000431,4.093036
37000,0.0324,0.013523,0.002678,0.000431,4.032980
38000,0.0324,0.013523,0.002678,0.000431,4.063184
39000,0.0324,0.013523,0.002678,0.000431,4.057190
40000,0.0324,0.013523,0.002678,0.000431,4.066005
41000,0.0324,0.013523,0.002678,0.000431,4.072939
42000,0.0324,0.013523,0.002678,0.000431,4.004538
43000,0.0324,0.013523,0.002678,0.000431,4.084104
44000,0.0324,0.013523,0.002678,0.000431,4.051549
45000,0.0324,0.013523,0.002678,0.000431,4.065065
46000,0.0324,0.013523,0.002678,0.000431,4.057778
47000,0.0324,0.013523,0.002678,0.000431,4.042969
48000,0.0324,0.013523,0.002678,0.000431,4.079286
49000,0.0324,0.013523,0.002678,0.000431,4.071764
50000,0.0324,0.013523,0.002678,0.000431,4.062832
51000,0.0324,0.013523,0.002678,0.000431,4.041794
52000,0.0324,0.013523,0.002678,0.000431,4.057425
53000,0.0324,0.013523,0.002678,0.000431,4.100323
54000,0.0324,0.013523,0.002678,0.000431,4.018524
55000,0.0324,0.013523,0.002678,0.000431,4.070471
56000,0.0324,0.013523,0.002678,0.000431,4.055663
57000,0.0324,0.013523,0.002678,0.000431,4.023930
58000,0.0324,0.013523,0.002678,0.000431,3.994783
59000,0.0324,0.013523,0.002678,0.000431,4.069883
60000,0.0324,0.013523,0.002678,0.000431,4.048376
61000,0.0324,0.013523,0.002678,0.000431,4.076112
62000,0.0324,0.013523,0.002678,0.000431,4.032039
63000,0.0324,0.013523,0.002678,0.000431,4.055663
64000,0.0324,0.013523,0.002678,0.000431,4.029336
65000,0.0324,0.013523,0.002678,0.000431,4.045203
66000,0.0324,0.013523,0.002678,0.000431,4.079521
67000,0.0324,0.013523,0.002678,0.000431,4.088923
68000,0.0324,0.013523,0.002678,0.000431,4.066475
69000,0.0324,0.013523,0.002678,0.000431,3.992785
70000,0.0324,0.013523,0.002678,0.000431,4.069178
71000,0.0324,0.013523,0.002678,0.000431,4.090568
72000,0.0324,0.013523,0.002678,0.000431,4.074585
73000,0.0324,0.013523,0.002678,0.000431,4.090098
74000,0.0324,0.013523,0.002678,0.000431,4.051784
75000,0.0324,0.013523,0.002678,0.000431,4.053900
76000,0.0324,0.013523,0.002678,0.000431,4.022167
77000,0.0324,0.013523,0.002678,0.000431,4.022755
78000,0.0324,0.013523,0.002678,0.000431,4.092801
79000,0.0324,0.013523,0.002678,0.000431,4.087630
80000,0.0324,0.013523,0.002678,0.000431,4.070471
81000,0.0324,0.013523,0.002678,0.000431,4.078933
82000,0.0324,0.013523,0.002678,0.000431,4.067650
83000,0.0324,0.013523,0.002678,0.000431,4.053312
84000,0.0324,0.013523,0.002678,0.000431,4.067063
85000,0.0324,0.013523,0.002678,0.000431,4.042617
86000,0.0324,0.013523,0.002678,0.000431,4.123946
87000,0.0324,0.013523,0.002678,0.000431,4.055780
88000,0.0324,0.013523,0.002678,0.000431,4.111018
89000,0.0324,0.013523,0.002678,0.000431,4.092801
90000,0.0324,0.013523,0.002678,0.000431,4.019111
91000,0.0324,0.013523,0.002678,0.000431,4.071059
92000,0.0324,0.013523,0.002678,0.000431,4.024988
93000,0.0324,0.013523,0.002678,0.000431,4.094564
94000,0.0324,0.013523,0.002678,0.000431,4.030629
95000,0.0324,0.013523,0.002678,0.000431,4.067415
96000,0.0324,0.013523,0.002678,0.000431,4.111959
97000,0.0324,0.013523,0.002678,0.000431,4.016643
98000,0.0324,0.013523,0.002678,0.000431,4.058131
99000,0.0324,0.013523,0.002678,0.000431,4.030747
100000,0.0324,0.013523,0.002678,0.000431,4.060599
101000,0.0324,0.013523,0.002678,0.000431,4.039091
102000,0.0324,0.013523,0.002678,0.000431,4.033685
103000,0.0324,0.013523,0.002678,0.000431,4.059894
104000,0.0324,0.013523,0.002678,0.000431,4.030511
105000,0.0324,0.013523,0.002678,0.000431,4.083634
106000,0.0324,0.013523,0.002678,0.000431,4.033215
107000,0.0324,0.013523,0.002678,0.000431,4.056955
108000,0.0324,0.013523,0.002678,0.000431,3.991845
109000,0.0324,0.013523,0.002678,0.000431,4.034743
110000,0.0324,0.013523,0.002678,0.000431,4.009474
111000,0.0324,0.013523,0.002678,0.000431,3.967164
112000,0.0324,0.013523,0.002678,0.000431,3.936019
113000,0.0324,0.013523,0.002678,0.000431,3.888655
114000,0.0324,0.013523,0.002678,0.000431,3.812732
115000,0.0324,0.013523,0.002678,0.000431,3.805327
116000,0.0324,0.013523,0.002678,0.000431,3.682981
117000,0.0324,0.013523,0.002678,0.000431,3.617753
118000,0.0324,0.013523,0.002678,0.000431,3.475543
119000,0.0324,0.013523,0.002678,0.000431,3.415016
120000,0.0324,0.013523,0.002678,0.000431,3.261525
121000,0.0324,0.013523,0.002678,0.000431,3.115320
122000,0.0324,0.013523,0.002678,0.000431,2.970525
123000,0.0324,0.013523,0.002678,0.000431,2.904356
124000,0.0324,0.013523,0.002678,0.000431,2.750865
125000,0.0324,0.013523,0.002678,0.000431,2.690690
126000,0.0324,0.013523,0.002678,0.000431,2.490305
127000,0.0324,0.013523,0.002678,0.000431,2.447172
128000,0.0324,0.013523,0.002678,0.000431,2.353854
129000,0.0324,0.013523,0.002678,0.000431,2.266178
130000,0.0324,0.013523,0.002678,0.000431,2.223868
131000,0.0324,0.013523,0.002678,0.000431,2.107045
132000,0.0324,0.013523,0.002678,0.000431,2.091296
133000,0.0324,0.013523,0.002678,0.000431,1.997391
134000,0.0324,0.013523,0.002678,0.000431,1.950028
135000,0.0324,0.013523,0.002678,0.000431,1.838846
136000,0.0324,0.013523,0.002678,0.000431,1.825213
137000,0.0324,0.013523,0.002678,0.000431,1.723786
138000,0.0324,0.013523,0.002678,0.000431,1.697342
139000,0.0324,0.013523,0.002678,0.000431,1.628941
140000,0.0324,0.013523,0.002678,0.000431,1.567943
141000,0.0324,0.013523,0.002678,0.000431,1.500130
142000,0.0324,0.013523,0.002678,0.000431,1.487084
143000,0.0324,0.013523,0.002678,0.000431,1.422914
144000,0.0324,0.013523,0.002678,0.000431,1.351574
145000,0.0324,0.013523,0.002678,0.000431,1.329949
146000,0.0324,0.013523,0.002678,0.000431,1.267071
147000,0.0324,0.013523,0.002678,0.000431,1.231930
148000,0.0324,0.013523,0.002678,0.000431,1.181393
149000,0.0324,0.013523,0.002678,0.000431,1.112992
150000,0.0324,0.013523,0.002678,0.000431,1.093952
151000,0.0324,0.013523,0.002678,0.000431,1.052817
152000,0.0324,0.013523,0.002678,0.000431,1.006511
153000,0.0324,0.013523,0.002678,0.000431,0.977599
154000,0.0324,0.013523,0.002678,0.000431,0.917307
155000,0.0324,0.013523,0.002678,0.000431,0.890041
156000,0.0324,0.013523,0.002678,0.000431,0.856780
157000,0.0324,0.013523,0.002678,0.000431,0.811650
158000,0.0324,0.013523,0.002678,0.000431,0.773570
159000,0.0324,0.013523,0.002678,0.000431,0.767929
160000,0.0324,0.013523,0.002678,0.000431,0.726207
161000,0.0324,0.013523,0.002678,0.000431,0.702113
162000,0.0324,0.013523,0.002678,0.000431,0.665327
163000,0.0324,0.013523,0.002678,0.000431,0.646993
164000,0.0324,0.013523,0.002678,0.000431,0.617963
165000,0.0324,0.013523,0.002678,0.000431,0.572480
166000,0.0324,0.013523,0.002678,0.000431,0.552618
167000,0.0324,0.013523,0.002678,0.000431,0.538632
168000,0.0324,0.013523,0.002678,0.000431,0.509250
169000,0.0324,0.013523,0.002678,0.000431,0.495146
170000,0.0324,0.013523,0.002678,0.000431,0.472816
171000,0.0324,0.013523,0.002678,0.000431,0.454364
172000,0.0324,0.013523,0.002678,0.000431,0.434502
173000,0.0324,0.013523,0.002678,0.000431,0.407118
174000,0.0324,0.013523,0.002678,0.000431,0.393954
175000,0.0324,0.013523,0.002678,0.000431,0.374210
176000,0.0324,0.013523,0.002678,0.000431,0.357051
177000,0.0324,0.013523,0.002678,0.000431,0.353877
178000,0.0324,0.013523,0.002678,0.000431,0.332840
179000,0.0324,0.013523,0.002678,0.000431,0.318854
180000,0.0324,0.013523,0.002678,0.000431,0.304516
181000,0.0324,0.013523,0.002678,0.000431,0.295701
182000,0.0324,0.013523,0.002678,0.000431,0.286064
183000,0.0324,0.013523,0.002678,0.000431,0.264203
184000,0.0324,0.013523,0.002678,0.000431,0.254684
185000,0.0324,0.013523,0.002678,0.000431,0.249395
186000,0.0324,0.013523,0.002678,0.000431,0.236114
187000,0.0324,0.013523,0.002678,0.000431,0.228240
188000,0.0324,0.013523,0.002678,0.000431,0.215312
189000,0.0324,0.013523,0.002678,0.000431,0.200973
190000,0.0324,0.013523,0.002678,0.000431,0.197565
191000,0.0324,0.013523,0.002678,0.000431,0.197330
192000,0.0324,0.013523,0.002678,0.000431,0.178878
193000,0.0324,0.013523,0.002678,0.000431,0.175117
194000,0.0324,0.013523,0.002678,0.000431,0.165715
195000,0.0324,0.013523,0.002678,0.000431,0.156548
196000,0.0324,0.013523,0.002678,0.000431,0.153139
197000,0.0324,0.013523,0.002678,0.000431,0.144560
198000,0.0324,0.013523,0.002678,0.000431,0.140211
199000,0.0324,0.013523,0.002678,0.000431,0.132337
200000,0.0324,0.013523,0.002678,0.000431,0.129516
201000,0.0324,0.013523,0.002678,0.000431,0.124462
202000,0.0324,0.013523,0.002678,0.000431,0.118586
203000,0.0324,0.013523,0.002678,0.000431,0.111299
204000,0.0324,0.013523,0.002678,0.000431,0.106245
205000,0.0324,0.013523,0.002678,0.000431,0.105775
206000,0.0324,0.013523,0.002678,0.000431,0.098959
207000,0.0324,0.013523,0.002678,0.000431,0.097431
208000,0.0324,0.013523,0.002678,0.000431,0.096138
209000,0.0324,0.013523,0.002678,0.000431,0.087911
210000,0.0324,0.013523,0.002678,0.000431,0.084033
211000,0.0324,0.013523,0.002678,0.000431,0.081917
212000,0.0324,0.013523,0.002678,0.000431,0.080154
213000,0.0324,0.013523,0.002678,0.000431,0.077804
214000,0.0324,0.013523,0.002678,0.000431,0.072045
215000,0.0324,0.013523,0.002678,0.000431,0.069694
216000,0.0324,0.013523,0.002678,0.000431,0.066874
217000,0.0324,0.013523,0.002678,0.000431,0.068049
218000,0.0324,0.013523,0.002678,0.000431,0.063230
219000,0.0324,0.013523,0.002678,0.000431,0.060762
220000,0.0324,0.013523,0.002678,0.000431,0.057354
221000,0.0324,0.013523,0.002678,0.000431,0.056178
222000,0.0324,0.013523,0.002678,0.000431,0.056178
223000,0.0324,0.013523,0.002678,0.000431,0.053593
224000,0.0324,0.013523,0.002678,0.000431,0.052065
225000,0.0324,0.013523,0.002678,0.000431,0.048422
226000,0.0324,0.013523,0.002678,0.000431,0.047364
227000,0.0324,0.013523,0.002678,0.000431,0.046306
228000,0.0324,0.013523,0.002678,0.000431,0.045131
229000,0.0324,0.013523,0.002678,0.000431,0.046189
230000,0.0324,0.013523,0.002678,0.000431,0.043250
231000,0.0324,0.013523,0.002678,0.000431,0.038314
232000,0.0324,0.013523,0.002678,0.000431,0.037609
233000,0.0324,0.013523,0.002678,0.000431,0.036316
234000,0.0324,0.013523,0.002678,0.000431,0.037256
235000,0.0324,0.013523,0.002678,0.000431,0.035729
236000,0.0324,0.013523,0.002678,0.000431,0.036199
237000,0.0324,0.013523,0.002678,0.000431,0.033848
238000,0.0324,0.013523,0.002678,0.000431,0.033025
239000,0.0324,0.013523,0.002678,0.000431,0.031027
240000,0.0324,0.013523,0.002678,0.000431,0.031615
241000,0.0324,0.013523,0.002678,0.000431,0.030910
242000,0.0324,0.013523,0.002678,0.000431,0.028912
243000,0.0324,0.013523,0.002678,0.000431,0.027267
244000,0.0324,0.013523,0.002678,0.000431,0.027737
245000,0.0324,0.013523,0.002678,0.000431,0.026209
246000,0.0324,0.013523,0.002678,0.000431,0.025739
247000,0.0324,0.013523,0.002678,0.000431,0.025739
248000,0.0324,0.013523,0.002678,0.000431,0.023976
249000,0.0324,0.013523,0.002678,0.000431,0.024211
250000,0.0324,0.013523,0.002678,0.000431,0.026561
251000,0.0324,0.013523,0.002678,0.000431,0.022448
252000,0.0324,0.013523,0.002678,0.000431,0.021508
253000,0.0324,0.013523,0.002678,0.000431,0.021978
254000,0.0324,0.013523,0.002678,0.000431,0.021978
255000,0.0324,0.013523,0.002678,0.000431,0.021390
256000,0.0324,0.013523,0.002678,0.000431,0.018452
257000,0.0324,0.013523,0.002678,0.000431,0.019157
258000,0.0324,0.013523,0.002678,0.000431,0.018334
259000,0.0324,0.013523,0.002678,0.000431,0.019510
260000,0.0324,0.013523,0.002678,0.000431,0.018217
261000,0.0324,0.013523,0.002678,0.000431,0.017277
262000,0.0324,0.013523,0.002678,0.000431,0.016571
263000,0.0324,0.013523,0.002678,0.000431,0.016689
264000,0.0324,0.013523,0.002678,0.000431,0.017629
265000,0.0324,0.013523,0.002678,0.000431,0.015631
266000,0.0324,0.013523,0.002678,0.000431,0.013281
267000,0.0324,0.013523,0.002678,0.000431,0.014221
268000,0.0324,0.013523,0.002678,0.000431,0.015984
269000,0.0324,0.013523,0.002678,0.000431,0.014573
270000,0.0324,0.013523,0.002678,0.000431,0.013163
271000,0.0324,0.013523,0.002678,0.000431,0.013163
272000,0.0324,0.013523,0.002678,0.000431,0.013516
273000,0.0324,0.013523,0.002678,0.000431,0.013633
274000,0.0324,0.013523,0.002678,0.000431,0.013398
275000,0.0324,0.013523,0.002678,0.000431,0.011165
276000,0.0324,0.013523,0.002678,0.000431,0.011518
277000,0.0324,0.013523,0.002678,0.000431,0.010813
278000,0.0324,0.013523,0.002678,0.000431,0.011048
279000,0.0324,0.013523,0.002678,0.000431,0.012458
280000,0.0324,0.013523,0.002678,0.000431,0.011283
281000,0.0324,0.013523,0.002678,0.000431,0.011283
282000,0.0324,0.013523,0.002678,0.000431,0.010460
283000,0.0324,0.013523,0.002678,0.000431,0.010930
284000,0.0324,0.013523,0.002678,0.000431,0.011400
285000,0.0324,0.013523,0.002678,0.000431,0.009990
286000,0.0324,0.013523,0.002678,0.000431,0.010930
287000,0.0324,0.013523,0.002678,0.000431,0.010930
288000,0.0324,0.013523,0.002678,0.000431,0.009872
289000,0.0324,0.013523,0.002678,0.000431,0.009990
290000,0.0324,0.013523,0.002678,0.000431,0.010225
291000,0.0324,0.013523,0.002678,0.000431,0.008462
292000,0.0324,0.013523,0.002678,0.000431,0.009520
293000,0.0324,0.013523,0.002678,0.000431,0.010225
294000,0.0324,0.013523,0.002678,0.000431,0.009755
295000,0.0324,0.013523,0.002678,0.000431,0.009285
296000,0.0324,0.013523,0.002678,0.000431,0.009167
297000,0.0324,0.013523,0.002678,0.000431,0.010460
298000,0.0324,0.013523,0.002678,0.000431,0.009872
299000,0.0324,0.013523,0.002678,0.000431,0.007639
300000,0.0324,0.013523,0.002678,0.000431,0.007287
301000,0.0324,0.013523,0.002678,0.000431,0.009050
302000,0.0324,0.013523,0.002678,0.000431,0.008580
303000,0.0324,0.013523,0.002678,0.000431,0.008932
304000,0.0324,0.013523,0.002678,0.000431,0.008462
305000,0.0324,0.013523,0.002678,0.000431,0.007874
306000,0.0324,0.013523,0.002678,0.000431,0.007287
307000,0.0324,0.013523,0.002678,0.000431,0.007992
308000,0.0324,0.013523,0.002678,0.000431,0.007874
309000,0.0324,0.013523,0.002678,0.000431,0.007522
310000,0.0324,0.013523,0.002678,0.000431,0.007639
311000,0.0324,0.013523,0.002678,0.000431,0.007404
312000,0.0324,0.013523,0.002678,0.000431,0.006699
313000,0.0324,0.013523,0.002678,0.000431,0.008580
314000,0.0324,0.013523,0.002678,0.000431,0.007287
315000,0.0324,0.013523,0.002678,0.000431,0.007757
316000,0.0324,0.013523,0.002678,0.000431,0.007992
317000,0.0324,0.013523,0.002678,0.000431,0.007052
318000,0.0324,0.013523,0.002678,0.000431,0.006934
319000,0.0324,0.013523,0.002678,0.000431,0.006699
320000,0.0324,0.013523,0.002678,0.000431,0.006817
321000,0.0324,0.013523,0.002678,0.000431,0.006699
322000,0.0324,0.013523,0.002678,0.000431,0.005994
323000,0.0324,0.013523,0.002678,0.000431,0.006111
324000,0.0324,0.013523,0.002678,0.000431,0.006699
325000,0.0324,0.013523,0.002678,0.000431,0.007052
326000,0.0324,0.013523,0.002678,0.000431,0.006347
327000,0.0324,0.013523,0.002678,0.000431,0.007404
328000,0.0324,0.013523,0.002678,0.000431,0.006347
329000,0.0324,0.013523,0.002678,0.000431,0.006934
330000,0.0324,0.013523,0.002678,0.000431,0.006111
331000,0.0324,0.013523,0.002678,0.000431,0.005406
332000,0.0324,0.013523,0.002678,0.000431,0.006229
333000,0.0324,0.013523,0.002678,0.000431,0.005171
334000,0.0324,0.013523,0.002678,0.000431,0.006464
335000,0.0324,0.013523,0.002678,0.000431,0.005524
336000,0.0324,0.013523,0.002678,0.000431,0.005759
337000,0.0324,0.013523,0.002678,0.000431,0.005171
338000,0.0324,0.013523,0.002678,0.000431,0.005171
339000,0.0324,0.013523,0.002678,0.000431,0.006229
340000,0.0324,0.013523,0.002678,0.000431,0.005171
341000,0.0324,0.013523,0.002678,0.000431,0.004936
342000,0.0324,0.013523,0.002678,0.000431,0.005524
343000,0.0324,0.013523,0.002678,0.000431,0.005171
344000,0.0324,0.013523,0.002678,0.000431,0.005054
345000,0.0324,0.013523,0.002678,0.000431,0.005171
346000,0.0324,0.013523,0.002678,0.000431,0.004466
347000,0.0324,0.013523,0.002678,0.000431,0.005171
348000,0.0324,0.013523,0.002678,0.000431,0.004466
349000,0.0324,0.013523,0.002678,0.000431,0.004819
350000,0.0324,0.013523,0.002678,0.000431,0.004113
351000,0.0324,0.013523,0.002678,0.000431,0.004819
352000,0.0324,0.013523,0.002678,0.000431,0.004349
353000,0.0324,0.013523,0.002678,0.000431,0.005171
354000,0.0324,0.013523,0.002678,0.000431,0.004819
355000,0.0324,0.013523,0.002678,0.000431,0.004231
356000,0.0324,0.013523,0.002678,0.000431,0.004701
357000,0.0324,0.013523,0.002678,0.000431,0.004701
358000,0.0324,0.013523,0.002678,0.000431,0.004584
359000,0.0324,0.013523,0.002678,0.000431,0.004349
360000,0.0324,0.013523,0.002678,0.000431,0.004819
361000,0.0324,0.013523,0.002678,0.000431,0.003878
362000,0.0324,0.013523,0.002678,0.000431,0.004936
363000,0.0324,0.013523,0.002678,0.000431,0.004349
364000,0.0324,0.013523,0.002678,0.000431,0.004701
365000,0.0324,0.013523,0.002678,0.000431,0.003996
366000,0.0324,0.013523,0.002678,0.000431,0.004819
367000,0.0324,0.013523,0.002678,0.000431,0.005054
368000,0.0324,0.013523,0.002678,0.000431,0.004231
369000,0.0324,0.013523,0.002678,0.000431,0.004466
370000,0.0324,0.013523,0.002678,0.000431,0.004231
371000,0.0324,0.013523,0.002678,0.000431,0.003761
372000,0.0324,0.013523,0.002678,0.000431,0.003643
373000,0.0324,0.013523,0.002678,0.000431,0.003878
374000,0.0324,0.013523,0.002678,0.000431,0.004113
375000,0.0324,0.013523,0.002678,0.000431,0.004231
376000,0.0324,0.013523,0.002678,0.000431,0.003643
377000,0.0324,0.013523,0.002678,0.000431,0.004113
378000,0.0324,0.013523,0.002678,0.000431,0.003878
379000,0.0324,0.013523,0.002678,0.000431,0.004819
380000,0.0324,0.013523,0.002678,0.000431,0.004584
381000,0.0324,0.013523,0.002678,0.000431,0.004349
382000,0.0324,0.013523,0.002678,0.000431,0.003761
383000,0.0324,0.013523,0.002678,0.000431,0.003643
384000,0.0324,0.013523,0.002678,0.000431,0.003878
385000,0.0324,0.013523,0.002678,0.000431,0.003996
386000,0.0324,0.013523,0.002678,0.000431,0.004113
387000,0.0324,0.013523,0.002678,0.000431,0.003526
388000,0.0324,0.013523,0.002678,0.000431,0.003996
389000,0.0324,0.013523,0.002678,0.000431,0.004113
390000,0.0324,0.013523,0.002678,0.000431,0.003291
391000,0.0324,0.013523,0.002678,0.000431,0.003526
392000,0.0324,0.013523,0.002678,0.000431,0.003996
393000,0.0324,0.013523,0.002678,0.000431,0.003056
394000,0.0324,0.013523,0.002678,0.000431,0.003056
395000,0.0324,0.013523,0.002678,0.000431,0.003878
396000,0.0324,0.013523,0.002678,0.000431,0.003291
397000,0.0324,0.013523,0.002678,0.000431,0.003761
398000,0.0324,0.013523,0.002678,0.000431,0.003878
399000,0.0324,0.013523,0.002678,0.000431,0.003878
400000,0.0324,0.013523,0.002678,0.000431,0.003408
401000,0.0324,0.013523,0.002678,0.000431,0.003761
402000,0.0324,0.013523,0.002678,0.000431,0.003526
403000,0.0324,0.013523,0.002678,0.000431,0.003291
404000,0.0324,0.013523,0.002678,0.000431,0.003056
405000,0.0324,0.013523,0.002678,0.000431,0.004113
406000,0.0324,0.013523,0.002678,0.000431,0.003408
407000,0.0324,0.013523,0.002678,0.000431,0.003291
408000,0.0324,0.013523,0.002678,0.000431,0.003291
409000,0.0324,0.013523,0.002678,0.000431,0.002703
410000,0.0324,0.013523,0.002678,0.000431,0.003173
411000,0.0324,0.013523,0.002678,0.000431,0.002821
412000,0.0324,0.013523,0.002678,0.000431,0.002938
413000,0.0324,0.013523,0.002678,0.000431,0.003643
414000,0.0324,0.013523,0.002678,0.000431,0.003291
415000,0.0324,0.013523,0.002678,0.000431,0.003056
416000,0.0324,0.013523,0.002678,0.000431,0.003408
417000,0.0324,0.013523,0.002678,0.000431,0.003291
418000,0.0324,0.013523,0.002678,0.000431,0.003291
419000,0.0324,0.013523,0.002678,0.000431,0.003173
420000,0.0324,0.013523,0.002678,0.000431,0.003056
421000,0.0324,0.013523,0.002678,0.000431,0.003291
422000,0.0324,0.013523,0.002678,0.000431,0.003408
423000,0.0324,0.013523,0.002678,0.000431,0.003643
424000,0.0324,0.013523,0.002678,0.000431,0.003643
425000,0.0324,0.013523,0.002678,0.000431,0.003761
426000,0.0324,0.013523,0.002678,0.000431,0.003761
427000,0.0324,0.013523,0.002678,0.000431,0.003173
428000,0.0324,0.013523,0.002678,0.000431,0.003526
429000,0.0324,0.013523,0.002678,0.000431,0.003761
430000,0.0324,0.013523,0.002678,0.000431,0.003291
431000,0.0324,0.013523,0.002678,0.000431,0.003526
432000,0.0324,0.013523,0.002678,0.000431,0.002586
433000,0.0324,0.013523,0.002678,0.000431,0.002703
434000,0.0324,0.013523,0.002678,0.000431,0.002703
435000,0.0324,0.013523,0.002678,0.000431,0.003056
436000,0.0324,0.013523,0.002678,0.000431,0.002703
437000,0.0324,0.013523,0.002678,0.000431,0.002703
438000,0.0324,0.013523,0.002678,0.000431,0.002233
439000,0.0324,0.013523,0.002678,0.000431,0.002351
440000,0.0324,0.013523,0.002678,0.000431,0.002233
441000,0.0324,0.013523,0.002678,0.000431,0.002468
442000,0.0324,0.013523,0.002678,0.000431,0.002233
443000,0.0324,0.013523,0.002678,0.000431,0.002351
444000,0.0324,0.013523,0.002678,0.000431,0.002468
445000,0.0324,0.013523,0.002678,0.000431,0.002351
446000,0.0324,0.013523,0.002678,0.000431,0.002468
447000,0.0324,0.013523,0.002678,0.000431,0.002468
448000,0.0324,0.013523,0.002678,0.000431,0.002938
449000,0.0324,0.013523,0.002678,0.000431,0.002351
450000,0.0324,0.013523,0.002678,0.000431,0.002468
451000,0.0324,0.013523,0.002678,0.000431,0.001763
452000,0.0324,0.013523,0.002678,0.000431,0.002351
453000,0.0324,0.013523,0.002678,0.000431,0.002468
454000,0.0324,0.013523,0.002678,0.000431,0.001880
455000,0.0324,0.013523,0.002678,0.000431,0.002586
456000,0.0324,0.013523,0.002678,0.000431,0.002468
457000,0.0324,0.013523,0.002678,0.000431,0.002703
458000,0.0324,0.013523,0.002678,0.000431,0.002703
459000,0.0324,0.013523,0.002678,0.000431,0.002703
460000,0.0324,0.013523,0.002678,0.000431,0.002586
461000,0.0324,0.013523,0.002678,0.000431,0.002351
462000,0.0324,0.013523,0.002678,0.000431,0.001645
463000,0.0324,0.013523,0.002678,0.000431,0.001880
464000,0.0324,0.013523,0.002678,0.000431,0.001763
465000,0.0324,0.013523,0.002678,0.000431,0.001763
466000,0.0324,0.013523,0.002678,0.000431,0.001763
467000,0.0324,0.013523,0.002678,0.000431,0.001058
468000,0.0324,0.013523,0.002678,0.000431,0.001528
469000,0.0324,0.013523,0.002678,0.000431,0.001880
470000,0.0324,0.013523,0.002678,0.000431,0.001998
471000,0.0324,0.013523,0.002678,0.000431,0.001880
472000,0.0324,0.013523,0.002678,0.000431,0.001880
473000,0.0324,0.013523,0.002678,0.000431,0.001998
474000,0.0324,0.013523,0.002678,0.000431,0.001645
475000,0.0324,0.013523,0.002678,0.000431,0.001998
476000,0.0324,0.013523,0.002678,0.000431,0.001763
477000,0.0324,0.013523,0.002678,0.000431,0.001645
478000,0.0324,0.013523,0.002678,0.000431,0.001880
479000,0.0324,0.013523,0.002678,0.000431,0.001763
480000,0.0324,0.013523,0.002678,0.000431,0.002116
481000,0.0324,0.013523,0.002678,0.000431,0.001763
482000,0.0324,0.013523,0.002678,0.000431,0.001998
483000,0.0324,0.013523,0.002678,0.000431,0.001645
484000,0.0324,0.013523,0.002678,0.000431,0.001410
485000,0.0324,0.013523,0.002678,0.000431,0.001763
486000,0.0324,0.013523,0.002678,0.000431,0.002116
487000,0.0324,0.013523,0.002678,0.000431,0.001763
488000,0.0324,0.013523,0.002678,0.000431,0.001763
489000,0.0324,0.013523,0.002678,0.000431,0.001410
490000,0.0324,0.013523,0.002678,0.000431,0.002233
491000,0.0324,0.013523,0.002678,0.000431,0.001763
492000,0.0324,0.013523,0.002678,0.000431,0.001645
493000,0.0324,0.013523,0.002678,0.000431,0.001998
494000,0.0324,0.013523,0.002678,0.000431,0.001880
495000,0.0324,0.013523,0.002678,0.000431,0.001763
496000,0.0324,0.013523,0.002678,0.000431,0.001763
497000,0.0324,0.013523,0.002678,0.000431,0.001763
498000,0.0324,0.013523,0.002678,0.000431,0.001998
499000,0.0324,0.013523,0.002678,0.000431,0.001998
500000,0.0324,0.013523,0.002678,0.000431,0.001763
501000,0.0324,0.013523,0.002678,0.000431,0.001880
502000,0.0324,0.013523,0.002678,0.000431,0.001998
503000,0.0324,0.013523,0.002678,0.000431,0.001410
504000,0.0324,0.013523,0.002678,0.000431,0.002116
505000,0.0324,0.013523,0.002678,0.000431,0.001410
506000,0.0324,0.013523,0.002678,0.000431,0.001763
507000,0.0324,0.013523,0.002678,0.000431,0.001880
508000,0.0324,0.013523,0.002678,0.000431,0.001645
509000,0.0324,0.013523,0.002678,0.000431,0.002233
510000,0.0324,0.013523,0.002678,0.000431,0.001645
511000,0.0324,0.013523,0.002678,0.000431,0.001763
512000,0.0324,0.013523,0.002678,0.000431,0.001763
513000,0.0324,0.013523,0.002678,0.000431,0.001528
514000,0.0324,0.013523,0.002678,0.000431,0.001645
515000,0.0324,0.013523,0.002678,0.000431,0.001645
516000,0.0324,0.013523,0.002678,0.000431,0.001763
517000,0.0324,0.013523,0.002678,0.000431,0.001645
518000,0.0324,0.013523,0.002678,0.000431,0.001645
519000,0.0324,0.013523,0.002678,0.000431,0.001528
520000,0.0324,0.013523,0.002678,0.000431,0.001763
521000,0.0324,0.013523,0.002678,0.000431,0.001763
522000,0.0324,0.013523,0.002678,0.000431,0.001880
523000,0.0324,0.013523,0.002678,0.000431,0.001645
524000,0.0324,0.013523,0.002678,0.000431,0.001763
525000,0.0324,0.013523,0.002678,0.000431,0.001763
526000,0.0324,0.013523,0.002678,0.000431,0.001763
527000,0.0324,0.013523,0.002678,0.000431,0.001645
528000,0.0324,0.013523,0.002678,0.000431,0.001998
529000,0.0324,0.013523,0.002678,0.000431,0.001645
530000,0.0324,0.013523,0.002678,0.000431,0.001763
531000,0.0324,0.013523,0.002678,0.000431,0.001763
532000,0.0324,0.013523,0.002678,0.000431,0.001880
533000,0.0324,0.013523,0.002678,0.000431,0.001880
534000,0.0324,0.013523,0.002678,0.000431,0.001998
535000,0.0324,0.013523,0.002678,0.000431,0.001645
536000,0.0324,0.013523,0.002678,0.000431,0.001645
537000,0.0324,0.013523,0.002678,0.000431,0.001880
538000,0.0324,0.013523,0.002678,0.000431,0.001528
539000,0.0324,0.013523,0.002678,0.000431,0.001528
540000,0.0324,0.013523,0.002678,0.000431,0.001880
541000,0.0324,0.013523,0.002678,0.000431,0.001763
542000,0.0324,0.013523,0.002678,0.000431,0.001645
543000,0.0324,0.013523,0.002678,0.000431,0.001880
544000,0.0324,0.013523,0.002678,0.000431,0.001763
545000,0.0324,0.013523,0.002678,0.000431,0.001528
546000,0.0324,0.013523,0.002678,0.000431,0.001763
547000,0.0324,0.013523,0.002678,0.000431,0.001880
548000,0.0324,0.013523,0.002678,0.000431,0.001763
549000,0.0324,0.013523,0.002678,0.000431,0.001763
550000,0.0324,0.013523,0.002678,0.000431,0.001998
551000,0.0324,0.013523,0.002678,0.000431,0.001880
552000,0.0324,0.013523,0.002678,0.000431,0.001410
553000,0.0324,0.013523,0.002678,0.000431,0.001763
554000,0.0324,0.013523,0.002678,0.000431,0.001645
555000,0.0324,0.013523,0.002678,0.000431,0.001998
556000,0.0324,0.013523,0.002678,0.000431,0.002116
557000,0.0324,0.013523,0.002678,0.000431,0.001763
558000,0.0324,0.013523,0.002678,0.000431,0.001763
559000,0.0324,0.013523,0.002678,0.000431,0.001880
560000,0.0324,0.013523,0.002678,0.000431,0.001645
561000,0.0324,0.013523,0.002678,0.000431,0.001645
562000,0.0324,0.013523,0.002678,0.000431,0.001763
563000,0.0324,0.013523,0.002678,0.000431,0.001763
564000,0.0324,0.013523,0.002678,0.000431,0.001763
565000,0.0324,0.013523,0.002678,0.000431,0.001880
566000,0.0324,0.013523,0.002678,0.000431,0.001998
567000,0.0324,0.013523,0.002678,0.000431,0.001763
568000,0.0324,0.013523,0.002678,0.000431,0.001645
569000,0.0324,0.013523,0.002678,0.000431,0.001645
570000,0.0324,0.013523,0.002678,0.000431,0.001763
571000,0.0324,0.013523,0.002678,0.000431,0.001645
572000,0.0324,0.013523,0.002678,0.000431,0.002116
573000,0.0324,0.013523,0.002678,0.000431,0.001645
574000,0.0324,0.013523,0.002678,0.000431,0.001645
575000,0.0324,0.013523,0.002678,0.000431,0.001645
576000,0.0324,0.013523,0.002678,0.000431,0.001528
577000,0.0324,0.013523,0.002678,0.000431,0.001763
578000,0.0324,0.013523,0.002678,0.000431,0.001763
579000,0.0324,0.013523,0.002678,0.000431,0.001880
580000,0.0324,0.013523,0.002678,0.000431,0.001645
581000,0.0324,0.013523,0.002678,0.000431,0.001998
582000,0.0324,0.013523,0.002678,0.000431,0.001645
583000,0.0324,0.013523,0.002678,0.000431,0.001763
584000,0.0324,0.013523,0.002678,0.000431,0.001763
585000,0.0324,0.013523,0.002678,0.000431,0.001763
586000,0.0324,0.013523,0.002678,0.000431,0.001763
587000,0.0324,0.013523,0.002678,0.000431,0.001763
588000,0.0324,0.013523,0.002678,0.000431,0.001880
589000,0.0324,0.013523,0.002678,0.000431,0.001880
590000,0.0324,0.013523,0.002678,0.000431,0.001998
591000,0.0324,0.013523,0.002678,0.000431,0.002116
592000,0.0324,0.013523,0.002678,0.000431,0.001998
593000,0.0324,0.013523,0.002678,0.000431,0.001998
594000,0.0324,0.013523,0.002678,0.000431,0.001528
595000,0.0324,0.013523,0.002678,0.000431,0.001880
596000,0.0324,0.013523,0.002678,0.000431,0.001645
597000,0.0324,0.013523,0.002678,0.000431,0.001763
598000,0.0324,0.013523,0.002678,0.000431,0.001763
599000,0.0324,0.013523,0.002678,0.000431,0.001763
600000,0.0324,0.013523,0.002678,0.000431,0.001763
601000,0.0324,0.013523,0.002678,0.000431,0.001763
602000,0.0324,0.013523,0.002678,0.000431,0.001998
603000,0.0324,0.013523,0.002678,0.000431,0.001410
604000,0.0324,0.013523,0.002678,0.000431,0.001410
605000,0.0324,0.013523,0.002678,0.000431,0.001528
606000,0.0324,0.013523,0.002678,0.000431,0.001528
607000,0.0324,0.013523,0.002678,0.000431,0.001880
608000,0.0324,0.013523,0.002678,0.000431,0.001645
609000,0.0324,0.013523,0.002678,0.000431,0.001763
610000,0.0324,0.013523,0.002678,0.000431,0.001880
611000,0.0324,0.013523,0.002678,0.000431,0.001528
612000,0.0324,0.013523,0.002678,0.000431,0.001528
613000,0.0324,0.013523,0.002678,0.000431,0.001293
614000,0.0324,0.013523,0.002678,0.000431,0.001880
615000,0.0324,0.013523,0.002678,0.000431,0.001410
616000,0.0324,0.013523,0.002678,0.000431,0.001763
617000,0.0324,0.013523,0.002678,0.000431,0.001293
618000,0.0324,0.013523,0.002678,0.000431,0.001880
619000,0.0324,0.013523,0.002678,0.000431,0.001763
620000,0.0324,0.013523,0.002678,0.000431,0.001528
621000,0.0324,0.013523,0.002678,0.000431,0.001880
622000,0.0324,0.013523,0.002678,0.000431,0.001763
623000,0.0324,0.013523,0.002678,0.000431,0.001293
624000,0.0324,0.013523,0.002678,0.000431,0.001645
625000,0.0324,0.013523,0.002678,0.000431,0.001880
626000,0.0324,0.013523,0.002678,0.000431,0.001880
627000,0.0324,0.013523,0.002678,0.000431,0.001645
628000,0.0324,0.013523,0.002678,0.000431,0.001763
629000,0.0324,0.013523,0.002678,0.000431,0.001880
630000,0.0324,0.013523,0.002678,0.000431,0.001763
631000,0.0324,0.013523,0.002678,0.000431,0.001763
632000,0.0324,0.013523,0.002678,0.000431,0.001880
633000,0.0324,0.013523,0.002678,0.000431,0.001645
634000,0.0324,0.013523,0.002678,0.000431,0.001763
635000,0.0324,0.013523,0.002678,0.000431,0.001528
636000,0.0324,0.013523,0.002678,0.000431,0.002116
637000,0.0324,0.013523,0.002678,0.000431,0.001528
638000,0.0324,0.013523,0.002678,0.000431,0.001763
639000,0.0324,0.013523,0.002678,0.000431,0.001763
640000,0.0324,0.013523,0.002678,0.000431,0.001410
641000,0.0324,0.013523,0.002678,0.000431,0.001410
642000,0.0324,0.013523,0.002678,0.000431,0.001410
643000,0.0324,0.013523,0.002678,0.000431,0.001763
644000,0.0324,0.013523,0.002678,0.000431,0.001763
645000,0.0324,0.013523,0.002678,0.000431,0.001763
646000,0.0324,0.013523,0.002678,0.000431,0.001528
647000,0.0324,0.013523,0.002678,0.000431,0.001763
648000,0.0324,0.013523,0.002678,0.000431,0.001175
649000,0.0324,0.013523,0.002678,0.000431,0.001528
650000,0.0324,0.013523,0.002678,0.000431,0.001410
651000,0.0324,0.013523,0.002678,0.000431,0.001880
652000,0.0324,0.013523,0.002678,0.000431,0.001645
653000,0.0324,0.013523,0.002678,0.000431,0.001645
654000,0.0324,0.013523,0.002678,0.000431,0.002116
655000,0.0324,0.013523,0.002678,0.000431,0.001528
656000,0.0324,0.013523,0.002678,0.000431,0.001645
657000,0.0324,0.013523,0.002678,0.000431,0.001880
658000,0.0324,0.013523,0.002678,0.000431,0.001528
659000,0.0324,0.013523,0.002678,0.000431,0.001645
660000,0.0324,0.013523,0.002678,0.000431,0.001645
661000,0.0324,0.013523,0.002678,0.000431,0.001998
662000,0.0324,0.013523,0.002678,0.000431,0.001880
663000,0.0324,0.013523,0.002678,0.000431,0.001645
664000,0.0324,0.013523,0.002678,0.000431,0.001528
665000,0.0324,0.013523,0.002678,0.000431,0.001880
666000,0.0324,0.013523,0.002678,0.000431,0.001763
667000,0.0324,0.013523,0.002678,0.000431,0.001410
668000,0.0324,0.013523,0.002678,0.000431,0.001880
669000,0.0324,0.013523,0.002678,0.000431,0.001880
670000,0.0324,0.013523,0.002678,0.000431,0.001880
671000,0.0324,0.013523,0.002678,0.000431,0.001645
672000,0.0324,0.013523,0.002678,0.000431,0.001998
673000,0.0324,0.013523,0.002678,0.000431,0.001880
674000,0.0324,0.013523,0.002678,0.000431,0.001763
675000,0.0324,0.013523,0.002678,0.000431,0.001528
676000,0.0324,0.013523,0.002678,0.000431,0.001410
677000,0.0324,0.013523,0.002678,0.000431,0.001645
678000,0.0324,0.013523,0.002678,0.000431,0.001880
679000,0.0324,0.013523,0.002678,0.000431,0.001645
680000,0.0324,0.013523,0.002678,0.000431,0.001880
681000,0.0324,0.013523,0.002678,0.000431,0.001528
682000,0.0324,0.013523,0.002678,0.000431,0.001880
683000,0.0324,0.013523,0.002678,0.000431,0.001880
684000,0.0324,0.013523,0.002678,0.000431,0.001763
685000,0.0324,0.013523,0.002678,0.000431,0.001645
686000,0.0324,0.013523,0.002678,0.000431,0.001880
687000,0.0324,0.013523,0.002678,0.000431,0.001998
688000,0.0324,0.013523,0.002678,0.000431,0.001763
689000,0.0324,0.013523,0.002678,0.000431,0.001763
690000,0.0324,0.013523,0.002678,0.000431,0.001763
691000,0.0324,0.013523,0.002678,0.000431,0.001763
692000,0.0324,0.013523,0.002678,0.000431,0.001998
693000,0.0324,0.013523,0.002678,0.000431,0.001880
694000,0.0324,0.013523,0.002678,0.000431,0.001763
695000,0.0324,0.013523,0.002678,0.000431,0.001410
696000,0.0324,0.013523,0.002678,0.000431,0.001410
697000,0.0324,0.013523,0.002678,0.000431,0.001880
698000,0.0324,0.013523,0.002678,0.000431,0.001880
699000,0.0324,0.013523,0.002678,0.000431,0.001645
700000,0.0324,0.013523,0.002678,0.000431,0.001528
701000,0.0324,0.013523,0.002678,0.000431,0.001880
702000,0.0324,0.013523,0.002678,0.000431,0.001763
703000,0.0324,0.013523,0.002678,0.000431,0.001763
704000,0.0324,0.013523,0.002678,0.000431,0.001410
705000,0.0324,0.013523,0.002678,0.000431,0.001410
706000,0.0324,0.013523,0.002678,0.000431,0.001645
707000,0.0324,0.013523,0.002678,0.000431,0.001880
708000,0.0324,0.013523,0.002678,0.000431,0.001880
709000,0.0324,0.013523,0.002678,0.000431,0.001410
710000,0.0324,0.013523,0.002678,0.000431,0.001880
711000,0.0324,0.013523,0.002678,0.000431,0.001528
712000,0.0324,0.013523,0.002678,0.000431,0.001998
713000,0.0324,0.013523,0.002678,0.000431,0.001645
714000,0.0324,0.013523,0.002678,0.000431,0.001645
715000,0.0324,0.013523,0.002678,0.000431,0.001880
716000,0.0324,0.013523,0.002678,0.000431,0.001645
717000,0.0324,0.013523,0.002678,0.000431,0.001998
718000,0.0324,0.013523,0.002678,0.000431,0.001880
719000,0.0324,0.013523,0.002678,0.000431,0.001410
720000,0.0324,0.013523,0.002678,0.000431,0.001645
721000,0.0324,0.013523,0.002678,0.000431,0.001410
722000,0.0324,0.013523,0.002678,0.000431,0.001058
723000,0.0324,0.013523,0.002678,0.000431,0.001645
724000,0.0324,0.013523,0.002678,0.000431,0.001528
725000,0.0324,0.013523,0.002678,0.000431,0.001410
726000,0.0324,0.013523,0.002678,0.000431,0.001528
727000,0.0324,0.013523,0.002678,0.000431,0.001528
728000,0.0324,0.013523,0.002678,0.000431,0.001880
729000,0.0324,0.013523,0.002678,0.000431,0.002233
730000,0.0324,0.013523,0.002678,0.000431,0.001293
731000,0.0324,0.013523,0.002678,0.000431,0.001528
732000,0.0324,0.013523,0.002678,0.000431,0.001763
733000,0.0324,0.013523,0.002678,0.000431,0.001645
734000,0.0324,0.013523,0.002678,0.000431,0.001880
735000,0.0324,0.013523,0.002678,0.000431,0.001528
736000,0.0324,0.013523,0.002678,0.000431,0.001528
737000,0.0324,0.013523,0.002678,0.000431,0.001763
738000,0.0324,0.013523,0.002678,0.000431,0.001645
739000,0.0324,0.013523,0.002678,0.000431,0.001528
740000,0.0324,0.013523,0.002678,0.000431,0.001763
741000,0.0324,0.013523,0.002678,0.000431,0.001645
742000,0.0324,0.013523,0.002678,0.000431,0.001528
743000,0.0324,0.013523,0.002678,0.000431,0.001880
744000,0.0324,0.013523,0.002678,0.000431,0.001528
745000,0.0324,0.013523,0.002678,0.000431,0.001763
746000,0.0324,0.013523,0.002678,0.000431,0.001645
747000,0.0324,0.013523,0.002678,0.000431,0.001528
748000,0.0324,0.013523,0.002678,0.000431,0.001293
749000,0.0324,0.013523,0.002678,0.000431,0.001645
750000,0.0324,0.013523,0.002678,0.000431,0.001998
751000,0.0324,0.013523,0.002678,0.000431,0.001410
752000,0.0324,0.013523,0.002678,0.000431,0.001880
753000,0.0324,0.013523,0.002678,0.000431,0.001998
754000,0.0324,0.013523,0.002678,0.000431,0.001763
755000,0.0324,0.013523,0.002678,0.000431,0.001880
756000,0.0324,0.013523,0.002678,0.000431,0.001880
757000,0.0324,0.013523,0.002678,0.000431,0.001645
758000,0.0324,0.013523,0.002678,0.000431,0.001998
759000,0.0324,0.013523,0.002678,0.000431,0.001528
760000,0.0324,0.013523,0.002678,0.000431,0.001528
761000,0.0324,0.013523,0.002678,0.000431,0.002116
762000,0.0324,0.013523,0.002678,0.000431,0.001528
763000,0.0324,0.013523,0.002678,0.000431,0.001645
764000,0.0324,0.013523,0.002678,0.000431,0.001998
765000,0.0324,0.013523,0.002678,0.000431,0.001410
766000,0.0324,0.013523,0.002678,0.000431,0.001528
767000,0.0324,0.013523,0.002678,0.000431,0.001880
768000,0.0324,0.013523,0.002678,0.000431,0.001645
769000,0.0324,0.013523,0.002678,0.000431,0.001645
770000,0.0324,0.013523,0.002678,0.000431,0.001880
771000,0.0324,0.013523,0.002678,0.000431,0.001528
772000,0.0324,0.013523,0.002678,0.000431,0.001880
773000,0.0324,0.013523,0.002678,0.000431,0.001645
774000,0.0324,0.013523,0.002678,0.000431,0.001763
775000,0.0324,0.013523,0.002678,0.000431,0.001763
776000,0.0324,0.013523,0.002678,0.000431,0.001763
777000,0.0324,0.013523,0.002678,0.000431,0.001880
778000,0.0324,0.013523,0.002678,0.000431,0.001410
779000,0.0324,0.013523,0.002678,0.000431,0.001763
780000,0.0324,0.013523,0.002678,0.000431,0.001645
781000,0.0324,0.013523,0.002678,0.000431,0.001645
782000,0.0324,0.013523,0.002678,0.000431,0.002116
783000,0.0324,0.013523,0.002678,0.000431,0.001880
784000,0.0324,0.013523,0.002678,0.000431,0.001528
785000,0.0324,0.013523,0.002678,0.000431,0.001410
786000,0.0324,0.013523,0.002678,0.000431,0.001763
787000,0.0324,0.013523,0.002678,0.000431,0.001645
788000,0.0324,0.013523,0.002678,0.000431,0.001645
789000,0.0324,0.013523,0.002678,0.000431,0.001645
790000,0.0324,0.013523,0.002678,0.000431,0.002116
791000,0.0324,0.013523,0.002678,0.000431,0.001645
792000,0.0324,0.013523,0.002678,0.000431,0.001763
793000,0.0324,0.013523,0.002678,0.000431,0.001763
794000,0.0324,0.013523,0.002678,0.000431,0.001528
795000,0.0324,0.013523,0.002678,0.000431,0.001645
796000,0.0324,0.013523,0.002678,0.000431,0.001763
797000,0.0324,0.013523,0.002678,0.000431,0.001528
798000,0.0324,0.013523,0.002678,0.000431,0.001998
799000,0.0324,0.013523,0.002678,0.000431,0.001528
800000,0.0324,0.013523,0.002678,0.000431,0.001763
801000,0.0324,0.013523,0.002678,0.000431,0.001880
802000,0.0324,0.013523,0.002678,0.000431,0.001410
803000,0.0324,0.013523,0.002678,0.000431,0.001763
804000,0.0324,0.013523,0.002678,0.000431,0.001763
805000,0.0324,0.013523,0.002678,0.000431,0.001880
806000,0.0324,0.013523,0.002678,0.000431,0.001763
807000,0.0324,0.013523,0.002678,0.000431,0.001763
808000,0.0324,0.013523,0.002678,0.000431,0.001880
809000,0.0324,0.013523,0.002678,0.000431,0.001410
810000,0.0324,0.013523,0.002678,0.000431,0.001763
811000,0.0324,0.013523,0.002678,0.000431,0.001763
812000,0.0324,0.013523,0.002678,0.000431,0.001645
813000,0.0324,0.013523,0.002678,0.000431,0.001645
814000,0.0324,0.013523,0.002678,0.000431,0.001763
815000,0.0324,0.013523,0.002678,0.000431,0.001645
816000,0.0324,0.013523,0.002678,0.000431,0.001998
817000,0.0324,0.013523,0.002678,0.000431,0.001528
818000,0.0324,0.013523,0.002678,0.000431,0.001998
819000,0.0324,0.013523,0.002678,0.000431,0.001410
820000,0.0324,0.013523,0.002678,0.000431,0.001763
821000,0.0324,0.013523,0.002678,0.000431,0.001410
822000,0.0324,0.013523,0.002678,0.000431,0.001528
823000,0.0324,0.013523,0.002678,0.000431,0.001763
824000,0.0324,0.013523,0.002678,0.000431,0.001645
825000,0.0324,0.013523,0.002678,0.000431,0.001998
826000,0.0324,0.013523,0.002678,0.000431,0.001410
827000,0.0324,0.013523,0.002678,0.000431,0.001880
828000,0.0324,0.013523,0.002678,0.000431,0.001880
829000,0.0324,0.013523,0.002678,0.000431,0.001175
830000,0.0324,0.013523,0.002678,0.000431,0.001058
831000,0.0324,0.013523,0.002678,0.000431,0.001175
832000,0.0324,0.013523,0.002678,0.000431,0.001293
833000,0.0324,0.013523,0.002678,0.000431,0.001058
834000,0.0324,0.013523,0.002678,0.000431,0.001058
835000,0.0324,0.013523,0.002678,0.000431,0.001058
836000,0.0324,0.013523,0.002678,0.000431,0.001293
837000,0.0324,0.013523,0.002678,0.000431,0.001058
838000,0.0324,0.013523,0.002678,0.000431,0.000823
839000,0.0324,0.013523,0.002678,0.000431,0.001175
840000,0.0324,0.013523,0.002678,0.000431,0.001293
841000,0.0324,0.013523,0.002678,0.000431,0.000940
842000,0.0324,0.013523,0.002678,0.000431,0.001058
843000,0.0324,0.013523,0.002678,0.000431,0.001058
844000,0.0324,0.013523,0.002678,0.000431,0.001293
845000,0.0324,0.013523,0.002678,0.000431,0.001175
846000,0.0324,0.013523,0.002678,0.000431,0.001058
847000,0.0324,0.013523,0.002678,0.000431,0.001175
848000,0.0324,0.013523,0.002678,0.000431,0.000940
849000,0.0324,0.013523,0.002678,0.000431,0.001058
850000,0.0324,0.013523,0.002678,0.000431,0.001058
851000,0.0324,0.013523,0.002678,0.000431,0.001058
852000,0.0324,0.013523,0.002678,0.000431,0.001293
853000,0.0324,0.013523,0.002678,0.000431,0.000940
854000,0.0324,0.013523,0.002678,0.000431,0.001175
855000,0.0324,0.013523,0.002678,0.000431,0.000940
856000,0.0324,0.013523,0.002678,0.000431,0.000940
857000,0.0324,0.013523,0.002678,0.000431,0.001293
858000,0.0324,0.013523,0.002678,0.000431,0.001293
859000,0.0324,0.013523,0.002678,0.000431,0.000940
860000,0.0324,0.013523,0.002678,0.000431,0.001175
861000,0.0324,0.013523,0.002678,0.000431,0.001293
862000,0.0324,0.013523,0.002678,0.000431,0.001410
863000,0.0324,0.013523,0.002678,0.000431,0.000823
864000,0.0324,0.013523,0.002678,0.000431,0.001175
865000,0.0324,0.013523,0.002678,0.000431,0.001175
866000,0.0324,0.013523,0.002678,0.000431,0.001293
867000,0.0324,0.013523,0.002678,0.000431,0.001293
868000,0.0324,0.013523,0.002678,0.000431,0.001175
869000,0.0324,0.013523,0.002678,0.000431,0.001175
870000,0.0324,0.013523,0.002678,0.000431,0.000940
871000,0.0324,0.013523,0.002678,0.000431,0.001058
872000,0.0324,0.013523,0.002678,0.000431,0.001410
873000,0.0324,0.013523,0.002678,0.000431,0.001175
874000,0.0324,0.013523,0.002678,0.000431,0.001293
875000,0.0324,0.013523,0.002678,0.000431,0.001175
876000,0.0324,0.013523,0.002678,0.000431,0.001058
877000,0.0324,0.013523,0.002678,0.000431,0.001410
878000,0.0324,0.013523,0.002678,0.000431,0.000940
879000,0.0324,0.013523,0.002678,0.000431,0.001058
880000,0.0324,0.013523,0.002678,0.000431,0.001175
881000,0.0324,0.013523,0.002678,0.000431,0.001175
882000,0.0324,0.013523,0.002678,0.000431,0.001175
883000,0.0324,0.013523,0.002678,0.000431,0.001293
884000,0.0324,0.013523,0.002678,0.000431,0.001058
885000,0.0324,0.013523,0.002678,0.000431,0.001175
886000,0.0324,0.013523,0.002678,0.000431,0.001058
887000,0.0324,0.013523,0.002678,0.000431,0.001175
888000,0.0324,0.013523,0.002678,0.000431,0.001410
889000,0.0324,0.013523,0.002678,0.000431,0.001175
890000,0.0324,0.013523,0.002678,0.000431,0.001175
891000,0.0324,0.013523,0.002678,0.000431,0.001175
892000,0.0324,0.013523,0.002678,0.000431,0.001058
893000,0.0324,0.013523,0.002678,0.000431,0.000823
894000,0.0324,0.013523,0.002678,0.000431,0.001410
895000,0.0324,0.013523,0.002678,0.000431,0.000940
896000,0.0324,0.013523,0.002678,0.000431,0.001175
897000,0.0324,0.013523,0.002678,0.000431,0.000940
898000,0.0324,0.013523,0.002678,0.000431,0.001293
899000,0.0324,0.013523,0.002678,0.000431,0.001058
900000,0.0324,0.013523,0.002678,0.000431,0.001293
901000,0.0324,0.013523,0.002678,0.000431,0.001058
902000,0.0324,0.013523,0.002678,0.000431,0.001175
903000,0.0324,0.013523,0.002678,0.000431,0.000940
904000,0.0324,0.013523,0.002678,0.000431,0.001175
905000,0.0324,0.013523,0.002678,0.000431,0.001293
906000,0.0324,0.013523,0.002678,0.000431,0.001293
907000,0.0324,0.013523,0.002678,0.000431,0.001058
908000,0.0324,0.013523,0.002678,0.000431,0.000940
909000,0.0324,0.013523,0.002678,0.000431,0.001058
910000,0.0324,0.013523,0.002678,0.000431,0.001410
911000,0.0324,0.013523,0.002678,0.000431,0.000823
912000,0.0324,0.013523,0.002678,0.000431,0.001410
913000,0.0324,0.013523,0.002678,0.000431,0.000823
914000,0.0324,0.013523,0.002678,0.000431,0.001293
915000,0.0324,0.013523,0.002678,0.000431,0.000940
916000,0.0324,0.013523,0.002678,0.000431,0.001175
917000,0.0324,0.013523,0.002678,0.000431,0.001293
918000,0.0324,0.013523,0.002678,0.000431,0.000823
919000,0.0324,0.013523,0.002678,0.000431,0.001058
920000,0.0324,0.013523,0.002678,0.000431,0.001293
921000,0.0324,0.013523,0.002678,0.000431,0.001175
922000,0.0324,0.013523,0.002678,0.000431,0.001175
923000,0.0324,0.013523,0.002678,0.000431,0.001058
924000,0.0324,0.013523,0.002678,0.000431,0.001058
925000,0.0324,0.013523,0.002678,0.000431,0.001293
926000,0.0324,0.013523,0.002678,0.000431,0.001175
927000,0.0324,0.013523,0.002678,0.000431,0.000940
928000,0.0324,0.013523,0.002678,0.000431,0.001175
929000,0.0324,0.013523,0.002678,0.000431,0.001175
930000,0.0324,0.013523,0.002678,0.000431,0.001293
931000,0.0324,0.013523,0.002678,0.000431,0.001058
932000,0.0324,0.013523,0.002678,0.000431,0.001175
933000,0.0324,0.013523,0.002678,0.000431,0.001058
934000,0.0324,0.013523,0.002678,0.000431,0.001293
935000,0.0324,0.013523,0.002678,0.000431,0.001175
936000,0.0324,0.013523,0.002678,0.000431,0.001175
937000,0.0324,0.013523,0.002678,0.000431,0.000940
938000,0.0324,0.013523,0.002678,0.000431,0.001293
939000,0.0324,0.013523,0.002678,0.000431,0.001175
940000,0.0324,0.013523,0.002678,0.000431,0.001175
941000,0.0324,0.013523,0.002678,0.000431,0.001293
942000,0.0324,0.013523,0.002678,0.000431,0.001175
943000,0.0324,0.013523,0.002678,0.000431,0.001175
944000,0.0324,0.013523,0.002678,0.000431,0.001175
945000,0.0324,0.013523,0.002678,0.000431,0.001175
946000,0.0324,0.013523,0.002678,0.000431,0.001058
947000,0.0324,0.013523,0.002678,0.000431,0.001293
948000,0.0324,0.013523,0.002678,0.000431,0.001175
949000,0.0324,0.013523,0.002678,0.000431,0.001058
950000,0.0324,0.013523,0.002678,0.000431,0.000823
951000,0.0324,0.013523,0.002678,0.000431,0.001293
952000,0.0324,0.013523,0.002678,0.000431,0.001058
953000,0.0324,0.013523,0.002678,0.000431,0.001175
954000,0.0324,0.013523,0.002678,0.000431,0.000940
955000,0.0324,0.013523,0.002678,0.000431,0.001293
956000,0.0324,0.013523,0.002678,0.000431,0.001410
957000,0.0324,0.013523,0.002678,0.000431,0.001058
958000,0.0324,0.013523,0.002678,0.000431,0.001293
959000,0.0324,0.013523,0.002678,0.000431,0.001175
960000,0.0324,0.013523,0.002678,0.000431,0.001175
961000,0.0324,0.013523,0.002678,0.000431,0.001293
962000,0.0324,0.013523,0.002678,0.000431,0.001175
963000,0.0324,0.013523,0.002678,0.000431,0.001293
964000,0.0324,0.013523,0.002678,0.000431,0.001058
965000,0.0324,0.013523,0.002678,0.000431,0.001293
966000,0.0324,0.013523,0.002678,0.000431,0.000823
967000,0.0324,0.013523,0.002678,0.000431,0.001293
968000,0.0324,0.013523,0.002678,0.000431,0.001058
969000,0.0324,0.013523,0.002678,0.000431,0.001175
970000,0.0324,0.013523,0.002678,0.000431,0.001058
971000,0.0324,0.013523,0.002678,0.000431,0.001175
972000,0.0324,0.013523,0.002678,0.000431,0.001293
973000,0.0324,0.013523,0.002678,0.000431,0.001293
974000,0.0324,0.013523,0.002678,0.000431,0.000940
975000,0.0324,0.013523,0.002678,0.000431,0.001175
976000,0.0324,0.013523,0.002678,0.000431,0.001058
977000,0.0324,0.013523,0.002678,0.000431,0.001175
978000,0.0324,0.013523,0.002678,0.000431,0.001175
979000,0.0324,0.013523,0.002678,0.000431,0.000940
980000,0.0324,0.013523,0.002678,0.000431,0.001175
981000,0.0324,0.013523,0.002678,0.000431,0.000940
982000,0.0324,0.013523,0.002678,0.000431,0.001293
983000,0.0324,0.013523,0.002678,0.000431,0.001293
984000,0.0324,0.013523,0.002678,0.000431,0.001175
985000,0.0324,0.013523,0.002678,0.000431,0.001293
986000,0.0324,0.013523,0.002678,0.000431,0.000940
987000,0.0324,0.013523,0.002678,0.000431,0.001058
988000,0.0324,0.013523,0.002678,0.000431,0.001058
989000,0.0324,0.013523,0.002678,0.000431,0.001293
990000,0.0324,0.013523,0.002678,0.000431,0.001410
991000,0.0324,0.013523,0.002678,0.000431,0.001175
992000,0.0324,0.013523,0.002678,0.000431,0.001058
993000,0.0324,0.013523,0.002678,0.000431,0.001293
994000,0.0324,0.013523,0.002678,0.000431,0.001058
995000,0.0324,0.013523,0.002678,0.000431,0.001058
996000,0.0324,0.013523,0.002678,0.000431,0.001175
997000,0.0324,0.013523,0.002678,0.000431,0.001410
998000,0.0324,0.013523,0.002678,0.000431,0.001058
999000,0.0324,0.013523,0.002678,0.000431,0.001175
