Cycle,Area(mm^2),PeakDynamic(W),SubthresholdLeakage(W),GateLeakage(W),RunTimeDynamic(W)
3000000,0.0324,0.013523,0.002678,0.000431,0.449545
3001000,0.0324,0.013523,0.002678,0.000431,0.419223
3002000,0.0324,0.013523,0.002678,0.000431,0.401946
3003000,0.0324,0.013523,0.002678,0.000431,0.448488
3004000,0.0324,0.013523,0.002678,0.000431,0.535576
3005000,0.0324,0.013523,0.002678,0.000431,0.445079
3006000,0.0324,0.013523,0.002678,0.000431,0.520415
3007000,0.0324,0.013523,0.002678,0.000431,0.469995
3008000,0.0324,0.013523,0.002678,0.000431,0.392662
3009000,0.0324,0.013523,0.002678,0.000431,0.423219
3010000,0.0324,0.013523,0.002678,0.000431,0.457890
3011000,0.0324,0.013523,0.002678,0.000431,0.498790
3012000,0.0324,0.013523,0.002678,0.000431,0.543568
3013000,0.0324,0.013523,0.002678,0.000431,0.412524
3014000,0.0324,0.013523,0.002678,0.000431,0.503843
3015000,0.0324,0.013523,0.002678,0.000431,0.684837
3016000,0.0324,0.013523,0.002678,0.000431,0.575536
3017000,0.0324,0.013523,0.002678,0.000431,0.462121
3018000,0.0324,0.013523,0.002678,0.000431,0.463296
3019000,0.0324,0.013523,0.002678,0.000431,0.443316
3020000,0.0324,0.013523,0.002678,0.000431,0.446019
3021000,0.0324,0.013523,0.002678,0.000431,0.484686
3022000,0.0324,0.013523,0.002678,0.000431,0.441201
3023000,0.0324,0.013523,0.002678,0.000431,0.450486
3024000,0.0324,0.013523,0.002678,0.000431,0.528877
3025000,0.0324,0.013523,0.002678,0.000431,0.509837
3026000,0.0324,0.013523,0.002678,0.000431,0.547916
3027000,0.0324,0.013523,0.002678,0.000431,0.492443
3028000,0.0324,0.013523,0.002678,0.000431,0.475401
3029000,0.0324,0.013523,0.002678,0.000431,0.484921
3030000,0.0324,0.013523,0.002678,0.000431,0.409351
3031000,0.0324,0.013523,0.002678,0.000431,0.381261
3032000,0.0324,0.013523,0.002678,0.000431,0.432386
3033000,0.0324,0.013523,0.002678,0.000431,0.501375
3034000,0.0324,0.013523,0.002678,0.000431,0.454481
3035000,0.0324,0.013523,0.002678,0.000431,0.375855
3036000,0.0324,0.013523,0.002678,0.000431,0.436382
3037000,0.0324,0.013523,0.002678,0.000431,0.398773
3038000,0.0324,0.013523,0.002678,0.000431,0.416285
3039000,0.0324,0.013523,0.002678,0.000431,0.501493
3040000,0.0324,0.013523,0.002678,0.000431,0.601392
3041000,0.0324,0.013523,0.002678,0.000431,0.628306
3042000,0.0324,0.013523,0.002678,0.000431,0.531345
3043000,0.0324,0.013523,0.002678,0.000431,0.544743
3044000,0.0324,0.013523,0.002678,0.000431,0.485156
3045000,0.0324,0.013523,0.002678,0.000431,0.488800
3046000,0.0324,0.013523,0.002678,0.000431,0.427920
3047000,0.0324,0.013523,0.002678,0.000431,0.378088
3048000,0.0324,0.013523,0.002678,0.000431,0.350587
3049000,0.0324,0.013523,0.002678,0.000431,0.318619
3050000,0.0324,0.013523,0.002678,0.000431,0.280070
3051000,0.0324,0.013523,0.002678,0.000431,0.273958
3052000,0.0324,0.013523,0.002678,0.000431,0.314740
3053000,0.0324,0.013523,0.002678,0.000431,0.311215
3054000,0.0324,0.013523,0.002678,0.000431,0.315446
3055000,0.0324,0.013523,0.002678,0.000431,0.398656
3056000,0.0324,0.013523,0.002678,0.000431,0.420516
3057000,0.0324,0.013523,0.002678,0.000431,0.377971
3058000,0.0324,0.013523,0.002678,0.000431,0.339069
3059000,0.0324,0.013523,0.002678,0.000431,0.311802
3060000,0.0324,0.013523,0.002678,0.000431,0.323908
3061000,0.0324,0.013523,0.002678,0.000431,0.426862
3062000,0.0324,0.013523,0.002678,0.000431,0.420281
3063000,0.0324,0.013523,0.002678,0.000431,0.403239
3064000,0.0324,0.013523,0.002678,0.000431,0.421926
3065000,0.0324,0.013523,0.002678,0.000431,0.405942
3066000,0.0324,0.013523,0.002678,0.000431,0.423337
3067000,0.0324,0.013523,0.002678,0.000431,0.403827
3068000,0.0324,0.013523,0.002678,0.000431,0.433797
3069000,0.0324,0.013523,0.002678,0.000431,0.590462
3070000,0.0324,0.013523,0.002678,0.000431,0.523823
3071000,0.0324,0.013523,0.002678,0.000431,0.574360
3072000,0.0324,0.013523,0.002678,0.000431,0.505724
3073000,0.0324,0.013523,0.002678,0.000431,0.476107
3074000,0.0324,0.013523,0.002678,0.000431,0.482336
3075000,0.0324,0.013523,0.002678,0.000431,0.452131
3076000,0.0324,0.013523,0.002678,0.000431,0.507134
3077000,0.0324,0.013523,0.002678,0.000431,0.526996
3078000,0.0324,0.013523,0.002678,0.000431,0.492090
3079000,0.0324,0.013523,0.002678,0.000431,0.535693
3080000,0.0324,0.013523,0.002678,0.000431,0.512658
3081000,0.0324,0.013523,0.002678,0.000431,0.549444
3082000,0.0324,0.013523,0.002678,0.000431,0.576241
3083000,0.0324,0.013523,0.002678,0.000431,0.470583
3084000,0.0324,0.013523,0.002678,0.000431,0.460005
3085000,0.0324,0.013523,0.002678,0.000431,0.533578
3086000,0.0324,0.013523,0.002678,0.000431,0.482923
3087000,0.0324,0.013523,0.002678,0.000431,0.487389
3088000,0.0324,0.013523,0.002678,0.000431,0.526174
3089000,0.0324,0.013523,0.002678,0.000431,0.602802
3090000,0.0324,0.013523,0.002678,0.000431,0.522413
3091000,0.0324,0.013523,0.002678,0.000431,0.501610
3092000,0.0324,0.013523,0.002678,0.000431,0.477282
3093000,0.0324,0.013523,0.002678,0.000431,0.496204
3094000,0.0324,0.013523,0.002678,0.000431,0.457655
3095000,0.0324,0.013523,0.002678,0.000431,0.491503
3096000,0.0324,0.013523,0.002678,0.000431,0.465882
3097000,0.0324,0.013523,0.002678,0.000431,0.486214
3098000,0.0324,0.013523,0.002678,0.000431,0.540160
3099000,0.0324,0.013523,0.002678,0.000431,0.507017
3100000,0.0324,0.013523,0.002678,0.000431,0.482688
3101000,0.0324,0.013523,0.002678,0.000431,0.551795
3102000,0.0324,0.013523,0.002678,0.000431,0.445314
3103000,0.0324,0.013523,0.002678,0.000431,0.464824
3104000,0.0324,0.013523,0.002678,0.000431,0.530405
3105000,0.0324,0.013523,0.002678,0.000431,0.426745
3106000,0.0324,0.013523,0.002678,0.000431,0.385610
3107000,0.0324,0.013523,0.002678,0.000431,0.376678
3108000,0.0324,0.013523,0.002678,0.000431,0.352937
3109000,0.0324,0.013523,0.002678,0.000431,0.413817
3110000,0.0324,0.013523,0.002678,0.000431,0.447782
3111000,0.0324,0.013523,0.002678,0.000431,0.423807
3112000,0.0324,0.013523,0.002678,0.000431,0.473756
3113000,0.0324,0.013523,0.002678,0.000431,0.512070
3114000,0.0324,0.013523,0.002678,0.000431,0.482336
3115000,0.0324,0.013523,0.002678,0.000431,0.568366
3116000,0.0324,0.013523,0.002678,0.000431,0.495264
3117000,0.0324,0.013523,0.002678,0.000431,0.460005
3118000,0.0324,0.013523,0.002678,0.000431,0.503726
3119000,0.0324,0.013523,0.002678,0.000431,0.537221
3120000,0.0324,0.013523,0.002678,0.000431,0.604212
3121000,0.0324,0.013523,0.002678,0.000431,0.543333
3122000,0.0324,0.013523,0.002678,0.000431,0.551442
3123000,0.0324,0.013523,0.002678,0.000431,0.655572
3124000,0.0324,0.013523,0.002678,0.000431,0.708225
3125000,0.0324,0.013523,0.002678,0.000431,0.588464
3126000,0.0324,0.013523,0.002678,0.000431,0.590814
3127000,0.0324,0.013523,0.002678,0.000431,0.568131
3128000,0.0324,0.013523,0.002678,0.000431,0.579414
3129000,0.0324,0.013523,0.002678,0.000431,0.532990
3130000,0.0324,0.013523,0.002678,0.000431,0.530405
3131000,0.0324,0.013523,0.002678,0.000431,0.470465
3132000,0.0324,0.013523,0.002678,0.000431,0.448252
3133000,0.0324,0.013523,0.002678,0.000431,0.494559
3134000,0.0324,0.013523,0.002678,0.000431,0.479162
3135000,0.0324,0.013523,0.002678,0.000431,0.446607
3136000,0.0324,0.013523,0.002678,0.000431,0.438380
3137000,0.0324,0.013523,0.002678,0.000431,0.389253
3138000,0.0324,0.013523,0.002678,0.000431,0.367746
3139000,0.0324,0.013523,0.002678,0.000431,0.351409
3140000,0.0324,0.013523,0.002678,0.000431,0.328021
3141000,0.0324,0.013523,0.002678,0.000431,0.347061
3142000,0.0324,0.013523,0.002678,0.000431,0.402534
3143000,0.0324,0.013523,0.002678,0.000431,0.323203
3144000,0.0324,0.013523,0.002678,0.000431,0.413464
3145000,0.0324,0.013523,0.002678,0.000431,0.402416
3146000,0.0324,0.013523,0.002678,0.000431,0.375973
3147000,0.0324,0.013523,0.002678,0.000431,0.392192
3148000,0.0324,0.013523,0.002678,0.000431,0.443786
3149000,0.0324,0.013523,0.002678,0.000431,0.410408
3150000,0.0324,0.013523,0.002678,0.000431,0.353055
3151000,0.0324,0.013523,0.002678,0.000431,0.357168
3152000,0.0324,0.013523,0.002678,0.000431,0.333192
3153000,0.0324,0.013523,0.002678,0.000431,0.313800
3154000,0.0324,0.013523,0.002678,0.000431,0.338481
3155000,0.0324,0.013523,0.002678,0.000431,0.296876
3156000,0.0324,0.013523,0.002678,0.000431,0.376795
3157000,0.0324,0.013523,0.002678,0.000431,0.415462
3158000,0.0324,0.013523,0.002678,0.000431,0.423572
3159000,0.0324,0.013523,0.002678,0.000431,0.555203
3160000,0.0324,0.013523,0.002678,0.000431,0.500905
3161000,0.0324,0.013523,0.002678,0.000431,0.617963
3162000,0.0324,0.013523,0.002678,0.000431,0.591519
3163000,0.0324,0.013523,0.002678,0.000431,0.543920
3164000,0.0324,0.013523,0.002678,0.000431,0.534988
3165000,0.0324,0.013523,0.002678,0.000431,0.469995
3166000,0.0324,0.013523,0.002678,0.000431,0.443786
3167000,0.0324,0.013523,0.002678,0.000431,0.466822
3168000,0.0324,0.013523,0.002678,0.000431,0.452954
3169000,0.0324,0.013523,0.002678,0.000431,0.413934
3170000,0.0324,0.013523,0.002678,0.000431,0.431446
3171000,0.0324,0.013523,0.002678,0.000431,0.385375
3172000,0.0324,0.013523,0.002678,0.000431,0.485391
3173000,0.0324,0.013523,0.002678,0.000431,0.559904
3174000,0.0324,0.013523,0.002678,0.000431,0.423807
3175000,0.0324,0.013523,0.002678,0.000431,0.443669
3176000,0.0324,0.013523,0.002678,0.000431,0.487507
3177000,0.0324,0.013523,0.002678,0.000431,0.453776
3178000,0.0324,0.013523,0.002678,0.000431,0.440966
3179000,0.0324,0.013523,0.002678,0.000431,0.494676
3180000,0.0324,0.013523,0.002678,0.000431,0.558847
3181000,0.0324,0.013523,0.002678,0.000431,0.436970
3182000,0.0324,0.013523,0.002678,0.000431,0.435559
3183000,0.0324,0.013523,0.002678,0.000431,0.414404
3184000,0.0324,0.013523,0.002678,0.000431,0.460005
3185000,0.0324,0.013523,0.002678,0.000431,0.446372
3186000,0.0324,0.013523,0.002678,0.000431,0.424042
3187000,0.0324,0.013523,0.002678,0.000431,0.382907
3188000,0.0324,0.013523,0.002678,0.000431,0.502080
3189000,0.0324,0.013523,0.002678,0.000431,0.520415
3190000,0.0324,0.013523,0.002678,0.000431,0.509955
3191000,0.0324,0.013523,0.002678,0.000431,0.506194
3192000,0.0324,0.013523,0.002678,0.000431,0.528877
3193000,0.0324,0.013523,0.002678,0.000431,0.523941
3194000,0.0324,0.013523,0.002678,0.000431,0.699175
3195000,0.0324,0.013523,0.002678,0.000431,0.576828
3196000,0.0324,0.013523,0.002678,0.000431,0.583762
3197000,0.0324,0.013523,0.002678,0.000431,0.601274
3198000,0.0324,0.013523,0.002678,0.000431,0.503843
3199000,0.0324,0.013523,0.002678,0.000431,0.471876
3200000,0.0324,0.013523,0.002678,0.000431,0.442141
3201000,0.0324,0.013523,0.002678,0.000431,0.398538
3202000,0.0324,0.013523,0.002678,0.000431,0.369156
3203000,0.0324,0.013523,0.002678,0.000431,0.352232
3204000,0.0324,0.013523,0.002678,0.000431,0.326023
3205000,0.0324,0.013523,0.002678,0.000431,0.319794
3206000,0.0324,0.013523,0.002678,0.000431,0.298522
3207000,0.0324,0.013523,0.002678,0.000431,0.292998
3208000,0.0324,0.013523,0.002678,0.000431,0.273371
3209000,0.0324,0.013523,0.002678,0.000431,0.266789
3210000,0.0324,0.013523,0.002678,0.000431,0.240228
3211000,0.0324,0.013523,0.002678,0.000431,0.241168
3212000,0.0324,0.013523,0.002678,0.000431,0.232941
3213000,0.0324,0.013523,0.002678,0.000431,0.224361
3214000,0.0324,0.013523,0.002678,0.000431,0.214606
3215000,0.0324,0.013523,0.002678,0.000431,0.207790
3216000,0.0324,0.013523,0.002678,0.000431,0.207085
3217000,0.0324,0.013523,0.002678,0.000431,0.192159
3218000,0.0324,0.013523,0.002678,0.000431,0.192629
3219000,0.0324,0.013523,0.002678,0.000431,0.184284
3220000,0.0324,0.013523,0.002678,0.000431,0.177468
3221000,0.0324,0.013523,0.002678,0.000431,0.174412
3222000,0.0324,0.013523,0.002678,0.000431,0.167243
3223000,0.0324,0.013523,0.002678,0.000431,0.159016
3224000,0.0324,0.013523,0.002678,0.000431,0.164775
3225000,0.0324,0.013523,0.002678,0.000431,0.157605
3226000,0.0324,0.013523,0.002678,0.000431,0.154197
3227000,0.0324,0.013523,0.002678,0.000431,0.151494
3228000,0.0324,0.013523,0.002678,0.000431,0.147145
3229000,0.0324,0.013523,0.002678,0.000431,0.144325
3230000,0.0324,0.013523,0.002678,0.000431,0.138448
3231000,0.0324,0.013523,0.002678,0.000431,0.141386
3232000,0.0324,0.013523,0.002678,0.000431,0.138918
3233000,0.0324,0.013523,0.002678,0.000431,0.134570
3234000,0.0324,0.013523,0.002678,0.000431,0.130926
3235000,0.0324,0.013523,0.002678,0.000431,0.125520
3236000,0.0324,0.013523,0.002678,0.000431,0.123522
3237000,0.0324,0.013523,0.002678,0.000431,0.125755
3238000,0.0324,0.013523,0.002678,0.000431,0.121994
3239000,0.0324,0.013523,0.002678,0.000431,0.118703
3240000,0.0324,0.013523,0.002678,0.000431,0.114237
3241000,0.0324,0.013523,0.002678,0.000431,0.114237
3242000,0.0324,0.013523,0.002678,0.000431,0.112004
3243000,0.0324,0.013523,0.002678,0.000431,0.113532
3244000,0.0324,0.013523,0.002678,0.000431,0.109066
3245000,0.0324,0.013523,0.002678,0.000431,0.107538
3246000,0.0324,0.013523,0.002678,0.000431,0.109419
3247000,0.0324,0.013523,0.002678,0.000431,0.105658
3248000,0.0324,0.013523,0.002678,0.000431,0.103425
3249000,0.0324,0.013523,0.002678,0.000431,0.104483
3250000,0.0324,0.013523,0.002678,0.000431,0.102485
3251000,0.0324,0.013523,0.002678,0.000431,0.098019
3252000,0.0324,0.013523,0.002678,0.000431,0.098959
3253000,0.0324,0.013523,0.002678,0.000431,0.096491
3254000,0.0324,0.013523,0.002678,0.000431,0.092965
3255000,0.0324,0.013523,0.002678,0.000431,0.094023
3256000,0.0324,0.013523,0.002678,0.000431,0.089792
3257000,0.0324,0.013523,0.002678,0.000431,0.089909
3258000,0.0324,0.013523,0.002678,0.000431,0.087676
3259000,0.0324,0.013523,0.002678,0.000431,0.086031
3260000,0.0324,0.013523,0.002678,0.000431,0.083680
3261000,0.0324,0.013523,0.002678,0.000431,0.085090
3262000,0.0324,0.013523,0.002678,0.000431,0.086031
3263000,0.0324,0.013523,0.002678,0.000431,0.080624
3264000,0.0324,0.013523,0.002678,0.000431,0.082387
3265000,0.0324,0.013523,0.002678,0.000431,0.083563
3266000,0.0324,0.013523,0.002678,0.000431,0.079096
3267000,0.0324,0.013523,0.002678,0.000431,0.078979
3268000,0.0324,0.013523,0.002678,0.000431,0.078861
3269000,0.0324,0.013523,0.002678,0.000431,0.076511
3270000,0.0324,0.013523,0.002678,0.000431,0.080389
3271000,0.0324,0.013523,0.002678,0.000431,0.074278
3272000,0.0324,0.013523,0.002678,0.000431,0.076746
3273000,0.0324,0.013523,0.002678,0.000431,0.074043
3274000,0.0324,0.013523,0.002678,0.000431,0.072632
3275000,0.0324,0.013523,0.002678,0.000431,0.071105
3276000,0.0324,0.013523,0.002678,0.000431,0.070752
3277000,0.0324,0.013523,0.002678,0.000431,0.071692
3278000,0.0324,0.013523,0.002678,0.000431,0.067579
3279000,0.0324,0.013523,0.002678,0.000431,0.068284
3280000,0.0324,0.013523,0.002678,0.000431,0.065698
3281000,0.0324,0.013523,0.002678,0.000431,0.065816
3282000,0.0324,0.013523,0.002678,0.000431,0.066286
3283000,0.0324,0.013523,0.002678,0.000431,0.065111
3284000,0.0324,0.013523,0.002678,0.000431,0.064876
3285000,0.0324,0.013523,0.002678,0.000431,0.062995
3286000,0.0324,0.013523,0.002678,0.000431,0.065581
3287000,0.0324,0.013523,0.002678,0.000431,0.063700
3288000,0.0324,0.013523,0.002678,0.000431,0.063583
3289000,0.0324,0.013523,0.002678,0.000431,0.064170
3290000,0.0324,0.013523,0.002678,0.000431,0.061350
3291000,0.0324,0.013523,0.002678,0.000431,0.061115
3292000,0.0324,0.013523,0.002678,0.000431,0.060174
3293000,0.0324,0.013523,0.002678,0.000431,0.059117
3294000,0.0324,0.013523,0.002678,0.000431,0.059939
3295000,0.0324,0.013523,0.002678,0.000431,0.057941
3296000,0.0324,0.013523,0.002678,0.000431,0.057354
3297000,0.0324,0.013523,0.002678,0.000431,0.058059
3298000,0.0324,0.013523,0.002678,0.000431,0.058294
3299000,0.0324,0.013523,0.002678,0.000431,0.054298
3300000,0.0324,0.013523,0.002678,0.000431,0.057589
3301000,0.0324,0.013523,0.002678,0.000431,0.055708
3302000,0.0324,0.013523,0.002678,0.000431,0.054416
3303000,0.0324,0.013523,0.002678,0.000431,0.052535
3304000,0.0324,0.013523,0.002678,0.000431,0.055003
3305000,0.0324,0.013523,0.002678,0.000431,0.053358
3306000,0.0324,0.013523,0.002678,0.000431,0.054416
3307000,0.0324,0.013523,0.002678,0.000431,0.053123
3308000,0.0324,0.013523,0.002678,0.000431,0.051477
3309000,0.0324,0.013523,0.002678,0.000431,0.054416
3310000,0.0324,0.013523,0.002678,0.000431,0.052770
3311000,0.0324,0.013523,0.002678,0.000431,0.049949
3312000,0.0324,0.013523,0.002678,0.000431,0.049949
3313000,0.0324,0.013523,0.002678,0.000431,0.051242
3314000,0.0324,0.013523,0.002678,0.000431,0.050655
3315000,0.0324,0.013523,0.002678,0.000431,0.050537
3316000,0.0324,0.013523,0.002678,0.000431,0.047951
3317000,0.0324,0.013523,0.002678,0.000431,0.049009
3318000,0.0324,0.013523,0.002678,0.000431,0.047599
3319000,0.0324,0.013523,0.002678,0.000431,0.047246
3320000,0.0324,0.013523,0.002678,0.000431,0.045718
3321000,0.0324,0.013523,0.002678,0.000431,0.045836
3322000,0.0324,0.013523,0.002678,0.000431,0.044896
3323000,0.0324,0.013523,0.002678,0.000431,0.045836
3324000,0.0324,0.013523,0.002678,0.000431,0.045718
3325000,0.0324,0.013523,0.002678,0.000431,0.043603
3326000,0.0324,0.013523,0.002678,0.000431,0.044543
3327000,0.0324,0.013523,0.002678,0.000431,0.043133
3328000,0.0324,0.013523,0.002678,0.000431,0.043720
3329000,0.0324,0.013523,0.002678,0.000431,0.044308
3330000,0.0324,0.013523,0.002678,0.000431,0.044778
3331000,0.0324,0.013523,0.002678,0.000431,0.043485
3332000,0.0324,0.013523,0.002678,0.000431,0.044778
3333000,0.0324,0.013523,0.002678,0.000431,0.040665
3334000,0.0324,0.013523,0.002678,0.000431,0.041840
3335000,0.0324,0.013523,0.002678,0.000431,0.042428
3336000,0.0324,0.013523,0.002678,0.000431,0.041370
3337000,0.0324,0.013523,0.002678,0.000431,0.042193
3338000,0.0324,0.013523,0.002678,0.000431,0.041958
3339000,0.0324,0.013523,0.002678,0.000431,0.040900
3340000,0.0324,0.013523,0.002678,0.000431,0.042780
3341000,0.0324,0.013523,0.002678,0.000431,0.040900
3342000,0.0324,0.013523,0.002678,0.000431,0.041017
3343000,0.0324,0.013523,0.002678,0.000431,0.040900
3344000,0.0324,0.013523,0.002678,0.000431,0.041017
3345000,0.0324,0.013523,0.002678,0.000431,0.041017
3346000,0.0324,0.013523,0.002678,0.000431,0.041370
3347000,0.0324,0.013523,0.002678,0.000431,0.038902
3348000,0.0324,0.013523,0.002678,0.000431,0.042075
3349000,0.0324,0.013523,0.002678,0.000431,0.040782
3350000,0.0324,0.013523,0.002678,0.000431,0.040430
3351000,0.0324,0.013523,0.002678,0.000431,0.040665
3352000,0.0324,0.013523,0.002678,0.000431,0.041605
3353000,0.0324,0.013523,0.002678,0.000431,0.039372
3354000,0.0324,0.013523,0.002678,0.000431,0.037727
3355000,0.0324,0.013523,0.002678,0.000431,0.038902
3356000,0.0324,0.013523,0.002678,0.000431,0.038549
3357000,0.0324,0.013523,0.002678,0.000431,0.039254
3358000,0.0324,0.013523,0.002678,0.000431,0.037139
3359000,0.0324,0.013523,0.002678,0.000431,0.037609
3360000,0.0324,0.013523,0.002678,0.000431,0.038079
3361000,0.0324,0.013523,0.002678,0.000431,0.038667
3362000,0.0324,0.013523,0.002678,0.000431,0.036316
3363000,0.0324,0.013523,0.002678,0.000431,0.038079
3364000,0.0324,0.013523,0.002678,0.000431,0.038667
3365000,0.0324,0.013523,0.002678,0.000431,0.036316
3366000,0.0324,0.013523,0.002678,0.000431,0.036081
3367000,0.0324,0.013523,0.002678,0.000431,0.037962
3368000,0.0324,0.013523,0.002678,0.000431,0.037491
3369000,0.0324,0.013523,0.002678,0.000431,0.037374
3370000,0.0324,0.013523,0.002678,0.000431,0.037139
3371000,0.0324,0.013523,0.002678,0.000431,0.037727
3372000,0.0324,0.013523,0.002678,0.000431,0.035964
3373000,0.0324,0.013523,0.002678,0.000431,0.037139
3374000,0.0324,0.013523,0.002678,0.000431,0.036669
3375000,0.0324,0.013523,0.002678,0.000431,0.037491
3376000,0.0324,0.013523,0.002678,0.000431,0.035376
3377000,0.0324,0.013523,0.002678,0.000431,0.035023
3378000,0.0324,0.013523,0.002678,0.000431,0.035141
3379000,0.0324,0.013523,0.002678,0.000431,0.036199
3380000,0.0324,0.013523,0.002678,0.000431,0.034436
3381000,0.0324,0.013523,0.002678,0.000431,0.036081
3382000,0.0324,0.013523,0.002678,0.000431,0.034906
3383000,0.0324,0.013523,0.002678,0.000431,0.035611
3384000,0.0324,0.013523,0.002678,0.000431,0.034906
3385000,0.0324,0.013523,0.002678,0.000431,0.035964
3386000,0.0324,0.013523,0.002678,0.000431,0.035846
3387000,0.0324,0.013523,0.002678,0.000431,0.035023
3388000,0.0324,0.013523,0.002678,0.000431,0.034788
3389000,0.0324,0.013523,0.002678,0.000431,0.034671
3390000,0.0324,0.013523,0.002678,0.000431,0.033966
3391000,0.0324,0.013523,0.002678,0.000431,0.035023
3392000,0.0324,0.013523,0.002678,0.000431,0.034201
3393000,0.0324,0.013523,0.002678,0.000431,0.035023
3394000,0.0324,0.013523,0.002678,0.000431,0.034788
3395000,0.0324,0.013523,0.002678,0.000431,0.034553
3396000,0.0324,0.013523,0.002678,0.000431,0.034201
3397000,0.0324,0.013523,0.002678,0.000431,0.034083
3398000,0.0324,0.013523,0.002678,0.000431,0.033496
3399000,0.0324,0.013523,0.002678,0.000431,0.034906
3400000,0.0324,0.013523,0.002678,0.000431,0.033143
3401000,0.0324,0.013523,0.002678,0.000431,0.032320
3402000,0.0324,0.013523,0.002678,0.000431,0.034201
3403000,0.0324,0.013523,0.002678,0.000431,0.031733
3404000,0.0324,0.013523,0.002678,0.000431,0.033260
3405000,0.0324,0.013523,0.002678,0.000431,0.031733
3406000,0.0324,0.013523,0.002678,0.000431,0.032320
3407000,0.0324,0.013523,0.002678,0.000431,0.031262
3408000,0.0324,0.013523,0.002678,0.000431,0.032438
3409000,0.0324,0.013523,0.002678,0.000431,0.032085
3410000,0.0324,0.013523,0.002678,0.000431,0.033025
3411000,0.0324,0.013523,0.002678,0.000431,0.033496
3412000,0.0324,0.013523,0.002678,0.000431,0.033025
3413000,0.0324,0.013523,0.002678,0.000431,0.031850
3414000,0.0324,0.013523,0.002678,0.000431,0.032203
3415000,0.0324,0.013523,0.002678,0.000431,0.033613
3416000,0.0324,0.013523,0.002678,0.000431,0.031733
3417000,0.0324,0.013523,0.002678,0.000431,0.033496
3418000,0.0324,0.013523,0.002678,0.000431,0.032203
3419000,0.0324,0.013523,0.002678,0.000431,0.032673
3420000,0.0324,0.013523,0.002678,0.000431,0.032908
3421000,0.0324,0.013523,0.002678,0.000431,0.032790
3422000,0.0324,0.013523,0.002678,0.000431,0.032320
3423000,0.0324,0.013523,0.002678,0.000431,0.032203
3424000,0.0324,0.013523,0.002678,0.000431,0.032438
3425000,0.0324,0.013523,0.002678,0.000431,0.031733
3426000,0.0324,0.013523,0.002678,0.000431,0.031733
3427000,0.0324,0.013523,0.002678,0.000431,0.031968
3428000,0.0324,0.013523,0.002678,0.000431,0.033378
3429000,0.0324,0.013523,0.002678,0.000431,0.031615
3430000,0.0324,0.013523,0.002678,0.000431,0.032555
3431000,0.0324,0.013523,0.002678,0.000431,0.032908
3432000,0.0324,0.013523,0.002678,0.000431,0.032203
3433000,0.0324,0.013523,0.002678,0.000431,0.031027
3434000,0.0324,0.013523,0.002678,0.000431,0.030440
3435000,0.0324,0.013523,0.002678,0.000431,0.030557
3436000,0.0324,0.013523,0.002678,0.000431,0.029970
3437000,0.0324,0.013523,0.002678,0.000431,0.029617
3438000,0.0324,0.013523,0.002678,0.000431,0.030557
3439000,0.0324,0.013523,0.002678,0.000431,0.030557
3440000,0.0324,0.013523,0.002678,0.000431,0.030792
3441000,0.0324,0.013523,0.002678,0.000431,0.029735
3442000,0.0324,0.013523,0.002678,0.000431,0.030322
3443000,0.0324,0.013523,0.002678,0.000431,0.030910
3444000,0.0324,0.013523,0.002678,0.000431,0.030440
3445000,0.0324,0.013523,0.002678,0.000431,0.029147
3446000,0.0324,0.013523,0.002678,0.000431,0.028324
3447000,0.0324,0.013523,0.002678,0.000431,0.029147
3448000,0.0324,0.013523,0.002678,0.000431,0.028794
3449000,0.0324,0.013523,0.002678,0.000431,0.028559
3450000,0.0324,0.013523,0.002678,0.000431,0.028324
3451000,0.0324,0.013523,0.002678,0.000431,0.028559
3452000,0.0324,0.013523,0.002678,0.000431,0.028207
3453000,0.0324,0.013523,0.002678,0.000431,0.029500
3454000,0.0324,0.013523,0.002678,0.000431,0.028089
3455000,0.0324,0.013523,0.002678,0.000431,0.029147
3456000,0.0324,0.013523,0.002678,0.000431,0.026679
3457000,0.0324,0.013523,0.002678,0.000431,0.027149
3458000,0.0324,0.013523,0.002678,0.000431,0.029382
3459000,0.0324,0.013523,0.002678,0.000431,0.028324
3460000,0.0324,0.013523,0.002678,0.000431,0.026444
3461000,0.0324,0.013523,0.002678,0.000431,0.026209
3462000,0.0324,0.013523,0.002678,0.000431,0.025269
3463000,0.0324,0.013523,0.002678,0.000431,0.025386
3464000,0.0324,0.013523,0.002678,0.000431,0.026209
3465000,0.0324,0.013523,0.002678,0.000431,0.025504
3466000,0.0324,0.013523,0.002678,0.000431,0.025386
3467000,0.0324,0.013523,0.002678,0.000431,0.025504
3468000,0.0324,0.013523,0.002678,0.000431,0.025151
3469000,0.0324,0.013523,0.002678,0.000431,0.025034
3470000,0.0324,0.013523,0.002678,0.000431,0.024328
3471000,0.0324,0.013523,0.002678,0.000431,0.025974
3472000,0.0324,0.013523,0.002678,0.000431,0.025034
3473000,0.0324,0.013523,0.002678,0.000431,0.024328
3474000,0.0324,0.013523,0.002678,0.000431,0.024681
3475000,0.0324,0.013523,0.002678,0.000431,0.024446
3476000,0.0324,0.013523,0.002678,0.000431,0.023858
3477000,0.0324,0.013523,0.002678,0.000431,0.024446
3478000,0.0324,0.013523,0.002678,0.000431,0.023506
3479000,0.0324,0.013523,0.002678,0.000431,0.024681
3480000,0.0324,0.013523,0.002678,0.000431,0.024563
3481000,0.0324,0.013523,0.002678,0.000431,0.024211
3482000,0.0324,0.013523,0.002678,0.000431,0.023506
3483000,0.0324,0.013523,0.002678,0.000431,0.024328
3484000,0.0324,0.013523,0.002678,0.000431,0.023623
3485000,0.0324,0.013523,0.002678,0.000431,0.025034
3486000,0.0324,0.013523,0.002678,0.000431,0.023741
3487000,0.0324,0.013523,0.002678,0.000431,0.024681
3488000,0.0324,0.013523,0.002678,0.000431,0.024681
3489000,0.0324,0.013523,0.002678,0.000431,0.022683
3490000,0.0324,0.013523,0.002678,0.000431,0.024798
3491000,0.0324,0.013523,0.002678,0.000431,0.025151
3492000,0.0324,0.013523,0.002678,0.000431,0.023388
3493000,0.0324,0.013523,0.002678,0.000431,0.023858
3494000,0.0324,0.013523,0.002678,0.000431,0.023741
3495000,0.0324,0.013523,0.002678,0.000431,0.022448
3496000,0.0324,0.013523,0.002678,0.000431,0.021978
3497000,0.0324,0.013523,0.002678,0.000431,0.022800
3498000,0.0324,0.013523,0.002678,0.000431,0.022683
3499000,0.0324,0.013523,0.002678,0.000431,0.023153
3500000,0.0324,0.013523,0.002678,0.000431,0.022918
3501000,0.0324,0.013523,0.002678,0.000431,0.023271
3502000,0.0324,0.013523,0.002678,0.000431,0.023036
3503000,0.0324,0.013523,0.002678,0.000431,0.022448
3504000,0.0324,0.013523,0.002678,0.000431,0.023388
3505000,0.0324,0.013523,0.002678,0.000431,0.023506
3506000,0.0324,0.013523,0.002678,0.000431,0.022918
3507000,0.0324,0.013523,0.002678,0.000431,0.023153
3508000,0.0324,0.013523,0.002678,0.000431,0.022683
3509000,0.0324,0.013523,0.002678,0.000431,0.022918
3510000,0.0324,0.013523,0.002678,0.000431,0.023858
3511000,0.0324,0.013523,0.002678,0.000431,0.022448
3512000,0.0324,0.013523,0.002678,0.000431,0.024798
3513000,0.0324,0.013523,0.002678,0.000431,0.023153
3514000,0.0324,0.013523,0.002678,0.000431,0.021508
3515000,0.0324,0.013523,0.002678,0.000431,0.022565
3516000,0.0324,0.013523,0.002678,0.000431,0.023271
3517000,0.0324,0.013523,0.002678,0.000431,0.022330
3518000,0.0324,0.013523,0.002678,0.000431,0.022683
3519000,0.0324,0.013523,0.002678,0.000431,0.023036
3520000,0.0324,0.013523,0.002678,0.000431,0.021860
3521000,0.0324,0.013523,0.002678,0.000431,0.021860
3522000,0.0324,0.013523,0.002678,0.000431,0.022800
3523000,0.0324,0.013523,0.002678,0.000431,0.021508
3524000,0.0324,0.013523,0.002678,0.000431,0.022800
3525000,0.0324,0.013523,0.002678,0.000431,0.022213
3526000,0.0324,0.013523,0.002678,0.000431,0.023271
3527000,0.0324,0.013523,0.002678,0.000431,0.022918
3528000,0.0324,0.013523,0.002678,0.000431,0.021978
3529000,0.0324,0.013523,0.002678,0.000431,0.022095
3530000,0.0324,0.013523,0.002678,0.000431,0.022095
3531000,0.0324,0.013523,0.002678,0.000431,0.021273
3532000,0.0324,0.013523,0.002678,0.000431,0.021860
3533000,0.0324,0.013523,0.002678,0.000431,0.020685
3534000,0.0324,0.013523,0.002678,0.000431,0.022330
3535000,0.0324,0.013523,0.002678,0.000431,0.021273
3536000,0.0324,0.013523,0.002678,0.000431,0.022448
3537000,0.0324,0.013523,0.002678,0.000431,0.021978
3538000,0.0324,0.013523,0.002678,0.000431,0.021978
3539000,0.0324,0.013523,0.002678,0.000431,0.021273
3540000,0.0324,0.013523,0.002678,0.000431,0.021390
3541000,0.0324,0.013523,0.002678,0.000431,0.021038
3542000,0.0324,0.013523,0.002678,0.000431,0.022095
3543000,0.0324,0.013523,0.002678,0.000431,0.019980
3544000,0.0324,0.013523,0.002678,0.000431,0.019627
3545000,0.0324,0.013523,0.002678,0.000431,0.018922
3546000,0.0324,0.013523,0.002678,0.000431,0.019275
3547000,0.0324,0.013523,0.002678,0.000431,0.018805
3548000,0.0324,0.013523,0.002678,0.000431,0.019040
3549000,0.0324,0.013523,0.002678,0.000431,0.019862
3550000,0.0324,0.013523,0.002678,0.000431,0.018805
3551000,0.0324,0.013523,0.002678,0.000431,0.018569
3552000,0.0324,0.013523,0.002678,0.000431,0.017864
3553000,0.0324,0.013523,0.002678,0.000431,0.018334
3554000,0.0324,0.013523,0.002678,0.000431,0.018334
3555000,0.0324,0.013523,0.002678,0.000431,0.018217
3556000,0.0324,0.013523,0.002678,0.000431,0.018805
3557000,0.0324,0.013523,0.002678,0.000431,0.017864
3558000,0.0324,0.013523,0.002678,0.000431,0.018452
3559000,0.0324,0.013523,0.002678,0.000431,0.019275
3560000,0.0324,0.013523,0.002678,0.000431,0.018452
3561000,0.0324,0.013523,0.002678,0.000431,0.018334
3562000,0.0324,0.013523,0.002678,0.000431,0.018805
3563000,0.0324,0.013523,0.002678,0.000431,0.018569
3564000,0.0324,0.013523,0.002678,0.000431,0.019275
3565000,0.0324,0.013523,0.002678,0.000431,0.017982
3566000,0.0324,0.013523,0.002678,0.000431,0.018805
3567000,0.0324,0.013523,0.002678,0.000431,0.018452
3568000,0.0324,0.013523,0.002678,0.000431,0.018805
3569000,0.0324,0.013523,0.002678,0.000431,0.018569
3570000,0.0324,0.013523,0.002678,0.000431,0.018687
3571000,0.0324,0.013523,0.002678,0.000431,0.018452
3572000,0.0324,0.013523,0.002678,0.000431,0.018922
3573000,0.0324,0.013523,0.002678,0.000431,0.018569
3574000,0.0324,0.013523,0.002678,0.000431,0.018099
3575000,0.0324,0.013523,0.002678,0.000431,0.018452
3576000,0.0324,0.013523,0.002678,0.000431,0.018922
3577000,0.0324,0.013523,0.002678,0.000431,0.017982
3578000,0.0324,0.013523,0.002678,0.000431,0.017629
3579000,0.0324,0.013523,0.002678,0.000431,0.017277
3580000,0.0324,0.013523,0.002678,0.000431,0.017159
3581000,0.0324,0.013523,0.002678,0.000431,0.017747
3582000,0.0324,0.013523,0.002678,0.000431,0.018217
3583000,0.0324,0.013523,0.002678,0.000431,0.017982
3584000,0.0324,0.013523,0.002678,0.000431,0.017512
3585000,0.0324,0.013523,0.002678,0.000431,0.017042
3586000,0.0324,0.013523,0.002678,0.000431,0.017982
3587000,0.0324,0.013523,0.002678,0.000431,0.017159
3588000,0.0324,0.013523,0.002678,0.000431,0.017864
3589000,0.0324,0.013523,0.002678,0.000431,0.017982
3590000,0.0324,0.013523,0.002678,0.000431,0.017982
3591000,0.0324,0.013523,0.002678,0.000431,0.017747
3592000,0.0324,0.013523,0.002678,0.000431,0.017864
3593000,0.0324,0.013523,0.002678,0.000431,0.018099
3594000,0.0324,0.013523,0.002678,0.000431,0.016924
3595000,0.0324,0.013523,0.002678,0.000431,0.017629
3596000,0.0324,0.013523,0.002678,0.000431,0.018452
3597000,0.0324,0.013523,0.002678,0.000431,0.016924
3598000,0.0324,0.013523,0.002678,0.000431,0.017982
3599000,0.0324,0.013523,0.002678,0.000431,0.017512
3600000,0.0324,0.013523,0.002678,0.000431,0.018805
3601000,0.0324,0.013523,0.002678,0.000431,0.017629
3602000,0.0324,0.013523,0.002678,0.000431,0.018452
3603000,0.0324,0.013523,0.002678,0.000431,0.017042
3604000,0.0324,0.013523,0.002678,0.000431,0.017277
3605000,0.0324,0.013523,0.002678,0.000431,0.016454
3606000,0.0324,0.013523,0.002678,0.000431,0.016571
3607000,0.0324,0.013523,0.002678,0.000431,0.017042
3608000,0.0324,0.013523,0.002678,0.000431,0.016571
3609000,0.0324,0.013523,0.002678,0.000431,0.016807
3610000,0.0324,0.013523,0.002678,0.000431,0.017747
3611000,0.0324,0.013523,0.002678,0.000431,0.017864
3612000,0.0324,0.013523,0.002678,0.000431,0.016689
3613000,0.0324,0.013523,0.002678,0.000431,0.017159
3614000,0.0324,0.013523,0.002678,0.000431,0.017394
3615000,0.0324,0.013523,0.002678,0.000431,0.017042
3616000,0.0324,0.013523,0.002678,0.000431,0.016807
3617000,0.0324,0.013523,0.002678,0.000431,0.016807
3618000,0.0324,0.013523,0.002678,0.000431,0.016689
3619000,0.0324,0.013523,0.002678,0.000431,0.016807
3620000,0.0324,0.013523,0.002678,0.000431,0.017042
3621000,0.0324,0.013523,0.002678,0.000431,0.017159
3622000,0.0324,0.013523,0.002678,0.000431,0.017512
3623000,0.0324,0.013523,0.002678,0.000431,0.017864
3624000,0.0324,0.013523,0.002678,0.000431,0.014809
3625000,0.0324,0.013523,0.002678,0.000431,0.015161
3626000,0.0324,0.013523,0.002678,0.000431,0.014926
3627000,0.0324,0.013523,0.002678,0.000431,0.014573
3628000,0.0324,0.013523,0.002678,0.000431,0.014221
3629000,0.0324,0.013523,0.002678,0.000431,0.015396
3630000,0.0324,0.013523,0.002678,0.000431,0.014691
3631000,0.0324,0.013523,0.002678,0.000431,0.015631
3632000,0.0324,0.013523,0.002678,0.000431,0.013986
3633000,0.0324,0.013523,0.002678,0.000431,0.015279
3634000,0.0324,0.013523,0.002678,0.000431,0.015161
3635000,0.0324,0.013523,0.002678,0.000431,0.014926
3636000,0.0324,0.013523,0.002678,0.000431,0.014809
3637000,0.0324,0.013523,0.002678,0.000431,0.014573
3638000,0.0324,0.013523,0.002678,0.000431,0.015044
3639000,0.0324,0.013523,0.002678,0.000431,0.014221
3640000,0.0324,0.013523,0.002678,0.000431,0.015279
3641000,0.0324,0.013523,0.002678,0.000431,0.015161
3642000,0.0324,0.013523,0.002678,0.000431,0.014809
3643000,0.0324,0.013523,0.002678,0.000431,0.014926
3644000,0.0324,0.013523,0.002678,0.000431,0.015044
3645000,0.0324,0.013523,0.002678,0.000431,0.015279
3646000,0.0324,0.013523,0.002678,0.000431,0.015161
3647000,0.0324,0.013523,0.002678,0.000431,0.014691
3648000,0.0324,0.013523,0.002678,0.000431,0.014809
3649000,0.0324,0.013523,0.002678,0.000431,0.014573
3650000,0.0324,0.013523,0.002678,0.000431,0.015044
3651000,0.0324,0.013523,0.002678,0.000431,0.014691
3652000,0.0324,0.013523,0.002678,0.000431,0.015279
3653000,0.0324,0.013523,0.002678,0.000431,0.014456
3654000,0.0324,0.013523,0.002678,0.000431,0.015161
3655000,0.0324,0.013523,0.002678,0.000431,0.014456
3656000,0.0324,0.013523,0.002678,0.000431,0.014809
3657000,0.0324,0.013523,0.002678,0.000431,0.014691
3658000,0.0324,0.013523,0.002678,0.000431,0.014573
3659000,0.0324,0.013523,0.002678,0.000431,0.015161
3660000,0.0324,0.013523,0.002678,0.000431,0.013516
3661000,0.0324,0.013523,0.002678,0.000431,0.014456
3662000,0.0324,0.013523,0.002678,0.000431,0.014221
3663000,0.0324,0.013523,0.002678,0.000431,0.013986
3664000,0.0324,0.013523,0.002678,0.000431,0.014221
3665000,0.0324,0.013523,0.002678,0.000431,0.013868
3666000,0.0324,0.013523,0.002678,0.000431,0.015396
3667000,0.0324,0.013523,0.002678,0.000431,0.013986
3668000,0.0324,0.013523,0.002678,0.000431,0.013633
3669000,0.0324,0.013523,0.002678,0.000431,0.013751
3670000,0.0324,0.013523,0.002678,0.000431,0.014221
3671000,0.0324,0.013523,0.002678,0.000431,0.014338
3672000,0.0324,0.013523,0.002678,0.000431,0.013868
3673000,0.0324,0.013523,0.002678,0.000431,0.014691
3674000,0.0324,0.013523,0.002678,0.000431,0.014103
3675000,0.0324,0.013523,0.002678,0.000431,0.013633
3676000,0.0324,0.013523,0.002678,0.000431,0.014221
3677000,0.0324,0.013523,0.002678,0.000431,0.014691
3678000,0.0324,0.013523,0.002678,0.000431,0.013398
3679000,0.0324,0.013523,0.002678,0.000431,0.013986
3680000,0.0324,0.013523,0.002678,0.000431,0.014338
3681000,0.0324,0.013523,0.002678,0.000431,0.014103
3682000,0.0324,0.013523,0.002678,0.000431,0.014456
3683000,0.0324,0.013523,0.002678,0.000431,0.013751
3684000,0.0324,0.013523,0.002678,0.000431,0.014809
3685000,0.0324,0.013523,0.002678,0.000431,0.014338
3686000,0.0324,0.013523,0.002678,0.000431,0.014456
3687000,0.0324,0.013523,0.002678,0.000431,0.013986
3688000,0.0324,0.013523,0.002678,0.000431,0.014573
3689000,0.0324,0.013523,0.002678,0.000431,0.013751
3690000,0.0324,0.013523,0.002678,0.000431,0.014221
3691000,0.0324,0.013523,0.002678,0.000431,0.014456
3692000,0.0324,0.013523,0.002678,0.000431,0.013751
3693000,0.0324,0.013523,0.002678,0.000431,0.014221
3694000,0.0324,0.013523,0.002678,0.000431,0.013868
3695000,0.0324,0.013523,0.002678,0.000431,0.015396
3696000,0.0324,0.013523,0.002678,0.000431,0.013516
3697000,0.0324,0.013523,0.002678,0.000431,0.013281
3698000,0.0324,0.013523,0.002678,0.000431,0.014221
3699000,0.0324,0.013523,0.002678,0.000431,0.013868
3700000,0.0324,0.013523,0.002678,0.000431,0.013986
3701000,0.0324,0.013523,0.002678,0.000431,0.013868
3702000,0.0324,0.013523,0.002678,0.000431,0.013281
3703000,0.0324,0.013523,0.002678,0.000431,0.013046
3704000,0.0324,0.013523,0.002678,0.000431,0.013751
3705000,0.0324,0.013523,0.002678,0.000431,0.013986
3706000,0.0324,0.013523,0.002678,0.000431,0.013163
3707000,0.0324,0.013523,0.002678,0.000431,0.013046
3708000,0.0324,0.013523,0.002678,0.000431,0.012458
3709000,0.0324,0.013523,0.002678,0.000431,0.012458
3710000,0.0324,0.013523,0.002678,0.000431,0.013281
3711000,0.0324,0.013523,0.002678,0.000431,0.013398
3712000,0.0324,0.013523,0.002678,0.000431,0.012340
3713000,0.0324,0.013523,0.002678,0.000431,0.013281
3714000,0.0324,0.013523,0.002678,0.000431,0.013046
3715000,0.0324,0.013523,0.002678,0.000431,0.012576
3716000,0.0324,0.013523,0.002678,0.000431,0.012928
3717000,0.0324,0.013523,0.002678,0.000431,0.013281
3718000,0.0324,0.013523,0.002678,0.000431,0.012928
3719000,0.0324,0.013523,0.002678,0.000431,0.011988
3720000,0.0324,0.013523,0.002678,0.000431,0.012576
3721000,0.0324,0.013523,0.002678,0.000431,0.011753
3722000,0.0324,0.013523,0.002678,0.000431,0.012811
3723000,0.0324,0.013523,0.002678,0.000431,0.012105
3724000,0.0324,0.013523,0.002678,0.000431,0.012340
3725000,0.0324,0.013523,0.002678,0.000431,0.012223
3726000,0.0324,0.013523,0.002678,0.000431,0.012223
3727000,0.0324,0.013523,0.002678,0.000431,0.011988
3728000,0.0324,0.013523,0.002678,0.000431,0.012576
3729000,0.0324,0.013523,0.002678,0.000431,0.012458
3730000,0.0324,0.013523,0.002678,0.000431,0.011635
3731000,0.0324,0.013523,0.002678,0.000431,0.012576
3732000,0.0324,0.013523,0.002678,0.000431,0.012340
3733000,0.0324,0.013523,0.002678,0.000431,0.012105
3734000,0.0324,0.013523,0.002678,0.000431,0.011400
3735000,0.0324,0.013523,0.002678,0.000431,0.013281
3736000,0.0324,0.013523,0.002678,0.000431,0.011518
3737000,0.0324,0.013523,0.002678,0.000431,0.011400
3738000,0.0324,0.013523,0.002678,0.000431,0.011165
3739000,0.0324,0.013523,0.002678,0.000431,0.011753
3740000,0.0324,0.013523,0.002678,0.000431,0.011518
3741000,0.0324,0.013523,0.002678,0.000431,0.011870
3742000,0.0324,0.013523,0.002678,0.000431,0.011400
3743000,0.0324,0.013523,0.002678,0.000431,0.011518
3744000,0.0324,0.013523,0.002678,0.000431,0.011988
3745000,0.0324,0.013523,0.002678,0.000431,0.010930
3746000,0.0324,0.013523,0.002678,0.000431,0.011870
3747000,0.0324,0.013523,0.002678,0.000431,0.011048
3748000,0.0324,0.013523,0.002678,0.000431,0.011400
3749000,0.0324,0.013523,0.002678,0.000431,0.011753
3750000,0.0324,0.013523,0.002678,0.000431,0.011870
3751000,0.0324,0.013523,0.002678,0.000431,0.011518
3752000,0.0324,0.013523,0.002678,0.000431,0.011048
3753000,0.0324,0.013523,0.002678,0.000431,0.011988
3754000,0.0324,0.013523,0.002678,0.000431,0.011635
3755000,0.0324,0.013523,0.002678,0.000431,0.011518
3756000,0.0324,0.013523,0.002678,0.000431,0.011870
3757000,0.0324,0.013523,0.002678,0.000431,0.011165
3758000,0.0324,0.013523,0.002678,0.000431,0.012223
3759000,0.0324,0.013523,0.002678,0.000431,0.011753
3760000,0.0324,0.013523,0.002678,0.000431,0.011870
3761000,0.0324,0.013523,0.002678,0.000431,0.010813
3762000,0.0324,0.013523,0.002678,0.000431,0.011635
3763000,0.0324,0.013523,0.002678,0.000431,0.010930
3764000,0.0324,0.013523,0.002678,0.000431,0.011635
3765000,0.0324,0.013523,0.002678,0.000431,0.011988
3766000,0.0324,0.013523,0.002678,0.000431,0.012576
3767000,0.0324,0.013523,0.002678,0.000431,0.010813
3768000,0.0324,0.013523,0.002678,0.000431,0.010813
3769000,0.0324,0.013523,0.002678,0.000431,0.011283
3770000,0.0324,0.013523,0.002678,0.000431,0.011165
3771000,0.0324,0.013523,0.002678,0.000431,0.010813
3772000,0.0324,0.013523,0.002678,0.000431,0.010225
3773000,0.0324,0.013523,0.002678,0.000431,0.011400
3774000,0.0324,0.013523,0.002678,0.000431,0.011283
3775000,0.0324,0.013523,0.002678,0.000431,0.010813
3776000,0.0324,0.013523,0.002678,0.000431,0.011400
3777000,0.0324,0.013523,0.002678,0.000431,0.010342
3778000,0.0324,0.013523,0.002678,0.000431,0.010107
3779000,0.0324,0.013523,0.002678,0.000431,0.010460
3780000,0.0324,0.013523,0.002678,0.000431,0.010342
3781000,0.0324,0.013523,0.002678,0.000431,0.009520
3782000,0.0324,0.013523,0.002678,0.000431,0.009755
3783000,0.0324,0.013523,0.002678,0.000431,0.010225
3784000,0.0324,0.013523,0.002678,0.000431,0.010107
3785000,0.0324,0.013523,0.002678,0.000431,0.009990
3786000,0.0324,0.013523,0.002678,0.000431,0.010107
3787000,0.0324,0.013523,0.002678,0.000431,0.009990
3788000,0.0324,0.013523,0.002678,0.000431,0.010342
3789000,0.0324,0.013523,0.002678,0.000431,0.010578
3790000,0.0324,0.013523,0.002678,0.000431,0.011048
3791000,0.0324,0.013523,0.002678,0.000431,0.009990
3792000,0.0324,0.013523,0.002678,0.000431,0.010225
3793000,0.0324,0.013523,0.002678,0.000431,0.009520
3794000,0.0324,0.013523,0.002678,0.000431,0.011048
3795000,0.0324,0.013523,0.002678,0.000431,0.010342
3796000,0.0324,0.013523,0.002678,0.000431,0.010460
3797000,0.0324,0.013523,0.002678,0.000431,0.010107
3798000,0.0324,0.013523,0.002678,0.000431,0.010225
3799000,0.0324,0.013523,0.002678,0.000431,0.009990
3800000,0.0324,0.013523,0.002678,0.000431,0.009990
3801000,0.0324,0.013523,0.002678,0.000431,0.010460
3802000,0.0324,0.013523,0.002678,0.000431,0.009990
3803000,0.0324,0.013523,0.002678,0.000431,0.010813
3804000,0.0324,0.013523,0.002678,0.000431,0.009402
3805000,0.0324,0.013523,0.002678,0.000431,0.009402
3806000,0.0324,0.013523,0.002678,0.000431,0.009402
3807000,0.0324,0.013523,0.002678,0.000431,0.009872
3808000,0.0324,0.013523,0.002678,0.000431,0.009402
3809000,0.0324,0.013523,0.002678,0.000431,0.009872
3810000,0.0324,0.013523,0.002678,0.000431,0.009990
3811000,0.0324,0.013523,0.002678,0.000431,0.008697
3812000,0.0324,0.013523,0.002678,0.000431,0.008580
3813000,0.0324,0.013523,0.002678,0.000431,0.008462
3814000,0.0324,0.013523,0.002678,0.000431,0.008932
3815000,0.0324,0.013523,0.002678,0.000431,0.008462
3816000,0.0324,0.013523,0.002678,0.000431,0.008932
3817000,0.0324,0.013523,0.002678,0.000431,0.009050
3818000,0.0324,0.013523,0.002678,0.000431,0.009050
3819000,0.0324,0.013523,0.002678,0.000431,0.008580
3820000,0.0324,0.013523,0.002678,0.000431,0.009050
3821000,0.0324,0.013523,0.002678,0.000431,0.008580
3822000,0.0324,0.013523,0.002678,0.000431,0.009285
3823000,0.0324,0.013523,0.002678,0.000431,0.008697
3824000,0.0324,0.013523,0.002678,0.000431,0.008580
3825000,0.0324,0.013523,0.002678,0.000431,0.008697
3826000,0.0324,0.013523,0.002678,0.000431,0.008345
3827000,0.0324,0.013523,0.002678,0.000431,0.008932
3828000,0.0324,0.013523,0.002678,0.000431,0.008697
3829000,0.0324,0.013523,0.002678,0.000431,0.008462
3830000,0.0324,0.013523,0.002678,0.000431,0.008462
3831000,0.0324,0.013523,0.002678,0.000431,0.009050
3832000,0.0324,0.013523,0.002678,0.000431,0.008815
3833000,0.0324,0.013523,0.002678,0.000431,0.009285
3834000,0.0324,0.013523,0.002678,0.000431,0.007639
3835000,0.0324,0.013523,0.002678,0.000431,0.008462
3836000,0.0324,0.013523,0.002678,0.000431,0.007874
3837000,0.0324,0.013523,0.002678,0.000431,0.007639
3838000,0.0324,0.013523,0.002678,0.000431,0.007874
3839000,0.0324,0.013523,0.002678,0.000431,0.008109
3840000,0.0324,0.013523,0.002678,0.000431,0.008345
3841000,0.0324,0.013523,0.002678,0.000431,0.007757
3842000,0.0324,0.013523,0.002678,0.000431,0.008227
3843000,0.0324,0.013523,0.002678,0.000431,0.007639
3844000,0.0324,0.013523,0.002678,0.000431,0.008345
3845000,0.0324,0.013523,0.002678,0.000431,0.008345
3846000,0.0324,0.013523,0.002678,0.000431,0.007992
3847000,0.0324,0.013523,0.002678,0.000431,0.008109
3848000,0.0324,0.013523,0.002678,0.000431,0.007757
3849000,0.0324,0.013523,0.002678,0.000431,0.008227
3850000,0.0324,0.013523,0.002678,0.000431,0.008227
3851000,0.0324,0.013523,0.002678,0.000431,0.008697
3852000,0.0324,0.013523,0.002678,0.000431,0.007757
3853000,0.0324,0.013523,0.002678,0.000431,0.008109
3854000,0.0324,0.013523,0.002678,0.000431,0.008815
3855000,0.0324,0.013523,0.002678,0.000431,0.006934
3856000,0.0324,0.013523,0.002678,0.000431,0.007287
3857000,0.0324,0.013523,0.002678,0.000431,0.007404
3858000,0.0324,0.013523,0.002678,0.000431,0.006934
3859000,0.0324,0.013523,0.002678,0.000431,0.007287
3860000,0.0324,0.013523,0.002678,0.000431,0.008109
3861000,0.0324,0.013523,0.002678,0.000431,0.007404
3862000,0.0324,0.013523,0.002678,0.000431,0.007639
3863000,0.0324,0.013523,0.002678,0.000431,0.007404
3864000,0.0324,0.013523,0.002678,0.000431,0.007287
3865000,0.0324,0.013523,0.002678,0.000431,0.007287
3866000,0.0324,0.013523,0.002678,0.000431,0.007052
3867000,0.0324,0.013523,0.002678,0.000431,0.007874
3868000,0.0324,0.013523,0.002678,0.000431,0.007052
3869000,0.0324,0.013523,0.002678,0.000431,0.007169
3870000,0.0324,0.013523,0.002678,0.000431,0.006817
3871000,0.0324,0.013523,0.002678,0.000431,0.007639
3872000,0.0324,0.013523,0.002678,0.000431,0.007287
3873000,0.0324,0.013523,0.002678,0.000431,0.007169
3874000,0.0324,0.013523,0.002678,0.000431,0.007522
3875000,0.0324,0.013523,0.002678,0.000431,0.007757
3876000,0.0324,0.013523,0.002678,0.000431,0.007404
3877000,0.0324,0.013523,0.002678,0.000431,0.007169
3878000,0.0324,0.013523,0.002678,0.000431,0.007757
3879000,0.0324,0.013523,0.002678,0.000431,0.007052
3880000,0.0324,0.013523,0.002678,0.000431,0.007992
3881000,0.0324,0.013523,0.002678,0.000431,0.007052
3882000,0.0324,0.013523,0.002678,0.000431,0.006817
3883000,0.0324,0.013523,0.002678,0.000431,0.006582
3884000,0.0324,0.013523,0.002678,0.000431,0.006934
3885000,0.0324,0.013523,0.002678,0.000431,0.007287
3886000,0.0324,0.013523,0.002678,0.000431,0.007169
3887000,0.0324,0.013523,0.002678,0.000431,0.006699
3888000,0.0324,0.013523,0.002678,0.000431,0.006817
3889000,0.0324,0.013523,0.002678,0.000431,0.007169
3890000,0.0324,0.013523,0.002678,0.000431,0.006699
3891000,0.0324,0.013523,0.002678,0.000431,0.006934
3892000,0.0324,0.013523,0.002678,0.000431,0.006817
3893000,0.0324,0.013523,0.002678,0.000431,0.006347
3894000,0.0324,0.013523,0.002678,0.000431,0.006817
3895000,0.0324,0.013523,0.002678,0.000431,0.006582
3896000,0.0324,0.013523,0.002678,0.000431,0.006699
3897000,0.0324,0.013523,0.002678,0.000431,0.006347
3898000,0.0324,0.013523,0.002678,0.000431,0.006934
3899000,0.0324,0.013523,0.002678,0.000431,0.007404
3900000,0.0324,0.013523,0.002678,0.000431,0.006464
3901000,0.0324,0.013523,0.002678,0.000431,0.007287
3902000,0.0324,0.013523,0.002678,0.000431,0.006582
3903000,0.0324,0.013523,0.002678,0.000431,0.006817
3904000,0.0324,0.013523,0.002678,0.000431,0.006347
3905000,0.0324,0.013523,0.002678,0.000431,0.007052
3906000,0.0324,0.013523,0.002678,0.000431,0.006582
3907000,0.0324,0.013523,0.002678,0.000431,0.006934
3908000,0.0324,0.013523,0.002678,0.000431,0.006464
3909000,0.0324,0.013523,0.002678,0.000431,0.007169
3910000,0.0324,0.013523,0.002678,0.000431,0.006699
3911000,0.0324,0.013523,0.002678,0.000431,0.007169
3912000,0.0324,0.013523,0.002678,0.000431,0.006817
3913000,0.0324,0.013523,0.002678,0.000431,0.006699
3914000,0.0324,0.013523,0.002678,0.000431,0.006817
3915000,0.0324,0.013523,0.002678,0.000431,0.007052
3916000,0.0324,0.013523,0.002678,0.000431,0.006464
3917000,0.0324,0.013523,0.002678,0.000431,0.007052
3918000,0.0324,0.013523,0.002678,0.000431,0.006934
3919000,0.0324,0.013523,0.002678,0.000431,0.007287
3920000,0.0324,0.013523,0.002678,0.000431,0.007052
3921000,0.0324,0.013523,0.002678,0.000431,0.006934
3922000,0.0324,0.013523,0.002678,0.000431,0.006817
3923000,0.0324,0.013523,0.002678,0.000431,0.007169
3924000,0.0324,0.013523,0.002678,0.000431,0.006464
3925000,0.0324,0.013523,0.002678,0.000431,0.007052
3926000,0.0324,0.013523,0.002678,0.000431,0.007287
3927000,0.0324,0.013523,0.002678,0.000431,0.007287
3928000,0.0324,0.013523,0.002678,0.000431,0.006347
3929000,0.0324,0.013523,0.002678,0.000431,0.006817
3930000,0.0324,0.013523,0.002678,0.000431,0.006817
3931000,0.0324,0.013523,0.002678,0.000431,0.006934
3932000,0.0324,0.013523,0.002678,0.000431,0.007169
3933000,0.0324,0.013523,0.002678,0.000431,0.006817
3934000,0.0324,0.013523,0.002678,0.000431,0.006699
3935000,0.0324,0.013523,0.002678,0.000431,0.006934
3936000,0.0324,0.013523,0.002678,0.000431,0.007287
3937000,0.0324,0.013523,0.002678,0.000431,0.006699
3938000,0.0324,0.013523,0.002678,0.000431,0.006817
3939000,0.0324,0.013523,0.002678,0.000431,0.006817
3940000,0.0324,0.013523,0.002678,0.000431,0.006817
3941000,0.0324,0.013523,0.002678,0.000431,0.007169
3942000,0.0324,0.013523,0.002678,0.000431,0.006464
3943000,0.0324,0.013523,0.002678,0.000431,0.007052
3944000,0.0324,0.013523,0.002678,0.000431,0.006699
3945000,0.0324,0.013523,0.002678,0.000431,0.006934
3946000,0.0324,0.013523,0.002678,0.000431,0.006817
3947000,0.0324,0.013523,0.002678,0.000431,0.006582
3948000,0.0324,0.013523,0.002678,0.000431,0.007052
3949000,0.0324,0.013523,0.002678,0.000431,0.006934
3950000,0.0324,0.013523,0.002678,0.000431,0.007169
3951000,0.0324,0.013523,0.002678,0.000431,0.006464
3952000,0.0324,0.013523,0.002678,0.000431,0.007169
3953000,0.0324,0.013523,0.002678,0.000431,0.006699
3954000,0.0324,0.013523,0.002678,0.000431,0.006582
3955000,0.0324,0.013523,0.002678,0.000431,0.007169
3956000,0.0324,0.013523,0.002678,0.000431,0.006817
3957000,0.0324,0.013523,0.002678,0.000431,0.007052
3958000,0.0324,0.013523,0.002678,0.000431,0.006817
3959000,0.0324,0.013523,0.002678,0.000431,0.006817
3960000,0.0324,0.013523,0.002678,0.000431,0.006934
3961000,0.0324,0.013523,0.002678,0.000431,0.006582
3962000,0.0324,0.013523,0.002678,0.000431,0.006817
3963000,0.0324,0.013523,0.002678,0.000431,0.006934
3964000,0.0324,0.013523,0.002678,0.000431,0.006934
3965000,0.0324,0.013523,0.002678,0.000431,0.006699
3966000,0.0324,0.013523,0.002678,0.000431,0.006699
3967000,0.0324,0.013523,0.002678,0.000431,0.006934
3968000,0.0324,0.013523,0.002678,0.000431,0.006699
3969000,0.0324,0.013523,0.002678,0.000431,0.006934
3970000,0.0324,0.013523,0.002678,0.000431,0.006699
3971000,0.0324,0.013523,0.002678,0.000431,0.006934
3972000,0.0324,0.013523,0.002678,0.000431,0.006934
3973000,0.0324,0.013523,0.002678,0.000431,0.006229
3974000,0.0324,0.013523,0.002678,0.000431,0.006699
3975000,0.0324,0.013523,0.002678,0.000431,0.006934
3976000,0.0324,0.013523,0.002678,0.000431,0.006582
3977000,0.0324,0.013523,0.002678,0.000431,0.006934
3978000,0.0324,0.013523,0.002678,0.000431,0.006934
3979000,0.0324,0.013523,0.002678,0.000431,0.007169
3980000,0.0324,0.013523,0.002678,0.000431,0.007052
3981000,0.0324,0.013523,0.002678,0.000431,0.007052
3982000,0.0324,0.013523,0.002678,0.000431,0.006934
3983000,0.0324,0.013523,0.002678,0.000431,0.006229
3984000,0.0324,0.013523,0.002678,0.000431,0.007404
3985000,0.0324,0.013523,0.002678,0.000431,0.006817
3986000,0.0324,0.013523,0.002678,0.000431,0.007052
3987000,0.0324,0.013523,0.002678,0.000431,0.006817
3988000,0.0324,0.013523,0.002678,0.000431,0.006582
3989000,0.0324,0.013523,0.002678,0.000431,0.006817
3990000,0.0324,0.013523,0.002678,0.000431,0.007052
3991000,0.0324,0.013523,0.002678,0.000431,0.007287
3992000,0.0324,0.013523,0.002678,0.000431,0.007052
3993000,0.0324,0.013523,0.002678,0.000431,0.007169
3994000,0.0324,0.013523,0.002678,0.000431,0.006934
3995000,0.0324,0.013523,0.002678,0.000431,0.006817
3996000,0.0324,0.013523,0.002678,0.000431,0.006699
3997000,0.0324,0.013523,0.002678,0.000431,0.006817
3998000,0.0324,0.013523,0.002678,0.000431,0.007287
3999000,0.0324,0.013523,0.002678,0.000431,0.006699
