Cycle,Area(mm^2),PeakDynamic(W),SubthresholdLeakage(W),GateLeakage(W),RunTimeDynamic(W)
1000000,0.0324,0.013523,0.002678,0.000431,0.501963
1001000,0.0324,0.013523,0.002678,0.000431,0.479868
1002000,0.0324,0.013523,0.002678,0.000431,0.459653
1003000,0.0324,0.013523,0.002678,0.000431,0.434972
1004000,0.0324,0.013523,0.002678,0.000431,0.452719
1005000,0.0324,0.013523,0.002678,0.000431,0.469055
1006000,0.0324,0.013523,0.002678,0.000431,0.418753
1007000,0.0324,0.013523,0.002678,0.000431,0.540277
1008000,0.0324,0.013523,0.002678,0.000431,0.610559
1009000,0.0324,0.013523,0.002678,0.000431,0.474931
1010000,0.0324,0.013523,0.002678,0.000431,0.494794
1011000,0.0324,0.013523,0.002678,0.000431,0.684837
1012000,0.0324,0.013523,0.002678,0.000431,0.633477
1013000,0.0324,0.013523,0.002678,0.000431,0.617376
1014000,0.0324,0.013523,0.002678,0.000431,0.618433
1015000,0.0324,0.013523,0.002678,0.000431,0.637825
1016000,0.0324,0.013523,0.002678,0.000431,0.586583
1017000,0.0324,0.013523,0.002678,0.000431,0.649226
1018000,0.0324,0.013523,0.002678,0.000431,0.612792
1019000,0.0324,0.013523,0.002678,0.000431,0.532520
1020000,0.0324,0.013523,0.002678,0.000431,0.473404
1021000,0.0324,0.013523,0.002678,0.000431,0.424629
1022000,0.0324,0.013523,0.002678,0.000431,0.473286
1023000,0.0324,0.013523,0.002678,0.000431,0.490915
1024000,0.0324,0.013523,0.002678,0.000431,0.420046
1025000,0.0324,0.013523,0.002678,0.000431,0.528994
1026000,0.0324,0.013523,0.002678,0.000431,0.457302
1027000,0.0324,0.013523,0.002678,0.000431,0.382907
1028000,0.0324,0.013523,0.002678,0.000431,0.369626
1029000,0.0324,0.013523,0.002678,0.000431,0.361164
1030000,0.0324,0.013523,0.002678,0.000431,0.448017
1031000,0.0324,0.013523,0.002678,0.000431,0.532050
1032000,0.0324,0.013523,0.002678,0.000431,0.604565
1033000,0.0324,0.013523,0.002678,0.000431,0.498202
1034000,0.0324,0.013523,0.002678,0.000431,0.565898
1035000,0.0324,0.013523,0.002678,0.000431,0.637473
1036000,0.0324,0.013523,0.002678,0.000431,0.619021
1037000,0.0324,0.013523,0.002678,0.000431,0.569189
1038000,0.0324,0.013523,0.002678,0.000431,0.547446
1039000,0.0324,0.013523,0.002678,0.000431,0.533225
1040000,0.0324,0.013523,0.002678,0.000431,0.540042
1041000,0.0324,0.013523,0.002678,0.000431,0.466234
1042000,0.0324,0.013523,0.002678,0.000431,0.444021
1043000,0.0324,0.013523,0.002678,0.000431,0.552147
1044000,0.0324,0.013523,0.002678,0.000431,0.480220
1045000,0.0324,0.013523,0.002678,0.000431,0.446960
1046000,0.0324,0.013523,0.002678,0.000431,0.453424
1047000,0.0324,0.013523,0.002678,0.000431,0.476812
1048000,0.0324,0.013523,0.002678,0.000431,0.560139
1049000,0.0324,0.013523,0.002678,0.000431,0.523118
1050000,0.0324,0.013523,0.002678,0.000431,0.499847
1051000,0.0324,0.013523,0.002678,0.000431,0.516066
1052000,0.0324,0.013523,0.002678,0.000431,0.517712
1053000,0.0324,0.013523,0.002678,0.000431,0.405590
1054000,0.0324,0.013523,0.002678,0.000431,0.399713
1055000,0.0324,0.013523,0.002678,0.000431,0.441436
1056000,0.0324,0.013523,0.002678,0.000431,0.427568
1057000,0.0324,0.013523,0.002678,0.000431,0.378441
1058000,0.0324,0.013523,0.002678,0.000431,0.443199
1059000,0.0324,0.013523,0.002678,0.000431,0.511483
1060000,0.0324,0.013523,0.002678,0.000431,0.422161
1061000,0.0324,0.013523,0.002678,0.000431,0.432974
1062000,0.0324,0.013523,0.002678,0.000431,0.460358
1063000,0.0324,0.013523,0.002678,0.000431,0.369509
1064000,0.0324,0.013523,0.002678,0.000431,0.415462
1065000,0.0324,0.013523,0.002678,0.000431,0.459888
1066000,0.0324,0.013523,0.002678,0.000431,0.380204
1067000,0.0324,0.013523,0.002678,0.000431,0.384200
1068000,0.0324,0.013523,0.002678,0.000431,0.395600
1069000,0.0324,0.013523,0.002678,0.000431,0.426275
1070000,0.0324,0.013523,0.002678,0.000431,0.375855
1071000,0.0324,0.013523,0.002678,0.000431,0.358108
1072000,0.0324,0.013523,0.002678,0.000431,0.359754
1073000,0.0324,0.013523,0.002678,0.000431,0.434972
1074000,0.0324,0.013523,0.002678,0.000431,0.566251
1075000,0.0324,0.013523,0.002678,0.000431,0.407353
1076000,0.0324,0.013523,0.002678,0.000431,0.453071
1077000,0.0324,0.013523,0.002678,0.000431,0.542158
1078000,0.0324,0.013523,0.002678,0.000431,0.496204
1079000,0.0324,0.013523,0.002678,0.000431,0.502786
1080000,0.0324,0.013523,0.002678,0.000431,0.488800
1081000,0.0324,0.013523,0.002678,0.000431,0.407000
1082000,0.0324,0.013523,0.002678,0.000431,0.444727
1083000,0.0324,0.013523,0.002678,0.000431,0.493031
1084000,0.0324,0.013523,0.002678,0.000431,0.426627
1085000,0.0324,0.013523,0.002678,0.000431,0.503256
1086000,0.0324,0.013523,0.002678,0.000431,0.448135
1087000,0.0324,0.013523,0.002678,0.000431,0.442494
1088000,0.0324,0.013523,0.002678,0.000431,0.399361
1089000,0.0324,0.013523,0.002678,0.000431,0.464589
1090000,0.0324,0.013523,0.002678,0.000431,0.553440
1091000,0.0324,0.013523,0.002678,0.000431,0.442494
1092000,0.0324,0.013523,0.002678,0.000431,0.578826
1093000,0.0324,0.013523,0.002678,0.000431,0.500788
1094000,0.0324,0.013523,0.002678,0.000431,0.452013
1095000,0.0324,0.013523,0.002678,0.000431,0.446137
1096000,0.0324,0.013523,0.002678,0.000431,0.386785
1097000,0.0324,0.013523,0.002678,0.000431,0.346943
1098000,0.0324,0.013523,0.002678,0.000431,0.371859
1099000,0.0324,0.013523,0.002678,0.000431,0.415697
1100000,0.0324,0.013523,0.002678,0.000431,0.422749
1101000,0.0324,0.013523,0.002678,0.000431,0.383377
1102000,0.0324,0.013523,0.002678,0.000431,0.487859
1103000,0.0324,0.013523,0.002678,0.000431,0.523000
1104000,0.0324,0.013523,0.002678,0.000431,0.498907
1105000,0.0324,0.013523,0.002678,0.000431,0.503138
1106000,0.0324,0.013523,0.002678,0.000431,0.472933
1107000,0.0324,0.013523,0.002678,0.000431,0.426510
1108000,0.0324,0.013523,0.002678,0.000431,0.481983
1109000,0.0324,0.013523,0.002678,0.000431,0.390899
1110000,0.0324,0.013523,0.002678,0.000431,0.466704
1111000,0.0324,0.013523,0.002678,0.000431,0.561080
1112000,0.0324,0.013523,0.002678,0.000431,0.475519
1113000,0.0324,0.013523,0.002678,0.000431,0.542863
1114000,0.0324,0.013523,0.002678,0.000431,0.511130
1115000,0.0324,0.013523,0.002678,0.000431,0.451543
1116000,0.0324,0.013523,0.002678,0.000431,0.444257
1117000,0.0324,0.013523,0.002678,0.000431,0.426392
1118000,0.0324,0.013523,0.002678,0.000431,0.403357
1119000,0.0324,0.013523,0.002678,0.000431,0.424747
1120000,0.0324,0.013523,0.002678,0.000431,0.327786
1121000,0.0324,0.013523,0.002678,0.000431,0.341772
1122000,0.0324,0.013523,0.002678,0.000431,0.453424
1123000,0.0324,0.013523,0.002678,0.000431,0.394660
1124000,0.0324,0.013523,0.002678,0.000431,0.487507
1125000,0.0324,0.013523,0.002678,0.000431,0.420046
1126000,0.0324,0.013523,0.002678,0.000431,0.417460
1127000,0.0324,0.013523,0.002678,0.000431,0.471641
1128000,0.0324,0.013523,0.002678,0.000431,0.512658
1129000,0.0324,0.013523,0.002678,0.000431,0.665210
1130000,0.0324,0.013523,0.002678,0.000431,0.736314
1131000,0.0324,0.013523,0.002678,0.000431,0.564605
1132000,0.0324,0.013523,0.002678,0.000431,0.606328
1133000,0.0324,0.013523,0.002678,0.000431,0.567661
1134000,0.0324,0.013523,0.002678,0.000431,0.459653
1135000,0.0324,0.013523,0.002678,0.000431,0.456950
1136000,0.0324,0.013523,0.002678,0.000431,0.484686
1137000,0.0324,0.013523,0.002678,0.000431,0.348941
1138000,0.0324,0.013523,0.002678,0.000431,0.430741
1139000,0.0324,0.013523,0.002678,0.000431,0.528877
1140000,0.0324,0.013523,0.002678,0.000431,0.441083
1141000,0.0324,0.013523,0.002678,0.000431,0.434267
1142000,0.0324,0.013523,0.002678,0.000431,0.526761
1143000,0.0324,0.013523,0.002678,0.000431,0.420986
1144000,0.0324,0.013523,0.002678,0.000431,0.368216
1145000,0.0324,0.013523,0.002678,0.000431,0.352820
1146000,0.0324,0.013523,0.002678,0.000431,0.399361
1147000,0.0324,0.013523,0.002678,0.000431,0.401006
1148000,0.0324,0.013523,0.002678,0.000431,0.415815
1149000,0.0324,0.013523,0.002678,0.000431,0.400771
1150000,0.0324,0.013523,0.002678,0.000431,0.382084
1151000,0.0324,0.013523,0.002678,0.000431,0.347883
1152000,0.0324,0.013523,0.002678,0.000431,0.328844
1153000,0.0324,0.013523,0.002678,0.000431,0.373857
1154000,0.0324,0.013523,0.002678,0.000431,0.394895
1155000,0.0324,0.013523,0.002678,0.000431,0.297699
1156000,0.0324,0.013523,0.002678,0.000431,0.308394
1157000,0.0324,0.013523,0.002678,0.000431,0.395717
1158000,0.0324,0.013523,0.002678,0.000431,0.373387
1159000,0.0324,0.013523,0.002678,0.000431,0.370449
1160000,0.0324,0.013523,0.002678,0.000431,0.547329
1161000,0.0324,0.013523,0.002678,0.000431,0.667443
1162000,0.0324,0.013523,0.002678,0.000431,0.514773
1163000,0.0324,0.013523,0.002678,0.000431,0.465294
1164000,0.0324,0.013523,0.002678,0.000431,0.490680
1165000,0.0324,0.013523,0.002678,0.000431,0.522648
1166000,0.0324,0.013523,0.002678,0.000431,0.428508
1167000,0.0324,0.013523,0.002678,0.000431,0.440613
1168000,0.0324,0.013523,0.002678,0.000431,0.490093
1169000,0.0324,0.013523,0.002678,0.000431,0.458360
1170000,0.0324,0.013523,0.002678,0.000431,0.390194
1171000,0.0324,0.013523,0.002678,0.000431,0.377618
1172000,0.0324,0.013523,0.002678,0.000431,0.385022
1173000,0.0324,0.013523,0.002678,0.000431,0.360576
1174000,0.0324,0.013523,0.002678,0.000431,0.424982
1175000,0.0324,0.013523,0.002678,0.000431,0.429095
1176000,0.0324,0.013523,0.002678,0.000431,0.351292
1177000,0.0324,0.013523,0.002678,0.000431,0.478575
1178000,0.0324,0.013523,0.002678,0.000431,0.597161
1179000,0.0324,0.013523,0.002678,0.000431,0.502080
1180000,0.0324,0.013523,0.002678,0.000431,0.448488
1181000,0.0324,0.013523,0.002678,0.000431,0.487154
1182000,0.0324,0.013523,0.002678,0.000431,0.487389
1183000,0.0324,0.013523,0.002678,0.000431,0.513011
1184000,0.0324,0.013523,0.002678,0.000431,0.562020
1185000,0.0324,0.013523,0.002678,0.000431,0.496204
1186000,0.0324,0.013523,0.002678,0.000431,0.505724
1187000,0.0324,0.013523,0.002678,0.000431,0.458595
1188000,0.0324,0.013523,0.002678,0.000431,0.477517
1189000,0.0324,0.013523,0.002678,0.000431,0.446372
1190000,0.0324,0.013523,0.002678,0.000431,0.490210
1191000,0.0324,0.013523,0.002678,0.000431,0.501493
1192000,0.0324,0.013523,0.002678,0.000431,0.429566
1193000,0.0324,0.013523,0.002678,0.000431,0.497262
1194000,0.0324,0.013523,0.002678,0.000431,0.532873
1195000,0.0324,0.013523,0.002678,0.000431,0.405355
1196000,0.0324,0.013523,0.002678,0.000431,0.529935
1197000,0.0324,0.013523,0.002678,0.000431,0.506076
1198000,0.0324,0.013523,0.002678,0.000431,0.400654
1199000,0.0324,0.013523,0.002678,0.000431,0.397245
1200000,0.0324,0.013523,0.002678,0.000431,0.441083
1201000,0.0324,0.013523,0.002678,0.000431,0.433209
1202000,0.0324,0.013523,0.002678,0.000431,0.394425
1203000,0.0324,0.013523,0.002678,0.000431,0.433209
1204000,0.0324,0.013523,0.002678,0.000431,0.398185
1205000,0.0324,0.013523,0.002678,0.000431,0.461063
1206000,0.0324,0.013523,0.002678,0.000431,0.430858
1207000,0.0324,0.013523,0.002678,0.000431,0.474109
1208000,0.0324,0.013523,0.002678,0.000431,0.469643
1209000,0.0324,0.013523,0.002678,0.000431,0.484334
1210000,0.0324,0.013523,0.002678,0.000431,0.446725
1211000,0.0324,0.013523,0.002678,0.000431,0.392662
1212000,0.0324,0.013523,0.002678,0.000431,0.398891
1213000,0.0324,0.013523,0.002678,0.000431,0.342242
1214000,0.0324,0.013523,0.002678,0.000431,0.296406
1215000,0.0324,0.013523,0.002678,0.000431,0.270667
1216000,0.0324,0.013523,0.002678,0.000431,0.295231
1217000,0.0324,0.013523,0.002678,0.000431,0.363397
1218000,0.0324,0.013523,0.002678,0.000431,0.299462
1219000,0.0324,0.013523,0.002678,0.000431,0.281245
1220000,0.0324,0.013523,0.002678,0.000431,0.354700
1221000,0.0324,0.013523,0.002678,0.000431,0.314270
1222000,0.0324,0.013523,0.002678,0.000431,0.361634
1223000,0.0324,0.013523,0.002678,0.000431,0.383730
1224000,0.0324,0.013523,0.002678,0.000431,0.417578
1225000,0.0324,0.013523,0.002678,0.000431,0.462003
1226000,0.0324,0.013523,0.002678,0.000431,0.491268
1227000,0.0324,0.013523,0.002678,0.000431,0.492561
1228000,0.0324,0.013523,0.002678,0.000431,0.505841
1229000,0.0324,0.013523,0.002678,0.000431,0.519004
1230000,0.0324,0.013523,0.002678,0.000431,0.394425
1231000,0.0324,0.013523,0.002678,0.000431,0.385257
1232000,0.0324,0.013523,0.002678,0.000431,0.365865
1233000,0.0324,0.013523,0.002678,0.000431,0.378558
1234000,0.0324,0.013523,0.002678,0.000431,0.402652
1235000,0.0324,0.013523,0.002678,0.000431,0.334838
1236000,0.0324,0.013523,0.002678,0.000431,0.413229
1237000,0.0324,0.013523,0.002678,0.000431,0.380674
1238000,0.0324,0.013523,0.002678,0.000431,0.393132
1239000,0.0324,0.013523,0.002678,0.000431,0.446372
1240000,0.0324,0.013523,0.002678,0.000431,0.386080
1241000,0.0324,0.013523,0.002678,0.000431,0.336953
1242000,0.0324,0.013523,0.002678,0.000431,0.324143
1243000,0.0324,0.013523,0.002678,0.000431,0.344593
1244000,0.0324,0.013523,0.002678,0.000431,0.289119
1245000,0.0324,0.013523,0.002678,0.000431,0.295936
1246000,0.0324,0.013523,0.002678,0.000431,0.401476
1247000,0.0324,0.013523,0.002678,0.000431,0.329667
1248000,0.0324,0.013523,0.002678,0.000431,0.353642
1249000,0.0324,0.013523,0.002678,0.000431,0.349999
1250000,0.0324,0.013523,0.002678,0.000431,0.340949
1251000,0.0324,0.013523,0.002678,0.000431,0.341889
1252000,0.0324,0.013523,0.002678,0.000431,0.357873
1253000,0.0324,0.013523,0.002678,0.000431,0.353172
1254000,0.0324,0.013523,0.002678,0.000431,0.305103
1255000,0.0324,0.013523,0.002678,0.000431,0.353172
1256000,0.0324,0.013523,0.002678,0.000431,0.359989
1257000,0.0324,0.013523,0.002678,0.000431,0.388901
1258000,0.0324,0.013523,0.002678,0.000431,0.382437
1259000,0.0324,0.013523,0.002678,0.000431,0.438028
1260000,0.0324,0.013523,0.002678,0.000431,0.536399
1261000,0.0324,0.013523,0.002678,0.000431,0.498555
1262000,0.0324,0.013523,0.002678,0.000431,0.503373
1263000,0.0324,0.013523,0.002678,0.000431,0.442023
1264000,0.0324,0.013523,0.002678,0.000431,0.558141
1265000,0.0324,0.013523,0.002678,0.000431,0.581059
1266000,0.0324,0.013523,0.002678,0.000431,0.418988
1267000,0.0324,0.013523,0.002678,0.000431,0.421339
1268000,0.0324,0.013523,0.002678,0.000431,0.378323
1269000,0.0324,0.013523,0.002678,0.000431,0.329079
1270000,0.0324,0.013523,0.002678,0.000431,0.311567
1271000,0.0324,0.013523,0.002678,0.000431,0.331077
1272000,0.0324,0.013523,0.002678,0.000431,0.254566
1273000,0.0324,0.013523,0.002678,0.000431,0.251510
1274000,0.0324,0.013523,0.002678,0.000431,0.236702
1275000,0.0324,0.013523,0.002678,0.000431,0.285593
1276000,0.0324,0.013523,0.002678,0.000431,0.464589
1277000,0.0324,0.013523,0.002678,0.000431,0.355993
1278000,0.0324,0.013523,0.002678,0.000431,0.422631
1279000,0.0324,0.013523,0.002678,0.000431,0.492913
1280000,0.0324,0.013523,0.002678,0.000431,0.385610
1281000,0.0324,0.013523,0.002678,0.000431,0.351879
1282000,0.0324,0.013523,0.002678,0.000431,0.315211
1283000,0.0324,0.013523,0.002678,0.000431,0.298287
1284000,0.0324,0.013523,0.002678,0.000431,0.256329
1285000,0.0324,0.013523,0.002678,0.000431,0.294996
1286000,0.0324,0.013523,0.002678,0.000431,0.404885
1287000,0.0324,0.013523,0.002678,0.000431,0.375973
1288000,0.0324,0.013523,0.002678,0.000431,0.371154
1289000,0.0324,0.013523,0.002678,0.000431,0.414992
1290000,0.0324,0.013523,0.002678,0.000431,0.355170
1291000,0.0324,0.013523,0.002678,0.000431,0.434854
1292000,0.0324,0.013523,0.002678,0.000431,0.363397
1293000,0.0324,0.013523,0.002678,0.000431,0.356698
1294000,0.0324,0.013523,0.002678,0.000431,0.378441
1295000,0.0324,0.013523,0.002678,0.000431,0.425922
1296000,0.0324,0.013523,0.002678,0.000431,0.376560
1297000,0.0324,0.013523,0.002678,0.000431,0.392427
1298000,0.0324,0.013523,0.002678,0.000431,0.313800
1299000,0.0324,0.013523,0.002678,0.000431,0.346826
1300000,0.0324,0.013523,0.002678,0.000431,0.386315
1301000,0.0324,0.013523,0.002678,0.000431,0.338129
1302000,0.0324,0.013523,0.002678,0.000431,0.379146
1303000,0.0324,0.013523,0.002678,0.000431,0.439555
1304000,0.0324,0.013523,0.002678,0.000431,0.361987
1305000,0.0324,0.013523,0.002678,0.000431,0.336836
1306000,0.0324,0.013523,0.002678,0.000431,0.379499
1307000,0.0324,0.013523,0.002678,0.000431,0.401124
1308000,0.0324,0.013523,0.002678,0.000431,0.451543
1309000,0.0324,0.013523,0.002678,0.000431,0.429330
1310000,0.0324,0.013523,0.002678,0.000431,0.351527
1311000,0.0324,0.013523,0.002678,0.000431,0.360459
1312000,0.0324,0.013523,0.002678,0.000431,0.371859
1313000,0.0324,0.013523,0.002678,0.000431,0.346356
1314000,0.0324,0.013523,0.002678,0.000431,0.334603
1315000,0.0324,0.013523,0.002678,0.000431,0.318384
1316000,0.0324,0.013523,0.002678,0.000431,0.269845
1317000,0.0324,0.013523,0.002678,0.000431,0.253391
1318000,0.0324,0.013523,0.002678,0.000431,0.283713
1319000,0.0324,0.013523,0.002678,0.000431,0.319207
1320000,0.0324,0.013523,0.002678,0.000431,0.312978
1321000,0.0324,0.013523,0.002678,0.000431,0.301930
1322000,0.0324,0.013523,0.002678,0.000431,0.302282
1323000,0.0324,0.013523,0.002678,0.000431,0.378206
1324000,0.0324,0.013523,0.002678,0.000431,0.348589
1325000,0.0324,0.013523,0.002678,0.000431,0.423689
1326000,0.0324,0.013523,0.002678,0.000431,0.456832
1327000,0.0324,0.013523,0.002678,0.000431,0.423572
1328000,0.0324,0.013523,0.002678,0.000431,0.403592
1329000,0.0324,0.013523,0.002678,0.000431,0.354230
1330000,0.0324,0.013523,0.002678,0.000431,0.383142
1331000,0.0324,0.013523,0.002678,0.000431,0.466704
1332000,0.0324,0.013523,0.002678,0.000431,0.488447
1333000,0.0324,0.013523,0.002678,0.000431,0.540395
1334000,0.0324,0.013523,0.002678,0.000431,0.511483
1335000,0.0324,0.013523,0.002678,0.000431,0.462003
1336000,0.0324,0.013523,0.002678,0.000431,0.436852
1337000,0.0324,0.013523,0.002678,0.000431,0.434384
1338000,0.0324,0.013523,0.002678,0.000431,0.436970
1339000,0.0324,0.013523,0.002678,0.000431,0.466234
1340000,0.0324,0.013523,0.002678,0.000431,0.569189
1341000,0.0324,0.013523,0.002678,0.000431,0.538749
1342000,0.0324,0.013523,0.002678,0.000431,0.436617
1343000,0.0324,0.013523,0.002678,0.000431,0.460593
1344000,0.0324,0.013523,0.002678,0.000431,0.409351
1345000,0.0324,0.013523,0.002678,0.000431,0.356581
1346000,0.0324,0.013523,0.002678,0.000431,0.397363
1347000,0.0324,0.013523,0.002678,0.000431,0.362927
1348000,0.0324,0.013523,0.002678,0.000431,0.325436
1349000,0.0324,0.013523,0.002678,0.000431,0.334368
1350000,0.0324,0.013523,0.002678,0.000431,0.415110
1351000,0.0324,0.013523,0.002678,0.000431,0.344945
1352000,0.0324,0.013523,0.002678,0.000431,0.330489
1353000,0.0324,0.013523,0.002678,0.000431,0.392662
1354000,0.0324,0.013523,0.002678,0.000431,0.532520
1355000,0.0324,0.013523,0.002678,0.000431,0.498672
1356000,0.0324,0.013523,0.002678,0.000431,0.488800
1357000,0.0324,0.013523,0.002678,0.000431,0.464471
1358000,0.0324,0.013523,0.002678,0.000431,0.468702
1359000,0.0324,0.013523,0.002678,0.000431,0.499025
1360000,0.0324,0.013523,0.002678,0.000431,0.466117
1361000,0.0324,0.013523,0.002678,0.000431,0.564840
1362000,0.0324,0.013523,0.002678,0.000431,0.561667
1363000,0.0324,0.013523,0.002678,0.000431,0.428625
1364000,0.0324,0.013523,0.002678,0.000431,0.530640
1365000,0.0324,0.013523,0.002678,0.000431,0.608561
1366000,0.0324,0.013523,0.002678,0.000431,0.576241
1367000,0.0324,0.013523,0.002678,0.000431,0.622782
1368000,0.0324,0.013523,0.002678,0.000431,0.570129
1369000,0.0324,0.013523,0.002678,0.000431,0.704464
1370000,0.0324,0.013523,0.002678,0.000431,0.597396
1371000,0.0324,0.013523,0.002678,0.000431,0.588346
1372000,0.0324,0.013523,0.002678,0.000431,0.510542
1373000,0.0324,0.013523,0.002678,0.000431,0.453894
1374000,0.0324,0.013523,0.002678,0.000431,0.468820
1375000,0.0324,0.013523,0.002678,0.000431,0.467292
1376000,0.0324,0.013523,0.002678,0.000431,0.456715
1377000,0.0324,0.013523,0.002678,0.000431,0.424629
1378000,0.0324,0.013523,0.002678,0.000431,0.419458
1379000,0.0324,0.013523,0.002678,0.000431,0.356816
1380000,0.0324,0.013523,0.002678,0.000431,0.327551
1381000,0.0324,0.013523,0.002678,0.000431,0.303340
1382000,0.0324,0.013523,0.002678,0.000431,0.295936
1383000,0.0324,0.013523,0.002678,0.000431,0.322027
1384000,0.0324,0.013523,0.002678,0.000431,0.321910
1385000,0.0324,0.013523,0.002678,0.000431,0.324730
1386000,0.0324,0.013523,0.002678,0.000431,0.293115
1387000,0.0324,0.013523,0.002678,0.000431,0.318031
1388000,0.0324,0.013523,0.002678,0.000431,0.271373
1389000,0.0324,0.013523,0.002678,0.000431,0.256917
1390000,0.0324,0.013523,0.002678,0.000431,0.242578
1391000,0.0324,0.013523,0.002678,0.000431,0.266789
1392000,0.0324,0.013523,0.002678,0.000431,0.349646
1393000,0.0324,0.013523,0.002678,0.000431,0.345533
1394000,0.0324,0.013523,0.002678,0.000431,0.268787
1395000,0.0324,0.013523,0.002678,0.000431,0.406648
1396000,0.0324,0.013523,0.002678,0.000431,0.455422
1397000,0.0324,0.013523,0.002678,0.000431,0.382789
1398000,0.0324,0.013523,0.002678,0.000431,0.372212
1399000,0.0324,0.013523,0.002678,0.000431,0.335543
1400000,0.0324,0.013523,0.002678,0.000431,0.360576
1401000,0.0324,0.013523,0.002678,0.000431,0.550620
1402000,0.0324,0.013523,0.002678,0.000431,0.475754
1403000,0.0324,0.013523,0.002678,0.000431,0.378441
1404000,0.0324,0.013523,0.002678,0.000431,0.525351
1405000,0.0324,0.013523,0.002678,0.000431,0.517124
1406000,0.0324,0.013523,0.002678,0.000431,0.519710
1407000,0.0324,0.013523,0.002678,0.000431,0.455304
1408000,0.0324,0.013523,0.002678,0.000431,0.451661
1409000,0.0324,0.013523,0.002678,0.000431,0.405237
1410000,0.0324,0.013523,0.002678,0.000431,0.454952
1411000,0.0324,0.013523,0.002678,0.000431,0.424512
1412000,0.0324,0.013523,0.002678,0.000431,0.395835
1413000,0.0324,0.013523,0.002678,0.000431,0.440613
1414000,0.0324,0.013523,0.002678,0.000431,0.425922
1415000,0.0324,0.013523,0.002678,0.000431,0.352820
1416000,0.0324,0.013523,0.002678,0.000431,0.377618
1417000,0.0324,0.013523,0.002678,0.000431,0.358931
1418000,0.0324,0.013523,0.002678,0.000431,0.370449
1419000,0.0324,0.013523,0.002678,0.000431,0.397950
1420000,0.0324,0.013523,0.002678,0.000431,0.374092
1421000,0.0324,0.013523,0.002678,0.000431,0.351409
1422000,0.0324,0.013523,0.002678,0.000431,0.425217
1423000,0.0324,0.013523,0.002678,0.000431,0.477164
1424000,0.0324,0.013523,0.002678,0.000431,0.401594
1425000,0.0324,0.013523,0.002678,0.000431,0.342007
1426000,0.0324,0.013523,0.002678,0.000431,0.331547
1427000,0.0324,0.013523,0.002678,0.000431,0.340009
1428000,0.0324,0.013523,0.002678,0.000431,0.294761
1429000,0.0324,0.013523,0.002678,0.000431,0.277719
1430000,0.0324,0.013523,0.002678,0.000431,0.297816
1431000,0.0324,0.013523,0.002678,0.000431,0.274076
1432000,0.0324,0.013523,0.002678,0.000431,0.362222
1433000,0.0324,0.013523,0.002678,0.000431,0.360929
1434000,0.0324,0.013523,0.002678,0.000431,0.303810
1435000,0.0324,0.013523,0.002678,0.000431,0.288062
1436000,0.0324,0.013523,0.002678,0.000431,0.370096
1437000,0.0324,0.013523,0.002678,0.000431,0.432856
1438000,0.0324,0.013523,0.002678,0.000431,0.377501
1439000,0.0324,0.013523,0.002678,0.000431,0.461651
1440000,0.0324,0.013523,0.002678,0.000431,0.534401
1441000,0.0324,0.013523,0.002678,0.000431,0.483158
1442000,0.0324,0.013523,0.002678,0.000431,0.463649
1443000,0.0324,0.013523,0.002678,0.000431,0.482923
1444000,0.0324,0.013523,0.002678,0.000431,0.387373
1445000,0.0324,0.013523,0.002678,0.000431,0.386433
1446000,0.0324,0.013523,0.002678,0.000431,0.382437
1447000,0.0324,0.013523,0.002678,0.000431,0.301342
1448000,0.0324,0.013523,0.002678,0.000431,0.360694
1449000,0.0324,0.013523,0.002678,0.000431,0.452954
1450000,0.0324,0.013523,0.002678,0.000431,0.364455
1451000,0.0324,0.013523,0.002678,0.000431,0.380086
1452000,0.0324,0.013523,0.002678,0.000431,0.450603
1453000,0.0324,0.013523,0.002678,0.000431,0.578591
1454000,0.0324,0.013523,0.002678,0.000431,0.443786
1455000,0.0324,0.013523,0.002678,0.000431,0.366923
1456000,0.0324,0.013523,0.002678,0.000431,0.451191
1457000,0.0324,0.013523,0.002678,0.000431,0.465882
1458000,0.0324,0.013523,0.002678,0.000431,0.448135
1459000,0.0324,0.013523,0.002678,0.000431,0.454834
1460000,0.0324,0.013523,0.002678,0.000431,0.518769
1461000,0.0324,0.013523,0.002678,0.000431,0.389136
1462000,0.0324,0.013523,0.002678,0.000431,0.369156
1463000,0.0324,0.013523,0.002678,0.000431,0.342125
1464000,0.0324,0.013523,0.002678,0.000431,0.363750
1465000,0.0324,0.013523,0.002678,0.000431,0.424159
1466000,0.0324,0.013523,0.002678,0.000431,0.468467
1467000,0.0324,0.013523,0.002678,0.000431,0.519945
1468000,0.0324,0.013523,0.002678,0.000431,0.465882
1469000,0.0324,0.013523,0.002678,0.000431,0.408763
1470000,0.0324,0.013523,0.002678,0.000431,0.385140
1471000,0.0324,0.013523,0.002678,0.000431,0.452131
1472000,0.0324,0.013523,0.002678,0.000431,0.355405
1473000,0.0324,0.013523,0.002678,0.000431,0.357756
1474000,0.0324,0.013523,0.002678,0.000431,0.386550
1475000,0.0324,0.013523,0.002678,0.000431,0.403122
1476000,0.0324,0.013523,0.002678,0.000431,0.461651
1477000,0.0324,0.013523,0.002678,0.000431,0.436500
1478000,0.0324,0.013523,0.002678,0.000431,0.418988
1479000,0.0324,0.013523,0.002678,0.000431,0.410526
1480000,0.0324,0.013523,0.002678,0.000431,0.416050
1481000,0.0324,0.013523,0.002678,0.000431,0.475989
1482000,0.0324,0.013523,0.002678,0.000431,0.422866
1483000,0.0324,0.013523,0.002678,0.000431,0.428155
1484000,0.0324,0.013523,0.002678,0.000431,0.419341
1485000,0.0324,0.013523,0.002678,0.000431,0.467292
1486000,0.0324,0.013523,0.002678,0.000431,0.474814
1487000,0.0324,0.013523,0.002678,0.000431,0.436265
1488000,0.0324,0.013523,0.002678,0.000431,0.384082
1489000,0.0324,0.013523,0.002678,0.000431,0.401006
1490000,0.0324,0.013523,0.002678,0.000431,0.350469
1491000,0.0324,0.013523,0.002678,0.000431,0.354700
1492000,0.0324,0.013523,0.002678,0.000431,0.295818
1493000,0.0324,0.013523,0.002678,0.000431,0.309334
1494000,0.0324,0.013523,0.002678,0.000431,0.419928
1495000,0.0324,0.013523,0.002678,0.000431,0.316268
1496000,0.0324,0.013523,0.002678,0.000431,0.350469
1497000,0.0324,0.013523,0.002678,0.000431,0.411584
1498000,0.0324,0.013523,0.002678,0.000431,0.394777
1499000,0.0324,0.013523,0.002678,0.000431,0.357403
1500000,0.0324,0.013523,0.002678,0.000431,0.422161
1501000,0.0324,0.013523,0.002678,0.000431,0.374327
1502000,0.0324,0.013523,0.002678,0.000431,0.447430
1503000,0.0324,0.013523,0.002678,0.000431,0.499730
1504000,0.0324,0.013523,0.002678,0.000431,0.516536
1505000,0.0324,0.013523,0.002678,0.000431,0.482453
1506000,0.0324,0.013523,0.002678,0.000431,0.482688
1507000,0.0324,0.013523,0.002678,0.000431,0.464236
1508000,0.0324,0.013523,0.002678,0.000431,0.539807
1509000,0.0324,0.013523,0.002678,0.000431,0.508309
1510000,0.0324,0.013523,0.002678,0.000431,0.394190
1511000,0.0324,0.013523,0.002678,0.000431,0.387373
1512000,0.0324,0.013523,0.002678,0.000431,0.361869
1513000,0.0324,0.013523,0.002678,0.000431,0.425805
1514000,0.0324,0.013523,0.002678,0.000431,0.460005
1515000,0.0324,0.013523,0.002678,0.000431,0.384317
1516000,0.0324,0.013523,0.002678,0.000431,0.356581
1517000,0.0324,0.013523,0.002678,0.000431,0.385140
1518000,0.0324,0.013523,0.002678,0.000431,0.357991
1519000,0.0324,0.013523,0.002678,0.000431,0.296289
1520000,0.0324,0.013523,0.002678,0.000431,0.282773
1521000,0.0324,0.013523,0.002678,0.000431,0.321205
1522000,0.0324,0.013523,0.002678,0.000431,0.371859
1523000,0.0324,0.013523,0.002678,0.000431,0.362692
1524000,0.0324,0.013523,0.002678,0.000431,0.385492
1525000,0.0324,0.013523,0.002678,0.000431,0.338599
1526000,0.0324,0.013523,0.002678,0.000431,0.426627
1527000,0.0324,0.013523,0.002678,0.000431,0.342125
1528000,0.0324,0.013523,0.002678,0.000431,0.414052
1529000,0.0324,0.013523,0.002678,0.000431,0.458125
1530000,0.0324,0.013523,0.002678,0.000431,0.344945
1531000,0.0324,0.013523,0.002678,0.000431,0.390194
1532000,0.0324,0.013523,0.002678,0.000431,0.332957
1533000,0.0324,0.013523,0.002678,0.000431,0.325553
1534000,0.0324,0.013523,0.002678,0.000431,0.409703
1535000,0.0324,0.013523,0.002678,0.000431,0.349646
1536000,0.0324,0.013523,0.002678,0.000431,0.370096
1537000,0.0324,0.013523,0.002678,0.000431,0.484451
1538000,0.0324,0.013523,0.002678,0.000431,0.423454
1539000,0.0324,0.013523,0.002678,0.000431,0.462121
1540000,0.0324,0.013523,0.002678,0.000431,0.519122
1541000,0.0324,0.013523,0.002678,0.000431,0.475401
1542000,0.0324,0.013523,0.002678,0.000431,0.527584
1543000,0.0324,0.013523,0.002678,0.000431,0.563665
1544000,0.0324,0.013523,0.002678,0.000431,0.531462
1545000,0.0324,0.013523,0.002678,0.000431,0.562607
1546000,0.0324,0.013523,0.002678,0.000431,0.566486
1547000,0.0324,0.013523,0.002678,0.000431,0.498084
1548000,0.0324,0.013523,0.002678,0.000431,0.474931
1549000,0.0324,0.013523,0.002678,0.000431,0.411936
1550000,0.0324,0.013523,0.002678,0.000431,0.359871
1551000,0.0324,0.013523,0.002678,0.000431,0.372329
1552000,0.0324,0.013523,0.002678,0.000431,0.509602
1553000,0.0324,0.013523,0.002678,0.000431,0.592225
1554000,0.0324,0.013523,0.002678,0.000431,0.474814
1555000,0.0324,0.013523,0.002678,0.000431,0.535693
1556000,0.0324,0.013523,0.002678,0.000431,0.497497
1557000,0.0324,0.013523,0.002678,0.000431,0.446372
1558000,0.0324,0.013523,0.002678,0.000431,0.444021
1559000,0.0324,0.013523,0.002678,0.000431,0.394895
1560000,0.0324,0.013523,0.002678,0.000431,0.520297
1561000,0.0324,0.013523,0.002678,0.000431,0.491620
1562000,0.0324,0.013523,0.002678,0.000431,0.484216
1563000,0.0324,0.013523,0.002678,0.000431,0.445667
1564000,0.0324,0.013523,0.002678,0.000431,0.449898
1565000,0.0324,0.013523,0.002678,0.000431,0.419693
1566000,0.0324,0.013523,0.002678,0.000431,0.354700
1567000,0.0324,0.013523,0.002678,0.000431,0.352349
1568000,0.0324,0.013523,0.002678,0.000431,0.357168
1569000,0.0324,0.013523,0.002678,0.000431,0.330372
1570000,0.0324,0.013523,0.002678,0.000431,0.364337
1571000,0.0324,0.013523,0.002678,0.000431,0.303105
1572000,0.0324,0.013523,0.002678,0.000431,0.358578
1573000,0.0324,0.013523,0.002678,0.000431,0.347648
1574000,0.0324,0.013523,0.002678,0.000431,0.281833
1575000,0.0324,0.013523,0.002678,0.000431,0.276191
1576000,0.0324,0.013523,0.002678,0.000431,0.339304
1577000,0.0324,0.013523,0.002678,0.000431,0.335896
1578000,0.0324,0.013523,0.002678,0.000431,0.366335
1579000,0.0324,0.013523,0.002678,0.000431,0.383024
1580000,0.0324,0.013523,0.002678,0.000431,0.414522
1581000,0.0324,0.013523,0.002678,0.000431,0.427803
1582000,0.0324,0.013523,0.002678,0.000431,0.409468
1583000,0.0324,0.013523,0.002678,0.000431,0.542980
1584000,0.0324,0.013523,0.002678,0.000431,0.442494
1585000,0.0324,0.013523,0.002678,0.000431,0.381967
1586000,0.0324,0.013523,0.002678,0.000431,0.467057
1587000,0.0324,0.013523,0.002678,0.000431,0.475401
1588000,0.0324,0.013523,0.002678,0.000431,0.395365
1589000,0.0324,0.013523,0.002678,0.000431,0.401711
1590000,0.0324,0.013523,0.002678,0.000431,0.437910
1591000,0.0324,0.013523,0.002678,0.000431,0.435677
1592000,0.0324,0.013523,0.002678,0.000431,0.428390
1593000,0.0324,0.013523,0.002678,0.000431,0.455657
1594000,0.0324,0.013523,0.002678,0.000431,0.402534
1595000,0.0324,0.013523,0.002678,0.000431,0.428743
1596000,0.0324,0.013523,0.002678,0.000431,0.422866
1597000,0.0324,0.013523,0.002678,0.000431,0.440378
1598000,0.0324,0.013523,0.002678,0.000431,0.440143
1599000,0.0324,0.013523,0.002678,0.000431,0.456950
1600000,0.0324,0.013523,0.002678,0.000431,0.519122
1601000,0.0324,0.013523,0.002678,0.000431,0.501610
1602000,0.0324,0.013523,0.002678,0.000431,0.482571
1603000,0.0324,0.013523,0.002678,0.000431,0.433797
1604000,0.0324,0.013523,0.002678,0.000431,0.428390
1605000,0.0324,0.013523,0.002678,0.000431,0.446372
1606000,0.0324,0.013523,0.002678,0.000431,0.438615
1607000,0.0324,0.013523,0.002678,0.000431,0.450721
1608000,0.0324,0.013523,0.002678,0.000431,0.547329
1609000,0.0324,0.013523,0.002678,0.000431,0.621372
1610000,0.0324,0.013523,0.002678,0.000431,0.599981
1611000,0.0324,0.013523,0.002678,0.000431,0.552500
1612000,0.0324,0.013523,0.002678,0.000431,0.591637
1613000,0.0324,0.013523,0.002678,0.000431,0.491620
1614000,0.0324,0.013523,0.002678,0.000431,0.459535
1615000,0.0324,0.013523,0.002678,0.000431,0.532638
1616000,0.0324,0.013523,0.002678,0.000431,0.518534
1617000,0.0324,0.013523,0.002678,0.000431,0.496439
1618000,0.0324,0.013523,0.002678,0.000431,0.433797
1619000,0.0324,0.013523,0.002678,0.000431,0.466822
1620000,0.0324,0.013523,0.002678,0.000431,0.411936
1621000,0.0324,0.013523,0.002678,0.000431,0.376560
1622000,0.0324,0.013523,0.002678,0.000431,0.452131
1623000,0.0324,0.013523,0.002678,0.000431,0.403709
1624000,0.0324,0.013523,0.002678,0.000431,0.359636
1625000,0.0324,0.013523,0.002678,0.000431,0.369274
1626000,0.0324,0.013523,0.002678,0.000431,0.298404
1627000,0.0324,0.013523,0.002678,0.000431,0.342007
1628000,0.0324,0.013523,0.002678,0.000431,0.369744
1629000,0.0324,0.013523,0.002678,0.000431,0.322967
1630000,0.0324,0.013523,0.002678,0.000431,0.465647
1631000,0.0324,0.013523,0.002678,0.000431,0.525586
1632000,0.0324,0.013523,0.002678,0.000431,0.465999
1633000,0.0324,0.013523,0.002678,0.000431,0.461533
1634000,0.0324,0.013523,0.002678,0.000431,0.469760
1635000,0.0324,0.013523,0.002678,0.000431,0.540982
1636000,0.0324,0.013523,0.002678,0.000431,0.490798
1637000,0.0324,0.013523,0.002678,0.000431,0.420398
1638000,0.0324,0.013523,0.002678,0.000431,0.439203
1639000,0.0324,0.013523,0.002678,0.000431,0.455422
1640000,0.0324,0.013523,0.002678,0.000431,0.347296
1641000,0.0324,0.013523,0.002678,0.000431,0.321440
1642000,0.0324,0.013523,0.002678,0.000431,0.334368
1643000,0.0324,0.013523,0.002678,0.000431,0.334133
1644000,0.0324,0.013523,0.002678,0.000431,0.340127
1645000,0.0324,0.013523,0.002678,0.000431,0.326376
1646000,0.0324,0.013523,0.002678,0.000431,0.284888
1647000,0.0324,0.013523,0.002678,0.000431,0.385022
1648000,0.0324,0.013523,0.002678,0.000431,0.384787
1649000,0.0324,0.013523,0.002678,0.000431,0.362457
1650000,0.0324,0.013523,0.002678,0.000431,0.345298
1651000,0.0324,0.013523,0.002678,0.000431,0.328961
1652000,0.0324,0.013523,0.002678,0.000431,0.388078
1653000,0.0324,0.013523,0.002678,0.000431,0.325906
1654000,0.0324,0.013523,0.002678,0.000431,0.395130
1655000,0.0324,0.013523,0.002678,0.000431,0.389723
1656000,0.0324,0.013523,0.002678,0.000431,0.359989
1657000,0.0324,0.013523,0.002678,0.000431,0.331077
1658000,0.0324,0.013523,0.002678,0.000431,0.350587
1659000,0.0324,0.013523,0.002678,0.000431,0.375385
1660000,0.0324,0.013523,0.002678,0.000431,0.325083
1661000,0.0324,0.013523,0.002678,0.000431,0.452131
1662000,0.0324,0.013523,0.002678,0.000431,0.413699
1663000,0.0324,0.013523,0.002678,0.000431,0.384787
1664000,0.0324,0.013523,0.002678,0.000431,0.452366
1665000,0.0324,0.013523,0.002678,0.000431,0.401829
1666000,0.0324,0.013523,0.002678,0.000431,0.389018
1667000,0.0324,0.013523,0.002678,0.000431,0.462708
1668000,0.0324,0.013523,0.002678,0.000431,0.344593
1669000,0.0324,0.013523,0.002678,0.000431,0.340479
1670000,0.0324,0.013523,0.002678,0.000431,0.401124
1671000,0.0324,0.013523,0.002678,0.000431,0.415697
1672000,0.0324,0.013523,0.002678,0.000431,0.378558
1673000,0.0324,0.013523,0.002678,0.000431,0.335190
1674000,0.0324,0.013523,0.002678,0.000431,0.452013
1675000,0.0324,0.013523,0.002678,0.000431,0.431211
1676000,0.0324,0.013523,0.002678,0.000431,0.387725
1677000,0.0324,0.013523,0.002678,0.000431,0.438968
1678000,0.0324,0.013523,0.002678,0.000431,0.394777
1679000,0.0324,0.013523,0.002678,0.000431,0.383377
1680000,0.0324,0.013523,0.002678,0.000431,0.439673
1681000,0.0324,0.013523,0.002678,0.000431,0.522413
1682000,0.0324,0.013523,0.002678,0.000431,0.402534
1683000,0.0324,0.013523,0.002678,0.000431,0.424629
1684000,0.0324,0.013523,0.002678,0.000431,0.366100
1685000,0.0324,0.013523,0.002678,0.000431,0.369509
1686000,0.0324,0.013523,0.002678,0.000431,0.348471
1687000,0.0324,0.013523,0.002678,0.000431,0.358578
1688000,0.0324,0.013523,0.002678,0.000431,0.419341
1689000,0.0324,0.013523,0.002678,0.000431,0.399361
1690000,0.0324,0.013523,0.002678,0.000431,0.399831
1691000,0.0324,0.013523,0.002678,0.000431,0.359871
1692000,0.0324,0.013523,0.002678,0.000431,0.493736
1693000,0.0324,0.013523,0.002678,0.000431,0.473521
1694000,0.0324,0.013523,0.002678,0.000431,0.476224
1695000,0.0324,0.013523,0.002678,0.000431,0.409703
1696000,0.0324,0.013523,0.002678,0.000431,0.384082
1697000,0.0324,0.013523,0.002678,0.000431,0.398068
1698000,0.0324,0.013523,0.002678,0.000431,0.459535
1699000,0.0324,0.013523,0.002678,0.000431,0.410408
1700000,0.0324,0.013523,0.002678,0.000431,0.339186
1701000,0.0324,0.013523,0.002678,0.000431,0.394190
1702000,0.0324,0.013523,0.002678,0.000431,0.308864
1703000,0.0324,0.013523,0.002678,0.000431,0.280305
1704000,0.0324,0.013523,0.002678,0.000431,0.284771
1705000,0.0324,0.013523,0.002678,0.000431,0.326846
1706000,0.0324,0.013523,0.002678,0.000431,0.440496
1707000,0.0324,0.013523,0.002678,0.000431,0.403474
1708000,0.0324,0.013523,0.002678,0.000431,0.412054
1709000,0.0324,0.013523,0.002678,0.000431,0.354818
1710000,0.0324,0.013523,0.002678,0.000431,0.431211
1711000,0.0324,0.013523,0.002678,0.000431,0.468467
1712000,0.0324,0.013523,0.002678,0.000431,0.448723
1713000,0.0324,0.013523,0.002678,0.000431,0.371977
1714000,0.0324,0.013523,0.002678,0.000431,0.357991
1715000,0.0324,0.013523,0.002678,0.000431,0.397480
1716000,0.0324,0.013523,0.002678,0.000431,0.384905
1717000,0.0324,0.013523,0.002678,0.000431,0.343300
1718000,0.0324,0.013523,0.002678,0.000431,0.339069
1719000,0.0324,0.013523,0.002678,0.000431,0.297934
1720000,0.0324,0.013523,0.002678,0.000431,0.280892
1721000,0.0324,0.013523,0.002678,0.000431,0.348236
1722000,0.0324,0.013523,0.002678,0.000431,0.339304
1723000,0.0324,0.013523,0.002678,0.000431,0.375973
1724000,0.0324,0.013523,0.002678,0.000431,0.317444
1725000,0.0324,0.013523,0.002678,0.000431,0.336248
1726000,0.0324,0.013523,0.002678,0.000431,0.378558
1727000,0.0324,0.013523,0.002678,0.000431,0.319559
1728000,0.0324,0.013523,0.002678,0.000431,0.328374
1729000,0.0324,0.013523,0.002678,0.000431,0.310745
1730000,0.0324,0.013523,0.002678,0.000431,0.325083
1731000,0.0324,0.013523,0.002678,0.000431,0.312037
1732000,0.0324,0.013523,0.002678,0.000431,0.279364
1733000,0.0324,0.013523,0.002678,0.000431,0.357873
1734000,0.0324,0.013523,0.002678,0.000431,0.302165
1735000,0.0324,0.013523,0.002678,0.000431,0.432151
1736000,0.0324,0.013523,0.002678,0.000431,0.451896
1737000,0.0324,0.013523,0.002678,0.000431,0.434149
1738000,0.0324,0.013523,0.002678,0.000431,0.455539
1739000,0.0324,0.013523,0.002678,0.000431,0.471053
1740000,0.0324,0.013523,0.002678,0.000431,0.452484
1741000,0.0324,0.013523,0.002678,0.000431,0.438615
1742000,0.0324,0.013523,0.002678,0.000431,0.351292
1743000,0.0324,0.013523,0.002678,0.000431,0.368451
1744000,0.0324,0.013523,0.002678,0.000431,0.459653
1745000,0.0324,0.013523,0.002678,0.000431,0.490915
1746000,0.0324,0.013523,0.002678,0.000431,0.424629
1747000,0.0324,0.013523,0.002678,0.000431,0.475989
1748000,0.0324,0.013523,0.002678,0.000431,0.378676
1749000,0.0324,0.013523,0.002678,0.000431,0.444727
1750000,0.0324,0.013523,0.002678,0.000431,0.512658
1751000,0.0324,0.013523,0.002678,0.000431,0.425687
1752000,0.0324,0.013523,0.002678,0.000431,0.386903
1753000,0.0324,0.013523,0.002678,0.000431,0.357403
1754000,0.0324,0.013523,0.002678,0.000431,0.354818
1755000,0.0324,0.013523,0.002678,0.000431,0.410996
1756000,0.0324,0.013523,0.002678,0.000431,0.316386
1757000,0.0324,0.013523,0.002678,0.000431,0.372447
1758000,0.0324,0.013523,0.002678,0.000431,0.345415
1759000,0.0324,0.013523,0.002678,0.000431,0.361047
1760000,0.0324,0.013523,0.002678,0.000431,0.377618
1761000,0.0324,0.013523,0.002678,0.000431,0.393837
1762000,0.0324,0.013523,0.002678,0.000431,0.494324
1763000,0.0324,0.013523,0.002678,0.000431,0.402064
1764000,0.0324,0.013523,0.002678,0.000431,0.377618
1765000,0.0324,0.013523,0.002678,0.000431,0.422984
1766000,0.0324,0.013523,0.002678,0.000431,0.441318
1767000,0.0324,0.013523,0.002678,0.000431,0.341419
1768000,0.0324,0.013523,0.002678,0.000431,0.354583
1769000,0.0324,0.013523,0.002678,0.000431,0.388078
1770000,0.0324,0.013523,0.002678,0.000431,0.433679
1771000,0.0324,0.013523,0.002678,0.000431,0.402416
1772000,0.0324,0.013523,0.002678,0.000431,0.443551
1773000,0.0324,0.013523,0.002678,0.000431,0.437440
1774000,0.0324,0.013523,0.002678,0.000431,0.552147
1775000,0.0324,0.013523,0.002678,0.000431,0.553205
1776000,0.0324,0.013523,0.002678,0.000431,0.502198
1777000,0.0324,0.013523,0.002678,0.000431,0.436265
1778000,0.0324,0.013523,0.002678,0.000431,0.456009
1779000,0.0324,0.013523,0.002678,0.000431,0.459653
1780000,0.0324,0.013523,0.002678,0.000431,0.364220
1781000,0.0324,0.013523,0.002678,0.000431,0.352820
1782000,0.0324,0.013523,0.002678,0.000431,0.411466
1783000,0.0324,0.013523,0.002678,0.000431,0.435795
1784000,0.0324,0.013523,0.002678,0.000431,0.395952
1785000,0.0324,0.013523,0.002678,0.000431,0.470700
1786000,0.0324,0.013523,0.002678,0.000431,0.465647
1787000,0.0324,0.013523,0.002678,0.000431,0.340949
1788000,0.0324,0.013523,0.002678,0.000431,0.364925
1789000,0.0324,0.013523,0.002678,0.000431,0.369861
1790000,0.0324,0.013523,0.002678,0.000431,0.332722
1791000,0.0324,0.013523,0.002678,0.000431,0.297816
1792000,0.0324,0.013523,0.002678,0.000431,0.279012
1793000,0.0324,0.013523,0.002678,0.000431,0.340127
1794000,0.0324,0.013523,0.002678,0.000431,0.335308
1795000,0.0324,0.013523,0.002678,0.000431,0.308629
1796000,0.0324,0.013523,0.002678,0.000431,0.281362
1797000,0.0324,0.013523,0.002678,0.000431,0.336366
1798000,0.0324,0.013523,0.002678,0.000431,0.323320
1799000,0.0324,0.013523,0.002678,0.000431,0.280070
1800000,0.0324,0.013523,0.002678,0.000431,0.329902
1801000,0.0324,0.013523,0.002678,0.000431,0.337188
1802000,0.0324,0.013523,0.002678,0.000431,0.444609
1803000,0.0324,0.013523,0.002678,0.000431,0.480455
1804000,0.0324,0.013523,0.002678,0.000431,0.436852
1805000,0.0324,0.013523,0.002678,0.000431,0.358931
1806000,0.0324,0.013523,0.002678,0.000431,0.409351
1807000,0.0324,0.013523,0.002678,0.000431,0.455422
1808000,0.0324,0.013523,0.002678,0.000431,0.377618
1809000,0.0324,0.013523,0.002678,0.000431,0.320382
1810000,0.0324,0.013523,0.002678,0.000431,0.308276
1811000,0.0324,0.013523,0.002678,0.000431,0.357521
1812000,0.0324,0.013523,0.002678,0.000431,0.447312
1813000,0.0324,0.013523,0.002678,0.000431,0.436030
1814000,0.0324,0.013523,0.002678,0.000431,0.469290
1815000,0.0324,0.013523,0.002678,0.000431,0.381849
1816000,0.0324,0.013523,0.002678,0.000431,0.422396
1817000,0.0324,0.013523,0.002678,0.000431,0.440261
1818000,0.0324,0.013523,0.002678,0.000431,0.335660
1819000,0.0324,0.013523,0.002678,0.000431,0.342360
1820000,0.0324,0.013523,0.002678,0.000431,0.297111
1821000,0.0324,0.013523,0.002678,0.000431,0.289942
1822000,0.0324,0.013523,0.002678,0.000431,0.298169
1823000,0.0324,0.013523,0.002678,0.000431,0.280070
1824000,0.0324,0.013523,0.002678,0.000431,0.251863
1825000,0.0324,0.013523,0.002678,0.000431,0.305103
1826000,0.0324,0.013523,0.002678,0.000431,0.311450
1827000,0.0324,0.013523,0.002678,0.000431,0.281127
1828000,0.0324,0.013523,0.002678,0.000431,0.383024
1829000,0.0324,0.013523,0.002678,0.000431,0.394542
1830000,0.0324,0.013523,0.002678,0.000431,0.307336
1831000,0.0324,0.013523,0.002678,0.000431,0.344593
1832000,0.0324,0.013523,0.002678,0.000431,0.378911
1833000,0.0324,0.013523,0.002678,0.000431,0.371389
1834000,0.0324,0.013523,0.002678,0.000431,0.296289
1835000,0.0324,0.013523,0.002678,0.000431,0.343300
1836000,0.0324,0.013523,0.002678,0.000431,0.429801
1837000,0.0324,0.013523,0.002678,0.000431,0.312625
1838000,0.0324,0.013523,0.002678,0.000431,0.414169
1839000,0.0324,0.013523,0.002678,0.000431,0.504548
1840000,0.0324,0.013523,0.002678,0.000431,0.431446
1841000,0.0324,0.013523,0.002678,0.000431,0.417460
1842000,0.0324,0.013523,0.002678,0.000431,0.434502
1843000,0.0324,0.013523,0.002678,0.000431,0.538279
1844000,0.0324,0.013523,0.002678,0.000431,0.423454
1845000,0.0324,0.013523,0.002678,0.000431,0.384317
1846000,0.0324,0.013523,0.002678,0.000431,0.469408
1847000,0.0324,0.013523,0.002678,0.000431,0.362809
1848000,0.0324,0.013523,0.002678,0.000431,0.376090
1849000,0.0324,0.013523,0.002678,0.000431,0.429448
1850000,0.0324,0.013523,0.002678,0.000431,0.582705
1851000,0.0324,0.013523,0.002678,0.000431,0.452836
1852000,0.0324,0.013523,0.002678,0.000431,0.423807
1853000,0.0324,0.013523,0.002678,0.000431,0.506311
1854000,0.0324,0.013523,0.002678,0.000431,0.463061
1855000,0.0324,0.013523,0.002678,0.000431,0.506429
1856000,0.0324,0.013523,0.002678,0.000431,0.581177
1857000,0.0324,0.013523,0.002678,0.000431,0.536986
1858000,0.0324,0.013523,0.002678,0.000431,0.441906
1859000,0.0324,0.013523,0.002678,0.000431,0.518299
1860000,0.0324,0.013523,0.002678,0.000431,0.534636
1861000,0.0324,0.013523,0.002678,0.000431,0.473991
1862000,0.0324,0.013523,0.002678,0.000431,0.503491
1863000,0.0324,0.013523,0.002678,0.000431,0.496674
1864000,0.0324,0.013523,0.002678,0.000431,0.505959
1865000,0.0324,0.013523,0.002678,0.000431,0.421221
1866000,0.0324,0.013523,0.002678,0.000431,0.475989
1867000,0.0324,0.013523,0.002678,0.000431,0.421103
1868000,0.0324,0.013523,0.002678,0.000431,0.342595
1869000,0.0324,0.013523,0.002678,0.000431,0.324143
1870000,0.0324,0.013523,0.002678,0.000431,0.372447
1871000,0.0324,0.013523,0.002678,0.000431,0.460828
1872000,0.0324,0.013523,0.002678,0.000431,0.366335
1873000,0.0324,0.013523,0.002678,0.000431,0.393249
1874000,0.0324,0.013523,0.002678,0.000431,0.395130
1875000,0.0324,0.013523,0.002678,0.000431,0.323085
1876000,0.0324,0.013523,0.002678,0.000431,0.310157
1877000,0.0324,0.013523,0.002678,0.000431,0.269492
1878000,0.0324,0.013523,0.002678,0.000431,0.267964
1879000,0.0324,0.013523,0.002678,0.000431,0.357756
1880000,0.0324,0.013523,0.002678,0.000431,0.389959
1881000,0.0324,0.013523,0.002678,0.000431,0.408881
1882000,0.0324,0.013523,0.002678,0.000431,0.331782
1883000,0.0324,0.013523,0.002678,0.000431,0.313800
1884000,0.0324,0.013523,0.002678,0.000431,0.432151
1885000,0.0324,0.013523,0.002678,0.000431,0.487859
1886000,0.0324,0.013523,0.002678,0.000431,0.387373
1887000,0.0324,0.013523,0.002678,0.000431,0.347296
1888000,0.0324,0.013523,0.002678,0.000431,0.336131
1889000,0.0324,0.013523,0.002678,0.000431,0.380439
1890000,0.0324,0.013523,0.002678,0.000431,0.407470
1891000,0.0324,0.013523,0.002678,0.000431,0.396775
1892000,0.0324,0.013523,0.002678,0.000431,0.315681
1893000,0.0324,0.013523,0.002678,0.000431,0.320147
1894000,0.0324,0.013523,0.002678,0.000431,0.355640
1895000,0.0324,0.013523,0.002678,0.000431,0.329667
1896000,0.0324,0.013523,0.002678,0.000431,0.332252
1897000,0.0324,0.013523,0.002678,0.000431,0.446725
1898000,0.0324,0.013523,0.002678,0.000431,0.424394
1899000,0.0324,0.013523,0.002678,0.000431,0.489505
1900000,0.0324,0.013523,0.002678,0.000431,0.413464
1901000,0.0324,0.013523,0.002678,0.000431,0.473286
1902000,0.0324,0.013523,0.002678,0.000431,0.445902
1903000,0.0324,0.013523,0.002678,0.000431,0.423101
1904000,0.0324,0.013523,0.002678,0.000431,0.415345
1905000,0.0324,0.013523,0.002678,0.000431,0.329314
1906000,0.0324,0.013523,0.002678,0.000431,0.391251
1907000,0.0324,0.013523,0.002678,0.000431,0.446137
1908000,0.0324,0.013523,0.002678,0.000431,0.407940
1909000,0.0324,0.013523,0.002678,0.000431,0.491150
1910000,0.0324,0.013523,0.002678,0.000431,0.384317
1911000,0.0324,0.013523,0.002678,0.000431,0.458477
1912000,0.0324,0.013523,0.002678,0.000431,0.425687
1913000,0.0324,0.013523,0.002678,0.000431,0.338834
1914000,0.0324,0.013523,0.002678,0.000431,0.350469
1915000,0.0324,0.013523,0.002678,0.000431,0.394895
1916000,0.0324,0.013523,0.002678,0.000431,0.485509
1917000,0.0324,0.013523,0.002678,0.000431,0.415932
1918000,0.0324,0.013523,0.002678,0.000431,0.363750
1919000,0.0324,0.013523,0.002678,0.000431,0.434737
1920000,0.0324,0.013523,0.002678,0.000431,0.365630
1921000,0.0324,0.013523,0.002678,0.000431,0.310862
1922000,0.0324,0.013523,0.002678,0.000431,0.303693
1923000,0.0324,0.013523,0.002678,0.000431,0.274898
1924000,0.0324,0.013523,0.002678,0.000431,0.301107
1925000,0.0324,0.013523,0.002678,0.000431,0.275486
1926000,0.0324,0.013523,0.002678,0.000431,0.403592
1927000,0.0324,0.013523,0.002678,0.000431,0.410879
1928000,0.0324,0.013523,0.002678,0.000431,0.334368
1929000,0.0324,0.013523,0.002678,0.000431,0.397950
1930000,0.0324,0.013523,0.002678,0.000431,0.443669
1931000,0.0324,0.013523,0.002678,0.000431,0.433914
1932000,0.0324,0.013523,0.002678,0.000431,0.403592
1933000,0.0324,0.013523,0.002678,0.000431,0.453776
1934000,0.0324,0.013523,0.002678,0.000431,0.430388
1935000,0.0324,0.013523,0.002678,0.000431,0.444609
1936000,0.0324,0.013523,0.002678,0.000431,0.386668
1937000,0.0324,0.013523,0.002678,0.000431,0.386198
1938000,0.0324,0.013523,0.002678,0.000431,0.380791
1939000,0.0324,0.013523,0.002678,0.000431,0.408528
1940000,0.0324,0.013523,0.002678,0.000431,0.386550
1941000,0.0324,0.013523,0.002678,0.000431,0.359049
1942000,0.0324,0.013523,0.002678,0.000431,0.329314
1943000,0.0324,0.013523,0.002678,0.000431,0.391016
1944000,0.0324,0.013523,0.002678,0.000431,0.422396
1945000,0.0324,0.013523,0.002678,0.000431,0.394660
1946000,0.0324,0.013523,0.002678,0.000431,0.454011
1947000,0.0324,0.013523,0.002678,0.000431,0.382672
1948000,0.0324,0.013523,0.002678,0.000431,0.555438
1949000,0.0324,0.013523,0.002678,0.000431,0.526644
1950000,0.0324,0.013523,0.002678,0.000431,0.443669
1951000,0.0324,0.013523,0.002678,0.000431,0.404414
1952000,0.0324,0.013523,0.002678,0.000431,0.367041
1953000,0.0324,0.013523,0.002678,0.000431,0.370449
1954000,0.0324,0.013523,0.002678,0.000431,0.325671
1955000,0.0324,0.013523,0.002678,0.000431,0.346826
1956000,0.0324,0.013523,0.002678,0.000431,0.447900
1957000,0.0324,0.013523,0.002678,0.000431,0.334015
1958000,0.0324,0.013523,0.002678,0.000431,0.408881
1959000,0.0324,0.013523,0.002678,0.000431,0.321205
1960000,0.0324,0.013523,0.002678,0.000431,0.347178
1961000,0.0324,0.013523,0.002678,0.000431,0.378441
1962000,0.0324,0.013523,0.002678,0.000431,0.402652
1963000,0.0324,0.013523,0.002678,0.000431,0.422866
1964000,0.0324,0.013523,0.002678,0.000431,0.326141
1965000,0.0324,0.013523,0.002678,0.000431,0.404179
1966000,0.0324,0.013523,0.002678,0.000431,0.379381
1967000,0.0324,0.013523,0.002678,0.000431,0.294291
1968000,0.0324,0.013523,0.002678,0.000431,0.295348
1969000,0.0324,0.013523,0.002678,0.000431,0.262675
1970000,0.0324,0.013523,0.002678,0.000431,0.241168
1971000,0.0324,0.013523,0.002678,0.000431,0.273371
1972000,0.0324,0.013523,0.002678,0.000431,0.269962
1973000,0.0324,0.013523,0.002678,0.000431,0.263498
1974000,0.0324,0.013523,0.002678,0.000431,0.283478
1975000,0.0324,0.013523,0.002678,0.000431,0.325200
1976000,0.0324,0.013523,0.002678,0.000431,0.327081
1977000,0.0324,0.013523,0.002678,0.000431,0.380204
1978000,0.0324,0.013523,0.002678,0.000431,0.399831
1979000,0.0324,0.013523,0.002678,0.000431,0.305691
1980000,0.0324,0.013523,0.002678,0.000431,0.299109
1981000,0.0324,0.013523,0.002678,0.000431,0.324260
1982000,0.0324,0.013523,0.002678,0.000431,0.377853
1983000,0.0324,0.013523,0.002678,0.000431,0.308041
1984000,0.0324,0.013523,0.002678,0.000431,0.316738
1985000,0.0324,0.013523,0.002678,0.000431,0.318149
1986000,0.0324,0.013523,0.002678,0.000431,0.272430
1987000,0.0324,0.013523,0.002678,0.000431,0.307571
1988000,0.0324,0.013523,0.002678,0.000431,0.321792
1989000,0.0324,0.013523,0.002678,0.000431,0.381144
1990000,0.0324,0.013523,0.002678,0.000431,0.361282
1991000,0.0324,0.013523,0.002678,0.000431,0.440143
1992000,0.0324,0.013523,0.002678,0.000431,0.381614
1993000,0.0324,0.013523,0.002678,0.000431,0.501023
1994000,0.0324,0.013523,0.002678,0.000431,0.536986
1995000,0.0324,0.013523,0.002678,0.000431,0.411584
1996000,0.0324,0.013523,0.002678,0.000431,0.499965
1997000,0.0324,0.013523,0.002678,0.000431,0.636180
1998000,0.0324,0.013523,0.002678,0.000431,0.567191
1999000,0.0324,0.013523,0.002678,0.000431,0.502080
