Cycle,Area(mm^2),PeakDynamic(W),SubthresholdLeakage(W),GateLeakage(W),RunTimeDynamic(W)
100,0.0324,0.013523,0.002678,0.000431,0.000000
200,0.0324,0.013523,0.002678,0.000431,0.000000
300,0.0324,0.013523,0.002678,0.000431,0.000000
400,0.0324,0.013523,0.002678,0.000431,0.000000
500,0.0324,0.013523,0.002678,0.000431,0.000000
600,0.0324,0.013523,0.002678,0.000431,0.000000
700,0.0324,0.013523,0.002678,0.000431,0.000000
800,0.0324,0.013523,0.002678,0.000431,0.000000
900,0.0324,0.013523,0.002678,0.000431,0.000000
1000,0.0324,0.013523,0.002678,0.000431,0.000000
1100,0.0324,0.013523,0.002678,0.000431,0.000000
1200,0.0324,0.013523,0.002678,0.000431,0.000000
1300,0.0324,0.013523,0.002678,0.000431,0.000000
1400,0.0324,0.013523,0.002678,0.000431,0.000000
1500,0.0324,0.013523,0.002678,0.000431,0.000000
1600,0.0324,0.013523,0.002678,0.000431,0.000000
1700,0.0324,0.013523,0.002678,0.000431,0.000000
1800,0.0324,0.013523,0.002678,0.000431,0.000000
1900,0.0324,0.013523,0.002678,0.000431,0.000000
2000,0.0324,0.013523,0.002678,0.000431,0.000000
2100,0.0324,0.013523,0.002678,0.000431,0.000000
2200,0.0324,0.013523,0.002678,0.000431,0.000000
2300,0.0324,0.013523,0.002678,0.000431,0.000000
2400,0.0324,0.013523,0.002678,0.000431,0.000000
2500,0.0324,0.013523,0.002678,0.000431,0.000000
2600,0.0324,0.013523,0.002678,0.000431,0.000000
2700,0.0324,0.013523,0.002678,0.000431,0.000000
2800,0.0324,0.013523,0.002678,0.000431,0.000000
2900,0.0324,0.013523,0.002678,0.000431,0.000000
3000,0.0324,0.013523,0.002678,0.000431,0.000000
3100,0.0324,0.013523,0.002678,0.000431,0.000000
3200,0.0324,0.013523,0.002678,0.000431,0.000000
3300,0.0324,0.013523,0.002678,0.000431,0.000000
3400,0.0324,0.013523,0.002678,0.000431,0.000000
3500,0.0324,0.013523,0.002678,0.000431,0.000000
3600,0.0324,0.013523,0.002678,0.000431,0.000000
3700,0.0324,0.013523,0.002678,0.000431,0.000000
3800,0.0324,0.013523,0.002678,0.000431,0.000000
3900,0.0324,0.013523,0.002678,0.000431,0.000000
4000,0.0324,0.013523,0.002678,0.000431,0.000000
4100,0.0324,0.013523,0.002678,0.000431,0.000000
4200,0.0324,0.013523,0.002678,0.000431,0.000000
4300,0.0324,0.013523,0.002678,0.000431,0.000000
4400,0.0324,0.013523,0.002678,0.000431,0.000000
4500,0.0324,0.013523,0.002678,0.000431,0.000000
4600,0.0324,0.013523,0.002678,0.000431,0.000000
4700,0.0324,0.013523,0.002678,0.000431,0.000000
4800,0.0324,0.013523,0.002678,0.000431,0.000000
4900,0.0324,0.013523,0.002678,0.000431,0.000000
5000,0.0324,0.013523,0.002678,0.000431,0.000000
5100,0.0324,0.013523,0.002678,0.000431,0.000000
5200,0.0324,0.013523,0.002678,0.000431,0.029382
5300,0.0324,0.013523,0.002678,0.000431,0.000000
5400,0.0324,0.013523,0.002678,0.000431,0.649931
5500,0.0324,0.013523,0.002678,0.000431,0.293820
5600,0.0324,0.013523,0.002678,0.000431,0.086971
5700,0.0324,0.013523,0.002678,0.000431,0.931998
5800,0.0324,0.013523,0.002678,0.000431,2.158993
5900,0.0324,0.013523,0.002678,0.000431,2.907647
6000,0.0324,0.013523,0.002678,0.000431,2.424606
6100,0.0324,0.013523,0.002678,0.000431,1.655972
6200,0.0324,0.013523,0.002678,0.000431,1.095363
6300,0.0324,0.013523,0.002678,0.000431,1.230520
6400,0.0324,0.013523,0.002678,0.000431,1.208190
6500,0.0324,0.013523,0.002678,0.000431,0.862657
6600,0.0324,0.013523,0.002678,0.000431,0.947277
6700,0.0324,0.013523,0.002678,0.000431,0.852079
6800,0.0324,0.013523,0.002678,0.000431,0.954329
6900,0.0324,0.013523,0.002678,0.000431,1.144724
7000,0.0324,0.013523,0.002678,0.000431,1.154127
7100,0.0324,0.013523,0.002678,0.000431,1.053053
7200,0.0324,0.013523,0.002678,0.000431,1.022495
7300,0.0324,0.013523,0.002678,0.000431,0.832100
7400,0.0324,0.013523,0.002678,0.000431,0.625250
7500,0.0324,0.013523,0.002678,0.000431,1.036599
7600,0.0324,0.013523,0.002678,0.000431,0.975484
7700,0.0324,0.013523,0.002678,0.000431,0.967257
7800,0.0324,0.013523,0.002678,0.000431,0.739252
7900,0.0324,0.013523,0.002678,0.000431,0.551207
8000,0.0324,0.013523,0.002678,0.000431,0.754531
8100,0.0324,0.013523,0.002678,0.000431,0.660508
8200,0.0324,0.013523,0.002678,0.000431,0.800367
8300,0.0324,0.013523,0.002678,0.000431,0.706344
8400,0.0324,0.013523,0.002678,0.000431,0.727499
8500,0.0324,0.013523,0.002678,0.000431,0.746304
8600,0.0324,0.013523,0.002678,0.000431,0.722798
8700,0.0324,0.013523,0.002678,0.000431,0.733376
8800,0.0324,0.013523,0.002678,0.000431,0.678138
8900,0.0324,0.013523,0.002678,0.000431,0.668735
9000,0.0324,0.013523,0.002678,0.000431,0.773335
9100,0.0324,0.013523,0.002678,0.000431,0.642879
9200,0.0324,0.013523,0.002678,0.000431,0.969608
9300,0.0324,0.013523,0.002678,0.000431,0.629951
9400,0.0324,0.013523,0.002678,0.000431,0.713396
9500,0.0324,0.013523,0.002678,0.000431,0.736902
9600,0.0324,0.013523,0.002678,0.000431,0.709870
9700,0.0324,0.013523,0.002678,0.000431,0.637003
9800,0.0324,0.013523,0.002678,0.000431,0.599394
9900,0.0324,0.013523,0.002678,0.000431,0.620549
10000,0.0324,0.013523,0.002678,0.000431,0.749830
10100,0.0324,0.013523,0.002678,0.000431,0.470113
10200,0.0324,0.013523,0.002678,0.000431,0.675787
10300,0.0324,0.013523,0.002678,0.000431,0.474814
10400,0.0324,0.013523,0.002678,0.000431,0.573538
10500,0.0324,0.013523,0.002678,0.000431,0.538279
10600,0.0324,0.013523,0.002678,0.000431,0.573538
10700,0.0324,0.013523,0.002678,0.000431,0.552382
10800,0.0324,0.013523,0.002678,0.000431,0.721623
10900,0.0324,0.013523,0.002678,0.000431,0.582940
11000,0.0324,0.013523,0.002678,0.000431,0.680488
11100,0.0324,0.013523,0.002678,0.000431,0.679313
11200,0.0324,0.013523,0.002678,0.000431,0.741603
11300,0.0324,0.013523,0.002678,0.000431,0.798016
11400,0.0324,0.013523,0.002678,0.000431,0.830924
11500,0.0324,0.013523,0.002678,0.000431,0.692241
11600,0.0324,0.013523,0.002678,0.000431,0.789789
11700,0.0324,0.013523,0.002678,0.000431,0.695767
11800,0.0324,0.013523,0.002678,0.000431,0.900266
11900,0.0324,0.013523,0.002678,0.000431,0.740428
12000,0.0324,0.013523,0.002678,0.000431,0.826223
12100,0.0324,0.013523,0.002678,0.000431,0.910843
12200,0.0324,0.013523,0.002678,0.000431,0.856780
12300,0.0324,0.013523,0.002678,0.000431,0.799192
12400,0.0324,0.013523,0.002678,0.000431,0.827398
12500,0.0324,0.013523,0.002678,0.000431,0.855605
12600,0.0324,0.013523,0.002678,0.000431,0.855605
12700,0.0324,0.013523,0.002678,0.000431,0.805068
12800,0.0324,0.013523,0.002678,0.000431,0.808594
12900,0.0324,0.013523,0.002678,0.000431,0.966082
13000,0.0324,0.013523,0.002678,0.000431,0.747479
13100,0.0324,0.013523,0.002678,0.000431,0.863832
13200,0.0324,0.013523,0.002678,0.000431,0.738077
13300,0.0324,0.013523,0.002678,0.000431,0.808594
13400,0.0324,0.013523,0.002678,0.000431,0.802717
13500,0.0324,0.013523,0.002678,0.000431,0.783913
13600,0.0324,0.013523,0.002678,0.000431,0.767459
13700,0.0324,0.013523,0.002678,0.000431,0.751005
13800,0.0324,0.013523,0.002678,0.000431,0.624075
13900,0.0324,0.013523,0.002678,0.000431,0.688715
14000,0.0324,0.013523,0.002678,0.000431,0.720448
14100,0.0324,0.013523,0.002678,0.000431,0.741603
14200,0.0324,0.013523,0.002678,0.000431,0.796841
14300,0.0324,0.013523,0.002678,0.000431,0.654632
14400,0.0324,0.013523,0.002678,0.000431,0.692241
14500,0.0324,0.013523,0.002678,0.000431,0.660508
14600,0.0324,0.013523,0.002678,0.000431,0.613497
14700,0.0324,0.013523,0.002678,0.000431,0.640529
14800,0.0324,0.013523,0.002678,0.000431,0.620549
14900,0.0324,0.013523,0.002678,0.000431,0.746304
15000,0.0324,0.013523,0.002678,0.000431,0.672261
15100,0.0324,0.013523,0.002678,0.000431,0.700468
15200,0.0324,0.013523,0.002678,0.000431,0.572362
15300,0.0324,0.013523,0.002678,0.000431,0.599394
15400,0.0324,0.013523,0.002678,0.000431,0.579414
15500,0.0324,0.013523,0.002678,0.000431,0.577063
15600,0.0324,0.013523,0.002678,0.000431,0.674612
15700,0.0324,0.013523,0.002678,0.000431,0.755706
15800,0.0324,0.013523,0.002678,0.000431,0.552382
15900,0.0324,0.013523,0.002678,0.000431,0.700468
16000,0.0324,0.013523,0.002678,0.000431,0.561785
16100,0.0324,0.013523,0.002678,0.000431,0.538279
16200,0.0324,0.013523,0.002678,0.000431,0.555908
16300,0.0324,0.013523,0.002678,0.000431,0.483041
16400,0.0324,0.013523,0.002678,0.000431,0.646405
16500,0.0324,0.013523,0.002678,0.000431,0.553558
16600,0.0324,0.013523,0.002678,0.000431,0.619374
16700,0.0324,0.013523,0.002678,0.000431,0.547681
16800,0.0324,0.013523,0.002678,0.000431,0.533578
16900,0.0324,0.013523,0.002678,0.000431,0.465412
17000,0.0324,0.013523,0.002678,0.000431,0.621724
17100,0.0324,0.013523,0.002678,0.000431,0.532403
17200,0.0324,0.013523,0.002678,0.000431,0.651106
17300,0.0324,0.013523,0.002678,0.000431,0.548857
17400,0.0324,0.013523,0.002678,0.000431,0.612322
17500,0.0324,0.013523,0.002678,0.000431,0.479515
17600,0.0324,0.013523,0.002678,0.000431,0.546506
17700,0.0324,0.013523,0.002678,0.000431,0.436030
17800,0.0324,0.013523,0.002678,0.000431,0.539454
17900,0.0324,0.013523,0.002678,0.000431,0.532403
18000,0.0324,0.013523,0.002678,0.000431,0.503021
18100,0.0324,0.013523,0.002678,0.000431,0.514773
18200,0.0324,0.013523,0.002678,0.000431,0.411349
18300,0.0324,0.013523,0.002678,0.000431,0.567661
18400,0.0324,0.013523,0.002678,0.000431,0.381967
18500,0.0324,0.013523,0.002678,0.000431,0.467762
18600,0.0324,0.013523,0.002678,0.000431,0.412524
18700,0.0324,0.013523,0.002678,0.000431,0.398421
18800,0.0324,0.013523,0.002678,0.000431,0.419576
18900,0.0324,0.013523,0.002678,0.000431,0.452484
19000,0.0324,0.013523,0.002678,0.000431,0.463061
19100,0.0324,0.013523,0.002678,0.000431,0.471288
19200,0.0324,0.013523,0.002678,0.000431,0.413699
19300,0.0324,0.013523,0.002678,0.000431,0.479515
19400,0.0324,0.013523,0.002678,0.000431,0.398421
19500,0.0324,0.013523,0.002678,0.000431,0.383142
19600,0.0324,0.013523,0.002678,0.000431,0.393719
19700,0.0324,0.013523,0.002678,0.000431,0.390194
19800,0.0324,0.013523,0.002678,0.000431,0.389018
19900,0.0324,0.013523,0.002678,0.000431,0.434854
20000,0.0324,0.013523,0.002678,0.000431,0.403122
20100,0.0324,0.013523,0.002678,0.000431,0.365513
20200,0.0324,0.013523,0.002678,0.000431,0.346708
20300,0.0324,0.013523,0.002678,0.000431,0.357286
20400,0.0324,0.013523,0.002678,0.000431,0.356110
20500,0.0324,0.013523,0.002678,0.000431,0.387843
20600,0.0324,0.013523,0.002678,0.000431,0.377265
20700,0.0324,0.013523,0.002678,0.000431,0.350234
20800,0.0324,0.013523,0.002678,0.000431,0.413699
20900,0.0324,0.013523,0.002678,0.000431,0.296171
21000,0.0324,0.013523,0.002678,0.000431,0.332605
21100,0.0324,0.013523,0.002678,0.000431,0.392544
21200,0.0324,0.013523,0.002678,0.000431,0.334955
21300,0.0324,0.013523,0.002678,0.000431,0.313800
21400,0.0324,0.013523,0.002678,0.000431,0.390194
21500,0.0324,0.013523,0.002678,0.000431,0.282068
21600,0.0324,0.013523,0.002678,0.000431,0.327904
21700,0.0324,0.013523,0.002678,0.000431,0.309099
21800,0.0324,0.013523,0.002678,0.000431,0.320852
21900,0.0324,0.013523,0.002678,0.000431,0.310274
22000,0.0324,0.013523,0.002678,0.000431,0.270315
22100,0.0324,0.013523,0.002678,0.000431,0.340832
22200,0.0324,0.013523,0.002678,0.000431,0.235056
22300,0.0324,0.013523,0.002678,0.000431,0.294996
22400,0.0324,0.013523,0.002678,0.000431,0.232706
22500,0.0324,0.013523,0.002678,0.000431,0.289119
22600,0.0324,0.013523,0.002678,0.000431,0.285593
22700,0.0324,0.013523,0.002678,0.000431,0.302047
22800,0.0324,0.013523,0.002678,0.000431,0.283243
22900,0.0324,0.013523,0.002678,0.000431,0.247984
23000,0.0324,0.013523,0.002678,0.000431,0.235056
23100,0.0324,0.013523,0.002678,0.000431,0.287944
23200,0.0324,0.013523,0.002678,0.000431,0.208025
23300,0.0324,0.013523,0.002678,0.000431,0.280892
23400,0.0324,0.013523,0.002678,0.000431,0.235056
23500,0.0324,0.013523,0.002678,0.000431,0.215077
23600,0.0324,0.013523,0.002678,0.000431,0.252686
23700,0.0324,0.013523,0.002678,0.000431,0.196272
23800,0.0324,0.013523,0.002678,0.000431,0.238582
23900,0.0324,0.013523,0.002678,0.000431,0.224479
24000,0.0324,0.013523,0.002678,0.000431,0.228005
24100,0.0324,0.013523,0.002678,0.000431,0.218602
24200,0.0324,0.013523,0.002678,0.000431,0.252686
24300,0.0324,0.013523,0.002678,0.000431,0.176292
24400,0.0324,0.013523,0.002678,0.000431,0.211551
24500,0.0324,0.013523,0.002678,0.000431,0.203324
24600,0.0324,0.013523,0.002678,0.000431,0.206850
24700,0.0324,0.013523,0.002678,0.000431,0.192746
24800,0.0324,0.013523,0.002678,0.000431,0.184519
24900,0.0324,0.013523,0.002678,0.000431,0.211551
25000,0.0324,0.013523,0.002678,0.000431,0.175117
25100,0.0324,0.013523,0.002678,0.000431,0.169241
25200,0.0324,0.013523,0.002678,0.000431,0.190396
25300,0.0324,0.013523,0.002678,0.000431,0.173942
25400,0.0324,0.013523,0.002678,0.000431,0.159838
25500,0.0324,0.013523,0.002678,0.000431,0.193922
25600,0.0324,0.013523,0.002678,0.000431,0.175117
25700,0.0324,0.013523,0.002678,0.000431,0.162189
25800,0.0324,0.013523,0.002678,0.000431,0.156312
25900,0.0324,0.013523,0.002678,0.000431,0.148086
26000,0.0324,0.013523,0.002678,0.000431,0.157488
26100,0.0324,0.013523,0.002678,0.000431,0.159838
26200,0.0324,0.013523,0.002678,0.000431,0.144560
26300,0.0324,0.013523,0.002678,0.000431,0.144560
26400,0.0324,0.013523,0.002678,0.000431,0.144560
26500,0.0324,0.013523,0.002678,0.000431,0.124580
26600,0.0324,0.013523,0.002678,0.000431,0.170416
26700,0.0324,0.013523,0.002678,0.000431,0.144560
26800,0.0324,0.013523,0.002678,0.000431,0.149261
26900,0.0324,0.013523,0.002678,0.000431,0.139859
27000,0.0324,0.013523,0.002678,0.000431,0.133982
27100,0.0324,0.013523,0.002678,0.000431,0.143384
27200,0.0324,0.013523,0.002678,0.000431,0.141034
27300,0.0324,0.013523,0.002678,0.000431,0.119879
27400,0.0324,0.013523,0.002678,0.000431,0.145735
27500,0.0324,0.013523,0.002678,0.000431,0.130456
27600,0.0324,0.013523,0.002678,0.000431,0.116353
27700,0.0324,0.013523,0.002678,0.000431,0.097548
27800,0.0324,0.013523,0.002678,0.000431,0.129281
27900,0.0324,0.013523,0.002678,0.000431,0.111652
28000,0.0324,0.013523,0.002678,0.000431,0.102250
28100,0.0324,0.013523,0.002678,0.000431,0.125755
28200,0.0324,0.013523,0.002678,0.000431,0.101074
28300,0.0324,0.013523,0.002678,0.000431,0.101074
28400,0.0324,0.013523,0.002678,0.000431,0.095198
28500,0.0324,0.013523,0.002678,0.000431,0.092847
28600,0.0324,0.013523,0.002678,0.000431,0.092847
28700,0.0324,0.013523,0.002678,0.000431,0.099899
28800,0.0324,0.013523,0.002678,0.000431,0.076393
28900,0.0324,0.013523,0.002678,0.000431,0.090497
29000,0.0324,0.013523,0.002678,0.000431,0.094023
29100,0.0324,0.013523,0.002678,0.000431,0.069342
29200,0.0324,0.013523,0.002678,0.000431,0.090497
29300,0.0324,0.013523,0.002678,0.000431,0.075218
29400,0.0324,0.013523,0.002678,0.000431,0.095198
29500,0.0324,0.013523,0.002678,0.000431,0.070517
29600,0.0324,0.013523,0.002678,0.000431,0.088146
29700,0.0324,0.013523,0.002678,0.000431,0.076393
29800,0.0324,0.013523,0.002678,0.000431,0.065816
29900,0.0324,0.013523,0.002678,0.000431,0.081094
30000,0.0324,0.013523,0.002678,0.000431,0.070517
30100,0.0324,0.013523,0.002678,0.000431,0.063465
30200,0.0324,0.013523,0.002678,0.000431,0.084620
30300,0.0324,0.013523,0.002678,0.000431,0.063465
30400,0.0324,0.013523,0.002678,0.000431,0.077569
30500,0.0324,0.013523,0.002678,0.000431,0.065816
30600,0.0324,0.013523,0.002678,0.000431,0.074043
30700,0.0324,0.013523,0.002678,0.000431,0.058764
30800,0.0324,0.013523,0.002678,0.000431,0.058764
30900,0.0324,0.013523,0.002678,0.000431,0.052888
31000,0.0324,0.013523,0.002678,0.000431,0.063465
31100,0.0324,0.013523,0.002678,0.000431,0.052888
31200,0.0324,0.013523,0.002678,0.000431,0.061115
31300,0.0324,0.013523,0.002678,0.000431,0.061115
31400,0.0324,0.013523,0.002678,0.000431,0.055238
31500,0.0324,0.013523,0.002678,0.000431,0.049362
31600,0.0324,0.013523,0.002678,0.000431,0.058764
31700,0.0324,0.013523,0.002678,0.000431,0.058764
31800,0.0324,0.013523,0.002678,0.000431,0.045836
31900,0.0324,0.013523,0.002678,0.000431,0.043485
32000,0.0324,0.013523,0.002678,0.000431,0.043485
32100,0.0324,0.013523,0.002678,0.000431,0.044661
32200,0.0324,0.013523,0.002678,0.000431,0.045836
32300,0.0324,0.013523,0.002678,0.000431,0.043485
32400,0.0324,0.013523,0.002678,0.000431,0.047011
32500,0.0324,0.013523,0.002678,0.000431,0.038784
32600,0.0324,0.013523,0.002678,0.000431,0.045836
32700,0.0324,0.013523,0.002678,0.000431,0.042310
32800,0.0324,0.013523,0.002678,0.000431,0.041135
32900,0.0324,0.013523,0.002678,0.000431,0.042310
33000,0.0324,0.013523,0.002678,0.000431,0.038784
33100,0.0324,0.013523,0.002678,0.000431,0.036434
33200,0.0324,0.013523,0.002678,0.000431,0.029382
33300,0.0324,0.013523,0.002678,0.000431,0.037609
33400,0.0324,0.013523,0.002678,0.000431,0.036434
33500,0.0324,0.013523,0.002678,0.000431,0.036434
33600,0.0324,0.013523,0.002678,0.000431,0.041135
33700,0.0324,0.013523,0.002678,0.000431,0.023506
33800,0.0324,0.013523,0.002678,0.000431,0.043485
33900,0.0324,0.013523,0.002678,0.000431,0.029382
34000,0.0324,0.013523,0.002678,0.000431,0.038784
34100,0.0324,0.013523,0.002678,0.000431,0.032908
34200,0.0324,0.013523,0.002678,0.000431,0.034083
34300,0.0324,0.013523,0.002678,0.000431,0.039960
34400,0.0324,0.013523,0.002678,0.000431,0.029382
34500,0.0324,0.013523,0.002678,0.000431,0.029382
34600,0.0324,0.013523,0.002678,0.000431,0.028207
34700,0.0324,0.013523,0.002678,0.000431,0.028207
34800,0.0324,0.013523,0.002678,0.000431,0.028207
34900,0.0324,0.013523,0.002678,0.000431,0.025856
35000,0.0324,0.013523,0.002678,0.000431,0.029382
35100,0.0324,0.013523,0.002678,0.000431,0.023506
35200,0.0324,0.013523,0.002678,0.000431,0.027031
35300,0.0324,0.013523,0.002678,0.000431,0.028207
35400,0.0324,0.013523,0.002678,0.000431,0.023506
35500,0.0324,0.013523,0.002678,0.000431,0.024681
35600,0.0324,0.013523,0.002678,0.000431,0.028207
35700,0.0324,0.013523,0.002678,0.000431,0.021155
35800,0.0324,0.013523,0.002678,0.000431,0.024681
35900,0.0324,0.013523,0.002678,0.000431,0.022330
36000,0.0324,0.013523,0.002678,0.000431,0.027031
36100,0.0324,0.013523,0.002678,0.000431,0.018805
36200,0.0324,0.013523,0.002678,0.000431,0.030557
36300,0.0324,0.013523,0.002678,0.000431,0.019980
36400,0.0324,0.013523,0.002678,0.000431,0.024681
36500,0.0324,0.013523,0.002678,0.000431,0.023506
36600,0.0324,0.013523,0.002678,0.000431,0.019980
36700,0.0324,0.013523,0.002678,0.000431,0.016454
36800,0.0324,0.013523,0.002678,0.000431,0.018805
36900,0.0324,0.013523,0.002678,0.000431,0.021155
37000,0.0324,0.013523,0.002678,0.000431,0.015279
37100,0.0324,0.013523,0.002678,0.000431,0.019980
37200,0.0324,0.013523,0.002678,0.000431,0.015279
37300,0.0324,0.013523,0.002678,0.000431,0.015279
37400,0.0324,0.013523,0.002678,0.000431,0.015279
37500,0.0324,0.013523,0.002678,0.000431,0.018805
37600,0.0324,0.013523,0.002678,0.000431,0.011753
37700,0.0324,0.013523,0.002678,0.000431,0.011753
37800,0.0324,0.013523,0.002678,0.000431,0.018805
37900,0.0324,0.013523,0.002678,0.000431,0.010578
38000,0.0324,0.013523,0.002678,0.000431,0.016454
38100,0.0324,0.013523,0.002678,0.000431,0.016454
38200,0.0324,0.013523,0.002678,0.000431,0.010578
38300,0.0324,0.013523,0.002678,0.000431,0.008227
38400,0.0324,0.013523,0.002678,0.000431,0.011753
38500,0.0324,0.013523,0.002678,0.000431,0.012928
38600,0.0324,0.013523,0.002678,0.000431,0.012928
38700,0.0324,0.013523,0.002678,0.000431,0.011753
38800,0.0324,0.013523,0.002678,0.000431,0.009402
38900,0.0324,0.013523,0.002678,0.000431,0.012928
39000,0.0324,0.013523,0.002678,0.000431,0.012928
39100,0.0324,0.013523,0.002678,0.000431,0.014103
39200,0.0324,0.013523,0.002678,0.000431,0.003526
39300,0.0324,0.013523,0.002678,0.000431,0.010578
39400,0.0324,0.013523,0.002678,0.000431,0.015279
39500,0.0324,0.013523,0.002678,0.000431,0.004701
39600,0.0324,0.013523,0.002678,0.000431,0.007052
39700,0.0324,0.013523,0.002678,0.000431,0.008227
39800,0.0324,0.013523,0.002678,0.000431,0.008227
39900,0.0324,0.013523,0.002678,0.000431,0.009402
40000,0.0324,0.013523,0.002678,0.000431,0.005876
40100,0.0324,0.013523,0.002678,0.000431,0.009402
40200,0.0324,0.013523,0.002678,0.000431,0.005876
40300,0.0324,0.013523,0.002678,0.000431,0.002351
40400,0.0324,0.013523,0.002678,0.000431,0.009402
40500,0.0324,0.013523,0.002678,0.000431,0.008227
40600,0.0324,0.013523,0.002678,0.000431,0.007052
40700,0.0324,0.013523,0.002678,0.000431,0.005876
40800,0.0324,0.013523,0.002678,0.000431,0.005876
40900,0.0324,0.013523,0.002678,0.000431,0.012928
41000,0.0324,0.013523,0.002678,0.000431,0.001175
41100,0.0324,0.013523,0.002678,0.000431,0.008227
41200,0.0324,0.013523,0.002678,0.000431,0.011753
41300,0.0324,0.013523,0.002678,0.000431,0.005876
41400,0.0324,0.013523,0.002678,0.000431,0.009402
41500,0.0324,0.013523,0.002678,0.000431,0.014103
41600,0.0324,0.013523,0.002678,0.000431,0.005876
41700,0.0324,0.013523,0.002678,0.000431,0.008227
41800,0.0324,0.013523,0.002678,0.000431,0.009402
41900,0.0324,0.013523,0.002678,0.000431,0.004701
42000,0.0324,0.013523,0.002678,0.000431,0.004701
42100,0.0324,0.013523,0.002678,0.000431,0.012928
42200,0.0324,0.013523,0.002678,0.000431,0.001175
42300,0.0324,0.013523,0.002678,0.000431,0.005876
42400,0.0324,0.013523,0.002678,0.000431,0.007052
42500,0.0324,0.013523,0.002678,0.000431,0.002351
42600,0.0324,0.013523,0.002678,0.000431,0.004701
42700,0.0324,0.013523,0.002678,0.000431,0.004701
42800,0.0324,0.013523,0.002678,0.000431,0.002351
42900,0.0324,0.013523,0.002678,0.000431,0.000000
43000,0.0324,0.013523,0.002678,0.000431,0.007052
43100,0.0324,0.013523,0.002678,0.000431,0.003526
43200,0.0324,0.013523,0.002678,0.000431,0.003526
43300,0.0324,0.013523,0.002678,0.000431,0.002351
43400,0.0324,0.013523,0.002678,0.000431,0.005876
43500,0.0324,0.013523,0.002678,0.000431,0.000000
43600,0.0324,0.013523,0.002678,0.000431,0.007052
43700,0.0324,0.013523,0.002678,0.000431,0.001175
43800,0.0324,0.013523,0.002678,0.000431,0.001175
43900,0.0324,0.013523,0.002678,0.000431,0.002351
44000,0.0324,0.013523,0.002678,0.000431,0.004701
44100,0.0324,0.013523,0.002678,0.000431,0.002351
44200,0.0324,0.013523,0.002678,0.000431,0.002351
44300,0.0324,0.013523,0.002678,0.000431,0.001175
44400,0.0324,0.013523,0.002678,0.000431,0.005876
44500,0.0324,0.013523,0.002678,0.000431,0.001175
44600,0.0324,0.013523,0.002678,0.000431,0.005876
44700,0.0324,0.013523,0.002678,0.000431,0.003526
44800,0.0324,0.013523,0.002678,0.000431,0.003526
44900,0.0324,0.013523,0.002678,0.000431,0.003526
45000,0.0324,0.013523,0.002678,0.000431,0.001175
45100,0.0324,0.013523,0.002678,0.000431,0.004701
45200,0.0324,0.013523,0.002678,0.000431,0.000000
45300,0.0324,0.013523,0.002678,0.000431,0.003526
45400,0.0324,0.013523,0.002678,0.000431,0.002351
45500,0.0324,0.013523,0.002678,0.000431,0.002351
45600,0.0324,0.013523,0.002678,0.000431,0.000000
45700,0.0324,0.013523,0.002678,0.000431,0.002351
45800,0.0324,0.013523,0.002678,0.000431,0.004701
45900,0.0324,0.013523,0.002678,0.000431,0.000000
46000,0.0324,0.013523,0.002678,0.000431,0.004701
46100,0.0324,0.013523,0.002678,0.000431,0.004701
46200,0.0324,0.013523,0.002678,0.000431,0.000000
46300,0.0324,0.013523,0.002678,0.000431,0.004701
46400,0.0324,0.013523,0.002678,0.000431,0.003526
46500,0.0324,0.013523,0.002678,0.000431,0.000000
46600,0.0324,0.013523,0.002678,0.000431,0.001175
46700,0.0324,0.013523,0.002678,0.000431,0.004701
46800,0.0324,0.013523,0.002678,0.000431,0.002351
46900,0.0324,0.013523,0.002678,0.000431,0.002351
47000,0.0324,0.013523,0.002678,0.000431,0.002351
47100,0.0324,0.013523,0.002678,0.000431,0.003526
47200,0.0324,0.013523,0.002678,0.000431,0.003526
47300,0.0324,0.013523,0.002678,0.000431,0.002351
47400,0.0324,0.013523,0.002678,0.000431,0.002351
47500,0.0324,0.013523,0.002678,0.000431,0.001175
47600,0.0324,0.013523,0.002678,0.000431,0.001175
47700,0.0324,0.013523,0.002678,0.000431,0.001175
47800,0.0324,0.013523,0.002678,0.000431,0.003526
47900,0.0324,0.013523,0.002678,0.000431,0.000000
48000,0.0324,0.013523,0.002678,0.000431,0.003526
48100,0.0324,0.013523,0.002678,0.000431,0.001175
48200,0.0324,0.013523,0.002678,0.000431,0.001175
48300,0.0324,0.013523,0.002678,0.000431,0.001175
48400,0.0324,0.013523,0.002678,0.000431,0.001175
48500,0.0324,0.013523,0.002678,0.000431,0.001175
48600,0.0324,0.013523,0.002678,0.000431,0.001175
48700,0.0324,0.013523,0.002678,0.000431,0.000000
48800,0.0324,0.013523,0.002678,0.000431,0.001175
48900,0.0324,0.013523,0.002678,0.000431,0.001175
49000,0.0324,0.013523,0.002678,0.000431,0.000000
49100,0.0324,0.013523,0.002678,0.000431,0.000000
49200,0.0324,0.013523,0.002678,0.000431,0.001175
49300,0.0324,0.013523,0.002678,0.000431,0.001175
49400,0.0324,0.013523,0.002678,0.000431,0.000000
49500,0.0324,0.013523,0.002678,0.000431,0.001175
49600,0.0324,0.013523,0.002678,0.000431,0.001175
49700,0.0324,0.013523,0.002678,0.000431,0.000000
49800,0.0324,0.013523,0.002678,0.000431,0.001175
49900,0.0324,0.013523,0.002678,0.000431,0.001175
50000,0.0324,0.013523,0.002678,0.000431,0.000000
50100,0.0324,0.013523,0.002678,0.000431,0.001175
50200,0.0324,0.013523,0.002678,0.000431,0.001175
50300,0.0324,0.013523,0.002678,0.000431,0.000000
50400,0.0324,0.013523,0.002678,0.000431,0.001175
50500,0.0324,0.013523,0.002678,0.000431,0.001175
50600,0.0324,0.013523,0.002678,0.000431,0.000000
50700,0.0324,0.013523,0.002678,0.000431,0.001175
50800,0.0324,0.013523,0.002678,0.000431,0.000000
50900,0.0324,0.013523,0.002678,0.000431,0.001175
51000,0.0324,0.013523,0.002678,0.000431,0.000000
51100,0.0324,0.013523,0.002678,0.000431,0.001175
51200,0.0324,0.013523,0.002678,0.000431,0.001175
51300,0.0324,0.013523,0.002678,0.000431,0.000000
51400,0.0324,0.013523,0.002678,0.000431,0.001175
51500,0.0324,0.013523,0.002678,0.000431,0.001175
51600,0.0324,0.013523,0.002678,0.000431,0.000000
51700,0.0324,0.013523,0.002678,0.000431,0.000000
51800,0.0324,0.013523,0.002678,0.000431,0.001175
51900,0.0324,0.013523,0.002678,0.000431,0.001175
52000,0.0324,0.013523,0.002678,0.000431,0.000000
52100,0.0324,0.013523,0.002678,0.000431,0.001175
52200,0.0324,0.013523,0.002678,0.000431,0.000000
52300,0.0324,0.013523,0.002678,0.000431,0.001175
52400,0.0324,0.013523,0.002678,0.000431,0.000000
52500,0.0324,0.013523,0.002678,0.000431,0.001175
52600,0.0324,0.013523,0.002678,0.000431,0.001175
52700,0.0324,0.013523,0.002678,0.000431,0.000000
52800,0.0324,0.013523,0.002678,0.000431,0.001175
52900,0.0324,0.013523,0.002678,0.000431,0.001175
53000,0.0324,0.013523,0.002678,0.000431,0.000000
53100,0.0324,0.013523,0.002678,0.000431,0.001175
53200,0.0324,0.013523,0.002678,0.000431,0.001175
53300,0.0324,0.013523,0.002678,0.000431,0.000000
53400,0.0324,0.013523,0.002678,0.000431,0.001175
53500,0.0324,0.013523,0.002678,0.000431,0.001175
53600,0.0324,0.013523,0.002678,0.000431,0.000000
53700,0.0324,0.013523,0.002678,0.000431,0.001175
53800,0.0324,0.013523,0.002678,0.000431,0.001175
53900,0.0324,0.013523,0.002678,0.000431,0.000000
54000,0.0324,0.013523,0.002678,0.000431,0.000000
54100,0.0324,0.013523,0.002678,0.000431,0.001175
54200,0.0324,0.013523,0.002678,0.000431,0.000000
54300,0.0324,0.013523,0.002678,0.000431,0.000000
54400,0.0324,0.013523,0.002678,0.000431,0.000000
54500,0.0324,0.013523,0.002678,0.000431,0.001175
54600,0.0324,0.013523,0.002678,0.000431,0.000000
54700,0.0324,0.013523,0.002678,0.000431,0.001175
54800,0.0324,0.013523,0.002678,0.000431,0.001175
54900,0.0324,0.013523,0.002678,0.000431,0.000000
55000,0.0324,0.013523,0.002678,0.000431,0.001175
55100,0.0324,0.013523,0.002678,0.000431,0.001175
55200,0.0324,0.013523,0.002678,0.000431,0.000000
55300,0.0324,0.013523,0.002678,0.000431,0.001175
55400,0.0324,0.013523,0.002678,0.000431,0.001175
55500,0.0324,0.013523,0.002678,0.000431,0.000000
55600,0.0324,0.013523,0.002678,0.000431,0.001175
55700,0.0324,0.013523,0.002678,0.000431,0.001175
55800,0.0324,0.013523,0.002678,0.000431,0.000000
55900,0.0324,0.013523,0.002678,0.000431,0.000000
56000,0.0324,0.013523,0.002678,0.000431,0.001175
56100,0.0324,0.013523,0.002678,0.000431,0.001175
56200,0.0324,0.013523,0.002678,0.000431,0.000000
56300,0.0324,0.013523,0.002678,0.000431,0.000000
56400,0.0324,0.013523,0.002678,0.000431,0.001175
56500,0.0324,0.013523,0.002678,0.000431,0.001175
56600,0.0324,0.013523,0.002678,0.000431,0.000000
56700,0.0324,0.013523,0.002678,0.000431,0.001175
56800,0.0324,0.013523,0.002678,0.000431,0.001175
56900,0.0324,0.013523,0.002678,0.000431,0.000000
57000,0.0324,0.013523,0.002678,0.000431,0.001175
57100,0.0324,0.013523,0.002678,0.000431,0.001175
57200,0.0324,0.013523,0.002678,0.000431,0.000000
57300,0.0324,0.013523,0.002678,0.000431,0.001175
57400,0.0324,0.013523,0.002678,0.000431,0.001175
57500,0.0324,0.013523,0.002678,0.000431,0.000000
57600,0.0324,0.013523,0.002678,0.000431,0.001175
57700,0.0324,0.013523,0.002678,0.000431,0.001175
57800,0.0324,0.013523,0.002678,0.000431,0.000000
57900,0.0324,0.013523,0.002678,0.000431,0.001175
58000,0.0324,0.013523,0.002678,0.000431,0.000000
58100,0.0324,0.013523,0.002678,0.000431,0.000000
58200,0.0324,0.013523,0.002678,0.000431,0.001175
58300,0.0324,0.013523,0.002678,0.000431,0.000000
58400,0.0324,0.013523,0.002678,0.000431,0.001175
58500,0.0324,0.013523,0.002678,0.000431,0.001175
58600,0.0324,0.013523,0.002678,0.000431,0.000000
58700,0.0324,0.013523,0.002678,0.000431,0.000000
58800,0.0324,0.013523,0.002678,0.000431,0.001175
58900,0.0324,0.013523,0.002678,0.000431,0.001175
59000,0.0324,0.013523,0.002678,0.000431,0.000000
59100,0.0324,0.013523,0.002678,0.000431,0.001175
59200,0.0324,0.013523,0.002678,0.000431,0.000000
59300,0.0324,0.013523,0.002678,0.000431,0.001175
59400,0.0324,0.013523,0.002678,0.000431,0.001175
59500,0.0324,0.013523,0.002678,0.000431,0.000000
59600,0.0324,0.013523,0.002678,0.000431,0.001175
59700,0.0324,0.013523,0.002678,0.000431,0.000000
59800,0.0324,0.013523,0.002678,0.000431,0.000000
59900,0.0324,0.013523,0.002678,0.000431,0.001175
60000,0.0324,0.013523,0.002678,0.000431,0.001175
60100,0.0324,0.013523,0.002678,0.000431,0.000000
60200,0.0324,0.013523,0.002678,0.000431,0.000000
60300,0.0324,0.013523,0.002678,0.000431,0.001175
60400,0.0324,0.013523,0.002678,0.000431,0.001175
60500,0.0324,0.013523,0.002678,0.000431,0.000000
