Cycle,Area(mm^2),PeakDynamic(W),SubthresholdLeakage(W),GateLeakage(W),RunTimeDynamic(W)
1000000,0.0324,0.013523,0.002678,0.000431,0.217780
1001000,0.0324,0.013523,0.002678,0.000431,0.216487
1002000,0.0324,0.013523,0.002678,0.000431,0.216252
1003000,0.0324,0.013523,0.002678,0.000431,0.214136
1004000,0.0324,0.013523,0.002678,0.000431,0.211786
1005000,0.0324,0.013523,0.002678,0.000431,0.220718
1006000,0.0324,0.013523,0.002678,0.000431,0.203441
1007000,0.0324,0.013523,0.002678,0.000431,0.219778
1008000,0.0324,0.013523,0.002678,0.000431,0.202736
1009000,0.0324,0.013523,0.002678,0.000431,0.219778
1010000,0.0324,0.013523,0.002678,0.000431,0.202619
1011000,0.0324,0.013523,0.002678,0.000431,0.200621
1012000,0.0324,0.013523,0.002678,0.000431,0.215547
1013000,0.0324,0.013523,0.002678,0.000431,0.206262
1014000,0.0324,0.013523,0.002678,0.000431,0.221658
1015000,0.0324,0.013523,0.002678,0.000431,0.203559
1016000,0.0324,0.013523,0.002678,0.000431,0.211433
1017000,0.0324,0.013523,0.002678,0.000431,0.200856
1018000,0.0324,0.013523,0.002678,0.000431,0.203089
1019000,0.0324,0.013523,0.002678,0.000431,0.204029
1020000,0.0324,0.013523,0.002678,0.000431,0.207085
1021000,0.0324,0.013523,0.002678,0.000431,0.190513
1022000,0.0324,0.013523,0.002678,0.000431,0.217780
1023000,0.0324,0.013523,0.002678,0.000431,0.204969
1024000,0.0324,0.013523,0.002678,0.000431,0.212608
1025000,0.0324,0.013523,0.002678,0.000431,0.195802
1026000,0.0324,0.013523,0.002678,0.000431,0.195332
1027000,0.0324,0.013523,0.002678,0.000431,0.195802
1028000,0.0324,0.013523,0.002678,0.000431,0.197447
1029000,0.0324,0.013523,0.002678,0.000431,0.191336
1030000,0.0324,0.013523,0.002678,0.000431,0.194979
1031000,0.0324,0.013523,0.002678,0.000431,0.204029
1032000,0.0324,0.013523,0.002678,0.000431,0.199563
1033000,0.0324,0.013523,0.002678,0.000431,0.205674
1034000,0.0324,0.013523,0.002678,0.000431,0.198153
1035000,0.0324,0.013523,0.002678,0.000431,0.200738
1036000,0.0324,0.013523,0.002678,0.000431,0.194392
1037000,0.0324,0.013523,0.002678,0.000431,0.186165
1038000,0.0324,0.013523,0.002678,0.000431,0.188045
1039000,0.0324,0.013523,0.002678,0.000431,0.207790
1040000,0.0324,0.013523,0.002678,0.000431,0.182874
1041000,0.0324,0.013523,0.002678,0.000431,0.193334
1042000,0.0324,0.013523,0.002678,0.000431,0.210375
1043000,0.0324,0.013523,0.002678,0.000431,0.210963
1044000,0.0324,0.013523,0.002678,0.000431,0.188633
1045000,0.0324,0.013523,0.002678,0.000431,0.185695
1046000,0.0324,0.013523,0.002678,0.000431,0.191101
1047000,0.0324,0.013523,0.002678,0.000431,0.184872
1048000,0.0324,0.013523,0.002678,0.000431,0.187105
1049000,0.0324,0.013523,0.002678,0.000431,0.187457
1050000,0.0324,0.013523,0.002678,0.000431,0.203089
1051000,0.0324,0.013523,0.002678,0.000431,0.192394
1052000,0.0324,0.013523,0.002678,0.000431,0.209200
1053000,0.0324,0.013523,0.002678,0.000431,0.189220
1054000,0.0324,0.013523,0.002678,0.000431,0.182756
1055000,0.0324,0.013523,0.002678,0.000431,0.190513
1056000,0.0324,0.013523,0.002678,0.000431,0.182404
1057000,0.0324,0.013523,0.002678,0.000431,0.197682
1058000,0.0324,0.013523,0.002678,0.000431,0.178173
1059000,0.0324,0.013523,0.002678,0.000431,0.199093
1060000,0.0324,0.013523,0.002678,0.000431,0.194392
1061000,0.0324,0.013523,0.002678,0.000431,0.191101
1062000,0.0324,0.013523,0.002678,0.000431,0.194627
1063000,0.0324,0.013523,0.002678,0.000431,0.184872
1064000,0.0324,0.013523,0.002678,0.000431,0.178055
1065000,0.0324,0.013523,0.002678,0.000431,0.188515
1066000,0.0324,0.013523,0.002678,0.000431,0.189690
1067000,0.0324,0.013523,0.002678,0.000431,0.176175
1068000,0.0324,0.013523,0.002678,0.000431,0.189338
1069000,0.0324,0.013523,0.002678,0.000431,0.195567
1070000,0.0324,0.013523,0.002678,0.000431,0.192041
1071000,0.0324,0.013523,0.002678,0.000431,0.188868
1072000,0.0324,0.013523,0.002678,0.000431,0.181934
1073000,0.0324,0.013523,0.002678,0.000431,0.187222
1074000,0.0324,0.013523,0.002678,0.000431,0.185224
1075000,0.0324,0.013523,0.002678,0.000431,0.176997
1076000,0.0324,0.013523,0.002678,0.000431,0.191336
1077000,0.0324,0.013523,0.002678,0.000431,0.184167
1078000,0.0324,0.013523,0.002678,0.000431,0.190748
1079000,0.0324,0.013523,0.002678,0.000431,0.191571
1080000,0.0324,0.013523,0.002678,0.000431,0.186400
1081000,0.0324,0.013523,0.002678,0.000431,0.179701
1082000,0.0324,0.013523,0.002678,0.000431,0.189338
1083000,0.0324,0.013523,0.002678,0.000431,0.173472
1084000,0.0324,0.013523,0.002678,0.000431,0.183344
1085000,0.0324,0.013523,0.002678,0.000431,0.184049
1086000,0.0324,0.013523,0.002678,0.000431,0.181699
1087000,0.0324,0.013523,0.002678,0.000431,0.188868
1088000,0.0324,0.013523,0.002678,0.000431,0.179701
1089000,0.0324,0.013523,0.002678,0.000431,0.177350
1090000,0.0324,0.013523,0.002678,0.000431,0.180406
1091000,0.0324,0.013523,0.002678,0.000431,0.178173
1092000,0.0324,0.013523,0.002678,0.000431,0.178290
1093000,0.0324,0.013523,0.002678,0.000431,0.173707
1094000,0.0324,0.013523,0.002678,0.000431,0.184519
1095000,0.0324,0.013523,0.002678,0.000431,0.172766
1096000,0.0324,0.013523,0.002678,0.000431,0.172884
1097000,0.0324,0.013523,0.002678,0.000431,0.172414
1098000,0.0324,0.013523,0.002678,0.000431,0.164422
1099000,0.0324,0.013523,0.002678,0.000431,0.196390
1100000,0.0324,0.013523,0.002678,0.000431,0.177938
1101000,0.0324,0.013523,0.002678,0.000431,0.175587
1102000,0.0324,0.013523,0.002678,0.000431,0.173824
1103000,0.0324,0.013523,0.002678,0.000431,0.166655
1104000,0.0324,0.013523,0.002678,0.000431,0.168535
1105000,0.0324,0.013523,0.002678,0.000431,0.170298
1106000,0.0324,0.013523,0.002678,0.000431,0.168183
1107000,0.0324,0.013523,0.002678,0.000431,0.170768
1108000,0.0324,0.013523,0.002678,0.000431,0.171239
1109000,0.0324,0.013523,0.002678,0.000431,0.182286
1110000,0.0324,0.013523,0.002678,0.000431,0.161601
1111000,0.0324,0.013523,0.002678,0.000431,0.165480
1112000,0.0324,0.013523,0.002678,0.000431,0.159486
1113000,0.0324,0.013523,0.002678,0.000431,0.174294
1114000,0.0324,0.013523,0.002678,0.000431,0.165715
1115000,0.0324,0.013523,0.002678,0.000431,0.165480
1116000,0.0324,0.013523,0.002678,0.000431,0.163717
1117000,0.0324,0.013523,0.002678,0.000431,0.162189
1118000,0.0324,0.013523,0.002678,0.000431,0.176292
1119000,0.0324,0.013523,0.002678,0.000431,0.168535
1120000,0.0324,0.013523,0.002678,0.000431,0.165950
1121000,0.0324,0.013523,0.002678,0.000431,0.152904
1122000,0.0324,0.013523,0.002678,0.000431,0.167243
1123000,0.0324,0.013523,0.002678,0.000431,0.170298
1124000,0.0324,0.013523,0.002678,0.000431,0.149496
1125000,0.0324,0.013523,0.002678,0.000431,0.158898
1126000,0.0324,0.013523,0.002678,0.000431,0.170181
1127000,0.0324,0.013523,0.002678,0.000431,0.162777
1128000,0.0324,0.013523,0.002678,0.000431,0.171004
1129000,0.0324,0.013523,0.002678,0.000431,0.161131
1130000,0.0324,0.013523,0.002678,0.000431,0.164657
1131000,0.0324,0.013523,0.002678,0.000431,0.169828
1132000,0.0324,0.013523,0.002678,0.000431,0.147380
1133000,0.0324,0.013523,0.002678,0.000431,0.154785
1134000,0.0324,0.013523,0.002678,0.000431,0.162071
1135000,0.0324,0.013523,0.002678,0.000431,0.163012
1136000,0.0324,0.013523,0.002678,0.000431,0.155372
1137000,0.0324,0.013523,0.002678,0.000431,0.169593
1138000,0.0324,0.013523,0.002678,0.000431,0.158663
1139000,0.0324,0.013523,0.002678,0.000431,0.153962
1140000,0.0324,0.013523,0.002678,0.000431,0.155490
1141000,0.0324,0.013523,0.002678,0.000431,0.142562
1142000,0.0324,0.013523,0.002678,0.000431,0.159251
1143000,0.0324,0.013523,0.002678,0.000431,0.147615
1144000,0.0324,0.013523,0.002678,0.000431,0.165010
1145000,0.0324,0.013523,0.002678,0.000431,0.164539
1146000,0.0324,0.013523,0.002678,0.000431,0.152081
1147000,0.0324,0.013523,0.002678,0.000431,0.163129
1148000,0.0324,0.013523,0.002678,0.000431,0.148438
1149000,0.0324,0.013523,0.002678,0.000431,0.155960
1150000,0.0324,0.013523,0.002678,0.000431,0.141034
1151000,0.0324,0.013523,0.002678,0.000431,0.140564
1152000,0.0324,0.013523,0.002678,0.000431,0.173119
1153000,0.0324,0.013523,0.002678,0.000431,0.152669
1154000,0.0324,0.013523,0.002678,0.000431,0.154197
1155000,0.0324,0.013523,0.002678,0.000431,0.154550
1156000,0.0324,0.013523,0.002678,0.000431,0.149378
1157000,0.0324,0.013523,0.002678,0.000431,0.151964
1158000,0.0324,0.013523,0.002678,0.000431,0.147263
1159000,0.0324,0.013523,0.002678,0.000431,0.147263
1160000,0.0324,0.013523,0.002678,0.000431,0.151729
1161000,0.0324,0.013523,0.002678,0.000431,0.153257
1162000,0.0324,0.013523,0.002678,0.000431,0.151846
1163000,0.0324,0.013523,0.002678,0.000431,0.150554
1164000,0.0324,0.013523,0.002678,0.000431,0.146910
1165000,0.0324,0.013523,0.002678,0.000431,0.139506
1166000,0.0324,0.013523,0.002678,0.000431,0.161954
1167000,0.0324,0.013523,0.002678,0.000431,0.137861
1168000,0.0324,0.013523,0.002678,0.000431,0.146205
1169000,0.0324,0.013523,0.002678,0.000431,0.155255
1170000,0.0324,0.013523,0.002678,0.000431,0.148673
1171000,0.0324,0.013523,0.002678,0.000431,0.149731
1172000,0.0324,0.013523,0.002678,0.000431,0.143149
1173000,0.0324,0.013523,0.002678,0.000431,0.143267
1174000,0.0324,0.013523,0.002678,0.000431,0.141621
1175000,0.0324,0.013523,0.002678,0.000431,0.150789
1176000,0.0324,0.013523,0.002678,0.000431,0.144795
1177000,0.0324,0.013523,0.002678,0.000431,0.142327
1178000,0.0324,0.013523,0.002678,0.000431,0.153374
1179000,0.0324,0.013523,0.002678,0.000431,0.144325
1180000,0.0324,0.013523,0.002678,0.000431,0.144207
1181000,0.0324,0.013523,0.002678,0.000431,0.140211
1182000,0.0324,0.013523,0.002678,0.000431,0.135392
1183000,0.0324,0.013523,0.002678,0.000431,0.141034
1184000,0.0324,0.013523,0.002678,0.000431,0.144207
1185000,0.0324,0.013523,0.002678,0.000431,0.146558
1186000,0.0324,0.013523,0.002678,0.000431,0.140094
1187000,0.0324,0.013523,0.002678,0.000431,0.141739
1188000,0.0324,0.013523,0.002678,0.000431,0.154079
1189000,0.0324,0.013523,0.002678,0.000431,0.133512
1190000,0.0324,0.013523,0.002678,0.000431,0.143032
1191000,0.0324,0.013523,0.002678,0.000431,0.138683
1192000,0.0324,0.013523,0.002678,0.000431,0.146323
1193000,0.0324,0.013523,0.002678,0.000431,0.133159
1194000,0.0324,0.013523,0.002678,0.000431,0.141857
1195000,0.0324,0.013523,0.002678,0.000431,0.151376
1196000,0.0324,0.013523,0.002678,0.000431,0.142444
1197000,0.0324,0.013523,0.002678,0.000431,0.141504
1198000,0.0324,0.013523,0.002678,0.000431,0.141151
1199000,0.0324,0.013523,0.002678,0.000431,0.138448
1200000,0.0324,0.013523,0.002678,0.000431,0.135275
1201000,0.0324,0.013523,0.002678,0.000431,0.141739
1202000,0.0324,0.013523,0.002678,0.000431,0.139623
1203000,0.0324,0.013523,0.002678,0.000431,0.143619
1204000,0.0324,0.013523,0.002678,0.000431,0.148673
1205000,0.0324,0.013523,0.002678,0.000431,0.146558
1206000,0.0324,0.013523,0.002678,0.000431,0.136098
1207000,0.0324,0.013523,0.002678,0.000431,0.135628
1208000,0.0324,0.013523,0.002678,0.000431,0.137626
1209000,0.0324,0.013523,0.002678,0.000431,0.134570
1210000,0.0324,0.013523,0.002678,0.000431,0.137155
1211000,0.0324,0.013523,0.002678,0.000431,0.135275
1212000,0.0324,0.013523,0.002678,0.000431,0.145382
1213000,0.0324,0.013523,0.002678,0.000431,0.138096
1214000,0.0324,0.013523,0.002678,0.000431,0.143267
1215000,0.0324,0.013523,0.002678,0.000431,0.135863
1216000,0.0324,0.013523,0.002678,0.000431,0.136098
1217000,0.0324,0.013523,0.002678,0.000431,0.133630
1218000,0.0324,0.013523,0.002678,0.000431,0.134335
1219000,0.0324,0.013523,0.002678,0.000431,0.133394
1220000,0.0324,0.013523,0.002678,0.000431,0.128458
1221000,0.0324,0.013523,0.002678,0.000431,0.137861
1222000,0.0324,0.013523,0.002678,0.000431,0.141739
1223000,0.0324,0.013523,0.002678,0.000431,0.135157
1224000,0.0324,0.013523,0.002678,0.000431,0.138801
1225000,0.0324,0.013523,0.002678,0.000431,0.130574
1226000,0.0324,0.013523,0.002678,0.000431,0.125755
1227000,0.0324,0.013523,0.002678,0.000431,0.133159
1228000,0.0324,0.013523,0.002678,0.000431,0.133159
1229000,0.0324,0.013523,0.002678,0.000431,0.131867
1230000,0.0324,0.013523,0.002678,0.000431,0.134100
1231000,0.0324,0.013523,0.002678,0.000431,0.140799
1232000,0.0324,0.013523,0.002678,0.000431,0.133630
1233000,0.0324,0.013523,0.002678,0.000431,0.132807
1234000,0.0324,0.013523,0.002678,0.000431,0.119174
1235000,0.0324,0.013523,0.002678,0.000431,0.131044
1236000,0.0324,0.013523,0.002678,0.000431,0.125403
1237000,0.0324,0.013523,0.002678,0.000431,0.135275
1238000,0.0324,0.013523,0.002678,0.000431,0.129869
1239000,0.0324,0.013523,0.002678,0.000431,0.121172
1240000,0.0324,0.013523,0.002678,0.000431,0.129281
1241000,0.0324,0.013523,0.002678,0.000431,0.133747
1242000,0.0324,0.013523,0.002678,0.000431,0.126695
1243000,0.0324,0.013523,0.002678,0.000431,0.123170
1244000,0.0324,0.013523,0.002678,0.000431,0.129751
1245000,0.0324,0.013523,0.002678,0.000431,0.123875
1246000,0.0324,0.013523,0.002678,0.000431,0.125285
1247000,0.0324,0.013523,0.002678,0.000431,0.122699
1248000,0.0324,0.013523,0.002678,0.000431,0.129399
1249000,0.0324,0.013523,0.002678,0.000431,0.129281
1250000,0.0324,0.013523,0.002678,0.000431,0.127753
1251000,0.0324,0.013523,0.002678,0.000431,0.121759
1252000,0.0324,0.013523,0.002678,0.000431,0.123287
1253000,0.0324,0.013523,0.002678,0.000431,0.127048
1254000,0.0324,0.013523,0.002678,0.000431,0.118233
1255000,0.0324,0.013523,0.002678,0.000431,0.123287
1256000,0.0324,0.013523,0.002678,0.000431,0.122464
1257000,0.0324,0.013523,0.002678,0.000431,0.128693
1258000,0.0324,0.013523,0.002678,0.000431,0.128106
1259000,0.0324,0.013523,0.002678,0.000431,0.120701
1260000,0.0324,0.013523,0.002678,0.000431,0.118821
1261000,0.0324,0.013523,0.002678,0.000431,0.119174
1262000,0.0324,0.013523,0.002678,0.000431,0.120936
1263000,0.0324,0.013523,0.002678,0.000431,0.120819
1264000,0.0324,0.013523,0.002678,0.000431,0.122112
1265000,0.0324,0.013523,0.002678,0.000431,0.118703
1266000,0.0324,0.013523,0.002678,0.000431,0.119056
1267000,0.0324,0.013523,0.002678,0.000431,0.119174
1268000,0.0324,0.013523,0.002678,0.000431,0.119409
1269000,0.0324,0.013523,0.002678,0.000431,0.116470
1270000,0.0324,0.013523,0.002678,0.000431,0.115178
1271000,0.0324,0.013523,0.002678,0.000431,0.116235
1272000,0.0324,0.013523,0.002678,0.000431,0.117293
1273000,0.0324,0.013523,0.002678,0.000431,0.112122
1274000,0.0324,0.013523,0.002678,0.000431,0.114708
1275000,0.0324,0.013523,0.002678,0.000431,0.115530
1276000,0.0324,0.013523,0.002678,0.000431,0.123170
1277000,0.0324,0.013523,0.002678,0.000431,0.115765
1278000,0.0324,0.013523,0.002678,0.000431,0.111887
1279000,0.0324,0.013523,0.002678,0.000431,0.112592
1280000,0.0324,0.013523,0.002678,0.000431,0.115765
1281000,0.0324,0.013523,0.002678,0.000431,0.107656
1282000,0.0324,0.013523,0.002678,0.000431,0.114943
1283000,0.0324,0.013523,0.002678,0.000431,0.109654
1284000,0.0324,0.013523,0.002678,0.000431,0.123405
1285000,0.0324,0.013523,0.002678,0.000431,0.110947
1286000,0.0324,0.013523,0.002678,0.000431,0.109184
1287000,0.0324,0.013523,0.002678,0.000431,0.108479
1288000,0.0324,0.013523,0.002678,0.000431,0.108479
1289000,0.0324,0.013523,0.002678,0.000431,0.114825
1290000,0.0324,0.013523,0.002678,0.000431,0.111652
1291000,0.0324,0.013523,0.002678,0.000431,0.111534
1292000,0.0324,0.013523,0.002678,0.000431,0.106128
1293000,0.0324,0.013523,0.002678,0.000431,0.118703
1294000,0.0324,0.013523,0.002678,0.000431,0.106245
1295000,0.0324,0.013523,0.002678,0.000431,0.105540
1296000,0.0324,0.013523,0.002678,0.000431,0.109536
1297000,0.0324,0.013523,0.002678,0.000431,0.109771
1298000,0.0324,0.013523,0.002678,0.000431,0.107068
1299000,0.0324,0.013523,0.002678,0.000431,0.110241
1300000,0.0324,0.013523,0.002678,0.000431,0.104718
1301000,0.0324,0.013523,0.002678,0.000431,0.116941
1302000,0.0324,0.013523,0.002678,0.000431,0.110006
1303000,0.0324,0.013523,0.002678,0.000431,0.113180
1304000,0.0324,0.013523,0.002678,0.000431,0.100722
1305000,0.0324,0.013523,0.002678,0.000431,0.102367
1306000,0.0324,0.013523,0.002678,0.000431,0.114825
1307000,0.0324,0.013523,0.002678,0.000431,0.107773
1308000,0.0324,0.013523,0.002678,0.000431,0.109889
1309000,0.0324,0.013523,0.002678,0.000431,0.104483
1310000,0.0324,0.013523,0.002678,0.000431,0.112827
1311000,0.0324,0.013523,0.002678,0.000431,0.109654
1312000,0.0324,0.013523,0.002678,0.000431,0.107303
1313000,0.0324,0.013523,0.002678,0.000431,0.110712
1314000,0.0324,0.013523,0.002678,0.000431,0.102602
1315000,0.0324,0.013523,0.002678,0.000431,0.110712
1316000,0.0324,0.013523,0.002678,0.000431,0.106128
1317000,0.0324,0.013523,0.002678,0.000431,0.100134
1318000,0.0324,0.013523,0.002678,0.000431,0.108243
1319000,0.0324,0.013523,0.002678,0.000431,0.118116
1320000,0.0324,0.013523,0.002678,0.000431,0.101544
1321000,0.0324,0.013523,0.002678,0.000431,0.101192
1322000,0.0324,0.013523,0.002678,0.000431,0.104835
1323000,0.0324,0.013523,0.002678,0.000431,0.113767
1324000,0.0324,0.013523,0.002678,0.000431,0.093905
1325000,0.0324,0.013523,0.002678,0.000431,0.102602
1326000,0.0324,0.013523,0.002678,0.000431,0.103307
1327000,0.0324,0.013523,0.002678,0.000431,0.114120
1328000,0.0324,0.013523,0.002678,0.000431,0.103307
1329000,0.0324,0.013523,0.002678,0.000431,0.109301
1330000,0.0324,0.013523,0.002678,0.000431,0.099429
1331000,0.0324,0.013523,0.002678,0.000431,0.098841
1332000,0.0324,0.013523,0.002678,0.000431,0.103307
1333000,0.0324,0.013523,0.002678,0.000431,0.100369
1334000,0.0324,0.013523,0.002678,0.000431,0.102602
1335000,0.0324,0.013523,0.002678,0.000431,0.112004
1336000,0.0324,0.013523,0.002678,0.000431,0.105540
1337000,0.0324,0.013523,0.002678,0.000431,0.100016
1338000,0.0324,0.013523,0.002678,0.000431,0.097313
1339000,0.0324,0.013523,0.002678,0.000431,0.107538
1340000,0.0324,0.013523,0.002678,0.000431,0.100134
1341000,0.0324,0.013523,0.002678,0.000431,0.094845
1342000,0.0324,0.013523,0.002678,0.000431,0.103660
1343000,0.0324,0.013523,0.002678,0.000431,0.099781
1344000,0.0324,0.013523,0.002678,0.000431,0.098724
1345000,0.0324,0.013523,0.002678,0.000431,0.103777
1346000,0.0324,0.013523,0.002678,0.000431,0.099194
1347000,0.0324,0.013523,0.002678,0.000431,0.097313
1348000,0.0324,0.013523,0.002678,0.000431,0.098019
1349000,0.0324,0.013523,0.002678,0.000431,0.095668
1350000,0.0324,0.013523,0.002678,0.000431,0.096021
1351000,0.0324,0.013523,0.002678,0.000431,0.095315
1352000,0.0324,0.013523,0.002678,0.000431,0.098841
1353000,0.0324,0.013523,0.002678,0.000431,0.102132
1354000,0.0324,0.013523,0.002678,0.000431,0.101309
1355000,0.0324,0.013523,0.002678,0.000431,0.097666
1356000,0.0324,0.013523,0.002678,0.000431,0.093317
1357000,0.0324,0.013523,0.002678,0.000431,0.091202
1358000,0.0324,0.013523,0.002678,0.000431,0.098019
1359000,0.0324,0.013523,0.002678,0.000431,0.097901
1360000,0.0324,0.013523,0.002678,0.000431,0.090497
1361000,0.0324,0.013523,0.002678,0.000431,0.095198
1362000,0.0324,0.013523,0.002678,0.000431,0.100252
1363000,0.0324,0.013523,0.002678,0.000431,0.093200
1364000,0.0324,0.013523,0.002678,0.000431,0.092025
1365000,0.0324,0.013523,0.002678,0.000431,0.093435
1366000,0.0324,0.013523,0.002678,0.000431,0.098136
1367000,0.0324,0.013523,0.002678,0.000431,0.084033
1368000,0.0324,0.013523,0.002678,0.000431,0.086501
1369000,0.0324,0.013523,0.002678,0.000431,0.093787
1370000,0.0324,0.013523,0.002678,0.000431,0.094845
1371000,0.0324,0.013523,0.002678,0.000431,0.094493
1372000,0.0324,0.013523,0.002678,0.000431,0.090144
1373000,0.0324,0.013523,0.002678,0.000431,0.090262
1374000,0.0324,0.013523,0.002678,0.000431,0.089204
1375000,0.0324,0.013523,0.002678,0.000431,0.086031
1376000,0.0324,0.013523,0.002678,0.000431,0.092025
1377000,0.0324,0.013523,0.002678,0.000431,0.086853
1378000,0.0324,0.013523,0.002678,0.000431,0.093082
1379000,0.0324,0.013523,0.002678,0.000431,0.092612
1380000,0.0324,0.013523,0.002678,0.000431,0.094610
1381000,0.0324,0.013523,0.002678,0.000431,0.087911
1382000,0.0324,0.013523,0.002678,0.000431,0.091202
1383000,0.0324,0.013523,0.002678,0.000431,0.086736
1384000,0.0324,0.013523,0.002678,0.000431,0.088499
1385000,0.0324,0.013523,0.002678,0.000431,0.085796
1386000,0.0324,0.013523,0.002678,0.000431,0.096256
1387000,0.0324,0.013523,0.002678,0.000431,0.092260
1388000,0.0324,0.013523,0.002678,0.000431,0.089556
1389000,0.0324,0.013523,0.002678,0.000431,0.088969
1390000,0.0324,0.013523,0.002678,0.000431,0.090144
1391000,0.0324,0.013523,0.002678,0.000431,0.088734
1392000,0.0324,0.013523,0.002678,0.000431,0.083445
1393000,0.0324,0.013523,0.002678,0.000431,0.088381
1394000,0.0324,0.013523,0.002678,0.000431,0.085796
1395000,0.0324,0.013523,0.002678,0.000431,0.089086
1396000,0.0324,0.013523,0.002678,0.000431,0.087911
1397000,0.0324,0.013523,0.002678,0.000431,0.089086
1398000,0.0324,0.013523,0.002678,0.000431,0.088734
1399000,0.0324,0.013523,0.002678,0.000431,0.086383
1400000,0.0324,0.013523,0.002678,0.000431,0.084738
1401000,0.0324,0.013523,0.002678,0.000431,0.084855
1402000,0.0324,0.013523,0.002678,0.000431,0.085913
1403000,0.0324,0.013523,0.002678,0.000431,0.087206
1404000,0.0324,0.013523,0.002678,0.000431,0.083680
1405000,0.0324,0.013523,0.002678,0.000431,0.091437
1406000,0.0324,0.013523,0.002678,0.000431,0.087794
1407000,0.0324,0.013523,0.002678,0.000431,0.087088
1408000,0.0324,0.013523,0.002678,0.000431,0.086031
1409000,0.0324,0.013523,0.002678,0.000431,0.082857
1410000,0.0324,0.013523,0.002678,0.000431,0.083445
1411000,0.0324,0.013523,0.002678,0.000431,0.079449
1412000,0.0324,0.013523,0.002678,0.000431,0.083327
1413000,0.0324,0.013523,0.002678,0.000431,0.085913
1414000,0.0324,0.013523,0.002678,0.000431,0.085443
1415000,0.0324,0.013523,0.002678,0.000431,0.080154
1416000,0.0324,0.013523,0.002678,0.000431,0.084973
1417000,0.0324,0.013523,0.002678,0.000431,0.079214
1418000,0.0324,0.013523,0.002678,0.000431,0.076276
1419000,0.0324,0.013523,0.002678,0.000431,0.075453
1420000,0.0324,0.013523,0.002678,0.000431,0.075923
1421000,0.0324,0.013523,0.002678,0.000431,0.080037
1422000,0.0324,0.013523,0.002678,0.000431,0.080154
1423000,0.0324,0.013523,0.002678,0.000431,0.078391
1424000,0.0324,0.013523,0.002678,0.000431,0.080859
1425000,0.0324,0.013523,0.002678,0.000431,0.078979
1426000,0.0324,0.013523,0.002678,0.000431,0.069107
1427000,0.0324,0.013523,0.002678,0.000431,0.076981
1428000,0.0324,0.013523,0.002678,0.000431,0.075806
1429000,0.0324,0.013523,0.002678,0.000431,0.079684
1430000,0.0324,0.013523,0.002678,0.000431,0.077216
1431000,0.0324,0.013523,0.002678,0.000431,0.079332
1432000,0.0324,0.013523,0.002678,0.000431,0.077686
1433000,0.0324,0.013523,0.002678,0.000431,0.075806
1434000,0.0324,0.013523,0.002678,0.000431,0.075453
1435000,0.0324,0.013523,0.002678,0.000431,0.073455
1436000,0.0324,0.013523,0.002678,0.000431,0.072985
1437000,0.0324,0.013523,0.002678,0.000431,0.075218
1438000,0.0324,0.013523,0.002678,0.000431,0.073455
1439000,0.0324,0.013523,0.002678,0.000431,0.075453
1440000,0.0324,0.013523,0.002678,0.000431,0.074630
1441000,0.0324,0.013523,0.002678,0.000431,0.075688
1442000,0.0324,0.013523,0.002678,0.000431,0.074630
1443000,0.0324,0.013523,0.002678,0.000431,0.067579
1444000,0.0324,0.013523,0.002678,0.000431,0.076041
1445000,0.0324,0.013523,0.002678,0.000431,0.074043
1446000,0.0324,0.013523,0.002678,0.000431,0.067344
1447000,0.0324,0.013523,0.002678,0.000431,0.074748
1448000,0.0324,0.013523,0.002678,0.000431,0.077098
1449000,0.0324,0.013523,0.002678,0.000431,0.075101
1450000,0.0324,0.013523,0.002678,0.000431,0.072045
1451000,0.0324,0.013523,0.002678,0.000431,0.075336
1452000,0.0324,0.013523,0.002678,0.000431,0.074865
1453000,0.0324,0.013523,0.002678,0.000431,0.068989
1454000,0.0324,0.013523,0.002678,0.000431,0.069577
1455000,0.0324,0.013523,0.002678,0.000431,0.071927
1456000,0.0324,0.013523,0.002678,0.000431,0.070987
1457000,0.0324,0.013523,0.002678,0.000431,0.075218
1458000,0.0324,0.013523,0.002678,0.000431,0.076276
1459000,0.0324,0.013523,0.002678,0.000431,0.070399
1460000,0.0324,0.013523,0.002678,0.000431,0.067109
1461000,0.0324,0.013523,0.002678,0.000431,0.070282
1462000,0.0324,0.013523,0.002678,0.000431,0.064053
1463000,0.0324,0.013523,0.002678,0.000431,0.069459
1464000,0.0324,0.013523,0.002678,0.000431,0.073808
1465000,0.0324,0.013523,0.002678,0.000431,0.072632
1466000,0.0324,0.013523,0.002678,0.000431,0.069459
1467000,0.0324,0.013523,0.002678,0.000431,0.068284
1468000,0.0324,0.013523,0.002678,0.000431,0.066521
1469000,0.0324,0.013523,0.002678,0.000431,0.063700
1470000,0.0324,0.013523,0.002678,0.000431,0.068049
1471000,0.0324,0.013523,0.002678,0.000431,0.068636
1472000,0.0324,0.013523,0.002678,0.000431,0.065111
1473000,0.0324,0.013523,0.002678,0.000431,0.063583
1474000,0.0324,0.013523,0.002678,0.000431,0.070164
1475000,0.0324,0.013523,0.002678,0.000431,0.069812
1476000,0.0324,0.013523,0.002678,0.000431,0.068872
1477000,0.0324,0.013523,0.002678,0.000431,0.063583
1478000,0.0324,0.013523,0.002678,0.000431,0.067579
1479000,0.0324,0.013523,0.002678,0.000431,0.062525
1480000,0.0324,0.013523,0.002678,0.000431,0.068166
1481000,0.0324,0.013523,0.002678,0.000431,0.065698
1482000,0.0324,0.013523,0.002678,0.000431,0.062760
1483000,0.0324,0.013523,0.002678,0.000431,0.068872
1484000,0.0324,0.013523,0.002678,0.000431,0.071105
1485000,0.0324,0.013523,0.002678,0.000431,0.057471
1486000,0.0324,0.013523,0.002678,0.000431,0.065933
1487000,0.0324,0.013523,0.002678,0.000431,0.072397
1488000,0.0324,0.013523,0.002678,0.000431,0.066051
1489000,0.0324,0.013523,0.002678,0.000431,0.058412
1490000,0.0324,0.013523,0.002678,0.000431,0.056531
1491000,0.0324,0.013523,0.002678,0.000431,0.067461
1492000,0.0324,0.013523,0.002678,0.000431,0.062995
1493000,0.0324,0.013523,0.002678,0.000431,0.063935
1494000,0.0324,0.013523,0.002678,0.000431,0.062290
1495000,0.0324,0.013523,0.002678,0.000431,0.065933
1496000,0.0324,0.013523,0.002678,0.000431,0.058764
1497000,0.0324,0.013523,0.002678,0.000431,0.060174
1498000,0.0324,0.013523,0.002678,0.000431,0.055356
1499000,0.0324,0.013523,0.002678,0.000431,0.059117
1500000,0.0324,0.013523,0.002678,0.000431,0.062055
1501000,0.0324,0.013523,0.002678,0.000431,0.064170
1502000,0.0324,0.013523,0.002678,0.000431,0.058999
1503000,0.0324,0.013523,0.002678,0.000431,0.064405
1504000,0.0324,0.013523,0.002678,0.000431,0.058647
1505000,0.0324,0.013523,0.002678,0.000431,0.054651
1506000,0.0324,0.013523,0.002678,0.000431,0.058412
1507000,0.0324,0.013523,0.002678,0.000431,0.058059
1508000,0.0324,0.013523,0.002678,0.000431,0.058294
1509000,0.0324,0.013523,0.002678,0.000431,0.064170
1510000,0.0324,0.013523,0.002678,0.000431,0.063700
1511000,0.0324,0.013523,0.002678,0.000431,0.054533
1512000,0.0324,0.013523,0.002678,0.000431,0.057824
1513000,0.0324,0.013523,0.002678,0.000431,0.054298
1514000,0.0324,0.013523,0.002678,0.000431,0.053475
1515000,0.0324,0.013523,0.002678,0.000431,0.056649
1516000,0.0324,0.013523,0.002678,0.000431,0.055356
1517000,0.0324,0.013523,0.002678,0.000431,0.059822
1518000,0.0324,0.013523,0.002678,0.000431,0.062643
1519000,0.0324,0.013523,0.002678,0.000431,0.056178
1520000,0.0324,0.013523,0.002678,0.000431,0.055473
1521000,0.0324,0.013523,0.002678,0.000431,0.051830
1522000,0.0324,0.013523,0.002678,0.000431,0.055708
1523000,0.0324,0.013523,0.002678,0.000431,0.055238
1524000,0.0324,0.013523,0.002678,0.000431,0.057589
1525000,0.0324,0.013523,0.002678,0.000431,0.053358
1526000,0.0324,0.013523,0.002678,0.000431,0.059939
1527000,0.0324,0.013523,0.002678,0.000431,0.056178
1528000,0.0324,0.013523,0.002678,0.000431,0.051007
1529000,0.0324,0.013523,0.002678,0.000431,0.055356
1530000,0.0324,0.013523,0.002678,0.000431,0.051830
1531000,0.0324,0.013523,0.002678,0.000431,0.051712
1532000,0.0324,0.013523,0.002678,0.000431,0.055238
1533000,0.0324,0.013523,0.002678,0.000431,0.052888
1534000,0.0324,0.013523,0.002678,0.000431,0.053945
1535000,0.0324,0.013523,0.002678,0.000431,0.058882
1536000,0.0324,0.013523,0.002678,0.000431,0.054533
1537000,0.0324,0.013523,0.002678,0.000431,0.051242
1538000,0.0324,0.013523,0.002678,0.000431,0.055238
1539000,0.0324,0.013523,0.002678,0.000431,0.053005
1540000,0.0324,0.013523,0.002678,0.000431,0.053005
1541000,0.0324,0.013523,0.002678,0.000431,0.053123
1542000,0.0324,0.013523,0.002678,0.000431,0.047834
1543000,0.0324,0.013523,0.002678,0.000431,0.055708
1544000,0.0324,0.013523,0.002678,0.000431,0.056414
1545000,0.0324,0.013523,0.002678,0.000431,0.053005
1546000,0.0324,0.013523,0.002678,0.000431,0.055473
1547000,0.0324,0.013523,0.002678,0.000431,0.049362
1548000,0.0324,0.013523,0.002678,0.000431,0.046071
1549000,0.0324,0.013523,0.002678,0.000431,0.048539
1550000,0.0324,0.013523,0.002678,0.000431,0.047364
1551000,0.0324,0.013523,0.002678,0.000431,0.051007
1552000,0.0324,0.013523,0.002678,0.000431,0.058176
1553000,0.0324,0.013523,0.002678,0.000431,0.054298
1554000,0.0324,0.013523,0.002678,0.000431,0.049244
1555000,0.0324,0.013523,0.002678,0.000431,0.044426
1556000,0.0324,0.013523,0.002678,0.000431,0.049244
1557000,0.0324,0.013523,0.002678,0.000431,0.046071
1558000,0.0324,0.013523,0.002678,0.000431,0.047834
1559000,0.0324,0.013523,0.002678,0.000431,0.047364
1560000,0.0324,0.013523,0.002678,0.000431,0.054298
1561000,0.0324,0.013523,0.002678,0.000431,0.050420
1562000,0.0324,0.013523,0.002678,0.000431,0.043485
1563000,0.0324,0.013523,0.002678,0.000431,0.047129
1564000,0.0324,0.013523,0.002678,0.000431,0.043133
1565000,0.0324,0.013523,0.002678,0.000431,0.044661
1566000,0.0324,0.013523,0.002678,0.000431,0.044426
1567000,0.0324,0.013523,0.002678,0.000431,0.047716
1568000,0.0324,0.013523,0.002678,0.000431,0.042075
1569000,0.0324,0.013523,0.002678,0.000431,0.048422
1570000,0.0324,0.013523,0.002678,0.000431,0.045718
1571000,0.0324,0.013523,0.002678,0.000431,0.045248
1572000,0.0324,0.013523,0.002678,0.000431,0.044426
1573000,0.0324,0.013523,0.002678,0.000431,0.044308
1574000,0.0324,0.013523,0.002678,0.000431,0.046071
1575000,0.0324,0.013523,0.002678,0.000431,0.039842
1576000,0.0324,0.013523,0.002678,0.000431,0.040195
1577000,0.0324,0.013523,0.002678,0.000431,0.049009
1578000,0.0324,0.013523,0.002678,0.000431,0.048657
1579000,0.0324,0.013523,0.002678,0.000431,0.045483
1580000,0.0324,0.013523,0.002678,0.000431,0.047599
1581000,0.0324,0.013523,0.002678,0.000431,0.043250
1582000,0.0324,0.013523,0.002678,0.000431,0.040195
1583000,0.0324,0.013523,0.002678,0.000431,0.040312
1584000,0.0324,0.013523,0.002678,0.000431,0.044543
1585000,0.0324,0.013523,0.002678,0.000431,0.041958
1586000,0.0324,0.013523,0.002678,0.000431,0.050302
1587000,0.0324,0.013523,0.002678,0.000431,0.044426
1588000,0.0324,0.013523,0.002678,0.000431,0.044191
1589000,0.0324,0.013523,0.002678,0.000431,0.040547
1590000,0.0324,0.013523,0.002678,0.000431,0.041487
1591000,0.0324,0.013523,0.002678,0.000431,0.041723
1592000,0.0324,0.013523,0.002678,0.000431,0.040782
1593000,0.0324,0.013523,0.002678,0.000431,0.042310
1594000,0.0324,0.013523,0.002678,0.000431,0.047246
1595000,0.0324,0.013523,0.002678,0.000431,0.045954
1596000,0.0324,0.013523,0.002678,0.000431,0.043133
1597000,0.0324,0.013523,0.002678,0.000431,0.042663
1598000,0.0324,0.013523,0.002678,0.000431,0.041723
1599000,0.0324,0.013523,0.002678,0.000431,0.040665
1600000,0.0324,0.013523,0.002678,0.000431,0.042428
1601000,0.0324,0.013523,0.002678,0.000431,0.040782
1602000,0.0324,0.013523,0.002678,0.000431,0.042663
1603000,0.0324,0.013523,0.002678,0.000431,0.048069
1604000,0.0324,0.013523,0.002678,0.000431,0.043015
1605000,0.0324,0.013523,0.002678,0.000431,0.041605
1606000,0.0324,0.013523,0.002678,0.000431,0.039725
1607000,0.0324,0.013523,0.002678,0.000431,0.040430
1608000,0.0324,0.013523,0.002678,0.000431,0.038902
1609000,0.0324,0.013523,0.002678,0.000431,0.041252
1610000,0.0324,0.013523,0.002678,0.000431,0.038549
1611000,0.0324,0.013523,0.002678,0.000431,0.043485
1612000,0.0324,0.013523,0.002678,0.000431,0.043720
1613000,0.0324,0.013523,0.002678,0.000431,0.040430
1614000,0.0324,0.013523,0.002678,0.000431,0.039137
1615000,0.0324,0.013523,0.002678,0.000431,0.037962
1616000,0.0324,0.013523,0.002678,0.000431,0.038549
1617000,0.0324,0.013523,0.002678,0.000431,0.038902
1618000,0.0324,0.013523,0.002678,0.000431,0.037962
1619000,0.0324,0.013523,0.002678,0.000431,0.037844
1620000,0.0324,0.013523,0.002678,0.000431,0.042545
1621000,0.0324,0.013523,0.002678,0.000431,0.041487
1622000,0.0324,0.013523,0.002678,0.000431,0.041135
1623000,0.0324,0.013523,0.002678,0.000431,0.039607
1624000,0.0324,0.013523,0.002678,0.000431,0.035494
1625000,0.0324,0.013523,0.002678,0.000431,0.037374
1626000,0.0324,0.013523,0.002678,0.000431,0.037844
1627000,0.0324,0.013523,0.002678,0.000431,0.035846
1628000,0.0324,0.013523,0.002678,0.000431,0.039842
1629000,0.0324,0.013523,0.002678,0.000431,0.043015
1630000,0.0324,0.013523,0.002678,0.000431,0.039137
1631000,0.0324,0.013523,0.002678,0.000431,0.036199
1632000,0.0324,0.013523,0.002678,0.000431,0.036786
1633000,0.0324,0.013523,0.002678,0.000431,0.033613
1634000,0.0324,0.013523,0.002678,0.000431,0.037374
1635000,0.0324,0.013523,0.002678,0.000431,0.037374
1636000,0.0324,0.013523,0.002678,0.000431,0.037374
1637000,0.0324,0.013523,0.002678,0.000431,0.041840
1638000,0.0324,0.013523,0.002678,0.000431,0.039607
1639000,0.0324,0.013523,0.002678,0.000431,0.037139
1640000,0.0324,0.013523,0.002678,0.000431,0.036081
1641000,0.0324,0.013523,0.002678,0.000431,0.037727
1642000,0.0324,0.013523,0.002678,0.000431,0.035023
1643000,0.0324,0.013523,0.002678,0.000431,0.036551
1644000,0.0324,0.013523,0.002678,0.000431,0.034436
1645000,0.0324,0.013523,0.002678,0.000431,0.039960
1646000,0.0324,0.013523,0.002678,0.000431,0.040665
1647000,0.0324,0.013523,0.002678,0.000431,0.037256
1648000,0.0324,0.013523,0.002678,0.000431,0.034906
1649000,0.0324,0.013523,0.002678,0.000431,0.034083
1650000,0.0324,0.013523,0.002678,0.000431,0.033731
1651000,0.0324,0.013523,0.002678,0.000431,0.035846
1652000,0.0324,0.013523,0.002678,0.000431,0.036551
1653000,0.0324,0.013523,0.002678,0.000431,0.032555
1654000,0.0324,0.013523,0.002678,0.000431,0.036669
1655000,0.0324,0.013523,0.002678,0.000431,0.038902
1656000,0.0324,0.013523,0.002678,0.000431,0.032790
1657000,0.0324,0.013523,0.002678,0.000431,0.033613
1658000,0.0324,0.013523,0.002678,0.000431,0.032438
1659000,0.0324,0.013523,0.002678,0.000431,0.031262
1660000,0.0324,0.013523,0.002678,0.000431,0.031498
1661000,0.0324,0.013523,0.002678,0.000431,0.032673
1662000,0.0324,0.013523,0.002678,0.000431,0.035729
1663000,0.0324,0.013523,0.002678,0.000431,0.033025
1664000,0.0324,0.013523,0.002678,0.000431,0.038197
1665000,0.0324,0.013523,0.002678,0.000431,0.030322
1666000,0.0324,0.013523,0.002678,0.000431,0.030322
1667000,0.0324,0.013523,0.002678,0.000431,0.032555
1668000,0.0324,0.013523,0.002678,0.000431,0.033260
1669000,0.0324,0.013523,0.002678,0.000431,0.031145
1670000,0.0324,0.013523,0.002678,0.000431,0.033260
1671000,0.0324,0.013523,0.002678,0.000431,0.035729
1672000,0.0324,0.013523,0.002678,0.000431,0.035258
1673000,0.0324,0.013523,0.002678,0.000431,0.033143
1674000,0.0324,0.013523,0.002678,0.000431,0.033143
1675000,0.0324,0.013523,0.002678,0.000431,0.030440
1676000,0.0324,0.013523,0.002678,0.000431,0.029147
1677000,0.0324,0.013523,0.002678,0.000431,0.031027
1678000,0.0324,0.013523,0.002678,0.000431,0.031145
1679000,0.0324,0.013523,0.002678,0.000431,0.033848
1680000,0.0324,0.013523,0.002678,0.000431,0.033731
1681000,0.0324,0.013523,0.002678,0.000431,0.036199
1682000,0.0324,0.013523,0.002678,0.000431,0.028207
1683000,0.0324,0.013523,0.002678,0.000431,0.030440
1684000,0.0324,0.013523,0.002678,0.000431,0.031850
1685000,0.0324,0.013523,0.002678,0.000431,0.031850
1686000,0.0324,0.013523,0.002678,0.000431,0.030440
1687000,0.0324,0.013523,0.002678,0.000431,0.032438
1688000,0.0324,0.013523,0.002678,0.000431,0.035141
1689000,0.0324,0.013523,0.002678,0.000431,0.032908
1690000,0.0324,0.013523,0.002678,0.000431,0.029852
1691000,0.0324,0.013523,0.002678,0.000431,0.032908
1692000,0.0324,0.013523,0.002678,0.000431,0.027502
1693000,0.0324,0.013523,0.002678,0.000431,0.028677
1694000,0.0324,0.013523,0.002678,0.000431,0.028089
1695000,0.0324,0.013523,0.002678,0.000431,0.029617
1696000,0.0324,0.013523,0.002678,0.000431,0.031850
1697000,0.0324,0.013523,0.002678,0.000431,0.031615
1698000,0.0324,0.013523,0.002678,0.000431,0.033143
1699000,0.0324,0.013523,0.002678,0.000431,0.027737
1700000,0.0324,0.013523,0.002678,0.000431,0.028677
1701000,0.0324,0.013523,0.002678,0.000431,0.026679
1702000,0.0324,0.013523,0.002678,0.000431,0.031027
1703000,0.0324,0.013523,0.002678,0.000431,0.026914
1704000,0.0324,0.013523,0.002678,0.000431,0.030322
1705000,0.0324,0.013523,0.002678,0.000431,0.030910
1706000,0.0324,0.013523,0.002678,0.000431,0.032320
1707000,0.0324,0.013523,0.002678,0.000431,0.027384
1708000,0.0324,0.013523,0.002678,0.000431,0.028207
1709000,0.0324,0.013523,0.002678,0.000431,0.027854
1710000,0.0324,0.013523,0.002678,0.000431,0.025621
1711000,0.0324,0.013523,0.002678,0.000431,0.027972
1712000,0.0324,0.013523,0.002678,0.000431,0.029852
1713000,0.0324,0.013523,0.002678,0.000431,0.029029
1714000,0.0324,0.013523,0.002678,0.000431,0.031968
1715000,0.0324,0.013523,0.002678,0.000431,0.027972
1716000,0.0324,0.013523,0.002678,0.000431,0.026209
1717000,0.0324,0.013523,0.002678,0.000431,0.026209
1718000,0.0324,0.013523,0.002678,0.000431,0.025739
1719000,0.0324,0.013523,0.002678,0.000431,0.029500
1720000,0.0324,0.013523,0.002678,0.000431,0.026326
1721000,0.0324,0.013523,0.002678,0.000431,0.024328
1722000,0.0324,0.013523,0.002678,0.000431,0.031850
1723000,0.0324,0.013523,0.002678,0.000431,0.028912
1724000,0.0324,0.013523,0.002678,0.000431,0.025621
1725000,0.0324,0.013523,0.002678,0.000431,0.027972
1726000,0.0324,0.013523,0.002678,0.000431,0.027267
1727000,0.0324,0.013523,0.002678,0.000431,0.026326
1728000,0.0324,0.013523,0.002678,0.000431,0.027031
1729000,0.0324,0.013523,0.002678,0.000431,0.027502
1730000,0.0324,0.013523,0.002678,0.000431,0.025974
1731000,0.0324,0.013523,0.002678,0.000431,0.031262
1732000,0.0324,0.013523,0.002678,0.000431,0.028794
1733000,0.0324,0.013523,0.002678,0.000431,0.025621
1734000,0.0324,0.013523,0.002678,0.000431,0.026444
1735000,0.0324,0.013523,0.002678,0.000431,0.028794
1736000,0.0324,0.013523,0.002678,0.000431,0.026796
1737000,0.0324,0.013523,0.002678,0.000431,0.024916
1738000,0.0324,0.013523,0.002678,0.000431,0.025151
1739000,0.0324,0.013523,0.002678,0.000431,0.028559
1740000,0.0324,0.013523,0.002678,0.000431,0.029852
1741000,0.0324,0.013523,0.002678,0.000431,0.024211
1742000,0.0324,0.013523,0.002678,0.000431,0.027031
1743000,0.0324,0.013523,0.002678,0.000431,0.026914
1744000,0.0324,0.013523,0.002678,0.000431,0.025386
1745000,0.0324,0.013523,0.002678,0.000431,0.026796
1746000,0.0324,0.013523,0.002678,0.000431,0.024093
1747000,0.0324,0.013523,0.002678,0.000431,0.023741
1748000,0.0324,0.013523,0.002678,0.000431,0.027737
1749000,0.0324,0.013523,0.002678,0.000431,0.027384
1750000,0.0324,0.013523,0.002678,0.000431,0.023858
1751000,0.0324,0.013523,0.002678,0.000431,0.026796
1752000,0.0324,0.013523,0.002678,0.000431,0.024681
1753000,0.0324,0.013523,0.002678,0.000431,0.025034
1754000,0.0324,0.013523,0.002678,0.000431,0.024328
1755000,0.0324,0.013523,0.002678,0.000431,0.021978
1756000,0.0324,0.013523,0.002678,0.000431,0.025504
1757000,0.0324,0.013523,0.002678,0.000431,0.028559
1758000,0.0324,0.013523,0.002678,0.000431,0.025739
1759000,0.0324,0.013523,0.002678,0.000431,0.024563
1760000,0.0324,0.013523,0.002678,0.000431,0.021978
1761000,0.0324,0.013523,0.002678,0.000431,0.022918
1762000,0.0324,0.013523,0.002678,0.000431,0.023623
1763000,0.0324,0.013523,0.002678,0.000431,0.022800
1764000,0.0324,0.013523,0.002678,0.000431,0.023623
1765000,0.0324,0.013523,0.002678,0.000431,0.027619
1766000,0.0324,0.013523,0.002678,0.000431,0.027972
1767000,0.0324,0.013523,0.002678,0.000431,0.022918
1768000,0.0324,0.013523,0.002678,0.000431,0.023153
1769000,0.0324,0.013523,0.002678,0.000431,0.024328
1770000,0.0324,0.013523,0.002678,0.000431,0.022918
1771000,0.0324,0.013523,0.002678,0.000431,0.022918
1772000,0.0324,0.013523,0.002678,0.000431,0.021155
1773000,0.0324,0.013523,0.002678,0.000431,0.027384
1774000,0.0324,0.013523,0.002678,0.000431,0.029617
1775000,0.0324,0.013523,0.002678,0.000431,0.022800
1776000,0.0324,0.013523,0.002678,0.000431,0.025151
1777000,0.0324,0.013523,0.002678,0.000431,0.021743
1778000,0.0324,0.013523,0.002678,0.000431,0.022213
1779000,0.0324,0.013523,0.002678,0.000431,0.024211
1780000,0.0324,0.013523,0.002678,0.000431,0.023153
1781000,0.0324,0.013523,0.002678,0.000431,0.024916
1782000,0.0324,0.013523,0.002678,0.000431,0.027384
1783000,0.0324,0.013523,0.002678,0.000431,0.026914
1784000,0.0324,0.013523,0.002678,0.000431,0.024328
1785000,0.0324,0.013523,0.002678,0.000431,0.021978
1786000,0.0324,0.013523,0.002678,0.000431,0.022800
1787000,0.0324,0.013523,0.002678,0.000431,0.023976
1788000,0.0324,0.013523,0.002678,0.000431,0.022095
1789000,0.0324,0.013523,0.002678,0.000431,0.023623
1790000,0.0324,0.013523,0.002678,0.000431,0.027619
1791000,0.0324,0.013523,0.002678,0.000431,0.027384
1792000,0.0324,0.013523,0.002678,0.000431,0.024798
1793000,0.0324,0.013523,0.002678,0.000431,0.023153
1794000,0.0324,0.013523,0.002678,0.000431,0.022095
1795000,0.0324,0.013523,0.002678,0.000431,0.021273
1796000,0.0324,0.013523,0.002678,0.000431,0.025504
1797000,0.0324,0.013523,0.002678,0.000431,0.026796
1798000,0.0324,0.013523,0.002678,0.000431,0.021860
1799000,0.0324,0.013523,0.002678,0.000431,0.025386
1800000,0.0324,0.013523,0.002678,0.000431,0.024211
1801000,0.0324,0.013523,0.002678,0.000431,0.021038
1802000,0.0324,0.013523,0.002678,0.000431,0.020097
1803000,0.0324,0.013523,0.002678,0.000431,0.021508
1804000,0.0324,0.013523,0.002678,0.000431,0.024328
1805000,0.0324,0.013523,0.002678,0.000431,0.020450
1806000,0.0324,0.013523,0.002678,0.000431,0.020802
1807000,0.0324,0.013523,0.002678,0.000431,0.025034
1808000,0.0324,0.013523,0.002678,0.000431,0.023976
1809000,0.0324,0.013523,0.002678,0.000431,0.022565
1810000,0.0324,0.013523,0.002678,0.000431,0.022095
1811000,0.0324,0.013523,0.002678,0.000431,0.018922
1812000,0.0324,0.013523,0.002678,0.000431,0.023623
1813000,0.0324,0.013523,0.002678,0.000431,0.019745
1814000,0.0324,0.013523,0.002678,0.000431,0.020332
1815000,0.0324,0.013523,0.002678,0.000431,0.020567
1816000,0.0324,0.013523,0.002678,0.000431,0.024681
1817000,0.0324,0.013523,0.002678,0.000431,0.022095
1818000,0.0324,0.013523,0.002678,0.000431,0.019392
1819000,0.0324,0.013523,0.002678,0.000431,0.019980
1820000,0.0324,0.013523,0.002678,0.000431,0.020920
1821000,0.0324,0.013523,0.002678,0.000431,0.019745
1822000,0.0324,0.013523,0.002678,0.000431,0.018099
1823000,0.0324,0.013523,0.002678,0.000431,0.019980
1824000,0.0324,0.013523,0.002678,0.000431,0.023153
1825000,0.0324,0.013523,0.002678,0.000431,0.021273
1826000,0.0324,0.013523,0.002678,0.000431,0.018334
1827000,0.0324,0.013523,0.002678,0.000431,0.019627
1828000,0.0324,0.013523,0.002678,0.000431,0.017277
1829000,0.0324,0.013523,0.002678,0.000431,0.018922
1830000,0.0324,0.013523,0.002678,0.000431,0.018687
1831000,0.0324,0.013523,0.002678,0.000431,0.017982
1832000,0.0324,0.013523,0.002678,0.000431,0.018687
1833000,0.0324,0.013523,0.002678,0.000431,0.021390
1834000,0.0324,0.013523,0.002678,0.000431,0.020920
1835000,0.0324,0.013523,0.002678,0.000431,0.017042
1836000,0.0324,0.013523,0.002678,0.000431,0.019627
1837000,0.0324,0.013523,0.002678,0.000431,0.018805
1838000,0.0324,0.013523,0.002678,0.000431,0.017394
1839000,0.0324,0.013523,0.002678,0.000431,0.016924
1840000,0.0324,0.013523,0.002678,0.000431,0.015866
1841000,0.0324,0.013523,0.002678,0.000431,0.020567
1842000,0.0324,0.013523,0.002678,0.000431,0.021155
1843000,0.0324,0.013523,0.002678,0.000431,0.016101
1844000,0.0324,0.013523,0.002678,0.000431,0.019392
1845000,0.0324,0.013523,0.002678,0.000431,0.016101
1846000,0.0324,0.013523,0.002678,0.000431,0.016219
1847000,0.0324,0.013523,0.002678,0.000431,0.016336
1848000,0.0324,0.013523,0.002678,0.000431,0.018569
1849000,0.0324,0.013523,0.002678,0.000431,0.018922
1850000,0.0324,0.013523,0.002678,0.000431,0.020332
1851000,0.0324,0.013523,0.002678,0.000431,0.017629
1852000,0.0324,0.013523,0.002678,0.000431,0.015161
1853000,0.0324,0.013523,0.002678,0.000431,0.012928
1854000,0.0324,0.013523,0.002678,0.000431,0.015396
1855000,0.0324,0.013523,0.002678,0.000431,0.016101
1856000,0.0324,0.013523,0.002678,0.000431,0.015161
1857000,0.0324,0.013523,0.002678,0.000431,0.014103
1858000,0.0324,0.013523,0.002678,0.000431,0.018569
1859000,0.0324,0.013523,0.002678,0.000431,0.016101
1860000,0.0324,0.013523,0.002678,0.000431,0.014221
1861000,0.0324,0.013523,0.002678,0.000431,0.015631
1862000,0.0324,0.013523,0.002678,0.000431,0.015749
1863000,0.0324,0.013523,0.002678,0.000431,0.014926
1864000,0.0324,0.013523,0.002678,0.000431,0.015279
1865000,0.0324,0.013523,0.002678,0.000431,0.013868
1866000,0.0324,0.013523,0.002678,0.000431,0.016454
1867000,0.0324,0.013523,0.002678,0.000431,0.018687
1868000,0.0324,0.013523,0.002678,0.000431,0.015749
1869000,0.0324,0.013523,0.002678,0.000431,0.015044
1870000,0.0324,0.013523,0.002678,0.000431,0.014809
1871000,0.0324,0.013523,0.002678,0.000431,0.014221
1872000,0.0324,0.013523,0.002678,0.000431,0.014221
1873000,0.0324,0.013523,0.002678,0.000431,0.015866
1874000,0.0324,0.013523,0.002678,0.000431,0.015161
1875000,0.0324,0.013523,0.002678,0.000431,0.018334
1876000,0.0324,0.013523,0.002678,0.000431,0.017042
1877000,0.0324,0.013523,0.002678,0.000431,0.013986
1878000,0.0324,0.013523,0.002678,0.000431,0.014103
1879000,0.0324,0.013523,0.002678,0.000431,0.014691
1880000,0.0324,0.013523,0.002678,0.000431,0.015749
1881000,0.0324,0.013523,0.002678,0.000431,0.014221
1882000,0.0324,0.013523,0.002678,0.000431,0.014456
1883000,0.0324,0.013523,0.002678,0.000431,0.016336
1884000,0.0324,0.013523,0.002678,0.000431,0.014691
1885000,0.0324,0.013523,0.002678,0.000431,0.012693
1886000,0.0324,0.013523,0.002678,0.000431,0.012223
1887000,0.0324,0.013523,0.002678,0.000431,0.015514
1888000,0.0324,0.013523,0.002678,0.000431,0.012693
1889000,0.0324,0.013523,0.002678,0.000431,0.012105
1890000,0.0324,0.013523,0.002678,0.000431,0.014809
1891000,0.0324,0.013523,0.002678,0.000431,0.014573
1892000,0.0324,0.013523,0.002678,0.000431,0.012223
1893000,0.0324,0.013523,0.002678,0.000431,0.013633
1894000,0.0324,0.013523,0.002678,0.000431,0.012458
1895000,0.0324,0.013523,0.002678,0.000431,0.013633
1896000,0.0324,0.013523,0.002678,0.000431,0.013281
1897000,0.0324,0.013523,0.002678,0.000431,0.011870
1898000,0.0324,0.013523,0.002678,0.000431,0.013868
1899000,0.0324,0.013523,0.002678,0.000431,0.015044
1900000,0.0324,0.013523,0.002678,0.000431,0.012340
1901000,0.0324,0.013523,0.002678,0.000431,0.012105
1902000,0.0324,0.013523,0.002678,0.000431,0.014103
1903000,0.0324,0.013523,0.002678,0.000431,0.012458
1904000,0.0324,0.013523,0.002678,0.000431,0.012928
1905000,0.0324,0.013523,0.002678,0.000431,0.012811
1906000,0.0324,0.013523,0.002678,0.000431,0.015514
1907000,0.0324,0.013523,0.002678,0.000431,0.015984
1908000,0.0324,0.013523,0.002678,0.000431,0.010578
1909000,0.0324,0.013523,0.002678,0.000431,0.010460
1910000,0.0324,0.013523,0.002678,0.000431,0.013398
1911000,0.0324,0.013523,0.002678,0.000431,0.011283
1912000,0.0324,0.013523,0.002678,0.000431,0.011753
1913000,0.0324,0.013523,0.002678,0.000431,0.013163
1914000,0.0324,0.013523,0.002678,0.000431,0.012928
1915000,0.0324,0.013523,0.002678,0.000431,0.012576
1916000,0.0324,0.013523,0.002678,0.000431,0.011635
1917000,0.0324,0.013523,0.002678,0.000431,0.009872
1918000,0.0324,0.013523,0.002678,0.000431,0.012576
1919000,0.0324,0.013523,0.002678,0.000431,0.010813
1920000,0.0324,0.013523,0.002678,0.000431,0.010342
1921000,0.0324,0.013523,0.002678,0.000431,0.011518
1922000,0.0324,0.013523,0.002678,0.000431,0.013398
1923000,0.0324,0.013523,0.002678,0.000431,0.010813
1924000,0.0324,0.013523,0.002678,0.000431,0.011048
1925000,0.0324,0.013523,0.002678,0.000431,0.011635
1926000,0.0324,0.013523,0.002678,0.000431,0.011400
1927000,0.0324,0.013523,0.002678,0.000431,0.010225
1928000,0.0324,0.013523,0.002678,0.000431,0.010930
1929000,0.0324,0.013523,0.002678,0.000431,0.012928
1930000,0.0324,0.013523,0.002678,0.000431,0.012223
1931000,0.0324,0.013523,0.002678,0.000431,0.012105
1932000,0.0324,0.013523,0.002678,0.000431,0.009285
1933000,0.0324,0.013523,0.002678,0.000431,0.010578
1934000,0.0324,0.013523,0.002678,0.000431,0.010225
1935000,0.0324,0.013523,0.002678,0.000431,0.010460
1936000,0.0324,0.013523,0.002678,0.000431,0.009755
1937000,0.0324,0.013523,0.002678,0.000431,0.011870
1938000,0.0324,0.013523,0.002678,0.000431,0.010578
1939000,0.0324,0.013523,0.002678,0.000431,0.009520
1940000,0.0324,0.013523,0.002678,0.000431,0.009637
1941000,0.0324,0.013523,0.002678,0.000431,0.012458
1942000,0.0324,0.013523,0.002678,0.000431,0.010342
1943000,0.0324,0.013523,0.002678,0.000431,0.007052
1944000,0.0324,0.013523,0.002678,0.000431,0.008815
1945000,0.0324,0.013523,0.002678,0.000431,0.009637
1946000,0.0324,0.013523,0.002678,0.000431,0.008109
1947000,0.0324,0.013523,0.002678,0.000431,0.008227
1948000,0.0324,0.013523,0.002678,0.000431,0.007404
1949000,0.0324,0.013523,0.002678,0.000431,0.008697
1950000,0.0324,0.013523,0.002678,0.000431,0.007052
1951000,0.0324,0.013523,0.002678,0.000431,0.007874
1952000,0.0324,0.013523,0.002678,0.000431,0.009285
1953000,0.0324,0.013523,0.002678,0.000431,0.009050
1954000,0.0324,0.013523,0.002678,0.000431,0.008109
1955000,0.0324,0.013523,0.002678,0.000431,0.008227
1956000,0.0324,0.013523,0.002678,0.000431,0.006817
1957000,0.0324,0.013523,0.002678,0.000431,0.009167
1958000,0.0324,0.013523,0.002678,0.000431,0.008345
1959000,0.0324,0.013523,0.002678,0.000431,0.006817
1960000,0.0324,0.013523,0.002678,0.000431,0.009872
1961000,0.0324,0.013523,0.002678,0.000431,0.009050
1962000,0.0324,0.013523,0.002678,0.000431,0.006817
1963000,0.0324,0.013523,0.002678,0.000431,0.007992
1964000,0.0324,0.013523,0.002678,0.000431,0.009285
1965000,0.0324,0.013523,0.002678,0.000431,0.007287
1966000,0.0324,0.013523,0.002678,0.000431,0.007992
1967000,0.0324,0.013523,0.002678,0.000431,0.007992
1968000,0.0324,0.013523,0.002678,0.000431,0.009402
1969000,0.0324,0.013523,0.002678,0.000431,0.009167
1970000,0.0324,0.013523,0.002678,0.000431,0.007404
1971000,0.0324,0.013523,0.002678,0.000431,0.007639
1972000,0.0324,0.013523,0.002678,0.000431,0.008580
1973000,0.0324,0.013523,0.002678,0.000431,0.007404
1974000,0.0324,0.013523,0.002678,0.000431,0.007522
1975000,0.0324,0.013523,0.002678,0.000431,0.009050
1976000,0.0324,0.013523,0.002678,0.000431,0.009285
1977000,0.0324,0.013523,0.002678,0.000431,0.008932
1978000,0.0324,0.013523,0.002678,0.000431,0.007169
1979000,0.0324,0.013523,0.002678,0.000431,0.007404
1980000,0.0324,0.013523,0.002678,0.000431,0.009285
1981000,0.0324,0.013523,0.002678,0.000431,0.007639
1982000,0.0324,0.013523,0.002678,0.000431,0.007287
1983000,0.0324,0.013523,0.002678,0.000431,0.009285
1984000,0.0324,0.013523,0.002678,0.000431,0.009402
1985000,0.0324,0.013523,0.002678,0.000431,0.006817
1986000,0.0324,0.013523,0.002678,0.000431,0.008815
1987000,0.0324,0.013523,0.002678,0.000431,0.008580
1988000,0.0324,0.013523,0.002678,0.000431,0.007757
1989000,0.0324,0.013523,0.002678,0.000431,0.007992
1990000,0.0324,0.013523,0.002678,0.000431,0.007404
1991000,0.0324,0.013523,0.002678,0.000431,0.008697
1992000,0.0324,0.013523,0.002678,0.000431,0.009990
1993000,0.0324,0.013523,0.002678,0.000431,0.007404
1994000,0.0324,0.013523,0.002678,0.000431,0.007169
1995000,0.0324,0.013523,0.002678,0.000431,0.009520
1996000,0.0324,0.013523,0.002678,0.000431,0.007287
1997000,0.0324,0.013523,0.002678,0.000431,0.007757
1998000,0.0324,0.013523,0.002678,0.000431,0.008227
1999000,0.0324,0.013523,0.002678,0.000431,0.009285
