Cycle,Area(mm^2),PeakDynamic(W),SubthresholdLeakage(W),GateLeakage(W),RunTimeDynamic(W)
4000000,0.0324,0.013523,0.002678,0.000431,0.314035
4001000,0.0324,0.013523,0.002678,0.000431,0.314976
4002000,0.0324,0.013523,0.002678,0.000431,0.318736
4003000,0.0324,0.013523,0.002678,0.000431,0.333545
4004000,0.0324,0.013523,0.002678,0.000431,0.316151
4005000,0.0324,0.013523,0.002678,0.000431,0.320499
4006000,0.0324,0.013523,0.002678,0.000431,0.322145
4007000,0.0324,0.013523,0.002678,0.000431,0.333075
4008000,0.0324,0.013523,0.002678,0.000431,0.321440
4009000,0.0324,0.013523,0.002678,0.000431,0.330489
4010000,0.0324,0.013523,0.002678,0.000431,0.314740
4011000,0.0324,0.013523,0.002678,0.000431,0.308629
4012000,0.0324,0.013523,0.002678,0.000431,0.322145
4013000,0.0324,0.013523,0.002678,0.000431,0.332840
4014000,0.0324,0.013523,0.002678,0.000431,0.325083
4015000,0.0324,0.013523,0.002678,0.000431,0.327904
4016000,0.0324,0.013523,0.002678,0.000431,0.333780
4017000,0.0324,0.013523,0.002678,0.000431,0.329902
4018000,0.0324,0.013523,0.002678,0.000431,0.330137
4019000,0.0324,0.013523,0.002678,0.000431,0.332840
4020000,0.0324,0.013523,0.002678,0.000431,0.315093
4021000,0.0324,0.013523,0.002678,0.000431,0.312625
4022000,0.0324,0.013523,0.002678,0.000431,0.318736
4023000,0.0324,0.013523,0.002678,0.000431,0.334015
4024000,0.0324,0.013523,0.002678,0.000431,0.318031
4025000,0.0324,0.013523,0.002678,0.000431,0.320147
4026000,0.0324,0.013523,0.002678,0.000431,0.322732
4027000,0.0324,0.013523,0.002678,0.000431,0.309452
4028000,0.0324,0.013523,0.002678,0.000431,0.318501
4029000,0.0324,0.013523,0.002678,0.000431,0.314505
4030000,0.0324,0.013523,0.002678,0.000431,0.326376
4031000,0.0324,0.013523,0.002678,0.000431,0.314858
4032000,0.0324,0.013523,0.002678,0.000431,0.310274
4033000,0.0324,0.013523,0.002678,0.000431,0.321557
4034000,0.0324,0.013523,0.002678,0.000431,0.320029
4035000,0.0324,0.013523,0.002678,0.000431,0.311097
4036000,0.0324,0.013523,0.002678,0.000431,0.340714
4037000,0.0324,0.013523,0.002678,0.000431,0.334015
4038000,0.0324,0.013523,0.002678,0.000431,0.340362
4039000,0.0324,0.013523,0.002678,0.000431,0.316151
4040000,0.0324,0.013523,0.002678,0.000431,0.322262
4041000,0.0324,0.013523,0.002678,0.000431,0.332840
4042000,0.0324,0.013523,0.002678,0.000431,0.320264
4043000,0.0324,0.013523,0.002678,0.000431,0.330607
4044000,0.0324,0.013523,0.002678,0.000431,0.324495
4045000,0.0324,0.013523,0.002678,0.000431,0.300872
4046000,0.0324,0.013523,0.002678,0.000431,0.325906
4047000,0.0324,0.013523,0.002678,0.000431,0.312507
4048000,0.0324,0.013523,0.002678,0.000431,0.303340
4049000,0.0324,0.013523,0.002678,0.000431,0.309334
4050000,0.0324,0.013523,0.002678,0.000431,0.308159
4051000,0.0324,0.013523,0.002678,0.000431,0.316151
4052000,0.0324,0.013523,0.002678,0.000431,0.346356
4053000,0.0324,0.013523,0.002678,0.000431,0.321205
4054000,0.0324,0.013523,0.002678,0.000431,0.316621
4055000,0.0324,0.013523,0.002678,0.000431,0.332605
4056000,0.0324,0.013523,0.002678,0.000431,0.309804
4057000,0.0324,0.013523,0.002678,0.000431,0.331782
4058000,0.0324,0.013523,0.002678,0.000431,0.333898
4059000,0.0324,0.013523,0.002678,0.000431,0.321910
4060000,0.0324,0.013523,0.002678,0.000431,0.305691
4061000,0.0324,0.013523,0.002678,0.000431,0.309569
4062000,0.0324,0.013523,0.002678,0.000431,0.316268
4063000,0.0324,0.013523,0.002678,0.000431,0.315211
4064000,0.0324,0.013523,0.002678,0.000431,0.314505
4065000,0.0324,0.013523,0.002678,0.000431,0.319089
4066000,0.0324,0.013523,0.002678,0.000431,0.322850
4067000,0.0324,0.013523,0.002678,0.000431,0.320382
4068000,0.0324,0.013523,0.002678,0.000431,0.306866
4069000,0.0324,0.013523,0.002678,0.000431,0.317679
4070000,0.0324,0.013523,0.002678,0.000431,0.308159
4071000,0.0324,0.013523,0.002678,0.000431,0.323320
4072000,0.0324,0.013523,0.002678,0.000431,0.320029
4073000,0.0324,0.013523,0.002678,0.000431,0.318736
4074000,0.0324,0.013523,0.002678,0.000431,0.326846
4075000,0.0324,0.013523,0.002678,0.000431,0.324378
4076000,0.0324,0.013523,0.002678,0.000431,0.320264
4077000,0.0324,0.013523,0.002678,0.000431,0.306278
4078000,0.0324,0.013523,0.002678,0.000431,0.318736
4079000,0.0324,0.013523,0.002678,0.000431,0.340832
4080000,0.0324,0.013523,0.002678,0.000431,0.310157
4081000,0.0324,0.013523,0.002678,0.000431,0.330489
4082000,0.0324,0.013523,0.002678,0.000431,0.328844
4083000,0.0324,0.013523,0.002678,0.000431,0.325318
4084000,0.0324,0.013523,0.002678,0.000431,0.319089
4085000,0.0324,0.013523,0.002678,0.000431,0.321440
4086000,0.0324,0.013523,0.002678,0.000431,0.327669
4087000,0.0324,0.013523,0.002678,0.000431,0.326493
4088000,0.0324,0.013523,0.002678,0.000431,0.320029
4089000,0.0324,0.013523,0.002678,0.000431,0.327786
4090000,0.0324,0.013523,0.002678,0.000431,0.327669
4091000,0.0324,0.013523,0.002678,0.000431,0.324143
4092000,0.0324,0.013523,0.002678,0.000431,0.329549
4093000,0.0324,0.013523,0.002678,0.000431,0.344593
4094000,0.0324,0.013523,0.002678,0.000431,0.323555
4095000,0.0324,0.013523,0.002678,0.000431,0.338834
4096000,0.0324,0.013523,0.002678,0.000431,0.331077
4097000,0.0324,0.013523,0.002678,0.000431,0.324848
4098000,0.0324,0.013523,0.002678,0.000431,0.312860
4099000,0.0324,0.013523,0.002678,0.000431,0.317561
4100000,0.0324,0.013523,0.002678,0.000431,0.314623
4101000,0.0324,0.013523,0.002678,0.000431,0.315328
4102000,0.0324,0.013523,0.002678,0.000431,0.320499
4103000,0.0324,0.013523,0.002678,0.000431,0.315681
4104000,0.0324,0.013523,0.002678,0.000431,0.315798
4105000,0.0324,0.013523,0.002678,0.000431,0.320499
4106000,0.0324,0.013523,0.002678,0.000431,0.318971
4107000,0.0324,0.013523,0.002678,0.000431,0.308159
4108000,0.0324,0.013523,0.002678,0.000431,0.304280
4109000,0.0324,0.013523,0.002678,0.000431,0.318854
4110000,0.0324,0.013523,0.002678,0.000431,0.315446
4111000,0.0324,0.013523,0.002678,0.000431,0.321087
4112000,0.0324,0.013523,0.002678,0.000431,0.328374
4113000,0.0324,0.013523,0.002678,0.000431,0.336013
4114000,0.0324,0.013523,0.002678,0.000431,0.322145
4115000,0.0324,0.013523,0.002678,0.000431,0.315916
4116000,0.0324,0.013523,0.002678,0.000431,0.324965
4117000,0.0324,0.013523,0.002678,0.000431,0.317444
4118000,0.0324,0.013523,0.002678,0.000431,0.305573
4119000,0.0324,0.013523,0.002678,0.000431,0.310980
4120000,0.0324,0.013523,0.002678,0.000431,0.321322
4121000,0.0324,0.013523,0.002678,0.000431,0.318854
4122000,0.0324,0.013523,0.002678,0.000431,0.320382
4123000,0.0324,0.013523,0.002678,0.000431,0.322967
4124000,0.0324,0.013523,0.002678,0.000431,0.309452
4125000,0.0324,0.013523,0.002678,0.000431,0.324965
4126000,0.0324,0.013523,0.002678,0.000431,0.312507
4127000,0.0324,0.013523,0.002678,0.000431,0.322262
4128000,0.0324,0.013523,0.002678,0.000431,0.326611
4129000,0.0324,0.013523,0.002678,0.000431,0.321087
4130000,0.0324,0.013523,0.002678,0.000431,0.327081
4131000,0.0324,0.013523,0.002678,0.000431,0.336131
4132000,0.0324,0.013523,0.002678,0.000431,0.320499
4133000,0.0324,0.013523,0.002678,0.000431,0.305221
4134000,0.0324,0.013523,0.002678,0.000431,0.316268
4135000,0.0324,0.013523,0.002678,0.000431,0.309922
4136000,0.0324,0.013523,0.002678,0.000431,0.327904
4137000,0.0324,0.013523,0.002678,0.000431,0.332840
4138000,0.0324,0.013523,0.002678,0.000431,0.317091
4139000,0.0324,0.013523,0.002678,0.000431,0.320264
4140000,0.0324,0.013523,0.002678,0.000431,0.339304
4141000,0.0324,0.013523,0.002678,0.000431,0.322615
4142000,0.0324,0.013523,0.002678,0.000431,0.324025
4143000,0.0324,0.013523,0.002678,0.000431,0.312390
4144000,0.0324,0.013523,0.002678,0.000431,0.323555
4145000,0.0324,0.013523,0.002678,0.000431,0.319559
4146000,0.0324,0.013523,0.002678,0.000431,0.345533
4147000,0.0324,0.013523,0.002678,0.000431,0.314035
4148000,0.0324,0.013523,0.002678,0.000431,0.312860
4149000,0.0324,0.013523,0.002678,0.000431,0.308982
4150000,0.0324,0.013523,0.002678,0.000431,0.324495
4151000,0.0324,0.013523,0.002678,0.000431,0.324495
4152000,0.0324,0.013523,0.002678,0.000431,0.322497
4153000,0.0324,0.013523,0.002678,0.000431,0.331900
4154000,0.0324,0.013523,0.002678,0.000431,0.331077
4155000,0.0324,0.013523,0.002678,0.000431,0.335660
4156000,0.0324,0.013523,0.002678,0.000431,0.328844
4157000,0.0324,0.013523,0.002678,0.000431,0.329196
4158000,0.0324,0.013523,0.002678,0.000431,0.322850
4159000,0.0324,0.013523,0.002678,0.000431,0.325906
4160000,0.0324,0.013523,0.002678,0.000431,0.314976
4161000,0.0324,0.013523,0.002678,0.000431,0.332957
4162000,0.0324,0.013523,0.002678,0.000431,0.326846
4163000,0.0324,0.013523,0.002678,0.000431,0.308629
4164000,0.0324,0.013523,0.002678,0.000431,0.308511
4165000,0.0324,0.013523,0.002678,0.000431,0.327786
4166000,0.0324,0.013523,0.002678,0.000431,0.316974
4167000,0.0324,0.013523,0.002678,0.000431,0.332605
4168000,0.0324,0.013523,0.002678,0.000431,0.323438
4169000,0.0324,0.013523,0.002678,0.000431,0.331194
4170000,0.0324,0.013523,0.002678,0.000431,0.319207
4171000,0.0324,0.013523,0.002678,0.000431,0.332135
4172000,0.0324,0.013523,0.002678,0.000431,0.321322
4173000,0.0324,0.013523,0.002678,0.000431,0.317209
4174000,0.0324,0.013523,0.002678,0.000431,0.321675
4175000,0.0324,0.013523,0.002678,0.000431,0.334368
4176000,0.0324,0.013523,0.002678,0.000431,0.320382
4177000,0.0324,0.013523,0.002678,0.000431,0.329667
4178000,0.0324,0.013523,0.002678,0.000431,0.334603
4179000,0.0324,0.013523,0.002678,0.000431,0.322732
4180000,0.0324,0.013523,0.002678,0.000431,0.332487
4181000,0.0324,0.013523,0.002678,0.000431,0.323203
4182000,0.0324,0.013523,0.002678,0.000431,0.332605
4183000,0.0324,0.013523,0.002678,0.000431,0.325318
4184000,0.0324,0.013523,0.002678,0.000431,0.324730
4185000,0.0324,0.013523,0.002678,0.000431,0.315446
4186000,0.0324,0.013523,0.002678,0.000431,0.324730
4187000,0.0324,0.013523,0.002678,0.000431,0.347648
4188000,0.0324,0.013523,0.002678,0.000431,0.332487
4189000,0.0324,0.013523,0.002678,0.000431,0.342595
4190000,0.0324,0.013523,0.002678,0.000431,0.333545
4191000,0.0324,0.013523,0.002678,0.000431,0.334133
4192000,0.0324,0.013523,0.002678,0.000431,0.319442
4193000,0.0324,0.013523,0.002678,0.000431,0.313918
4194000,0.0324,0.013523,0.002678,0.000431,0.317209
4195000,0.0324,0.013523,0.002678,0.000431,0.319677
4196000,0.0324,0.013523,0.002678,0.000431,0.322145
4197000,0.0324,0.013523,0.002678,0.000431,0.326611
4198000,0.0324,0.013523,0.002678,0.000431,0.328609
4199000,0.0324,0.013523,0.002678,0.000431,0.332135
4200000,0.0324,0.013523,0.002678,0.000431,0.335190
4201000,0.0324,0.013523,0.002678,0.000431,0.328726
4202000,0.0324,0.013523,0.002678,0.000431,0.328961
4203000,0.0324,0.013523,0.002678,0.000431,0.324260
4204000,0.0324,0.013523,0.002678,0.000431,0.334838
4205000,0.0324,0.013523,0.002678,0.000431,0.324495
4206000,0.0324,0.013523,0.002678,0.000431,0.322850
4207000,0.0324,0.013523,0.002678,0.000431,0.324025
4208000,0.0324,0.013523,0.002678,0.000431,0.322380
4209000,0.0324,0.013523,0.002678,0.000431,0.315916
4210000,0.0324,0.013523,0.002678,0.000431,0.324025
4211000,0.0324,0.013523,0.002678,0.000431,0.325553
4212000,0.0324,0.013523,0.002678,0.000431,0.334015
4213000,0.0324,0.013523,0.002678,0.000431,0.320147
4214000,0.0324,0.013523,0.002678,0.000431,0.323673
4215000,0.0324,0.013523,0.002678,0.000431,0.323790
4216000,0.0324,0.013523,0.002678,0.000431,0.333075
4217000,0.0324,0.013523,0.002678,0.000431,0.314505
4218000,0.0324,0.013523,0.002678,0.000431,0.320029
4219000,0.0324,0.013523,0.002678,0.000431,0.327669
4220000,0.0324,0.013523,0.002678,0.000431,0.322380
4221000,0.0324,0.013523,0.002678,0.000431,0.334368
4222000,0.0324,0.013523,0.002678,0.000431,0.338129
4223000,0.0324,0.013523,0.002678,0.000431,0.330724
4224000,0.0324,0.013523,0.002678,0.000431,0.317209
4225000,0.0324,0.013523,0.002678,0.000431,0.306161
4226000,0.0324,0.013523,0.002678,0.000431,0.307806
4227000,0.0324,0.013523,0.002678,0.000431,0.337541
4228000,0.0324,0.013523,0.002678,0.000431,0.325788
4229000,0.0324,0.013523,0.002678,0.000431,0.335896
4230000,0.0324,0.013523,0.002678,0.000431,0.324965
4231000,0.0324,0.013523,0.002678,0.000431,0.317091
4232000,0.0324,0.013523,0.002678,0.000431,0.318266
4233000,0.0324,0.013523,0.002678,0.000431,0.335778
4234000,0.0324,0.013523,0.002678,0.000431,0.325083
4235000,0.0324,0.013523,0.002678,0.000431,0.310274
4236000,0.0324,0.013523,0.002678,0.000431,0.314153
4237000,0.0324,0.013523,0.002678,0.000431,0.313683
4238000,0.0324,0.013523,0.002678,0.000431,0.323203
4239000,0.0324,0.013523,0.002678,0.000431,0.321087
4240000,0.0324,0.013523,0.002678,0.000431,0.320852
4241000,0.0324,0.013523,0.002678,0.000431,0.328609
4242000,0.0324,0.013523,0.002678,0.000431,0.333663
4243000,0.0324,0.013523,0.002678,0.000431,0.317561
4244000,0.0324,0.013523,0.002678,0.000431,0.319677
4245000,0.0324,0.013523,0.002678,0.000431,0.331194
4246000,0.0324,0.013523,0.002678,0.000431,0.319794
4247000,0.0324,0.013523,0.002678,0.000431,0.334955
4248000,0.0324,0.013523,0.002678,0.000431,0.340479
4249000,0.0324,0.013523,0.002678,0.000431,0.336366
4250000,0.0324,0.013523,0.002678,0.000431,0.327198
4251000,0.0324,0.013523,0.002678,0.000431,0.339304
4252000,0.0324,0.013523,0.002678,0.000431,0.354700
4253000,0.0324,0.013523,0.002678,0.000431,0.348941
4254000,0.0324,0.013523,0.002678,0.000431,0.335660
4255000,0.0324,0.013523,0.002678,0.000431,0.320264
4256000,0.0324,0.013523,0.002678,0.000431,0.318149
4257000,0.0324,0.013523,0.002678,0.000431,0.324613
4258000,0.0324,0.013523,0.002678,0.000431,0.323438
4259000,0.0324,0.013523,0.002678,0.000431,0.315916
4260000,0.0324,0.013523,0.002678,0.000431,0.336366
4261000,0.0324,0.013523,0.002678,0.000431,0.332017
4262000,0.0324,0.013523,0.002678,0.000431,0.344240
4263000,0.0324,0.013523,0.002678,0.000431,0.331782
4264000,0.0324,0.013523,0.002678,0.000431,0.323555
4265000,0.0324,0.013523,0.002678,0.000431,0.332605
4266000,0.0324,0.013523,0.002678,0.000431,0.331312
4267000,0.0324,0.013523,0.002678,0.000431,0.328844
4268000,0.0324,0.013523,0.002678,0.000431,0.319324
4269000,0.0324,0.013523,0.002678,0.000431,0.344945
4270000,0.0324,0.013523,0.002678,0.000431,0.340832
4271000,0.0324,0.013523,0.002678,0.000431,0.329902
4272000,0.0324,0.013523,0.002678,0.000431,0.315446
4273000,0.0324,0.013523,0.002678,0.000431,0.322380
4274000,0.0324,0.013523,0.002678,0.000431,0.319559
4275000,0.0324,0.013523,0.002678,0.000431,0.315798
4276000,0.0324,0.013523,0.002678,0.000431,0.337306
4277000,0.0324,0.013523,0.002678,0.000431,0.340597
4278000,0.0324,0.013523,0.002678,0.000431,0.324848
4279000,0.0324,0.013523,0.002678,0.000431,0.347766
4280000,0.0324,0.013523,0.002678,0.000431,0.338834
4281000,0.0324,0.013523,0.002678,0.000431,0.336131
4282000,0.0324,0.013523,0.002678,0.000431,0.338716
4283000,0.0324,0.013523,0.002678,0.000431,0.333192
4284000,0.0324,0.013523,0.002678,0.000431,0.347883
4285000,0.0324,0.013523,0.002678,0.000431,0.332135
4286000,0.0324,0.013523,0.002678,0.000431,0.326728
4287000,0.0324,0.013523,0.002678,0.000431,0.332957
4288000,0.0324,0.013523,0.002678,0.000431,0.316738
4289000,0.0324,0.013523,0.002678,0.000431,0.318501
4290000,0.0324,0.013523,0.002678,0.000431,0.326963
4291000,0.0324,0.013523,0.002678,0.000431,0.326493
4292000,0.0324,0.013523,0.002678,0.000431,0.321792
4293000,0.0324,0.013523,0.002678,0.000431,0.313095
4294000,0.0324,0.013523,0.002678,0.000431,0.327081
4295000,0.0324,0.013523,0.002678,0.000431,0.310039
4296000,0.0324,0.013523,0.002678,0.000431,0.316268
4297000,0.0324,0.013523,0.002678,0.000431,0.339892
4298000,0.0324,0.013523,0.002678,0.000431,0.322850
4299000,0.0324,0.013523,0.002678,0.000431,0.329549
4300000,0.0324,0.013523,0.002678,0.000431,0.326963
4301000,0.0324,0.013523,0.002678,0.000431,0.339892
4302000,0.0324,0.013523,0.002678,0.000431,0.325318
4303000,0.0324,0.013523,0.002678,0.000431,0.326023
4304000,0.0324,0.013523,0.002678,0.000431,0.326141
4305000,0.0324,0.013523,0.002678,0.000431,0.324965
4306000,0.0324,0.013523,0.002678,0.000431,0.309922
4307000,0.0324,0.013523,0.002678,0.000431,0.310862
4308000,0.0324,0.013523,0.002678,0.000431,0.324025
4309000,0.0324,0.013523,0.002678,0.000431,0.312390
4310000,0.0324,0.013523,0.002678,0.000431,0.314270
4311000,0.0324,0.013523,0.002678,0.000431,0.314623
4312000,0.0324,0.013523,0.002678,0.000431,0.332487
4313000,0.0324,0.013523,0.002678,0.000431,0.320969
4314000,0.0324,0.013523,0.002678,0.000431,0.325671
4315000,0.0324,0.013523,0.002678,0.000431,0.332370
4316000,0.0324,0.013523,0.002678,0.000431,0.330842
4317000,0.0324,0.013523,0.002678,0.000431,0.320852
4318000,0.0324,0.013523,0.002678,0.000431,0.310274
4319000,0.0324,0.013523,0.002678,0.000431,0.324495
4320000,0.0324,0.013523,0.002678,0.000431,0.325788
4321000,0.0324,0.013523,0.002678,0.000431,0.330137
4322000,0.0324,0.013523,0.002678,0.000431,0.322380
4323000,0.0324,0.013523,0.002678,0.000431,0.334368
4324000,0.0324,0.013523,0.002678,0.000431,0.344828
4325000,0.0324,0.013523,0.002678,0.000431,0.345298
4326000,0.0324,0.013523,0.002678,0.000431,0.341889
4327000,0.0324,0.013523,0.002678,0.000431,0.332722
4328000,0.0324,0.013523,0.002678,0.000431,0.321440
4329000,0.0324,0.013523,0.002678,0.000431,0.328961
4330000,0.0324,0.013523,0.002678,0.000431,0.316268
4331000,0.0324,0.013523,0.002678,0.000431,0.307219
4332000,0.0324,0.013523,0.002678,0.000431,0.317444
4333000,0.0324,0.013523,0.002678,0.000431,0.323203
4334000,0.0324,0.013523,0.002678,0.000431,0.324025
4335000,0.0324,0.013523,0.002678,0.000431,0.310157
4336000,0.0324,0.013523,0.002678,0.000431,0.311332
4337000,0.0324,0.013523,0.002678,0.000431,0.318031
4338000,0.0324,0.013523,0.002678,0.000431,0.325318
4339000,0.0324,0.013523,0.002678,0.000431,0.319677
4340000,0.0324,0.013523,0.002678,0.000431,0.316974
4341000,0.0324,0.013523,0.002678,0.000431,0.313683
4342000,0.0324,0.013523,0.002678,0.000431,0.325318
4343000,0.0324,0.013523,0.002678,0.000431,0.336483
4344000,0.0324,0.013523,0.002678,0.000431,0.319912
4345000,0.0324,0.013523,0.002678,0.000431,0.312272
4346000,0.0324,0.013523,0.002678,0.000431,0.316503
4347000,0.0324,0.013523,0.002678,0.000431,0.323908
4348000,0.0324,0.013523,0.002678,0.000431,0.322967
4349000,0.0324,0.013523,0.002678,0.000431,0.316268
4350000,0.0324,0.013523,0.002678,0.000431,0.322850
4351000,0.0324,0.013523,0.002678,0.000431,0.322262
4352000,0.0324,0.013523,0.002678,0.000431,0.314153
4353000,0.0324,0.013523,0.002678,0.000431,0.331665
4354000,0.0324,0.013523,0.002678,0.000431,0.317679
4355000,0.0324,0.013523,0.002678,0.000431,0.327551
4356000,0.0324,0.013523,0.002678,0.000431,0.337776
4357000,0.0324,0.013523,0.002678,0.000431,0.333075
4358000,0.0324,0.013523,0.002678,0.000431,0.318971
4359000,0.0324,0.013523,0.002678,0.000431,0.336836
4360000,0.0324,0.013523,0.002678,0.000431,0.340597
4361000,0.0324,0.013523,0.002678,0.000431,0.335190
4362000,0.0324,0.013523,0.002678,0.000431,0.318384
4363000,0.0324,0.013523,0.002678,0.000431,0.313095
4364000,0.0324,0.013523,0.002678,0.000431,0.316621
4365000,0.0324,0.013523,0.002678,0.000431,0.333310
4366000,0.0324,0.013523,0.002678,0.000431,0.315328
4367000,0.0324,0.013523,0.002678,0.000431,0.319677
4368000,0.0324,0.013523,0.002678,0.000431,0.325200
4369000,0.0324,0.013523,0.002678,0.000431,0.325200
4370000,0.0324,0.013523,0.002678,0.000431,0.326728
4371000,0.0324,0.013523,0.002678,0.000431,0.347531
4372000,0.0324,0.013523,0.002678,0.000431,0.319912
4373000,0.0324,0.013523,0.002678,0.000431,0.317326
4374000,0.0324,0.013523,0.002678,0.000431,0.316856
4375000,0.0324,0.013523,0.002678,0.000431,0.328726
4376000,0.0324,0.013523,0.002678,0.000431,0.338716
4377000,0.0324,0.013523,0.002678,0.000431,0.331194
4378000,0.0324,0.013523,0.002678,0.000431,0.318619
4379000,0.0324,0.013523,0.002678,0.000431,0.320147
4380000,0.0324,0.013523,0.002678,0.000431,0.330372
4381000,0.0324,0.013523,0.002678,0.000431,0.328139
4382000,0.0324,0.013523,0.002678,0.000431,0.325788
4383000,0.0324,0.013523,0.002678,0.000431,0.335425
4384000,0.0324,0.013523,0.002678,0.000431,0.324613
4385000,0.0324,0.013523,0.002678,0.000431,0.316386
4386000,0.0324,0.013523,0.002678,0.000431,0.320499
4387000,0.0324,0.013523,0.002678,0.000431,0.312272
4388000,0.0324,0.013523,0.002678,0.000431,0.318501
4389000,0.0324,0.013523,0.002678,0.000431,0.317561
4390000,0.0324,0.013523,0.002678,0.000431,0.323555
4391000,0.0324,0.013523,0.002678,0.000431,0.329079
4392000,0.0324,0.013523,0.002678,0.000431,0.327904
4393000,0.0324,0.013523,0.002678,0.000431,0.336718
4394000,0.0324,0.013523,0.002678,0.000431,0.329196
4395000,0.0324,0.013523,0.002678,0.000431,0.322497
4396000,0.0324,0.013523,0.002678,0.000431,0.325436
4397000,0.0324,0.013523,0.002678,0.000431,0.320734
4398000,0.0324,0.013523,0.002678,0.000431,0.319677
4399000,0.0324,0.013523,0.002678,0.000431,0.324143
4400000,0.0324,0.013523,0.002678,0.000431,0.326141
4401000,0.0324,0.013523,0.002678,0.000431,0.326728
4402000,0.0324,0.013523,0.002678,0.000431,0.320617
4403000,0.0324,0.013523,0.002678,0.000431,0.325906
4404000,0.0324,0.013523,0.002678,0.000431,0.339656
4405000,0.0324,0.013523,0.002678,0.000431,0.309217
4406000,0.0324,0.013523,0.002678,0.000431,0.318031
4407000,0.0324,0.013523,0.002678,0.000431,0.327551
4408000,0.0324,0.013523,0.002678,0.000431,0.331900
4409000,0.0324,0.013523,0.002678,0.000431,0.333545
4410000,0.0324,0.013523,0.002678,0.000431,0.324378
4411000,0.0324,0.013523,0.002678,0.000431,0.327081
4412000,0.0324,0.013523,0.002678,0.000431,0.317914
4413000,0.0324,0.013523,0.002678,0.000431,0.317444
4414000,0.0324,0.013523,0.002678,0.000431,0.308276
4415000,0.0324,0.013523,0.002678,0.000431,0.326611
4416000,0.0324,0.013523,0.002678,0.000431,0.321792
4417000,0.0324,0.013523,0.002678,0.000431,0.353407
4418000,0.0324,0.013523,0.002678,0.000431,0.348001
4419000,0.0324,0.013523,0.002678,0.000431,0.340362
4420000,0.0324,0.013523,0.002678,0.000431,0.328961
4421000,0.0324,0.013523,0.002678,0.000431,0.339186
4422000,0.0324,0.013523,0.002678,0.000431,0.341772
4423000,0.0324,0.013523,0.002678,0.000431,0.331665
4424000,0.0324,0.013523,0.002678,0.000431,0.324495
4425000,0.0324,0.013523,0.002678,0.000431,0.317209
4426000,0.0324,0.013523,0.002678,0.000431,0.322145
4427000,0.0324,0.013523,0.002678,0.000431,0.338599
4428000,0.0324,0.013523,0.002678,0.000431,0.327198
4429000,0.0324,0.013523,0.002678,0.000431,0.321792
4430000,0.0324,0.013523,0.002678,0.000431,0.330254
4431000,0.0324,0.013523,0.002678,0.000431,0.321557
4432000,0.0324,0.013523,0.002678,0.000431,0.316151
4433000,0.0324,0.013523,0.002678,0.000431,0.332605
4434000,0.0324,0.013523,0.002678,0.000431,0.330372
4435000,0.0324,0.013523,0.002678,0.000431,0.346003
4436000,0.0324,0.013523,0.002678,0.000431,0.355640
4437000,0.0324,0.013523,0.002678,0.000431,0.334720
4438000,0.0324,0.013523,0.002678,0.000431,0.333898
4439000,0.0324,0.013523,0.002678,0.000431,0.336836
4440000,0.0324,0.013523,0.002678,0.000431,0.344593
4441000,0.0324,0.013523,0.002678,0.000431,0.333192
4442000,0.0324,0.013523,0.002678,0.000431,0.329314
4443000,0.0324,0.013523,0.002678,0.000431,0.338599
4444000,0.0324,0.013523,0.002678,0.000431,0.326376
4445000,0.0324,0.013523,0.002678,0.000431,0.316856
4446000,0.0324,0.013523,0.002678,0.000431,0.319442
4447000,0.0324,0.013523,0.002678,0.000431,0.323673
4448000,0.0324,0.013523,0.002678,0.000431,0.335190
4449000,0.0324,0.013523,0.002678,0.000431,0.336483
4450000,0.0324,0.013523,0.002678,0.000431,0.346003
4451000,0.0324,0.013523,0.002678,0.000431,0.335425
4452000,0.0324,0.013523,0.002678,0.000431,0.333898
4453000,0.0324,0.013523,0.002678,0.000431,0.330724
4454000,0.0324,0.013523,0.002678,0.000431,0.331900
4455000,0.0324,0.013523,0.002678,0.000431,0.332722
4456000,0.0324,0.013523,0.002678,0.000431,0.327198
4457000,0.0324,0.013523,0.002678,0.000431,0.331900
4458000,0.0324,0.013523,0.002678,0.000431,0.326846
4459000,0.0324,0.013523,0.002678,0.000431,0.317914
4460000,0.0324,0.013523,0.002678,0.000431,0.335308
4461000,0.0324,0.013523,0.002678,0.000431,0.328256
4462000,0.0324,0.013523,0.002678,0.000431,0.314623
4463000,0.0324,0.013523,0.002678,0.000431,0.334955
4464000,0.0324,0.013523,0.002678,0.000431,0.343535
4465000,0.0324,0.013523,0.002678,0.000431,0.334838
4466000,0.0324,0.013523,0.002678,0.000431,0.331547
4467000,0.0324,0.013523,0.002678,0.000431,0.327669
4468000,0.0324,0.013523,0.002678,0.000431,0.321792
4469000,0.0324,0.013523,0.002678,0.000431,0.316974
4470000,0.0324,0.013523,0.002678,0.000431,0.330959
4471000,0.0324,0.013523,0.002678,0.000431,0.342360
4472000,0.0324,0.013523,0.002678,0.000431,0.341772
4473000,0.0324,0.013523,0.002678,0.000431,0.344240
4474000,0.0324,0.013523,0.002678,0.000431,0.333780
4475000,0.0324,0.013523,0.002678,0.000431,0.333427
4476000,0.0324,0.013523,0.002678,0.000431,0.326963
4477000,0.0324,0.013523,0.002678,0.000431,0.308041
4478000,0.0324,0.013523,0.002678,0.000431,0.339421
4479000,0.0324,0.013523,0.002678,0.000431,0.319442
4480000,0.0324,0.013523,0.002678,0.000431,0.336131
4481000,0.0324,0.013523,0.002678,0.000431,0.328844
4482000,0.0324,0.013523,0.002678,0.000431,0.328021
4483000,0.0324,0.013523,0.002678,0.000431,0.325553
4484000,0.0324,0.013523,0.002678,0.000431,0.321322
4485000,0.0324,0.013523,0.002678,0.000431,0.323908
4486000,0.0324,0.013523,0.002678,0.000431,0.335425
4487000,0.0324,0.013523,0.002678,0.000431,0.344240
4488000,0.0324,0.013523,0.002678,0.000431,0.339539
4489000,0.0324,0.013523,0.002678,0.000431,0.337776
4490000,0.0324,0.013523,0.002678,0.000431,0.338834
4491000,0.0324,0.013523,0.002678,0.000431,0.339421
4492000,0.0324,0.013523,0.002678,0.000431,0.333898
4493000,0.0324,0.013523,0.002678,0.000431,0.326611
4494000,0.0324,0.013523,0.002678,0.000431,0.323203
4495000,0.0324,0.013523,0.002678,0.000431,0.328961
4496000,0.0324,0.013523,0.002678,0.000431,0.324495
4497000,0.0324,0.013523,0.002678,0.000431,0.318854
4498000,0.0324,0.013523,0.002678,0.000431,0.326376
4499000,0.0324,0.013523,0.002678,0.000431,0.344945
4500000,0.0324,0.013523,0.002678,0.000431,0.329784
4501000,0.0324,0.013523,0.002678,0.000431,0.327904
4502000,0.0324,0.013523,0.002678,0.000431,0.331077
4503000,0.0324,0.013523,0.002678,0.000431,0.336366
4504000,0.0324,0.013523,0.002678,0.000431,0.342595
4505000,0.0324,0.013523,0.002678,0.000431,0.327551
4506000,0.0324,0.013523,0.002678,0.000431,0.327434
4507000,0.0324,0.013523,0.002678,0.000431,0.346708
4508000,0.0324,0.013523,0.002678,0.000431,0.324378
4509000,0.0324,0.013523,0.002678,0.000431,0.345768
4510000,0.0324,0.013523,0.002678,0.000431,0.340127
4511000,0.0324,0.013523,0.002678,0.000431,0.340244
4512000,0.0324,0.013523,0.002678,0.000431,0.319677
4513000,0.0324,0.013523,0.002678,0.000431,0.320382
4514000,0.0324,0.013523,0.002678,0.000431,0.331077
4515000,0.0324,0.013523,0.002678,0.000431,0.320852
4516000,0.0324,0.013523,0.002678,0.000431,0.328491
4517000,0.0324,0.013523,0.002678,0.000431,0.326023
4518000,0.0324,0.013523,0.002678,0.000431,0.309922
4519000,0.0324,0.013523,0.002678,0.000431,0.351527
4520000,0.0324,0.013523,0.002678,0.000431,0.348354
4521000,0.0324,0.013523,0.002678,0.000431,0.349646
4522000,0.0324,0.013523,0.002678,0.000431,0.364807
4523000,0.0324,0.013523,0.002678,0.000431,0.332252
4524000,0.0324,0.013523,0.002678,0.000431,0.349646
4525000,0.0324,0.013523,0.002678,0.000431,0.327551
4526000,0.0324,0.013523,0.002678,0.000431,0.314976
4527000,0.0324,0.013523,0.002678,0.000431,0.316856
4528000,0.0324,0.013523,0.002678,0.000431,0.325671
4529000,0.0324,0.013523,0.002678,0.000431,0.330254
4530000,0.0324,0.013523,0.002678,0.000431,0.314740
4531000,0.0324,0.013523,0.002678,0.000431,0.329079
4532000,0.0324,0.013523,0.002678,0.000431,0.338011
4533000,0.0324,0.013523,0.002678,0.000431,0.322145
4534000,0.0324,0.013523,0.002678,0.000431,0.342007
4535000,0.0324,0.013523,0.002678,0.000431,0.334720
4536000,0.0324,0.013523,0.002678,0.000431,0.344240
4537000,0.0324,0.013523,0.002678,0.000431,0.315328
4538000,0.0324,0.013523,0.002678,0.000431,0.316856
4539000,0.0324,0.013523,0.002678,0.000431,0.321792
4540000,0.0324,0.013523,0.002678,0.000431,0.333545
4541000,0.0324,0.013523,0.002678,0.000431,0.331194
4542000,0.0324,0.013523,0.002678,0.000431,0.330019
4543000,0.0324,0.013523,0.002678,0.000431,0.339421
4544000,0.0324,0.013523,0.002678,0.000431,0.337423
4545000,0.0324,0.013523,0.002678,0.000431,0.319794
4546000,0.0324,0.013523,0.002678,0.000431,0.336953
4547000,0.0324,0.013523,0.002678,0.000431,0.332840
4548000,0.0324,0.013523,0.002678,0.000431,0.336248
4549000,0.0324,0.013523,0.002678,0.000431,0.354347
4550000,0.0324,0.013523,0.002678,0.000431,0.334603
4551000,0.0324,0.013523,0.002678,0.000431,0.318971
4552000,0.0324,0.013523,0.002678,0.000431,0.325671
4553000,0.0324,0.013523,0.002678,0.000431,0.321557
4554000,0.0324,0.013523,0.002678,0.000431,0.335778
4555000,0.0324,0.013523,0.002678,0.000431,0.327434
4556000,0.0324,0.013523,0.002678,0.000431,0.340479
4557000,0.0324,0.013523,0.002678,0.000431,0.324730
4558000,0.0324,0.013523,0.002678,0.000431,0.333310
4559000,0.0324,0.013523,0.002678,0.000431,0.327198
4560000,0.0324,0.013523,0.002678,0.000431,0.307454
4561000,0.0324,0.013523,0.002678,0.000431,0.306513
4562000,0.0324,0.013523,0.002678,0.000431,0.317209
4563000,0.0324,0.013523,0.002678,0.000431,0.318031
4564000,0.0324,0.013523,0.002678,0.000431,0.320734
4565000,0.0324,0.013523,0.002678,0.000431,0.326023
4566000,0.0324,0.013523,0.002678,0.000431,0.335778
4567000,0.0324,0.013523,0.002678,0.000431,0.334720
4568000,0.0324,0.013523,0.002678,0.000431,0.322732
4569000,0.0324,0.013523,0.002678,0.000431,0.336601
4570000,0.0324,0.013523,0.002678,0.000431,0.338129
4571000,0.0324,0.013523,0.002678,0.000431,0.336483
4572000,0.0324,0.013523,0.002678,0.000431,0.334368
4573000,0.0324,0.013523,0.002678,0.000431,0.326493
4574000,0.0324,0.013523,0.002678,0.000431,0.326846
4575000,0.0324,0.013523,0.002678,0.000431,0.324730
4576000,0.0324,0.013523,0.002678,0.000431,0.336013
4577000,0.0324,0.013523,0.002678,0.000431,0.325083
4578000,0.0324,0.013523,0.002678,0.000431,0.323438
4579000,0.0324,0.013523,0.002678,0.000431,0.331312
4580000,0.0324,0.013523,0.002678,0.000431,0.332370
4581000,0.0324,0.013523,0.002678,0.000431,0.329196
4582000,0.0324,0.013523,0.002678,0.000431,0.322262
4583000,0.0324,0.013523,0.002678,0.000431,0.321557
4584000,0.0324,0.013523,0.002678,0.000431,0.325436
4585000,0.0324,0.013523,0.002678,0.000431,0.338599
4586000,0.0324,0.013523,0.002678,0.000431,0.341067
4587000,0.0324,0.013523,0.002678,0.000431,0.340479
4588000,0.0324,0.013523,0.002678,0.000431,0.319324
4589000,0.0324,0.013523,0.002678,0.000431,0.329784
4590000,0.0324,0.013523,0.002678,0.000431,0.333075
4591000,0.0324,0.013523,0.002678,0.000431,0.341419
4592000,0.0324,0.013523,0.002678,0.000431,0.340244
4593000,0.0324,0.013523,0.002678,0.000431,0.318736
4594000,0.0324,0.013523,0.002678,0.000431,0.328256
4595000,0.0324,0.013523,0.002678,0.000431,0.343417
4596000,0.0324,0.013523,0.002678,0.000431,0.336131
4597000,0.0324,0.013523,0.002678,0.000431,0.328609
4598000,0.0324,0.013523,0.002678,0.000431,0.330137
4599000,0.0324,0.013523,0.002678,0.000431,0.326023
4600000,0.0324,0.013523,0.002678,0.000431,0.332722
4601000,0.0324,0.013523,0.002678,0.000431,0.324730
4602000,0.0324,0.013523,0.002678,0.000431,0.322027
4603000,0.0324,0.013523,0.002678,0.000431,0.306513
4604000,0.0324,0.013523,0.002678,0.000431,0.327669
4605000,0.0324,0.013523,0.002678,0.000431,0.317444
4606000,0.0324,0.013523,0.002678,0.000431,0.334015
4607000,0.0324,0.013523,0.002678,0.000431,0.330842
4608000,0.0324,0.013523,0.002678,0.000431,0.324965
4609000,0.0324,0.013523,0.002678,0.000431,0.336483
4610000,0.0324,0.013523,0.002678,0.000431,0.319912
4611000,0.0324,0.013523,0.002678,0.000431,0.317796
4612000,0.0324,0.013523,0.002678,0.000431,0.334603
4613000,0.0324,0.013523,0.002678,0.000431,0.319794
4614000,0.0324,0.013523,0.002678,0.000431,0.316974
4615000,0.0324,0.013523,0.002678,0.000431,0.321557
4616000,0.0324,0.013523,0.002678,0.000431,0.327904
4617000,0.0324,0.013523,0.002678,0.000431,0.313448
4618000,0.0324,0.013523,0.002678,0.000431,0.317444
4619000,0.0324,0.013523,0.002678,0.000431,0.318854
4620000,0.0324,0.013523,0.002678,0.000431,0.326963
4621000,0.0324,0.013523,0.002678,0.000431,0.332722
4622000,0.0324,0.013523,0.002678,0.000431,0.322497
4623000,0.0324,0.013523,0.002678,0.000431,0.327081
4624000,0.0324,0.013523,0.002678,0.000431,0.325671
4625000,0.0324,0.013523,0.002678,0.000431,0.331194
4626000,0.0324,0.013523,0.002678,0.000431,0.341654
4627000,0.0324,0.013523,0.002678,0.000431,0.332252
4628000,0.0324,0.013523,0.002678,0.000431,0.346591
4629000,0.0324,0.013523,0.002678,0.000431,0.321087
4630000,0.0324,0.013523,0.002678,0.000431,0.323203
4631000,0.0324,0.013523,0.002678,0.000431,0.328374
4632000,0.0324,0.013523,0.002678,0.000431,0.328726
4633000,0.0324,0.013523,0.002678,0.000431,0.310392
4634000,0.0324,0.013523,0.002678,0.000431,0.313683
4635000,0.0324,0.013523,0.002678,0.000431,0.331900
4636000,0.0324,0.013523,0.002678,0.000431,0.340479
4637000,0.0324,0.013523,0.002678,0.000431,0.334485
4638000,0.0324,0.013523,0.002678,0.000431,0.307454
4639000,0.0324,0.013523,0.002678,0.000431,0.330842
4640000,0.0324,0.013523,0.002678,0.000431,0.325671
4641000,0.0324,0.013523,0.002678,0.000431,0.339421
4642000,0.0324,0.013523,0.002678,0.000431,0.321205
4643000,0.0324,0.013523,0.002678,0.000431,0.321440
4644000,0.0324,0.013523,0.002678,0.000431,0.312978
4645000,0.0324,0.013523,0.002678,0.000431,0.310509
4646000,0.0324,0.013523,0.002678,0.000431,0.311332
4647000,0.0324,0.013523,0.002678,0.000431,0.317796
4648000,0.0324,0.013523,0.002678,0.000431,0.323908
4649000,0.0324,0.013523,0.002678,0.000431,0.318384
4650000,0.0324,0.013523,0.002678,0.000431,0.321910
4651000,0.0324,0.013523,0.002678,0.000431,0.324025
4652000,0.0324,0.013523,0.002678,0.000431,0.324143
4653000,0.0324,0.013523,0.002678,0.000431,0.327434
4654000,0.0324,0.013523,0.002678,0.000431,0.315798
4655000,0.0324,0.013523,0.002678,0.000431,0.315798
4656000,0.0324,0.013523,0.002678,0.000431,0.341419
4657000,0.0324,0.013523,0.002678,0.000431,0.327669
4658000,0.0324,0.013523,0.002678,0.000431,0.342712
4659000,0.0324,0.013523,0.002678,0.000431,0.325200
4660000,0.0324,0.013523,0.002678,0.000431,0.327786
4661000,0.0324,0.013523,0.002678,0.000431,0.322262
4662000,0.0324,0.013523,0.002678,0.000431,0.326493
4663000,0.0324,0.013523,0.002678,0.000431,0.336718
4664000,0.0324,0.013523,0.002678,0.000431,0.331900
4665000,0.0324,0.013523,0.002678,0.000431,0.323790
4666000,0.0324,0.013523,0.002678,0.000431,0.320029
4667000,0.0324,0.013523,0.002678,0.000431,0.327434
4668000,0.0324,0.013523,0.002678,0.000431,0.321792
4669000,0.0324,0.013523,0.002678,0.000431,0.333427
4670000,0.0324,0.013523,0.002678,0.000431,0.322850
4671000,0.0324,0.013523,0.002678,0.000431,0.326141
4672000,0.0324,0.013523,0.002678,0.000431,0.318501
4673000,0.0324,0.013523,0.002678,0.000431,0.302518
4674000,0.0324,0.013523,0.002678,0.000431,0.313565
4675000,0.0324,0.013523,0.002678,0.000431,0.315916
4676000,0.0324,0.013523,0.002678,0.000431,0.309922
4677000,0.0324,0.013523,0.002678,0.000431,0.318149
4678000,0.0324,0.013523,0.002678,0.000431,0.321675
4679000,0.0324,0.013523,0.002678,0.000431,0.324260
4680000,0.0324,0.013523,0.002678,0.000431,0.357286
4681000,0.0324,0.013523,0.002678,0.000431,0.346356
4682000,0.0324,0.013523,0.002678,0.000431,0.340714
4683000,0.0324,0.013523,0.002678,0.000431,0.349176
4684000,0.0324,0.013523,0.002678,0.000431,0.376795
4685000,0.0324,0.013523,0.002678,0.000431,0.366570
4686000,0.0324,0.013523,0.002678,0.000431,0.359754
4687000,0.0324,0.013523,0.002678,0.000431,0.336013
4688000,0.0324,0.013523,0.002678,0.000431,0.352820
4689000,0.0324,0.013523,0.002678,0.000431,0.372212
4690000,0.0324,0.013523,0.002678,0.000431,0.351997
4691000,0.0324,0.013523,0.002678,0.000431,0.337423
4692000,0.0324,0.013523,0.002678,0.000431,0.342712
4693000,0.0324,0.013523,0.002678,0.000431,0.330254
4694000,0.0324,0.013523,0.002678,0.000431,0.322850
4695000,0.0324,0.013523,0.002678,0.000431,0.333310
4696000,0.0324,0.013523,0.002678,0.000431,0.328726
4697000,0.0324,0.013523,0.002678,0.000431,0.333310
4698000,0.0324,0.013523,0.002678,0.000431,0.329314
4699000,0.0324,0.013523,0.002678,0.000431,0.337894
4700000,0.0324,0.013523,0.002678,0.000431,0.340127
4701000,0.0324,0.013523,0.002678,0.000431,0.318266
4702000,0.0324,0.013523,0.002678,0.000431,0.339069
4703000,0.0324,0.013523,0.002678,0.000431,0.342242
4704000,0.0324,0.013523,0.002678,0.000431,0.337894
4705000,0.0324,0.013523,0.002678,0.000431,0.343300
4706000,0.0324,0.013523,0.002678,0.000431,0.332370
4707000,0.0324,0.013523,0.002678,0.000431,0.343770
4708000,0.0324,0.013523,0.002678,0.000431,0.356698
4709000,0.0324,0.013523,0.002678,0.000431,0.335073
4710000,0.0324,0.013523,0.002678,0.000431,0.338246
4711000,0.0324,0.013523,0.002678,0.000431,0.323085
4712000,0.0324,0.013523,0.002678,0.000431,0.332017
4713000,0.0324,0.013523,0.002678,0.000431,0.324730
4714000,0.0324,0.013523,0.002678,0.000431,0.340597
4715000,0.0324,0.013523,0.002678,0.000431,0.335543
4716000,0.0324,0.013523,0.002678,0.000431,0.340949
4717000,0.0324,0.013523,0.002678,0.000431,0.345885
4718000,0.0324,0.013523,0.002678,0.000431,0.342360
4719000,0.0324,0.013523,0.002678,0.000431,0.330607
4720000,0.0324,0.013523,0.002678,0.000431,0.325671
4721000,0.0324,0.013523,0.002678,0.000431,0.323203
4722000,0.0324,0.013523,0.002678,0.000431,0.336953
4723000,0.0324,0.013523,0.002678,0.000431,0.338716
4724000,0.0324,0.013523,0.002678,0.000431,0.328374
4725000,0.0324,0.013523,0.002678,0.000431,0.314623
4726000,0.0324,0.013523,0.002678,0.000431,0.349764
4727000,0.0324,0.013523,0.002678,0.000431,0.336131
4728000,0.0324,0.013523,0.002678,0.000431,0.331900
4729000,0.0324,0.013523,0.002678,0.000431,0.326258
4730000,0.0324,0.013523,0.002678,0.000431,0.319794
4731000,0.0324,0.013523,0.002678,0.000431,0.326728
4732000,0.0324,0.013523,0.002678,0.000431,0.334485
4733000,0.0324,0.013523,0.002678,0.000431,0.325788
4734000,0.0324,0.013523,0.002678,0.000431,0.365748
4735000,0.0324,0.013523,0.002678,0.000431,0.370331
4736000,0.0324,0.013523,0.002678,0.000431,0.359871
4737000,0.0324,0.013523,0.002678,0.000431,0.329902
4738000,0.0324,0.013523,0.002678,0.000431,0.328726
4739000,0.0324,0.013523,0.002678,0.000431,0.332840
4740000,0.0324,0.013523,0.002678,0.000431,0.328256
4741000,0.0324,0.013523,0.002678,0.000431,0.334838
4742000,0.0324,0.013523,0.002678,0.000431,0.337306
4743000,0.0324,0.013523,0.002678,0.000431,0.322380
4744000,0.0324,0.013523,0.002678,0.000431,0.339421
4745000,0.0324,0.013523,0.002678,0.000431,0.351762
4746000,0.0324,0.013523,0.002678,0.000431,0.355875
4747000,0.0324,0.013523,0.002678,0.000431,0.354465
4748000,0.0324,0.013523,0.002678,0.000431,0.333545
4749000,0.0324,0.013523,0.002678,0.000431,0.336248
4750000,0.0324,0.013523,0.002678,0.000431,0.332017
4751000,0.0324,0.013523,0.002678,0.000431,0.328256
4752000,0.0324,0.013523,0.002678,0.000431,0.327669
4753000,0.0324,0.013523,0.002678,0.000431,0.324143
4754000,0.0324,0.013523,0.002678,0.000431,0.328491
4755000,0.0324,0.013523,0.002678,0.000431,0.325671
4756000,0.0324,0.013523,0.002678,0.000431,0.320147
4757000,0.0324,0.013523,0.002678,0.000431,0.327316
4758000,0.0324,0.013523,0.002678,0.000431,0.332370
4759000,0.0324,0.013523,0.002678,0.000431,0.317679
4760000,0.0324,0.013523,0.002678,0.000431,0.324848
4761000,0.0324,0.013523,0.002678,0.000431,0.335660
4762000,0.0324,0.013523,0.002678,0.000431,0.333780
4763000,0.0324,0.013523,0.002678,0.000431,0.336836
4764000,0.0324,0.013523,0.002678,0.000431,0.328139
4765000,0.0324,0.013523,0.002678,0.000431,0.350352
4766000,0.0324,0.013523,0.002678,0.000431,0.348236
4767000,0.0324,0.013523,0.002678,0.000431,0.343652
4768000,0.0324,0.013523,0.002678,0.000431,0.327551
4769000,0.0324,0.013523,0.002678,0.000431,0.320734
4770000,0.0324,0.013523,0.002678,0.000431,0.317561
4771000,0.0324,0.013523,0.002678,0.000431,0.315446
4772000,0.0324,0.013523,0.002678,0.000431,0.315916
4773000,0.0324,0.013523,0.002678,0.000431,0.325200
4774000,0.0324,0.013523,0.002678,0.000431,0.331077
4775000,0.0324,0.013523,0.002678,0.000431,0.322850
4776000,0.0324,0.013523,0.002678,0.000431,0.316151
4777000,0.0324,0.013523,0.002678,0.000431,0.329549
4778000,0.0324,0.013523,0.002678,0.000431,0.331312
4779000,0.0324,0.013523,0.002678,0.000431,0.328726
4780000,0.0324,0.013523,0.002678,0.000431,0.312625
4781000,0.0324,0.013523,0.002678,0.000431,0.337188
4782000,0.0324,0.013523,0.002678,0.000431,0.341889
4783000,0.0324,0.013523,0.002678,0.000431,0.326376
4784000,0.0324,0.013523,0.002678,0.000431,0.316503
4785000,0.0324,0.013523,0.002678,0.000431,0.341302
4786000,0.0324,0.013523,0.002678,0.000431,0.327081
4787000,0.0324,0.013523,0.002678,0.000431,0.336248
4788000,0.0324,0.013523,0.002678,0.000431,0.337541
4789000,0.0324,0.013523,0.002678,0.000431,0.338599
4790000,0.0324,0.013523,0.002678,0.000431,0.349764
4791000,0.0324,0.013523,0.002678,0.000431,0.333780
4792000,0.0324,0.013523,0.002678,0.000431,0.317091
4793000,0.0324,0.013523,0.002678,0.000431,0.311450
4794000,0.0324,0.013523,0.002678,0.000431,0.316503
4795000,0.0324,0.013523,0.002678,0.000431,0.310980
4796000,0.0324,0.013523,0.002678,0.000431,0.311450
4797000,0.0324,0.013523,0.002678,0.000431,0.315563
4798000,0.0324,0.013523,0.002678,0.000431,0.318619
4799000,0.0324,0.013523,0.002678,0.000431,0.312860
4800000,0.0324,0.013523,0.002678,0.000431,0.313918
4801000,0.0324,0.013523,0.002678,0.000431,0.324730
4802000,0.0324,0.013523,0.002678,0.000431,0.311920
4803000,0.0324,0.013523,0.002678,0.000431,0.321087
4804000,0.0324,0.013523,0.002678,0.000431,0.325083
4805000,0.0324,0.013523,0.002678,0.000431,0.324613
4806000,0.0324,0.013523,0.002678,0.000431,0.322380
4807000,0.0324,0.013523,0.002678,0.000431,0.319324
4808000,0.0324,0.013523,0.002678,0.000431,0.312037
4809000,0.0324,0.013523,0.002678,0.000431,0.330607
4810000,0.0324,0.013523,0.002678,0.000431,0.320852
4811000,0.0324,0.013523,0.002678,0.000431,0.324025
4812000,0.0324,0.013523,0.002678,0.000431,0.325083
4813000,0.0324,0.013523,0.002678,0.000431,0.320382
4814000,0.0324,0.013523,0.002678,0.000431,0.331782
4815000,0.0324,0.013523,0.002678,0.000431,0.328374
4816000,0.0324,0.013523,0.002678,0.000431,0.322380
4817000,0.0324,0.013523,0.002678,0.000431,0.329667
4818000,0.0324,0.013523,0.002678,0.000431,0.325788
4819000,0.0324,0.013523,0.002678,0.000431,0.332487
4820000,0.0324,0.013523,0.002678,0.000431,0.317679
4821000,0.0324,0.013523,0.002678,0.000431,0.331900
4822000,0.0324,0.013523,0.002678,0.000431,0.332957
4823000,0.0324,0.013523,0.002678,0.000431,0.328844
4824000,0.0324,0.013523,0.002678,0.000431,0.320382
4825000,0.0324,0.013523,0.002678,0.000431,0.310274
4826000,0.0324,0.013523,0.002678,0.000431,0.315916
4827000,0.0324,0.013523,0.002678,0.000431,0.323085
4828000,0.0324,0.013523,0.002678,0.000431,0.328021
4829000,0.0324,0.013523,0.002678,0.000431,0.322497
4830000,0.0324,0.013523,0.002678,0.000431,0.321087
4831000,0.0324,0.013523,0.002678,0.000431,0.324143
4832000,0.0324,0.013523,0.002678,0.000431,0.322732
4833000,0.0324,0.013523,0.002678,0.000431,0.365160
4834000,0.0324,0.013523,0.002678,0.000431,0.334250
4835000,0.0324,0.013523,0.002678,0.000431,0.343065
4836000,0.0324,0.013523,0.002678,0.000431,0.324613
4837000,0.0324,0.013523,0.002678,0.000431,0.322967
4838000,0.0324,0.013523,0.002678,0.000431,0.329079
4839000,0.0324,0.013523,0.002678,0.000431,0.324613
4840000,0.0324,0.013523,0.002678,0.000431,0.313213
4841000,0.0324,0.013523,0.002678,0.000431,0.316386
4842000,0.0324,0.013523,0.002678,0.000431,0.313095
4843000,0.0324,0.013523,0.002678,0.000431,0.325318
4844000,0.0324,0.013523,0.002678,0.000431,0.360929
4845000,0.0324,0.013523,0.002678,0.000431,0.342830
4846000,0.0324,0.013523,0.002678,0.000431,0.319912
4847000,0.0324,0.013523,0.002678,0.000431,0.328961
4848000,0.0324,0.013523,0.002678,0.000431,0.324848
4849000,0.0324,0.013523,0.002678,0.000431,0.327198
4850000,0.0324,0.013523,0.002678,0.000431,0.329549
4851000,0.0324,0.013523,0.002678,0.000431,0.328961
4852000,0.0324,0.013523,0.002678,0.000431,0.316856
4853000,0.0324,0.013523,0.002678,0.000431,0.324378
4854000,0.0324,0.013523,0.002678,0.000431,0.327904
4855000,0.0324,0.013523,0.002678,0.000431,0.309569
4856000,0.0324,0.013523,0.002678,0.000431,0.305808
4857000,0.0324,0.013523,0.002678,0.000431,0.308982
4858000,0.0324,0.013523,0.002678,0.000431,0.325788
4859000,0.0324,0.013523,0.002678,0.000431,0.296406
4860000,0.0324,0.013523,0.002678,0.000431,0.310039
4861000,0.0324,0.013523,0.002678,0.000431,0.312860
4862000,0.0324,0.013523,0.002678,0.000431,0.315563
4863000,0.0324,0.013523,0.002678,0.000431,0.319794
4864000,0.0324,0.013523,0.002678,0.000431,0.326611
4865000,0.0324,0.013523,0.002678,0.000431,0.344593
4866000,0.0324,0.013523,0.002678,0.000431,0.337423
4867000,0.0324,0.013523,0.002678,0.000431,0.321557
4868000,0.0324,0.013523,0.002678,0.000431,0.321322
4869000,0.0324,0.013523,0.002678,0.000431,0.322497
4870000,0.0324,0.013523,0.002678,0.000431,0.316621
4871000,0.0324,0.013523,0.002678,0.000431,0.307219
4872000,0.0324,0.013523,0.002678,0.000431,0.313683
4873000,0.0324,0.013523,0.002678,0.000431,0.324495
4874000,0.0324,0.013523,0.002678,0.000431,0.325083
4875000,0.0324,0.013523,0.002678,0.000431,0.324495
4876000,0.0324,0.013523,0.002678,0.000431,0.327198
4877000,0.0324,0.013523,0.002678,0.000431,0.318619
4878000,0.0324,0.013523,0.002678,0.000431,0.320969
4879000,0.0324,0.013523,0.002678,0.000431,0.331547
4880000,0.0324,0.013523,0.002678,0.000431,0.329784
4881000,0.0324,0.013523,0.002678,0.000431,0.317326
4882000,0.0324,0.013523,0.002678,0.000431,0.325200
4883000,0.0324,0.013523,0.002678,0.000431,0.336483
4884000,0.0324,0.013523,0.002678,0.000431,0.323908
4885000,0.0324,0.013523,0.002678,0.000431,0.345533
4886000,0.0324,0.013523,0.002678,0.000431,0.317326
4887000,0.0324,0.013523,0.002678,0.000431,0.328961
4888000,0.0324,0.013523,0.002678,0.000431,0.331665
4889000,0.0324,0.013523,0.002678,0.000431,0.327434
4890000,0.0324,0.013523,0.002678,0.000431,0.317209
4891000,0.0324,0.013523,0.002678,0.000431,0.325318
4892000,0.0324,0.013523,0.002678,0.000431,0.330019
4893000,0.0324,0.013523,0.002678,0.000431,0.329431
4894000,0.0324,0.013523,0.002678,0.000431,0.330137
4895000,0.0324,0.013523,0.002678,0.000431,0.321557
4896000,0.0324,0.013523,0.002678,0.000431,0.337894
4897000,0.0324,0.013523,0.002678,0.000431,0.332722
4898000,0.0324,0.013523,0.002678,0.000431,0.335778
4899000,0.0324,0.013523,0.002678,0.000431,0.311802
4900000,0.0324,0.013523,0.002678,0.000431,0.297229
4901000,0.0324,0.013523,0.002678,0.000431,0.302753
4902000,0.0324,0.013523,0.002678,0.000431,0.310509
4903000,0.0324,0.013523,0.002678,0.000431,0.314270
4904000,0.0324,0.013523,0.002678,0.000431,0.327081
4905000,0.0324,0.013523,0.002678,0.000431,0.319442
4906000,0.0324,0.013523,0.002678,0.000431,0.308159
4907000,0.0324,0.013523,0.002678,0.000431,0.300049
4908000,0.0324,0.013523,0.002678,0.000431,0.303928
4909000,0.0324,0.013523,0.002678,0.000431,0.333310
4910000,0.0324,0.013523,0.002678,0.000431,0.311802
4911000,0.0324,0.013523,0.002678,0.000431,0.302753
4912000,0.0324,0.013523,0.002678,0.000431,0.303928
4913000,0.0324,0.013523,0.002678,0.000431,0.328726
4914000,0.0324,0.013523,0.002678,0.000431,0.332370
4915000,0.0324,0.013523,0.002678,0.000431,0.320147
4916000,0.0324,0.013523,0.002678,0.000431,0.306984
4917000,0.0324,0.013523,0.002678,0.000431,0.319559
4918000,0.0324,0.013523,0.002678,0.000431,0.308982
4919000,0.0324,0.013523,0.002678,0.000431,0.324378
4920000,0.0324,0.013523,0.002678,0.000431,0.315916
4921000,0.0324,0.013523,0.002678,0.000431,0.304751
4922000,0.0324,0.013523,0.002678,0.000431,0.326141
4923000,0.0324,0.013523,0.002678,0.000431,0.318149
4924000,0.0324,0.013523,0.002678,0.000431,0.327551
4925000,0.0324,0.013523,0.002678,0.000431,0.327904
4926000,0.0324,0.013523,0.002678,0.000431,0.316268
4927000,0.0324,0.013523,0.002678,0.000431,0.313683
4928000,0.0324,0.013523,0.002678,0.000431,0.343652
4929000,0.0324,0.013523,0.002678,0.000431,0.323085
4930000,0.0324,0.013523,0.002678,0.000431,0.325436
4931000,0.0324,0.013523,0.002678,0.000431,0.304633
4932000,0.0324,0.013523,0.002678,0.000431,0.317444
4933000,0.0324,0.013523,0.002678,0.000431,0.323085
4934000,0.0324,0.013523,0.002678,0.000431,0.320029
4935000,0.0324,0.013523,0.002678,0.000431,0.319912
4936000,0.0324,0.013523,0.002678,0.000431,0.325671
4937000,0.0324,0.013523,0.002678,0.000431,0.313565
4938000,0.0324,0.013523,0.002678,0.000431,0.325553
4939000,0.0324,0.013523,0.002678,0.000431,0.358931
4940000,0.0324,0.013523,0.002678,0.000431,0.328961
4941000,0.0324,0.013523,0.002678,0.000431,0.331194
4942000,0.0324,0.013523,0.002678,0.000431,0.328726
4943000,0.0324,0.013523,0.002678,0.000431,0.330489
4944000,0.0324,0.013523,0.002678,0.000431,0.332605
4945000,0.0324,0.013523,0.002678,0.000431,0.328609
4946000,0.0324,0.013523,0.002678,0.000431,0.328491
4947000,0.0324,0.013523,0.002678,0.000431,0.315446
4948000,0.0324,0.013523,0.002678,0.000431,0.313330
4949000,0.0324,0.013523,0.002678,0.000431,0.331900
4950000,0.0324,0.013523,0.002678,0.000431,0.322262
4951000,0.0324,0.013523,0.002678,0.000431,0.318266
4952000,0.0324,0.013523,0.002678,0.000431,0.344358
4953000,0.0324,0.013523,0.002678,0.000431,0.352585
4954000,0.0324,0.013523,0.002678,0.000431,0.341302
4955000,0.0324,0.013523,0.002678,0.000431,0.324143
4956000,0.0324,0.013523,0.002678,0.000431,0.334368
4957000,0.0324,0.013523,0.002678,0.000431,0.334485
4958000,0.0324,0.013523,0.002678,0.000431,0.316974
4959000,0.0324,0.013523,0.002678,0.000431,0.299462
4960000,0.0324,0.013523,0.002678,0.000431,0.315328
4961000,0.0324,0.013523,0.002678,0.000431,0.312037
4962000,0.0324,0.013523,0.002678,0.000431,0.316033
4963000,0.0324,0.013523,0.002678,0.000431,0.322732
4964000,0.0324,0.013523,0.002678,0.000431,0.319794
4965000,0.0324,0.013523,0.002678,0.000431,0.308982
4966000,0.0324,0.013523,0.002678,0.000431,0.318619
4967000,0.0324,0.013523,0.002678,0.000431,0.319089
4968000,0.0324,0.013523,0.002678,0.000431,0.326493
4969000,0.0324,0.013523,0.002678,0.000431,0.313683
4970000,0.0324,0.013523,0.002678,0.000431,0.317914
4971000,0.0324,0.013523,0.002678,0.000431,0.315093
4972000,0.0324,0.013523,0.002678,0.000431,0.316974
4973000,0.0324,0.013523,0.002678,0.000431,0.332957
4974000,0.0324,0.013523,0.002678,0.000431,0.350234
4975000,0.0324,0.013523,0.002678,0.000431,0.344358
4976000,0.0324,0.013523,0.002678,0.000431,0.348824
4977000,0.0324,0.013523,0.002678,0.000431,0.338599
4978000,0.0324,0.013523,0.002678,0.000431,0.327198
4979000,0.0324,0.013523,0.002678,0.000431,0.318149
4980000,0.0324,0.013523,0.002678,0.000431,0.330254
4981000,0.0324,0.013523,0.002678,0.000431,0.348354
4982000,0.0324,0.013523,0.002678,0.000431,0.339539
4983000,0.0324,0.013523,0.002678,0.000431,0.313330
4984000,0.0324,0.013523,0.002678,0.000431,0.321675
4985000,0.0324,0.013523,0.002678,0.000431,0.332605
4986000,0.0324,0.013523,0.002678,0.000431,0.311332
4987000,0.0324,0.013523,0.002678,0.000431,0.316974
4988000,0.0324,0.013523,0.002678,0.000431,0.320617
4989000,0.0324,0.013523,0.002678,0.000431,0.328139
4990000,0.0324,0.013523,0.002678,0.000431,0.323203
4991000,0.0324,0.013523,0.002678,0.000431,0.330489
4992000,0.0324,0.013523,0.002678,0.000431,0.334955
4993000,0.0324,0.013523,0.002678,0.000431,0.344828
4994000,0.0324,0.013523,0.002678,0.000431,0.331194
4995000,0.0324,0.013523,0.002678,0.000431,0.318854
4996000,0.0324,0.013523,0.002678,0.000431,0.308394
4997000,0.0324,0.013523,0.002678,0.000431,0.336836
4998000,0.0324,0.013523,0.002678,0.000431,0.322262
4999000,0.0324,0.013523,0.002678,0.000431,0.331782
