Cycle,Area(mm^2),PeakDynamic(W),SubthresholdLeakage(W),GateLeakage(W),RunTimeDynamic(W)
1000,0.0324,0.013523,0.002678,0.000431,0.000000
2000,0.0324,0.013523,0.002678,0.000431,0.000000
3000,0.0324,0.013523,0.002678,0.000431,0.000000
4000,0.0324,0.013523,0.002678,0.000431,0.000000
5000,0.0324,0.013523,0.002678,0.000431,0.000000
6000,0.0324,0.013523,0.002678,0.000431,1.711445
7000,0.0324,0.013523,0.002678,0.000431,1.410456
8000,0.0324,0.013523,0.002678,0.000431,2.356558
9000,0.0324,0.013523,0.002678,0.000431,1.471923
10000,0.0324,0.013523,0.002678,0.000431,1.276121
11000,0.0324,0.013523,0.002678,0.000431,1.477329
12000,0.0324,0.013523,0.002678,0.000431,1.325365
13000,0.0324,0.013523,0.002678,0.000431,1.106293
14000,0.0324,0.013523,0.002678,0.000431,0.993701
15000,0.0324,0.013523,0.002678,0.000431,0.876995
16000,0.0324,0.013523,0.002678,0.000431,0.794843
17000,0.0324,0.013523,0.002678,0.000431,0.728205
18000,0.0324,0.013523,0.002678,0.000431,0.697647
19000,0.0324,0.013523,0.002678,0.000431,0.657805
20000,0.0324,0.013523,0.002678,0.000431,0.654044
21000,0.0324,0.013523,0.002678,0.000431,0.658275
22000,0.0324,0.013523,0.002678,0.000431,0.664034
23000,0.0324,0.013523,0.002678,0.000431,0.623840
24000,0.0324,0.013523,0.002678,0.000431,0.555908
25000,0.0324,0.013523,0.002678,0.000431,0.521825
26000,0.0324,0.013523,0.002678,0.000431,0.497614
27000,0.0324,0.013523,0.002678,0.000431,0.502903
28000,0.0324,0.013523,0.002678,0.000431,0.527466
29000,0.0324,0.013523,0.002678,0.000431,0.514773
30000,0.0324,0.013523,0.002678,0.000431,0.544391
31000,0.0324,0.013523,0.002678,0.000431,0.541805
32000,0.0324,0.013523,0.002678,0.000431,0.585760
33000,0.0324,0.013523,0.002678,0.000431,0.503256
34000,0.0324,0.013523,0.002678,0.000431,0.499495
35000,0.0324,0.013523,0.002678,0.000431,0.463179
36000,0.0324,0.013523,0.002678,0.000431,0.473756
37000,0.0324,0.013523,0.002678,0.000431,0.439203
38000,0.0324,0.013523,0.002678,0.000431,0.521237
39000,0.0324,0.013523,0.002678,0.000431,0.498672
40000,0.0324,0.013523,0.002678,0.000431,0.398656
41000,0.0324,0.013523,0.002678,0.000431,0.395835
42000,0.0324,0.013523,0.002678,0.000431,0.378206
43000,0.0324,0.013523,0.002678,0.000431,0.376090
44000,0.0324,0.013523,0.002678,0.000431,0.433091
45000,0.0324,0.013523,0.002678,0.000431,0.430506
46000,0.0324,0.013523,0.002678,0.000431,0.429683
47000,0.0324,0.013523,0.002678,0.000431,0.402534
48000,0.0324,0.013523,0.002678,0.000431,0.397715
49000,0.0324,0.013523,0.002678,0.000431,0.360812
50000,0.0324,0.013523,0.002678,0.000431,0.393719
51000,0.0324,0.013523,0.002678,0.000431,0.376443
52000,0.0324,0.013523,0.002678,0.000431,0.364220
53000,0.0324,0.013523,0.002678,0.000431,0.394777
54000,0.0324,0.013523,0.002678,0.000431,0.369861
55000,0.0324,0.013523,0.002678,0.000431,0.318736
56000,0.0324,0.013523,0.002678,0.000431,0.332017
57000,0.0324,0.013523,0.002678,0.000431,0.358108
58000,0.0324,0.013523,0.002678,0.000431,0.421926
59000,0.0324,0.013523,0.002678,0.000431,0.401594
60000,0.0324,0.013523,0.002678,0.000431,0.428273
61000,0.0324,0.013523,0.002678,0.000431,0.410056
62000,0.0324,0.013523,0.002678,0.000431,0.337423
63000,0.0324,0.013523,0.002678,0.000431,0.401829
64000,0.0324,0.013523,0.002678,0.000431,0.375267
65000,0.0324,0.013523,0.002678,0.000431,0.387138
66000,0.0324,0.013523,0.002678,0.000431,0.340362
67000,0.0324,0.013523,0.002678,0.000431,0.305926
68000,0.0324,0.013523,0.002678,0.000431,0.328139
69000,0.0324,0.013523,0.002678,0.000431,0.324965
70000,0.0324,0.013523,0.002678,0.000431,0.373152
71000,0.0324,0.013523,0.002678,0.000431,0.343887
72000,0.0324,0.013523,0.002678,0.000431,0.291822
73000,0.0324,0.013523,0.002678,0.000431,0.325788
74000,0.0324,0.013523,0.002678,0.000431,0.403592
75000,0.0324,0.013523,0.002678,0.000431,0.372329
76000,0.0324,0.013523,0.002678,0.000431,0.403827
77000,0.0324,0.013523,0.002678,0.000431,0.371742
78000,0.0324,0.013523,0.002678,0.000431,0.399948
79000,0.0324,0.013523,0.002678,0.000431,0.412994
80000,0.0324,0.013523,0.002678,0.000431,0.370331
81000,0.0324,0.013523,0.002678,0.000431,0.292998
82000,0.0324,0.013523,0.002678,0.000431,0.289824
83000,0.0324,0.013523,0.002678,0.000431,0.353290
84000,0.0324,0.013523,0.002678,0.000431,0.333075
85000,0.0324,0.013523,0.002678,0.000431,0.308041
86000,0.0324,0.013523,0.002678,0.000431,0.319559
87000,0.0324,0.013523,0.002678,0.000431,0.297699
88000,0.0324,0.013523,0.002678,0.000431,0.376090
89000,0.0324,0.013523,0.002678,0.000431,0.368451
90000,0.0324,0.013523,0.002678,0.000431,0.373505
91000,0.0324,0.013523,0.002678,0.000431,0.358931
92000,0.0324,0.013523,0.002678,0.000431,0.346238
93000,0.0324,0.013523,0.002678,0.000431,0.334838
94000,0.0324,0.013523,0.002678,0.000431,0.344240
95000,0.0324,0.013523,0.002678,0.000431,0.320264
96000,0.0324,0.013523,0.002678,0.000431,0.262558
97000,0.0324,0.013523,0.002678,0.000431,0.269140
98000,0.0324,0.013523,0.002678,0.000431,0.252098
99000,0.0324,0.013523,0.002678,0.000431,0.255154
100000,0.0324,0.013523,0.002678,0.000431,0.277014
101000,0.0324,0.013523,0.002678,0.000431,0.274311
102000,0.0324,0.013523,0.002678,0.000431,0.281362
103000,0.0324,0.013523,0.002678,0.000431,0.313918
104000,0.0324,0.013523,0.002678,0.000431,0.299932
105000,0.0324,0.013523,0.002678,0.000431,0.289354
106000,0.0324,0.013523,0.002678,0.000431,0.262793
107000,0.0324,0.013523,0.002678,0.000431,0.305221
108000,0.0324,0.013523,0.002678,0.000431,0.288649
109000,0.0324,0.013523,0.002678,0.000431,0.225537
110000,0.0324,0.013523,0.002678,0.000431,0.238230
111000,0.0324,0.013523,0.002678,0.000431,0.267847
112000,0.0324,0.013523,0.002678,0.000431,0.308394
113000,0.0324,0.013523,0.002678,0.000431,0.299932
114000,0.0324,0.013523,0.002678,0.000431,0.253978
115000,0.0324,0.013523,0.002678,0.000431,0.262675
116000,0.0324,0.013523,0.002678,0.000431,0.336013
117000,0.0324,0.013523,0.002678,0.000431,0.348941
118000,0.0324,0.013523,0.002678,0.000431,0.310392
119000,0.0324,0.013523,0.002678,0.000431,0.312155
120000,0.0324,0.013523,0.002678,0.000431,0.364455
121000,0.0324,0.013523,0.002678,0.000431,0.371624
122000,0.0324,0.013523,0.002678,0.000431,0.346708
123000,0.0324,0.013523,0.002678,0.000431,0.376678
124000,0.0324,0.013523,0.002678,0.000431,0.364102
125000,0.0324,0.013523,0.002678,0.000431,0.292293
126000,0.0324,0.013523,0.002678,0.000431,0.314976
127000,0.0324,0.013523,0.002678,0.000431,0.329902
128000,0.0324,0.013523,0.002678,0.000431,0.366335
129000,0.0324,0.013523,0.002678,0.000431,0.378558
130000,0.0324,0.013523,0.002678,0.000431,0.328374
131000,0.0324,0.013523,0.002678,0.000431,0.374445
132000,0.0324,0.013523,0.002678,0.000431,0.358343
133000,0.0324,0.013523,0.002678,0.000431,0.386668
134000,0.0324,0.013523,0.002678,0.000431,0.417578
135000,0.0324,0.013523,0.002678,0.000431,0.372917
136000,0.0324,0.013523,0.002678,0.000431,0.404767
137000,0.0324,0.013523,0.002678,0.000431,0.336836
138000,0.0324,0.013523,0.002678,0.000431,0.296994
139000,0.0324,0.013523,0.002678,0.000431,0.328609
140000,0.0324,0.013523,0.002678,0.000431,0.355758
141000,0.0324,0.013523,0.002678,0.000431,0.412759
142000,0.0324,0.013523,0.002678,0.000431,0.360224
143000,0.0324,0.013523,0.002678,0.000431,0.326258
144000,0.0324,0.013523,0.002678,0.000431,0.392309
145000,0.0324,0.013523,0.002678,0.000431,0.337188
146000,0.0324,0.013523,0.002678,0.000431,0.300755
147000,0.0324,0.013523,0.002678,0.000431,0.401241
148000,0.0324,0.013523,0.002678,0.000431,0.515008
149000,0.0324,0.013523,0.002678,0.000431,0.434502
150000,0.0324,0.013523,0.002678,0.000431,0.401476
151000,0.0324,0.013523,0.002678,0.000431,0.328609
152000,0.0324,0.013523,0.002678,0.000431,0.318384
153000,0.0324,0.013523,0.002678,0.000431,0.386080
154000,0.0324,0.013523,0.002678,0.000431,0.456362
155000,0.0324,0.013523,0.002678,0.000431,0.427215
156000,0.0324,0.013523,0.002678,0.000431,0.389018
157000,0.0324,0.013523,0.002678,0.000431,0.417695
158000,0.0324,0.013523,0.002678,0.000431,0.492208
159000,0.0324,0.013523,0.002678,0.000431,0.404297
160000,0.0324,0.013523,0.002678,0.000431,0.379263
161000,0.0324,0.013523,0.002678,0.000431,0.387138
162000,0.0324,0.013523,0.002678,0.000431,0.363632
163000,0.0324,0.013523,0.002678,0.000431,0.377265
164000,0.0324,0.013523,0.002678,0.000431,0.455304
165000,0.0324,0.013523,0.002678,0.000431,0.395482
166000,0.0324,0.013523,0.002678,0.000431,0.394190
167000,0.0324,0.013523,0.002678,0.000431,0.311802
168000,0.0324,0.013523,0.002678,0.000431,0.403474
169000,0.0324,0.013523,0.002678,0.000431,0.451896
170000,0.0324,0.013523,0.002678,0.000431,0.466117
171000,0.0324,0.013523,0.002678,0.000431,0.477047
172000,0.0324,0.013523,0.002678,0.000431,0.512070
173000,0.0324,0.013523,0.002678,0.000431,0.522060
174000,0.0324,0.013523,0.002678,0.000431,0.461416
175000,0.0324,0.013523,0.002678,0.000431,0.390076
176000,0.0324,0.013523,0.002678,0.000431,0.385492
177000,0.0324,0.013523,0.002678,0.000431,0.381732
178000,0.0324,0.013523,0.002678,0.000431,0.512658
179000,0.0324,0.013523,0.002678,0.000431,0.475519
180000,0.0324,0.013523,0.002678,0.000431,0.479633
181000,0.0324,0.013523,0.002678,0.000431,0.531227
182000,0.0324,0.013523,0.002678,0.000431,0.576006
183000,0.0324,0.013523,0.002678,0.000431,0.558847
184000,0.0324,0.013523,0.002678,0.000431,0.589639
185000,0.0324,0.013523,0.002678,0.000431,0.556496
186000,0.0324,0.013523,0.002678,0.000431,0.539337
187000,0.0324,0.013523,0.002678,0.000431,0.574478
188000,0.0324,0.013523,0.002678,0.000431,0.540747
189000,0.0324,0.013523,0.002678,0.000431,0.484686
190000,0.0324,0.013523,0.002678,0.000431,0.612087
191000,0.0324,0.013523,0.002678,0.000431,0.587993
192000,0.0324,0.013523,0.002678,0.000431,0.599629
193000,0.0324,0.013523,0.002678,0.000431,0.634065
194000,0.0324,0.013523,0.002678,0.000431,0.552735
195000,0.0324,0.013523,0.002678,0.000431,0.547681
196000,0.0324,0.013523,0.002678,0.000431,0.639236
197000,0.0324,0.013523,0.002678,0.000431,0.793198
198000,0.0324,0.013523,0.002678,0.000431,0.705874
199000,0.0324,0.013523,0.002678,0.000431,0.675787
200000,0.0324,0.013523,0.002678,0.000431,0.646287
201000,0.0324,0.013523,0.002678,0.000431,0.678373
202000,0.0324,0.013523,0.002678,0.000431,0.502903
203000,0.0324,0.013523,0.002678,0.000431,0.710575
204000,0.0324,0.013523,0.002678,0.000431,0.590579
205000,0.0324,0.013523,0.002678,0.000431,0.585055
206000,0.0324,0.013523,0.002678,0.000431,0.609384
207000,0.0324,0.013523,0.002678,0.000431,0.779682
208000,0.0324,0.013523,0.002678,0.000431,0.672261
209000,0.0324,0.013523,0.002678,0.000431,0.652869
210000,0.0324,0.013523,0.002678,0.000431,0.698588
211000,0.0324,0.013523,0.002678,0.000431,0.689068
212000,0.0324,0.013523,0.002678,0.000431,0.742190
213000,0.0324,0.013523,0.002678,0.000431,0.826693
214000,0.0324,0.013523,0.002678,0.000431,0.721858
215000,0.0324,0.013523,0.002678,0.000431,0.824225
216000,0.0324,0.013523,0.002678,0.000431,0.792257
217000,0.0324,0.013523,0.002678,0.000431,0.937992
218000,0.0324,0.013523,0.002678,0.000431,0.874527
219000,0.0324,0.013523,0.002678,0.000431,0.904732
220000,0.0324,0.013523,0.002678,0.000431,0.900031
221000,0.0324,0.013523,0.002678,0.000431,0.896975
222000,0.0324,0.013523,0.002678,0.000431,1.015796
223000,0.0324,0.013523,0.002678,0.000431,0.937287
224000,0.0324,0.013523,0.002678,0.000431,1.042240
225000,0.0324,0.013523,0.002678,0.000431,1.061750
226000,0.0324,0.013523,0.002678,0.000431,1.048586
227000,0.0324,0.013523,0.002678,0.000431,1.081612
228000,0.0324,0.013523,0.002678,0.000431,1.213008
229000,0.0324,0.013523,0.002678,0.000431,1.153657
230000,0.0324,0.013523,0.002678,0.000431,1.197377
231000,0.0324,0.013523,0.002678,0.000431,1.170346
232000,0.0324,0.013523,0.002678,0.000431,1.205722
233000,0.0324,0.013523,0.002678,0.000431,1.222528
234000,0.0324,0.013523,0.002678,0.000431,1.223821
235000,0.0324,0.013523,0.002678,0.000431,0.438498
236000,0.0324,0.013523,0.002678,0.000431,0.068872
237000,0.0324,0.013523,0.002678,0.000431,0.029147
238000,0.0324,0.013523,0.002678,0.000431,0.026209
239000,0.0324,0.013523,0.002678,0.000431,0.026091
240000,0.0324,0.013523,0.002678,0.000431,0.022683
241000,0.0324,0.013523,0.002678,0.000431,0.025386
242000,0.0324,0.013523,0.002678,0.000431,0.024798
243000,0.0324,0.013523,0.002678,0.000431,0.024798
244000,0.0324,0.013523,0.002678,0.000431,0.020685
245000,0.0324,0.013523,0.002678,0.000431,0.021978
246000,0.0324,0.013523,0.002678,0.000431,0.022448
247000,0.0324,0.013523,0.002678,0.000431,0.021743
248000,0.0324,0.013523,0.002678,0.000431,0.021625
249000,0.0324,0.013523,0.002678,0.000431,0.019275
250000,0.0324,0.013523,0.002678,0.000431,0.019275
251000,0.0324,0.013523,0.002678,0.000431,0.019275
252000,0.0324,0.013523,0.002678,0.000431,0.017512
253000,0.0324,0.013523,0.002678,0.000431,0.016454
254000,0.0324,0.013523,0.002678,0.000431,0.017394
255000,0.0324,0.013523,0.002678,0.000431,0.017277
256000,0.0324,0.013523,0.002678,0.000431,0.018452
257000,0.0324,0.013523,0.002678,0.000431,0.016571
258000,0.0324,0.013523,0.002678,0.000431,0.015631
259000,0.0324,0.013523,0.002678,0.000431,0.016336
260000,0.0324,0.013523,0.002678,0.000431,0.016101
261000,0.0324,0.013523,0.002678,0.000431,0.016101
262000,0.0324,0.013523,0.002678,0.000431,0.015749
263000,0.0324,0.013523,0.002678,0.000431,0.016571
264000,0.0324,0.013523,0.002678,0.000431,0.014221
265000,0.0324,0.013523,0.002678,0.000431,0.017159
266000,0.0324,0.013523,0.002678,0.000431,0.016336
267000,0.0324,0.013523,0.002678,0.000431,0.014573
268000,0.0324,0.013523,0.002678,0.000431,0.013398
269000,0.0324,0.013523,0.002678,0.000431,0.014103
270000,0.0324,0.013523,0.002678,0.000431,0.014103
271000,0.0324,0.013523,0.002678,0.000431,0.013751
272000,0.0324,0.013523,0.002678,0.000431,0.013751
273000,0.0324,0.013523,0.002678,0.000431,0.014338
274000,0.0324,0.013523,0.002678,0.000431,0.013868
275000,0.0324,0.013523,0.002678,0.000431,0.013046
276000,0.0324,0.013523,0.002678,0.000431,0.014456
277000,0.0324,0.013523,0.002678,0.000431,0.014573
278000,0.0324,0.013523,0.002678,0.000431,0.013516
279000,0.0324,0.013523,0.002678,0.000431,0.014809
280000,0.0324,0.013523,0.002678,0.000431,0.013868
281000,0.0324,0.013523,0.002678,0.000431,0.013046
282000,0.0324,0.013523,0.002678,0.000431,0.013398
283000,0.0324,0.013523,0.002678,0.000431,0.014103
284000,0.0324,0.013523,0.002678,0.000431,0.014221
285000,0.0324,0.013523,0.002678,0.000431,0.011988
286000,0.0324,0.013523,0.002678,0.000431,0.013868
287000,0.0324,0.013523,0.002678,0.000431,0.014456
288000,0.0324,0.013523,0.002678,0.000431,0.012693
289000,0.0324,0.013523,0.002678,0.000431,0.013163
290000,0.0324,0.013523,0.002678,0.000431,0.014691
291000,0.0324,0.013523,0.002678,0.000431,0.013398
292000,0.0324,0.013523,0.002678,0.000431,0.012458
293000,0.0324,0.013523,0.002678,0.000431,0.014338
294000,0.0324,0.013523,0.002678,0.000431,0.013868
295000,0.0324,0.013523,0.002678,0.000431,0.012340
296000,0.0324,0.013523,0.002678,0.000431,0.012811
297000,0.0324,0.013523,0.002678,0.000431,0.013398
298000,0.0324,0.013523,0.002678,0.000431,0.012105
299000,0.0324,0.013523,0.002678,0.000431,0.013046
300000,0.0324,0.013523,0.002678,0.000431,0.013046
301000,0.0324,0.013523,0.002678,0.000431,0.013046
302000,0.0324,0.013523,0.002678,0.000431,0.011518
303000,0.0324,0.013523,0.002678,0.000431,0.012105
304000,0.0324,0.013523,0.002678,0.000431,0.012105
305000,0.0324,0.013523,0.002678,0.000431,0.011635
306000,0.0324,0.013523,0.002678,0.000431,0.012223
307000,0.0324,0.013523,0.002678,0.000431,0.012340
308000,0.0324,0.013523,0.002678,0.000431,0.012223
309000,0.0324,0.013523,0.002678,0.000431,0.010813
310000,0.0324,0.013523,0.002678,0.000431,0.012340
311000,0.0324,0.013523,0.002678,0.000431,0.013281
312000,0.0324,0.013523,0.002678,0.000431,0.011048
313000,0.0324,0.013523,0.002678,0.000431,0.013751
314000,0.0324,0.013523,0.002678,0.000431,0.011165
315000,0.0324,0.013523,0.002678,0.000431,0.011048
316000,0.0324,0.013523,0.002678,0.000431,0.010813
317000,0.0324,0.013523,0.002678,0.000431,0.011753
318000,0.0324,0.013523,0.002678,0.000431,0.011753
319000,0.0324,0.013523,0.002678,0.000431,0.010107
320000,0.0324,0.013523,0.002678,0.000431,0.011165
321000,0.0324,0.013523,0.002678,0.000431,0.010813
322000,0.0324,0.013523,0.002678,0.000431,0.010930
323000,0.0324,0.013523,0.002678,0.000431,0.009520
324000,0.0324,0.013523,0.002678,0.000431,0.011165
325000,0.0324,0.013523,0.002678,0.000431,0.009872
326000,0.0324,0.013523,0.002678,0.000431,0.008580
327000,0.0324,0.013523,0.002678,0.000431,0.010342
328000,0.0324,0.013523,0.002678,0.000431,0.010578
329000,0.0324,0.013523,0.002678,0.000431,0.009637
330000,0.0324,0.013523,0.002678,0.000431,0.010578
331000,0.0324,0.013523,0.002678,0.000431,0.009285
332000,0.0324,0.013523,0.002678,0.000431,0.008580
333000,0.0324,0.013523,0.002678,0.000431,0.008462
334000,0.0324,0.013523,0.002678,0.000431,0.009285
335000,0.0324,0.013523,0.002678,0.000431,0.009167
336000,0.0324,0.013523,0.002678,0.000431,0.008109
337000,0.0324,0.013523,0.002678,0.000431,0.009167
338000,0.0324,0.013523,0.002678,0.000431,0.009167
339000,0.0324,0.013523,0.002678,0.000431,0.008345
340000,0.0324,0.013523,0.002678,0.000431,0.008697
341000,0.0324,0.013523,0.002678,0.000431,0.009167
342000,0.0324,0.013523,0.002678,0.000431,0.009050
343000,0.0324,0.013523,0.002678,0.000431,0.009050
344000,0.0324,0.013523,0.002678,0.000431,0.009637
345000,0.0324,0.013523,0.002678,0.000431,0.007992
346000,0.0324,0.013523,0.002678,0.000431,0.007052
347000,0.0324,0.013523,0.002678,0.000431,0.007404
348000,0.0324,0.013523,0.002678,0.000431,0.007757
349000,0.0324,0.013523,0.002678,0.000431,0.007052
350000,0.0324,0.013523,0.002678,0.000431,0.007287
351000,0.0324,0.013523,0.002678,0.000431,0.008227
352000,0.0324,0.013523,0.002678,0.000431,0.007287
353000,0.0324,0.013523,0.002678,0.000431,0.007757
354000,0.0324,0.013523,0.002678,0.000431,0.007639
355000,0.0324,0.013523,0.002678,0.000431,0.008109
356000,0.0324,0.013523,0.002678,0.000431,0.006464
357000,0.0324,0.013523,0.002678,0.000431,0.006934
358000,0.0324,0.013523,0.002678,0.000431,0.007992
359000,0.0324,0.013523,0.002678,0.000431,0.006699
360000,0.0324,0.013523,0.002678,0.000431,0.006817
361000,0.0324,0.013523,0.002678,0.000431,0.007169
362000,0.0324,0.013523,0.002678,0.000431,0.007287
363000,0.0324,0.013523,0.002678,0.000431,0.007404
364000,0.0324,0.013523,0.002678,0.000431,0.007522
365000,0.0324,0.013523,0.002678,0.000431,0.006699
366000,0.0324,0.013523,0.002678,0.000431,0.006464
367000,0.0324,0.013523,0.002678,0.000431,0.005759
368000,0.0324,0.013523,0.002678,0.000431,0.005876
369000,0.0324,0.013523,0.002678,0.000431,0.005641
370000,0.0324,0.013523,0.002678,0.000431,0.005876
371000,0.0324,0.013523,0.002678,0.000431,0.005759
372000,0.0324,0.013523,0.002678,0.000431,0.005994
373000,0.0324,0.013523,0.002678,0.000431,0.005406
374000,0.0324,0.013523,0.002678,0.000431,0.005289
375000,0.0324,0.013523,0.002678,0.000431,0.005524
376000,0.0324,0.013523,0.002678,0.000431,0.005641
377000,0.0324,0.013523,0.002678,0.000431,0.005759
378000,0.0324,0.013523,0.002678,0.000431,0.005406
379000,0.0324,0.013523,0.002678,0.000431,0.005171
380000,0.0324,0.013523,0.002678,0.000431,0.004936
381000,0.0324,0.013523,0.002678,0.000431,0.005289
382000,0.0324,0.013523,0.002678,0.000431,0.005524
383000,0.0324,0.013523,0.002678,0.000431,0.005054
384000,0.0324,0.013523,0.002678,0.000431,0.004936
385000,0.0324,0.013523,0.002678,0.000431,0.004936
386000,0.0324,0.013523,0.002678,0.000431,0.004819
387000,0.0324,0.013523,0.002678,0.000431,0.005641
388000,0.0324,0.013523,0.002678,0.000431,0.004819
389000,0.0324,0.013523,0.002678,0.000431,0.005171
390000,0.0324,0.013523,0.002678,0.000431,0.005641
391000,0.0324,0.013523,0.002678,0.000431,0.004584
392000,0.0324,0.013523,0.002678,0.000431,0.005171
393000,0.0324,0.013523,0.002678,0.000431,0.005289
394000,0.0324,0.013523,0.002678,0.000431,0.004936
395000,0.0324,0.013523,0.002678,0.000431,0.005289
396000,0.0324,0.013523,0.002678,0.000431,0.004936
397000,0.0324,0.013523,0.002678,0.000431,0.005289
398000,0.0324,0.013523,0.002678,0.000431,0.003761
399000,0.0324,0.013523,0.002678,0.000431,0.004349
400000,0.0324,0.013523,0.002678,0.000431,0.004113
401000,0.0324,0.013523,0.002678,0.000431,0.004466
402000,0.0324,0.013523,0.002678,0.000431,0.003526
403000,0.0324,0.013523,0.002678,0.000431,0.005054
404000,0.0324,0.013523,0.002678,0.000431,0.003761
405000,0.0324,0.013523,0.002678,0.000431,0.004584
406000,0.0324,0.013523,0.002678,0.000431,0.003173
407000,0.0324,0.013523,0.002678,0.000431,0.003878
408000,0.0324,0.013523,0.002678,0.000431,0.003173
409000,0.0324,0.013523,0.002678,0.000431,0.003408
410000,0.0324,0.013523,0.002678,0.000431,0.003408
411000,0.0324,0.013523,0.002678,0.000431,0.003643
412000,0.0324,0.013523,0.002678,0.000431,0.003291
413000,0.0324,0.013523,0.002678,0.000431,0.003408
414000,0.0324,0.013523,0.002678,0.000431,0.003526
415000,0.0324,0.013523,0.002678,0.000431,0.003408
416000,0.0324,0.013523,0.002678,0.000431,0.003173
417000,0.0324,0.013523,0.002678,0.000431,0.003878
418000,0.0324,0.013523,0.002678,0.000431,0.003526
419000,0.0324,0.013523,0.002678,0.000431,0.003056
420000,0.0324,0.013523,0.002678,0.000431,0.003526
421000,0.0324,0.013523,0.002678,0.000431,0.003643
422000,0.0324,0.013523,0.002678,0.000431,0.003291
423000,0.0324,0.013523,0.002678,0.000431,0.003173
424000,0.0324,0.013523,0.002678,0.000431,0.003996
425000,0.0324,0.013523,0.002678,0.000431,0.003291
426000,0.0324,0.013523,0.002678,0.000431,0.003291
427000,0.0324,0.013523,0.002678,0.000431,0.003526
428000,0.0324,0.013523,0.002678,0.000431,0.003878
429000,0.0324,0.013523,0.002678,0.000431,0.002821
430000,0.0324,0.013523,0.002678,0.000431,0.003643
431000,0.0324,0.013523,0.002678,0.000431,0.003643
432000,0.0324,0.013523,0.002678,0.000431,0.003408
433000,0.0324,0.013523,0.002678,0.000431,0.002821
434000,0.0324,0.013523,0.002678,0.000431,0.003996
435000,0.0324,0.013523,0.002678,0.000431,0.003408
436000,0.0324,0.013523,0.002678,0.000431,0.003408
437000,0.0324,0.013523,0.002678,0.000431,0.003291
438000,0.0324,0.013523,0.002678,0.000431,0.004113
439000,0.0324,0.013523,0.002678,0.000431,0.002703
440000,0.0324,0.013523,0.002678,0.000431,0.003408
441000,0.0324,0.013523,0.002678,0.000431,0.003643
442000,0.0324,0.013523,0.002678,0.000431,0.003643
443000,0.0324,0.013523,0.002678,0.000431,0.003056
444000,0.0324,0.013523,0.002678,0.000431,0.003878
445000,0.0324,0.013523,0.002678,0.000431,0.003643
446000,0.0324,0.013523,0.002678,0.000431,0.002821
447000,0.0324,0.013523,0.002678,0.000431,0.003408
448000,0.0324,0.013523,0.002678,0.000431,0.003878
449000,0.0324,0.013523,0.002678,0.000431,0.003408
450000,0.0324,0.013523,0.002678,0.000431,0.003643
451000,0.0324,0.013523,0.002678,0.000431,0.003408
452000,0.0324,0.013523,0.002678,0.000431,0.003291
453000,0.0324,0.013523,0.002678,0.000431,0.002821
454000,0.0324,0.013523,0.002678,0.000431,0.003291
455000,0.0324,0.013523,0.002678,0.000431,0.003173
456000,0.0324,0.013523,0.002678,0.000431,0.002586
457000,0.0324,0.013523,0.002678,0.000431,0.002938
458000,0.0324,0.013523,0.002678,0.000431,0.003291
459000,0.0324,0.013523,0.002678,0.000431,0.002938
460000,0.0324,0.013523,0.002678,0.000431,0.002703
461000,0.0324,0.013523,0.002678,0.000431,0.003408
462000,0.0324,0.013523,0.002678,0.000431,0.002821
463000,0.0324,0.013523,0.002678,0.000431,0.003291
464000,0.0324,0.013523,0.002678,0.000431,0.002938
465000,0.0324,0.013523,0.002678,0.000431,0.003056
466000,0.0324,0.013523,0.002678,0.000431,0.002468
467000,0.0324,0.013523,0.002678,0.000431,0.002351
468000,0.0324,0.013523,0.002678,0.000431,0.002938
469000,0.0324,0.013523,0.002678,0.000431,0.002468
470000,0.0324,0.013523,0.002678,0.000431,0.002468
471000,0.0324,0.013523,0.002678,0.000431,0.003056
472000,0.0324,0.013523,0.002678,0.000431,0.002938
473000,0.0324,0.013523,0.002678,0.000431,0.002116
474000,0.0324,0.013523,0.002678,0.000431,0.002703
475000,0.0324,0.013523,0.002678,0.000431,0.002938
476000,0.0324,0.013523,0.002678,0.000431,0.002468
477000,0.0324,0.013523,0.002678,0.000431,0.002586
478000,0.0324,0.013523,0.002678,0.000431,0.003056
479000,0.0324,0.013523,0.002678,0.000431,0.002468
480000,0.0324,0.013523,0.002678,0.000431,0.002233
481000,0.0324,0.013523,0.002678,0.000431,0.003056
482000,0.0324,0.013523,0.002678,0.000431,0.002938
483000,0.0324,0.013523,0.002678,0.000431,0.002468
484000,0.0324,0.013523,0.002678,0.000431,0.002468
485000,0.0324,0.013523,0.002678,0.000431,0.003056
486000,0.0324,0.013523,0.002678,0.000431,0.002233
487000,0.0324,0.013523,0.002678,0.000431,0.002468
488000,0.0324,0.013523,0.002678,0.000431,0.003173
489000,0.0324,0.013523,0.002678,0.000431,0.002821
490000,0.0324,0.013523,0.002678,0.000431,0.002468
491000,0.0324,0.013523,0.002678,0.000431,0.002468
492000,0.0324,0.013523,0.002678,0.000431,0.002938
493000,0.0324,0.013523,0.002678,0.000431,0.002351
494000,0.0324,0.013523,0.002678,0.000431,0.002586
495000,0.0324,0.013523,0.002678,0.000431,0.003056
496000,0.0324,0.013523,0.002678,0.000431,0.002821
497000,0.0324,0.013523,0.002678,0.000431,0.002233
498000,0.0324,0.013523,0.002678,0.000431,0.002821
499000,0.0324,0.013523,0.002678,0.000431,0.002703
500000,0.0324,0.013523,0.002678,0.000431,0.002468
501000,0.0324,0.013523,0.002678,0.000431,0.002703
502000,0.0324,0.013523,0.002678,0.000431,0.003056
503000,0.0324,0.013523,0.002678,0.000431,0.002468
504000,0.0324,0.013523,0.002678,0.000431,0.002233
505000,0.0324,0.013523,0.002678,0.000431,0.003056
506000,0.0324,0.013523,0.002678,0.000431,0.002821
507000,0.0324,0.013523,0.002678,0.000431,0.002468
508000,0.0324,0.013523,0.002678,0.000431,0.002586
509000,0.0324,0.013523,0.002678,0.000431,0.003761
510000,0.0324,0.013523,0.002678,0.000431,0.001998
511000,0.0324,0.013523,0.002678,0.000431,0.001998
512000,0.0324,0.013523,0.002678,0.000431,0.003173
513000,0.0324,0.013523,0.002678,0.000431,0.002351
514000,0.0324,0.013523,0.002678,0.000431,0.001763
515000,0.0324,0.013523,0.002678,0.000431,0.001880
516000,0.0324,0.013523,0.002678,0.000431,0.002233
517000,0.0324,0.013523,0.002678,0.000431,0.001763
518000,0.0324,0.013523,0.002678,0.000431,0.001763
519000,0.0324,0.013523,0.002678,0.000431,0.002351
520000,0.0324,0.013523,0.002678,0.000431,0.002233
521000,0.0324,0.013523,0.002678,0.000431,0.001528
522000,0.0324,0.013523,0.002678,0.000431,0.002233
523000,0.0324,0.013523,0.002678,0.000431,0.002233
524000,0.0324,0.013523,0.002678,0.000431,0.001645
525000,0.0324,0.013523,0.002678,0.000431,0.001880
526000,0.0324,0.013523,0.002678,0.000431,0.002351
527000,0.0324,0.013523,0.002678,0.000431,0.001998
528000,0.0324,0.013523,0.002678,0.000431,0.001645
529000,0.0324,0.013523,0.002678,0.000431,0.002233
530000,0.0324,0.013523,0.002678,0.000431,0.002116
531000,0.0324,0.013523,0.002678,0.000431,0.001880
532000,0.0324,0.013523,0.002678,0.000431,0.001763
533000,0.0324,0.013523,0.002678,0.000431,0.002468
534000,0.0324,0.013523,0.002678,0.000431,0.001763
535000,0.0324,0.013523,0.002678,0.000431,0.001763
536000,0.0324,0.013523,0.002678,0.000431,0.002351
537000,0.0324,0.013523,0.002678,0.000431,0.002116
538000,0.0324,0.013523,0.002678,0.000431,0.001763
539000,0.0324,0.013523,0.002678,0.000431,0.001880
540000,0.0324,0.013523,0.002678,0.000431,0.002233
541000,0.0324,0.013523,0.002678,0.000431,0.001880
542000,0.0324,0.013523,0.002678,0.000431,0.001880
543000,0.0324,0.013523,0.002678,0.000431,0.002233
544000,0.0324,0.013523,0.002678,0.000431,0.002233
545000,0.0324,0.013523,0.002678,0.000431,0.001410
546000,0.0324,0.013523,0.002678,0.000431,0.002233
547000,0.0324,0.013523,0.002678,0.000431,0.002233
548000,0.0324,0.013523,0.002678,0.000431,0.001880
549000,0.0324,0.013523,0.002678,0.000431,0.001763
550000,0.0324,0.013523,0.002678,0.000431,0.002351
551000,0.0324,0.013523,0.002678,0.000431,0.001880
552000,0.0324,0.013523,0.002678,0.000431,0.001645
553000,0.0324,0.013523,0.002678,0.000431,0.002233
554000,0.0324,0.013523,0.002678,0.000431,0.002351
555000,0.0324,0.013523,0.002678,0.000431,0.001763
556000,0.0324,0.013523,0.002678,0.000431,0.001763
557000,0.0324,0.013523,0.002678,0.000431,0.002351
558000,0.0324,0.013523,0.002678,0.000431,0.001880
559000,0.0324,0.013523,0.002678,0.000431,0.001645
560000,0.0324,0.013523,0.002678,0.000431,0.002351
561000,0.0324,0.013523,0.002678,0.000431,0.002351
562000,0.0324,0.013523,0.002678,0.000431,0.001528
563000,0.0324,0.013523,0.002678,0.000431,0.001880
564000,0.0324,0.013523,0.002678,0.000431,0.002233
565000,0.0324,0.013523,0.002678,0.000431,0.001880
566000,0.0324,0.013523,0.002678,0.000431,0.001880
567000,0.0324,0.013523,0.002678,0.000431,0.002351
568000,0.0324,0.013523,0.002678,0.000431,0.002233
569000,0.0324,0.013523,0.002678,0.000431,0.001410
570000,0.0324,0.013523,0.002678,0.000431,0.002116
571000,0.0324,0.013523,0.002678,0.000431,0.002233
572000,0.0324,0.013523,0.002678,0.000431,0.001880
573000,0.0324,0.013523,0.002678,0.000431,0.001880
574000,0.0324,0.013523,0.002678,0.000431,0.002351
575000,0.0324,0.013523,0.002678,0.000431,0.001763
576000,0.0324,0.013523,0.002678,0.000431,0.001763
577000,0.0324,0.013523,0.002678,0.000431,0.002116
578000,0.0324,0.013523,0.002678,0.000431,0.002351
579000,0.0324,0.013523,0.002678,0.000431,0.001880
580000,0.0324,0.013523,0.002678,0.000431,0.001763
581000,0.0324,0.013523,0.002678,0.000431,0.002233
582000,0.0324,0.013523,0.002678,0.000431,0.001763
583000,0.0324,0.013523,0.002678,0.000431,0.001880
584000,0.0324,0.013523,0.002678,0.000431,0.002233
585000,0.0324,0.013523,0.002678,0.000431,0.002938
586000,0.0324,0.013523,0.002678,0.000431,0.001410
587000,0.0324,0.013523,0.002678,0.000431,0.001528
588000,0.0324,0.013523,0.002678,0.000431,0.001880
589000,0.0324,0.013523,0.002678,0.000431,0.001645
590000,0.0324,0.013523,0.002678,0.000431,0.001528
591000,0.0324,0.013523,0.002678,0.000431,0.001763
592000,0.0324,0.013523,0.002678,0.000431,0.001998
593000,0.0324,0.013523,0.002678,0.000431,0.001175
594000,0.0324,0.013523,0.002678,0.000431,0.001763
595000,0.0324,0.013523,0.002678,0.000431,0.001763
596000,0.0324,0.013523,0.002678,0.000431,0.001645
597000,0.0324,0.013523,0.002678,0.000431,0.001528
598000,0.0324,0.013523,0.002678,0.000431,0.001880
599000,0.0324,0.013523,0.002678,0.000431,0.001645
600000,0.0324,0.013523,0.002678,0.000431,0.001410
601000,0.0324,0.013523,0.002678,0.000431,0.001880
602000,0.0324,0.013523,0.002678,0.000431,0.001763
603000,0.0324,0.013523,0.002678,0.000431,0.001645
604000,0.0324,0.013523,0.002678,0.000431,0.001528
605000,0.0324,0.013523,0.002678,0.000431,0.001763
606000,0.0324,0.013523,0.002678,0.000431,0.001645
607000,0.0324,0.013523,0.002678,0.000431,0.001528
608000,0.0324,0.013523,0.002678,0.000431,0.001645
609000,0.0324,0.013523,0.002678,0.000431,0.001998
610000,0.0324,0.013523,0.002678,0.000431,0.001528
611000,0.0324,0.013523,0.002678,0.000431,0.001528
612000,0.0324,0.013523,0.002678,0.000431,0.001880
613000,0.0324,0.013523,0.002678,0.000431,0.001645
614000,0.0324,0.013523,0.002678,0.000431,0.001410
615000,0.0324,0.013523,0.002678,0.000431,0.001763
616000,0.0324,0.013523,0.002678,0.000431,0.001880
617000,0.0324,0.013523,0.002678,0.000431,0.001293
618000,0.0324,0.013523,0.002678,0.000431,0.001763
619000,0.0324,0.013523,0.002678,0.000431,0.001998
620000,0.0324,0.013523,0.002678,0.000431,0.001528
621000,0.0324,0.013523,0.002678,0.000431,0.001410
622000,0.0324,0.013523,0.002678,0.000431,0.001880
623000,0.0324,0.013523,0.002678,0.000431,0.001645
624000,0.0324,0.013523,0.002678,0.000431,0.001410
625000,0.0324,0.013523,0.002678,0.000431,0.001880
626000,0.0324,0.013523,0.002678,0.000431,0.001880
627000,0.0324,0.013523,0.002678,0.000431,0.001528
628000,0.0324,0.013523,0.002678,0.000431,0.001410
629000,0.0324,0.013523,0.002678,0.000431,0.001880
630000,0.0324,0.013523,0.002678,0.000431,0.001645
631000,0.0324,0.013523,0.002678,0.000431,0.001528
632000,0.0324,0.013523,0.002678,0.000431,0.001880
633000,0.0324,0.013523,0.002678,0.000431,0.001763
634000,0.0324,0.013523,0.002678,0.000431,0.001293
635000,0.0324,0.013523,0.002678,0.000431,0.001645
636000,0.0324,0.013523,0.002678,0.000431,0.001998
637000,0.0324,0.013523,0.002678,0.000431,0.001645
638000,0.0324,0.013523,0.002678,0.000431,0.001528
639000,0.0324,0.013523,0.002678,0.000431,0.001645
640000,0.0324,0.013523,0.002678,0.000431,0.001763
641000,0.0324,0.013523,0.002678,0.000431,0.001293
642000,0.0324,0.013523,0.002678,0.000431,0.001880
643000,0.0324,0.013523,0.002678,0.000431,0.001998
644000,0.0324,0.013523,0.002678,0.000431,0.001645
645000,0.0324,0.013523,0.002678,0.000431,0.001293
646000,0.0324,0.013523,0.002678,0.000431,0.001880
647000,0.0324,0.013523,0.002678,0.000431,0.001528
648000,0.0324,0.013523,0.002678,0.000431,0.001528
649000,0.0324,0.013523,0.002678,0.000431,0.001880
650000,0.0324,0.013523,0.002678,0.000431,0.001998
651000,0.0324,0.013523,0.002678,0.000431,0.001293
652000,0.0324,0.013523,0.002678,0.000431,0.001528
653000,0.0324,0.013523,0.002678,0.000431,0.001880
654000,0.0324,0.013523,0.002678,0.000431,0.001645
655000,0.0324,0.013523,0.002678,0.000431,0.001528
656000,0.0324,0.013523,0.002678,0.000431,0.001880
657000,0.0324,0.013523,0.002678,0.000431,0.001763
658000,0.0324,0.013523,0.002678,0.000431,0.001293
659000,0.0324,0.013523,0.002678,0.000431,0.001645
660000,0.0324,0.013523,0.002678,0.000431,0.001998
661000,0.0324,0.013523,0.002678,0.000431,0.001645
662000,0.0324,0.013523,0.002678,0.000431,0.001410
663000,0.0324,0.013523,0.002678,0.000431,0.001998
664000,0.0324,0.013523,0.002678,0.000431,0.001528
665000,0.0324,0.013523,0.002678,0.000431,0.001293
666000,0.0324,0.013523,0.002678,0.000431,0.001880
667000,0.0324,0.013523,0.002678,0.000431,0.001998
668000,0.0324,0.013523,0.002678,0.000431,0.001528
669000,0.0324,0.013523,0.002678,0.000431,0.001528
670000,0.0324,0.013523,0.002678,0.000431,0.001880
671000,0.0324,0.013523,0.002678,0.000431,0.001410
672000,0.0324,0.013523,0.002678,0.000431,0.002351
673000,0.0324,0.013523,0.002678,0.000431,0.001528
674000,0.0324,0.013523,0.002678,0.000431,0.001528
675000,0.0324,0.013523,0.002678,0.000431,0.001293
676000,0.0324,0.013523,0.002678,0.000431,0.001058
677000,0.0324,0.013523,0.002678,0.000431,0.001410
678000,0.0324,0.013523,0.002678,0.000431,0.001293
679000,0.0324,0.013523,0.002678,0.000431,0.001293
680000,0.0324,0.013523,0.002678,0.000431,0.001528
681000,0.0324,0.013523,0.002678,0.000431,0.001410
682000,0.0324,0.013523,0.002678,0.000431,0.001175
683000,0.0324,0.013523,0.002678,0.000431,0.001293
684000,0.0324,0.013523,0.002678,0.000431,0.001410
685000,0.0324,0.013523,0.002678,0.000431,0.001293
686000,0.0324,0.013523,0.002678,0.000431,0.001293
687000,0.0324,0.013523,0.002678,0.000431,0.001528
688000,0.0324,0.013523,0.002678,0.000431,0.001175
689000,0.0324,0.013523,0.002678,0.000431,0.001293
690000,0.0324,0.013523,0.002678,0.000431,0.001293
691000,0.0324,0.013523,0.002678,0.000431,0.001528
692000,0.0324,0.013523,0.002678,0.000431,0.001293
693000,0.0324,0.013523,0.002678,0.000431,0.001293
694000,0.0324,0.013523,0.002678,0.000431,0.001293
695000,0.0324,0.013523,0.002678,0.000431,0.001293
696000,0.0324,0.013523,0.002678,0.000431,0.001175
697000,0.0324,0.013523,0.002678,0.000431,0.001528
698000,0.0324,0.013523,0.002678,0.000431,0.001528
699000,0.0324,0.013523,0.002678,0.000431,0.001293
700000,0.0324,0.013523,0.002678,0.000431,0.001293
701000,0.0324,0.013523,0.002678,0.000431,0.001293
702000,0.0324,0.013523,0.002678,0.000431,0.001175
703000,0.0324,0.013523,0.002678,0.000431,0.001293
704000,0.0324,0.013523,0.002678,0.000431,0.001528
705000,0.0324,0.013523,0.002678,0.000431,0.001410
706000,0.0324,0.013523,0.002678,0.000431,0.001293
707000,0.0324,0.013523,0.002678,0.000431,0.001293
708000,0.0324,0.013523,0.002678,0.000431,0.001293
709000,0.0324,0.013523,0.002678,0.000431,0.001293
710000,0.0324,0.013523,0.002678,0.000431,0.001293
711000,0.0324,0.013523,0.002678,0.000431,0.001528
712000,0.0324,0.013523,0.002678,0.000431,0.001293
713000,0.0324,0.013523,0.002678,0.000431,0.001293
714000,0.0324,0.013523,0.002678,0.000431,0.001293
715000,0.0324,0.013523,0.002678,0.000431,0.001410
716000,0.0324,0.013523,0.002678,0.000431,0.001293
717000,0.0324,0.013523,0.002678,0.000431,0.001293
718000,0.0324,0.013523,0.002678,0.000431,0.001410
719000,0.0324,0.013523,0.002678,0.000431,0.001293
720000,0.0324,0.013523,0.002678,0.000431,0.001293
721000,0.0324,0.013523,0.002678,0.000431,0.001293
722000,0.0324,0.013523,0.002678,0.000431,0.001528
723000,0.0324,0.013523,0.002678,0.000431,0.001293
724000,0.0324,0.013523,0.002678,0.000431,0.001293
725000,0.0324,0.013523,0.002678,0.000431,0.001410
726000,0.0324,0.013523,0.002678,0.000431,0.001293
727000,0.0324,0.013523,0.002678,0.000431,0.001293
728000,0.0324,0.013523,0.002678,0.000431,0.001293
729000,0.0324,0.013523,0.002678,0.000431,0.001410
730000,0.0324,0.013523,0.002678,0.000431,0.001293
731000,0.0324,0.013523,0.002678,0.000431,0.001410
732000,0.0324,0.013523,0.002678,0.000431,0.001293
733000,0.0324,0.013523,0.002678,0.000431,0.001293
734000,0.0324,0.013523,0.002678,0.000431,0.001175
735000,0.0324,0.013523,0.002678,0.000431,0.001528
736000,0.0324,0.013523,0.002678,0.000431,0.001410
737000,0.0324,0.013523,0.002678,0.000431,0.001293
738000,0.0324,0.013523,0.002678,0.000431,0.001410
739000,0.0324,0.013523,0.002678,0.000431,0.001293
740000,0.0324,0.013523,0.002678,0.000431,0.001175
741000,0.0324,0.013523,0.002678,0.000431,0.001293
742000,0.0324,0.013523,0.002678,0.000431,0.001410
743000,0.0324,0.013523,0.002678,0.000431,0.001410
744000,0.0324,0.013523,0.002678,0.000431,0.001410
745000,0.0324,0.013523,0.002678,0.000431,0.001410
746000,0.0324,0.013523,0.002678,0.000431,0.001175
747000,0.0324,0.013523,0.002678,0.000431,0.001293
748000,0.0324,0.013523,0.002678,0.000431,0.001293
749000,0.0324,0.013523,0.002678,0.000431,0.001410
750000,0.0324,0.013523,0.002678,0.000431,0.001410
751000,0.0324,0.013523,0.002678,0.000431,0.001293
752000,0.0324,0.013523,0.002678,0.000431,0.001293
753000,0.0324,0.013523,0.002678,0.000431,0.001410
754000,0.0324,0.013523,0.002678,0.000431,0.001293
755000,0.0324,0.013523,0.002678,0.000431,0.001293
756000,0.0324,0.013523,0.002678,0.000431,0.001410
757000,0.0324,0.013523,0.002678,0.000431,0.001293
758000,0.0324,0.013523,0.002678,0.000431,0.001293
759000,0.0324,0.013523,0.002678,0.000431,0.001410
760000,0.0324,0.013523,0.002678,0.000431,0.001293
761000,0.0324,0.013523,0.002678,0.000431,0.001293
762000,0.0324,0.013523,0.002678,0.000431,0.001410
763000,0.0324,0.013523,0.002678,0.000431,0.001410
764000,0.0324,0.013523,0.002678,0.000431,0.001175
765000,0.0324,0.013523,0.002678,0.000431,0.001293
766000,0.0324,0.013523,0.002678,0.000431,0.001410
767000,0.0324,0.013523,0.002678,0.000431,0.001410
768000,0.0324,0.013523,0.002678,0.000431,0.001293
769000,0.0324,0.013523,0.002678,0.000431,0.001410
770000,0.0324,0.013523,0.002678,0.000431,0.001410
771000,0.0324,0.013523,0.002678,0.000431,0.001058
772000,0.0324,0.013523,0.002678,0.000431,0.001293
773000,0.0324,0.013523,0.002678,0.000431,0.001528
774000,0.0324,0.013523,0.002678,0.000431,0.001293
775000,0.0324,0.013523,0.002678,0.000431,0.001410
776000,0.0324,0.013523,0.002678,0.000431,0.001293
777000,0.0324,0.013523,0.002678,0.000431,0.001410
778000,0.0324,0.013523,0.002678,0.000431,0.001175
779000,0.0324,0.013523,0.002678,0.000431,0.001293
780000,0.0324,0.013523,0.002678,0.000431,0.001410
781000,0.0324,0.013523,0.002678,0.000431,0.001410
782000,0.0324,0.013523,0.002678,0.000431,0.001293
783000,0.0324,0.013523,0.002678,0.000431,0.001410
784000,0.0324,0.013523,0.002678,0.000431,0.001293
785000,0.0324,0.013523,0.002678,0.000431,0.001293
786000,0.0324,0.013523,0.002678,0.000431,0.001293
787000,0.0324,0.013523,0.002678,0.000431,0.001410
788000,0.0324,0.013523,0.002678,0.000431,0.001410
789000,0.0324,0.013523,0.002678,0.000431,0.001175
790000,0.0324,0.013523,0.002678,0.000431,0.001410
791000,0.0324,0.013523,0.002678,0.000431,0.001410
792000,0.0324,0.013523,0.002678,0.000431,0.001293
793000,0.0324,0.013523,0.002678,0.000431,0.001293
794000,0.0324,0.013523,0.002678,0.000431,0.001410
795000,0.0324,0.013523,0.002678,0.000431,0.001293
796000,0.0324,0.013523,0.002678,0.000431,0.001175
797000,0.0324,0.013523,0.002678,0.000431,0.001410
798000,0.0324,0.013523,0.002678,0.000431,0.001528
799000,0.0324,0.013523,0.002678,0.000431,0.001175
800000,0.0324,0.013523,0.002678,0.000431,0.001293
801000,0.0324,0.013523,0.002678,0.000431,0.001528
802000,0.0324,0.013523,0.002678,0.000431,0.001175
803000,0.0324,0.013523,0.002678,0.000431,0.001175
804000,0.0324,0.013523,0.002678,0.000431,0.001528
805000,0.0324,0.013523,0.002678,0.000431,0.001410
806000,0.0324,0.013523,0.002678,0.000431,0.001175
807000,0.0324,0.013523,0.002678,0.000431,0.001410
808000,0.0324,0.013523,0.002678,0.000431,0.001528
809000,0.0324,0.013523,0.002678,0.000431,0.001175
810000,0.0324,0.013523,0.002678,0.000431,0.001175
811000,0.0324,0.013523,0.002678,0.000431,0.001528
812000,0.0324,0.013523,0.002678,0.000431,0.001293
813000,0.0324,0.013523,0.002678,0.000431,0.001293
814000,0.0324,0.013523,0.002678,0.000431,0.001410
815000,0.0324,0.013523,0.002678,0.000431,0.001528
816000,0.0324,0.013523,0.002678,0.000431,0.001058
817000,0.0324,0.013523,0.002678,0.000431,0.001293
818000,0.0324,0.013523,0.002678,0.000431,0.001528
819000,0.0324,0.013523,0.002678,0.000431,0.001175
820000,0.0324,0.013523,0.002678,0.000431,0.001293
821000,0.0324,0.013523,0.002678,0.000431,0.001410
822000,0.0324,0.013523,0.002678,0.000431,0.001410
823000,0.0324,0.013523,0.002678,0.000431,0.001293
824000,0.0324,0.013523,0.002678,0.000431,0.001293
825000,0.0324,0.013523,0.002678,0.000431,0.001410
826000,0.0324,0.013523,0.002678,0.000431,0.001293
827000,0.0324,0.013523,0.002678,0.000431,0.001293
828000,0.0324,0.013523,0.002678,0.000431,0.001410
829000,0.0324,0.013523,0.002678,0.000431,0.001410
830000,0.0324,0.013523,0.002678,0.000431,0.001293
831000,0.0324,0.013523,0.002678,0.000431,0.001293
832000,0.0324,0.013523,0.002678,0.000431,0.001410
833000,0.0324,0.013523,0.002678,0.000431,0.001293
834000,0.0324,0.013523,0.002678,0.000431,0.001175
835000,0.0324,0.013523,0.002678,0.000431,0.001410
836000,0.0324,0.013523,0.002678,0.000431,0.001528
837000,0.0324,0.013523,0.002678,0.000431,0.001175
838000,0.0324,0.013523,0.002678,0.000431,0.001410
839000,0.0324,0.013523,0.002678,0.000431,0.001410
840000,0.0324,0.013523,0.002678,0.000431,0.001763
841000,0.0324,0.013523,0.002678,0.000431,0.000940
842000,0.0324,0.013523,0.002678,0.000431,0.001175
843000,0.0324,0.013523,0.002678,0.000431,0.000940
844000,0.0324,0.013523,0.002678,0.000431,0.000940
845000,0.0324,0.013523,0.002678,0.000431,0.001175
846000,0.0324,0.013523,0.002678,0.000431,0.001058
847000,0.0324,0.013523,0.002678,0.000431,0.000705
848000,0.0324,0.013523,0.002678,0.000431,0.001058
849000,0.0324,0.013523,0.002678,0.000431,0.001175
850000,0.0324,0.013523,0.002678,0.000431,0.000940
851000,0.0324,0.013523,0.002678,0.000431,0.000940
852000,0.0324,0.013523,0.002678,0.000431,0.001175
853000,0.0324,0.013523,0.002678,0.000431,0.000823
854000,0.0324,0.013523,0.002678,0.000431,0.000940
855000,0.0324,0.013523,0.002678,0.000431,0.001058
856000,0.0324,0.013523,0.002678,0.000431,0.001175
857000,0.0324,0.013523,0.002678,0.000431,0.000823
858000,0.0324,0.013523,0.002678,0.000431,0.000940
859000,0.0324,0.013523,0.002678,0.000431,0.001293
860000,0.0324,0.013523,0.002678,0.000431,0.000823
861000,0.0324,0.013523,0.002678,0.000431,0.000940
862000,0.0324,0.013523,0.002678,0.000431,0.001058
863000,0.0324,0.013523,0.002678,0.000431,0.001058
864000,0.0324,0.013523,0.002678,0.000431,0.000823
865000,0.0324,0.013523,0.002678,0.000431,0.001058
866000,0.0324,0.013523,0.002678,0.000431,0.001175
867000,0.0324,0.013523,0.002678,0.000431,0.000940
868000,0.0324,0.013523,0.002678,0.000431,0.000940
869000,0.0324,0.013523,0.002678,0.000431,0.001058
870000,0.0324,0.013523,0.002678,0.000431,0.001058
871000,0.0324,0.013523,0.002678,0.000431,0.000823
872000,0.0324,0.013523,0.002678,0.000431,0.001058
873000,0.0324,0.013523,0.002678,0.000431,0.001175
874000,0.0324,0.013523,0.002678,0.000431,0.000940
875000,0.0324,0.013523,0.002678,0.000431,0.000823
876000,0.0324,0.013523,0.002678,0.000431,0.001175
877000,0.0324,0.013523,0.002678,0.000431,0.001058
878000,0.0324,0.013523,0.002678,0.000431,0.000705
879000,0.0324,0.013523,0.002678,0.000431,0.001175
880000,0.0324,0.013523,0.002678,0.000431,0.001058
881000,0.0324,0.013523,0.002678,0.000431,0.000823
882000,0.0324,0.013523,0.002678,0.000431,0.001058
883000,0.0324,0.013523,0.002678,0.000431,0.001175
884000,0.0324,0.013523,0.002678,0.000431,0.000940
885000,0.0324,0.013523,0.002678,0.000431,0.000823
886000,0.0324,0.013523,0.002678,0.000431,0.001058
887000,0.0324,0.013523,0.002678,0.000431,0.001175
888000,0.0324,0.013523,0.002678,0.000431,0.000823
889000,0.0324,0.013523,0.002678,0.000431,0.001058
890000,0.0324,0.013523,0.002678,0.000431,0.001175
891000,0.0324,0.013523,0.002678,0.000431,0.000940
892000,0.0324,0.013523,0.002678,0.000431,0.000823
893000,0.0324,0.013523,0.002678,0.000431,0.001058
894000,0.0324,0.013523,0.002678,0.000431,0.001058
895000,0.0324,0.013523,0.002678,0.000431,0.000940
896000,0.0324,0.013523,0.002678,0.000431,0.000940
897000,0.0324,0.013523,0.002678,0.000431,0.001293
898000,0.0324,0.013523,0.002678,0.000431,0.000823
899000,0.0324,0.013523,0.002678,0.000431,0.000940
900000,0.0324,0.013523,0.002678,0.000431,0.001058
901000,0.0324,0.013523,0.002678,0.000431,0.001058
902000,0.0324,0.013523,0.002678,0.000431,0.000823
903000,0.0324,0.013523,0.002678,0.000431,0.001058
904000,0.0324,0.013523,0.002678,0.000431,0.001175
905000,0.0324,0.013523,0.002678,0.000431,0.000940
906000,0.0324,0.013523,0.002678,0.000431,0.000823
907000,0.0324,0.013523,0.002678,0.000431,0.001175
908000,0.0324,0.013523,0.002678,0.000431,0.001058
909000,0.0324,0.013523,0.002678,0.000431,0.000823
910000,0.0324,0.013523,0.002678,0.000431,0.001058
911000,0.0324,0.013523,0.002678,0.000431,0.001175
912000,0.0324,0.013523,0.002678,0.000431,0.000940
913000,0.0324,0.013523,0.002678,0.000431,0.000823
914000,0.0324,0.013523,0.002678,0.000431,0.001175
915000,0.0324,0.013523,0.002678,0.000431,0.001058
916000,0.0324,0.013523,0.002678,0.000431,0.000705
917000,0.0324,0.013523,0.002678,0.000431,0.001175
918000,0.0324,0.013523,0.002678,0.000431,0.001058
919000,0.0324,0.013523,0.002678,0.000431,0.000940
920000,0.0324,0.013523,0.002678,0.000431,0.000940
921000,0.0324,0.013523,0.002678,0.000431,0.001175
922000,0.0324,0.013523,0.002678,0.000431,0.000940
923000,0.0324,0.013523,0.002678,0.000431,0.000823
924000,0.0324,0.013523,0.002678,0.000431,0.001058
925000,0.0324,0.013523,0.002678,0.000431,0.001175
926000,0.0324,0.013523,0.002678,0.000431,0.000940
927000,0.0324,0.013523,0.002678,0.000431,0.000940
928000,0.0324,0.013523,0.002678,0.000431,0.001175
929000,0.0324,0.013523,0.002678,0.000431,0.000940
930000,0.0324,0.013523,0.002678,0.000431,0.000823
931000,0.0324,0.013523,0.002678,0.000431,0.001058
932000,0.0324,0.013523,0.002678,0.000431,0.001175
933000,0.0324,0.013523,0.002678,0.000431,0.000940
934000,0.0324,0.013523,0.002678,0.000431,0.000823
935000,0.0324,0.013523,0.002678,0.000431,0.001293
936000,0.0324,0.013523,0.002678,0.000431,0.000940
937000,0.0324,0.013523,0.002678,0.000431,0.000823
938000,0.0324,0.013523,0.002678,0.000431,0.001058
939000,0.0324,0.013523,0.002678,0.000431,0.001175
940000,0.0324,0.013523,0.002678,0.000431,0.000823
941000,0.0324,0.013523,0.002678,0.000431,0.000940
942000,0.0324,0.013523,0.002678,0.000431,0.001293
943000,0.0324,0.013523,0.002678,0.000431,0.000823
944000,0.0324,0.013523,0.002678,0.000431,0.000940
945000,0.0324,0.013523,0.002678,0.000431,0.001058
946000,0.0324,0.013523,0.002678,0.000431,0.001175
947000,0.0324,0.013523,0.002678,0.000431,0.000588
948000,0.0324,0.013523,0.002678,0.000431,0.001175
949000,0.0324,0.013523,0.002678,0.000431,0.001175
950000,0.0324,0.013523,0.002678,0.000431,0.000940
951000,0.0324,0.013523,0.002678,0.000431,0.000940
952000,0.0324,0.013523,0.002678,0.000431,0.001058
953000,0.0324,0.013523,0.002678,0.000431,0.001058
954000,0.0324,0.013523,0.002678,0.000431,0.000705
955000,0.0324,0.013523,0.002678,0.000431,0.001175
956000,0.0324,0.013523,0.002678,0.000431,0.001175
957000,0.0324,0.013523,0.002678,0.000431,0.000940
958000,0.0324,0.013523,0.002678,0.000431,0.000940
959000,0.0324,0.013523,0.002678,0.000431,0.001058
960000,0.0324,0.013523,0.002678,0.000431,0.000940
961000,0.0324,0.013523,0.002678,0.000431,0.000823
962000,0.0324,0.013523,0.002678,0.000431,0.001175
963000,0.0324,0.013523,0.002678,0.000431,0.001175
964000,0.0324,0.013523,0.002678,0.000431,0.000940
965000,0.0324,0.013523,0.002678,0.000431,0.000940
966000,0.0324,0.013523,0.002678,0.000431,0.001058
967000,0.0324,0.013523,0.002678,0.000431,0.000940
968000,0.0324,0.013523,0.002678,0.000431,0.000823
969000,0.0324,0.013523,0.002678,0.000431,0.001175
970000,0.0324,0.013523,0.002678,0.000431,0.001175
971000,0.0324,0.013523,0.002678,0.000431,0.000940
972000,0.0324,0.013523,0.002678,0.000431,0.000823
973000,0.0324,0.013523,0.002678,0.000431,0.001175
974000,0.0324,0.013523,0.002678,0.000431,0.000940
975000,0.0324,0.013523,0.002678,0.000431,0.000823
976000,0.0324,0.013523,0.002678,0.000431,0.001175
977000,0.0324,0.013523,0.002678,0.000431,0.001058
978000,0.0324,0.013523,0.002678,0.000431,0.000940
979000,0.0324,0.013523,0.002678,0.000431,0.000940
980000,0.0324,0.013523,0.002678,0.000431,0.001175
981000,0.0324,0.013523,0.002678,0.000431,0.000940
982000,0.0324,0.013523,0.002678,0.000431,0.000823
983000,0.0324,0.013523,0.002678,0.000431,0.001175
984000,0.0324,0.013523,0.002678,0.000431,0.001058
985000,0.0324,0.013523,0.002678,0.000431,0.000823
986000,0.0324,0.013523,0.002678,0.000431,0.001058
987000,0.0324,0.013523,0.002678,0.000431,0.001175
988000,0.0324,0.013523,0.002678,0.000431,0.000940
989000,0.0324,0.013523,0.002678,0.000431,0.000823
990000,0.0324,0.013523,0.002678,0.000431,0.001058
991000,0.0324,0.013523,0.002678,0.000431,0.001058
992000,0.0324,0.013523,0.002678,0.000431,0.000940
993000,0.0324,0.013523,0.002678,0.000431,0.001058
994000,0.0324,0.013523,0.002678,0.000431,0.001175
995000,0.0324,0.013523,0.002678,0.000431,0.000940
996000,0.0324,0.013523,0.002678,0.000431,0.000823
997000,0.0324,0.013523,0.002678,0.000431,0.001058
998000,0.0324,0.013523,0.002678,0.000431,0.001058
999000,0.0324,0.013523,0.002678,0.000431,0.000940
