Cycle,Area(mm^2),PeakDynamic(W),SubthresholdLeakage(W),GateLeakage(W),RunTimeDynamic(W)
1000000,0.0324,0.013523,0.002678,0.000431,0.001058
1001000,0.0324,0.013523,0.002678,0.000431,0.001175
1002000,0.0324,0.013523,0.002678,0.000431,0.000940
1003000,0.0324,0.013523,0.002678,0.000431,0.000705
1004000,0.0324,0.013523,0.002678,0.000431,0.001175
1005000,0.0324,0.013523,0.002678,0.000431,0.001058
1006000,0.0324,0.013523,0.002678,0.000431,0.000940
1007000,0.0324,0.013523,0.002678,0.000431,0.000940
1008000,0.0324,0.013523,0.002678,0.000431,0.001293
1009000,0.0324,0.013523,0.002678,0.000431,0.000823
1010000,0.0324,0.013523,0.002678,0.000431,0.000823
1011000,0.0324,0.013523,0.002678,0.000431,0.001175
1012000,0.0324,0.013523,0.002678,0.000431,0.001058
1013000,0.0324,0.013523,0.002678,0.000431,0.000940
1014000,0.0324,0.013523,0.002678,0.000431,0.000940
1015000,0.0324,0.013523,0.002678,0.000431,0.001293
1016000,0.0324,0.013523,0.002678,0.000431,0.000823
1017000,0.0324,0.013523,0.002678,0.000431,0.000823
1018000,0.0324,0.013523,0.002678,0.000431,0.001175
1019000,0.0324,0.013523,0.002678,0.000431,0.001058
1020000,0.0324,0.013523,0.002678,0.000431,0.000823
1021000,0.0324,0.013523,0.002678,0.000431,0.001058
1022000,0.0324,0.013523,0.002678,0.000431,0.001293
1023000,0.0324,0.013523,0.002678,0.000431,0.000705
1024000,0.0324,0.013523,0.002678,0.000431,0.000940
1025000,0.0324,0.013523,0.002678,0.000431,0.001175
1026000,0.0324,0.013523,0.002678,0.000431,0.001058
1027000,0.0324,0.013523,0.002678,0.000431,0.000823
1028000,0.0324,0.013523,0.002678,0.000431,0.001058
1029000,0.0324,0.013523,0.002678,0.000431,0.001175
1030000,0.0324,0.013523,0.002678,0.000431,0.000823
1031000,0.0324,0.013523,0.002678,0.000431,0.000940
1032000,0.0324,0.013523,0.002678,0.000431,0.001175
1033000,0.0324,0.013523,0.002678,0.000431,0.001058
1034000,0.0324,0.013523,0.002678,0.000431,0.000823
1035000,0.0324,0.013523,0.002678,0.000431,0.001058
1036000,0.0324,0.013523,0.002678,0.000431,0.001175
1037000,0.0324,0.013523,0.002678,0.000431,0.000823
1038000,0.0324,0.013523,0.002678,0.000431,0.000940
1039000,0.0324,0.013523,0.002678,0.000431,0.001175
1040000,0.0324,0.013523,0.002678,0.000431,0.000940
1041000,0.0324,0.013523,0.002678,0.000431,0.000823
1042000,0.0324,0.013523,0.002678,0.000431,0.001175
1043000,0.0324,0.013523,0.002678,0.000431,0.001175
1044000,0.0324,0.013523,0.002678,0.000431,0.000705
1045000,0.0324,0.013523,0.002678,0.000431,0.001058
1046000,0.0324,0.013523,0.002678,0.000431,0.001175
1047000,0.0324,0.013523,0.002678,0.000431,0.000940
1048000,0.0324,0.013523,0.002678,0.000431,0.000823
1049000,0.0324,0.013523,0.002678,0.000431,0.001175
1050000,0.0324,0.013523,0.002678,0.000431,0.001058
1051000,0.0324,0.013523,0.002678,0.000431,0.000823
1052000,0.0324,0.013523,0.002678,0.000431,0.001058
1053000,0.0324,0.013523,0.002678,0.000431,0.001175
1054000,0.0324,0.013523,0.002678,0.000431,0.000823
1055000,0.0324,0.013523,0.002678,0.000431,0.000940
1056000,0.0324,0.013523,0.002678,0.000431,0.001175
1057000,0.0324,0.013523,0.002678,0.000431,0.001058
1058000,0.0324,0.013523,0.002678,0.000431,0.000823
1059000,0.0324,0.013523,0.002678,0.000431,0.001058
1060000,0.0324,0.013523,0.002678,0.000431,0.001175
1061000,0.0324,0.013523,0.002678,0.000431,0.000823
1062000,0.0324,0.013523,0.002678,0.000431,0.000823
1063000,0.0324,0.013523,0.002678,0.000431,0.001293
1064000,0.0324,0.013523,0.002678,0.000431,0.001058
1065000,0.0324,0.013523,0.002678,0.000431,0.000823
1066000,0.0324,0.013523,0.002678,0.000431,0.001058
1067000,0.0324,0.013523,0.002678,0.000431,0.001058
1068000,0.0324,0.013523,0.002678,0.000431,0.000823
1069000,0.0324,0.013523,0.002678,0.000431,0.000940
1070000,0.0324,0.013523,0.002678,0.000431,0.001293
1071000,0.0324,0.013523,0.002678,0.000431,0.001058
1072000,0.0324,0.013523,0.002678,0.000431,0.000823
1073000,0.0324,0.013523,0.002678,0.000431,0.001058
1074000,0.0324,0.013523,0.002678,0.000431,0.001058
1075000,0.0324,0.013523,0.002678,0.000431,0.000823
1076000,0.0324,0.013523,0.002678,0.000431,0.000940
1077000,0.0324,0.013523,0.002678,0.000431,0.001293
1078000,0.0324,0.013523,0.002678,0.000431,0.001058
1079000,0.0324,0.013523,0.002678,0.000431,0.000823
1080000,0.0324,0.013523,0.002678,0.000431,0.001058
1081000,0.0324,0.013523,0.002678,0.000431,0.001058
1082000,0.0324,0.013523,0.002678,0.000431,0.000823
1083000,0.0324,0.013523,0.002678,0.000431,0.000940
1084000,0.0324,0.013523,0.002678,0.000431,0.001293
1085000,0.0324,0.013523,0.002678,0.000431,0.001058
1086000,0.0324,0.013523,0.002678,0.000431,0.000823
1087000,0.0324,0.013523,0.002678,0.000431,0.000940
1088000,0.0324,0.013523,0.002678,0.000431,0.001175
1089000,0.0324,0.013523,0.002678,0.000431,0.000823
1090000,0.0324,0.013523,0.002678,0.000431,0.000940
1091000,0.0324,0.013523,0.002678,0.000431,0.001293
1092000,0.0324,0.013523,0.002678,0.000431,0.000940
1093000,0.0324,0.013523,0.002678,0.000431,0.001645
1094000,0.0324,0.013523,0.002678,0.000431,0.000705
1095000,0.0324,0.013523,0.002678,0.000431,0.000823
1096000,0.0324,0.013523,0.002678,0.000431,0.000588
1097000,0.0324,0.013523,0.002678,0.000431,0.000588
1098000,0.0324,0.013523,0.002678,0.000431,0.000823
1099000,0.0324,0.013523,0.002678,0.000431,0.000823
1100000,0.0324,0.013523,0.002678,0.000431,0.000353
1101000,0.0324,0.013523,0.002678,0.000431,0.000705
1102000,0.0324,0.013523,0.002678,0.000431,0.000823
1103000,0.0324,0.013523,0.002678,0.000431,0.000588
1104000,0.0324,0.013523,0.002678,0.000431,0.000588
1105000,0.0324,0.013523,0.002678,0.000431,0.000823
1106000,0.0324,0.013523,0.002678,0.000431,0.000823
1107000,0.0324,0.013523,0.002678,0.000431,0.000235
1108000,0.0324,0.013523,0.002678,0.000431,0.000823
1109000,0.0324,0.013523,0.002678,0.000431,0.000823
1110000,0.0324,0.013523,0.002678,0.000431,0.000588
1111000,0.0324,0.013523,0.002678,0.000431,0.000588
1112000,0.0324,0.013523,0.002678,0.000431,0.000823
1113000,0.0324,0.013523,0.002678,0.000431,0.000705
1114000,0.0324,0.013523,0.002678,0.000431,0.000353
1115000,0.0324,0.013523,0.002678,0.000431,0.000823
1116000,0.0324,0.013523,0.002678,0.000431,0.000823
1117000,0.0324,0.013523,0.002678,0.000431,0.000588
1118000,0.0324,0.013523,0.002678,0.000431,0.000588
1119000,0.0324,0.013523,0.002678,0.000431,0.000823
1120000,0.0324,0.013523,0.002678,0.000431,0.000705
1121000,0.0324,0.013523,0.002678,0.000431,0.001293
1122000,0.0324,0.013523,0.002678,0.000431,0.000353
1123000,0.0324,0.013523,0.002678,0.000431,0.000470
1124000,0.0324,0.013523,0.002678,0.000431,0.000353
1125000,0.0324,0.013523,0.002678,0.000431,0.000235
1126000,0.0324,0.013523,0.002678,0.000431,0.000353
1127000,0.0324,0.013523,0.002678,0.000431,0.000470
1128000,0.0324,0.013523,0.002678,0.000431,0.000118
1129000,0.0324,0.013523,0.002678,0.000431,0.000353
1130000,0.0324,0.013523,0.002678,0.000431,0.000470
1131000,0.0324,0.013523,0.002678,0.000431,0.000353
1132000,0.0324,0.013523,0.002678,0.000431,0.000235
1133000,0.0324,0.013523,0.002678,0.000431,0.000353
1134000,0.0324,0.013523,0.002678,0.000431,0.000353
1135000,0.0324,0.013523,0.002678,0.000431,0.000235
1136000,0.0324,0.013523,0.002678,0.000431,0.000353
1137000,0.0324,0.013523,0.002678,0.000431,0.000470
1138000,0.0324,0.013523,0.002678,0.000431,0.000353
1139000,0.0324,0.013523,0.002678,0.000431,0.000235
1140000,0.0324,0.013523,0.002678,0.000431,0.000353
1141000,0.0324,0.013523,0.002678,0.000431,0.000353
1142000,0.0324,0.013523,0.002678,0.000431,0.000235
1143000,0.0324,0.013523,0.002678,0.000431,0.000353
1144000,0.0324,0.013523,0.002678,0.000431,0.000470
1145000,0.0324,0.013523,0.002678,0.000431,0.000353
1146000,0.0324,0.013523,0.002678,0.000431,0.000235
1147000,0.0324,0.013523,0.002678,0.000431,0.000353
1148000,0.0324,0.013523,0.002678,0.000431,0.000353
1149000,0.0324,0.013523,0.002678,0.000431,0.000235
1150000,0.0324,0.013523,0.002678,0.000431,0.000353
1151000,0.0324,0.013523,0.002678,0.000431,0.000470
1152000,0.0324,0.013523,0.002678,0.000431,0.000353
1153000,0.0324,0.013523,0.002678,0.000431,0.000235
1154000,0.0324,0.013523,0.002678,0.000431,0.000353
1155000,0.0324,0.013523,0.002678,0.000431,0.000353
1156000,0.0324,0.013523,0.002678,0.000431,0.000235
1157000,0.0324,0.013523,0.002678,0.000431,0.000353
1158000,0.0324,0.013523,0.002678,0.000431,0.000470
1159000,0.0324,0.013523,0.002678,0.000431,0.000353
1160000,0.0324,0.013523,0.002678,0.000431,0.000235
1161000,0.0324,0.013523,0.002678,0.000431,0.000353
1162000,0.0324,0.013523,0.002678,0.000431,0.000353
1163000,0.0324,0.013523,0.002678,0.000431,0.000235
1164000,0.0324,0.013523,0.002678,0.000431,0.000353
1165000,0.0324,0.013523,0.002678,0.000431,0.000470
1166000,0.0324,0.013523,0.002678,0.000431,0.000353
1167000,0.0324,0.013523,0.002678,0.000431,0.000235
1168000,0.0324,0.013523,0.002678,0.000431,0.000353
1169000,0.0324,0.013523,0.002678,0.000431,0.000353
1170000,0.0324,0.013523,0.002678,0.000431,0.000235
1171000,0.0324,0.013523,0.002678,0.000431,0.000353
1172000,0.0324,0.013523,0.002678,0.000431,0.000470
1173000,0.0324,0.013523,0.002678,0.000431,0.000353
1174000,0.0324,0.013523,0.002678,0.000431,0.000235
1175000,0.0324,0.013523,0.002678,0.000431,0.000353
1176000,0.0324,0.013523,0.002678,0.000431,0.000353
1177000,0.0324,0.013523,0.002678,0.000431,0.000235
1178000,0.0324,0.013523,0.002678,0.000431,0.000353
1179000,0.0324,0.013523,0.002678,0.000431,0.000470
1180000,0.0324,0.013523,0.002678,0.000431,0.000353
1181000,0.0324,0.013523,0.002678,0.000431,0.000118
1182000,0.0324,0.013523,0.002678,0.000431,0.000470
1183000,0.0324,0.013523,0.002678,0.000431,0.000353
1184000,0.0324,0.013523,0.002678,0.000431,0.000235
1185000,0.0324,0.013523,0.002678,0.000431,0.000353
1186000,0.0324,0.013523,0.002678,0.000431,0.000470
1187000,0.0324,0.013523,0.002678,0.000431,0.000353
1188000,0.0324,0.013523,0.002678,0.000431,0.000118
1189000,0.0324,0.013523,0.002678,0.000431,0.000470
1190000,0.0324,0.013523,0.002678,0.000431,0.000353
1191000,0.0324,0.013523,0.002678,0.000431,0.000235
1192000,0.0324,0.013523,0.002678,0.000431,0.000353
1193000,0.0324,0.013523,0.002678,0.000431,0.000470
1194000,0.0324,0.013523,0.002678,0.000431,0.000235
1195000,0.0324,0.013523,0.002678,0.000431,0.000235
1196000,0.0324,0.013523,0.002678,0.000431,0.000470
1197000,0.0324,0.013523,0.002678,0.000431,0.000353
1198000,0.0324,0.013523,0.002678,0.000431,0.000235
1199000,0.0324,0.013523,0.002678,0.000431,0.000353
1200000,0.0324,0.013523,0.002678,0.000431,0.000470
1201000,0.0324,0.013523,0.002678,0.000431,0.000235
1202000,0.0324,0.013523,0.002678,0.000431,0.000235
1203000,0.0324,0.013523,0.002678,0.000431,0.000470
1204000,0.0324,0.013523,0.002678,0.000431,0.000353
1205000,0.0324,0.013523,0.002678,0.000431,0.000235
1206000,0.0324,0.013523,0.002678,0.000431,0.000353
1207000,0.0324,0.013523,0.002678,0.000431,0.000470
1208000,0.0324,0.013523,0.002678,0.000431,0.000235
1209000,0.0324,0.013523,0.002678,0.000431,0.000235
1210000,0.0324,0.013523,0.002678,0.000431,0.000470
1211000,0.0324,0.013523,0.002678,0.000431,0.000353
1212000,0.0324,0.013523,0.002678,0.000431,0.000235
1213000,0.0324,0.013523,0.002678,0.000431,0.000353
1214000,0.0324,0.013523,0.002678,0.000431,0.000470
1215000,0.0324,0.013523,0.002678,0.000431,0.000235
1216000,0.0324,0.013523,0.002678,0.000431,0.000235
1217000,0.0324,0.013523,0.002678,0.000431,0.000470
1218000,0.0324,0.013523,0.002678,0.000431,0.000353
1219000,0.0324,0.013523,0.002678,0.000431,0.000235
1220000,0.0324,0.013523,0.002678,0.000431,0.000353
1221000,0.0324,0.013523,0.002678,0.000431,0.000470
1222000,0.0324,0.013523,0.002678,0.000431,0.000118
1223000,0.0324,0.013523,0.002678,0.000431,0.000353
1224000,0.0324,0.013523,0.002678,0.000431,0.000470
1225000,0.0324,0.013523,0.002678,0.000431,0.000353
1226000,0.0324,0.013523,0.002678,0.000431,0.000235
1227000,0.0324,0.013523,0.002678,0.000431,0.000353
1228000,0.0324,0.013523,0.002678,0.000431,0.000470
1229000,0.0324,0.013523,0.002678,0.000431,0.000118
1230000,0.0324,0.013523,0.002678,0.000431,0.000353
1231000,0.0324,0.013523,0.002678,0.000431,0.000470
1232000,0.0324,0.013523,0.002678,0.000431,0.000353
1233000,0.0324,0.013523,0.002678,0.000431,0.000235
1234000,0.0324,0.013523,0.002678,0.000431,0.000353
1235000,0.0324,0.013523,0.002678,0.000431,0.000470
1236000,0.0324,0.013523,0.002678,0.000431,0.000118
1237000,0.0324,0.013523,0.002678,0.000431,0.000353
1238000,0.0324,0.013523,0.002678,0.000431,0.000470
1239000,0.0324,0.013523,0.002678,0.000431,0.000353
1240000,0.0324,0.013523,0.002678,0.000431,0.000235
1241000,0.0324,0.013523,0.002678,0.000431,0.000353
1242000,0.0324,0.013523,0.002678,0.000431,0.000470
1243000,0.0324,0.013523,0.002678,0.000431,0.000118
1244000,0.0324,0.013523,0.002678,0.000431,0.000353
1245000,0.0324,0.013523,0.002678,0.000431,0.000470
1246000,0.0324,0.013523,0.002678,0.000431,0.000353
1247000,0.0324,0.013523,0.002678,0.000431,0.000235
1248000,0.0324,0.013523,0.002678,0.000431,0.000353
1249000,0.0324,0.013523,0.002678,0.000431,0.000353
1250000,0.0324,0.013523,0.002678,0.000431,0.000235
1251000,0.0324,0.013523,0.002678,0.000431,0.000353
1252000,0.0324,0.013523,0.002678,0.000431,0.000470
1253000,0.0324,0.013523,0.002678,0.000431,0.000353
1254000,0.0324,0.013523,0.002678,0.000431,0.000235
1255000,0.0324,0.013523,0.002678,0.000431,0.000353
1256000,0.0324,0.013523,0.002678,0.000431,0.000353
1257000,0.0324,0.013523,0.002678,0.000431,0.000235
1258000,0.0324,0.013523,0.002678,0.000431,0.000353
1259000,0.0324,0.013523,0.002678,0.000431,0.000470
1260000,0.0324,0.013523,0.002678,0.000431,0.000353
1261000,0.0324,0.013523,0.002678,0.000431,0.000235
1262000,0.0324,0.013523,0.002678,0.000431,0.000353
1263000,0.0324,0.013523,0.002678,0.000431,0.000353
1264000,0.0324,0.013523,0.002678,0.000431,0.000235
1265000,0.0324,0.013523,0.002678,0.000431,0.000353
1266000,0.0324,0.013523,0.002678,0.000431,0.000470
1267000,0.0324,0.013523,0.002678,0.000431,0.000353
1268000,0.0324,0.013523,0.002678,0.000431,0.000235
1269000,0.0324,0.013523,0.002678,0.000431,0.000353
1270000,0.0324,0.013523,0.002678,0.000431,0.000353
1271000,0.0324,0.013523,0.002678,0.000431,0.000235
1272000,0.0324,0.013523,0.002678,0.000431,0.000353
1273000,0.0324,0.013523,0.002678,0.000431,0.000470
1274000,0.0324,0.013523,0.002678,0.000431,0.000353
1275000,0.0324,0.013523,0.002678,0.000431,0.000235
1276000,0.0324,0.013523,0.002678,0.000431,0.000353
1277000,0.0324,0.013523,0.002678,0.000431,0.000353
1278000,0.0324,0.013523,0.002678,0.000431,0.000235
1279000,0.0324,0.013523,0.002678,0.000431,0.000353
1280000,0.0324,0.013523,0.002678,0.000431,0.000470
1281000,0.0324,0.013523,0.002678,0.000431,0.000353
1282000,0.0324,0.013523,0.002678,0.000431,0.000235
1283000,0.0324,0.013523,0.002678,0.000431,0.000353
1284000,0.0324,0.013523,0.002678,0.000431,0.000353
1285000,0.0324,0.013523,0.002678,0.000431,0.000235
1286000,0.0324,0.013523,0.002678,0.000431,0.000353
1287000,0.0324,0.013523,0.002678,0.000431,0.000470
1288000,0.0324,0.013523,0.002678,0.000431,0.000353
1289000,0.0324,0.013523,0.002678,0.000431,0.000235
1290000,0.0324,0.013523,0.002678,0.000431,0.000353
1291000,0.0324,0.013523,0.002678,0.000431,0.000353
1292000,0.0324,0.013523,0.002678,0.000431,0.000235
1293000,0.0324,0.013523,0.002678,0.000431,0.000353
1294000,0.0324,0.013523,0.002678,0.000431,0.000470
1295000,0.0324,0.013523,0.002678,0.000431,0.000353
1296000,0.0324,0.013523,0.002678,0.000431,0.000235
1297000,0.0324,0.013523,0.002678,0.000431,0.000353
1298000,0.0324,0.013523,0.002678,0.000431,0.000353
1299000,0.0324,0.013523,0.002678,0.000431,0.000235
1300000,0.0324,0.013523,0.002678,0.000431,0.000353
1301000,0.0324,0.013523,0.002678,0.000431,0.000470
1302000,0.0324,0.013523,0.002678,0.000431,0.000353
1303000,0.0324,0.013523,0.002678,0.000431,0.000118
1304000,0.0324,0.013523,0.002678,0.000431,0.000470
1305000,0.0324,0.013523,0.002678,0.000431,0.000353
1306000,0.0324,0.013523,0.002678,0.000431,0.000235
1307000,0.0324,0.013523,0.002678,0.000431,0.000353
1308000,0.0324,0.013523,0.002678,0.000431,0.000470
1309000,0.0324,0.013523,0.002678,0.000431,0.000353
1310000,0.0324,0.013523,0.002678,0.000431,0.000118
1311000,0.0324,0.013523,0.002678,0.000431,0.000470
1312000,0.0324,0.013523,0.002678,0.000431,0.000353
1313000,0.0324,0.013523,0.002678,0.000431,0.000235
1314000,0.0324,0.013523,0.002678,0.000431,0.000353
1315000,0.0324,0.013523,0.002678,0.000431,0.000470
1316000,0.0324,0.013523,0.002678,0.000431,0.000353
1317000,0.0324,0.013523,0.002678,0.000431,0.000118
1318000,0.0324,0.013523,0.002678,0.000431,0.000470
1319000,0.0324,0.013523,0.002678,0.000431,0.000353
1320000,0.0324,0.013523,0.002678,0.000431,0.000235
1321000,0.0324,0.013523,0.002678,0.000431,0.000353
1322000,0.0324,0.013523,0.002678,0.000431,0.000470
1323000,0.0324,0.013523,0.002678,0.000431,0.000235
1324000,0.0324,0.013523,0.002678,0.000431,0.000235
1325000,0.0324,0.013523,0.002678,0.000431,0.000470
1326000,0.0324,0.013523,0.002678,0.000431,0.000353
1327000,0.0324,0.013523,0.002678,0.000431,0.000235
1328000,0.0324,0.013523,0.002678,0.000431,0.000353
1329000,0.0324,0.013523,0.002678,0.000431,0.000470
1330000,0.0324,0.013523,0.002678,0.000431,0.000235
1331000,0.0324,0.013523,0.002678,0.000431,0.000235
1332000,0.0324,0.013523,0.002678,0.000431,0.000470
1333000,0.0324,0.013523,0.002678,0.000431,0.000353
1334000,0.0324,0.013523,0.002678,0.000431,0.000235
1335000,0.0324,0.013523,0.002678,0.000431,0.000353
1336000,0.0324,0.013523,0.002678,0.000431,0.000470
1337000,0.0324,0.013523,0.002678,0.000431,0.000235
1338000,0.0324,0.013523,0.002678,0.000431,0.000235
1339000,0.0324,0.013523,0.002678,0.000431,0.000470
1340000,0.0324,0.013523,0.002678,0.000431,0.000353
1341000,0.0324,0.013523,0.002678,0.000431,0.000235
1342000,0.0324,0.013523,0.002678,0.000431,0.000353
1343000,0.0324,0.013523,0.002678,0.000431,0.000470
1344000,0.0324,0.013523,0.002678,0.000431,0.000235
1345000,0.0324,0.013523,0.002678,0.000431,0.000235
1346000,0.0324,0.013523,0.002678,0.000431,0.000470
1347000,0.0324,0.013523,0.002678,0.000431,0.000353
1348000,0.0324,0.013523,0.002678,0.000431,0.000235
1349000,0.0324,0.013523,0.002678,0.000431,0.000353
1350000,0.0324,0.013523,0.002678,0.000431,0.000470
1351000,0.0324,0.013523,0.002678,0.000431,0.000235
1352000,0.0324,0.013523,0.002678,0.000431,0.000235
1353000,0.0324,0.013523,0.002678,0.000431,0.000470
1354000,0.0324,0.013523,0.002678,0.000431,0.000353
1355000,0.0324,0.013523,0.002678,0.000431,0.000235
1356000,0.0324,0.013523,0.002678,0.000431,0.000353
1357000,0.0324,0.013523,0.002678,0.000431,0.000470
1358000,0.0324,0.013523,0.002678,0.000431,0.000235
1359000,0.0324,0.013523,0.002678,0.000431,0.000235
1360000,0.0324,0.013523,0.002678,0.000431,0.000470
1361000,0.0324,0.013523,0.002678,0.000431,0.000353
1362000,0.0324,0.013523,0.002678,0.000431,0.000235
1363000,0.0324,0.013523,0.002678,0.000431,0.000353
1364000,0.0324,0.013523,0.002678,0.000431,0.000470
1365000,0.0324,0.013523,0.002678,0.000431,0.000118
1366000,0.0324,0.013523,0.002678,0.000431,0.000353
1367000,0.0324,0.013523,0.002678,0.000431,0.000470
1368000,0.0324,0.013523,0.002678,0.000431,0.000353
1369000,0.0324,0.013523,0.002678,0.000431,0.000235
1370000,0.0324,0.013523,0.002678,0.000431,0.000353
1371000,0.0324,0.013523,0.002678,0.000431,0.000470
1372000,0.0324,0.013523,0.002678,0.000431,0.000118
1373000,0.0324,0.013523,0.002678,0.000431,0.000353
1374000,0.0324,0.013523,0.002678,0.000431,0.000470
1375000,0.0324,0.013523,0.002678,0.000431,0.000353
1376000,0.0324,0.013523,0.002678,0.000431,0.000235
1377000,0.0324,0.013523,0.002678,0.000431,0.000353
1378000,0.0324,0.013523,0.002678,0.000431,0.000470
1379000,0.0324,0.013523,0.002678,0.000431,0.000118
1380000,0.0324,0.013523,0.002678,0.000431,0.000353
1381000,0.0324,0.013523,0.002678,0.000431,0.000470
1382000,0.0324,0.013523,0.002678,0.000431,0.000353
1383000,0.0324,0.013523,0.002678,0.000431,0.000235
1384000,0.0324,0.013523,0.002678,0.000431,0.000353
1385000,0.0324,0.013523,0.002678,0.000431,0.000353
1386000,0.0324,0.013523,0.002678,0.000431,0.000235
1387000,0.0324,0.013523,0.002678,0.000431,0.000353
1388000,0.0324,0.013523,0.002678,0.000431,0.000470
1389000,0.0324,0.013523,0.002678,0.000431,0.000353
1390000,0.0324,0.013523,0.002678,0.000431,0.000235
1391000,0.0324,0.013523,0.002678,0.000431,0.000353
1392000,0.0324,0.013523,0.002678,0.000431,0.000353
1393000,0.0324,0.013523,0.002678,0.000431,0.000235
1394000,0.0324,0.013523,0.002678,0.000431,0.000353
1395000,0.0324,0.013523,0.002678,0.000431,0.000470
1396000,0.0324,0.013523,0.002678,0.000431,0.000353
1397000,0.0324,0.013523,0.002678,0.000431,0.000235
1398000,0.0324,0.013523,0.002678,0.000431,0.000353
1399000,0.0324,0.013523,0.002678,0.000431,0.000353
1400000,0.0324,0.013523,0.002678,0.000431,0.000235
1401000,0.0324,0.013523,0.002678,0.000431,0.000353
1402000,0.0324,0.013523,0.002678,0.000431,0.000470
1403000,0.0324,0.013523,0.002678,0.000431,0.000353
1404000,0.0324,0.013523,0.002678,0.000431,0.000235
1405000,0.0324,0.013523,0.002678,0.000431,0.000353
1406000,0.0324,0.013523,0.002678,0.000431,0.000353
1407000,0.0324,0.013523,0.002678,0.000431,0.000235
1408000,0.0324,0.013523,0.002678,0.000431,0.000353
1409000,0.0324,0.013523,0.002678,0.000431,0.000470
1410000,0.0324,0.013523,0.002678,0.000431,0.000235
1411000,0.0324,0.013523,0.002678,0.000431,0.000235
1412000,0.0324,0.013523,0.002678,0.000431,0.000470
1413000,0.0324,0.013523,0.002678,0.000431,0.000353
1414000,0.0324,0.013523,0.002678,0.000431,0.000235
1415000,0.0324,0.013523,0.002678,0.000431,0.000353
1416000,0.0324,0.013523,0.002678,0.000431,0.000470
1417000,0.0324,0.013523,0.002678,0.000431,0.000235
1418000,0.0324,0.013523,0.002678,0.000431,0.000235
1419000,0.0324,0.013523,0.002678,0.000431,0.000470
1420000,0.0324,0.013523,0.002678,0.000431,0.000353
1421000,0.0324,0.013523,0.002678,0.000431,0.000235
1422000,0.0324,0.013523,0.002678,0.000431,0.000353
1423000,0.0324,0.013523,0.002678,0.000431,0.000470
1424000,0.0324,0.013523,0.002678,0.000431,0.000118
1425000,0.0324,0.013523,0.002678,0.000431,0.000353
1426000,0.0324,0.013523,0.002678,0.000431,0.000470
1427000,0.0324,0.013523,0.002678,0.000431,0.000353
1428000,0.0324,0.013523,0.002678,0.000431,0.000235
1429000,0.0324,0.013523,0.002678,0.000431,0.000353
1430000,0.0324,0.013523,0.002678,0.000431,0.000353
1431000,0.0324,0.013523,0.002678,0.000431,0.000235
1432000,0.0324,0.013523,0.002678,0.000431,0.000353
1433000,0.0324,0.013523,0.002678,0.000431,0.000470
1434000,0.0324,0.013523,0.002678,0.000431,0.000353
1435000,0.0324,0.013523,0.002678,0.000431,0.000235
1436000,0.0324,0.013523,0.002678,0.000431,0.000353
1437000,0.0324,0.013523,0.002678,0.000431,0.000353
1438000,0.0324,0.013523,0.002678,0.000431,0.000235
1439000,0.0324,0.013523,0.002678,0.000431,0.000353
1440000,0.0324,0.013523,0.002678,0.000431,0.000470
1441000,0.0324,0.013523,0.002678,0.000431,0.000353
1442000,0.0324,0.013523,0.002678,0.000431,0.000235
1443000,0.0324,0.013523,0.002678,0.000431,0.000353
1444000,0.0324,0.013523,0.002678,0.000431,0.000353
1445000,0.0324,0.013523,0.002678,0.000431,0.000235
1446000,0.0324,0.013523,0.002678,0.000431,0.000353
1447000,0.0324,0.013523,0.002678,0.000431,0.000470
1448000,0.0324,0.013523,0.002678,0.000431,0.000353
1449000,0.0324,0.013523,0.002678,0.000431,0.000118
1450000,0.0324,0.013523,0.002678,0.000431,0.000470
1451000,0.0324,0.013523,0.002678,0.000431,0.000353
1452000,0.0324,0.013523,0.002678,0.000431,0.000235
1453000,0.0324,0.013523,0.002678,0.000431,0.000353
1454000,0.0324,0.013523,0.002678,0.000431,0.000470
1455000,0.0324,0.013523,0.002678,0.000431,0.000235
1456000,0.0324,0.013523,0.002678,0.000431,0.000235
1457000,0.0324,0.013523,0.002678,0.000431,0.000470
1458000,0.0324,0.013523,0.002678,0.000431,0.000353
1459000,0.0324,0.013523,0.002678,0.000431,0.000235
1460000,0.0324,0.013523,0.002678,0.000431,0.000353
1461000,0.0324,0.013523,0.002678,0.000431,0.000470
1462000,0.0324,0.013523,0.002678,0.000431,0.000235
1463000,0.0324,0.013523,0.002678,0.000431,0.000235
1464000,0.0324,0.013523,0.002678,0.000431,0.000470
1465000,0.0324,0.013523,0.002678,0.000431,0.000353
1466000,0.0324,0.013523,0.002678,0.000431,0.000235
1467000,0.0324,0.013523,0.002678,0.000431,0.000353
1468000,0.0324,0.013523,0.002678,0.000431,0.000470
1469000,0.0324,0.013523,0.002678,0.000431,0.000118
1470000,0.0324,0.013523,0.002678,0.000431,0.000353
1471000,0.0324,0.013523,0.002678,0.000431,0.000470
1472000,0.0324,0.013523,0.002678,0.000431,0.000353
1473000,0.0324,0.013523,0.002678,0.000431,0.000235
1474000,0.0324,0.013523,0.002678,0.000431,0.000353
1475000,0.0324,0.013523,0.002678,0.000431,0.000353
1476000,0.0324,0.013523,0.002678,0.000431,0.000235
1477000,0.0324,0.013523,0.002678,0.000431,0.000353
1478000,0.0324,0.013523,0.002678,0.000431,0.000470
1479000,0.0324,0.013523,0.002678,0.000431,0.000353
1480000,0.0324,0.013523,0.002678,0.000431,0.000235
1481000,0.0324,0.013523,0.002678,0.000431,0.000353
1482000,0.0324,0.013523,0.002678,0.000431,0.000353
1483000,0.0324,0.013523,0.002678,0.000431,0.000235
1484000,0.0324,0.013523,0.002678,0.000431,0.000353
1485000,0.0324,0.013523,0.002678,0.000431,0.000470
1486000,0.0324,0.013523,0.002678,0.000431,0.000353
1487000,0.0324,0.013523,0.002678,0.000431,0.000118
1488000,0.0324,0.013523,0.002678,0.000431,0.000470
1489000,0.0324,0.013523,0.002678,0.000431,0.000353
1490000,0.0324,0.013523,0.002678,0.000431,0.000235
1491000,0.0324,0.013523,0.002678,0.000431,0.000353
1492000,0.0324,0.013523,0.002678,0.000431,0.000470
1493000,0.0324,0.013523,0.002678,0.000431,0.000235
1494000,0.0324,0.013523,0.002678,0.000431,0.000235
1495000,0.0324,0.013523,0.002678,0.000431,0.000470
1496000,0.0324,0.013523,0.002678,0.000431,0.000353
1497000,0.0324,0.013523,0.002678,0.000431,0.000235
1498000,0.0324,0.013523,0.002678,0.000431,0.000353
1499000,0.0324,0.013523,0.002678,0.000431,0.000470
1500000,0.0324,0.013523,0.002678,0.000431,0.000235
1501000,0.0324,0.013523,0.002678,0.000431,0.000235
1502000,0.0324,0.013523,0.002678,0.000431,0.000470
1503000,0.0324,0.013523,0.002678,0.000431,0.000353
1504000,0.0324,0.013523,0.002678,0.000431,0.000235
1505000,0.0324,0.013523,0.002678,0.000431,0.000353
1506000,0.0324,0.013523,0.002678,0.000431,0.000470
1507000,0.0324,0.013523,0.002678,0.000431,0.000118
1508000,0.0324,0.013523,0.002678,0.000431,0.000353
1509000,0.0324,0.013523,0.002678,0.000431,0.000470
1510000,0.0324,0.013523,0.002678,0.000431,0.000353
1511000,0.0324,0.013523,0.002678,0.000431,0.000235
1512000,0.0324,0.013523,0.002678,0.000431,0.000353
1513000,0.0324,0.013523,0.002678,0.000431,0.000353
1514000,0.0324,0.013523,0.002678,0.000431,0.000235
1515000,0.0324,0.013523,0.002678,0.000431,0.000353
1516000,0.0324,0.013523,0.002678,0.000431,0.000470
1517000,0.0324,0.013523,0.002678,0.000431,0.000353
1518000,0.0324,0.013523,0.002678,0.000431,0.000235
1519000,0.0324,0.013523,0.002678,0.000431,0.000353
1520000,0.0324,0.013523,0.002678,0.000431,0.000353
1521000,0.0324,0.013523,0.002678,0.000431,0.000235
1522000,0.0324,0.013523,0.002678,0.000431,0.000353
1523000,0.0324,0.013523,0.002678,0.000431,0.000470
1524000,0.0324,0.013523,0.002678,0.000431,0.000353
1525000,0.0324,0.013523,0.002678,0.000431,0.000118
1526000,0.0324,0.013523,0.002678,0.000431,0.000470
1527000,0.0324,0.013523,0.002678,0.000431,0.000353
1528000,0.0324,0.013523,0.002678,0.000431,0.000235
1529000,0.0324,0.013523,0.002678,0.000431,0.000353
1530000,0.0324,0.013523,0.002678,0.000431,0.000470
1531000,0.0324,0.013523,0.002678,0.000431,0.000235
1532000,0.0324,0.013523,0.002678,0.000431,0.000235
1533000,0.0324,0.013523,0.002678,0.000431,0.000470
1534000,0.0324,0.013523,0.002678,0.000431,0.000353
1535000,0.0324,0.013523,0.002678,0.000431,0.000235
1536000,0.0324,0.013523,0.002678,0.000431,0.000353
1537000,0.0324,0.013523,0.002678,0.000431,0.000470
1538000,0.0324,0.013523,0.002678,0.000431,0.000235
1539000,0.0324,0.013523,0.002678,0.000431,0.000235
1540000,0.0324,0.013523,0.002678,0.000431,0.000470
1541000,0.0324,0.013523,0.002678,0.000431,0.000353
1542000,0.0324,0.013523,0.002678,0.000431,0.000235
1543000,0.0324,0.013523,0.002678,0.000431,0.000353
1544000,0.0324,0.013523,0.002678,0.000431,0.000470
1545000,0.0324,0.013523,0.002678,0.000431,0.000235
1546000,0.0324,0.013523,0.002678,0.000431,0.000235
1547000,0.0324,0.013523,0.002678,0.000431,0.000470
1548000,0.0324,0.013523,0.002678,0.000431,0.000353
1549000,0.0324,0.013523,0.002678,0.000431,0.000235
1550000,0.0324,0.013523,0.002678,0.000431,0.000353
1551000,0.0324,0.013523,0.002678,0.000431,0.000470
1552000,0.0324,0.013523,0.002678,0.000431,0.000235
1553000,0.0324,0.013523,0.002678,0.000431,0.000235
1554000,0.0324,0.013523,0.002678,0.000431,0.000470
1555000,0.0324,0.013523,0.002678,0.000431,0.000353
1556000,0.0324,0.013523,0.002678,0.000431,0.000235
1557000,0.0324,0.013523,0.002678,0.000431,0.000353
1558000,0.0324,0.013523,0.002678,0.000431,0.000470
1559000,0.0324,0.013523,0.002678,0.000431,0.000118
1560000,0.0324,0.013523,0.002678,0.000431,0.000353
1561000,0.0324,0.013523,0.002678,0.000431,0.000470
1562000,0.0324,0.013523,0.002678,0.000431,0.000353
1563000,0.0324,0.013523,0.002678,0.000431,0.000235
1564000,0.0324,0.013523,0.002678,0.000431,0.000353
1565000,0.0324,0.013523,0.002678,0.000431,0.000470
1566000,0.0324,0.013523,0.002678,0.000431,0.000118
1567000,0.0324,0.013523,0.002678,0.000431,0.000353
1568000,0.0324,0.013523,0.002678,0.000431,0.000470
1569000,0.0324,0.013523,0.002678,0.000431,0.000353
1570000,0.0324,0.013523,0.002678,0.000431,0.000235
1571000,0.0324,0.013523,0.002678,0.000431,0.000353
1572000,0.0324,0.013523,0.002678,0.000431,0.000353
1573000,0.0324,0.013523,0.002678,0.000431,0.000235
1574000,0.0324,0.013523,0.002678,0.000431,0.000353
1575000,0.0324,0.013523,0.002678,0.000431,0.000470
1576000,0.0324,0.013523,0.002678,0.000431,0.000353
1577000,0.0324,0.013523,0.002678,0.000431,0.000235
1578000,0.0324,0.013523,0.002678,0.000431,0.000353
1579000,0.0324,0.013523,0.002678,0.000431,0.000353
1580000,0.0324,0.013523,0.002678,0.000431,0.000235
1581000,0.0324,0.013523,0.002678,0.000431,0.000353
1582000,0.0324,0.013523,0.002678,0.000431,0.000470
1583000,0.0324,0.013523,0.002678,0.000431,0.000353
1584000,0.0324,0.013523,0.002678,0.000431,0.000235
1585000,0.0324,0.013523,0.002678,0.000431,0.000353
1586000,0.0324,0.013523,0.002678,0.000431,0.000353
1587000,0.0324,0.013523,0.002678,0.000431,0.000235
1588000,0.0324,0.013523,0.002678,0.000431,0.000353
1589000,0.0324,0.013523,0.002678,0.000431,0.000470
1590000,0.0324,0.013523,0.002678,0.000431,0.000353
1591000,0.0324,0.013523,0.002678,0.000431,0.000235
1592000,0.0324,0.013523,0.002678,0.000431,0.000353
1593000,0.0324,0.013523,0.002678,0.000431,0.000353
1594000,0.0324,0.013523,0.002678,0.000431,0.000235
1595000,0.0324,0.013523,0.002678,0.000431,0.000353
1596000,0.0324,0.013523,0.002678,0.000431,0.000470
1597000,0.0324,0.013523,0.002678,0.000431,0.000353
1598000,0.0324,0.013523,0.002678,0.000431,0.000235
1599000,0.0324,0.013523,0.002678,0.000431,0.000353
1600000,0.0324,0.013523,0.002678,0.000431,0.000353
1601000,0.0324,0.013523,0.002678,0.000431,0.000235
1602000,0.0324,0.013523,0.002678,0.000431,0.000353
1603000,0.0324,0.013523,0.002678,0.000431,0.000470
1604000,0.0324,0.013523,0.002678,0.000431,0.000353
1605000,0.0324,0.013523,0.002678,0.000431,0.000118
1606000,0.0324,0.013523,0.002678,0.000431,0.000470
1607000,0.0324,0.013523,0.002678,0.000431,0.000353
1608000,0.0324,0.013523,0.002678,0.000431,0.000235
1609000,0.0324,0.013523,0.002678,0.000431,0.000353
1610000,0.0324,0.013523,0.002678,0.000431,0.000470
1611000,0.0324,0.013523,0.002678,0.000431,0.000353
1612000,0.0324,0.013523,0.002678,0.000431,0.000118
1613000,0.0324,0.013523,0.002678,0.000431,0.000470
1614000,0.0324,0.013523,0.002678,0.000431,0.000353
1615000,0.0324,0.013523,0.002678,0.000431,0.000235
1616000,0.0324,0.013523,0.002678,0.000431,0.000353
1617000,0.0324,0.013523,0.002678,0.000431,0.000470
1618000,0.0324,0.013523,0.002678,0.000431,0.000353
1619000,0.0324,0.013523,0.002678,0.000431,0.000118
1620000,0.0324,0.013523,0.002678,0.000431,0.000470
1621000,0.0324,0.013523,0.002678,0.000431,0.000353
1622000,0.0324,0.013523,0.002678,0.000431,0.000235
1623000,0.0324,0.013523,0.002678,0.000431,0.000353
1624000,0.0324,0.013523,0.002678,0.000431,0.000470
1625000,0.0324,0.013523,0.002678,0.000431,0.000353
1626000,0.0324,0.013523,0.002678,0.000431,0.000118
1627000,0.0324,0.013523,0.002678,0.000431,0.000470
1628000,0.0324,0.013523,0.002678,0.000431,0.000353
1629000,0.0324,0.013523,0.002678,0.000431,0.000235
1630000,0.0324,0.013523,0.002678,0.000431,0.000353
1631000,0.0324,0.013523,0.002678,0.000431,0.000470
1632000,0.0324,0.013523,0.002678,0.000431,0.000235
1633000,0.0324,0.013523,0.002678,0.000431,0.000235
1634000,0.0324,0.013523,0.002678,0.000431,0.000470
1635000,0.0324,0.013523,0.002678,0.000431,0.000353
1636000,0.0324,0.013523,0.002678,0.000431,0.000235
1637000,0.0324,0.013523,0.002678,0.000431,0.000353
1638000,0.0324,0.013523,0.002678,0.000431,0.000470
1639000,0.0324,0.013523,0.002678,0.000431,0.000235
1640000,0.0324,0.013523,0.002678,0.000431,0.000235
1641000,0.0324,0.013523,0.002678,0.000431,0.000470
1642000,0.0324,0.013523,0.002678,0.000431,0.000353
1643000,0.0324,0.013523,0.002678,0.000431,0.000235
1644000,0.0324,0.013523,0.002678,0.000431,0.000353
1645000,0.0324,0.013523,0.002678,0.000431,0.000470
1646000,0.0324,0.013523,0.002678,0.000431,0.000235
1647000,0.0324,0.013523,0.002678,0.000431,0.000235
1648000,0.0324,0.013523,0.002678,0.000431,0.000470
1649000,0.0324,0.013523,0.002678,0.000431,0.000353
1650000,0.0324,0.013523,0.002678,0.000431,0.000235
1651000,0.0324,0.013523,0.002678,0.000431,0.000353
1652000,0.0324,0.013523,0.002678,0.000431,0.000470
1653000,0.0324,0.013523,0.002678,0.000431,0.000235
1654000,0.0324,0.013523,0.002678,0.000431,0.000235
1655000,0.0324,0.013523,0.002678,0.000431,0.000470
1656000,0.0324,0.013523,0.002678,0.000431,0.000353
1657000,0.0324,0.013523,0.002678,0.000431,0.000235
1658000,0.0324,0.013523,0.002678,0.000431,0.000353
1659000,0.0324,0.013523,0.002678,0.000431,0.000470
1660000,0.0324,0.013523,0.002678,0.000431,0.000235
1661000,0.0324,0.013523,0.002678,0.000431,0.000235
1662000,0.0324,0.013523,0.002678,0.000431,0.000470
1663000,0.0324,0.013523,0.002678,0.000431,0.000353
1664000,0.0324,0.013523,0.002678,0.000431,0.000235
1665000,0.0324,0.013523,0.002678,0.000431,0.000353
1666000,0.0324,0.013523,0.002678,0.000431,0.000470
1667000,0.0324,0.013523,0.002678,0.000431,0.000118
1668000,0.0324,0.013523,0.002678,0.000431,0.000353
1669000,0.0324,0.013523,0.002678,0.000431,0.000470
1670000,0.0324,0.013523,0.002678,0.000431,0.000353
1671000,0.0324,0.013523,0.002678,0.000431,0.000235
1672000,0.0324,0.013523,0.002678,0.000431,0.000353
1673000,0.0324,0.013523,0.002678,0.000431,0.000353
1674000,0.0324,0.013523,0.002678,0.000431,0.000235
1675000,0.0324,0.013523,0.002678,0.000431,0.000353
1676000,0.0324,0.013523,0.002678,0.000431,0.000470
1677000,0.0324,0.013523,0.002678,0.000431,0.000353
1678000,0.0324,0.013523,0.002678,0.000431,0.000235
1679000,0.0324,0.013523,0.002678,0.000431,0.000353
1680000,0.0324,0.013523,0.002678,0.000431,0.000353
1681000,0.0324,0.013523,0.002678,0.000431,0.000235
1682000,0.0324,0.013523,0.002678,0.000431,0.000353
1683000,0.0324,0.013523,0.002678,0.000431,0.000470
1684000,0.0324,0.013523,0.002678,0.000431,0.000353
1685000,0.0324,0.013523,0.002678,0.000431,0.000235
1686000,0.0324,0.013523,0.002678,0.000431,0.000353
1687000,0.0324,0.013523,0.002678,0.000431,0.000353
1688000,0.0324,0.013523,0.002678,0.000431,0.000235
1689000,0.0324,0.013523,0.002678,0.000431,0.000353
1690000,0.0324,0.013523,0.002678,0.000431,0.000470
1691000,0.0324,0.013523,0.002678,0.000431,0.000353
1692000,0.0324,0.013523,0.002678,0.000431,0.000235
1693000,0.0324,0.013523,0.002678,0.000431,0.000353
1694000,0.0324,0.013523,0.002678,0.000431,0.000353
1695000,0.0324,0.013523,0.002678,0.000431,0.000235
1696000,0.0324,0.013523,0.002678,0.000431,0.000353
1697000,0.0324,0.013523,0.002678,0.000431,0.000470
1698000,0.0324,0.013523,0.002678,0.000431,0.000353
1699000,0.0324,0.013523,0.002678,0.000431,0.000235
1700000,0.0324,0.013523,0.002678,0.000431,0.000353
1701000,0.0324,0.013523,0.002678,0.000431,0.000353
1702000,0.0324,0.013523,0.002678,0.000431,0.000235
1703000,0.0324,0.013523,0.002678,0.000431,0.000353
1704000,0.0324,0.013523,0.002678,0.000431,0.000470
1705000,0.0324,0.013523,0.002678,0.000431,0.000353
1706000,0.0324,0.013523,0.002678,0.000431,0.000235
1707000,0.0324,0.013523,0.002678,0.000431,0.000353
1708000,0.0324,0.013523,0.002678,0.000431,0.000353
1709000,0.0324,0.013523,0.002678,0.000431,0.000235
1710000,0.0324,0.013523,0.002678,0.000431,0.000353
1711000,0.0324,0.013523,0.002678,0.000431,0.000470
1712000,0.0324,0.013523,0.002678,0.000431,0.000353
1713000,0.0324,0.013523,0.002678,0.000431,0.000235
1714000,0.0324,0.013523,0.002678,0.000431,0.000353
1715000,0.0324,0.013523,0.002678,0.000431,0.000353
1716000,0.0324,0.013523,0.002678,0.000431,0.000235
1717000,0.0324,0.013523,0.002678,0.000431,0.000353
1718000,0.0324,0.013523,0.002678,0.000431,0.000470
1719000,0.0324,0.013523,0.002678,0.000431,0.000353
1720000,0.0324,0.013523,0.002678,0.000431,0.000118
1721000,0.0324,0.013523,0.002678,0.000431,0.000470
1722000,0.0324,0.013523,0.002678,0.000431,0.000353
1723000,0.0324,0.013523,0.002678,0.000431,0.000235
1724000,0.0324,0.013523,0.002678,0.000431,0.000353
1725000,0.0324,0.013523,0.002678,0.000431,0.000470
1726000,0.0324,0.013523,0.002678,0.000431,0.000353
1727000,0.0324,0.013523,0.002678,0.000431,0.000118
1728000,0.0324,0.013523,0.002678,0.000431,0.000470
1729000,0.0324,0.013523,0.002678,0.000431,0.000353
1730000,0.0324,0.013523,0.002678,0.000431,0.000235
1731000,0.0324,0.013523,0.002678,0.000431,0.000353
1732000,0.0324,0.013523,0.002678,0.000431,0.000470
1733000,0.0324,0.013523,0.002678,0.000431,0.000235
1734000,0.0324,0.013523,0.002678,0.000431,0.000235
1735000,0.0324,0.013523,0.002678,0.000431,0.000470
1736000,0.0324,0.013523,0.002678,0.000431,0.000353
1737000,0.0324,0.013523,0.002678,0.000431,0.000235
1738000,0.0324,0.013523,0.002678,0.000431,0.000353
1739000,0.0324,0.013523,0.002678,0.000431,0.000470
1740000,0.0324,0.013523,0.002678,0.000431,0.000235
1741000,0.0324,0.013523,0.002678,0.000431,0.000235
1742000,0.0324,0.013523,0.002678,0.000431,0.000470
1743000,0.0324,0.013523,0.002678,0.000431,0.000353
1744000,0.0324,0.013523,0.002678,0.000431,0.000235
1745000,0.0324,0.013523,0.002678,0.000431,0.000353
1746000,0.0324,0.013523,0.002678,0.000431,0.000470
1747000,0.0324,0.013523,0.002678,0.000431,0.000235
1748000,0.0324,0.013523,0.002678,0.000431,0.000235
1749000,0.0324,0.013523,0.002678,0.000431,0.000470
1750000,0.0324,0.013523,0.002678,0.000431,0.000353
1751000,0.0324,0.013523,0.002678,0.000431,0.000235
1752000,0.0324,0.013523,0.002678,0.000431,0.000353
1753000,0.0324,0.013523,0.002678,0.000431,0.000470
1754000,0.0324,0.013523,0.002678,0.000431,0.000235
1755000,0.0324,0.013523,0.002678,0.000431,0.000235
1756000,0.0324,0.013523,0.002678,0.000431,0.000470
1757000,0.0324,0.013523,0.002678,0.000431,0.000353
1758000,0.0324,0.013523,0.002678,0.000431,0.000235
1759000,0.0324,0.013523,0.002678,0.000431,0.000353
1760000,0.0324,0.013523,0.002678,0.000431,0.000470
1761000,0.0324,0.013523,0.002678,0.000431,0.000118
1762000,0.0324,0.013523,0.002678,0.000431,0.000353
1763000,0.0324,0.013523,0.002678,0.000431,0.000470
1764000,0.0324,0.013523,0.002678,0.000431,0.000353
1765000,0.0324,0.013523,0.002678,0.000431,0.000235
1766000,0.0324,0.013523,0.002678,0.000431,0.000353
1767000,0.0324,0.013523,0.002678,0.000431,0.000353
1768000,0.0324,0.013523,0.002678,0.000431,0.000235
1769000,0.0324,0.013523,0.002678,0.000431,0.000353
1770000,0.0324,0.013523,0.002678,0.000431,0.000470
1771000,0.0324,0.013523,0.002678,0.000431,0.000353
1772000,0.0324,0.013523,0.002678,0.000431,0.000235
1773000,0.0324,0.013523,0.002678,0.000431,0.000353
1774000,0.0324,0.013523,0.002678,0.000431,0.000353
1775000,0.0324,0.013523,0.002678,0.000431,0.000235
1776000,0.0324,0.013523,0.002678,0.000431,0.000353
1777000,0.0324,0.013523,0.002678,0.000431,0.000470
1778000,0.0324,0.013523,0.002678,0.000431,0.000353
1779000,0.0324,0.013523,0.002678,0.000431,0.000235
1780000,0.0324,0.013523,0.002678,0.000431,0.000353
1781000,0.0324,0.013523,0.002678,0.000431,0.000353
1782000,0.0324,0.013523,0.002678,0.000431,0.000235
1783000,0.0324,0.013523,0.002678,0.000431,0.000353
1784000,0.0324,0.013523,0.002678,0.000431,0.000470
1785000,0.0324,0.013523,0.002678,0.000431,0.000353
1786000,0.0324,0.013523,0.002678,0.000431,0.000235
1787000,0.0324,0.013523,0.002678,0.000431,0.000353
1788000,0.0324,0.013523,0.002678,0.000431,0.000353
1789000,0.0324,0.013523,0.002678,0.000431,0.000235
1790000,0.0324,0.013523,0.002678,0.000431,0.000353
1791000,0.0324,0.013523,0.002678,0.000431,0.000470
1792000,0.0324,0.013523,0.002678,0.000431,0.000353
1793000,0.0324,0.013523,0.002678,0.000431,0.000235
1794000,0.0324,0.013523,0.002678,0.000431,0.000353
1795000,0.0324,0.013523,0.002678,0.000431,0.000353
1796000,0.0324,0.013523,0.002678,0.000431,0.000235
1797000,0.0324,0.013523,0.002678,0.000431,0.000353
1798000,0.0324,0.013523,0.002678,0.000431,0.000470
1799000,0.0324,0.013523,0.002678,0.000431,0.000353
1800000,0.0324,0.013523,0.002678,0.000431,0.000118
1801000,0.0324,0.013523,0.002678,0.000431,0.000470
1802000,0.0324,0.013523,0.002678,0.000431,0.000353
1803000,0.0324,0.013523,0.002678,0.000431,0.000235
1804000,0.0324,0.013523,0.002678,0.000431,0.000353
1805000,0.0324,0.013523,0.002678,0.000431,0.000470
1806000,0.0324,0.013523,0.002678,0.000431,0.000235
1807000,0.0324,0.013523,0.002678,0.000431,0.000235
1808000,0.0324,0.013523,0.002678,0.000431,0.000470
1809000,0.0324,0.013523,0.002678,0.000431,0.000353
1810000,0.0324,0.013523,0.002678,0.000431,0.000235
1811000,0.0324,0.013523,0.002678,0.000431,0.000353
1812000,0.0324,0.013523,0.002678,0.000431,0.000470
1813000,0.0324,0.013523,0.002678,0.000431,0.000235
1814000,0.0324,0.013523,0.002678,0.000431,0.000235
1815000,0.0324,0.013523,0.002678,0.000431,0.000470
1816000,0.0324,0.013523,0.002678,0.000431,0.000353
1817000,0.0324,0.013523,0.002678,0.000431,0.000235
1818000,0.0324,0.013523,0.002678,0.000431,0.000353
1819000,0.0324,0.013523,0.002678,0.000431,0.000470
1820000,0.0324,0.013523,0.002678,0.000431,0.000235
1821000,0.0324,0.013523,0.002678,0.000431,0.000235
1822000,0.0324,0.013523,0.002678,0.000431,0.000470
1823000,0.0324,0.013523,0.002678,0.000431,0.000353
1824000,0.0324,0.013523,0.002678,0.000431,0.000235
1825000,0.0324,0.013523,0.002678,0.000431,0.000353
1826000,0.0324,0.013523,0.002678,0.000431,0.000470
1827000,0.0324,0.013523,0.002678,0.000431,0.000235
1828000,0.0324,0.013523,0.002678,0.000431,0.000235
1829000,0.0324,0.013523,0.002678,0.000431,0.000470
1830000,0.0324,0.013523,0.002678,0.000431,0.000353
1831000,0.0324,0.013523,0.002678,0.000431,0.000235
1832000,0.0324,0.013523,0.002678,0.000431,0.000353
1833000,0.0324,0.013523,0.002678,0.000431,0.000470
1834000,0.0324,0.013523,0.002678,0.000431,0.000118
1835000,0.0324,0.013523,0.002678,0.000431,0.000353
1836000,0.0324,0.013523,0.002678,0.000431,0.000470
1837000,0.0324,0.013523,0.002678,0.000431,0.000353
1838000,0.0324,0.013523,0.002678,0.000431,0.000235
1839000,0.0324,0.013523,0.002678,0.000431,0.000353
1840000,0.0324,0.013523,0.002678,0.000431,0.000470
1841000,0.0324,0.013523,0.002678,0.000431,0.000118
1842000,0.0324,0.013523,0.002678,0.000431,0.000353
1843000,0.0324,0.013523,0.002678,0.000431,0.000470
1844000,0.0324,0.013523,0.002678,0.000431,0.000353
1845000,0.0324,0.013523,0.002678,0.000431,0.000235
1846000,0.0324,0.013523,0.002678,0.000431,0.000353
1847000,0.0324,0.013523,0.002678,0.000431,0.000353
1848000,0.0324,0.013523,0.002678,0.000431,0.000235
1849000,0.0324,0.013523,0.002678,0.000431,0.000353
1850000,0.0324,0.013523,0.002678,0.000431,0.000470
1851000,0.0324,0.013523,0.002678,0.000431,0.000353
1852000,0.0324,0.013523,0.002678,0.000431,0.000235
1853000,0.0324,0.013523,0.002678,0.000431,0.000353
1854000,0.0324,0.013523,0.002678,0.000431,0.000353
1855000,0.0324,0.013523,0.002678,0.000431,0.000235
1856000,0.0324,0.013523,0.002678,0.000431,0.000353
1857000,0.0324,0.013523,0.002678,0.000431,0.000470
1858000,0.0324,0.013523,0.002678,0.000431,0.000353
1859000,0.0324,0.013523,0.002678,0.000431,0.000235
1860000,0.0324,0.013523,0.002678,0.000431,0.000353
1861000,0.0324,0.013523,0.002678,0.000431,0.000353
1862000,0.0324,0.013523,0.002678,0.000431,0.000235
1863000,0.0324,0.013523,0.002678,0.000431,0.000353
1864000,0.0324,0.013523,0.002678,0.000431,0.000470
1865000,0.0324,0.013523,0.002678,0.000431,0.000353
1866000,0.0324,0.013523,0.002678,0.000431,0.000235
1867000,0.0324,0.013523,0.002678,0.000431,0.000353
1868000,0.0324,0.013523,0.002678,0.000431,0.000353
1869000,0.0324,0.013523,0.002678,0.000431,0.000235
1870000,0.0324,0.013523,0.002678,0.000431,0.000353
1871000,0.0324,0.013523,0.002678,0.000431,0.000470
1872000,0.0324,0.013523,0.002678,0.000431,0.000353
1873000,0.0324,0.013523,0.002678,0.000431,0.000235
1874000,0.0324,0.013523,0.002678,0.000431,0.000353
1875000,0.0324,0.013523,0.002678,0.000431,0.000353
1876000,0.0324,0.013523,0.002678,0.000431,0.000235
1877000,0.0324,0.013523,0.002678,0.000431,0.000353
1878000,0.0324,0.013523,0.002678,0.000431,0.000470
1879000,0.0324,0.013523,0.002678,0.000431,0.000353
1880000,0.0324,0.013523,0.002678,0.000431,0.000235
1881000,0.0324,0.013523,0.002678,0.000431,0.000353
1882000,0.0324,0.013523,0.002678,0.000431,0.000353
1883000,0.0324,0.013523,0.002678,0.000431,0.000235
1884000,0.0324,0.013523,0.002678,0.000431,0.000353
1885000,0.0324,0.013523,0.002678,0.000431,0.000470
1886000,0.0324,0.013523,0.002678,0.000431,0.000353
1887000,0.0324,0.013523,0.002678,0.000431,0.000118
1888000,0.0324,0.013523,0.002678,0.000431,0.000470
1889000,0.0324,0.013523,0.002678,0.000431,0.000353
1890000,0.0324,0.013523,0.002678,0.000431,0.000235
1891000,0.0324,0.013523,0.002678,0.000431,0.000353
1892000,0.0324,0.013523,0.002678,0.000431,0.000470
1893000,0.0324,0.013523,0.002678,0.000431,0.000353
1894000,0.0324,0.013523,0.002678,0.000431,0.000118
1895000,0.0324,0.013523,0.002678,0.000431,0.000470
1896000,0.0324,0.013523,0.002678,0.000431,0.000353
1897000,0.0324,0.013523,0.002678,0.000431,0.000235
1898000,0.0324,0.013523,0.002678,0.000431,0.000353
1899000,0.0324,0.013523,0.002678,0.000431,0.000470
1900000,0.0324,0.013523,0.002678,0.000431,0.000353
1901000,0.0324,0.013523,0.002678,0.000431,0.000118
1902000,0.0324,0.013523,0.002678,0.000431,0.000470
1903000,0.0324,0.013523,0.002678,0.000431,0.000353
1904000,0.0324,0.013523,0.002678,0.000431,0.000235
1905000,0.0324,0.013523,0.002678,0.000431,0.000353
1906000,0.0324,0.013523,0.002678,0.000431,0.000470
1907000,0.0324,0.013523,0.002678,0.000431,0.000235
1908000,0.0324,0.013523,0.002678,0.000431,0.000235
1909000,0.0324,0.013523,0.002678,0.000431,0.000470
1910000,0.0324,0.013523,0.002678,0.000431,0.000353
1911000,0.0324,0.013523,0.002678,0.000431,0.000235
1912000,0.0324,0.013523,0.002678,0.000431,0.000353
1913000,0.0324,0.013523,0.002678,0.000431,0.000470
1914000,0.0324,0.013523,0.002678,0.000431,0.000235
1915000,0.0324,0.013523,0.002678,0.000431,0.000235
1916000,0.0324,0.013523,0.002678,0.000431,0.000470
1917000,0.0324,0.013523,0.002678,0.000431,0.000353
1918000,0.0324,0.013523,0.002678,0.000431,0.000235
1919000,0.0324,0.013523,0.002678,0.000431,0.000353
1920000,0.0324,0.013523,0.002678,0.000431,0.000470
1921000,0.0324,0.013523,0.002678,0.000431,0.000235
1922000,0.0324,0.013523,0.002678,0.000431,0.000235
1923000,0.0324,0.013523,0.002678,0.000431,0.000470
1924000,0.0324,0.013523,0.002678,0.000431,0.000353
1925000,0.0324,0.013523,0.002678,0.000431,0.000235
1926000,0.0324,0.013523,0.002678,0.000431,0.000353
1927000,0.0324,0.013523,0.002678,0.000431,0.000470
1928000,0.0324,0.013523,0.002678,0.000431,0.000118
1929000,0.0324,0.013523,0.002678,0.000431,0.000353
1930000,0.0324,0.013523,0.002678,0.000431,0.000470
1931000,0.0324,0.013523,0.002678,0.000431,0.000353
1932000,0.0324,0.013523,0.002678,0.000431,0.000235
1933000,0.0324,0.013523,0.002678,0.000431,0.000353
1934000,0.0324,0.013523,0.002678,0.000431,0.000353
1935000,0.0324,0.013523,0.002678,0.000431,0.000235
1936000,0.0324,0.013523,0.002678,0.000431,0.000353
1937000,0.0324,0.013523,0.002678,0.000431,0.000470
1938000,0.0324,0.013523,0.002678,0.000431,0.000353
1939000,0.0324,0.013523,0.002678,0.000431,0.000235
1940000,0.0324,0.013523,0.002678,0.000431,0.000353
1941000,0.0324,0.013523,0.002678,0.000431,0.000353
1942000,0.0324,0.013523,0.002678,0.000431,0.000235
1943000,0.0324,0.013523,0.002678,0.000431,0.000353
1944000,0.0324,0.013523,0.002678,0.000431,0.000470
1945000,0.0324,0.013523,0.002678,0.000431,0.000353
1946000,0.0324,0.013523,0.002678,0.000431,0.000235
1947000,0.0324,0.013523,0.002678,0.000431,0.000353
1948000,0.0324,0.013523,0.002678,0.000431,0.000353
1949000,0.0324,0.013523,0.002678,0.000431,0.000235
1950000,0.0324,0.013523,0.002678,0.000431,0.000353
1951000,0.0324,0.013523,0.002678,0.000431,0.000470
1952000,0.0324,0.013523,0.002678,0.000431,0.000353
1953000,0.0324,0.013523,0.002678,0.000431,0.000235
1954000,0.0324,0.013523,0.002678,0.000431,0.000353
1955000,0.0324,0.013523,0.002678,0.000431,0.000353
1956000,0.0324,0.013523,0.002678,0.000431,0.000235
1957000,0.0324,0.013523,0.002678,0.000431,0.000353
1958000,0.0324,0.013523,0.002678,0.000431,0.000470
1959000,0.0324,0.013523,0.002678,0.000431,0.000353
1960000,0.0324,0.013523,0.002678,0.000431,0.000118
1961000,0.0324,0.013523,0.002678,0.000431,0.000470
1962000,0.0324,0.013523,0.002678,0.000431,0.000353
1963000,0.0324,0.013523,0.002678,0.000431,0.000235
1964000,0.0324,0.013523,0.002678,0.000431,0.000353
1965000,0.0324,0.013523,0.002678,0.000431,0.000470
1966000,0.0324,0.013523,0.002678,0.000431,0.000235
1967000,0.0324,0.013523,0.002678,0.000431,0.000235
1968000,0.0324,0.013523,0.002678,0.000431,0.000470
1969000,0.0324,0.013523,0.002678,0.000431,0.000353
1970000,0.0324,0.013523,0.002678,0.000431,0.000235
1971000,0.0324,0.013523,0.002678,0.000431,0.000353
1972000,0.0324,0.013523,0.002678,0.000431,0.000470
1973000,0.0324,0.013523,0.002678,0.000431,0.000235
1974000,0.0324,0.013523,0.002678,0.000431,0.000235
1975000,0.0324,0.013523,0.002678,0.000431,0.000470
1976000,0.0324,0.013523,0.002678,0.000431,0.000353
1977000,0.0324,0.013523,0.002678,0.000431,0.000235
1978000,0.0324,0.013523,0.002678,0.000431,0.000353
1979000,0.0324,0.013523,0.002678,0.000431,0.000470
1980000,0.0324,0.013523,0.002678,0.000431,0.000235
1981000,0.0324,0.013523,0.002678,0.000431,0.000235
1982000,0.0324,0.013523,0.002678,0.000431,0.000470
1983000,0.0324,0.013523,0.002678,0.000431,0.000353
1984000,0.0324,0.013523,0.002678,0.000431,0.000235
1985000,0.0324,0.013523,0.002678,0.000431,0.000353
1986000,0.0324,0.013523,0.002678,0.000431,0.000470
1987000,0.0324,0.013523,0.002678,0.000431,0.000235
1988000,0.0324,0.013523,0.002678,0.000431,0.000235
1989000,0.0324,0.013523,0.002678,0.000431,0.000470
1990000,0.0324,0.013523,0.002678,0.000431,0.000353
1991000,0.0324,0.013523,0.002678,0.000431,0.000235
1992000,0.0324,0.013523,0.002678,0.000431,0.000353
1993000,0.0324,0.013523,0.002678,0.000431,0.000470
1994000,0.0324,0.013523,0.002678,0.000431,0.000118
1995000,0.0324,0.013523,0.002678,0.000431,0.000353
1996000,0.0324,0.013523,0.002678,0.000431,0.000470
1997000,0.0324,0.013523,0.002678,0.000431,0.000353
1998000,0.0324,0.013523,0.002678,0.000431,0.000235
1999000,0.0324,0.013523,0.002678,0.000431,0.000353
