Cycle,Area(mm^2),PeakDynamic(W),SubthresholdLeakage(W),GateLeakage(W),RunTimeDynamic(W)
7000000,0.0324,0.013523,0.002678,0.000431,1.839316
7001000,0.0324,0.013523,0.002678,0.000431,1.921351
7002000,0.0324,0.013523,0.002678,0.000431,1.917355
7003000,0.0324,0.013523,0.002678,0.000431,1.889383
7004000,0.0324,0.013523,0.002678,0.000431,1.951320
7005000,0.0324,0.013523,0.002678,0.000431,1.870108
7006000,0.0324,0.013523,0.002678,0.000431,1.977882
7007000,0.0324,0.013523,0.002678,0.000431,2.041347
7008000,0.0324,0.013523,0.002678,0.000431,2.056508
7009000,0.0324,0.013523,0.002678,0.000431,2.073315
7010000,0.0324,0.013523,0.002678,0.000431,2.111276
7011000,0.0324,0.013523,0.002678,0.000431,2.031357
7012000,0.0324,0.013523,0.002678,0.000431,2.101639
7013000,0.0324,0.013523,0.002678,0.000431,2.111276
7014000,0.0324,0.013523,0.002678,0.000431,2.145947
7015000,0.0324,0.013523,0.002678,0.000431,2.042875
7016000,0.0324,0.013523,0.002678,0.000431,2.087536
7017000,0.0324,0.013523,0.002678,0.000431,2.133724
7018000,0.0324,0.013523,0.002678,0.000431,2.137955
7019000,0.0324,0.013523,0.002678,0.000431,2.111511
7020000,0.0324,0.013523,0.002678,0.000431,1.975296
7021000,0.0324,0.013523,0.002678,0.000431,2.158640
7022000,0.0324,0.013523,0.002678,0.000431,2.157817
7023000,0.0324,0.013523,0.002678,0.000431,2.267589
7024000,0.0324,0.013523,0.002678,0.000431,2.161108
7025000,0.0324,0.013523,0.002678,0.000431,2.287216
7026000,0.0324,0.013523,0.002678,0.000431,2.335990
7027000,0.0324,0.013523,0.002678,0.000431,2.305903
7028000,0.0324,0.013523,0.002678,0.000431,2.176269
7029000,0.0324,0.013523,0.002678,0.000431,2.222340
7030000,0.0324,0.013523,0.002678,0.000431,2.308606
7031000,0.0324,0.013523,0.002678,0.000431,2.276756
7032000,0.0324,0.013523,0.002678,0.000431,2.351504
7033000,0.0324,0.013523,0.002678,0.000431,2.373129
7034000,0.0324,0.013523,0.002678,0.000431,2.172273
7035000,0.0324,0.013523,0.002678,0.000431,2.413206
7036000,0.0324,0.013523,0.002678,0.000431,2.245493
7037000,0.0324,0.013523,0.002678,0.000431,2.255718
7038000,0.0324,0.013523,0.002678,0.000431,2.250312
7039000,0.0324,0.013523,0.002678,0.000431,2.297793
7040000,0.0324,0.013523,0.002678,0.000431,2.307078
7041000,0.0324,0.013523,0.002678,0.000431,2.365137
7042000,0.0324,0.013523,0.002678,0.000431,2.515808
7043000,0.0324,0.013523,0.002678,0.000431,2.417085
7044000,0.0324,0.013523,0.002678,0.000431,2.262653
7045000,0.0324,0.013523,0.002678,0.000431,2.133959
7046000,0.0324,0.013523,0.002678,0.000431,2.489129
7047000,0.0324,0.013523,0.002678,0.000431,2.329409
7048000,0.0324,0.013523,0.002678,0.000431,2.194604
7049000,0.0324,0.013523,0.002678,0.000431,2.387232
7050000,0.0324,0.013523,0.002678,0.000431,2.229980
7051000,0.0324,0.013523,0.002678,0.000431,2.442823
7052000,0.0324,0.013523,0.002678,0.000431,2.416732
7053000,0.0324,0.013523,0.002678,0.000431,2.426487
7054000,0.0324,0.013523,0.002678,0.000431,2.163106
7055000,0.0324,0.013523,0.002678,0.000431,2.170863
7056000,0.0324,0.013523,0.002678,0.000431,2.347155
7057000,0.0324,0.013523,0.002678,0.000431,2.136427
7058000,0.0324,0.013523,0.002678,0.000431,2.217757
7059000,0.0324,0.013523,0.002678,0.000431,1.951320
7060000,0.0324,0.013523,0.002678,0.000431,2.127143
7061000,0.0324,0.013523,0.002678,0.000431,2.118093
7062000,0.0324,0.013523,0.002678,0.000431,2.193899
7063000,0.0324,0.013523,0.002678,0.000431,2.290624
7064000,0.0324,0.013523,0.002678,0.000431,2.313895
7065000,0.0324,0.013523,0.002678,0.000431,2.050749
7066000,0.0324,0.013523,0.002678,0.000431,2.166515
7067000,0.0324,0.013523,0.002678,0.000431,2.071787
7068000,0.0324,0.013523,0.002678,0.000431,1.803940
7069000,0.0324,0.013523,0.002678,0.000431,2.208355
7070000,0.0324,0.013523,0.002678,0.000431,1.954729
7071000,0.0324,0.013523,0.002678,0.000431,1.972711
7072000,0.0324,0.013523,0.002678,0.000431,1.945797
7073000,0.0324,0.013523,0.002678,0.000431,1.873987
7074000,0.0324,0.013523,0.002678,0.000431,1.910656
7075000,0.0324,0.013523,0.002678,0.000431,1.834497
7076000,0.0324,0.013523,0.002678,0.000431,1.800767
7077000,0.0324,0.013523,0.002678,0.000431,1.886797
7078000,0.0324,0.013523,0.002678,0.000431,1.826388
7079000,0.0324,0.013523,0.002678,0.000431,1.910421
7080000,0.0324,0.013523,0.002678,0.000431,1.870931
7081000,0.0324,0.013523,0.002678,0.000431,1.826976
7082000,0.0324,0.013523,0.002678,0.000431,1.917707
7083000,0.0324,0.013523,0.002678,0.000431,1.732600
7084000,0.0324,0.013523,0.002678,0.000431,1.869168
7085000,0.0324,0.013523,0.002678,0.000431,1.625415
7086000,0.0324,0.013523,0.002678,0.000431,2.038761
7087000,0.0324,0.013523,0.002678,0.000431,1.763510
7088000,0.0324,0.013523,0.002678,0.000431,1.762218
7089000,0.0324,0.013523,0.002678,0.000431,1.830854
7090000,0.0324,0.013523,0.002678,0.000431,1.778907
7091000,0.0324,0.013523,0.002678,0.000431,1.918413
7092000,0.0324,0.013523,0.002678,0.000431,1.880804
7093000,0.0324,0.013523,0.002678,0.000431,1.804645
7094000,0.0324,0.013523,0.002678,0.000431,1.649861
7095000,0.0324,0.013523,0.002678,0.000431,1.618481
7096000,0.0324,0.013523,0.002678,0.000431,1.931341
7097000,0.0324,0.013523,0.002678,0.000431,1.595680
7098000,0.0324,0.013523,0.002678,0.000431,1.882919
7099000,0.0324,0.013523,0.002678,0.000431,1.712973
7100000,0.0324,0.013523,0.002678,0.000431,1.686059
7101000,0.0324,0.013523,0.002678,0.000431,1.926875
7102000,0.0324,0.013523,0.002678,0.000431,1.789249
7103000,0.0324,0.013523,0.002678,0.000431,1.954611
7104000,0.0324,0.013523,0.002678,0.000431,1.767741
7105000,0.0324,0.013523,0.002678,0.000431,1.819806
7106000,0.0324,0.013523,0.002678,0.000431,1.709565
7107000,0.0324,0.013523,0.002678,0.000431,1.634817
7108000,0.0324,0.013523,0.002678,0.000431,1.932398
7109000,0.0324,0.013523,0.002678,0.000431,1.740827
7110000,0.0324,0.013523,0.002678,0.000431,1.840021
7111000,0.0324,0.013523,0.002678,0.000431,1.912889
7112000,0.0324,0.013523,0.002678,0.000431,1.717204
7113000,0.0324,0.013523,0.002678,0.000431,1.589334
7114000,0.0324,0.013523,0.002678,0.000431,1.867993
7115000,0.0324,0.013523,0.002678,0.000431,1.844252
7116000,0.0324,0.013523,0.002678,0.000431,1.875045
7117000,0.0324,0.013523,0.002678,0.000431,1.567003
7118000,0.0324,0.013523,0.002678,0.000431,1.557366
7119000,0.0324,0.013523,0.002678,0.000431,1.678773
7120000,0.0324,0.013523,0.002678,0.000431,1.573937
7121000,0.0324,0.013523,0.002678,0.000431,1.658675
7122000,0.0324,0.013523,0.002678,0.000431,1.611194
7123000,0.0324,0.013523,0.002678,0.000431,1.621419
7124000,0.0324,0.013523,0.002678,0.000431,1.792305
7125000,0.0324,0.013523,0.002678,0.000431,1.649861
7126000,0.0324,0.013523,0.002678,0.000431,1.621771
7127000,0.0324,0.013523,0.002678,0.000431,1.558894
7128000,0.0324,0.013523,0.002678,0.000431,1.631644
7129000,0.0324,0.013523,0.002678,0.000431,1.808406
7130000,0.0324,0.013523,0.002678,0.000431,1.728369
7131000,0.0324,0.013523,0.002678,0.000431,1.760102
7132000,0.0324,0.013523,0.002678,0.000431,1.813812
7133000,0.0324,0.013523,0.002678,0.000431,1.682533
7134000,0.0324,0.013523,0.002678,0.000431,1.645277
7135000,0.0324,0.013523,0.002678,0.000431,1.636110
7136000,0.0324,0.013523,0.002678,0.000431,1.747409
7137000,0.0324,0.013523,0.002678,0.000431,1.567356
7138000,0.0324,0.013523,0.002678,0.000431,1.958372
7139000,0.0324,0.013523,0.002678,0.000431,1.942153
7140000,0.0324,0.013523,0.002678,0.000431,1.985874
7141000,0.0324,0.013523,0.002678,0.000431,1.879981
7142000,0.0324,0.013523,0.002678,0.000431,2.014080
7143000,0.0324,0.013523,0.002678,0.000431,1.848248
7144000,0.0324,0.013523,0.002678,0.000431,2.062149
7145000,0.0324,0.013523,0.002678,0.000431,1.929695
7146000,0.0324,0.013523,0.002678,0.000431,1.913241
7147000,0.0324,0.013523,0.002678,0.000431,1.592507
7148000,0.0324,0.013523,0.002678,0.000431,1.960605
7149000,0.0324,0.013523,0.002678,0.000431,1.928755
7150000,0.0324,0.013523,0.002678,0.000431,2.008322
7151000,0.0324,0.013523,0.002678,0.000431,2.010790
7152000,0.0324,0.013523,0.002678,0.000431,1.886092
7153000,0.0324,0.013523,0.002678,0.000431,2.073080
7154000,0.0324,0.013523,0.002678,0.000431,2.055450
7155000,0.0324,0.013523,0.002678,0.000431,2.038644
7156000,0.0324,0.013523,0.002678,0.000431,2.160638
7157000,0.0324,0.013523,0.002678,0.000431,2.192253
7158000,0.0324,0.013523,0.002678,0.000431,2.156995
7159000,0.0324,0.013523,0.002678,0.000431,2.149238
7160000,0.0324,0.013523,0.002678,0.000431,2.057096
7161000,0.0324,0.013523,0.002678,0.000431,1.808641
7162000,0.0324,0.013523,0.002678,0.000431,1.775733
7163000,0.0324,0.013523,0.002678,0.000431,1.930635
7164000,0.0324,0.013523,0.002678,0.000431,1.821452
7165000,0.0324,0.013523,0.002678,0.000431,1.683474
7166000,0.0324,0.013523,0.002678,0.000431,1.965541
7167000,0.0324,0.013523,0.002678,0.000431,1.834615
7168000,0.0324,0.013523,0.002678,0.000431,1.926992
7169000,0.0324,0.013523,0.002678,0.000431,1.671603
7170000,0.0324,0.013523,0.002678,0.000431,1.877748
7171000,0.0324,0.013523,0.002678,0.000431,1.839199
7172000,0.0324,0.013523,0.002678,0.000431,1.846955
7173000,0.0324,0.013523,0.002678,0.000431,1.854125
7174000,0.0324,0.013523,0.002678,0.000431,1.841197
7175000,0.0324,0.013523,0.002678,0.000431,1.676540
7176000,0.0324,0.013523,0.002678,0.000431,1.759162
7177000,0.0324,0.013523,0.002678,0.000431,1.669018
7178000,0.0324,0.013523,0.002678,0.000431,1.662789
7179000,0.0324,0.013523,0.002678,0.000431,1.637638
7180000,0.0324,0.013523,0.002678,0.000431,1.673836
7181000,0.0324,0.013523,0.002678,0.000431,1.609196
7182000,0.0324,0.013523,0.002678,0.000431,1.645865
7183000,0.0324,0.013523,0.002678,0.000431,1.580872
7184000,0.0324,0.013523,0.002678,0.000431,1.583105
7185000,0.0324,0.013523,0.002678,0.000431,1.480385
7186000,0.0324,0.013523,0.002678,0.000431,1.510825
7187000,0.0324,0.013523,0.002678,0.000431,1.507887
7188000,0.0324,0.013523,0.002678,0.000431,1.588276
7189000,0.0324,0.013523,0.002678,0.000431,1.613897
7190000,0.0324,0.013523,0.002678,0.000431,1.674071
7191000,0.0324,0.013523,0.002678,0.000431,1.630468
7192000,0.0324,0.013523,0.002678,0.000431,1.444656
7193000,0.0324,0.013523,0.002678,0.000431,1.620714
7194000,0.0324,0.013523,0.002678,0.000431,1.602849
7195000,0.0324,0.013523,0.002678,0.000431,1.762570
7196000,0.0324,0.013523,0.002678,0.000431,1.715089
7197000,0.0324,0.013523,0.002678,0.000431,1.773970
7198000,0.0324,0.013523,0.002678,0.000431,1.703336
7199000,0.0324,0.013523,0.002678,0.000431,1.800532
7200000,0.0324,0.013523,0.002678,0.000431,1.742590
7201000,0.0324,0.013523,0.002678,0.000431,1.711328
7202000,0.0324,0.013523,0.002678,0.000431,1.564653
7203000,0.0324,0.013523,0.002678,0.000431,1.643514
7204000,0.0324,0.013523,0.002678,0.000431,1.683239
7205000,0.0324,0.013523,0.002678,0.000431,1.592977
7206000,0.0324,0.013523,0.002678,0.000431,1.540677
7207000,0.0324,0.013523,0.002678,0.000431,1.474391
7208000,0.0324,0.013523,0.002678,0.000431,1.570294
7209000,0.0324,0.013523,0.002678,0.000431,1.607903
7210000,0.0324,0.013523,0.002678,0.000431,1.534330
7211000,0.0324,0.013523,0.002678,0.000431,1.605435
7212000,0.0324,0.013523,0.002678,0.000431,1.635522
7213000,0.0324,0.013523,0.002678,0.000431,1.715441
7214000,0.0324,0.013523,0.002678,0.000431,1.705804
7215000,0.0324,0.013523,0.002678,0.000431,1.838846
7216000,0.0324,0.013523,0.002678,0.000431,1.802060
7217000,0.0324,0.013523,0.002678,0.000431,1.818043
7218000,0.0324,0.013523,0.002678,0.000431,1.749877
7219000,0.0324,0.013523,0.002678,0.000431,1.766919
7220000,0.0324,0.013523,0.002678,0.000431,1.846485
7221000,0.0324,0.013523,0.002678,0.000431,1.833205
7222000,0.0324,0.013523,0.002678,0.000431,1.775263
7223000,0.0324,0.013523,0.002678,0.000431,1.664787
7224000,0.0324,0.013523,0.002678,0.000431,1.902899
7225000,0.0324,0.013523,0.002678,0.000431,2.095527
7226000,0.0324,0.013523,0.002678,0.000431,2.030887
7227000,0.0324,0.013523,0.002678,0.000431,1.989517
7228000,0.0324,0.013523,0.002678,0.000431,1.952848
7229000,0.0324,0.013523,0.002678,0.000431,2.073080
7230000,0.0324,0.013523,0.002678,0.000431,2.102109
7231000,0.0324,0.013523,0.002678,0.000431,2.307666
7232000,0.0324,0.013523,0.002678,0.000431,2.277226
7233000,0.0324,0.013523,0.002678,0.000431,2.247256
7234000,0.0324,0.013523,0.002678,0.000431,2.207414
7235000,0.0324,0.013523,0.002678,0.000431,2.285806
7236000,0.0324,0.013523,0.002678,0.000431,2.222693
7237000,0.0324,0.013523,0.002678,0.000431,2.256776
7238000,0.0324,0.013523,0.002678,0.000431,2.327763
7239000,0.0324,0.013523,0.002678,0.000431,2.233506
7240000,0.0324,0.013523,0.002678,0.000431,2.351621
7241000,0.0324,0.013523,0.002678,0.000431,2.300027
7242000,0.0324,0.013523,0.002678,0.000431,2.364902
7243000,0.0324,0.013523,0.002678,0.000431,2.440120
7244000,0.0324,0.013523,0.002678,0.000431,2.373247
7245000,0.0324,0.013523,0.002678,0.000431,2.398868
7246000,0.0324,0.013523,0.002678,0.000431,2.425782
7247000,0.0324,0.013523,0.002678,0.000431,2.203066
7248000,0.0324,0.013523,0.002678,0.000431,2.078133
7249000,0.0324,0.013523,0.002678,0.000431,2.421903
7250000,0.0324,0.013523,0.002678,0.000431,2.298146
7251000,0.0324,0.013523,0.002678,0.000431,2.213643
7252000,0.0324,0.013523,0.002678,0.000431,2.071669
7253000,0.0324,0.013523,0.002678,0.000431,1.906072
7254000,0.0324,0.013523,0.002678,0.000431,2.136427
7255000,0.0324,0.013523,0.002678,0.000431,2.156172
7256000,0.0324,0.013523,0.002678,0.000431,2.255718
7257000,0.0324,0.013523,0.002678,0.000431,2.122794
7258000,0.0324,0.013523,0.002678,0.000431,2.121854
7259000,0.0324,0.013523,0.002678,0.000431,2.043227
7260000,0.0324,0.013523,0.002678,0.000431,2.193664
7261000,0.0324,0.013523,0.002678,0.000431,2.228687
7262000,0.0324,0.013523,0.002678,0.000431,2.005618
7263000,0.0324,0.013523,0.002678,0.000431,2.138543
7264000,0.0324,0.013523,0.002678,0.000431,2.232095
7265000,0.0324,0.013523,0.002678,0.000431,2.156407
7266000,0.0324,0.013523,0.002678,0.000431,2.088476
7267000,0.0324,0.013523,0.002678,0.000431,2.151353
7268000,0.0324,0.013523,0.002678,0.000431,2.091884
7269000,0.0324,0.013523,0.002678,0.000431,1.998449
7270000,0.0324,0.013523,0.002678,0.000431,2.184144
7271000,0.0324,0.013523,0.002678,0.000431,2.134899
7272000,0.0324,0.013523,0.002678,0.000431,2.179208
7273000,0.0324,0.013523,0.002678,0.000431,2.221518
7274000,0.0324,0.013523,0.002678,0.000431,2.154057
7275000,0.0324,0.013523,0.002678,0.000431,2.411561
7276000,0.0324,0.013523,0.002678,0.000431,2.208472
7277000,0.0324,0.013523,0.002678,0.000431,2.109983
7278000,0.0324,0.013523,0.002678,0.000431,2.015256
7279000,0.0324,0.013523,0.002678,0.000431,2.136780
7280000,0.0324,0.013523,0.002678,0.000431,2.122089
7281000,0.0324,0.013523,0.002678,0.000431,1.987754
7282000,0.0324,0.013523,0.002678,0.000431,1.926875
7283000,0.0324,0.013523,0.002678,0.000431,2.154174
7284000,0.0324,0.013523,0.002678,0.000431,1.937100
7285000,0.0324,0.013523,0.002678,0.000431,1.835908
7286000,0.0324,0.013523,0.002678,0.000431,2.294150
7287000,0.0324,0.013523,0.002678,0.000431,2.262888
7288000,0.0324,0.013523,0.002678,0.000431,1.891969
7289000,0.0324,0.013523,0.002678,0.000431,2.079309
7290000,0.0324,0.013523,0.002678,0.000431,2.075783
7291000,0.0324,0.013523,0.002678,0.000431,2.338693
7292000,0.0324,0.013523,0.002678,0.000431,2.026186
7293000,0.0324,0.013523,0.002678,0.000431,1.854360
7294000,0.0324,0.013523,0.002678,0.000431,2.244788
7295000,0.0324,0.013523,0.002678,0.000431,1.964954
7296000,0.0324,0.013523,0.002678,0.000431,1.947677
7297000,0.0324,0.013523,0.002678,0.000431,1.853419
7298000,0.0324,0.013523,0.002678,0.000431,1.826623
7299000,0.0324,0.013523,0.002678,0.000431,1.980350
7300000,0.0324,0.013523,0.002678,0.000431,1.728605
7301000,0.0324,0.013523,0.002678,0.000431,1.941213
7302000,0.0324,0.013523,0.002678,0.000431,1.812402
7303000,0.0324,0.013523,0.002678,0.000431,2.144772
7304000,0.0324,0.013523,0.002678,0.000431,2.072845
7305000,0.0324,0.013523,0.002678,0.000431,1.946737
7306000,0.0324,0.013523,0.002678,0.000431,1.789367
7307000,0.0324,0.013523,0.002678,0.000431,1.843194
7308000,0.0324,0.013523,0.002678,0.000431,1.942976
7309000,0.0324,0.013523,0.002678,0.000431,2.019839
7310000,0.0324,0.013523,0.002678,0.000431,1.888678
7311000,0.0324,0.013523,0.002678,0.000431,1.760220
7312000,0.0324,0.013523,0.002678,0.000431,1.958372
7313000,0.0324,0.013523,0.002678,0.000431,1.938510
7314000,0.0324,0.013523,0.002678,0.000431,1.812167
7315000,0.0324,0.013523,0.002678,0.000431,2.069906
7316000,0.0324,0.013523,0.002678,0.000431,1.991162
7317000,0.0324,0.013523,0.002678,0.000431,1.895495
7318000,0.0324,0.013523,0.002678,0.000431,1.859296
7319000,0.0324,0.013523,0.002678,0.000431,1.822510
7320000,0.0324,0.013523,0.002678,0.000431,1.809581
7321000,0.0324,0.013523,0.002678,0.000431,1.934279
7322000,0.0324,0.013523,0.002678,0.000431,2.078721
7323000,0.0324,0.013523,0.002678,0.000431,1.735539
7324000,0.0324,0.013523,0.002678,0.000431,1.826741
7325000,0.0324,0.013523,0.002678,0.000431,1.854830
7326000,0.0324,0.013523,0.002678,0.000431,1.772560
7327000,0.0324,0.013523,0.002678,0.000431,1.998684
7328000,0.0324,0.013523,0.002678,0.000431,1.628588
7329000,0.0324,0.013523,0.002678,0.000431,1.962015
7330000,0.0324,0.013523,0.002678,0.000431,1.574408
7331000,0.0324,0.013523,0.002678,0.000431,2.030769
7332000,0.0324,0.013523,0.002678,0.000431,1.957432
7333000,0.0324,0.013523,0.002678,0.000431,1.797241
7334000,0.0324,0.013523,0.002678,0.000431,1.901488
7335000,0.0324,0.013523,0.002678,0.000431,1.935924
7336000,0.0324,0.013523,0.002678,0.000431,1.692171
7337000,0.0324,0.013523,0.002678,0.000431,1.606493
7338000,0.0324,0.013523,0.002678,0.000431,1.773030
7339000,0.0324,0.013523,0.002678,0.000431,1.762100
7340000,0.0324,0.013523,0.002678,0.000431,1.790659
7341000,0.0324,0.013523,0.002678,0.000431,1.717674
7342000,0.0324,0.013523,0.002678,0.000431,1.709095
7343000,0.0324,0.013523,0.002678,0.000431,1.663494
7344000,0.0324,0.013523,0.002678,0.000431,1.938627
7345000,0.0324,0.013523,0.002678,0.000431,1.804645
7346000,0.0324,0.013523,0.002678,0.000431,1.628118
7347000,0.0324,0.013523,0.002678,0.000431,1.785018
7348000,0.0324,0.013523,0.002678,0.000431,1.563595
7349000,0.0324,0.013523,0.002678,0.000431,1.527514
7350000,0.0324,0.013523,0.002678,0.000431,1.615190
7351000,0.0324,0.013523,0.002678,0.000431,1.855652
7352000,0.0324,0.013523,0.002678,0.000431,1.716734
7353000,0.0324,0.013523,0.002678,0.000431,1.756576
7354000,0.0324,0.013523,0.002678,0.000431,1.591567
7355000,0.0324,0.013523,0.002678,0.000431,1.751170
7356000,0.0324,0.013523,0.002678,0.000431,1.619068
7357000,0.0324,0.013523,0.002678,0.000431,1.667842
7358000,0.0324,0.013523,0.002678,0.000431,1.582399
7359000,0.0324,0.013523,0.002678,0.000431,1.600381
7360000,0.0324,0.013523,0.002678,0.000431,1.673836
7361000,0.0324,0.013523,0.002678,0.000431,1.631526
7362000,0.0324,0.013523,0.002678,0.000431,1.516936
7363000,0.0324,0.013523,0.002678,0.000431,1.444774
7364000,0.0324,0.013523,0.002678,0.000431,1.504831
7365000,0.0324,0.013523,0.002678,0.000431,1.575583
7366000,0.0324,0.013523,0.002678,0.000431,1.598853
7367000,0.0324,0.013523,0.002678,0.000431,1.718027
7368000,0.0324,0.013523,0.002678,0.000431,1.521050
7369000,0.0324,0.013523,0.002678,0.000431,1.533978
7370000,0.0324,0.013523,0.002678,0.000431,1.391416
7371000,0.0324,0.013523,0.002678,0.000431,1.413276
7372000,0.0324,0.013523,0.002678,0.000431,1.483558
7373000,0.0324,0.013523,0.002678,0.000431,1.561479
7374000,0.0324,0.013523,0.002678,0.000431,1.449475
7375000,0.0324,0.013523,0.002678,0.000431,1.292810
7376000,0.0324,0.013523,0.002678,0.000431,1.388713
7377000,0.0324,0.013523,0.002678,0.000431,1.645512
7378000,0.0324,0.013523,0.002678,0.000431,1.493313
7379000,0.0324,0.013523,0.002678,0.000431,1.477447
7380000,0.0324,0.013523,0.002678,0.000431,1.447360
7381000,0.0324,0.013523,0.002678,0.000431,1.405402
7382000,0.0324,0.013523,0.002678,0.000431,1.475801
7383000,0.0324,0.013523,0.002678,0.000431,1.412454
7384000,0.0324,0.013523,0.002678,0.000431,1.486967
7385000,0.0324,0.013523,0.002678,0.000431,1.507064
7386000,0.0324,0.013523,0.002678,0.000431,1.407635
7387000,0.0324,0.013523,0.002678,0.000431,1.490492
7388000,0.0324,0.013523,0.002678,0.000431,1.406342
7389000,0.0324,0.013523,0.002678,0.000431,1.340174
7390000,0.0324,0.013523,0.002678,0.000431,1.469455
7391000,0.0324,0.013523,0.002678,0.000431,1.405872
7392000,0.0324,0.013523,0.002678,0.000431,1.425617
7393000,0.0324,0.013523,0.002678,0.000431,1.456174
7394000,0.0324,0.013523,0.002678,0.000431,1.363209
7395000,0.0324,0.013523,0.002678,0.000431,1.374727
7396000,0.0324,0.013523,0.002678,0.000431,1.559364
7397000,0.0324,0.013523,0.002678,0.000431,1.336648
7398000,0.0324,0.013523,0.002678,0.000431,1.353925
7399000,0.0324,0.013523,0.002678,0.000431,1.340644
7400000,0.0324,0.013523,0.002678,0.000431,1.312320
7401000,0.0324,0.013523,0.002678,0.000431,1.407870
7402000,0.0324,0.013523,0.002678,0.000431,1.457937
7403000,0.0324,0.013523,0.002678,0.000431,1.291752
7404000,0.0324,0.013523,0.002678,0.000431,1.404932
7405000,0.0324,0.013523,0.002678,0.000431,1.291635
7406000,0.0324,0.013523,0.002678,0.000431,1.431611
7407000,0.0324,0.013523,0.002678,0.000431,1.425029
7408000,0.0324,0.013523,0.002678,0.000431,1.310087
7409000,0.0324,0.013523,0.002678,0.000431,1.343582
7410000,0.0324,0.013523,0.002678,0.000431,1.362739
7411000,0.0324,0.013523,0.002678,0.000431,1.421503
7412000,0.0324,0.013523,0.002678,0.000431,1.478505
7413000,0.0324,0.013523,0.002678,0.000431,1.448065
7414000,0.0324,0.013523,0.002678,0.000431,1.413629
7415000,0.0324,0.013523,0.002678,0.000431,1.315023
7416000,0.0324,0.013523,0.002678,0.000431,1.416450
7417000,0.0324,0.013523,0.002678,0.000431,1.400583
7418000,0.0324,0.013523,0.002678,0.000431,1.364620
7419000,0.0324,0.013523,0.002678,0.000431,1.466517
7420000,0.0324,0.013523,0.002678,0.000431,1.260725
7421000,0.0324,0.013523,0.002678,0.000431,1.449945
7422000,0.0324,0.013523,0.002678,0.000431,1.502598
7423000,0.0324,0.013523,0.002678,0.000431,1.387068
7424000,0.0324,0.013523,0.002678,0.000431,1.312790
7425000,0.0324,0.013523,0.002678,0.000431,1.232283
7426000,0.0324,0.013523,0.002678,0.000431,1.295043
7427000,0.0324,0.013523,0.002678,0.000431,1.274828
7428000,0.0324,0.013523,0.002678,0.000431,1.462286
7429000,0.0324,0.013523,0.002678,0.000431,1.310204
7430000,0.0324,0.013523,0.002678,0.000431,1.259079
7431000,0.0324,0.013523,0.002678,0.000431,1.340409
7432000,0.0324,0.013523,0.002678,0.000431,1.375080
7433000,0.0324,0.013523,0.002678,0.000431,1.419505
7434000,0.0324,0.013523,0.002678,0.000431,1.464754
7435000,0.0324,0.013523,0.002678,0.000431,1.455939
7436000,0.0324,0.013523,0.002678,0.000431,1.404932
7437000,0.0324,0.013523,0.002678,0.000431,1.232401
7438000,0.0324,0.013523,0.002678,0.000431,1.167760
7439000,0.0324,0.013523,0.002678,0.000431,1.477799
7440000,0.0324,0.013523,0.002678,0.000431,1.343817
7441000,0.0324,0.013523,0.002678,0.000431,1.455469
7442000,0.0324,0.013523,0.002678,0.000431,1.398938
7443000,0.0324,0.013523,0.002678,0.000431,1.528924
7444000,0.0324,0.013523,0.002678,0.000431,1.651741
7445000,0.0324,0.013523,0.002678,0.000431,1.572410
7446000,0.0324,0.013523,0.002678,0.000431,1.756811
7447000,0.0324,0.013523,0.002678,0.000431,1.620126
7448000,0.0324,0.013523,0.002678,0.000431,1.622712
7449000,0.0324,0.013523,0.002678,0.000431,1.411513
7450000,0.0324,0.013523,0.002678,0.000431,1.569706
7451000,0.0324,0.013523,0.002678,0.000431,1.641399
7452000,0.0324,0.013523,0.002678,0.000431,1.514586
7453000,0.0324,0.013523,0.002678,0.000431,1.746469
7454000,0.0324,0.013523,0.002678,0.000431,1.668430
7455000,0.0324,0.013523,0.002678,0.000431,1.702866
7456000,0.0324,0.013523,0.002678,0.000431,1.737419
7457000,0.0324,0.013523,0.002678,0.000431,1.545496
7458000,0.0324,0.013523,0.002678,0.000431,1.813577
7459000,0.0324,0.013523,0.002678,0.000431,1.767859
7460000,0.0324,0.013523,0.002678,0.000431,1.757987
7461000,0.0324,0.013523,0.002678,0.000431,1.574408
7462000,0.0324,0.013523,0.002678,0.000431,1.794185
7463000,0.0324,0.013523,0.002678,0.000431,1.628353
7464000,0.0324,0.013523,0.002678,0.000431,1.899843
7465000,0.0324,0.013523,0.002678,0.000431,1.453824
7466000,0.0324,0.013523,0.002678,0.000431,1.509532
7467000,0.0324,0.013523,0.002678,0.000431,1.406107
7468000,0.0324,0.013523,0.002678,0.000431,1.568414
7469000,0.0324,0.013523,0.002678,0.000431,1.402816
7470000,0.0324,0.013523,0.002678,0.000431,1.579461
7471000,0.0324,0.013523,0.002678,0.000431,1.607433
7472000,0.0324,0.013523,0.002678,0.000431,1.679008
7473000,0.0324,0.013523,0.002678,0.000431,1.767271
7474000,0.0324,0.013523,0.002678,0.000431,1.705334
7475000,0.0324,0.013523,0.002678,0.000431,1.863997
7476000,0.0324,0.013523,0.002678,0.000431,1.852949
7477000,0.0324,0.013523,0.002678,0.000431,1.671956
7478000,0.0324,0.013523,0.002678,0.000431,1.619773
7479000,0.0324,0.013523,0.002678,0.000431,1.720025
7480000,0.0324,0.013523,0.002678,0.000431,1.715324
7481000,0.0324,0.013523,0.002678,0.000431,1.557248
7482000,0.0324,0.013523,0.002678,0.000431,1.730602
7483000,0.0324,0.013523,0.002678,0.000431,1.860824
7484000,0.0324,0.013523,0.002678,0.000431,1.911126
7485000,0.0324,0.013523,0.002678,0.000431,1.833792
7486000,0.0324,0.013523,0.002678,0.000431,1.798651
7487000,0.0324,0.013523,0.002678,0.000431,1.820629
7488000,0.0324,0.013523,0.002678,0.000431,1.883507
7489000,0.0324,0.013523,0.002678,0.000431,1.808876
7490000,0.0324,0.013523,0.002678,0.000431,1.761042
7491000,0.0324,0.013523,0.002678,0.000431,1.874339
7492000,0.0324,0.013523,0.002678,0.000431,1.929578
7493000,0.0324,0.013523,0.002678,0.000431,1.914299
7494000,0.0324,0.013523,0.002678,0.000431,1.962251
7495000,0.0324,0.013523,0.002678,0.000431,1.876690
7496000,0.0324,0.013523,0.002678,0.000431,1.994688
7497000,0.0324,0.013523,0.002678,0.000431,1.895847
7498000,0.0324,0.013523,0.002678,0.000431,1.877513
7499000,0.0324,0.013523,0.002678,0.000431,1.789484
7500000,0.0324,0.013523,0.002678,0.000431,2.038291
7501000,0.0324,0.013523,0.002678,0.000431,1.836260
7502000,0.0324,0.013523,0.002678,0.000431,1.721553
7503000,0.0324,0.013523,0.002678,0.000431,1.875867
7504000,0.0324,0.013523,0.002678,0.000431,1.917825
7505000,0.0324,0.013523,0.002678,0.000431,1.975531
7506000,0.0324,0.013523,0.002678,0.000431,1.930048
7507000,0.0324,0.013523,0.002678,0.000431,1.817338
7508000,0.0324,0.013523,0.002678,0.000431,1.969420
7509000,0.0324,0.013523,0.002678,0.000431,2.002210
7510000,0.0324,0.013523,0.002678,0.000431,1.839434
7511000,0.0324,0.013523,0.002678,0.000431,1.898903
7512000,0.0324,0.013523,0.002678,0.000431,1.933574
7513000,0.0324,0.013523,0.002678,0.000431,1.920998
7514000,0.0324,0.013523,0.002678,0.000431,1.828386
7515000,0.0324,0.013523,0.002678,0.000431,1.831324
7516000,0.0324,0.013523,0.002678,0.000431,1.868698
7517000,0.0324,0.013523,0.002678,0.000431,2.052042
7518000,0.0324,0.013523,0.002678,0.000431,1.984933
7519000,0.0324,0.013523,0.002678,0.000431,2.048516
7520000,0.0324,0.013523,0.002678,0.000431,2.014080
7521000,0.0324,0.013523,0.002678,0.000431,2.028301
7522000,0.0324,0.013523,0.002678,0.000431,2.111159
7523000,0.0324,0.013523,0.002678,0.000431,2.005853
7524000,0.0324,0.013523,0.002678,0.000431,1.966717
7525000,0.0324,0.013523,0.002678,0.000431,1.816868
7526000,0.0324,0.013523,0.002678,0.000431,1.919823
7527000,0.0324,0.013523,0.002678,0.000431,2.036411
7528000,0.0324,0.013523,0.002678,0.000431,1.992103
7529000,0.0324,0.013523,0.002678,0.000431,2.148298
7530000,0.0324,0.013523,0.002678,0.000431,1.942623
7531000,0.0324,0.013523,0.002678,0.000431,2.012905
7532000,0.0324,0.013523,0.002678,0.000431,1.939685
7533000,0.0324,0.013523,0.002678,0.000431,1.825095
7534000,0.0324,0.013523,0.002678,0.000431,1.892086
7535000,0.0324,0.013523,0.002678,0.000431,1.749525
7536000,0.0324,0.013523,0.002678,0.000431,1.863057
7537000,0.0324,0.013523,0.002678,0.000431,1.981525
7538000,0.0324,0.013523,0.002678,0.000431,1.936042
7539000,0.0324,0.013523,0.002678,0.000431,1.912066
7540000,0.0324,0.013523,0.002678,0.000431,1.969772
7541000,0.0324,0.013523,0.002678,0.000431,1.946502
7542000,0.0324,0.013523,0.002678,0.000431,1.856475
7543000,0.0324,0.013523,0.002678,0.000431,1.791482
7544000,0.0324,0.013523,0.002678,0.000431,1.624122
7545000,0.0324,0.013523,0.002678,0.000431,1.836495
7546000,0.0324,0.013523,0.002678,0.000431,1.878453
7547000,0.0324,0.013523,0.002678,0.000431,1.815575
7548000,0.0324,0.013523,0.002678,0.000431,1.876220
7549000,0.0324,0.013523,0.002678,0.000431,1.739770
7550000,0.0324,0.013523,0.002678,0.000431,1.606140
7551000,0.0324,0.013523,0.002678,0.000431,1.641869
7552000,0.0324,0.013523,0.002678,0.000431,1.592977
7553000,0.0324,0.013523,0.002678,0.000431,1.672661
7554000,0.0324,0.013523,0.002678,0.000431,1.762688
7555000,0.0324,0.013523,0.002678,0.000431,1.781492
7556000,0.0324,0.013523,0.002678,0.000431,1.559011
7557000,0.0324,0.013523,0.002678,0.000431,1.803587
7558000,0.0324,0.013523,0.002678,0.000431,1.774793
7559000,0.0324,0.013523,0.002678,0.000431,1.751875
7560000,0.0324,0.013523,0.002678,0.000431,1.816163
7561000,0.0324,0.013523,0.002678,0.000431,1.897845
7562000,0.0324,0.013523,0.002678,0.000431,1.666550
7563000,0.0324,0.013523,0.002678,0.000431,1.825918
7564000,0.0324,0.013523,0.002678,0.000431,1.678067
7565000,0.0324,0.013523,0.002678,0.000431,1.707449
7566000,0.0324,0.013523,0.002678,0.000431,1.824743
7567000,0.0324,0.013523,0.002678,0.000431,1.835203
7568000,0.0324,0.013523,0.002678,0.000431,1.818043
7569000,0.0324,0.013523,0.002678,0.000431,1.839199
7570000,0.0324,0.013523,0.002678,0.000431,1.901136
7571000,0.0324,0.013523,0.002678,0.000431,1.823802
7572000,0.0324,0.013523,0.002678,0.000431,1.896082
7573000,0.0324,0.013523,0.002678,0.000431,1.828621
7574000,0.0324,0.013523,0.002678,0.000431,1.820159
7575000,0.0324,0.013523,0.002678,0.000431,1.793950
7576000,0.0324,0.013523,0.002678,0.000431,1.782550
7577000,0.0324,0.013523,0.002678,0.000431,1.869991
7578000,0.0324,0.013523,0.002678,0.000431,1.903604
7579000,0.0324,0.013523,0.002678,0.000431,1.870461
7580000,0.0324,0.013523,0.002678,0.000431,2.005031
7581000,0.0324,0.013523,0.002678,0.000431,1.921586
7582000,0.0324,0.013523,0.002678,0.000431,1.893144
7583000,0.0324,0.013523,0.002678,0.000431,1.812872
7584000,0.0324,0.013523,0.002678,0.000431,1.790894
7585000,0.0324,0.013523,0.002678,0.000431,1.924406
7586000,0.0324,0.013523,0.002678,0.000431,1.901959
7587000,0.0324,0.013523,0.002678,0.000431,1.661496
7588000,0.0324,0.013523,0.002678,0.000431,1.852597
7589000,0.0324,0.013523,0.002678,0.000431,1.812520
7590000,0.0324,0.013523,0.002678,0.000431,1.868346
7591000,0.0324,0.013523,0.002678,0.000431,1.891851
7592000,0.0324,0.013523,0.002678,0.000431,1.910303
7593000,0.0324,0.013523,0.002678,0.000431,1.855065
7594000,0.0324,0.013523,0.002678,0.000431,1.846485
7595000,0.0324,0.013523,0.002678,0.000431,1.919705
7596000,0.0324,0.013523,0.002678,0.000431,1.803235
7597000,0.0324,0.013523,0.002678,0.000431,2.018547
7598000,0.0324,0.013523,0.002678,0.000431,1.822039
7599000,0.0324,0.013523,0.002678,0.000431,1.940508
7600000,0.0324,0.013523,0.002678,0.000431,1.805585
7601000,0.0324,0.013523,0.002678,0.000431,1.927345
7602000,0.0324,0.013523,0.002678,0.000431,1.745529
7603000,0.0324,0.013523,0.002678,0.000431,1.800532
7604000,0.0324,0.013523,0.002678,0.000431,1.858826
7605000,0.0324,0.013523,0.002678,0.000431,1.982700
7606000,0.0324,0.013523,0.002678,0.000431,1.906190
7607000,0.0324,0.013523,0.002678,0.000431,2.074020
7608000,0.0324,0.013523,0.002678,0.000431,2.021250
7609000,0.0324,0.013523,0.002678,0.000431,1.973533
7610000,0.0324,0.013523,0.002678,0.000431,2.076253
7611000,0.0324,0.013523,0.002678,0.000431,1.948382
7612000,0.0324,0.013523,0.002678,0.000431,1.903486
7613000,0.0324,0.013523,0.002678,0.000431,1.890323
7614000,0.0324,0.013523,0.002678,0.000431,1.999507
7615000,0.0324,0.013523,0.002678,0.000431,1.956492
7616000,0.0324,0.013523,0.002678,0.000431,1.903839
7617000,0.0324,0.013523,0.002678,0.000431,1.856240
7618000,0.0324,0.013523,0.002678,0.000431,1.745411
7619000,0.0324,0.013523,0.002678,0.000431,1.980115
7620000,0.0324,0.013523,0.002678,0.000431,1.765391
7621000,0.0324,0.013523,0.002678,0.000431,1.825330
7622000,0.0324,0.013523,0.002678,0.000431,1.828386
7623000,0.0324,0.013523,0.002678,0.000431,1.911948
7624000,0.0324,0.013523,0.002678,0.000431,1.767624
7625000,0.0324,0.013523,0.002678,0.000431,1.873752
7626000,0.0324,0.013523,0.002678,0.000431,1.772678
7627000,0.0324,0.013523,0.002678,0.000431,1.673014
7628000,0.0324,0.013523,0.002678,0.000431,1.572645
7629000,0.0324,0.013523,0.002678,0.000431,1.786311
7630000,0.0324,0.013523,0.002678,0.000431,1.817926
7631000,0.0324,0.013523,0.002678,0.000431,1.871401
7632000,0.0324,0.013523,0.002678,0.000431,1.897610
7633000,0.0324,0.013523,0.002678,0.000431,1.819454
7634000,0.0324,0.013523,0.002678,0.000431,1.791600
7635000,0.0324,0.013523,0.002678,0.000431,1.839199
7636000,0.0324,0.013523,0.002678,0.000431,1.826153
7637000,0.0324,0.013523,0.002678,0.000431,1.947089
7638000,0.0324,0.013523,0.002678,0.000431,1.652799
7639000,0.0324,0.013523,0.002678,0.000431,1.782785
7640000,0.0324,0.013523,0.002678,0.000431,1.773030
7641000,0.0324,0.013523,0.002678,0.000431,1.869756
7642000,0.0324,0.013523,0.002678,0.000431,2.111159
7643000,0.0324,0.013523,0.002678,0.000431,2.004796
7644000,0.0324,0.013523,0.002678,0.000431,2.096468
7645000,0.0324,0.013523,0.002678,0.000431,1.879393
7646000,0.0324,0.013523,0.002678,0.000431,1.916179
7647000,0.0324,0.013523,0.002678,0.000431,1.968832
7648000,0.0324,0.013523,0.002678,0.000431,2.126672
7649000,0.0324,0.013523,0.002678,0.000431,2.138190
7650000,0.0324,0.013523,0.002678,0.000431,2.253955
7651000,0.0324,0.013523,0.002678,0.000431,2.193781
7652000,0.0324,0.013523,0.002678,0.000431,2.264533
7653000,0.0324,0.013523,0.002678,0.000431,2.064265
7654000,0.0324,0.013523,0.002678,0.000431,2.177562
7655000,0.0324,0.013523,0.002678,0.000431,2.254778
7656000,0.0324,0.013523,0.002678,0.000431,2.111394
7657000,0.0324,0.013523,0.002678,0.000431,2.058036
7658000,0.0324,0.013523,0.002678,0.000431,2.143244
7659000,0.0324,0.013523,0.002678,0.000431,2.217874
7660000,0.0324,0.013523,0.002678,0.000431,2.188022
7661000,0.0324,0.013523,0.002678,0.000431,2.140071
7662000,0.0324,0.013523,0.002678,0.000431,2.194956
7663000,0.0324,0.013523,0.002678,0.000431,2.120796
7664000,0.0324,0.013523,0.002678,0.000431,2.152646
7665000,0.0324,0.013523,0.002678,0.000431,2.147122
7666000,0.0324,0.013523,0.002678,0.000431,2.046753
7667000,0.0324,0.013523,0.002678,0.000431,2.098936
7668000,0.0324,0.013523,0.002678,0.000431,1.981290
7669000,0.0324,0.013523,0.002678,0.000431,2.057448
7670000,0.0324,0.013523,0.002678,0.000431,1.926404
7671000,0.0324,0.013523,0.002678,0.000431,2.114214
7672000,0.0324,0.013523,0.002678,0.000431,2.077781
7673000,0.0324,0.013523,0.002678,0.000431,2.139953
7674000,0.0324,0.013523,0.002678,0.000431,2.168748
7675000,0.0324,0.013523,0.002678,0.000431,2.246081
7676000,0.0324,0.013523,0.002678,0.000431,2.234211
7677000,0.0324,0.013523,0.002678,0.000431,2.037234
7678000,0.0324,0.013523,0.002678,0.000431,1.984581
7679000,0.0324,0.013523,0.002678,0.000431,2.033120
7680000,0.0324,0.013523,0.002678,0.000431,2.001505
7681000,0.0324,0.013523,0.002678,0.000431,2.135252
7682000,0.0324,0.013523,0.002678,0.000431,2.169100
7683000,0.0324,0.013523,0.002678,0.000431,2.093647
7684000,0.0324,0.013523,0.002678,0.000431,2.222693
7685000,0.0324,0.013523,0.002678,0.000431,1.992455
7686000,0.0324,0.013523,0.002678,0.000431,2.127143
7687000,0.0324,0.013523,0.002678,0.000431,1.993513
7688000,0.0324,0.013523,0.002678,0.000431,1.981878
7689000,0.0324,0.013523,0.002678,0.000431,1.873282
7690000,0.0324,0.013523,0.002678,0.000431,2.085420
7691000,0.0324,0.013523,0.002678,0.000431,2.109748
7692000,0.0324,0.013523,0.002678,0.000431,1.990457
7693000,0.0324,0.013523,0.002678,0.000431,1.899255
7694000,0.0324,0.013523,0.002678,0.000431,2.071552
7695000,0.0324,0.013523,0.002678,0.000431,2.009967
7696000,0.0324,0.013523,0.002678,0.000431,2.011142
7697000,0.0324,0.013523,0.002678,0.000431,2.084480
7698000,0.0324,0.013523,0.002678,0.000431,2.114450
7699000,0.0324,0.013523,0.002678,0.000431,1.950968
7700000,0.0324,0.013523,0.002678,0.000431,2.041582
7701000,0.0324,0.013523,0.002678,0.000431,2.025363
7702000,0.0324,0.013523,0.002678,0.000431,2.156407
7703000,0.0324,0.013523,0.002678,0.000431,2.060504
7704000,0.0324,0.013523,0.002678,0.000431,1.983758
7705000,0.0324,0.013523,0.002678,0.000431,1.987284
7706000,0.0324,0.013523,0.002678,0.000431,1.883037
7707000,0.0324,0.013523,0.002678,0.000431,2.074372
7708000,0.0324,0.013523,0.002678,0.000431,1.982700
7709000,0.0324,0.013523,0.002678,0.000431,1.988929
7710000,0.0324,0.013523,0.002678,0.000431,1.969537
7711000,0.0324,0.013523,0.002678,0.000431,2.019722
7712000,0.0324,0.013523,0.002678,0.000431,1.958607
7713000,0.0324,0.013523,0.002678,0.000431,2.107398
7714000,0.0324,0.013523,0.002678,0.000431,2.245964
7715000,0.0324,0.013523,0.002678,0.000431,1.973063
7716000,0.0324,0.013523,0.002678,0.000431,2.112216
7717000,0.0324,0.013523,0.002678,0.000431,2.106693
7718000,0.0324,0.013523,0.002678,0.000431,2.010202
7719000,0.0324,0.013523,0.002678,0.000431,2.142891
7720000,0.0324,0.013523,0.002678,0.000431,2.126202
7721000,0.0324,0.013523,0.002678,0.000431,1.970242
7722000,0.0324,0.013523,0.002678,0.000431,2.172744
7723000,0.0324,0.013523,0.002678,0.000431,1.902664
7724000,0.0324,0.013523,0.002678,0.000431,1.912066
7725000,0.0324,0.013523,0.002678,0.000431,2.102227
7726000,0.0324,0.013523,0.002678,0.000431,2.017841
7727000,0.0324,0.013523,0.002678,0.000431,1.932751
7728000,0.0324,0.013523,0.002678,0.000431,2.077193
7729000,0.0324,0.013523,0.002678,0.000431,1.823215
7730000,0.0324,0.013523,0.002678,0.000431,1.899608
7731000,0.0324,0.013523,0.002678,0.000431,1.713326
7732000,0.0324,0.013523,0.002678,0.000431,1.967069
7733000,0.0324,0.013523,0.002678,0.000431,1.872929
7734000,0.0324,0.013523,0.002678,0.000431,1.925582
7735000,0.0324,0.013523,0.002678,0.000431,2.099876
7736000,0.0324,0.013523,0.002678,0.000431,2.026186
7737000,0.0324,0.013523,0.002678,0.000431,1.995629
7738000,0.0324,0.013523,0.002678,0.000431,1.793127
7739000,0.0324,0.013523,0.002678,0.000431,1.918413
7740000,0.0324,0.013523,0.002678,0.000431,2.015138
7741000,0.0324,0.013523,0.002678,0.000431,2.029712
7742000,0.0324,0.013523,0.002678,0.000431,1.870108
7743000,0.0324,0.013523,0.002678,0.000431,2.091532
7744000,0.0324,0.013523,0.002678,0.000431,2.137250
7745000,0.0324,0.013523,0.002678,0.000431,1.811814
7746000,0.0324,0.013523,0.002678,0.000431,1.963073
7747000,0.0324,0.013523,0.002678,0.000431,2.111159
7748000,0.0324,0.013523,0.002678,0.000431,2.128318
7749000,0.0324,0.013523,0.002678,0.000431,2.023365
7750000,0.0324,0.013523,0.002678,0.000431,2.105400
7751000,0.0324,0.013523,0.002678,0.000431,1.970125
7752000,0.0324,0.013523,0.002678,0.000431,2.066851
7753000,0.0324,0.013523,0.002678,0.000431,1.893614
7754000,0.0324,0.013523,0.002678,0.000431,1.844840
7755000,0.0324,0.013523,0.002678,0.000431,1.866465
7756000,0.0324,0.013523,0.002678,0.000431,2.081777
7757000,0.0324,0.013523,0.002678,0.000431,1.893379
7758000,0.0324,0.013523,0.002678,0.000431,1.944269
7759000,0.0324,0.013523,0.002678,0.000431,2.036176
7760000,0.0324,0.013523,0.002678,0.000431,1.984816
7761000,0.0324,0.013523,0.002678,0.000431,1.785253
7762000,0.0324,0.013523,0.002678,0.000431,1.983993
7763000,0.0324,0.013523,0.002678,0.000431,1.939333
7764000,0.0324,0.013523,0.002678,0.000431,1.919705
7765000,0.0324,0.013523,0.002678,0.000431,1.945914
7766000,0.0324,0.013523,0.002678,0.000431,2.026068
7767000,0.0324,0.013523,0.002678,0.000431,1.933221
7768000,0.0324,0.013523,0.002678,0.000431,2.007029
7769000,0.0324,0.013523,0.002678,0.000431,1.968009
7770000,0.0324,0.013523,0.002678,0.000431,1.760337
7771000,0.0324,0.013523,0.002678,0.000431,1.793363
7772000,0.0324,0.013523,0.002678,0.000431,1.872577
7773000,0.0324,0.013523,0.002678,0.000431,1.868816
7774000,0.0324,0.013523,0.002678,0.000431,2.037234
7775000,0.0324,0.013523,0.002678,0.000431,1.953201
7776000,0.0324,0.013523,0.002678,0.000431,1.997156
7777000,0.0324,0.013523,0.002678,0.000431,1.921351
7778000,0.0324,0.013523,0.002678,0.000431,1.941918
7779000,0.0324,0.013523,0.002678,0.000431,1.895377
7780000,0.0324,0.013523,0.002678,0.000431,1.839786
7781000,0.0324,0.013523,0.002678,0.000431,1.782432
7782000,0.0324,0.013523,0.002678,0.000431,1.933104
7783000,0.0324,0.013523,0.002678,0.000431,1.802647
7784000,0.0324,0.013523,0.002678,0.000431,1.876220
7785000,0.0324,0.013523,0.002678,0.000431,1.712033
7786000,0.0324,0.013523,0.002678,0.000431,1.862704
7787000,0.0324,0.013523,0.002678,0.000431,1.784078
7788000,0.0324,0.013523,0.002678,0.000431,1.871284
7789000,0.0324,0.013523,0.002678,0.000431,1.848601
7790000,0.0324,0.013523,0.002678,0.000431,1.836378
7791000,0.0324,0.013523,0.002678,0.000431,1.744471
7792000,0.0324,0.013523,0.002678,0.000431,1.624239
7793000,0.0324,0.013523,0.002678,0.000431,1.755166
7794000,0.0324,0.013523,0.002678,0.000431,1.792422
7795000,0.0324,0.013523,0.002678,0.000431,1.830031
7796000,0.0324,0.013523,0.002678,0.000431,1.723668
7797000,0.0324,0.013523,0.002678,0.000431,1.589804
7798000,0.0324,0.013523,0.002678,0.000431,1.463108
7799000,0.0324,0.013523,0.002678,0.000431,1.673836
7800000,0.0324,0.013523,0.002678,0.000431,1.785723
7801000,0.0324,0.013523,0.002678,0.000431,1.716734
7802000,0.0324,0.013523,0.002678,0.000431,1.699458
7803000,0.0324,0.013523,0.002678,0.000431,1.688175
7804000,0.0324,0.013523,0.002678,0.000431,1.856358
7805000,0.0324,0.013523,0.002678,0.000431,1.866818
7806000,0.0324,0.013523,0.002678,0.000431,1.970713
7807000,0.0324,0.013523,0.002678,0.000431,1.897728
7808000,0.0324,0.013523,0.002678,0.000431,2.077898
7809000,0.0324,0.013523,0.002678,0.000431,1.978822
7810000,0.0324,0.013523,0.002678,0.000431,1.871166
7811000,0.0324,0.013523,0.002678,0.000431,1.942271
7812000,0.0324,0.013523,0.002678,0.000431,2.071904
7813000,0.0324,0.013523,0.002678,0.000431,2.023365
7814000,0.0324,0.013523,0.002678,0.000431,2.186377
7815000,0.0324,0.013523,0.002678,0.000431,2.113392
7816000,0.0324,0.013523,0.002678,0.000431,1.900548
7817000,0.0324,0.013523,0.002678,0.000431,1.946032
7818000,0.0324,0.013523,0.002678,0.000431,2.125967
7819000,0.0324,0.013523,0.002678,0.000431,2.040289
7820000,0.0324,0.013523,0.002678,0.000431,2.143832
7821000,0.0324,0.013523,0.002678,0.000431,2.169100
7822000,0.0324,0.013523,0.002678,0.000431,2.123852
7823000,0.0324,0.013523,0.002678,0.000431,2.144654
7824000,0.0324,0.013523,0.002678,0.000431,1.998097
7825000,0.0324,0.013523,0.002678,0.000431,2.174389
7826000,0.0324,0.013523,0.002678,0.000431,2.024305
7827000,0.0324,0.013523,0.002678,0.000431,1.895142
7828000,0.0324,0.013523,0.002678,0.000431,1.879041
7829000,0.0324,0.013523,0.002678,0.000431,2.040994
7830000,0.0324,0.013523,0.002678,0.000431,1.800884
7831000,0.0324,0.013523,0.002678,0.000431,1.921821
7832000,0.0324,0.013523,0.002678,0.000431,2.073197
7833000,0.0324,0.013523,0.002678,0.000431,2.087653
7834000,0.0324,0.013523,0.002678,0.000431,2.186729
7835000,0.0324,0.013523,0.002678,0.000431,1.989282
7836000,0.0324,0.013523,0.002678,0.000431,2.106928
7837000,0.0324,0.013523,0.002678,0.000431,2.263475
7838000,0.0324,0.013523,0.002678,0.000431,2.096468
7839000,0.0324,0.013523,0.002678,0.000431,2.263358
7840000,0.0324,0.013523,0.002678,0.000431,2.033708
7841000,0.0324,0.013523,0.002678,0.000431,2.021015
7842000,0.0324,0.013523,0.002678,0.000431,2.178150
7843000,0.0324,0.013523,0.002678,0.000431,2.371484
7844000,0.0324,0.013523,0.002678,0.000431,2.180853
7845000,0.0324,0.013523,0.002678,0.000431,2.094587
7846000,0.0324,0.013523,0.002678,0.000431,2.121266
7847000,0.0324,0.013523,0.002678,0.000431,2.225866
7848000,0.0324,0.013523,0.002678,0.000431,2.245729
7849000,0.0324,0.013523,0.002678,0.000431,1.939685
7850000,0.0324,0.013523,0.002678,0.000431,1.727077
7851000,0.0324,0.013523,0.002678,0.000431,1.930871
7852000,0.0324,0.013523,0.002678,0.000431,1.952966
7853000,0.0324,0.013523,0.002678,0.000431,1.915357
7854000,0.0324,0.013523,0.002678,0.000431,2.008087
7855000,0.0324,0.013523,0.002678,0.000431,1.701573
7856000,0.0324,0.013523,0.002678,0.000431,2.029007
7857000,0.0324,0.013523,0.002678,0.000431,1.963308
7858000,0.0324,0.013523,0.002678,0.000431,1.899020
7859000,0.0324,0.013523,0.002678,0.000431,1.967774
7860000,0.0324,0.013523,0.002678,0.000431,1.684884
7861000,0.0324,0.013523,0.002678,0.000431,1.885740
7862000,0.0324,0.013523,0.002678,0.000431,1.994806
7863000,0.0324,0.013523,0.002678,0.000431,1.735069
7864000,0.0324,0.013523,0.002678,0.000431,1.703336
7865000,0.0324,0.013523,0.002678,0.000431,1.821922
7866000,0.0324,0.013523,0.002678,0.000431,1.621419
7867000,0.0324,0.013523,0.002678,0.000431,1.638108
7868000,0.0324,0.013523,0.002678,0.000431,1.739770
7869000,0.0324,0.013523,0.002678,0.000431,1.686764
7870000,0.0324,0.013523,0.002678,0.000431,1.563125
7871000,0.0324,0.013523,0.002678,0.000431,1.902781
7872000,0.0324,0.013523,0.002678,0.000431,1.795243
7873000,0.0324,0.013523,0.002678,0.000431,1.683826
7874000,0.0324,0.013523,0.002678,0.000431,1.651859
7875000,0.0324,0.013523,0.002678,0.000431,1.752463
7876000,0.0324,0.013523,0.002678,0.000431,1.413511
7877000,0.0324,0.013523,0.002678,0.000431,1.715559
7878000,0.0324,0.013523,0.002678,0.000431,1.802647
7879000,0.0324,0.013523,0.002678,0.000431,1.620361
7880000,0.0324,0.013523,0.002678,0.000431,1.556896
7881000,0.0324,0.013523,0.002678,0.000431,1.631644
7882000,0.0324,0.013523,0.002678,0.000431,1.491198
7883000,0.0324,0.013523,0.002678,0.000431,1.587336
7884000,0.0324,0.013523,0.002678,0.000431,1.659733
7885000,0.0324,0.013523,0.002678,0.000431,1.549609
7886000,0.0324,0.013523,0.002678,0.000431,1.535858
7887000,0.0324,0.013523,0.002678,0.000431,1.516231
7888000,0.0324,0.013523,0.002678,0.000431,1.423266
7889000,0.0324,0.013523,0.002678,0.000431,1.381074
7890000,0.0324,0.013523,0.002678,0.000431,1.430553
7891000,0.0324,0.013523,0.002678,0.000431,1.585925
7892000,0.0324,0.013523,0.002678,0.000431,1.582282
7893000,0.0324,0.013523,0.002678,0.000431,1.522225
7894000,0.0324,0.013523,0.002678,0.000431,1.425029
7895000,0.0324,0.013523,0.002678,0.000431,1.536799
7896000,0.0324,0.013523,0.002678,0.000431,1.439485
7897000,0.0324,0.013523,0.002678,0.000431,1.588746
7898000,0.0324,0.013523,0.002678,0.000431,1.597208
7899000,0.0324,0.013523,0.002678,0.000431,1.576993
7900000,0.0324,0.013523,0.002678,0.000431,1.534918
7901000,0.0324,0.013523,0.002678,0.000431,1.680888
7902000,0.0324,0.013523,0.002678,0.000431,1.544790
7903000,0.0324,0.013523,0.002678,0.000431,1.585573
7904000,0.0324,0.013523,0.002678,0.000431,1.612957
7905000,0.0324,0.013523,0.002678,0.000431,1.516349
7906000,0.0324,0.013523,0.002678,0.000431,1.471570
7907000,0.0324,0.013523,0.002678,0.000431,1.462521
7908000,0.0324,0.013523,0.002678,0.000431,1.362034
7909000,0.0324,0.013523,0.002678,0.000431,1.501775
7910000,0.0324,0.013523,0.002678,0.000431,1.343230
7911000,0.0324,0.013523,0.002678,0.000431,1.595798
7912000,0.0324,0.013523,0.002678,0.000431,1.492373
7913000,0.0324,0.013523,0.002678,0.000431,1.420798
7914000,0.0324,0.013523,0.002678,0.000431,1.324073
7915000,0.0324,0.013523,0.002678,0.000431,1.539854
7916000,0.0324,0.013523,0.002678,0.000431,1.513528
7917000,0.0324,0.013523,0.002678,0.000431,1.438545
7918000,0.0324,0.013523,0.002678,0.000431,1.622006
7919000,0.0324,0.013523,0.002678,0.000431,1.475096
7920000,0.0324,0.013523,0.002678,0.000431,1.322897
7921000,0.0324,0.013523,0.002678,0.000431,1.461698
7922000,0.0324,0.013523,0.002678,0.000431,1.350751
7923000,0.0324,0.013523,0.002678,0.000431,1.498837
7924000,0.0324,0.013523,0.002678,0.000431,1.283173
7925000,0.0324,0.013523,0.002678,0.000431,1.451120
7926000,0.0324,0.013523,0.002678,0.000431,1.469102
7927000,0.0324,0.013523,0.002678,0.000431,1.415157
7928000,0.0324,0.013523,0.002678,0.000431,1.373552
7929000,0.0324,0.013523,0.002678,0.000431,1.399643
7930000,0.0324,0.013523,0.002678,0.000431,1.464284
7931000,0.0324,0.013523,0.002678,0.000431,1.306913
7932000,0.0324,0.013523,0.002678,0.000431,1.337471
7933000,0.0324,0.013523,0.002678,0.000431,1.290342
7934000,0.0324,0.013523,0.002678,0.000431,1.364267
7935000,0.0324,0.013523,0.002678,0.000431,1.541147
7936000,0.0324,0.013523,0.002678,0.000431,1.282703
7937000,0.0324,0.013523,0.002678,0.000431,1.182216
7938000,0.0324,0.013523,0.002678,0.000431,1.335825
7939000,0.0324,0.013523,0.002678,0.000431,1.200903
7940000,0.0324,0.013523,0.002678,0.000431,1.339116
7941000,0.0324,0.013523,0.002678,0.000431,1.306208
7942000,0.0324,0.013523,0.002678,0.000431,1.415157
7943000,0.0324,0.013523,0.002678,0.000431,1.303740
7944000,0.0324,0.013523,0.002678,0.000431,1.258374
7945000,0.0324,0.013523,0.002678,0.000431,1.149073
7946000,0.0324,0.013523,0.002678,0.000431,1.368498
7947000,0.0324,0.013523,0.002678,0.000431,1.342877
7948000,0.0324,0.013523,0.002678,0.000431,1.349694
7949000,0.0324,0.013523,0.002678,0.000431,1.286934
7950000,0.0324,0.013523,0.002678,0.000431,1.296923
7951000,0.0324,0.013523,0.002678,0.000431,1.258022
7952000,0.0324,0.013523,0.002678,0.000431,1.251675
7953000,0.0324,0.013523,0.002678,0.000431,1.105353
7954000,0.0324,0.013523,0.002678,0.000431,1.342759
7955000,0.0324,0.013523,0.002678,0.000431,1.311850
7956000,0.0324,0.013523,0.002678,0.000431,1.154479
7957000,0.0324,0.013523,0.002678,0.000431,1.123217
7958000,0.0324,0.013523,0.002678,0.000431,1.213949
7959000,0.0324,0.013523,0.002678,0.000431,1.207837
7960000,0.0324,0.013523,0.002678,0.000431,1.157770
7961000,0.0324,0.013523,0.002678,0.000431,1.156477
7962000,0.0324,0.013523,0.002678,0.000431,1.160238
7963000,0.0324,0.013523,0.002678,0.000431,1.284113
7964000,0.0324,0.013523,0.002678,0.000431,1.258257
7965000,0.0324,0.013523,0.002678,0.000431,1.184096
7966000,0.0324,0.013523,0.002678,0.000431,1.203841
7967000,0.0324,0.013523,0.002678,0.000431,1.227934
7968000,0.0324,0.013523,0.002678,0.000431,1.196907
7969000,0.0324,0.013523,0.002678,0.000431,1.249207
7970000,0.0324,0.013523,0.002678,0.000431,1.082435
7971000,0.0324,0.013523,0.002678,0.000431,1.113697
7972000,0.0324,0.013523,0.002678,0.000431,1.087018
7973000,0.0324,0.013523,0.002678,0.000431,1.344875
7974000,0.0324,0.013523,0.002678,0.000431,1.262370
7975000,0.0324,0.013523,0.002678,0.000431,1.276709
7976000,0.0324,0.013523,0.002678,0.000431,1.229697
7977000,0.0324,0.013523,0.002678,0.000431,1.259314
7978000,0.0324,0.013523,0.002678,0.000431,1.190678
7979000,0.0324,0.013523,0.002678,0.000431,1.138378
7980000,0.0324,0.013523,0.002678,0.000431,1.239100
7981000,0.0324,0.013523,0.002678,0.000431,1.152481
7982000,0.0324,0.013523,0.002678,0.000431,1.181511
7983000,0.0324,0.013523,0.002678,0.000431,1.199375
7984000,0.0324,0.013523,0.002678,0.000431,1.140846
7985000,0.0324,0.013523,0.002678,0.000431,1.221470
7986000,0.0324,0.013523,0.002678,0.000431,1.094775
7987000,0.0324,0.013523,0.002678,0.000431,1.034601
7988000,0.0324,0.013523,0.002678,0.000431,1.090309
7989000,0.0324,0.013523,0.002678,0.000431,1.104647
7990000,0.0324,0.013523,0.002678,0.000431,1.225701
7991000,0.0324,0.013523,0.002678,0.000431,1.046353
7992000,0.0324,0.013523,0.002678,0.000431,1.240275
7993000,0.0324,0.013523,0.002678,0.000431,1.194556
7994000,0.0324,0.013523,0.002678,0.000431,1.186682
7995000,0.0324,0.013523,0.002678,0.000431,1.204311
7996000,0.0324,0.013523,0.002678,0.000431,1.202548
7997000,0.0324,0.013523,0.002678,0.000431,1.124157
7998000,0.0324,0.013523,0.002678,0.000431,1.260020
7999000,0.0324,0.013523,0.002678,0.000431,1.260137
