Cycle,Area(mm^2),PeakDynamic(W),SubthresholdLeakage(W),GateLeakage(W),RunTimeDynamic(W)
9000000,0.0324,0.013523,0.002678,0.000431,1.421151
9001000,0.0324,0.013523,0.002678,0.000431,1.317138
9002000,0.0324,0.013523,0.002678,0.000431,1.353219
9003000,0.0324,0.013523,0.002678,0.000431,1.346638
9004000,0.0324,0.013523,0.002678,0.000431,1.220060
9005000,0.0324,0.013523,0.002678,0.000431,1.330301
9006000,0.0324,0.013523,0.002678,0.000431,1.322545
9007000,0.0324,0.013523,0.002678,0.000431,1.240040
9008000,0.0324,0.013523,0.002678,0.000431,1.353337
9009000,0.0324,0.013523,0.002678,0.000431,1.334885
9010000,0.0324,0.013523,0.002678,0.000431,1.275298
9011000,0.0324,0.013523,0.002678,0.000431,1.410691
9012000,0.0324,0.013523,0.002678,0.000431,1.376490
9013000,0.0324,0.013523,0.002678,0.000431,1.472158
9014000,0.0324,0.013523,0.002678,0.000431,1.451356
9015000,0.0324,0.013523,0.002678,0.000431,1.480032
9016000,0.0324,0.013523,0.002678,0.000431,1.301155
9017000,0.0324,0.013523,0.002678,0.000431,1.387420
9018000,0.0324,0.013523,0.002678,0.000431,1.349459
9019000,0.0324,0.013523,0.002678,0.000431,1.458172
9020000,0.0324,0.013523,0.002678,0.000431,1.409751
9021000,0.0324,0.013523,0.002678,0.000431,1.405049
9022000,0.0324,0.013523,0.002678,0.000431,1.452296
9023000,0.0324,0.013523,0.002678,0.000431,1.377430
9024000,0.0324,0.013523,0.002678,0.000431,1.460523
9025000,0.0324,0.013523,0.002678,0.000431,1.455587
9026000,0.0324,0.013523,0.002678,0.000431,1.470160
9027000,0.0324,0.013523,0.002678,0.000431,1.584280
9028000,0.0324,0.013523,0.002678,0.000431,1.419388
9029000,0.0324,0.013523,0.002678,0.000431,1.641046
9030000,0.0324,0.013523,0.002678,0.000431,1.484263
9031000,0.0324,0.013523,0.002678,0.000431,1.417037
9032000,0.0324,0.013523,0.002678,0.000431,1.363327
9033000,0.0324,0.013523,0.002678,0.000431,1.406225
9034000,0.0324,0.013523,0.002678,0.000431,1.420211
9035000,0.0324,0.013523,0.002678,0.000431,1.288579
9036000,0.0324,0.013523,0.002678,0.000431,1.537856
9037000,0.0324,0.013523,0.002678,0.000431,1.585690
9038000,0.0324,0.013523,0.002678,0.000431,1.471100
9039000,0.0324,0.013523,0.002678,0.000431,1.592977
9040000,0.0324,0.013523,0.002678,0.000431,1.662319
9041000,0.0324,0.013523,0.002678,0.000431,1.798651
9042000,0.0324,0.013523,0.002678,0.000431,1.668548
9043000,0.0324,0.013523,0.002678,0.000431,1.658910
9044000,0.0324,0.013523,0.002678,0.000431,1.655032
9045000,0.0324,0.013523,0.002678,0.000431,1.715206
9046000,0.0324,0.013523,0.002678,0.000431,1.818866
9047000,0.0324,0.013523,0.002678,0.000431,1.739300
9048000,0.0324,0.013523,0.002678,0.000431,1.578756
9049000,0.0324,0.013523,0.002678,0.000431,1.564418
9050000,0.0324,0.013523,0.002678,0.000431,1.673836
9051000,0.0324,0.013523,0.002678,0.000431,1.634347
9052000,0.0324,0.013523,0.002678,0.000431,1.672544
9053000,0.0324,0.013523,0.002678,0.000431,1.721788
9054000,0.0324,0.013523,0.002678,0.000431,1.577463
9055000,0.0324,0.013523,0.002678,0.000431,1.735774
9056000,0.0324,0.013523,0.002678,0.000431,1.714971
9057000,0.0324,0.013523,0.002678,0.000431,1.826505
9058000,0.0324,0.013523,0.002678,0.000431,1.669370
9059000,0.0324,0.013523,0.002678,0.000431,1.701808
9060000,0.0324,0.013523,0.002678,0.000431,1.733423
9061000,0.0324,0.013523,0.002678,0.000431,1.669605
9062000,0.0324,0.013523,0.002678,0.000431,1.548199
9063000,0.0324,0.013523,0.002678,0.000431,1.807113
9064000,0.0324,0.013523,0.002678,0.000431,1.752698
9065000,0.0324,0.013523,0.002678,0.000431,1.807113
9066000,0.0324,0.013523,0.002678,0.000431,1.939450
9067000,0.0324,0.013523,0.002678,0.000431,1.849894
9068000,0.0324,0.013523,0.002678,0.000431,1.891381
9069000,0.0324,0.013523,0.002678,0.000431,1.742120
9070000,0.0324,0.013523,0.002678,0.000431,1.817456
9071000,0.0324,0.013523,0.002678,0.000431,1.684296
9072000,0.0324,0.013523,0.002678,0.000431,1.951673
9073000,0.0324,0.013523,0.002678,0.000431,1.833792
9074000,0.0324,0.013523,0.002678,0.000431,1.868933
9075000,0.0324,0.013523,0.002678,0.000431,1.959547
9076000,0.0324,0.013523,0.002678,0.000431,1.999977
9077000,0.0324,0.013523,0.002678,0.000431,1.874810
9078000,0.0324,0.013523,0.002678,0.000431,1.975649
9079000,0.0324,0.013523,0.002678,0.000431,1.856475
9080000,0.0324,0.013523,0.002678,0.000431,1.858473
9081000,0.0324,0.013523,0.002678,0.000431,1.892439
9082000,0.0324,0.013523,0.002678,0.000431,1.817691
9083000,0.0324,0.013523,0.002678,0.000431,1.917002
9084000,0.0324,0.013523,0.002678,0.000431,1.888560
9085000,0.0324,0.013523,0.002678,0.000431,1.857768
9086000,0.0324,0.013523,0.002678,0.000431,1.911596
9087000,0.0324,0.013523,0.002678,0.000431,1.948735
9088000,0.0324,0.013523,0.002678,0.000431,1.888325
9089000,0.0324,0.013523,0.002678,0.000431,1.954024
9090000,0.0324,0.013523,0.002678,0.000431,1.909480
9091000,0.0324,0.013523,0.002678,0.000431,1.824860
9092000,0.0324,0.013523,0.002678,0.000431,1.942036
9093000,0.0324,0.013523,0.002678,0.000431,1.768917
9094000,0.0324,0.013523,0.002678,0.000431,1.751523
9095000,0.0324,0.013523,0.002678,0.000431,1.905719
9096000,0.0324,0.013523,0.002678,0.000431,1.942036
9097000,0.0324,0.013523,0.002678,0.000431,1.804645
9098000,0.0324,0.013523,0.002678,0.000431,1.923584
9099000,0.0324,0.013523,0.002678,0.000431,1.793127
9100000,0.0324,0.013523,0.002678,0.000431,1.857180
9101000,0.0324,0.013523,0.002678,0.000431,1.940860
9102000,0.0324,0.013523,0.002678,0.000431,2.030182
9103000,0.0324,0.013523,0.002678,0.000431,2.067556
9104000,0.0324,0.013523,0.002678,0.000431,1.946267
9105000,0.0324,0.013523,0.002678,0.000431,1.907365
9106000,0.0324,0.013523,0.002678,0.000431,1.952143
9107000,0.0324,0.013523,0.002678,0.000431,1.842254
9108000,0.0324,0.013523,0.002678,0.000431,2.009732
9109000,0.0324,0.013523,0.002678,0.000431,1.893379
9110000,0.0324,0.013523,0.002678,0.000431,1.936864
9111000,0.0324,0.013523,0.002678,0.000431,1.747056
9112000,0.0324,0.013523,0.002678,0.000431,1.773735
9113000,0.0324,0.013523,0.002678,0.000431,1.944739
9114000,0.0324,0.013523,0.002678,0.000431,1.896787
9115000,0.0324,0.013523,0.002678,0.000431,1.859061
9116000,0.0324,0.013523,0.002678,0.000431,1.833557
9117000,0.0324,0.013523,0.002678,0.000431,1.796653
9118000,0.0324,0.013523,0.002678,0.000431,1.818866
9119000,0.0324,0.013523,0.002678,0.000431,1.725079
9120000,0.0324,0.013523,0.002678,0.000431,1.914299
9121000,0.0324,0.013523,0.002678,0.000431,1.752815
9122000,0.0324,0.013523,0.002678,0.000431,1.784783
9123000,0.0324,0.013523,0.002678,0.000431,1.812050
9124000,0.0324,0.013523,0.002678,0.000431,1.853067
9125000,0.0324,0.013523,0.002678,0.000431,1.861411
9126000,0.0324,0.013523,0.002678,0.000431,1.797594
9127000,0.0324,0.013523,0.002678,0.000431,1.717322
9128000,0.0324,0.013523,0.002678,0.000431,1.631761
9129000,0.0324,0.013523,0.002678,0.000431,1.694286
9130000,0.0324,0.013523,0.002678,0.000431,1.598618
9131000,0.0324,0.013523,0.002678,0.000431,1.572292
9132000,0.0324,0.013523,0.002678,0.000431,1.573350
9133000,0.0324,0.013523,0.002678,0.000431,1.668783
9134000,0.0324,0.013523,0.002678,0.000431,1.646100
9135000,0.0324,0.013523,0.002678,0.000431,1.760220
9136000,0.0324,0.013523,0.002678,0.000431,1.747409
9137000,0.0324,0.013523,0.002678,0.000431,1.849894
9138000,0.0324,0.013523,0.002678,0.000431,1.709095
9139000,0.0324,0.013523,0.002678,0.000431,1.799239
9140000,0.0324,0.013523,0.002678,0.000431,1.704864
9141000,0.0324,0.013523,0.002678,0.000431,1.718850
9142000,0.0324,0.013523,0.002678,0.000431,1.747644
9143000,0.0324,0.013523,0.002678,0.000431,1.628588
9144000,0.0324,0.013523,0.002678,0.000431,1.906425
9145000,0.0324,0.013523,0.002678,0.000431,1.963896
9146000,0.0324,0.013523,0.002678,0.000431,1.839786
9147000,0.0324,0.013523,0.002678,0.000431,1.947207
9148000,0.0324,0.013523,0.002678,0.000431,1.945444
9149000,0.0324,0.013523,0.002678,0.000431,1.924642
9150000,0.0324,0.013523,0.002678,0.000431,2.024540
9151000,0.0324,0.013523,0.002678,0.000431,1.924994
9152000,0.0324,0.013523,0.002678,0.000431,1.998567
9153000,0.0324,0.013523,0.002678,0.000431,2.019252
9154000,0.0324,0.013523,0.002678,0.000431,1.878923
9155000,0.0324,0.013523,0.002678,0.000431,1.844722
9156000,0.0324,0.013523,0.002678,0.000431,1.967069
9157000,0.0324,0.013523,0.002678,0.000431,1.927697
9158000,0.0324,0.013523,0.002678,0.000431,1.882214
9159000,0.0324,0.013523,0.002678,0.000431,1.902781
9160000,0.0324,0.013523,0.002678,0.000431,1.974356
9161000,0.0324,0.013523,0.002678,0.000431,1.799827
9162000,0.0324,0.013523,0.002678,0.000431,1.859648
9163000,0.0324,0.013523,0.002678,0.000431,1.859413
9164000,0.0324,0.013523,0.002678,0.000431,1.724138
9165000,0.0324,0.013523,0.002678,0.000431,1.896435
9166000,0.0324,0.013523,0.002678,0.000431,1.906660
9167000,0.0324,0.013523,0.002678,0.000431,1.905602
9168000,0.0324,0.013523,0.002678,0.000431,1.865760
9169000,0.0324,0.013523,0.002678,0.000431,1.884329
9170000,0.0324,0.013523,0.002678,0.000431,1.867288
9171000,0.0324,0.013523,0.002678,0.000431,1.901371
9172000,0.0324,0.013523,0.002678,0.000431,1.815928
9173000,0.0324,0.013523,0.002678,0.000431,1.894084
9174000,0.0324,0.013523,0.002678,0.000431,1.995746
9175000,0.0324,0.013523,0.002678,0.000431,1.870696
9176000,0.0324,0.013523,0.002678,0.000431,1.862469
9177000,0.0324,0.013523,0.002678,0.000431,1.818396
9178000,0.0324,0.013523,0.002678,0.000431,1.868346
9179000,0.0324,0.013523,0.002678,0.000431,1.730015
9180000,0.0324,0.013523,0.002678,0.000431,1.969302
9181000,0.0324,0.013523,0.002678,0.000431,1.961310
9182000,0.0324,0.013523,0.002678,0.000431,1.874457
9183000,0.0324,0.013523,0.002678,0.000431,1.954611
9184000,0.0324,0.013523,0.002678,0.000431,1.938040
9185000,0.0324,0.013523,0.002678,0.000431,1.941331
9186000,0.0324,0.013523,0.002678,0.000431,2.003503
9187000,0.0324,0.013523,0.002678,0.000431,1.890441
9188000,0.0324,0.013523,0.002678,0.000431,1.966364
9189000,0.0324,0.013523,0.002678,0.000431,1.897963
9190000,0.0324,0.013523,0.002678,0.000431,1.913711
9191000,0.0324,0.013523,0.002678,0.000431,1.992220
9192000,0.0324,0.013523,0.002678,0.000431,1.862234
9193000,0.0324,0.013523,0.002678,0.000431,1.996921
9194000,0.0324,0.013523,0.002678,0.000431,1.943681
9195000,0.0324,0.013523,0.002678,0.000431,1.905484
9196000,0.0324,0.013523,0.002678,0.000431,1.926052
9197000,0.0324,0.013523,0.002678,0.000431,1.791012
9198000,0.0324,0.013523,0.002678,0.000431,1.776086
9199000,0.0324,0.013523,0.002678,0.000431,1.956609
9200000,0.0324,0.013523,0.002678,0.000431,1.827681
9201000,0.0324,0.013523,0.002678,0.000431,1.778907
9202000,0.0324,0.013523,0.002678,0.000431,1.940508
9203000,0.0324,0.013523,0.002678,0.000431,1.948030
9204000,0.0324,0.013523,0.002678,0.000431,2.085185
9205000,0.0324,0.013523,0.002678,0.000431,1.818043
9206000,0.0324,0.013523,0.002678,0.000431,1.882214
9207000,0.0324,0.013523,0.002678,0.000431,1.829796
9208000,0.0324,0.013523,0.002678,0.000431,1.953789
9209000,0.0324,0.013523,0.002678,0.000431,1.944034
9210000,0.0324,0.013523,0.002678,0.000431,1.767389
9211000,0.0324,0.013523,0.002678,0.000431,1.896317
9212000,0.0324,0.013523,0.002678,0.000431,1.799592
9213000,0.0324,0.013523,0.002678,0.000431,1.824860
9214000,0.0324,0.013523,0.002678,0.000431,1.739770
9215000,0.0324,0.013523,0.002678,0.000431,1.699105
9216000,0.0324,0.013523,0.002678,0.000431,1.731308
9217000,0.0324,0.013523,0.002678,0.000431,1.631879
9218000,0.0324,0.013523,0.002678,0.000431,1.538209
9219000,0.0324,0.013523,0.002678,0.000431,1.638343
9220000,0.0324,0.013523,0.002678,0.000431,1.660086
9221000,0.0324,0.013523,0.002678,0.000431,1.682063
9222000,0.0324,0.013523,0.002678,0.000431,1.645395
9223000,0.0324,0.013523,0.002678,0.000431,1.553723
9224000,0.0324,0.013523,0.002678,0.000431,1.548434
9225000,0.0324,0.013523,0.002678,0.000431,1.589216
9226000,0.0324,0.013523,0.002678,0.000431,1.588746
9227000,0.0324,0.013523,0.002678,0.000431,1.592389
9228000,0.0324,0.013523,0.002678,0.000431,1.723316
9229000,0.0324,0.013523,0.002678,0.000431,1.598031
9230000,0.0324,0.013523,0.002678,0.000431,1.704981
9231000,0.0324,0.013523,0.002678,0.000431,1.710975
9232000,0.0324,0.013523,0.002678,0.000431,1.769622
9233000,0.0324,0.013523,0.002678,0.000431,1.660438
9234000,0.0324,0.013523,0.002678,0.000431,1.820982
9235000,0.0324,0.013523,0.002678,0.000431,1.974473
9236000,0.0324,0.013523,0.002678,0.000431,1.788191
9237000,0.0324,0.013523,0.002678,0.000431,1.543028
9238000,0.0324,0.013523,0.002678,0.000431,2.056156
9239000,0.0324,0.013523,0.002678,0.000431,1.906190
9240000,0.0324,0.013523,0.002678,0.000431,1.871284
9241000,0.0324,0.013523,0.002678,0.000431,1.934866
9242000,0.0324,0.013523,0.002678,0.000431,1.998097
9243000,0.0324,0.013523,0.002678,0.000431,1.850834
9244000,0.0324,0.013523,0.002678,0.000431,1.896552
9245000,0.0324,0.013523,0.002678,0.000431,1.996569
9246000,0.0324,0.013523,0.002678,0.000431,1.773853
9247000,0.0324,0.013523,0.002678,0.000431,1.817691
9248000,0.0324,0.013523,0.002678,0.000431,2.024070
9249000,0.0324,0.013523,0.002678,0.000431,1.862939
9250000,0.0324,0.013523,0.002678,0.000431,1.793010
9251000,0.0324,0.013523,0.002678,0.000431,2.032532
9252000,0.0324,0.013523,0.002678,0.000431,1.698870
9253000,0.0324,0.013523,0.002678,0.000431,1.924759
9254000,0.0324,0.013523,0.002678,0.000431,1.944856
9255000,0.0324,0.013523,0.002678,0.000431,1.962251
9256000,0.0324,0.013523,0.002678,0.000431,1.917707
9257000,0.0324,0.013523,0.002678,0.000431,2.028889
9258000,0.0324,0.013523,0.002678,0.000431,1.954729
9259000,0.0324,0.013523,0.002678,0.000431,1.729075
9260000,0.0324,0.013523,0.002678,0.000431,1.936159
9261000,0.0324,0.013523,0.002678,0.000431,1.904544
9262000,0.0324,0.013523,0.002678,0.000431,1.949205
9263000,0.0324,0.013523,0.002678,0.000431,2.022190
9264000,0.0324,0.013523,0.002678,0.000431,1.949440
9265000,0.0324,0.013523,0.002678,0.000431,2.010320
9266000,0.0324,0.013523,0.002678,0.000431,2.006559
9267000,0.0324,0.013523,0.002678,0.000431,1.910538
9268000,0.0324,0.013523,0.002678,0.000431,1.908893
9269000,0.0324,0.013523,0.002678,0.000431,1.680653
9270000,0.0324,0.013523,0.002678,0.000431,1.722493
9271000,0.0324,0.013523,0.002678,0.000431,1.899373
9272000,0.0324,0.013523,0.002678,0.000431,1.964719
9273000,0.0324,0.013523,0.002678,0.000431,1.948030
9274000,0.0324,0.013523,0.002678,0.000431,2.003385
9275000,0.0324,0.013523,0.002678,0.000431,2.088593
9276000,0.0324,0.013523,0.002678,0.000431,2.093412
9277000,0.0324,0.013523,0.002678,0.000431,2.036411
9278000,0.0324,0.013523,0.002678,0.000431,1.955316
9279000,0.0324,0.013523,0.002678,0.000431,1.786781
9280000,0.0324,0.013523,0.002678,0.000431,1.810287
9281000,0.0324,0.013523,0.002678,0.000431,1.521990
9282000,0.0324,0.013523,0.002678,0.000431,1.917355
9283000,0.0324,0.013523,0.002678,0.000431,1.787016
9284000,0.0324,0.013523,0.002678,0.000431,1.943564
9285000,0.0324,0.013523,0.002678,0.000431,1.939568
9286000,0.0324,0.013523,0.002678,0.000431,1.894437
9287000,0.0324,0.013523,0.002678,0.000431,2.007851
9288000,0.0324,0.013523,0.002678,0.000431,1.862939
9289000,0.0324,0.013523,0.002678,0.000431,1.900666
9290000,0.0324,0.013523,0.002678,0.000431,1.810874
9291000,0.0324,0.013523,0.002678,0.000431,1.721200
9292000,0.0324,0.013523,0.002678,0.000431,1.879628
9293000,0.0324,0.013523,0.002678,0.000431,1.795596
9294000,0.0324,0.013523,0.002678,0.000431,1.675129
9295000,0.0324,0.013523,0.002678,0.000431,1.761865
9296000,0.0324,0.013523,0.002678,0.000431,1.751640
9297000,0.0324,0.013523,0.002678,0.000431,1.724138
9298000,0.0324,0.013523,0.002678,0.000431,1.757751
9299000,0.0324,0.013523,0.002678,0.000431,1.671016
9300000,0.0324,0.013523,0.002678,0.000431,1.792422
9301000,0.0324,0.013523,0.002678,0.000431,1.730485
9302000,0.0324,0.013523,0.002678,0.000431,1.951203
9303000,0.0324,0.013523,0.002678,0.000431,1.720965
9304000,0.0324,0.013523,0.002678,0.000431,1.678655
9305000,0.0324,0.013523,0.002678,0.000431,1.753050
9306000,0.0324,0.013523,0.002678,0.000431,1.782667
9307000,0.0324,0.013523,0.002678,0.000431,1.870343
9308000,0.0324,0.013523,0.002678,0.000431,1.851539
9309000,0.0324,0.013523,0.002678,0.000431,1.819571
9310000,0.0324,0.013523,0.002678,0.000431,1.477329
9311000,0.0324,0.013523,0.002678,0.000431,1.796301
9312000,0.0324,0.013523,0.002678,0.000431,1.889266
9313000,0.0324,0.013523,0.002678,0.000431,1.939097
9314000,0.0324,0.013523,0.002678,0.000431,1.882331
9315000,0.0324,0.013523,0.002678,0.000431,1.764921
9316000,0.0324,0.013523,0.002678,0.000431,1.829561
9317000,0.0324,0.013523,0.002678,0.000431,1.781727
9318000,0.0324,0.013523,0.002678,0.000431,1.659851
9319000,0.0324,0.013523,0.002678,0.000431,1.664787
9320000,0.0324,0.013523,0.002678,0.000431,2.036528
9321000,0.0324,0.013523,0.002678,0.000431,1.800179
9322000,0.0324,0.013523,0.002678,0.000431,1.888678
9323000,0.0324,0.013523,0.002678,0.000431,1.917355
9324000,0.0324,0.013523,0.002678,0.000431,1.730485
9325000,0.0324,0.013523,0.002678,0.000431,1.856945
9326000,0.0324,0.013523,0.002678,0.000431,1.901841
9327000,0.0324,0.013523,0.002678,0.000431,1.887620
9328000,0.0324,0.013523,0.002678,0.000431,1.891381
9329000,0.0324,0.013523,0.002678,0.000431,1.911243
9330000,0.0324,0.013523,0.002678,0.000431,1.976706
9331000,0.0324,0.013523,0.002678,0.000431,1.852009
9332000,0.0324,0.013523,0.002678,0.000431,1.841432
9333000,0.0324,0.013523,0.002678,0.000431,1.844487
9334000,0.0324,0.013523,0.002678,0.000431,1.825565
9335000,0.0324,0.013523,0.002678,0.000431,1.820394
9336000,0.0324,0.013523,0.002678,0.000431,1.855652
9337000,0.0324,0.013523,0.002678,0.000431,1.946032
9338000,0.0324,0.013523,0.002678,0.000431,1.816986
9339000,0.0324,0.013523,0.002678,0.000431,1.839199
9340000,0.0324,0.013523,0.002678,0.000431,1.783490
9341000,0.0324,0.013523,0.002678,0.000431,1.698752
9342000,0.0324,0.013523,0.002678,0.000431,1.638343
9343000,0.0324,0.013523,0.002678,0.000431,1.733658
9344000,0.0324,0.013523,0.002678,0.000431,1.950733
9345000,0.0324,0.013523,0.002678,0.000431,1.887150
9346000,0.0324,0.013523,0.002678,0.000431,1.845898
9347000,0.0324,0.013523,0.002678,0.000431,1.789954
9348000,0.0324,0.013523,0.002678,0.000431,2.117388
9349000,0.0324,0.013523,0.002678,0.000431,1.804058
9350000,0.0324,0.013523,0.002678,0.000431,1.775498
9351000,0.0324,0.013523,0.002678,0.000431,1.933691
9352000,0.0324,0.013523,0.002678,0.000431,1.893026
9353000,0.0324,0.013523,0.002678,0.000431,1.850364
9354000,0.0324,0.013523,0.002678,0.000431,1.676187
9355000,0.0324,0.013523,0.002678,0.000431,1.701103
9356000,0.0324,0.013523,0.002678,0.000431,1.761512
9357000,0.0324,0.013523,0.002678,0.000431,1.911948
9358000,0.0324,0.013523,0.002678,0.000431,1.814047
9359000,0.0324,0.013523,0.002678,0.000431,1.793833
9360000,0.0324,0.013523,0.002678,0.000431,1.842959
9361000,0.0324,0.013523,0.002678,0.000431,1.924877
9362000,0.0324,0.013523,0.002678,0.000431,1.895730
9363000,0.0324,0.013523,0.002678,0.000431,1.738829
9364000,0.0324,0.013523,0.002678,0.000431,1.750700
9365000,0.0324,0.013523,0.002678,0.000431,1.712856
9366000,0.0324,0.013523,0.002678,0.000431,1.822510
9367000,0.0324,0.013523,0.002678,0.000431,1.683709
9368000,0.0324,0.013523,0.002678,0.000431,1.889383
9369000,0.0324,0.013523,0.002678,0.000431,1.697460
9370000,0.0324,0.013523,0.002678,0.000431,1.938157
9371000,0.0324,0.013523,0.002678,0.000431,1.853302
9372000,0.0324,0.013523,0.002678,0.000431,1.790659
9373000,0.0324,0.013523,0.002678,0.000431,1.834850
9374000,0.0324,0.013523,0.002678,0.000431,1.922996
9375000,0.0324,0.013523,0.002678,0.000431,1.774793
9376000,0.0324,0.013523,0.002678,0.000431,1.783608
9377000,0.0324,0.013523,0.002678,0.000431,1.904779
9378000,0.0324,0.013523,0.002678,0.000431,1.865290
9379000,0.0324,0.013523,0.002678,0.000431,1.863409
9380000,0.0324,0.013523,0.002678,0.000431,1.855300
9381000,0.0324,0.013523,0.002678,0.000431,1.814870
9382000,0.0324,0.013523,0.002678,0.000431,1.616718
9383000,0.0324,0.013523,0.002678,0.000431,1.700280
9384000,0.0324,0.013523,0.002678,0.000431,1.769622
9385000,0.0324,0.013523,0.002678,0.000431,1.774440
9386000,0.0324,0.013523,0.002678,0.000431,1.878806
9387000,0.0324,0.013523,0.002678,0.000431,1.815223
9388000,0.0324,0.013523,0.002678,0.000431,1.857886
9389000,0.0324,0.013523,0.002678,0.000431,2.038291
9390000,0.0324,0.013523,0.002678,0.000431,1.785371
9391000,0.0324,0.013523,0.002678,0.000431,1.868698
9392000,0.0324,0.013523,0.002678,0.000431,1.857886
9393000,0.0324,0.013523,0.002678,0.000431,1.748467
9394000,0.0324,0.013523,0.002678,0.000431,1.772090
9395000,0.0324,0.013523,0.002678,0.000431,2.015726
9396000,0.0324,0.013523,0.002678,0.000431,1.834262
9397000,0.0324,0.013523,0.002678,0.000431,1.870343
9398000,0.0324,0.013523,0.002678,0.000431,1.913124
9399000,0.0324,0.013523,0.002678,0.000431,1.799356
9400000,0.0324,0.013523,0.002678,0.000431,1.867405
9401000,0.0324,0.013523,0.002678,0.000431,1.866348
9402000,0.0324,0.013523,0.002678,0.000431,1.922761
9403000,0.0324,0.013523,0.002678,0.000431,1.809581
9404000,0.0324,0.013523,0.002678,0.000431,1.616835
9405000,0.0324,0.013523,0.002678,0.000431,2.048986
9406000,0.0324,0.013523,0.002678,0.000431,1.801472
9407000,0.0324,0.013523,0.002678,0.000431,2.010202
9408000,0.0324,0.013523,0.002678,0.000431,1.593330
9409000,0.0324,0.013523,0.002678,0.000431,1.797358
9410000,0.0324,0.013523,0.002678,0.000431,1.756459
9411000,0.0324,0.013523,0.002678,0.000431,1.800414
9412000,0.0324,0.013523,0.002678,0.000431,1.994806
9413000,0.0324,0.013523,0.002678,0.000431,1.950733
9414000,0.0324,0.013523,0.002678,0.000431,1.815928
9415000,0.0324,0.013523,0.002678,0.000431,1.602027
9416000,0.0324,0.013523,0.002678,0.000431,1.746469
9417000,0.0324,0.013523,0.002678,0.000431,1.887032
9418000,0.0324,0.013523,0.002678,0.000431,1.800179
9419000,0.0324,0.013523,0.002678,0.000431,1.818984
9420000,0.0324,0.013523,0.002678,0.000431,1.832852
9421000,0.0324,0.013523,0.002678,0.000431,1.833205
9422000,0.0324,0.013523,0.002678,0.000431,1.545966
9423000,0.0324,0.013523,0.002678,0.000431,1.585573
9424000,0.0324,0.013523,0.002678,0.000431,1.824743
9425000,0.0324,0.013523,0.002678,0.000431,1.729310
9426000,0.0324,0.013523,0.002678,0.000431,1.763040
9427000,0.0324,0.013523,0.002678,0.000431,1.822157
9428000,0.0324,0.013523,0.002678,0.000431,1.749877
9429000,0.0324,0.013523,0.002678,0.000431,1.721553
9430000,0.0324,0.013523,0.002678,0.000431,1.584632
9431000,0.0324,0.013523,0.002678,0.000431,1.714736
9432000,0.0324,0.013523,0.002678,0.000431,1.639753
9433000,0.0324,0.013523,0.002678,0.000431,1.620126
9434000,0.0324,0.013523,0.002678,0.000431,1.670546
9435000,0.0324,0.013523,0.002678,0.000431,1.583105
9436000,0.0324,0.013523,0.002678,0.000431,1.587218
9437000,0.0324,0.013523,0.002678,0.000431,1.607433
9438000,0.0324,0.013523,0.002678,0.000431,1.655502
9439000,0.0324,0.013523,0.002678,0.000431,1.551842
9440000,0.0324,0.013523,0.002678,0.000431,1.464989
9441000,0.0324,0.013523,0.002678,0.000431,1.542205
9442000,0.0324,0.013523,0.002678,0.000431,1.708860
9443000,0.0324,0.013523,0.002678,0.000431,1.823685
9444000,0.0324,0.013523,0.002678,0.000431,1.631644
9445000,0.0324,0.013523,0.002678,0.000431,1.620949
9446000,0.0324,0.013523,0.002678,0.000431,1.850481
9447000,0.0324,0.013523,0.002678,0.000431,1.635757
9448000,0.0324,0.013523,0.002678,0.000431,1.749525
9449000,0.0324,0.013523,0.002678,0.000431,1.820159
9450000,0.0324,0.013523,0.002678,0.000431,1.850951
9451000,0.0324,0.013523,0.002678,0.000431,1.816633
9452000,0.0324,0.013523,0.002678,0.000431,1.695814
9453000,0.0324,0.013523,0.002678,0.000431,1.560069
9454000,0.0324,0.013523,0.002678,0.000431,1.546318
9455000,0.0324,0.013523,0.002678,0.000431,2.124557
9456000,0.0324,0.013523,0.002678,0.000431,1.747291
9457000,0.0324,0.013523,0.002678,0.000431,1.930165
9458000,0.0324,0.013523,0.002678,0.000431,1.903957
9459000,0.0324,0.013523,0.002678,0.000431,1.867170
9460000,0.0324,0.013523,0.002678,0.000431,1.868698
9461000,0.0324,0.013523,0.002678,0.000431,1.857415
9462000,0.0324,0.013523,0.002678,0.000431,2.005031
9463000,0.0324,0.013523,0.002678,0.000431,1.974709
9464000,0.0324,0.013523,0.002678,0.000431,1.769739
9465000,0.0324,0.013523,0.002678,0.000431,1.892204
9466000,0.0324,0.013523,0.002678,0.000431,1.937452
9467000,0.0324,0.013523,0.002678,0.000431,1.938627
9468000,0.0324,0.013523,0.002678,0.000431,2.026538
9469000,0.0324,0.013523,0.002678,0.000431,1.847543
9470000,0.0324,0.013523,0.002678,0.000431,1.652329
9471000,0.0324,0.013523,0.002678,0.000431,1.835908
9472000,0.0324,0.013523,0.002678,0.000431,1.867170
9473000,0.0324,0.013523,0.002678,0.000431,1.956492
9474000,0.0324,0.013523,0.002678,0.000431,1.912184
9475000,0.0324,0.013523,0.002678,0.000431,1.651976
9476000,0.0324,0.013523,0.002678,0.000431,1.810522
9477000,0.0324,0.013523,0.002678,0.000431,1.821922
9478000,0.0324,0.013523,0.002678,0.000431,2.087065
9479000,0.0324,0.013523,0.002678,0.000431,1.909950
9480000,0.0324,0.013523,0.002678,0.000431,2.014433
9481000,0.0324,0.013523,0.002678,0.000431,1.797358
9482000,0.0324,0.013523,0.002678,0.000431,1.839551
9483000,0.0324,0.013523,0.002678,0.000431,1.966364
9484000,0.0324,0.013523,0.002678,0.000431,1.927227
9485000,0.0324,0.013523,0.002678,0.000431,1.903721
9486000,0.0324,0.013523,0.002678,0.000431,1.974473
9487000,0.0324,0.013523,0.002678,0.000431,1.920646
9488000,0.0324,0.013523,0.002678,0.000431,1.924994
9489000,0.0324,0.013523,0.002678,0.000431,1.854477
9490000,0.0324,0.013523,0.002678,0.000431,1.821334
9491000,0.0324,0.013523,0.002678,0.000431,1.922879
9492000,0.0324,0.013523,0.002678,0.000431,1.857886
9493000,0.0324,0.013523,0.002678,0.000431,1.859296
9494000,0.0324,0.013523,0.002678,0.000431,1.685707
9495000,0.0324,0.013523,0.002678,0.000431,1.807819
9496000,0.0324,0.013523,0.002678,0.000431,1.885740
9497000,0.0324,0.013523,0.002678,0.000431,1.957784
9498000,0.0324,0.013523,0.002678,0.000431,2.033355
9499000,0.0324,0.013523,0.002678,0.000431,1.840609
9500000,0.0324,0.013523,0.002678,0.000431,2.004561
9501000,0.0324,0.013523,0.002678,0.000431,1.701103
9502000,0.0324,0.013523,0.002678,0.000431,1.887620
9503000,0.0324,0.013523,0.002678,0.000431,2.025363
9504000,0.0324,0.013523,0.002678,0.000431,1.869991
9505000,0.0324,0.013523,0.002678,0.000431,1.983641
9506000,0.0324,0.013523,0.002678,0.000431,2.000212
9507000,0.0324,0.013523,0.002678,0.000431,2.057683
9508000,0.0324,0.013523,0.002678,0.000431,2.173801
9509000,0.0324,0.013523,0.002678,0.000431,2.141246
9510000,0.0324,0.013523,0.002678,0.000431,1.972005
9511000,0.0324,0.013523,0.002678,0.000431,1.776674
9512000,0.0324,0.013523,0.002678,0.000431,2.055450
9513000,0.0324,0.013523,0.002678,0.000431,2.150766
9514000,0.0324,0.013523,0.002678,0.000431,2.021720
9515000,0.0324,0.013523,0.002678,0.000431,1.972828
9516000,0.0324,0.013523,0.002678,0.000431,2.168983
9517000,0.0324,0.013523,0.002678,0.000431,2.089651
9518000,0.0324,0.013523,0.002678,0.000431,2.115390
9519000,0.0324,0.013523,0.002678,0.000431,2.036998
9520000,0.0324,0.013523,0.002678,0.000431,1.934749
9521000,0.0324,0.013523,0.002678,0.000431,1.935572
9522000,0.0324,0.013523,0.002678,0.000431,1.814283
9523000,0.0324,0.013523,0.002678,0.000431,1.841314
9524000,0.0324,0.013523,0.002678,0.000431,1.778319
9525000,0.0324,0.013523,0.002678,0.000431,1.797594
9526000,0.0324,0.013523,0.002678,0.000431,1.802177
9527000,0.0324,0.013523,0.002678,0.000431,1.872224
9528000,0.0324,0.013523,0.002678,0.000431,1.707214
9529000,0.0324,0.013523,0.002678,0.000431,1.691348
9530000,0.0324,0.013523,0.002678,0.000431,1.804763
9531000,0.0324,0.013523,0.002678,0.000431,1.847543
9532000,0.0324,0.013523,0.002678,0.000431,1.813930
9533000,0.0324,0.013523,0.002678,0.000431,1.773735
9534000,0.0324,0.013523,0.002678,0.000431,1.717909
9535000,0.0324,0.013523,0.002678,0.000431,1.749054
9536000,0.0324,0.013523,0.002678,0.000431,1.788309
9537000,0.0324,0.013523,0.002678,0.000431,1.624945
9538000,0.0324,0.013523,0.002678,0.000431,1.659380
9539000,0.0324,0.013523,0.002678,0.000431,1.614367
9540000,0.0324,0.013523,0.002678,0.000431,1.644924
9541000,0.0324,0.013523,0.002678,0.000431,1.805115
9542000,0.0324,0.013523,0.002678,0.000431,1.702043
9543000,0.0324,0.013523,0.002678,0.000431,1.648450
9544000,0.0324,0.013523,0.002678,0.000431,1.833557
9545000,0.0324,0.013523,0.002678,0.000431,1.827211
9546000,0.0324,0.013523,0.002678,0.000431,1.862587
9547000,0.0324,0.013523,0.002678,0.000431,1.790307
9548000,0.0324,0.013523,0.002678,0.000431,1.734481
9549000,0.0324,0.013523,0.002678,0.000431,1.738947
9550000,0.0324,0.013523,0.002678,0.000431,1.967069
9551000,0.0324,0.013523,0.002678,0.000431,2.008204
9552000,0.0324,0.013523,0.002678,0.000431,1.990222
9553000,0.0324,0.013523,0.002678,0.000431,1.795713
9554000,0.0324,0.013523,0.002678,0.000431,2.053805
9555000,0.0324,0.013523,0.002678,0.000431,2.044990
9556000,0.0324,0.013523,0.002678,0.000431,2.041935
9557000,0.0324,0.013523,0.002678,0.000431,2.085303
9558000,0.0324,0.013523,0.002678,0.000431,2.045108
9559000,0.0324,0.013523,0.002678,0.000431,1.995041
9560000,0.0324,0.013523,0.002678,0.000431,2.116448
9561000,0.0324,0.013523,0.002678,0.000431,2.204241
9562000,0.0324,0.013523,0.002678,0.000431,1.950263
9563000,0.0324,0.013523,0.002678,0.000431,2.117388
9564000,0.0324,0.013523,0.002678,0.000431,2.020192
9565000,0.0324,0.013523,0.002678,0.000431,2.223281
9566000,0.0324,0.013523,0.002678,0.000431,1.873164
9567000,0.0324,0.013523,0.002678,0.000431,2.135957
9568000,0.0324,0.013523,0.002678,0.000431,2.114214
9569000,0.0324,0.013523,0.002678,0.000431,2.331524
9570000,0.0324,0.013523,0.002678,0.000431,2.214466
9571000,0.0324,0.013523,0.002678,0.000431,1.940625
9572000,0.0324,0.013523,0.002678,0.000431,2.165692
9573000,0.0324,0.013523,0.002678,0.000431,2.183321
9574000,0.0324,0.013523,0.002678,0.000431,2.122677
9575000,0.0324,0.013523,0.002678,0.000431,2.119033
9576000,0.0324,0.013523,0.002678,0.000431,2.024540
9577000,0.0324,0.013523,0.002678,0.000431,1.968362
9578000,0.0324,0.013523,0.002678,0.000431,2.127260
9579000,0.0324,0.013523,0.002678,0.000431,2.182028
9580000,0.0324,0.013523,0.002678,0.000431,2.224691
9581000,0.0324,0.013523,0.002678,0.000431,2.160521
9582000,0.0324,0.013523,0.002678,0.000431,2.101521
9583000,0.0324,0.013523,0.002678,0.000431,2.077781
9584000,0.0324,0.013523,0.002678,0.000431,2.095998
9585000,0.0324,0.013523,0.002678,0.000431,2.068496
9586000,0.0324,0.013523,0.002678,0.000431,1.933221
9587000,0.0324,0.013523,0.002678,0.000431,1.874927
9588000,0.0324,0.013523,0.002678,0.000431,2.042287
9589000,0.0324,0.013523,0.002678,0.000431,1.869873
9590000,0.0324,0.013523,0.002678,0.000431,1.888678
9591000,0.0324,0.013523,0.002678,0.000431,1.818043
9592000,0.0324,0.013523,0.002678,0.000431,1.861764
9593000,0.0324,0.013523,0.002678,0.000431,1.823215
9594000,0.0324,0.013523,0.002678,0.000431,1.828856
9595000,0.0324,0.013523,0.002678,0.000431,1.685002
9596000,0.0324,0.013523,0.002678,0.000431,1.722140
9597000,0.0324,0.013523,0.002678,0.000431,1.801119
9598000,0.0324,0.013523,0.002678,0.000431,1.830854
9599000,0.0324,0.013523,0.002678,0.000431,1.720965
9600000,0.0324,0.013523,0.002678,0.000431,1.776556
9601000,0.0324,0.013523,0.002678,0.000431,1.844370
9602000,0.0324,0.013523,0.002678,0.000431,1.950145
9603000,0.0324,0.013523,0.002678,0.000431,1.861411
9604000,0.0324,0.013523,0.002678,0.000431,1.904192
9605000,0.0324,0.013523,0.002678,0.000431,2.045343
9606000,0.0324,0.013523,0.002678,0.000431,1.942153
9607000,0.0324,0.013523,0.002678,0.000431,1.830854
9608000,0.0324,0.013523,0.002678,0.000431,1.726371
9609000,0.0324,0.013523,0.002678,0.000431,1.760925
9610000,0.0324,0.013523,0.002678,0.000431,1.873987
9611000,0.0324,0.013523,0.002678,0.000431,1.772325
9612000,0.0324,0.013523,0.002678,0.000431,1.586630
9613000,0.0324,0.013523,0.002678,0.000431,1.831559
9614000,0.0324,0.013523,0.002678,0.000431,1.840374
9615000,0.0324,0.013523,0.002678,0.000431,1.764333
9616000,0.0324,0.013523,0.002678,0.000431,1.849306
9617000,0.0324,0.013523,0.002678,0.000431,2.032297
9618000,0.0324,0.013523,0.002678,0.000431,1.988694
9619000,0.0324,0.013523,0.002678,0.000431,2.019839
9620000,0.0324,0.013523,0.002678,0.000431,2.223633
9621000,0.0324,0.013523,0.002678,0.000431,2.213643
9622000,0.0324,0.013523,0.002678,0.000431,2.206827
9623000,0.0324,0.013523,0.002678,0.000431,2.453401
9624000,0.0324,0.013523,0.002678,0.000431,2.595140
9625000,0.0324,0.013523,0.002678,0.000431,2.630163
9626000,0.0324,0.013523,0.002678,0.000431,2.835720
9627000,0.0324,0.013523,0.002678,0.000431,2.760855
9628000,0.0324,0.013523,0.002678,0.000431,2.679525
9629000,0.0324,0.013523,0.002678,0.000431,2.851351
9630000,0.0324,0.013523,0.002678,0.000431,2.958067
9631000,0.0324,0.013523,0.002678,0.000431,3.096868
9632000,0.0324,0.013523,0.002678,0.000431,3.145877
9633000,0.0324,0.013523,0.002678,0.000431,3.274453
9634000,0.0324,0.013523,0.002678,0.000431,3.061374
9635000,0.0324,0.013523,0.002678,0.000431,3.181723
9636000,0.0324,0.013523,0.002678,0.000431,3.207932
9637000,0.0324,0.013523,0.002678,0.000431,3.119786
9638000,0.0324,0.013523,0.002678,0.000431,3.225914
9639000,0.0324,0.013523,0.002678,0.000431,3.073362
9640000,0.0324,0.013523,0.002678,0.000431,3.190420
9641000,0.0324,0.013523,0.002678,0.000431,3.118140
9642000,0.0324,0.013523,0.002678,0.000431,3.231907
9643000,0.0324,0.013523,0.002678,0.000431,3.334862
9644000,0.0324,0.013523,0.002678,0.000431,3.436642
9645000,0.0324,0.013523,0.002678,0.000431,3.337918
9646000,0.0324,0.013523,0.002678,0.000431,3.460852
9647000,0.0324,0.013523,0.002678,0.000431,3.564160
9648000,0.0324,0.013523,0.002678,0.000431,3.636557
9649000,0.0324,0.013523,0.002678,0.000431,3.544062
9650000,0.0324,0.013523,0.002678,0.000431,3.577205
9651000,0.0324,0.013523,0.002678,0.000431,3.658535
9652000,0.0324,0.013523,0.002678,0.000431,3.618693
9653000,0.0324,0.013523,0.002678,0.000431,3.696496
9654000,0.0324,0.013523,0.002678,0.000431,3.626685
9655000,0.0324,0.013523,0.002678,0.000431,3.639260
9656000,0.0324,0.013523,0.002678,0.000431,3.635382
9657000,0.0324,0.013523,0.002678,0.000431,3.594599
9658000,0.0324,0.013523,0.002678,0.000431,3.752910
9659000,0.0324,0.013523,0.002678,0.000431,3.531134
9660000,0.0324,0.013523,0.002678,0.000431,3.560164
9661000,0.0324,0.013523,0.002678,0.000431,3.644784
9662000,0.0324,0.013523,0.002678,0.000431,3.587548
9663000,0.0324,0.013523,0.002678,0.000431,3.516796
9664000,0.0324,0.013523,0.002678,0.000431,3.553700
9665000,0.0324,0.013523,0.002678,0.000431,3.520674
9666000,0.0324,0.013523,0.002678,0.000431,3.549821
9667000,0.0324,0.013523,0.002678,0.000431,3.502575
9668000,0.0324,0.013523,0.002678,0.000431,3.521732
9669000,0.0324,0.013523,0.002678,0.000431,3.515973
9670000,0.0324,0.013523,0.002678,0.000431,3.589663
9671000,0.0324,0.013523,0.002678,0.000431,3.577910
9672000,0.0324,0.013523,0.002678,0.000431,3.539949
9673000,0.0324,0.013523,0.002678,0.000431,3.461910
9674000,0.0324,0.013523,0.002678,0.000431,3.358368
9675000,0.0324,0.013523,0.002678,0.000431,3.565452
9676000,0.0324,0.013523,0.002678,0.000431,3.345205
9677000,0.0324,0.013523,0.002678,0.000431,3.362834
9678000,0.0324,0.013523,0.002678,0.000431,3.392569
9679000,0.0324,0.013523,0.002678,0.000431,3.272925
9680000,0.0324,0.013523,0.002678,0.000431,3.235316
9681000,0.0324,0.013523,0.002678,0.000431,3.329573
9682000,0.0324,0.013523,0.002678,0.000431,3.181370
9683000,0.0324,0.013523,0.002678,0.000431,3.163859
9684000,0.0324,0.013523,0.002678,0.000431,3.089933
9685000,0.0324,0.013523,0.002678,0.000431,2.974403
9686000,0.0324,0.013523,0.002678,0.000431,3.079356
9687000,0.0324,0.013523,0.002678,0.000431,3.107563
9688000,0.0324,0.013523,0.002678,0.000431,3.311239
9689000,0.0324,0.013523,0.002678,0.000431,3.326635
9690000,0.0324,0.013523,0.002678,0.000431,3.054205
9691000,0.0324,0.013523,0.002678,0.000431,3.248949
9692000,0.0324,0.013523,0.002678,0.000431,3.113674
9693000,0.0324,0.013523,0.002678,0.000431,3.024588
9694000,0.0324,0.013523,0.002678,0.000431,3.003668
9695000,0.0324,0.013523,0.002678,0.000431,3.181840
9696000,0.0324,0.013523,0.002678,0.000431,3.181135
9697000,0.0324,0.013523,0.002678,0.000431,3.067721
9698000,0.0324,0.013523,0.002678,0.000431,3.096750
9699000,0.0324,0.013523,0.002678,0.000431,2.704206
9700000,0.0324,0.013523,0.002678,0.000431,2.784360
9701000,0.0324,0.013523,0.002678,0.000431,3.138473
9702000,0.0324,0.013523,0.002678,0.000431,3.211223
9703000,0.0324,0.013523,0.002678,0.000431,3.104742
9704000,0.0324,0.013523,0.002678,0.000431,3.140000
9705000,0.0324,0.013523,0.002678,0.000431,3.082059
9706000,0.0324,0.013523,0.002678,0.000431,3.177845
9707000,0.0324,0.013523,0.002678,0.000431,3.313002
9708000,0.0324,0.013523,0.002678,0.000431,3.287028
9709000,0.0324,0.013523,0.002678,0.000431,3.293022
9710000,0.0324,0.013523,0.002678,0.000431,3.275981
9711000,0.0324,0.013523,0.002678,0.000431,2.984393
9712000,0.0324,0.013523,0.002678,0.000431,2.944786
9713000,0.0324,0.013523,0.002678,0.000431,2.942788
9714000,0.0324,0.013523,0.002678,0.000431,2.793410
9715000,0.0324,0.013523,0.002678,0.000431,2.963121
9716000,0.0324,0.013523,0.002678,0.000431,3.066663
9717000,0.0324,0.013523,0.002678,0.000431,3.182311
9718000,0.0324,0.013523,0.002678,0.000431,3.026468
9719000,0.0324,0.013523,0.002678,0.000431,3.071599
9720000,0.0324,0.013523,0.002678,0.000431,3.261290
9721000,0.0324,0.013523,0.002678,0.000431,3.121666
9722000,0.0324,0.013523,0.002678,0.000431,3.041982
9723000,0.0324,0.013523,0.002678,0.000431,3.097573
9724000,0.0324,0.013523,0.002678,0.000431,2.976871
9725000,0.0324,0.013523,0.002678,0.000431,2.884847
9726000,0.0324,0.013523,0.002678,0.000431,2.988977
9727000,0.0324,0.013523,0.002678,0.000431,3.193711
9728000,0.0324,0.013523,0.002678,0.000431,3.147405
9729000,0.0324,0.013523,0.002678,0.000431,3.187247
9730000,0.0324,0.013523,0.002678,0.000431,3.132009
9731000,0.0324,0.013523,0.002678,0.000431,3.071599
9732000,0.0324,0.013523,0.002678,0.000431,3.014833
9733000,0.0324,0.013523,0.002678,0.000431,3.004726
9734000,0.0324,0.013523,0.002678,0.000431,3.004138
9735000,0.0324,0.013523,0.002678,0.000431,2.973816
9736000,0.0324,0.013523,0.002678,0.000431,2.867688
9737000,0.0324,0.013523,0.002678,0.000431,3.001082
9738000,0.0324,0.013523,0.002678,0.000431,3.202290
9739000,0.0324,0.013523,0.002678,0.000431,3.223916
9740000,0.0324,0.013523,0.002678,0.000431,3.049034
9741000,0.0324,0.013523,0.002678,0.000431,3.193711
9742000,0.0324,0.013523,0.002678,0.000431,3.255178
9743000,0.0324,0.013523,0.002678,0.000431,3.443458
9744000,0.0324,0.013523,0.002678,0.000431,3.456034
9745000,0.0324,0.013523,0.002678,0.000431,3.506453
9746000,0.0324,0.013523,0.002678,0.000431,3.511742
9747000,0.0324,0.013523,0.002678,0.000431,3.234493
9748000,0.0324,0.013523,0.002678,0.000431,3.492232
9749000,0.0324,0.013523,0.002678,0.000431,3.391041
9750000,0.0324,0.013523,0.002678,0.000431,3.595422
9751000,0.0324,0.013523,0.002678,0.000431,3.409022
9752000,0.0324,0.013523,0.002678,0.000431,3.434173
9753000,0.0324,0.013523,0.002678,0.000431,3.455211
9754000,0.0324,0.013523,0.002678,0.000431,3.487884
9755000,0.0324,0.013523,0.002678,0.000431,3.554875
9756000,0.0324,0.013523,0.002678,0.000431,3.471665
9757000,0.0324,0.013523,0.002678,0.000431,3.412666
9758000,0.0324,0.013523,0.002678,0.000431,3.322404
9759000,0.0324,0.013523,0.002678,0.000431,3.243425
9760000,0.0324,0.013523,0.002678,0.000431,3.284090
9761000,0.0324,0.013523,0.002678,0.000431,3.192771
9762000,0.0324,0.013523,0.002678,0.000431,3.153986
9763000,0.0324,0.013523,0.002678,0.000431,2.993090
9764000,0.0324,0.013523,0.002678,0.000431,2.901771
9765000,0.0324,0.013523,0.002678,0.000431,2.758269
9766000,0.0324,0.013523,0.002678,0.000431,2.685872
9767000,0.0324,0.013523,0.002678,0.000431,2.654962
9768000,0.0324,0.013523,0.002678,0.000431,2.586443
9769000,0.0324,0.013523,0.002678,0.000431,2.447642
9770000,0.0324,0.013523,0.002678,0.000431,2.341632
9771000,0.0324,0.013523,0.002678,0.000431,2.256659
9772000,0.0324,0.013523,0.002678,0.000431,2.150178
9773000,0.0324,0.013523,0.002678,0.000431,2.135840
9774000,0.0324,0.013523,0.002678,0.000431,2.085420
9775000,0.0324,0.013523,0.002678,0.000431,2.104225
9776000,0.0324,0.013523,0.002678,0.000431,2.123852
9777000,0.0324,0.013523,0.002678,0.000431,2.027479
9778000,0.0324,0.013523,0.002678,0.000431,2.123969
9779000,0.0324,0.013523,0.002678,0.000431,2.081072
9780000,0.0324,0.013523,0.002678,0.000431,2.108573
9781000,0.0324,0.013523,0.002678,0.000431,2.056156
9782000,0.0324,0.013523,0.002678,0.000431,2.092589
9783000,0.0324,0.013523,0.002678,0.000431,2.043815
9784000,0.0324,0.013523,0.002678,0.000431,2.044168
9785000,0.0324,0.013523,0.002678,0.000431,1.968597
9786000,0.0324,0.013523,0.002678,0.000431,1.999272
9787000,0.0324,0.013523,0.002678,0.000431,1.984933
9788000,0.0324,0.013523,0.002678,0.000431,1.934161
9789000,0.0324,0.013523,0.002678,0.000431,1.942153
9790000,0.0324,0.013523,0.002678,0.000431,1.960370
9791000,0.0324,0.013523,0.002678,0.000431,1.967304
9792000,0.0324,0.013523,0.002678,0.000431,1.987049
9793000,0.0324,0.013523,0.002678,0.000431,2.037586
9794000,0.0324,0.013523,0.002678,0.000431,1.949087
9795000,0.0324,0.013523,0.002678,0.000431,2.058506
9796000,0.0324,0.013523,0.002678,0.000431,2.065910
9797000,0.0324,0.013523,0.002678,0.000431,2.071199
9798000,0.0324,0.013523,0.002678,0.000431,2.079779
9799000,0.0324,0.013523,0.002678,0.000431,2.090121
9800000,0.0324,0.013523,0.002678,0.000431,2.161108
9801000,0.0324,0.013523,0.002678,0.000431,2.237266
9802000,0.0324,0.013523,0.002678,0.000431,2.267471
9803000,0.0324,0.013523,0.002678,0.000431,2.141246
9804000,0.0324,0.013523,0.002678,0.000431,2.271820
9805000,0.0324,0.013523,0.002678,0.000431,2.200010
9806000,0.0324,0.013523,0.002678,0.000431,2.148180
9807000,0.0324,0.013523,0.002678,0.000431,2.237266
9808000,0.0324,0.013523,0.002678,0.000431,2.298734
9809000,0.0324,0.013523,0.002678,0.000431,2.164046
9810000,0.0324,0.013523,0.002678,0.000431,2.248079
9811000,0.0324,0.013523,0.002678,0.000431,2.281457
9812000,0.0324,0.013523,0.002678,0.000431,2.392521
9813000,0.0324,0.013523,0.002678,0.000431,2.478199
9814000,0.0324,0.013523,0.002678,0.000431,2.506288
9815000,0.0324,0.013523,0.002678,0.000431,2.535906
9816000,0.0324,0.013523,0.002678,0.000431,2.558824
9817000,0.0324,0.013523,0.002678,0.000431,2.696332
9818000,0.0324,0.013523,0.002678,0.000431,2.733823
9819000,0.0324,0.013523,0.002678,0.000431,2.917049
9820000,0.0324,0.013523,0.002678,0.000431,2.821146
9821000,0.0324,0.013523,0.002678,0.000431,2.752980
9822000,0.0324,0.013523,0.002678,0.000431,2.905532
9823000,0.0324,0.013523,0.002678,0.000431,2.994501
9824000,0.0324,0.013523,0.002678,0.000431,3.078886
9825000,0.0324,0.013523,0.002678,0.000431,2.976636
9826000,0.0324,0.013523,0.002678,0.000431,3.023765
9827000,0.0324,0.013523,0.002678,0.000431,3.201350
9828000,0.0324,0.013523,0.002678,0.000431,3.104624
9829000,0.0324,0.013523,0.002678,0.000431,3.208754
9830000,0.0324,0.013523,0.002678,0.000431,3.191125
9831000,0.0324,0.013523,0.002678,0.000431,3.381756
9832000,0.0324,0.013523,0.002678,0.000431,3.458032
9833000,0.0324,0.013523,0.002678,0.000431,3.523612
9834000,0.0324,0.013523,0.002678,0.000431,3.460030
9835000,0.0324,0.013523,0.002678,0.000431,3.352844
9836000,0.0324,0.013523,0.002678,0.000431,3.361659
9837000,0.0324,0.013523,0.002678,0.000431,3.338741
9838000,0.0324,0.013523,0.002678,0.000431,3.220037
9839000,0.0324,0.013523,0.002678,0.000431,3.169500
9840000,0.0324,0.013523,0.002678,0.000431,3.167032
9841000,0.0324,0.013523,0.002678,0.000431,3.091344
9842000,0.0324,0.013523,0.002678,0.000431,3.011190
9843000,0.0324,0.013523,0.002678,0.000431,2.959595
9844000,0.0324,0.013523,0.002678,0.000431,2.894014
9845000,0.0324,0.013523,0.002678,0.000431,3.019299
9846000,0.0324,0.013523,0.002678,0.000431,3.028349
9847000,0.0324,0.013523,0.002678,0.000431,3.162801
9848000,0.0324,0.013523,0.002678,0.000431,3.256588
9849000,0.0324,0.013523,0.002678,0.000431,3.299839
9850000,0.0324,0.013523,0.002678,0.000431,3.228617
9851000,0.0324,0.013523,0.002678,0.000431,3.228147
9852000,0.0324,0.013523,0.002678,0.000431,3.319584
9853000,0.0324,0.013523,0.002678,0.000431,3.182663
9854000,0.0324,0.013523,0.002678,0.000431,3.380581
9855000,0.0324,0.013523,0.002678,0.000431,3.361424
9856000,0.0324,0.013523,0.002678,0.000431,3.463908
9857000,0.0324,0.013523,0.002678,0.000431,3.565570
9858000,0.0324,0.013523,0.002678,0.000431,3.487884
9859000,0.0324,0.013523,0.002678,0.000431,3.484593
9860000,0.0324,0.013523,0.002678,0.000431,3.588958
9861000,0.0324,0.013523,0.002678,0.000431,3.555933
9862000,0.0324,0.013523,0.002678,0.000431,3.546765
9863000,0.0324,0.013523,0.002678,0.000431,3.508921
9864000,0.0324,0.013523,0.002678,0.000431,3.319348
9865000,0.0324,0.013523,0.002678,0.000431,3.391041
9866000,0.0324,0.013523,0.002678,0.000431,3.283972
9867000,0.0324,0.013523,0.002678,0.000431,3.316645
9868000,0.0324,0.013523,0.002678,0.000431,3.234376
9869000,0.0324,0.013523,0.002678,0.000431,3.114732
9870000,0.0324,0.013523,0.002678,0.000431,2.994266
9871000,0.0324,0.013523,0.002678,0.000431,2.986274
9872000,0.0324,0.013523,0.002678,0.000431,2.985451
9873000,0.0324,0.013523,0.002678,0.000431,2.999202
9874000,0.0324,0.013523,0.002678,0.000431,2.845592
9875000,0.0324,0.013523,0.002678,0.000431,2.802695
9876000,0.0324,0.013523,0.002678,0.000431,2.819384
9877000,0.0324,0.013523,0.002678,0.000431,2.877678
9878000,0.0324,0.013523,0.002678,0.000431,2.717487
9879000,0.0324,0.013523,0.002678,0.000431,2.793292
9880000,0.0324,0.013523,0.002678,0.000431,2.782362
9881000,0.0324,0.013523,0.002678,0.000431,2.635217
9882000,0.0324,0.013523,0.002678,0.000431,2.652023
9883000,0.0324,0.013523,0.002678,0.000431,2.720072
9884000,0.0324,0.013523,0.002678,0.000431,2.600781
9885000,0.0324,0.013523,0.002678,0.000431,2.583387
9886000,0.0324,0.013523,0.002678,0.000431,2.476319
9887000,0.0324,0.013523,0.002678,0.000431,2.590439
9888000,0.0324,0.013523,0.002678,0.000431,2.601134
9889000,0.0324,0.013523,0.002678,0.000431,2.446702
9890000,0.0324,0.013523,0.002678,0.000431,2.318714
9891000,0.0324,0.013523,0.002678,0.000431,2.281222
9892000,0.0324,0.013523,0.002678,0.000431,2.284513
9893000,0.0324,0.013523,0.002678,0.000431,2.222575
9894000,0.0324,0.013523,0.002678,0.000431,2.119268
9895000,0.0324,0.013523,0.002678,0.000431,2.143361
9896000,0.0324,0.013523,0.002678,0.000431,2.233153
9897000,0.0324,0.013523,0.002678,0.000431,2.203418
9898000,0.0324,0.013523,0.002678,0.000431,2.189903
9899000,0.0324,0.013523,0.002678,0.000431,2.100111
9900000,0.0324,0.013523,0.002678,0.000431,2.326118
9901000,0.0324,0.013523,0.002678,0.000431,2.199187
9902000,0.0324,0.013523,0.002678,0.000431,2.115037
9903000,0.0324,0.013523,0.002678,0.000431,2.153351
9904000,0.0324,0.013523,0.002678,0.000431,2.214584
9905000,0.0324,0.013523,0.002678,0.000431,2.138543
9906000,0.0324,0.013523,0.002678,0.000431,2.128905
9907000,0.0324,0.013523,0.002678,0.000431,2.080836
9908000,0.0324,0.013523,0.002678,0.000431,2.024658
9909000,0.0324,0.013523,0.002678,0.000431,1.996334
9910000,0.0324,0.013523,0.002678,0.000431,1.852832
9911000,0.0324,0.013523,0.002678,0.000431,2.164164
9912000,0.0324,0.013523,0.002678,0.000431,2.201773
9913000,0.0324,0.013523,0.002678,0.000431,2.200598
9914000,0.0324,0.013523,0.002678,0.000431,2.138778
9915000,0.0324,0.013523,0.002678,0.000431,2.303317
9916000,0.0324,0.013523,0.002678,0.000431,2.236796
9917000,0.0324,0.013523,0.002678,0.000431,2.344452
9918000,0.0324,0.013523,0.002678,0.000431,2.202831
9919000,0.0324,0.013523,0.002678,0.000431,2.312485
9920000,0.0324,0.013523,0.002678,0.000431,2.318126
9921000,0.0324,0.013523,0.002678,0.000431,2.273113
9922000,0.0324,0.013523,0.002678,0.000431,2.321182
9923000,0.0324,0.013523,0.002678,0.000431,2.355970
9924000,0.0324,0.013523,0.002678,0.000431,2.362669
9925000,0.0324,0.013523,0.002678,0.000431,2.284160
9926000,0.0324,0.013523,0.002678,0.000431,2.344570
9927000,0.0324,0.013523,0.002678,0.000431,2.337988
9928000,0.0324,0.013523,0.002678,0.000431,2.270644
9929000,0.0324,0.013523,0.002678,0.000431,2.369133
9930000,0.0324,0.013523,0.002678,0.000431,2.440825
9931000,0.0324,0.013523,0.002678,0.000431,2.462450
9932000,0.0324,0.013523,0.002678,0.000431,2.267589
9933000,0.0324,0.013523,0.002678,0.000431,2.234563
9934000,0.0324,0.013523,0.002678,0.000431,2.329996
9935000,0.0324,0.013523,0.002678,0.000431,2.292975
9936000,0.0324,0.013523,0.002678,0.000431,2.228804
9937000,0.0324,0.013523,0.002678,0.000431,2.322239
9938000,0.0324,0.013523,0.002678,0.000431,2.289919
9939000,0.0324,0.013523,0.002678,0.000431,2.336578
9940000,0.0324,0.013523,0.002678,0.000431,2.099171
9941000,0.0324,0.013523,0.002678,0.000431,2.172038
9942000,0.0324,0.013523,0.002678,0.000431,2.239970
9943000,0.0324,0.013523,0.002678,0.000431,2.182968
9944000,0.0324,0.013523,0.002678,0.000431,2.161578
9945000,0.0324,0.013523,0.002678,0.000431,2.106105
9946000,0.0324,0.013523,0.002678,0.000431,2.049927
9947000,0.0324,0.013523,0.002678,0.000431,2.027714
9948000,0.0324,0.013523,0.002678,0.000431,2.135134
9949000,0.0324,0.013523,0.002678,0.000431,2.049221
9950000,0.0324,0.013523,0.002678,0.000431,1.988929
9951000,0.0324,0.013523,0.002678,0.000431,1.997391
9952000,0.0324,0.013523,0.002678,0.000431,2.137603
9953000,0.0324,0.013523,0.002678,0.000431,1.931106
9954000,0.0324,0.013523,0.002678,0.000431,2.046871
9955000,0.0324,0.013523,0.002678,0.000431,1.994923
9956000,0.0324,0.013523,0.002678,0.000431,1.979880
9957000,0.0324,0.013523,0.002678,0.000431,1.907717
9958000,0.0324,0.013523,0.002678,0.000431,1.727664
9959000,0.0324,0.013523,0.002678,0.000431,1.814635
9960000,0.0324,0.013523,0.002678,0.000431,1.890441
9961000,0.0324,0.013523,0.002678,0.000431,1.959077
9962000,0.0324,0.013523,0.002678,0.000431,1.970478
9963000,0.0324,0.013523,0.002678,0.000431,1.970830
9964000,0.0324,0.013523,0.002678,0.000431,1.991280
9965000,0.0324,0.013523,0.002678,0.000431,1.908658
9966000,0.0324,0.013523,0.002678,0.000431,2.079191
9967000,0.0324,0.013523,0.002678,0.000431,2.162871
9968000,0.0324,0.013523,0.002678,0.000431,2.205064
9969000,0.0324,0.013523,0.002678,0.000431,2.145359
9970000,0.0324,0.013523,0.002678,0.000431,1.967774
9971000,0.0324,0.013523,0.002678,0.000431,1.904544
9972000,0.0324,0.013523,0.002678,0.000431,2.061092
9973000,0.0324,0.013523,0.002678,0.000431,2.031827
9974000,0.0324,0.013523,0.002678,0.000431,1.945562
9975000,0.0324,0.013523,0.002678,0.000431,1.967187
9976000,0.0324,0.013523,0.002678,0.000431,1.959547
9977000,0.0324,0.013523,0.002678,0.000431,1.920528
9978000,0.0324,0.013523,0.002678,0.000431,1.950850
9979000,0.0324,0.013523,0.002678,0.000431,1.915592
9980000,0.0324,0.013523,0.002678,0.000431,2.006089
9981000,0.0324,0.013523,0.002678,0.000431,1.988107
9982000,0.0324,0.013523,0.002678,0.000431,1.999624
9983000,0.0324,0.013523,0.002678,0.000431,2.016666
9984000,0.0324,0.013523,0.002678,0.000431,1.726136
9985000,0.0324,0.013523,0.002678,0.000431,1.949087
9986000,0.0324,0.013523,0.002678,0.000431,1.884447
9987000,0.0324,0.013523,0.002678,0.000431,1.992573
9988000,0.0324,0.013523,0.002678,0.000431,1.944621
9989000,0.0324,0.013523,0.002678,0.000431,1.963308
9990000,0.0324,0.013523,0.002678,0.000431,2.063207
9991000,0.0324,0.013523,0.002678,0.000431,1.922408
9992000,0.0324,0.013523,0.002678,0.000431,2.051572
9993000,0.0324,0.013523,0.002678,0.000431,1.936629
9994000,0.0324,0.013523,0.002678,0.000431,1.944151
9995000,0.0324,0.013523,0.002678,0.000431,2.091649
9996000,0.0324,0.013523,0.002678,0.000431,2.005618
9997000,0.0324,0.013523,0.002678,0.000431,1.844722
9998000,0.0324,0.013523,0.002678,0.000431,1.910656
9999000,0.0324,0.013523,0.002678,0.000431,1.939568
