Cycle,Area(mm^2),PeakDynamic(W),SubthresholdLeakage(W),GateLeakage(W),RunTimeDynamic(W)
4000000,0.0324,0.013523,0.002678,0.000431,2.209177
4001000,0.0324,0.013523,0.002678,0.000431,2.433656
4002000,0.0324,0.013523,0.002678,0.000431,2.203418
4003000,0.0324,0.013523,0.002678,0.000431,2.275228
4004000,0.0324,0.013523,0.002678,0.000431,1.781140
4005000,0.0324,0.013523,0.002678,0.000431,2.263005
4006000,0.0324,0.013523,0.002678,0.000431,2.128435
4007000,0.0324,0.013523,0.002678,0.000431,2.116565
4008000,0.0324,0.013523,0.002678,0.000431,1.922879
4009000,0.0324,0.013523,0.002678,0.000431,2.299439
4010000,0.0324,0.013523,0.002678,0.000431,2.291917
4011000,0.0324,0.013523,0.002678,0.000431,2.116212
4012000,0.0324,0.013523,0.002678,0.000431,2.024776
4013000,0.0324,0.013523,0.002678,0.000431,2.049809
4014000,0.0324,0.013523,0.002678,0.000431,2.326000
4015000,0.0324,0.013523,0.002678,0.000431,2.269822
4016000,0.0324,0.013523,0.002678,0.000431,2.259714
4017000,0.0324,0.013523,0.002678,0.000431,2.227159
4018000,0.0324,0.013523,0.002678,0.000431,2.120561
4019000,0.0324,0.013523,0.002678,0.000431,2.187787
4020000,0.0324,0.013523,0.002678,0.000431,2.388290
4021000,0.0324,0.013523,0.002678,0.000431,2.222105
4022000,0.0324,0.013523,0.002678,0.000431,2.256894
4023000,0.0324,0.013523,0.002678,0.000431,2.274758
4024000,0.0324,0.013523,0.002678,0.000431,2.247844
4025000,0.0324,0.013523,0.002678,0.000431,2.035236
4026000,0.0324,0.013523,0.002678,0.000431,2.099994
4027000,0.0324,0.013523,0.002678,0.000431,2.117153
4028000,0.0324,0.013523,0.002678,0.000431,2.031827
4029000,0.0324,0.013523,0.002678,0.000431,2.137015
4030000,0.0324,0.013523,0.002678,0.000431,2.233741
4031000,0.0324,0.013523,0.002678,0.000431,2.017489
4032000,0.0324,0.013523,0.002678,0.000431,2.311779
4033000,0.0324,0.013523,0.002678,0.000431,2.172391
4034000,0.0324,0.013523,0.002678,0.000431,2.123852
4035000,0.0324,0.013523,0.002678,0.000431,2.054158
4036000,0.0324,0.013523,0.002678,0.000431,1.888325
4037000,0.0324,0.013523,0.002678,0.000431,2.124910
4038000,0.0324,0.013523,0.002678,0.000431,1.996334
4039000,0.0324,0.013523,0.002678,0.000431,2.076958
4040000,0.0324,0.013523,0.002678,0.000431,1.973651
4041000,0.0324,0.013523,0.002678,0.000431,1.932281
4042000,0.0324,0.013523,0.002678,0.000431,2.084597
4043000,0.0324,0.013523,0.002678,0.000431,1.903839
4044000,0.0324,0.013523,0.002678,0.000431,1.925229
4045000,0.0324,0.013523,0.002678,0.000431,2.129611
4046000,0.0324,0.013523,0.002678,0.000431,1.789837
4047000,0.0324,0.013523,0.002678,0.000431,1.641281
4048000,0.0324,0.013523,0.002678,0.000431,1.801825
4049000,0.0324,0.013523,0.002678,0.000431,1.926639
4050000,0.0324,0.013523,0.002678,0.000431,1.922173
4051000,0.0324,0.013523,0.002678,0.000431,2.074490
4052000,0.0324,0.013523,0.002678,0.000431,1.968244
4053000,0.0324,0.013523,0.002678,0.000431,1.787251
4054000,0.0324,0.013523,0.002678,0.000431,1.962015
4055000,0.0324,0.013523,0.002678,0.000431,2.226924
4056000,0.0324,0.013523,0.002678,0.000431,2.062032
4057000,0.0324,0.013523,0.002678,0.000431,1.860471
4058000,0.0324,0.013523,0.002678,0.000431,2.012200
4059000,0.0324,0.013523,0.002678,0.000431,2.183204
4060000,0.0324,0.013523,0.002678,0.000431,2.053335
4061000,0.0324,0.013523,0.002678,0.000431,2.076135
4062000,0.0324,0.013523,0.002678,0.000431,2.029007
4063000,0.0324,0.013523,0.002678,0.000431,2.012553
4064000,0.0324,0.013523,0.002678,0.000431,2.016313
4065000,0.0324,0.013523,0.002678,0.000431,1.906190
4066000,0.0324,0.013523,0.002678,0.000431,2.013728
4067000,0.0324,0.013523,0.002678,0.000431,2.027126
4068000,0.0324,0.013523,0.002678,0.000431,1.911008
4069000,0.0324,0.013523,0.002678,0.000431,1.938275
4070000,0.0324,0.013523,0.002678,0.000431,1.854007
4071000,0.0324,0.013523,0.002678,0.000431,1.810522
4072000,0.0324,0.013523,0.002678,0.000431,1.816516
4073000,0.0324,0.013523,0.002678,0.000431,1.984698
4074000,0.0324,0.013523,0.002678,0.000431,1.853067
4075000,0.0324,0.013523,0.002678,0.000431,1.967539
4076000,0.0324,0.013523,0.002678,0.000431,1.969185
4077000,0.0324,0.013523,0.002678,0.000431,1.971065
4078000,0.0324,0.013523,0.002678,0.000431,1.984111
4079000,0.0324,0.013523,0.002678,0.000431,1.769034
4080000,0.0324,0.013523,0.002678,0.000431,1.806056
4081000,0.0324,0.013523,0.002678,0.000431,1.885740
4082000,0.0324,0.013523,0.002678,0.000431,1.923349
4083000,0.0324,0.013523,0.002678,0.000431,1.809229
4084000,0.0324,0.013523,0.002678,0.000431,1.719790
4085000,0.0324,0.013523,0.002678,0.000431,1.825683
4086000,0.0324,0.013523,0.002678,0.000431,1.942506
4087000,0.0324,0.013523,0.002678,0.000431,1.913711
4088000,0.0324,0.013523,0.002678,0.000431,1.806408
4089000,0.0324,0.013523,0.002678,0.000431,1.836613
4090000,0.0324,0.013523,0.002678,0.000431,1.938745
4091000,0.0324,0.013523,0.002678,0.000431,1.849659
4092000,0.0324,0.013523,0.002678,0.000431,1.858356
4093000,0.0324,0.013523,0.002678,0.000431,1.849188
4094000,0.0324,0.013523,0.002678,0.000431,1.943681
4095000,0.0324,0.013523,0.002678,0.000431,1.886680
4096000,0.0324,0.013523,0.002678,0.000431,1.822745
4097000,0.0324,0.013523,0.002678,0.000431,1.861764
4098000,0.0324,0.013523,0.002678,0.000431,1.685002
4099000,0.0324,0.013523,0.002678,0.000431,2.022072
4100000,0.0324,0.013523,0.002678,0.000431,1.829326
4101000,0.0324,0.013523,0.002678,0.000431,1.923936
4102000,0.0324,0.013523,0.002678,0.000431,1.990927
4103000,0.0324,0.013523,0.002678,0.000431,1.945091
4104000,0.0324,0.013523,0.002678,0.000431,2.062620
4105000,0.0324,0.013523,0.002678,0.000431,2.124792
4106000,0.0324,0.013523,0.002678,0.000431,2.101404
4107000,0.0324,0.013523,0.002678,0.000431,2.111041
4108000,0.0324,0.013523,0.002678,0.000431,2.093294
4109000,0.0324,0.013523,0.002678,0.000431,2.155937
4110000,0.0324,0.013523,0.002678,0.000431,2.182498
4111000,0.0324,0.013523,0.002678,0.000431,2.226806
4112000,0.0324,0.013523,0.002678,0.000431,1.999624
4113000,0.0324,0.013523,0.002678,0.000431,1.885975
4114000,0.0324,0.013523,0.002678,0.000431,2.270292
4115000,0.0324,0.013523,0.002678,0.000431,2.317303
4116000,0.0324,0.013523,0.002678,0.000431,2.221283
4117000,0.0324,0.013523,0.002678,0.000431,2.202126
4118000,0.0324,0.013523,0.002678,0.000431,2.224808
4119000,0.0324,0.013523,0.002678,0.000431,2.214584
4120000,0.0324,0.013523,0.002678,0.000431,2.401101
4121000,0.0324,0.013523,0.002678,0.000431,2.258422
4122000,0.0324,0.013523,0.002678,0.000431,2.114450
4123000,0.0324,0.013523,0.002678,0.000431,2.264768
4124000,0.0324,0.013523,0.002678,0.000431,2.100581
4125000,0.0324,0.013523,0.002678,0.000431,2.345392
4126000,0.0324,0.013523,0.002678,0.000431,2.200598
4127000,0.0324,0.013523,0.002678,0.000431,2.188610
4128000,0.0324,0.013523,0.002678,0.000431,2.082599
4129000,0.0324,0.013523,0.002678,0.000431,2.282515
4130000,0.0324,0.013523,0.002678,0.000431,2.198835
4131000,0.0324,0.013523,0.002678,0.000431,2.147710
4132000,0.0324,0.013523,0.002678,0.000431,2.321534
4133000,0.0324,0.013523,0.002678,0.000431,2.267001
4134000,0.0324,0.013523,0.002678,0.000431,2.264415
4135000,0.0324,0.013523,0.002678,0.000431,2.110924
4136000,0.0324,0.013523,0.002678,0.000431,2.192136
4137000,0.0324,0.013523,0.002678,0.000431,2.160873
4138000,0.0324,0.013523,0.002678,0.000431,1.938980
4139000,0.0324,0.013523,0.002678,0.000431,1.958607
4140000,0.0324,0.013523,0.002678,0.000431,1.943093
4141000,0.0324,0.013523,0.002678,0.000431,2.178150
4142000,0.0324,0.013523,0.002678,0.000431,2.173801
4143000,0.0324,0.013523,0.002678,0.000431,2.112804
4144000,0.0324,0.013523,0.002678,0.000431,2.092707
4145000,0.0324,0.013523,0.002678,0.000431,1.983641
4146000,0.0324,0.013523,0.002678,0.000431,2.168277
4147000,0.0324,0.013523,0.002678,0.000431,2.052512
4148000,0.0324,0.013523,0.002678,0.000431,2.178267
4149000,0.0324,0.013523,0.002678,0.000431,1.912066
4150000,0.0324,0.013523,0.002678,0.000431,2.163576
4151000,0.0324,0.013523,0.002678,0.000431,2.076488
4152000,0.0324,0.013523,0.002678,0.000431,2.085185
4153000,0.0324,0.013523,0.002678,0.000431,2.053100
4154000,0.0324,0.013523,0.002678,0.000431,2.179913
4155000,0.0324,0.013523,0.002678,0.000431,2.139248
4156000,0.0324,0.013523,0.002678,0.000431,2.174389
4157000,0.0324,0.013523,0.002678,0.000431,2.118210
4158000,0.0324,0.013523,0.002678,0.000431,2.074490
4159000,0.0324,0.013523,0.002678,0.000431,1.971183
4160000,0.0324,0.013523,0.002678,0.000431,1.977294
4161000,0.0324,0.013523,0.002678,0.000431,1.980585
4162000,0.0324,0.013523,0.002678,0.000431,1.870696
4163000,0.0324,0.013523,0.002678,0.000431,1.910303
4164000,0.0324,0.013523,0.002678,0.000431,2.028654
4165000,0.0324,0.013523,0.002678,0.000431,1.899843
4166000,0.0324,0.013523,0.002678,0.000431,1.927227
4167000,0.0324,0.013523,0.002678,0.000431,1.849306
4168000,0.0324,0.013523,0.002678,0.000431,1.968244
4169000,0.0324,0.013523,0.002678,0.000431,1.917237
4170000,0.0324,0.013523,0.002678,0.000431,2.073432
4171000,0.0324,0.013523,0.002678,0.000431,2.022895
4172000,0.0324,0.013523,0.002678,0.000431,2.175094
4173000,0.0324,0.013523,0.002678,0.000431,2.078368
4174000,0.0324,0.013523,0.002678,0.000431,2.019017
4175000,0.0324,0.013523,0.002678,0.000431,1.980938
4176000,0.0324,0.013523,0.002678,0.000431,1.965189
4177000,0.0324,0.013523,0.002678,0.000431,1.861411
4178000,0.0324,0.013523,0.002678,0.000431,1.926757
4179000,0.0324,0.013523,0.002678,0.000431,1.875515
4180000,0.0324,0.013523,0.002678,0.000431,1.961193
4181000,0.0324,0.013523,0.002678,0.000431,1.965071
4182000,0.0324,0.013523,0.002678,0.000431,2.094470
4183000,0.0324,0.013523,0.002678,0.000431,2.009849
4184000,0.0324,0.013523,0.002678,0.000431,2.115742
4185000,0.0324,0.013523,0.002678,0.000431,2.152411
4186000,0.0324,0.013523,0.002678,0.000431,2.054745
4187000,0.0324,0.013523,0.002678,0.000431,2.185201
4188000,0.0324,0.013523,0.002678,0.000431,2.095410
4189000,0.0324,0.013523,0.002678,0.000431,2.119268
4190000,0.0324,0.013523,0.002678,0.000431,1.978234
4191000,0.0324,0.013523,0.002678,0.000431,1.973768
4192000,0.0324,0.013523,0.002678,0.000431,1.790424
4193000,0.0324,0.013523,0.002678,0.000431,2.191783
4194000,0.0324,0.013523,0.002678,0.000431,2.011612
4195000,0.0324,0.013523,0.002678,0.000431,2.011612
4196000,0.0324,0.013523,0.002678,0.000431,1.955434
4197000,0.0324,0.013523,0.002678,0.000431,2.001387
4198000,0.0324,0.013523,0.002678,0.000431,2.142186
4199000,0.0324,0.013523,0.002678,0.000431,2.022660
4200000,0.0324,0.013523,0.002678,0.000431,1.970948
4201000,0.0324,0.013523,0.002678,0.000431,1.693699
4202000,0.0324,0.013523,0.002678,0.000431,2.090239
4203000,0.0324,0.013523,0.002678,0.000431,2.238442
4204000,0.0324,0.013523,0.002678,0.000431,2.010907
4205000,0.0324,0.013523,0.002678,0.000431,2.396047
4206000,0.0324,0.013523,0.002678,0.000431,2.146887
4207000,0.0324,0.013523,0.002678,0.000431,2.157700
4208000,0.0324,0.013523,0.002678,0.000431,2.193899
4209000,0.0324,0.013523,0.002678,0.000431,2.220695
4210000,0.0324,0.013523,0.002678,0.000431,2.071552
4211000,0.0324,0.013523,0.002678,0.000431,1.968597
4212000,0.0324,0.013523,0.002678,0.000431,1.988694
4213000,0.0324,0.013523,0.002678,0.000431,2.203653
4214000,0.0324,0.013523,0.002678,0.000431,2.089651
4215000,0.0324,0.013523,0.002678,0.000431,2.047223
4216000,0.0324,0.013523,0.002678,0.000431,2.322474
4217000,0.0324,0.013523,0.002678,0.000431,2.068731
4218000,0.0324,0.013523,0.002678,0.000431,2.310016
4219000,0.0324,0.013523,0.002678,0.000431,2.171686
4220000,0.0324,0.013523,0.002678,0.000431,2.148415
4221000,0.0324,0.013523,0.002678,0.000431,2.108573
4222000,0.0324,0.013523,0.002678,0.000431,2.207414
4223000,0.0324,0.013523,0.002678,0.000431,2.179090
4224000,0.0324,0.013523,0.002678,0.000431,2.082364
4225000,0.0324,0.013523,0.002678,0.000431,2.204829
4226000,0.0324,0.013523,0.002678,0.000431,2.073667
4227000,0.0324,0.013523,0.002678,0.000431,2.098818
4228000,0.0324,0.013523,0.002678,0.000431,2.140776
4229000,0.0324,0.013523,0.002678,0.000431,1.850481
4230000,0.0324,0.013523,0.002678,0.000431,1.971065
4231000,0.0324,0.013523,0.002678,0.000431,2.044403
4232000,0.0324,0.013523,0.002678,0.000431,1.848836
4233000,0.0324,0.013523,0.002678,0.000431,2.056743
4234000,0.0324,0.013523,0.002678,0.000431,1.807466
4235000,0.0324,0.013523,0.002678,0.000431,1.974121
4236000,0.0324,0.013523,0.002678,0.000431,1.877748
4237000,0.0324,0.013523,0.002678,0.000431,1.749172
4238000,0.0324,0.013523,0.002678,0.000431,1.995276
4239000,0.0324,0.013523,0.002678,0.000431,1.866935
4240000,0.0324,0.013523,0.002678,0.000431,2.003268
4241000,0.0324,0.013523,0.002678,0.000431,1.912066
4242000,0.0324,0.013523,0.002678,0.000431,1.929695
4243000,0.0324,0.013523,0.002678,0.000431,1.901724
4244000,0.0324,0.013523,0.002678,0.000431,2.028771
4245000,0.0324,0.013523,0.002678,0.000431,1.874339
4246000,0.0324,0.013523,0.002678,0.000431,2.037469
4247000,0.0324,0.013523,0.002678,0.000431,2.048869
4248000,0.0324,0.013523,0.002678,0.000431,2.132431
4249000,0.0324,0.013523,0.002678,0.000431,2.038879
4250000,0.0324,0.013523,0.002678,0.000431,2.091414
4251000,0.0324,0.013523,0.002678,0.000431,2.109043
4252000,0.0324,0.013523,0.002678,0.000431,1.960840
4253000,0.0324,0.013523,0.002678,0.000431,2.144419
4254000,0.0324,0.013523,0.002678,0.000431,2.297206
4255000,0.0324,0.013523,0.002678,0.000431,2.111276
4256000,0.0324,0.013523,0.002678,0.000431,2.111394
4257000,0.0324,0.013523,0.002678,0.000431,2.117505
4258000,0.0324,0.013523,0.002678,0.000431,1.883272
4259000,0.0324,0.013523,0.002678,0.000431,2.117623
4260000,0.0324,0.013523,0.002678,0.000431,2.124792
4261000,0.0324,0.013523,0.002678,0.000431,2.057566
4262000,0.0324,0.013523,0.002678,0.000431,1.976236
4263000,0.0324,0.013523,0.002678,0.000431,2.056273
4264000,0.0324,0.013523,0.002678,0.000431,1.962486
4265000,0.0324,0.013523,0.002678,0.000431,2.046636
4266000,0.0324,0.013523,0.002678,0.000431,2.059094
4267000,0.0324,0.013523,0.002678,0.000431,2.103167
4268000,0.0324,0.013523,0.002678,0.000431,1.865877
4269000,0.0324,0.013523,0.002678,0.000431,1.970830
4270000,0.0324,0.013523,0.002678,0.000431,1.900313
4271000,0.0324,0.013523,0.002678,0.000431,1.908305
4272000,0.0324,0.013523,0.002678,0.000431,2.184379
4273000,0.0324,0.013523,0.002678,0.000431,2.104812
4274000,0.0324,0.013523,0.002678,0.000431,2.235151
4275000,0.0324,0.013523,0.002678,0.000431,2.052395
4276000,0.0324,0.013523,0.002678,0.000431,1.980467
4277000,0.0324,0.013523,0.002678,0.000431,2.215524
4278000,0.0324,0.013523,0.002678,0.000431,2.270057
4279000,0.0324,0.013523,0.002678,0.000431,2.287333
4280000,0.0324,0.013523,0.002678,0.000431,2.247021
4281000,0.0324,0.013523,0.002678,0.000431,1.973768
4282000,0.0324,0.013523,0.002678,0.000431,2.086360
4283000,0.0324,0.013523,0.002678,0.000431,2.228099
4284000,0.0324,0.013523,0.002678,0.000431,2.153116
4285000,0.0324,0.013523,0.002678,0.000431,2.121971
4286000,0.0324,0.013523,0.002678,0.000431,1.961898
4287000,0.0324,0.013523,0.002678,0.000431,2.510049
4288000,0.0324,0.013523,0.002678,0.000431,2.197072
4289000,0.0324,0.013523,0.002678,0.000431,2.307666
4290000,0.0324,0.013523,0.002678,0.000431,2.268882
4291000,0.0324,0.013523,0.002678,0.000431,1.982700
4292000,0.0324,0.013523,0.002678,0.000431,2.021015
4293000,0.0324,0.013523,0.002678,0.000431,2.029477
4294000,0.0324,0.013523,0.002678,0.000431,1.940038
4295000,0.0324,0.013523,0.002678,0.000431,2.046283
4296000,0.0324,0.013523,0.002678,0.000431,2.225279
4297000,0.0324,0.013523,0.002678,0.000431,2.162871
4298000,0.0324,0.013523,0.002678,0.000431,2.106340
4299000,0.0324,0.013523,0.002678,0.000431,2.144067
4300000,0.0324,0.013523,0.002678,0.000431,1.946502
4301000,0.0324,0.013523,0.002678,0.000431,2.153351
4302000,0.0324,0.013523,0.002678,0.000431,1.968597
4303000,0.0324,0.013523,0.002678,0.000431,2.097525
4304000,0.0324,0.013523,0.002678,0.000431,1.933456
4305000,0.0324,0.013523,0.002678,0.000431,2.065558
4306000,0.0324,0.013523,0.002678,0.000431,2.052747
4307000,0.0324,0.013523,0.002678,0.000431,2.213526
4308000,0.0324,0.013523,0.002678,0.000431,1.990222
4309000,0.0324,0.013523,0.002678,0.000431,1.980938
4310000,0.0324,0.013523,0.002678,0.000431,1.954964
4311000,0.0324,0.013523,0.002678,0.000431,1.971418
4312000,0.0324,0.013523,0.002678,0.000431,2.064147
4313000,0.0324,0.013523,0.002678,0.000431,1.884447
4314000,0.0324,0.013523,0.002678,0.000431,2.010320
4315000,0.0324,0.013523,0.002678,0.000431,2.031475
4316000,0.0324,0.013523,0.002678,0.000431,1.835673
4317000,0.0324,0.013523,0.002678,0.000431,1.813577
4318000,0.0324,0.013523,0.002678,0.000431,1.922056
4319000,0.0324,0.013523,0.002678,0.000431,2.024658
4320000,0.0324,0.013523,0.002678,0.000431,1.937687
4321000,0.0324,0.013523,0.002678,0.000431,2.050749
4322000,0.0324,0.013523,0.002678,0.000431,2.003620
4323000,0.0324,0.013523,0.002678,0.000431,1.924054
4324000,0.0324,0.013523,0.002678,0.000431,1.961310
4325000,0.0324,0.013523,0.002678,0.000431,1.983288
4326000,0.0324,0.013523,0.002678,0.000431,1.989047
4327000,0.0324,0.013523,0.002678,0.000431,1.911831
4328000,0.0324,0.013523,0.002678,0.000431,1.875632
4329000,0.0324,0.013523,0.002678,0.000431,1.747291
4330000,0.0324,0.013523,0.002678,0.000431,1.957902
4331000,0.0324,0.013523,0.002678,0.000431,1.880333
4332000,0.0324,0.013523,0.002678,0.000431,1.896552
4333000,0.0324,0.013523,0.002678,0.000431,1.958490
4334000,0.0324,0.013523,0.002678,0.000431,1.905249
4335000,0.0324,0.013523,0.002678,0.000431,2.046166
4336000,0.0324,0.013523,0.002678,0.000431,1.853302
4337000,0.0324,0.013523,0.002678,0.000431,1.803000
4338000,0.0324,0.013523,0.002678,0.000431,1.723198
4339000,0.0324,0.013523,0.002678,0.000431,1.999977
4340000,0.0324,0.013523,0.002678,0.000431,1.942623
4341000,0.0324,0.013523,0.002678,0.000431,2.078486
4342000,0.0324,0.013523,0.002678,0.000431,2.199775
4343000,0.0324,0.013523,0.002678,0.000431,2.022072
4344000,0.0324,0.013523,0.002678,0.000431,2.020192
4345000,0.0324,0.013523,0.002678,0.000431,2.097408
4346000,0.0324,0.013523,0.002678,0.000431,2.201303
4347000,0.0324,0.013523,0.002678,0.000431,2.192958
4348000,0.0324,0.013523,0.002678,0.000431,2.211645
4349000,0.0324,0.013523,0.002678,0.000431,2.026656
4350000,0.0324,0.013523,0.002678,0.000431,2.144067
4351000,0.0324,0.013523,0.002678,0.000431,2.273465
4352000,0.0324,0.013523,0.002678,0.000431,2.040289
4353000,0.0324,0.013523,0.002678,0.000431,2.230332
4354000,0.0324,0.013523,0.002678,0.000431,2.163694
4355000,0.0324,0.013523,0.002678,0.000431,2.105988
4356000,0.0324,0.013523,0.002678,0.000431,2.014668
4357000,0.0324,0.013523,0.002678,0.000431,2.130081
4358000,0.0324,0.013523,0.002678,0.000431,2.108103
4359000,0.0324,0.013523,0.002678,0.000431,2.348566
4360000,0.0324,0.013523,0.002678,0.000431,2.074960
4361000,0.0324,0.013523,0.002678,0.000431,2.360318
4362000,0.0324,0.013523,0.002678,0.000431,2.086125
4363000,0.0324,0.013523,0.002678,0.000431,2.149943
4364000,0.0324,0.013523,0.002678,0.000431,2.123734
4365000,0.0324,0.013523,0.002678,0.000431,2.030652
4366000,0.0324,0.013523,0.002678,0.000431,2.036058
4367000,0.0324,0.013523,0.002678,0.000431,2.052512
4368000,0.0324,0.013523,0.002678,0.000431,2.110806
4369000,0.0324,0.013523,0.002678,0.000431,2.003856
4370000,0.0324,0.013523,0.002678,0.000431,2.048281
4371000,0.0324,0.013523,0.002678,0.000431,2.163576
4372000,0.0324,0.013523,0.002678,0.000431,2.028184
4373000,0.0324,0.013523,0.002678,0.000431,2.167925
4374000,0.0324,0.013523,0.002678,0.000431,2.005266
4375000,0.0324,0.013523,0.002678,0.000431,2.157465
4376000,0.0324,0.013523,0.002678,0.000431,1.879981
4377000,0.0324,0.013523,0.002678,0.000431,2.207179
4378000,0.0324,0.013523,0.002678,0.000431,2.147475
4379000,0.0324,0.013523,0.002678,0.000431,2.085420
4380000,0.0324,0.013523,0.002678,0.000431,2.105165
4381000,0.0324,0.013523,0.002678,0.000431,2.294385
4382000,0.0324,0.013523,0.002678,0.000431,2.297206
4383000,0.0324,0.013523,0.002678,0.000431,2.069201
4384000,0.0324,0.013523,0.002678,0.000431,2.043698
4385000,0.0324,0.013523,0.002678,0.000431,2.034295
4386000,0.0324,0.013523,0.002678,0.000431,2.133137
4387000,0.0324,0.013523,0.002678,0.000431,2.025363
4388000,0.0324,0.013523,0.002678,0.000431,2.105635
4389000,0.0324,0.013523,0.002678,0.000431,1.918177
4390000,0.0324,0.013523,0.002678,0.000431,1.947442
4391000,0.0324,0.013523,0.002678,0.000431,2.056743
4392000,0.0324,0.013523,0.002678,0.000431,2.097290
4393000,0.0324,0.013523,0.002678,0.000431,2.051572
4394000,0.0324,0.013523,0.002678,0.000431,2.045225
4395000,0.0324,0.013523,0.002678,0.000431,2.109866
4396000,0.0324,0.013523,0.002678,0.000431,2.328468
4397000,0.0324,0.013523,0.002678,0.000431,2.270762
4398000,0.0324,0.013523,0.002678,0.000431,1.952731
4399000,0.0324,0.013523,0.002678,0.000431,2.148533
4400000,0.0324,0.013523,0.002678,0.000431,1.918765
4401000,0.0324,0.013523,0.002678,0.000431,1.880568
4402000,0.0324,0.013523,0.002678,0.000431,2.033002
4403000,0.0324,0.013523,0.002678,0.000431,2.096468
4404000,0.0324,0.013523,0.002678,0.000431,1.905955
4405000,0.0324,0.013523,0.002678,0.000431,1.847543
4406000,0.0324,0.013523,0.002678,0.000431,1.978352
4407000,0.0324,0.013523,0.002678,0.000431,2.029359
4408000,0.0324,0.013523,0.002678,0.000431,1.971065
4409000,0.0324,0.013523,0.002678,0.000431,2.061209
4410000,0.0324,0.013523,0.002678,0.000431,1.924642
4411000,0.0324,0.013523,0.002678,0.000431,1.929578
4412000,0.0324,0.013523,0.002678,0.000431,2.080954
4413000,0.0324,0.013523,0.002678,0.000431,2.027479
4414000,0.0324,0.013523,0.002678,0.000431,1.937922
4415000,0.0324,0.013523,0.002678,0.000431,2.048046
4416000,0.0324,0.013523,0.002678,0.000431,2.061092
4417000,0.0324,0.013523,0.002678,0.000431,2.044638
4418000,0.0324,0.013523,0.002678,0.000431,1.821804
4419000,0.0324,0.013523,0.002678,0.000431,1.975884
4420000,0.0324,0.013523,0.002678,0.000431,1.993748
4421000,0.0324,0.013523,0.002678,0.000431,1.902311
4422000,0.0324,0.013523,0.002678,0.000431,1.922408
4423000,0.0324,0.013523,0.002678,0.000431,1.816045
4424000,0.0324,0.013523,0.002678,0.000431,1.727547
4425000,0.0324,0.013523,0.002678,0.000431,1.668313
4426000,0.0324,0.013523,0.002678,0.000431,1.846368
4427000,0.0324,0.013523,0.002678,0.000431,1.778554
4428000,0.0324,0.013523,0.002678,0.000431,1.999389
4429000,0.0324,0.013523,0.002678,0.000431,2.055450
4430000,0.0324,0.013523,0.002678,0.000431,1.915944
4431000,0.0324,0.013523,0.002678,0.000431,2.062149
4432000,0.0324,0.013523,0.002678,0.000431,1.805468
4433000,0.0324,0.013523,0.002678,0.000431,2.008439
4434000,0.0324,0.013523,0.002678,0.000431,1.977999
4435000,0.0324,0.013523,0.002678,0.000431,2.105047
4436000,0.0324,0.013523,0.002678,0.000431,1.997509
4437000,0.0324,0.013523,0.002678,0.000431,1.952496
4438000,0.0324,0.013523,0.002678,0.000431,2.037704
4439000,0.0324,0.013523,0.002678,0.000431,2.060504
4440000,0.0324,0.013523,0.002678,0.000431,1.942741
4441000,0.0324,0.013523,0.002678,0.000431,2.036293
4442000,0.0324,0.013523,0.002678,0.000431,1.929343
4443000,0.0324,0.013523,0.002678,0.000431,1.944974
4444000,0.0324,0.013523,0.002678,0.000431,1.730838
4445000,0.0324,0.013523,0.002678,0.000431,1.853654
4446000,0.0324,0.013523,0.002678,0.000431,1.920646
4447000,0.0324,0.013523,0.002678,0.000431,2.026186
4448000,0.0324,0.013523,0.002678,0.000431,1.795948
4449000,0.0324,0.013523,0.002678,0.000431,1.915239
4450000,0.0324,0.013523,0.002678,0.000431,2.015373
4451000,0.0324,0.013523,0.002678,0.000431,1.886797
4452000,0.0324,0.013523,0.002678,0.000431,1.779377
4453000,0.0324,0.013523,0.002678,0.000431,1.927110
4454000,0.0324,0.013523,0.002678,0.000431,1.869286
4455000,0.0324,0.013523,0.002678,0.000431,2.048046
4456000,0.0324,0.013523,0.002678,0.000431,2.013963
4457000,0.0324,0.013523,0.002678,0.000431,1.848248
4458000,0.0324,0.013523,0.002678,0.000431,2.107045
4459000,0.0324,0.013523,0.002678,0.000431,1.866348
4460000,0.0324,0.013523,0.002678,0.000431,1.732953
4461000,0.0324,0.013523,0.002678,0.000431,1.930283
4462000,0.0324,0.013523,0.002678,0.000431,2.089181
4463000,0.0324,0.013523,0.002678,0.000431,1.999742
4464000,0.0324,0.013523,0.002678,0.000431,2.159933
4465000,0.0324,0.013523,0.002678,0.000431,2.075430
4466000,0.0324,0.013523,0.002678,0.000431,1.975531
4467000,0.0324,0.013523,0.002678,0.000431,1.848248
4468000,0.0324,0.013523,0.002678,0.000431,1.924524
4469000,0.0324,0.013523,0.002678,0.000431,1.991045
4470000,0.0324,0.013523,0.002678,0.000431,2.093530
4471000,0.0324,0.013523,0.002678,0.000431,1.967304
4472000,0.0324,0.013523,0.002678,0.000431,1.847896
4473000,0.0324,0.013523,0.002678,0.000431,1.957314
4474000,0.0324,0.013523,0.002678,0.000431,2.269939
4475000,0.0324,0.013523,0.002678,0.000431,2.053335
4476000,0.0324,0.013523,0.002678,0.000431,1.857650
4477000,0.0324,0.013523,0.002678,0.000431,1.993631
4478000,0.0324,0.013523,0.002678,0.000431,2.219637
4479000,0.0324,0.013523,0.002678,0.000431,2.041229
4480000,0.0324,0.013523,0.002678,0.000431,1.914299
4481000,0.0324,0.013523,0.002678,0.000431,1.893732
4482000,0.0324,0.013523,0.002678,0.000431,2.203183
4483000,0.0324,0.013523,0.002678,0.000431,1.963661
4484000,0.0324,0.013523,0.002678,0.000431,2.115977
4485000,0.0324,0.013523,0.002678,0.000431,2.148533
4486000,0.0324,0.013523,0.002678,0.000431,1.985286
4487000,0.0324,0.013523,0.002678,0.000431,2.021955
4488000,0.0324,0.013523,0.002678,0.000431,2.274288
4489000,0.0324,0.013523,0.002678,0.000431,2.162166
4490000,0.0324,0.013523,0.002678,0.000431,2.031005
4491000,0.0324,0.013523,0.002678,0.000431,1.912536
4492000,0.0324,0.013523,0.002678,0.000431,2.091296
4493000,0.0324,0.013523,0.002678,0.000431,2.161343
4494000,0.0324,0.013523,0.002678,0.000431,2.280869
4495000,0.0324,0.013523,0.002678,0.000431,2.001505
4496000,0.0324,0.013523,0.002678,0.000431,1.929225
4497000,0.0324,0.013523,0.002678,0.000431,1.877513
4498000,0.0324,0.013523,0.002678,0.000431,2.037116
4499000,0.0324,0.013523,0.002678,0.000431,1.877395
4500000,0.0324,0.013523,0.002678,0.000431,2.127848
4501000,0.0324,0.013523,0.002678,0.000431,2.140071
4502000,0.0324,0.013523,0.002678,0.000431,2.110219
4503000,0.0324,0.013523,0.002678,0.000431,2.021015
4504000,0.0324,0.013523,0.002678,0.000431,1.719085
4505000,0.0324,0.013523,0.002678,0.000431,1.868933
4506000,0.0324,0.013523,0.002678,0.000431,2.115507
4507000,0.0324,0.013523,0.002678,0.000431,1.976824
4508000,0.0324,0.013523,0.002678,0.000431,2.095292
4509000,0.0324,0.013523,0.002678,0.000431,1.975531
4510000,0.0324,0.013523,0.002678,0.000431,2.080601
4511000,0.0324,0.013523,0.002678,0.000431,2.175564
4512000,0.0324,0.013523,0.002678,0.000431,1.888208
4513000,0.0324,0.013523,0.002678,0.000431,1.877278
4514000,0.0324,0.013523,0.002678,0.000431,1.934044
4515000,0.0324,0.013523,0.002678,0.000431,2.255836
4516000,0.0324,0.013523,0.002678,0.000431,2.075195
4517000,0.0324,0.013523,0.002678,0.000431,2.004091
4518000,0.0324,0.013523,0.002678,0.000431,1.849071
4519000,0.0324,0.013523,0.002678,0.000431,2.101286
4520000,0.0324,0.013523,0.002678,0.000431,1.993866
4521000,0.0324,0.013523,0.002678,0.000431,1.831324
4522000,0.0324,0.013523,0.002678,0.000431,1.918765
4523000,0.0324,0.013523,0.002678,0.000431,2.219755
4524000,0.0324,0.013523,0.002678,0.000431,2.120679
4525000,0.0324,0.013523,0.002678,0.000431,2.004796
4526000,0.0324,0.013523,0.002678,0.000431,2.061444
4527000,0.0324,0.013523,0.002678,0.000431,2.138425
4528000,0.0324,0.013523,0.002678,0.000431,2.156407
4529000,0.0324,0.013523,0.002678,0.000431,2.119621
4530000,0.0324,0.013523,0.002678,0.000431,1.988812
4531000,0.0324,0.013523,0.002678,0.000431,2.057096
4532000,0.0324,0.013523,0.002678,0.000431,1.950968
4533000,0.0324,0.013523,0.002678,0.000431,2.150413
4534000,0.0324,0.013523,0.002678,0.000431,2.135722
4535000,0.0324,0.013523,0.002678,0.000431,2.032767
4536000,0.0324,0.013523,0.002678,0.000431,2.110924
4537000,0.0324,0.013523,0.002678,0.000431,2.113862
4538000,0.0324,0.013523,0.002678,0.000431,1.985991
4539000,0.0324,0.013523,0.002678,0.000431,2.183674
4540000,0.0324,0.013523,0.002678,0.000431,2.048516
4541000,0.0324,0.013523,0.002678,0.000431,2.193193
4542000,0.0324,0.013523,0.002678,0.000431,2.166985
4543000,0.0324,0.013523,0.002678,0.000431,2.059211
4544000,0.0324,0.013523,0.002678,0.000431,1.933456
4545000,0.0324,0.013523,0.002678,0.000431,2.145712
4546000,0.0324,0.013523,0.002678,0.000431,2.043345
4547000,0.0324,0.013523,0.002678,0.000431,2.036998
4548000,0.0324,0.013523,0.002678,0.000431,2.053805
4549000,0.0324,0.013523,0.002678,0.000431,1.996804
4550000,0.0324,0.013523,0.002678,0.000431,1.916767
4551000,0.0324,0.013523,0.002678,0.000431,1.908540
4552000,0.0324,0.013523,0.002678,0.000431,2.185907
4553000,0.0324,0.013523,0.002678,0.000431,1.986696
4554000,0.0324,0.013523,0.002678,0.000431,1.817221
4555000,0.0324,0.013523,0.002678,0.000431,1.770797
4556000,0.0324,0.013523,0.002678,0.000431,1.990340
4557000,0.0324,0.013523,0.002678,0.000431,1.903369
4558000,0.0324,0.013523,0.002678,0.000431,1.898080
4559000,0.0324,0.013523,0.002678,0.000431,1.826858
4560000,0.0324,0.013523,0.002678,0.000431,1.796183
4561000,0.0324,0.013523,0.002678,0.000431,1.742238
4562000,0.0324,0.013523,0.002678,0.000431,1.720378
4563000,0.0324,0.013523,0.002678,0.000431,1.904662
4564000,0.0324,0.013523,0.002678,0.000431,1.863527
4565000,0.0324,0.013523,0.002678,0.000431,1.799474
4566000,0.0324,0.013523,0.002678,0.000431,1.893732
4567000,0.0324,0.013523,0.002678,0.000431,1.937452
4568000,0.0324,0.013523,0.002678,0.000431,2.041229
4569000,0.0324,0.013523,0.002678,0.000431,1.921703
4570000,0.0324,0.013523,0.002678,0.000431,1.938275
4571000,0.0324,0.013523,0.002678,0.000431,1.832029
4572000,0.0324,0.013523,0.002678,0.000431,1.956022
4573000,0.0324,0.013523,0.002678,0.000431,1.955316
4574000,0.0324,0.013523,0.002678,0.000431,1.934396
4575000,0.0324,0.013523,0.002678,0.000431,1.863292
4576000,0.0324,0.013523,0.002678,0.000431,1.955786
4577000,0.0324,0.013523,0.002678,0.000431,1.793480
4578000,0.0324,0.013523,0.002678,0.000431,1.700515
4579000,0.0324,0.013523,0.002678,0.000431,1.984581
4580000,0.0324,0.013523,0.002678,0.000431,2.015961
4581000,0.0324,0.013523,0.002678,0.000431,2.140776
4582000,0.0324,0.013523,0.002678,0.000431,2.163341
4583000,0.0324,0.013523,0.002678,0.000431,2.137015
4584000,0.0324,0.013523,0.002678,0.000431,2.120091
4585000,0.0324,0.013523,0.002678,0.000431,2.052395
4586000,0.0324,0.013523,0.002678,0.000431,2.108691
4587000,0.0324,0.013523,0.002678,0.000431,1.952731
4588000,0.0324,0.013523,0.002678,0.000431,1.975766
4589000,0.0324,0.013523,0.002678,0.000431,2.033002
4590000,0.0324,0.013523,0.002678,0.000431,1.998919
4591000,0.0324,0.013523,0.002678,0.000431,1.915827
4592000,0.0324,0.013523,0.002678,0.000431,1.984581
4593000,0.0324,0.013523,0.002678,0.000431,2.116095
4594000,0.0324,0.013523,0.002678,0.000431,2.111629
4595000,0.0324,0.013523,0.002678,0.000431,2.072962
4596000,0.0324,0.013523,0.002678,0.000431,2.104107
4597000,0.0324,0.013523,0.002678,0.000431,2.215876
4598000,0.0324,0.013523,0.002678,0.000431,2.177445
4599000,0.0324,0.013523,0.002678,0.000431,2.142774
4600000,0.0324,0.013523,0.002678,0.000431,2.062620
4601000,0.0324,0.013523,0.002678,0.000431,2.271232
4602000,0.0324,0.013523,0.002678,0.000431,2.113274
4603000,0.0324,0.013523,0.002678,0.000431,2.093530
4604000,0.0324,0.013523,0.002678,0.000431,2.211528
4605000,0.0324,0.013523,0.002678,0.000431,2.287804
4606000,0.0324,0.013523,0.002678,0.000431,2.058271
4607000,0.0324,0.013523,0.002678,0.000431,2.011142
4608000,0.0324,0.013523,0.002678,0.000431,2.395930
4609000,0.0324,0.013523,0.002678,0.000431,2.071082
4610000,0.0324,0.013523,0.002678,0.000431,2.061209
4611000,0.0324,0.013523,0.002678,0.000431,2.163341
4612000,0.0324,0.013523,0.002678,0.000431,2.225866
4613000,0.0324,0.013523,0.002678,0.000431,2.341279
4614000,0.0324,0.013523,0.002678,0.000431,2.261125
4615000,0.0324,0.013523,0.002678,0.000431,2.264063
4616000,0.0324,0.013523,0.002678,0.000431,2.232683
4617000,0.0324,0.013523,0.002678,0.000431,2.353267
4618000,0.0324,0.013523,0.002678,0.000431,2.366312
4619000,0.0324,0.013523,0.002678,0.000431,2.397457
4620000,0.0324,0.013523,0.002678,0.000431,2.407095
4621000,0.0324,0.013523,0.002678,0.000431,2.200128
4622000,0.0324,0.013523,0.002678,0.000431,2.251605
4623000,0.0324,0.013523,0.002678,0.000431,2.189903
4624000,0.0324,0.013523,0.002678,0.000431,2.241733
4625000,0.0324,0.013523,0.002678,0.000431,2.259714
4626000,0.0324,0.013523,0.002678,0.000431,2.006206
4627000,0.0324,0.013523,0.002678,0.000431,2.164281
4628000,0.0324,0.013523,0.002678,0.000431,2.330584
4629000,0.0324,0.013523,0.002678,0.000431,2.059564
4630000,0.0324,0.013523,0.002678,0.000431,2.083305
4631000,0.0324,0.013523,0.002678,0.000431,2.293210
4632000,0.0324,0.013523,0.002678,0.000431,2.277344
4633000,0.0324,0.013523,0.002678,0.000431,2.121971
4634000,0.0324,0.013523,0.002678,0.000431,2.028066
4635000,0.0324,0.013523,0.002678,0.000431,2.045931
4636000,0.0324,0.013523,0.002678,0.000431,2.029712
4637000,0.0324,0.013523,0.002678,0.000431,2.034530
4638000,0.0324,0.013523,0.002678,0.000431,2.037469
4639000,0.0324,0.013523,0.002678,0.000431,2.021485
4640000,0.0324,0.013523,0.002678,0.000431,1.787251
4641000,0.0324,0.013523,0.002678,0.000431,2.115037
4642000,0.0324,0.013523,0.002678,0.000431,2.015961
4643000,0.0324,0.013523,0.002678,0.000431,2.035000
4644000,0.0324,0.013523,0.002678,0.000431,1.959547
4645000,0.0324,0.013523,0.002678,0.000431,2.101756
4646000,0.0324,0.013523,0.002678,0.000431,2.269822
4647000,0.0324,0.013523,0.002678,0.000431,1.990810
4648000,0.0324,0.013523,0.002678,0.000431,2.202948
4649000,0.0324,0.013523,0.002678,0.000431,2.033355
4650000,0.0324,0.013523,0.002678,0.000431,2.280634
4651000,0.0324,0.013523,0.002678,0.000431,2.147005
4652000,0.0324,0.013523,0.002678,0.000431,2.310134
4653000,0.0324,0.013523,0.002678,0.000431,2.037351
4654000,0.0324,0.013523,0.002678,0.000431,1.888325
4655000,0.0324,0.013523,0.002678,0.000431,1.965189
4656000,0.0324,0.013523,0.002678,0.000431,2.257716
4657000,0.0324,0.013523,0.002678,0.000431,1.994336
4658000,0.0324,0.013523,0.002678,0.000431,2.208942
4659000,0.0324,0.013523,0.002678,0.000431,1.959077
4660000,0.0324,0.013523,0.002678,0.000431,2.092589
4661000,0.0324,0.013523,0.002678,0.000431,2.346450
4662000,0.0324,0.013523,0.002678,0.000431,2.016313
4663000,0.0324,0.013523,0.002678,0.000431,2.137838
4664000,0.0324,0.013523,0.002678,0.000431,2.024776
4665000,0.0324,0.013523,0.002678,0.000431,1.805703
4666000,0.0324,0.013523,0.002678,0.000431,1.913946
4667000,0.0324,0.013523,0.002678,0.000431,1.904662
4668000,0.0324,0.013523,0.002678,0.000431,1.932516
4669000,0.0324,0.013523,0.002678,0.000431,1.887855
4670000,0.0324,0.013523,0.002678,0.000431,1.973886
4671000,0.0324,0.013523,0.002678,0.000431,1.985991
4672000,0.0324,0.013523,0.002678,0.000431,1.787956
4673000,0.0324,0.013523,0.002678,0.000431,1.946384
4674000,0.0324,0.013523,0.002678,0.000431,1.833910
4675000,0.0324,0.013523,0.002678,0.000431,2.033473
4676000,0.0324,0.013523,0.002678,0.000431,1.858708
4677000,0.0324,0.013523,0.002678,0.000431,2.043580
4678000,0.0324,0.013523,0.002678,0.000431,1.967657
4679000,0.0324,0.013523,0.002678,0.000431,1.703689
4680000,0.0324,0.013523,0.002678,0.000431,2.082834
4681000,0.0324,0.013523,0.002678,0.000431,1.903839
4682000,0.0324,0.013523,0.002678,0.000431,1.891499
4683000,0.0324,0.013523,0.002678,0.000431,1.917355
4684000,0.0324,0.013523,0.002678,0.000431,1.895847
4685000,0.0324,0.013523,0.002678,0.000431,1.892439
4686000,0.0324,0.013523,0.002678,0.000431,1.813695
4687000,0.0324,0.013523,0.002678,0.000431,1.823215
4688000,0.0324,0.013523,0.002678,0.000431,1.958842
4689000,0.0324,0.013523,0.002678,0.000431,2.062855
4690000,0.0324,0.013523,0.002678,0.000431,1.925934
4691000,0.0324,0.013523,0.002678,0.000431,1.742120
4692000,0.0324,0.013523,0.002678,0.000431,1.857180
4693000,0.0324,0.013523,0.002678,0.000431,1.890206
4694000,0.0324,0.013523,0.002678,0.000431,1.789367
4695000,0.0324,0.013523,0.002678,0.000431,1.785958
4696000,0.0324,0.013523,0.002678,0.000431,1.724491
4697000,0.0324,0.013523,0.002678,0.000431,1.730838
4698000,0.0324,0.013523,0.002678,0.000431,1.736479
4699000,0.0324,0.013523,0.002678,0.000431,1.808641
4700000,0.0324,0.013523,0.002678,0.000431,1.702396
4701000,0.0324,0.013523,0.002678,0.000431,1.754696
4702000,0.0324,0.013523,0.002678,0.000431,1.783490
4703000,0.0324,0.013523,0.002678,0.000431,1.673954
4704000,0.0324,0.013523,0.002678,0.000431,1.685589
4705000,0.0324,0.013523,0.002678,0.000431,1.745646
4706000,0.0324,0.013523,0.002678,0.000431,1.691231
4707000,0.0324,0.013523,0.002678,0.000431,1.648450
4708000,0.0324,0.013523,0.002678,0.000431,1.502363
4709000,0.0324,0.013523,0.002678,0.000431,1.533860
4710000,0.0324,0.013523,0.002678,0.000431,1.824625
4711000,0.0324,0.013523,0.002678,0.000431,1.814870
4712000,0.0324,0.013523,0.002678,0.000431,1.638108
4713000,0.0324,0.013523,0.002678,0.000431,1.727077
4714000,0.0324,0.013523,0.002678,0.000431,1.665609
4715000,0.0324,0.013523,0.002678,0.000431,1.759632
4716000,0.0324,0.013523,0.002678,0.000431,1.708155
4717000,0.0324,0.013523,0.002678,0.000431,1.675482
4718000,0.0324,0.013523,0.002678,0.000431,1.705099
4719000,0.0324,0.013523,0.002678,0.000431,1.748349
4720000,0.0324,0.013523,0.002678,0.000431,1.673249
4721000,0.0324,0.013523,0.002678,0.000431,1.586160
4722000,0.0324,0.013523,0.002678,0.000431,1.595445
4723000,0.0324,0.013523,0.002678,0.000431,1.887620
4724000,0.0324,0.013523,0.002678,0.000431,1.770445
4725000,0.0324,0.013523,0.002678,0.000431,1.808876
4726000,0.0324,0.013523,0.002678,0.000431,1.627530
4727000,0.0324,0.013523,0.002678,0.000431,1.981995
4728000,0.0324,0.013523,0.002678,0.000431,1.674659
4729000,0.0324,0.013523,0.002678,0.000431,1.600851
4730000,0.0324,0.013523,0.002678,0.000431,1.754461
4731000,0.0324,0.013523,0.002678,0.000431,1.799592
4732000,0.0324,0.013523,0.002678,0.000431,2.116095
4733000,0.0324,0.013523,0.002678,0.000431,1.805585
4734000,0.0324,0.013523,0.002678,0.000431,1.610724
4735000,0.0324,0.013523,0.002678,0.000431,1.591449
4736000,0.0324,0.013523,0.002678,0.000431,1.706509
4737000,0.0324,0.013523,0.002678,0.000431,1.892909
4738000,0.0324,0.013523,0.002678,0.000431,1.971888
4739000,0.0324,0.013523,0.002678,0.000431,1.967657
4740000,0.0324,0.013523,0.002678,0.000431,1.917942
4741000,0.0324,0.013523,0.002678,0.000431,1.967774
4742000,0.0324,0.013523,0.002678,0.000431,1.840139
4743000,0.0324,0.013523,0.002678,0.000431,2.027596
4744000,0.0324,0.013523,0.002678,0.000431,1.871754
4745000,0.0324,0.013523,0.002678,0.000431,1.844135
4746000,0.0324,0.013523,0.002678,0.000431,1.871871
4747000,0.0324,0.013523,0.002678,0.000431,1.659733
4748000,0.0324,0.013523,0.002678,0.000431,1.768212
4749000,0.0324,0.013523,0.002678,0.000431,1.592859
4750000,0.0324,0.013523,0.002678,0.000431,1.766566
4751000,0.0324,0.013523,0.002678,0.000431,1.504126
4752000,0.0324,0.013523,0.002678,0.000431,1.742825
4753000,0.0324,0.013523,0.002678,0.000431,1.790307
4754000,0.0324,0.013523,0.002678,0.000431,1.821922
4755000,0.0324,0.013523,0.002678,0.000431,1.709682
4756000,0.0324,0.013523,0.002678,0.000431,1.983876
4757000,0.0324,0.013523,0.002678,0.000431,1.693816
4758000,0.0324,0.013523,0.002678,0.000431,1.587101
4759000,0.0324,0.013523,0.002678,0.000431,1.665257
4760000,0.0324,0.013523,0.002678,0.000431,1.936629
4761000,0.0324,0.013523,0.002678,0.000431,1.724726
4762000,0.0324,0.013523,0.002678,0.000431,1.725314
4763000,0.0324,0.013523,0.002678,0.000431,1.846720
4764000,0.0324,0.013523,0.002678,0.000431,1.798416
4765000,0.0324,0.013523,0.002678,0.000431,1.738242
4766000,0.0324,0.013523,0.002678,0.000431,1.770562
4767000,0.0324,0.013523,0.002678,0.000431,1.873047
4768000,0.0324,0.013523,0.002678,0.000431,1.845075
4769000,0.0324,0.013523,0.002678,0.000431,1.813812
4770000,0.0324,0.013523,0.002678,0.000431,1.831912
4771000,0.0324,0.013523,0.002678,0.000431,1.697342
4772000,0.0324,0.013523,0.002678,0.000431,2.081894
4773000,0.0324,0.013523,0.002678,0.000431,2.188962
4774000,0.0324,0.013523,0.002678,0.000431,2.125145
4775000,0.0324,0.013523,0.002678,0.000431,2.160521
4776000,0.0324,0.013523,0.002678,0.000431,2.074137
4777000,0.0324,0.013523,0.002678,0.000431,1.974356
4778000,0.0324,0.013523,0.002678,0.000431,2.107398
4779000,0.0324,0.013523,0.002678,0.000431,1.713208
4780000,0.0324,0.013523,0.002678,0.000431,1.875985
4781000,0.0324,0.013523,0.002678,0.000431,2.039349
4782000,0.0324,0.013523,0.002678,0.000431,2.096585
4783000,0.0324,0.013523,0.002678,0.000431,1.880451
4784000,0.0324,0.013523,0.002678,0.000431,1.854360
4785000,0.0324,0.013523,0.002678,0.000431,1.816163
4786000,0.0324,0.013523,0.002678,0.000431,2.019252
4787000,0.0324,0.013523,0.002678,0.000431,2.042052
4788000,0.0324,0.013523,0.002678,0.000431,2.023130
4789000,0.0324,0.013523,0.002678,0.000431,1.981878
4790000,0.0324,0.013523,0.002678,0.000431,2.029947
4791000,0.0324,0.013523,0.002678,0.000431,2.231860
4792000,0.0324,0.013523,0.002678,0.000431,2.072727
4793000,0.0324,0.013523,0.002678,0.000431,2.170158
4794000,0.0324,0.013523,0.002678,0.000431,2.199187
4795000,0.0324,0.013523,0.002678,0.000431,2.006441
4796000,0.0324,0.013523,0.002678,0.000431,2.105870
4797000,0.0324,0.013523,0.002678,0.000431,2.077193
4798000,0.0324,0.013523,0.002678,0.000431,1.994923
4799000,0.0324,0.013523,0.002678,0.000431,2.093765
4800000,0.0324,0.013523,0.002678,0.000431,2.070376
4801000,0.0324,0.013523,0.002678,0.000431,2.248667
4802000,0.0324,0.013523,0.002678,0.000431,2.206474
4803000,0.0324,0.013523,0.002678,0.000431,2.370073
4804000,0.0324,0.013523,0.002678,0.000431,2.223046
4805000,0.0324,0.013523,0.002678,0.000431,2.401923
4806000,0.0324,0.013523,0.002678,0.000431,2.475614
4807000,0.0324,0.013523,0.002678,0.000431,2.470560
4808000,0.0324,0.013523,0.002678,0.000431,2.439415
4809000,0.0324,0.013523,0.002678,0.000431,2.497944
4810000,0.0324,0.013523,0.002678,0.000431,2.464096
4811000,0.0324,0.013523,0.002678,0.000431,2.448112
4812000,0.0324,0.013523,0.002678,0.000431,2.440355
4813000,0.0324,0.013523,0.002678,0.000431,2.323885
4814000,0.0324,0.013523,0.002678,0.000431,2.430365
4815000,0.0324,0.013523,0.002678,0.000431,2.359378
4816000,0.0324,0.013523,0.002678,0.000431,2.192371
4817000,0.0324,0.013523,0.002678,0.000431,2.030769
4818000,0.0324,0.013523,0.002678,0.000431,2.252898
4819000,0.0324,0.013523,0.002678,0.000431,2.178267
4820000,0.0324,0.013523,0.002678,0.000431,2.128200
4821000,0.0324,0.013523,0.002678,0.000431,2.319419
4822000,0.0324,0.013523,0.002678,0.000431,2.281692
4823000,0.0324,0.013523,0.002678,0.000431,2.371719
4824000,0.0324,0.013523,0.002678,0.000431,2.387938
4825000,0.0324,0.013523,0.002678,0.000431,2.312602
4826000,0.0324,0.013523,0.002678,0.000431,2.322945
4827000,0.0324,0.013523,0.002678,0.000431,2.217169
4828000,0.0324,0.013523,0.002678,0.000431,2.250195
4829000,0.0324,0.013523,0.002678,0.000431,2.122559
4830000,0.0324,0.013523,0.002678,0.000431,2.162048
4831000,0.0324,0.013523,0.002678,0.000431,2.274170
4832000,0.0324,0.013523,0.002678,0.000431,2.203653
4833000,0.0324,0.013523,0.002678,0.000431,2.195544
4834000,0.0324,0.013523,0.002678,0.000431,2.269939
4835000,0.0324,0.013523,0.002678,0.000431,2.228804
4836000,0.0324,0.013523,0.002678,0.000431,2.348566
4837000,0.0324,0.013523,0.002678,0.000431,2.345510
4838000,0.0324,0.013523,0.002678,0.000431,2.369133
4839000,0.0324,0.013523,0.002678,0.000431,2.382884
4840000,0.0324,0.013523,0.002678,0.000431,2.263828
4841000,0.0324,0.013523,0.002678,0.000431,2.096938
4842000,0.0324,0.013523,0.002678,0.000431,2.189315
4843000,0.0324,0.013523,0.002678,0.000431,2.367723
4844000,0.0324,0.013523,0.002678,0.000431,2.211528
4845000,0.0324,0.013523,0.002678,0.000431,2.305550
4846000,0.0324,0.013523,0.002678,0.000431,2.381121
4847000,0.0324,0.013523,0.002678,0.000431,2.404156
4848000,0.0324,0.013523,0.002678,0.000431,2.424371
4849000,0.0324,0.013523,0.002678,0.000431,2.369133
4850000,0.0324,0.013523,0.002678,0.000431,2.372541
4851000,0.0324,0.013523,0.002678,0.000431,2.373599
4852000,0.0324,0.013523,0.002678,0.000431,2.285571
4853000,0.0324,0.013523,0.002678,0.000431,2.273700
4854000,0.0324,0.013523,0.002678,0.000431,2.320359
4855000,0.0324,0.013523,0.002678,0.000431,2.170981
4856000,0.0324,0.013523,0.002678,0.000431,2.275228
4857000,0.0324,0.013523,0.002678,0.000431,2.255131
4858000,0.0324,0.013523,0.002678,0.000431,2.213761
4859000,0.0324,0.013523,0.002678,0.000431,2.164517
4860000,0.0324,0.013523,0.002678,0.000431,2.267824
4861000,0.0324,0.013523,0.002678,0.000431,2.055215
4862000,0.0324,0.013523,0.002678,0.000431,2.084245
4863000,0.0324,0.013523,0.002678,0.000431,2.107398
4864000,0.0324,0.013523,0.002678,0.000431,2.123852
4865000,0.0324,0.013523,0.002678,0.000431,1.981525
4866000,0.0324,0.013523,0.002678,0.000431,1.887268
4867000,0.0324,0.013523,0.002678,0.000431,1.815340
4868000,0.0324,0.013523,0.002678,0.000431,1.885035
4869000,0.0324,0.013523,0.002678,0.000431,1.860119
4870000,0.0324,0.013523,0.002678,0.000431,1.755401
4871000,0.0324,0.013523,0.002678,0.000431,1.734246
4872000,0.0324,0.013523,0.002678,0.000431,1.777614
4873000,0.0324,0.013523,0.002678,0.000431,1.861294
4874000,0.0324,0.013523,0.002678,0.000431,1.914887
4875000,0.0324,0.013523,0.002678,0.000431,1.902899
4876000,0.0324,0.013523,0.002678,0.000431,1.914652
4877000,0.0324,0.013523,0.002678,0.000431,1.824272
4878000,0.0324,0.013523,0.002678,0.000431,1.731660
4879000,0.0324,0.013523,0.002678,0.000431,1.690643
4880000,0.0324,0.013523,0.002678,0.000431,1.602614
4881000,0.0324,0.013523,0.002678,0.000431,1.628823
4882000,0.0324,0.013523,0.002678,0.000431,1.673366
4883000,0.0324,0.013523,0.002678,0.000431,1.797123
4884000,0.0324,0.013523,0.002678,0.000431,1.756694
4885000,0.0324,0.013523,0.002678,0.000431,1.857886
4886000,0.0324,0.013523,0.002678,0.000431,2.069084
4887000,0.0324,0.013523,0.002678,0.000431,1.968127
4888000,0.0324,0.013523,0.002678,0.000431,2.013375
4889000,0.0324,0.013523,0.002678,0.000431,2.049809
4890000,0.0324,0.013523,0.002678,0.000431,2.158993
4891000,0.0324,0.013523,0.002678,0.000431,2.174741
4892000,0.0324,0.013523,0.002678,0.000431,2.142774
4893000,0.0324,0.013523,0.002678,0.000431,2.136427
4894000,0.0324,0.013523,0.002678,0.000431,2.139718
4895000,0.0324,0.013523,0.002678,0.000431,2.174036
4896000,0.0324,0.013523,0.002678,0.000431,2.250077
4897000,0.0324,0.013523,0.002678,0.000431,2.272290
4898000,0.0324,0.013523,0.002678,0.000431,2.328821
4899000,0.0324,0.013523,0.002678,0.000431,2.312837
4900000,0.0324,0.013523,0.002678,0.000431,2.330819
4901000,0.0324,0.013523,0.002678,0.000431,2.343865
4902000,0.0324,0.013523,0.002678,0.000431,2.278989
4903000,0.0324,0.013523,0.002678,0.000431,2.358908
4904000,0.0324,0.013523,0.002678,0.000431,2.387350
4905000,0.0324,0.013523,0.002678,0.000431,2.298264
4906000,0.0324,0.013523,0.002678,0.000431,2.332817
4907000,0.0324,0.013523,0.002678,0.000431,2.314365
4908000,0.0324,0.013523,0.002678,0.000431,2.323062
4909000,0.0324,0.013523,0.002678,0.000431,2.257599
4910000,0.0324,0.013523,0.002678,0.000431,2.272878
4911000,0.0324,0.013523,0.002678,0.000431,2.305080
4912000,0.0324,0.013523,0.002678,0.000431,2.300379
4913000,0.0324,0.013523,0.002678,0.000431,2.225631
4914000,0.0324,0.013523,0.002678,0.000431,2.298734
4915000,0.0324,0.013523,0.002678,0.000431,2.381121
4916000,0.0324,0.013523,0.002678,0.000431,2.327998
4917000,0.0324,0.013523,0.002678,0.000431,2.299909
4918000,0.0324,0.013523,0.002678,0.000431,2.297558
4919000,0.0324,0.013523,0.002678,0.000431,2.346685
4920000,0.0324,0.013523,0.002678,0.000431,2.329996
4921000,0.0324,0.013523,0.002678,0.000431,2.376067
4922000,0.0324,0.013523,0.002678,0.000431,2.361024
4923000,0.0324,0.013523,0.002678,0.000431,2.533790
4924000,0.0324,0.013523,0.002678,0.000431,2.452461
4925000,0.0324,0.013523,0.002678,0.000431,2.435184
4926000,0.0324,0.013523,0.002678,0.000431,2.277344
4927000,0.0324,0.013523,0.002678,0.000431,2.306726
4928000,0.0324,0.013523,0.002678,0.000431,2.384647
4929000,0.0324,0.013523,0.002678,0.000431,2.466917
4930000,0.0324,0.013523,0.002678,0.000431,2.458102
4931000,0.0324,0.013523,0.002678,0.000431,2.534730
4932000,0.0324,0.013523,0.002678,0.000431,2.354207
4933000,0.0324,0.013523,0.002678,0.000431,2.088593
4934000,0.0324,0.013523,0.002678,0.000431,2.113157
4935000,0.0324,0.013523,0.002678,0.000431,2.044050
4936000,0.0324,0.013523,0.002678,0.000431,1.989047
4937000,0.0324,0.013523,0.002678,0.000431,2.334345
4938000,0.0324,0.013523,0.002678,0.000431,2.209177
4939000,0.0324,0.013523,0.002678,0.000431,2.090709
4940000,0.0324,0.013523,0.002678,0.000431,2.098936
4941000,0.0324,0.013523,0.002678,0.000431,2.349388
4942000,0.0324,0.013523,0.002678,0.000431,2.385234
4943000,0.0324,0.013523,0.002678,0.000431,2.188375
4944000,0.0324,0.013523,0.002678,0.000431,2.255013
4945000,0.0324,0.013523,0.002678,0.000431,2.268529
4946000,0.0324,0.013523,0.002678,0.000431,2.270644
4947000,0.0324,0.013523,0.002678,0.000431,2.313190
4948000,0.0324,0.013523,0.002678,0.000431,2.082129
4949000,0.0324,0.013523,0.002678,0.000431,1.887503
4950000,0.0324,0.013523,0.002678,0.000431,2.401806
4951000,0.0324,0.013523,0.002678,0.000431,2.267824
4952000,0.0324,0.013523,0.002678,0.000431,2.099053
4953000,0.0324,0.013523,0.002678,0.000431,2.240322
4954000,0.0324,0.013523,0.002678,0.000431,2.106105
4955000,0.0324,0.013523,0.002678,0.000431,2.010437
4956000,0.0324,0.013523,0.002678,0.000431,2.185319
4957000,0.0324,0.013523,0.002678,0.000431,2.217992
4958000,0.0324,0.013523,0.002678,0.000431,2.093530
4959000,0.0324,0.013523,0.002678,0.000431,2.179443
4960000,0.0324,0.013523,0.002678,0.000431,1.726254
4961000,0.0324,0.013523,0.002678,0.000431,2.160638
4962000,0.0324,0.013523,0.002678,0.000431,2.265473
4963000,0.0324,0.013523,0.002678,0.000431,2.149590
4964000,0.0324,0.013523,0.002678,0.000431,1.989047
4965000,0.0324,0.013523,0.002678,0.000431,2.056508
4966000,0.0324,0.013523,0.002678,0.000431,1.945326
4967000,0.0324,0.013523,0.002678,0.000431,2.052277
4968000,0.0324,0.013523,0.002678,0.000431,2.073080
4969000,0.0324,0.013523,0.002678,0.000431,2.138895
4970000,0.0324,0.013523,0.002678,0.000431,1.938862
4971000,0.0324,0.013523,0.002678,0.000431,2.226571
4972000,0.0324,0.013523,0.002678,0.000431,2.022190
4973000,0.0324,0.013523,0.002678,0.000431,2.017959
4974000,0.0324,0.013523,0.002678,0.000431,1.875867
4975000,0.0324,0.013523,0.002678,0.000431,2.091296
4976000,0.0324,0.013523,0.002678,0.000431,1.856240
4977000,0.0324,0.013523,0.002678,0.000431,1.853654
4978000,0.0324,0.013523,0.002678,0.000431,1.972240
4979000,0.0324,0.013523,0.002678,0.000431,1.769387
4980000,0.0324,0.013523,0.002678,0.000431,1.895024
4981000,0.0324,0.013523,0.002678,0.000431,2.074960
4982000,0.0324,0.013523,0.002678,0.000431,2.058741
4983000,0.0324,0.013523,0.002678,0.000431,1.985521
4984000,0.0324,0.013523,0.002678,0.000431,2.065910
4985000,0.0324,0.013523,0.002678,0.000431,1.732130
4986000,0.0324,0.013523,0.002678,0.000431,1.947442
4987000,0.0324,0.013523,0.002678,0.000431,1.741062
4988000,0.0324,0.013523,0.002678,0.000431,2.072492
4989000,0.0324,0.013523,0.002678,0.000431,1.884799
4990000,0.0324,0.013523,0.002678,0.000431,1.916062
4991000,0.0324,0.013523,0.002678,0.000431,1.904779
4992000,0.0324,0.013523,0.002678,0.000431,1.932046
4993000,0.0324,0.013523,0.002678,0.000431,1.903016
4994000,0.0324,0.013523,0.002678,0.000431,1.903839
4995000,0.0324,0.013523,0.002678,0.000431,1.831207
4996000,0.0324,0.013523,0.002678,0.000431,1.744941
4997000,0.0324,0.013523,0.002678,0.000431,1.967304
4998000,0.0324,0.013523,0.002678,0.000431,1.841549
4999000,0.0324,0.013523,0.002678,0.000431,1.987872
