Cycle,Area(mm^2),PeakDynamic(W),SubthresholdLeakage(W),GateLeakage(W),RunTimeDynamic(W)
1000,0.0324,0.013523,0.002678,0.000431,0.000000
2000,0.0324,0.013523,0.002678,0.000431,0.000000
3000,0.0324,0.013523,0.002678,0.000431,0.000000
4000,0.0324,0.013523,0.002678,0.000431,0.000000
5000,0.0324,0.013523,0.002678,0.000431,0.000000
6000,0.0324,0.013523,0.002678,0.000431,0.616435
7000,0.0324,0.013523,0.002678,0.000431,0.939873
8000,0.0324,0.013523,0.002678,0.000431,0.347648
9000,0.0324,0.013523,0.002678,0.000431,1.021790
10000,0.0324,0.013523,0.002678,0.000431,1.302212
11000,0.0324,0.013523,0.002678,0.000431,1.358743
12000,0.0324,0.013523,0.002678,0.000431,1.386245
13000,0.0324,0.013523,0.002678,0.000431,1.517289
14000,0.0324,0.013523,0.002678,0.000431,1.417742
15000,0.0324,0.013523,0.002678,0.000431,1.545378
16000,0.0324,0.013523,0.002678,0.000431,1.570647
17000,0.0324,0.013523,0.002678,0.000431,1.388595
18000,0.0324,0.013523,0.002678,0.000431,1.379546
19000,0.0324,0.013523,0.002678,0.000431,1.337236
20000,0.0324,0.013523,0.002678,0.000431,1.392239
21000,0.0324,0.013523,0.002678,0.000431,1.367558
22000,0.0324,0.013523,0.002678,0.000431,1.337471
23000,0.0324,0.013523,0.002678,0.000431,1.288932
24000,0.0324,0.013523,0.002678,0.000431,1.272243
25000,0.0324,0.013523,0.002678,0.000431,1.211598
26000,0.0324,0.013523,0.002678,0.000431,1.176927
27000,0.0324,0.013523,0.002678,0.000431,1.151306
28000,0.0324,0.013523,0.002678,0.000431,1.017794
29000,0.0324,0.013523,0.002678,0.000431,0.924947
30000,0.0324,0.013523,0.002678,0.000431,0.938463
31000,0.0324,0.013523,0.002678,0.000431,0.873822
32000,0.0324,0.013523,0.002678,0.000431,0.860189
33000,0.0324,0.013523,0.002678,0.000431,0.844087
34000,0.0324,0.013523,0.002678,0.000431,0.741955
35000,0.0324,0.013523,0.002678,0.000431,0.765108
36000,0.0324,0.013523,0.002678,0.000431,0.698000
37000,0.0324,0.013523,0.002678,0.000431,0.591167
38000,0.0324,0.013523,0.002678,0.000431,0.519004
39000,0.0324,0.013523,0.002678,0.000431,0.472463
40000,0.0324,0.013523,0.002678,0.000431,0.468702
41000,0.0324,0.013523,0.002678,0.000431,0.443316
42000,0.0324,0.013523,0.002678,0.000431,0.416990
43000,0.0324,0.013523,0.002678,0.000431,0.404179
44000,0.0324,0.013523,0.002678,0.000431,0.391721
45000,0.0324,0.013523,0.002678,0.000431,0.355523
46000,0.0324,0.013523,0.002678,0.000431,0.354583
47000,0.0324,0.013523,0.002678,0.000431,0.329549
48000,0.0324,0.013523,0.002678,0.000431,0.302282
49000,0.0324,0.013523,0.002678,0.000431,0.319559
50000,0.0324,0.013523,0.002678,0.000431,0.297464
51000,0.0324,0.013523,0.002678,0.000431,0.270197
52000,0.0324,0.013523,0.002678,0.000431,0.240815
53000,0.0324,0.013523,0.002678,0.000431,0.243166
54000,0.0324,0.013523,0.002678,0.000431,0.217662
55000,0.0324,0.013523,0.002678,0.000431,0.184402
56000,0.0324,0.013523,0.002678,0.000431,0.185342
57000,0.0324,0.013523,0.002678,0.000431,0.215664
58000,0.0324,0.013523,0.002678,0.000431,0.228122
59000,0.0324,0.013523,0.002678,0.000431,0.184049
60000,0.0324,0.013523,0.002678,0.000431,0.190513
61000,0.0324,0.013523,0.002678,0.000431,0.190631
62000,0.0324,0.013523,0.002678,0.000431,0.192159
63000,0.0324,0.013523,0.002678,0.000431,0.163482
64000,0.0324,0.013523,0.002678,0.000431,0.153844
65000,0.0324,0.013523,0.002678,0.000431,0.164304
66000,0.0324,0.013523,0.002678,0.000431,0.156900
67000,0.0324,0.013523,0.002678,0.000431,0.158193
68000,0.0324,0.013523,0.002678,0.000431,0.152434
69000,0.0324,0.013523,0.002678,0.000431,0.153257
70000,0.0324,0.013523,0.002678,0.000431,0.142914
71000,0.0324,0.013523,0.002678,0.000431,0.146793
72000,0.0324,0.013523,0.002678,0.000431,0.140799
73000,0.0324,0.013523,0.002678,0.000431,0.141151
74000,0.0324,0.013523,0.002678,0.000431,0.143972
75000,0.0324,0.013523,0.002678,0.000431,0.137038
76000,0.0324,0.013523,0.002678,0.000431,0.139271
77000,0.0324,0.013523,0.002678,0.000431,0.129986
78000,0.0324,0.013523,0.002678,0.000431,0.134922
79000,0.0324,0.013523,0.002678,0.000431,0.145617
80000,0.0324,0.013523,0.002678,0.000431,0.128106
81000,0.0324,0.013523,0.002678,0.000431,0.132454
82000,0.0324,0.013523,0.002678,0.000431,0.122582
83000,0.0324,0.013523,0.002678,0.000431,0.136450
84000,0.0324,0.013523,0.002678,0.000431,0.129046
85000,0.0324,0.013523,0.002678,0.000431,0.129163
86000,0.0324,0.013523,0.002678,0.000431,0.114590
87000,0.0324,0.013523,0.002678,0.000431,0.122934
88000,0.0324,0.013523,0.002678,0.000431,0.120349
89000,0.0324,0.013523,0.002678,0.000431,0.123992
90000,0.0324,0.013523,0.002678,0.000431,0.118468
91000,0.0324,0.013523,0.002678,0.000431,0.108243
92000,0.0324,0.013523,0.002678,0.000431,0.118703
93000,0.0324,0.013523,0.002678,0.000431,0.111534
94000,0.0324,0.013523,0.002678,0.000431,0.115648
95000,0.0324,0.013523,0.002678,0.000431,0.116118
96000,0.0324,0.013523,0.002678,0.000431,0.108126
97000,0.0324,0.013523,0.002678,0.000431,0.104365
98000,0.0324,0.013523,0.002678,0.000431,0.111182
99000,0.0324,0.013523,0.002678,0.000431,0.108949
100000,0.0324,0.013523,0.002678,0.000431,0.112592
101000,0.0324,0.013523,0.002678,0.000431,0.100722
102000,0.0324,0.013523,0.002678,0.000431,0.102837
103000,0.0324,0.013523,0.002678,0.000431,0.104365
104000,0.0324,0.013523,0.002678,0.000431,0.107891
105000,0.0324,0.013523,0.002678,0.000431,0.101427
106000,0.0324,0.013523,0.002678,0.000431,0.098371
107000,0.0324,0.013523,0.002678,0.000431,0.103777
108000,0.0324,0.013523,0.002678,0.000431,0.096608
109000,0.0324,0.013523,0.002678,0.000431,0.100839
110000,0.0324,0.013523,0.002678,0.000431,0.096021
111000,0.0324,0.013523,0.002678,0.000431,0.099311
112000,0.0324,0.013523,0.002678,0.000431,0.092260
113000,0.0324,0.013523,0.002678,0.000431,0.094140
114000,0.0324,0.013523,0.002678,0.000431,0.091202
115000,0.0324,0.013523,0.002678,0.000431,0.096726
116000,0.0324,0.013523,0.002678,0.000431,0.092965
117000,0.0324,0.013523,0.002678,0.000431,0.086501
118000,0.0324,0.013523,0.002678,0.000431,0.089086
119000,0.0324,0.013523,0.002678,0.000431,0.094963
120000,0.0324,0.013523,0.002678,0.000431,0.092495
121000,0.0324,0.013523,0.002678,0.000431,0.079096
122000,0.0324,0.013523,0.002678,0.000431,0.087794
123000,0.0324,0.013523,0.002678,0.000431,0.088499
124000,0.0324,0.013523,0.002678,0.000431,0.086501
125000,0.0324,0.013523,0.002678,0.000431,0.088616
126000,0.0324,0.013523,0.002678,0.000431,0.080272
127000,0.0324,0.013523,0.002678,0.000431,0.080977
128000,0.0324,0.013523,0.002678,0.000431,0.087794
129000,0.0324,0.013523,0.002678,0.000431,0.082505
130000,0.0324,0.013523,0.002678,0.000431,0.084620
131000,0.0324,0.013523,0.002678,0.000431,0.076863
132000,0.0324,0.013523,0.002678,0.000431,0.080507
133000,0.0324,0.013523,0.002678,0.000431,0.079802
134000,0.0324,0.013523,0.002678,0.000431,0.077216
135000,0.0324,0.013523,0.002678,0.000431,0.081330
136000,0.0324,0.013523,0.002678,0.000431,0.076158
137000,0.0324,0.013523,0.002678,0.000431,0.074395
138000,0.0324,0.013523,0.002678,0.000431,0.075101
139000,0.0324,0.013523,0.002678,0.000431,0.075688
140000,0.0324,0.013523,0.002678,0.000431,0.077804
141000,0.0324,0.013523,0.002678,0.000431,0.074983
142000,0.0324,0.013523,0.002678,0.000431,0.076276
143000,0.0324,0.013523,0.002678,0.000431,0.073103
144000,0.0324,0.013523,0.002678,0.000431,0.072045
145000,0.0324,0.013523,0.002678,0.000431,0.070399
146000,0.0324,0.013523,0.002678,0.000431,0.076276
147000,0.0324,0.013523,0.002678,0.000431,0.071340
148000,0.0324,0.013523,0.002678,0.000431,0.074630
149000,0.0324,0.013523,0.002678,0.000431,0.067461
150000,0.0324,0.013523,0.002678,0.000431,0.065933
151000,0.0324,0.013523,0.002678,0.000431,0.072162
152000,0.0324,0.013523,0.002678,0.000431,0.077216
153000,0.0324,0.013523,0.002678,0.000431,0.070517
154000,0.0324,0.013523,0.002678,0.000431,0.062407
155000,0.0324,0.013523,0.002678,0.000431,0.067696
156000,0.0324,0.013523,0.002678,0.000431,0.072162
157000,0.0324,0.013523,0.002678,0.000431,0.069107
158000,0.0324,0.013523,0.002678,0.000431,0.064758
159000,0.0324,0.013523,0.002678,0.000431,0.066051
160000,0.0324,0.013523,0.002678,0.000431,0.069224
161000,0.0324,0.013523,0.002678,0.000431,0.066286
162000,0.0324,0.013523,0.002678,0.000431,0.066051
163000,0.0324,0.013523,0.002678,0.000431,0.069107
164000,0.0324,0.013523,0.002678,0.000431,0.062407
165000,0.0324,0.013523,0.002678,0.000431,0.064993
166000,0.0324,0.013523,0.002678,0.000431,0.065463
167000,0.0324,0.013523,0.002678,0.000431,0.063935
168000,0.0324,0.013523,0.002678,0.000431,0.063935
169000,0.0324,0.013523,0.002678,0.000431,0.062643
170000,0.0324,0.013523,0.002678,0.000431,0.062172
171000,0.0324,0.013523,0.002678,0.000431,0.067226
172000,0.0324,0.013523,0.002678,0.000431,0.057706
173000,0.0324,0.013523,0.002678,0.000431,0.062055
174000,0.0324,0.013523,0.002678,0.000431,0.061467
175000,0.0324,0.013523,0.002678,0.000431,0.061467
176000,0.0324,0.013523,0.002678,0.000431,0.064288
177000,0.0324,0.013523,0.002678,0.000431,0.056414
178000,0.0324,0.013523,0.002678,0.000431,0.063230
179000,0.0324,0.013523,0.002678,0.000431,0.055708
180000,0.0324,0.013523,0.002678,0.000431,0.066638
181000,0.0324,0.013523,0.002678,0.000431,0.058882
182000,0.0324,0.013523,0.002678,0.000431,0.056531
183000,0.0324,0.013523,0.002678,0.000431,0.053945
184000,0.0324,0.013523,0.002678,0.000431,0.058412
185000,0.0324,0.013523,0.002678,0.000431,0.058882
186000,0.0324,0.013523,0.002678,0.000431,0.058294
187000,0.0324,0.013523,0.002678,0.000431,0.055943
188000,0.0324,0.013523,0.002678,0.000431,0.055356
189000,0.0324,0.013523,0.002678,0.000431,0.054886
190000,0.0324,0.013523,0.002678,0.000431,0.058999
191000,0.0324,0.013523,0.002678,0.000431,0.056649
192000,0.0324,0.013523,0.002678,0.000431,0.054768
193000,0.0324,0.013523,0.002678,0.000431,0.053240
194000,0.0324,0.013523,0.002678,0.000431,0.055473
195000,0.0324,0.013523,0.002678,0.000431,0.055003
196000,0.0324,0.013523,0.002678,0.000431,0.052418
197000,0.0324,0.013523,0.002678,0.000431,0.057471
198000,0.0324,0.013523,0.002678,0.000431,0.049597
199000,0.0324,0.013523,0.002678,0.000431,0.055238
200000,0.0324,0.013523,0.002678,0.000431,0.053945
201000,0.0324,0.013523,0.002678,0.000431,0.050067
202000,0.0324,0.013523,0.002678,0.000431,0.052535
203000,0.0324,0.013523,0.002678,0.000431,0.052418
204000,0.0324,0.013523,0.002678,0.000431,0.051595
205000,0.0324,0.013523,0.002678,0.000431,0.051830
206000,0.0324,0.013523,0.002678,0.000431,0.047011
207000,0.0324,0.013523,0.002678,0.000431,0.049597
208000,0.0324,0.013523,0.002678,0.000431,0.050772
209000,0.0324,0.013523,0.002678,0.000431,0.051947
210000,0.0324,0.013523,0.002678,0.000431,0.048657
211000,0.0324,0.013523,0.002678,0.000431,0.048422
212000,0.0324,0.013523,0.002678,0.000431,0.048187
213000,0.0324,0.013523,0.002678,0.000431,0.049597
214000,0.0324,0.013523,0.002678,0.000431,0.046894
215000,0.0324,0.013523,0.002678,0.000431,0.047716
216000,0.0324,0.013523,0.002678,0.000431,0.046306
217000,0.0324,0.013523,0.002678,0.000431,0.043133
218000,0.0324,0.013523,0.002678,0.000431,0.046071
219000,0.0324,0.013523,0.002678,0.000431,0.047834
220000,0.0324,0.013523,0.002678,0.000431,0.040900
221000,0.0324,0.013523,0.002678,0.000431,0.045601
222000,0.0324,0.013523,0.002678,0.000431,0.042310
223000,0.0324,0.013523,0.002678,0.000431,0.042428
224000,0.0324,0.013523,0.002678,0.000431,0.044896
225000,0.0324,0.013523,0.002678,0.000431,0.045836
226000,0.0324,0.013523,0.002678,0.000431,0.040077
227000,0.0324,0.013523,0.002678,0.000431,0.041958
228000,0.0324,0.013523,0.002678,0.000431,0.040665
229000,0.0324,0.013523,0.002678,0.000431,0.043015
230000,0.0324,0.013523,0.002678,0.000431,0.043133
231000,0.0324,0.013523,0.002678,0.000431,0.038314
232000,0.0324,0.013523,0.002678,0.000431,0.039254
233000,0.0324,0.013523,0.002678,0.000431,0.039960
234000,0.0324,0.013523,0.002678,0.000431,0.039960
235000,0.0324,0.013523,0.002678,0.000431,0.040665
236000,0.0324,0.013523,0.002678,0.000431,0.038784
237000,0.0324,0.013523,0.002678,0.000431,0.040782
238000,0.0324,0.013523,0.002678,0.000431,0.039254
239000,0.0324,0.013523,0.002678,0.000431,0.040312
240000,0.0324,0.013523,0.002678,0.000431,0.036786
241000,0.0324,0.013523,0.002678,0.000431,0.040312
242000,0.0324,0.013523,0.002678,0.000431,0.039607
243000,0.0324,0.013523,0.002678,0.000431,0.036904
244000,0.0324,0.013523,0.002678,0.000431,0.036786
245000,0.0324,0.013523,0.002678,0.000431,0.035141
246000,0.0324,0.013523,0.002678,0.000431,0.040665
247000,0.0324,0.013523,0.002678,0.000431,0.035964
248000,0.0324,0.013523,0.002678,0.000431,0.040547
249000,0.0324,0.013523,0.002678,0.000431,0.034553
250000,0.0324,0.013523,0.002678,0.000431,0.036434
251000,0.0324,0.013523,0.002678,0.000431,0.036669
252000,0.0324,0.013523,0.002678,0.000431,0.041487
253000,0.0324,0.013523,0.002678,0.000431,0.034083
254000,0.0324,0.013523,0.002678,0.000431,0.037139
255000,0.0324,0.013523,0.002678,0.000431,0.033613
256000,0.0324,0.013523,0.002678,0.000431,0.038079
257000,0.0324,0.013523,0.002678,0.000431,0.035964
258000,0.0324,0.013523,0.002678,0.000431,0.037256
259000,0.0324,0.013523,0.002678,0.000431,0.035141
260000,0.0324,0.013523,0.002678,0.000431,0.035258
261000,0.0324,0.013523,0.002678,0.000431,0.034671
262000,0.0324,0.013523,0.002678,0.000431,0.034788
263000,0.0324,0.013523,0.002678,0.000431,0.035141
264000,0.0324,0.013523,0.002678,0.000431,0.035376
265000,0.0324,0.013523,0.002678,0.000431,0.034788
266000,0.0324,0.013523,0.002678,0.000431,0.032085
267000,0.0324,0.013523,0.002678,0.000431,0.033848
268000,0.0324,0.013523,0.002678,0.000431,0.036786
269000,0.0324,0.013523,0.002678,0.000431,0.034553
270000,0.0324,0.013523,0.002678,0.000431,0.032908
271000,0.0324,0.013523,0.002678,0.000431,0.034906
272000,0.0324,0.013523,0.002678,0.000431,0.031498
273000,0.0324,0.013523,0.002678,0.000431,0.033613
274000,0.0324,0.013523,0.002678,0.000431,0.034553
275000,0.0324,0.013523,0.002678,0.000431,0.034671
276000,0.0324,0.013523,0.002678,0.000431,0.032203
277000,0.0324,0.013523,0.002678,0.000431,0.032085
278000,0.0324,0.013523,0.002678,0.000431,0.031380
279000,0.0324,0.013523,0.002678,0.000431,0.033378
280000,0.0324,0.013523,0.002678,0.000431,0.032085
281000,0.0324,0.013523,0.002678,0.000431,0.033378
282000,0.0324,0.013523,0.002678,0.000431,0.030792
283000,0.0324,0.013523,0.002678,0.000431,0.031850
284000,0.0324,0.013523,0.002678,0.000431,0.029852
285000,0.0324,0.013523,0.002678,0.000431,0.034083
286000,0.0324,0.013523,0.002678,0.000431,0.030440
287000,0.0324,0.013523,0.002678,0.000431,0.031498
288000,0.0324,0.013523,0.002678,0.000431,0.028912
289000,0.0324,0.013523,0.002678,0.000431,0.027267
290000,0.0324,0.013523,0.002678,0.000431,0.030322
291000,0.0324,0.013523,0.002678,0.000431,0.031968
292000,0.0324,0.013523,0.002678,0.000431,0.029382
293000,0.0324,0.013523,0.002678,0.000431,0.029147
294000,0.0324,0.013523,0.002678,0.000431,0.027972
295000,0.0324,0.013523,0.002678,0.000431,0.032203
296000,0.0324,0.013523,0.002678,0.000431,0.027972
297000,0.0324,0.013523,0.002678,0.000431,0.029500
298000,0.0324,0.013523,0.002678,0.000431,0.026561
299000,0.0324,0.013523,0.002678,0.000431,0.030087
300000,0.0324,0.013523,0.002678,0.000431,0.027384
301000,0.0324,0.013523,0.002678,0.000431,0.029265
302000,0.0324,0.013523,0.002678,0.000431,0.026091
303000,0.0324,0.013523,0.002678,0.000431,0.030557
304000,0.0324,0.013523,0.002678,0.000431,0.029735
305000,0.0324,0.013523,0.002678,0.000431,0.024446
306000,0.0324,0.013523,0.002678,0.000431,0.026326
307000,0.0324,0.013523,0.002678,0.000431,0.028677
308000,0.0324,0.013523,0.002678,0.000431,0.029500
309000,0.0324,0.013523,0.002678,0.000431,0.023976
310000,0.0324,0.013523,0.002678,0.000431,0.026209
311000,0.0324,0.013523,0.002678,0.000431,0.024916
312000,0.0324,0.013523,0.002678,0.000431,0.027737
313000,0.0324,0.013523,0.002678,0.000431,0.026914
314000,0.0324,0.013523,0.002678,0.000431,0.026914
315000,0.0324,0.013523,0.002678,0.000431,0.022565
316000,0.0324,0.013523,0.002678,0.000431,0.026209
317000,0.0324,0.013523,0.002678,0.000431,0.025974
318000,0.0324,0.013523,0.002678,0.000431,0.025386
319000,0.0324,0.013523,0.002678,0.000431,0.023388
320000,0.0324,0.013523,0.002678,0.000431,0.027031
321000,0.0324,0.013523,0.002678,0.000431,0.027854
322000,0.0324,0.013523,0.002678,0.000431,0.022330
323000,0.0324,0.013523,0.002678,0.000431,0.024446
324000,0.0324,0.013523,0.002678,0.000431,0.026561
325000,0.0324,0.013523,0.002678,0.000431,0.025974
326000,0.0324,0.013523,0.002678,0.000431,0.022448
327000,0.0324,0.013523,0.002678,0.000431,0.022565
328000,0.0324,0.013523,0.002678,0.000431,0.021625
329000,0.0324,0.013523,0.002678,0.000431,0.025504
330000,0.0324,0.013523,0.002678,0.000431,0.023271
331000,0.0324,0.013523,0.002678,0.000431,0.023506
332000,0.0324,0.013523,0.002678,0.000431,0.020802
333000,0.0324,0.013523,0.002678,0.000431,0.025151
334000,0.0324,0.013523,0.002678,0.000431,0.022213
335000,0.0324,0.013523,0.002678,0.000431,0.022683
336000,0.0324,0.013523,0.002678,0.000431,0.023036
337000,0.0324,0.013523,0.002678,0.000431,0.025034
338000,0.0324,0.013523,0.002678,0.000431,0.018805
339000,0.0324,0.013523,0.002678,0.000431,0.023858
340000,0.0324,0.013523,0.002678,0.000431,0.023271
341000,0.0324,0.013523,0.002678,0.000431,0.024446
342000,0.0324,0.013523,0.002678,0.000431,0.020450
343000,0.0324,0.013523,0.002678,0.000431,0.021273
344000,0.0324,0.013523,0.002678,0.000431,0.022918
345000,0.0324,0.013523,0.002678,0.000431,0.021390
346000,0.0324,0.013523,0.002678,0.000431,0.020215
347000,0.0324,0.013523,0.002678,0.000431,0.020920
348000,0.0324,0.013523,0.002678,0.000431,0.021155
349000,0.0324,0.013523,0.002678,0.000431,0.021038
350000,0.0324,0.013523,0.002678,0.000431,0.019627
351000,0.0324,0.013523,0.002678,0.000431,0.022918
352000,0.0324,0.013523,0.002678,0.000431,0.020332
353000,0.0324,0.013523,0.002678,0.000431,0.021743
354000,0.0324,0.013523,0.002678,0.000431,0.019510
355000,0.0324,0.013523,0.002678,0.000431,0.019862
356000,0.0324,0.013523,0.002678,0.000431,0.019275
357000,0.0324,0.013523,0.002678,0.000431,0.019040
358000,0.0324,0.013523,0.002678,0.000431,0.019627
359000,0.0324,0.013523,0.002678,0.000431,0.017629
360000,0.0324,0.013523,0.002678,0.000431,0.017982
361000,0.0324,0.013523,0.002678,0.000431,0.019510
362000,0.0324,0.013523,0.002678,0.000431,0.020332
363000,0.0324,0.013523,0.002678,0.000431,0.017159
364000,0.0324,0.013523,0.002678,0.000431,0.019510
365000,0.0324,0.013523,0.002678,0.000431,0.018569
366000,0.0324,0.013523,0.002678,0.000431,0.019040
367000,0.0324,0.013523,0.002678,0.000431,0.016454
368000,0.0324,0.013523,0.002678,0.000431,0.019275
369000,0.0324,0.013523,0.002678,0.000431,0.018217
370000,0.0324,0.013523,0.002678,0.000431,0.017394
371000,0.0324,0.013523,0.002678,0.000431,0.018452
372000,0.0324,0.013523,0.002678,0.000431,0.017629
373000,0.0324,0.013523,0.002678,0.000431,0.019627
374000,0.0324,0.013523,0.002678,0.000431,0.016924
375000,0.0324,0.013523,0.002678,0.000431,0.017629
376000,0.0324,0.013523,0.002678,0.000431,0.016924
377000,0.0324,0.013523,0.002678,0.000431,0.017629
378000,0.0324,0.013523,0.002678,0.000431,0.017159
379000,0.0324,0.013523,0.002678,0.000431,0.016101
380000,0.0324,0.013523,0.002678,0.000431,0.017159
381000,0.0324,0.013523,0.002678,0.000431,0.015161
382000,0.0324,0.013523,0.002678,0.000431,0.016336
383000,0.0324,0.013523,0.002678,0.000431,0.015631
384000,0.0324,0.013523,0.002678,0.000431,0.015631
385000,0.0324,0.013523,0.002678,0.000431,0.014926
386000,0.0324,0.013523,0.002678,0.000431,0.013633
387000,0.0324,0.013523,0.002678,0.000431,0.015631
388000,0.0324,0.013523,0.002678,0.000431,0.013868
389000,0.0324,0.013523,0.002678,0.000431,0.015514
390000,0.0324,0.013523,0.002678,0.000431,0.014573
391000,0.0324,0.013523,0.002678,0.000431,0.014809
392000,0.0324,0.013523,0.002678,0.000431,0.013398
393000,0.0324,0.013523,0.002678,0.000431,0.014103
394000,0.0324,0.013523,0.002678,0.000431,0.017159
395000,0.0324,0.013523,0.002678,0.000431,0.014103
396000,0.0324,0.013523,0.002678,0.000431,0.013281
397000,0.0324,0.013523,0.002678,0.000431,0.014338
398000,0.0324,0.013523,0.002678,0.000431,0.017042
399000,0.0324,0.013523,0.002678,0.000431,0.014221
400000,0.0324,0.013523,0.002678,0.000431,0.013516
401000,0.0324,0.013523,0.002678,0.000431,0.014221
402000,0.0324,0.013523,0.002678,0.000431,0.015044
403000,0.0324,0.013523,0.002678,0.000431,0.012576
404000,0.0324,0.013523,0.002678,0.000431,0.012105
405000,0.0324,0.013523,0.002678,0.000431,0.016219
406000,0.0324,0.013523,0.002678,0.000431,0.013281
407000,0.0324,0.013523,0.002678,0.000431,0.012105
408000,0.0324,0.013523,0.002678,0.000431,0.012693
409000,0.0324,0.013523,0.002678,0.000431,0.013868
410000,0.0324,0.013523,0.002678,0.000431,0.012105
411000,0.0324,0.013523,0.002678,0.000431,0.012693
412000,0.0324,0.013523,0.002678,0.000431,0.012458
413000,0.0324,0.013523,0.002678,0.000431,0.011870
414000,0.0324,0.013523,0.002678,0.000431,0.013398
415000,0.0324,0.013523,0.002678,0.000431,0.013281
416000,0.0324,0.013523,0.002678,0.000431,0.010342
417000,0.0324,0.013523,0.002678,0.000431,0.011400
418000,0.0324,0.013523,0.002678,0.000431,0.011283
419000,0.0324,0.013523,0.002678,0.000431,0.012576
420000,0.0324,0.013523,0.002678,0.000431,0.010107
421000,0.0324,0.013523,0.002678,0.000431,0.012105
422000,0.0324,0.013523,0.002678,0.000431,0.011400
423000,0.0324,0.013523,0.002678,0.000431,0.013281
424000,0.0324,0.013523,0.002678,0.000431,0.009285
425000,0.0324,0.013523,0.002678,0.000431,0.009637
426000,0.0324,0.013523,0.002678,0.000431,0.011518
427000,0.0324,0.013523,0.002678,0.000431,0.008815
428000,0.0324,0.013523,0.002678,0.000431,0.009167
429000,0.0324,0.013523,0.002678,0.000431,0.009285
430000,0.0324,0.013523,0.002678,0.000431,0.010813
431000,0.0324,0.013523,0.002678,0.000431,0.008697
432000,0.0324,0.013523,0.002678,0.000431,0.009050
433000,0.0324,0.013523,0.002678,0.000431,0.009637
434000,0.0324,0.013523,0.002678,0.000431,0.011048
435000,0.0324,0.013523,0.002678,0.000431,0.007992
436000,0.0324,0.013523,0.002678,0.000431,0.010107
437000,0.0324,0.013523,0.002678,0.000431,0.010460
438000,0.0324,0.013523,0.002678,0.000431,0.009520
439000,0.0324,0.013523,0.002678,0.000431,0.008227
440000,0.0324,0.013523,0.002678,0.000431,0.008109
441000,0.0324,0.013523,0.002678,0.000431,0.009755
442000,0.0324,0.013523,0.002678,0.000431,0.008932
443000,0.0324,0.013523,0.002678,0.000431,0.007992
444000,0.0324,0.013523,0.002678,0.000431,0.009285
445000,0.0324,0.013523,0.002678,0.000431,0.007639
446000,0.0324,0.013523,0.002678,0.000431,0.009637
447000,0.0324,0.013523,0.002678,0.000431,0.008227
448000,0.0324,0.013523,0.002678,0.000431,0.009167
449000,0.0324,0.013523,0.002678,0.000431,0.007639
450000,0.0324,0.013523,0.002678,0.000431,0.009520
451000,0.0324,0.013523,0.002678,0.000431,0.008932
452000,0.0324,0.013523,0.002678,0.000431,0.007757
453000,0.0324,0.013523,0.002678,0.000431,0.007639
454000,0.0324,0.013523,0.002678,0.000431,0.010225
455000,0.0324,0.013523,0.002678,0.000431,0.007992
456000,0.0324,0.013523,0.002678,0.000431,0.007874
457000,0.0324,0.013523,0.002678,0.000431,0.007404
458000,0.0324,0.013523,0.002678,0.000431,0.009285
459000,0.0324,0.013523,0.002678,0.000431,0.007757
460000,0.0324,0.013523,0.002678,0.000431,0.007169
461000,0.0324,0.013523,0.002678,0.000431,0.008227
462000,0.0324,0.013523,0.002678,0.000431,0.009285
463000,0.0324,0.013523,0.002678,0.000431,0.007052
464000,0.0324,0.013523,0.002678,0.000431,0.007757
465000,0.0324,0.013523,0.002678,0.000431,0.008462
466000,0.0324,0.013523,0.002678,0.000431,0.007522
467000,0.0324,0.013523,0.002678,0.000431,0.007287
468000,0.0324,0.013523,0.002678,0.000431,0.006229
469000,0.0324,0.013523,0.002678,0.000431,0.007757
470000,0.0324,0.013523,0.002678,0.000431,0.007404
471000,0.0324,0.013523,0.002678,0.000431,0.006582
472000,0.0324,0.013523,0.002678,0.000431,0.007992
473000,0.0324,0.013523,0.002678,0.000431,0.006111
474000,0.0324,0.013523,0.002678,0.000431,0.007287
475000,0.0324,0.013523,0.002678,0.000431,0.007287
476000,0.0324,0.013523,0.002678,0.000431,0.006934
477000,0.0324,0.013523,0.002678,0.000431,0.006111
478000,0.0324,0.013523,0.002678,0.000431,0.007639
479000,0.0324,0.013523,0.002678,0.000431,0.007052
480000,0.0324,0.013523,0.002678,0.000431,0.007169
481000,0.0324,0.013523,0.002678,0.000431,0.007522
482000,0.0324,0.013523,0.002678,0.000431,0.006817
483000,0.0324,0.013523,0.002678,0.000431,0.007992
484000,0.0324,0.013523,0.002678,0.000431,0.005524
485000,0.0324,0.013523,0.002678,0.000431,0.007639
486000,0.0324,0.013523,0.002678,0.000431,0.007404
487000,0.0324,0.013523,0.002678,0.000431,0.004819
488000,0.0324,0.013523,0.002678,0.000431,0.006111
489000,0.0324,0.013523,0.002678,0.000431,0.006817
490000,0.0324,0.013523,0.002678,0.000431,0.006817
491000,0.0324,0.013523,0.002678,0.000431,0.005759
492000,0.0324,0.013523,0.002678,0.000431,0.006582
493000,0.0324,0.013523,0.002678,0.000431,0.005994
494000,0.0324,0.013523,0.002678,0.000431,0.006699
495000,0.0324,0.013523,0.002678,0.000431,0.005054
496000,0.0324,0.013523,0.002678,0.000431,0.006347
497000,0.0324,0.013523,0.002678,0.000431,0.007639
498000,0.0324,0.013523,0.002678,0.000431,0.005641
499000,0.0324,0.013523,0.002678,0.000431,0.005876
500000,0.0324,0.013523,0.002678,0.000431,0.007169
501000,0.0324,0.013523,0.002678,0.000431,0.004701
502000,0.0324,0.013523,0.002678,0.000431,0.006111
503000,0.0324,0.013523,0.002678,0.000431,0.004819
504000,0.0324,0.013523,0.002678,0.000431,0.005876
505000,0.0324,0.013523,0.002678,0.000431,0.005406
506000,0.0324,0.013523,0.002678,0.000431,0.005524
507000,0.0324,0.013523,0.002678,0.000431,0.005524
508000,0.0324,0.013523,0.002678,0.000431,0.005876
509000,0.0324,0.013523,0.002678,0.000431,0.004936
510000,0.0324,0.013523,0.002678,0.000431,0.005054
511000,0.0324,0.013523,0.002678,0.000431,0.006464
512000,0.0324,0.013523,0.002678,0.000431,0.004466
513000,0.0324,0.013523,0.002678,0.000431,0.005759
514000,0.0324,0.013523,0.002678,0.000431,0.005524
515000,0.0324,0.013523,0.002678,0.000431,0.005759
516000,0.0324,0.013523,0.002678,0.000431,0.004819
517000,0.0324,0.013523,0.002678,0.000431,0.005054
518000,0.0324,0.013523,0.002678,0.000431,0.004819
519000,0.0324,0.013523,0.002678,0.000431,0.004584
520000,0.0324,0.013523,0.002678,0.000431,0.003996
521000,0.0324,0.013523,0.002678,0.000431,0.004936
522000,0.0324,0.013523,0.002678,0.000431,0.005406
523000,0.0324,0.013523,0.002678,0.000431,0.003056
524000,0.0324,0.013523,0.002678,0.000431,0.004936
525000,0.0324,0.013523,0.002678,0.000431,0.005524
526000,0.0324,0.013523,0.002678,0.000431,0.004113
527000,0.0324,0.013523,0.002678,0.000431,0.003996
528000,0.0324,0.013523,0.002678,0.000431,0.004466
529000,0.0324,0.013523,0.002678,0.000431,0.005054
530000,0.0324,0.013523,0.002678,0.000431,0.003878
531000,0.0324,0.013523,0.002678,0.000431,0.003643
532000,0.0324,0.013523,0.002678,0.000431,0.005759
533000,0.0324,0.013523,0.002678,0.000431,0.004113
534000,0.0324,0.013523,0.002678,0.000431,0.003056
535000,0.0324,0.013523,0.002678,0.000431,0.003643
536000,0.0324,0.013523,0.002678,0.000431,0.004936
537000,0.0324,0.013523,0.002678,0.000431,0.003056
538000,0.0324,0.013523,0.002678,0.000431,0.003878
539000,0.0324,0.013523,0.002678,0.000431,0.003878
540000,0.0324,0.013523,0.002678,0.000431,0.004466
541000,0.0324,0.013523,0.002678,0.000431,0.003291
542000,0.0324,0.013523,0.002678,0.000431,0.003878
543000,0.0324,0.013523,0.002678,0.000431,0.004584
544000,0.0324,0.013523,0.002678,0.000431,0.003526
545000,0.0324,0.013523,0.002678,0.000431,0.003408
546000,0.0324,0.013523,0.002678,0.000431,0.004349
547000,0.0324,0.013523,0.002678,0.000431,0.004584
548000,0.0324,0.013523,0.002678,0.000431,0.002938
549000,0.0324,0.013523,0.002678,0.000431,0.004231
550000,0.0324,0.013523,0.002678,0.000431,0.004584
551000,0.0324,0.013523,0.002678,0.000431,0.003291
552000,0.0324,0.013523,0.002678,0.000431,0.003878
553000,0.0324,0.013523,0.002678,0.000431,0.003878
554000,0.0324,0.013523,0.002678,0.000431,0.004701
555000,0.0324,0.013523,0.002678,0.000431,0.002938
556000,0.0324,0.013523,0.002678,0.000431,0.004113
557000,0.0324,0.013523,0.002678,0.000431,0.004113
558000,0.0324,0.013523,0.002678,0.000431,0.003408
559000,0.0324,0.013523,0.002678,0.000431,0.002938
560000,0.0324,0.013523,0.002678,0.000431,0.003408
561000,0.0324,0.013523,0.002678,0.000431,0.004113
562000,0.0324,0.013523,0.002678,0.000431,0.002586
563000,0.0324,0.013523,0.002678,0.000431,0.003291
564000,0.0324,0.013523,0.002678,0.000431,0.005171
565000,0.0324,0.013523,0.002678,0.000431,0.003761
566000,0.0324,0.013523,0.002678,0.000431,0.001998
567000,0.0324,0.013523,0.002678,0.000431,0.002116
568000,0.0324,0.013523,0.002678,0.000431,0.002821
569000,0.0324,0.013523,0.002678,0.000431,0.002116
570000,0.0324,0.013523,0.002678,0.000431,0.001998
571000,0.0324,0.013523,0.002678,0.000431,0.002821
572000,0.0324,0.013523,0.002678,0.000431,0.001998
573000,0.0324,0.013523,0.002678,0.000431,0.001998
574000,0.0324,0.013523,0.002678,0.000431,0.002116
575000,0.0324,0.013523,0.002678,0.000431,0.002938
576000,0.0324,0.013523,0.002678,0.000431,0.001763
577000,0.0324,0.013523,0.002678,0.000431,0.002703
578000,0.0324,0.013523,0.002678,0.000431,0.002703
579000,0.0324,0.013523,0.002678,0.000431,0.001998
580000,0.0324,0.013523,0.002678,0.000431,0.001528
581000,0.0324,0.013523,0.002678,0.000431,0.002116
582000,0.0324,0.013523,0.002678,0.000431,0.002116
583000,0.0324,0.013523,0.002678,0.000431,0.001880
584000,0.0324,0.013523,0.002678,0.000431,0.001410
585000,0.0324,0.013523,0.002678,0.000431,0.002703
586000,0.0324,0.013523,0.002678,0.000431,0.001763
587000,0.0324,0.013523,0.002678,0.000431,0.001528
588000,0.0324,0.013523,0.002678,0.000431,0.001998
589000,0.0324,0.013523,0.002678,0.000431,0.002351
590000,0.0324,0.013523,0.002678,0.000431,0.001528
591000,0.0324,0.013523,0.002678,0.000431,0.001645
592000,0.0324,0.013523,0.002678,0.000431,0.002116
593000,0.0324,0.013523,0.002678,0.000431,0.001998
594000,0.0324,0.013523,0.002678,0.000431,0.001410
595000,0.0324,0.013523,0.002678,0.000431,0.002468
596000,0.0324,0.013523,0.002678,0.000431,0.001645
597000,0.0324,0.013523,0.002678,0.000431,0.001880
598000,0.0324,0.013523,0.002678,0.000431,0.002586
599000,0.0324,0.013523,0.002678,0.000431,0.001645
600000,0.0324,0.013523,0.002678,0.000431,0.001528
601000,0.0324,0.013523,0.002678,0.000431,0.002586
602000,0.0324,0.013523,0.002678,0.000431,0.001528
603000,0.0324,0.013523,0.002678,0.000431,0.001763
604000,0.0324,0.013523,0.002678,0.000431,0.002233
605000,0.0324,0.013523,0.002678,0.000431,0.001528
606000,0.0324,0.013523,0.002678,0.000431,0.001645
607000,0.0324,0.013523,0.002678,0.000431,0.002351
608000,0.0324,0.013523,0.002678,0.000431,0.001645
609000,0.0324,0.013523,0.002678,0.000431,0.001528
610000,0.0324,0.013523,0.002678,0.000431,0.002468
611000,0.0324,0.013523,0.002678,0.000431,0.001410
612000,0.0324,0.013523,0.002678,0.000431,0.001998
613000,0.0324,0.013523,0.002678,0.000431,0.002233
614000,0.0324,0.013523,0.002678,0.000431,0.001528
615000,0.0324,0.013523,0.002678,0.000431,0.002116
616000,0.0324,0.013523,0.002678,0.000431,0.001763
617000,0.0324,0.013523,0.002678,0.000431,0.002116
618000,0.0324,0.013523,0.002678,0.000431,0.001763
619000,0.0324,0.013523,0.002678,0.000431,0.001880
620000,0.0324,0.013523,0.002678,0.000431,0.001880
621000,0.0324,0.013523,0.002678,0.000431,0.001998
622000,0.0324,0.013523,0.002678,0.000431,0.001763
623000,0.0324,0.013523,0.002678,0.000431,0.001058
624000,0.0324,0.013523,0.002678,0.000431,0.001763
625000,0.0324,0.013523,0.002678,0.000431,0.001293
626000,0.0324,0.013523,0.002678,0.000431,0.001175
627000,0.0324,0.013523,0.002678,0.000431,0.001880
628000,0.0324,0.013523,0.002678,0.000431,0.000940
629000,0.0324,0.013523,0.002678,0.000431,0.001998
630000,0.0324,0.013523,0.002678,0.000431,0.001175
631000,0.0324,0.013523,0.002678,0.000431,0.001880
632000,0.0324,0.013523,0.002678,0.000431,0.001058
633000,0.0324,0.013523,0.002678,0.000431,0.001175
634000,0.0324,0.013523,0.002678,0.000431,0.001880
635000,0.0324,0.013523,0.002678,0.000431,0.000823
636000,0.0324,0.013523,0.002678,0.000431,0.002116
637000,0.0324,0.013523,0.002678,0.000431,0.000940
638000,0.0324,0.013523,0.002678,0.000431,0.001763
639000,0.0324,0.013523,0.002678,0.000431,0.001293
640000,0.0324,0.013523,0.002678,0.000431,0.001645
641000,0.0324,0.013523,0.002678,0.000431,0.001175
642000,0.0324,0.013523,0.002678,0.000431,0.001293
643000,0.0324,0.013523,0.002678,0.000431,0.001410
644000,0.0324,0.013523,0.002678,0.000431,0.001058
645000,0.0324,0.013523,0.002678,0.000431,0.001645
646000,0.0324,0.013523,0.002678,0.000431,0.001175
647000,0.0324,0.013523,0.002678,0.000431,0.001645
648000,0.0324,0.013523,0.002678,0.000431,0.001058
649000,0.0324,0.013523,0.002678,0.000431,0.001293
650000,0.0324,0.013523,0.002678,0.000431,0.001058
651000,0.0324,0.013523,0.002678,0.000431,0.001293
652000,0.0324,0.013523,0.002678,0.000431,0.001058
653000,0.0324,0.013523,0.002678,0.000431,0.001293
654000,0.0324,0.013523,0.002678,0.000431,0.001058
655000,0.0324,0.013523,0.002678,0.000431,0.001175
656000,0.0324,0.013523,0.002678,0.000431,0.000823
657000,0.0324,0.013523,0.002678,0.000431,0.001410
658000,0.0324,0.013523,0.002678,0.000431,0.000940
659000,0.0324,0.013523,0.002678,0.000431,0.002116
660000,0.0324,0.013523,0.002678,0.000431,0.000470
661000,0.0324,0.013523,0.002678,0.000431,0.000940
662000,0.0324,0.013523,0.002678,0.000431,0.000470
663000,0.0324,0.013523,0.002678,0.000431,0.000940
664000,0.0324,0.013523,0.002678,0.000431,0.000470
665000,0.0324,0.013523,0.002678,0.000431,0.000940
666000,0.0324,0.013523,0.002678,0.000431,0.000470
667000,0.0324,0.013523,0.002678,0.000431,0.000940
668000,0.0324,0.013523,0.002678,0.000431,0.000353
669000,0.0324,0.013523,0.002678,0.000431,0.000823
670000,0.0324,0.013523,0.002678,0.000431,0.000588
671000,0.0324,0.013523,0.002678,0.000431,0.000823
672000,0.0324,0.013523,0.002678,0.000431,0.000588
673000,0.0324,0.013523,0.002678,0.000431,0.000823
674000,0.0324,0.013523,0.002678,0.000431,0.000588
675000,0.0324,0.013523,0.002678,0.000431,0.000823
676000,0.0324,0.013523,0.002678,0.000431,0.000588
677000,0.0324,0.013523,0.002678,0.000431,0.000823
678000,0.0324,0.013523,0.002678,0.000431,0.000588
679000,0.0324,0.013523,0.002678,0.000431,0.000823
680000,0.0324,0.013523,0.002678,0.000431,0.000588
681000,0.0324,0.013523,0.002678,0.000431,0.000588
682000,0.0324,0.013523,0.002678,0.000431,0.000705
683000,0.0324,0.013523,0.002678,0.000431,0.000470
684000,0.0324,0.013523,0.002678,0.000431,0.000823
685000,0.0324,0.013523,0.002678,0.000431,0.000588
686000,0.0324,0.013523,0.002678,0.000431,0.000823
687000,0.0324,0.013523,0.002678,0.000431,0.000588
688000,0.0324,0.013523,0.002678,0.000431,0.000823
689000,0.0324,0.013523,0.002678,0.000431,0.000588
690000,0.0324,0.013523,0.002678,0.000431,0.000823
691000,0.0324,0.013523,0.002678,0.000431,0.000588
692000,0.0324,0.013523,0.002678,0.000431,0.000823
693000,0.0324,0.013523,0.002678,0.000431,0.000588
694000,0.0324,0.013523,0.002678,0.000431,0.000823
695000,0.0324,0.013523,0.002678,0.000431,0.000588
696000,0.0324,0.013523,0.002678,0.000431,0.000823
697000,0.0324,0.013523,0.002678,0.000431,0.000588
698000,0.0324,0.013523,0.002678,0.000431,0.000705
699000,0.0324,0.013523,0.002678,0.000431,0.000470
700000,0.0324,0.013523,0.002678,0.000431,0.000940
701000,0.0324,0.013523,0.002678,0.000431,0.000470
702000,0.0324,0.013523,0.002678,0.000431,0.000940
703000,0.0324,0.013523,0.002678,0.000431,0.000470
704000,0.0324,0.013523,0.002678,0.000431,0.000940
705000,0.0324,0.013523,0.002678,0.000431,0.000470
706000,0.0324,0.013523,0.002678,0.000431,0.000940
707000,0.0324,0.013523,0.002678,0.000431,0.000470
708000,0.0324,0.013523,0.002678,0.000431,0.000940
709000,0.0324,0.013523,0.002678,0.000431,0.000470
710000,0.0324,0.013523,0.002678,0.000431,0.000940
711000,0.0324,0.013523,0.002678,0.000431,0.000470
712000,0.0324,0.013523,0.002678,0.000431,0.000940
713000,0.0324,0.013523,0.002678,0.000431,0.000470
714000,0.0324,0.013523,0.002678,0.000431,0.000940
715000,0.0324,0.013523,0.002678,0.000431,0.000470
716000,0.0324,0.013523,0.002678,0.000431,0.000705
717000,0.0324,0.013523,0.002678,0.000431,0.000588
718000,0.0324,0.013523,0.002678,0.000431,0.000823
719000,0.0324,0.013523,0.002678,0.000431,0.000588
720000,0.0324,0.013523,0.002678,0.000431,0.000823
721000,0.0324,0.013523,0.002678,0.000431,0.000588
722000,0.0324,0.013523,0.002678,0.000431,0.000470
723000,0.0324,0.013523,0.002678,0.000431,0.000470
724000,0.0324,0.013523,0.002678,0.000431,0.000470
725000,0.0324,0.013523,0.002678,0.000431,0.000470
726000,0.0324,0.013523,0.002678,0.000431,0.000470
727000,0.0324,0.013523,0.002678,0.000431,0.000470
728000,0.0324,0.013523,0.002678,0.000431,0.000470
729000,0.0324,0.013523,0.002678,0.000431,0.000470
730000,0.0324,0.013523,0.002678,0.000431,0.000470
731000,0.0324,0.013523,0.002678,0.000431,0.000470
732000,0.0324,0.013523,0.002678,0.000431,0.000470
733000,0.0324,0.013523,0.002678,0.000431,0.000470
734000,0.0324,0.013523,0.002678,0.000431,0.000470
735000,0.0324,0.013523,0.002678,0.000431,0.000353
736000,0.0324,0.013523,0.002678,0.000431,0.000470
737000,0.0324,0.013523,0.002678,0.000431,0.000470
738000,0.0324,0.013523,0.002678,0.000431,0.000353
739000,0.0324,0.013523,0.002678,0.000431,0.000470
740000,0.0324,0.013523,0.002678,0.000431,0.000470
741000,0.0324,0.013523,0.002678,0.000431,0.000470
742000,0.0324,0.013523,0.002678,0.000431,0.000470
743000,0.0324,0.013523,0.002678,0.000431,0.000470
744000,0.0324,0.013523,0.002678,0.000431,0.000470
745000,0.0324,0.013523,0.002678,0.000431,0.000470
746000,0.0324,0.013523,0.002678,0.000431,0.000470
747000,0.0324,0.013523,0.002678,0.000431,0.000470
748000,0.0324,0.013523,0.002678,0.000431,0.000470
749000,0.0324,0.013523,0.002678,0.000431,0.000470
750000,0.0324,0.013523,0.002678,0.000431,0.000470
751000,0.0324,0.013523,0.002678,0.000431,0.000470
752000,0.0324,0.013523,0.002678,0.000431,0.000470
753000,0.0324,0.013523,0.002678,0.000431,0.000470
754000,0.0324,0.013523,0.002678,0.000431,0.000470
755000,0.0324,0.013523,0.002678,0.000431,0.000470
756000,0.0324,0.013523,0.002678,0.000431,0.000470
757000,0.0324,0.013523,0.002678,0.000431,0.000470
758000,0.0324,0.013523,0.002678,0.000431,0.000470
759000,0.0324,0.013523,0.002678,0.000431,0.000470
760000,0.0324,0.013523,0.002678,0.000431,0.000353
761000,0.0324,0.013523,0.002678,0.000431,0.000470
762000,0.0324,0.013523,0.002678,0.000431,0.000470
763000,0.0324,0.013523,0.002678,0.000431,0.000470
764000,0.0324,0.013523,0.002678,0.000431,0.000470
765000,0.0324,0.013523,0.002678,0.000431,0.000470
766000,0.0324,0.013523,0.002678,0.000431,0.000470
767000,0.0324,0.013523,0.002678,0.000431,0.000470
768000,0.0324,0.013523,0.002678,0.000431,0.000470
769000,0.0324,0.013523,0.002678,0.000431,0.000470
770000,0.0324,0.013523,0.002678,0.000431,0.000470
771000,0.0324,0.013523,0.002678,0.000431,0.000470
772000,0.0324,0.013523,0.002678,0.000431,0.000470
773000,0.0324,0.013523,0.002678,0.000431,0.000470
774000,0.0324,0.013523,0.002678,0.000431,0.000470
775000,0.0324,0.013523,0.002678,0.000431,0.000470
776000,0.0324,0.013523,0.002678,0.000431,0.000470
777000,0.0324,0.013523,0.002678,0.000431,0.000470
778000,0.0324,0.013523,0.002678,0.000431,0.000470
779000,0.0324,0.013523,0.002678,0.000431,0.000470
780000,0.0324,0.013523,0.002678,0.000431,0.000470
781000,0.0324,0.013523,0.002678,0.000431,0.000470
782000,0.0324,0.013523,0.002678,0.000431,0.000353
783000,0.0324,0.013523,0.002678,0.000431,0.000470
784000,0.0324,0.013523,0.002678,0.000431,0.000470
785000,0.0324,0.013523,0.002678,0.000431,0.000470
786000,0.0324,0.013523,0.002678,0.000431,0.000470
787000,0.0324,0.013523,0.002678,0.000431,0.000470
788000,0.0324,0.013523,0.002678,0.000431,0.000470
789000,0.0324,0.013523,0.002678,0.000431,0.000470
790000,0.0324,0.013523,0.002678,0.000431,0.000470
791000,0.0324,0.013523,0.002678,0.000431,0.000470
792000,0.0324,0.013523,0.002678,0.000431,0.000470
793000,0.0324,0.013523,0.002678,0.000431,0.000470
794000,0.0324,0.013523,0.002678,0.000431,0.000470
795000,0.0324,0.013523,0.002678,0.000431,0.000470
796000,0.0324,0.013523,0.002678,0.000431,0.000470
797000,0.0324,0.013523,0.002678,0.000431,0.000470
798000,0.0324,0.013523,0.002678,0.000431,0.000470
799000,0.0324,0.013523,0.002678,0.000431,0.000470
800000,0.0324,0.013523,0.002678,0.000431,0.000470
801000,0.0324,0.013523,0.002678,0.000431,0.000470
802000,0.0324,0.013523,0.002678,0.000431,0.000353
803000,0.0324,0.013523,0.002678,0.000431,0.000470
804000,0.0324,0.013523,0.002678,0.000431,0.000470
805000,0.0324,0.013523,0.002678,0.000431,0.000353
806000,0.0324,0.013523,0.002678,0.000431,0.000470
807000,0.0324,0.013523,0.002678,0.000431,0.000470
808000,0.0324,0.013523,0.002678,0.000431,0.000470
809000,0.0324,0.013523,0.002678,0.000431,0.000470
810000,0.0324,0.013523,0.002678,0.000431,0.000470
811000,0.0324,0.013523,0.002678,0.000431,0.000470
812000,0.0324,0.013523,0.002678,0.000431,0.000470
813000,0.0324,0.013523,0.002678,0.000431,0.000470
814000,0.0324,0.013523,0.002678,0.000431,0.000470
815000,0.0324,0.013523,0.002678,0.000431,0.000470
816000,0.0324,0.013523,0.002678,0.000431,0.000470
817000,0.0324,0.013523,0.002678,0.000431,0.000470
818000,0.0324,0.013523,0.002678,0.000431,0.000470
819000,0.0324,0.013523,0.002678,0.000431,0.000470
820000,0.0324,0.013523,0.002678,0.000431,0.000470
821000,0.0324,0.013523,0.002678,0.000431,0.000470
822000,0.0324,0.013523,0.002678,0.000431,0.000470
823000,0.0324,0.013523,0.002678,0.000431,0.000470
824000,0.0324,0.013523,0.002678,0.000431,0.000470
825000,0.0324,0.013523,0.002678,0.000431,0.000353
826000,0.0324,0.013523,0.002678,0.000431,0.000470
827000,0.0324,0.013523,0.002678,0.000431,0.000470
828000,0.0324,0.013523,0.002678,0.000431,0.000470
829000,0.0324,0.013523,0.002678,0.000431,0.000470
830000,0.0324,0.013523,0.002678,0.000431,0.000470
831000,0.0324,0.013523,0.002678,0.000431,0.000470
832000,0.0324,0.013523,0.002678,0.000431,0.000470
833000,0.0324,0.013523,0.002678,0.000431,0.000470
834000,0.0324,0.013523,0.002678,0.000431,0.000470
835000,0.0324,0.013523,0.002678,0.000431,0.000470
836000,0.0324,0.013523,0.002678,0.000431,0.000470
837000,0.0324,0.013523,0.002678,0.000431,0.000470
838000,0.0324,0.013523,0.002678,0.000431,0.000470
839000,0.0324,0.013523,0.002678,0.000431,0.000470
840000,0.0324,0.013523,0.002678,0.000431,0.000470
841000,0.0324,0.013523,0.002678,0.000431,0.000470
842000,0.0324,0.013523,0.002678,0.000431,0.000470
843000,0.0324,0.013523,0.002678,0.000431,0.000470
844000,0.0324,0.013523,0.002678,0.000431,0.000470
845000,0.0324,0.013523,0.002678,0.000431,0.000470
846000,0.0324,0.013523,0.002678,0.000431,0.000470
847000,0.0324,0.013523,0.002678,0.000431,0.000470
848000,0.0324,0.013523,0.002678,0.000431,0.000470
849000,0.0324,0.013523,0.002678,0.000431,0.000353
850000,0.0324,0.013523,0.002678,0.000431,0.000470
851000,0.0324,0.013523,0.002678,0.000431,0.000470
852000,0.0324,0.013523,0.002678,0.000431,0.000470
853000,0.0324,0.013523,0.002678,0.000431,0.000470
854000,0.0324,0.013523,0.002678,0.000431,0.000470
855000,0.0324,0.013523,0.002678,0.000431,0.000470
856000,0.0324,0.013523,0.002678,0.000431,0.000470
857000,0.0324,0.013523,0.002678,0.000431,0.000470
858000,0.0324,0.013523,0.002678,0.000431,0.000470
859000,0.0324,0.013523,0.002678,0.000431,0.000470
860000,0.0324,0.013523,0.002678,0.000431,0.000470
861000,0.0324,0.013523,0.002678,0.000431,0.000470
862000,0.0324,0.013523,0.002678,0.000431,0.000470
863000,0.0324,0.013523,0.002678,0.000431,0.000470
864000,0.0324,0.013523,0.002678,0.000431,0.000470
865000,0.0324,0.013523,0.002678,0.000431,0.000470
866000,0.0324,0.013523,0.002678,0.000431,0.000470
867000,0.0324,0.013523,0.002678,0.000431,0.000470
868000,0.0324,0.013523,0.002678,0.000431,0.000470
869000,0.0324,0.013523,0.002678,0.000431,0.000353
870000,0.0324,0.013523,0.002678,0.000431,0.000470
871000,0.0324,0.013523,0.002678,0.000431,0.000470
872000,0.0324,0.013523,0.002678,0.000431,0.000470
873000,0.0324,0.013523,0.002678,0.000431,0.000353
874000,0.0324,0.013523,0.002678,0.000431,0.000470
875000,0.0324,0.013523,0.002678,0.000431,0.000470
876000,0.0324,0.013523,0.002678,0.000431,0.000470
877000,0.0324,0.013523,0.002678,0.000431,0.000470
878000,0.0324,0.013523,0.002678,0.000431,0.000470
879000,0.0324,0.013523,0.002678,0.000431,0.000470
880000,0.0324,0.013523,0.002678,0.000431,0.000470
881000,0.0324,0.013523,0.002678,0.000431,0.000470
882000,0.0324,0.013523,0.002678,0.000431,0.000470
883000,0.0324,0.013523,0.002678,0.000431,0.000470
884000,0.0324,0.013523,0.002678,0.000431,0.000470
885000,0.0324,0.013523,0.002678,0.000431,0.000470
886000,0.0324,0.013523,0.002678,0.000431,0.000470
887000,0.0324,0.013523,0.002678,0.000431,0.000470
888000,0.0324,0.013523,0.002678,0.000431,0.000353
889000,0.0324,0.013523,0.002678,0.000431,0.000353
890000,0.0324,0.013523,0.002678,0.000431,0.000235
891000,0.0324,0.013523,0.002678,0.000431,0.000353
892000,0.0324,0.013523,0.002678,0.000431,0.000470
893000,0.0324,0.013523,0.002678,0.000431,0.000353
894000,0.0324,0.013523,0.002678,0.000431,0.000235
895000,0.0324,0.013523,0.002678,0.000431,0.000353
896000,0.0324,0.013523,0.002678,0.000431,0.000353
897000,0.0324,0.013523,0.002678,0.000431,0.000235
898000,0.0324,0.013523,0.002678,0.000431,0.000353
899000,0.0324,0.013523,0.002678,0.000431,0.000470
900000,0.0324,0.013523,0.002678,0.000431,0.000353
901000,0.0324,0.013523,0.002678,0.000431,0.000235
902000,0.0324,0.013523,0.002678,0.000431,0.000353
903000,0.0324,0.013523,0.002678,0.000431,0.000353
904000,0.0324,0.013523,0.002678,0.000431,0.000235
905000,0.0324,0.013523,0.002678,0.000431,0.000353
906000,0.0324,0.013523,0.002678,0.000431,0.000470
907000,0.0324,0.013523,0.002678,0.000431,0.000353
908000,0.0324,0.013523,0.002678,0.000431,0.000235
909000,0.0324,0.013523,0.002678,0.000431,0.000353
910000,0.0324,0.013523,0.002678,0.000431,0.000353
911000,0.0324,0.013523,0.002678,0.000431,0.000235
912000,0.0324,0.013523,0.002678,0.000431,0.000353
913000,0.0324,0.013523,0.002678,0.000431,0.000470
914000,0.0324,0.013523,0.002678,0.000431,0.000353
915000,0.0324,0.013523,0.002678,0.000431,0.000235
916000,0.0324,0.013523,0.002678,0.000431,0.000353
917000,0.0324,0.013523,0.002678,0.000431,0.000353
918000,0.0324,0.013523,0.002678,0.000431,0.000235
919000,0.0324,0.013523,0.002678,0.000431,0.000353
920000,0.0324,0.013523,0.002678,0.000431,0.000470
921000,0.0324,0.013523,0.002678,0.000431,0.000353
922000,0.0324,0.013523,0.002678,0.000431,0.000235
923000,0.0324,0.013523,0.002678,0.000431,0.000353
924000,0.0324,0.013523,0.002678,0.000431,0.000353
925000,0.0324,0.013523,0.002678,0.000431,0.000235
926000,0.0324,0.013523,0.002678,0.000431,0.000353
927000,0.0324,0.013523,0.002678,0.000431,0.000470
928000,0.0324,0.013523,0.002678,0.000431,0.000353
