Cycle,Area(mm^2),PeakDynamic(W),SubthresholdLeakage(W),GateLeakage(W),RunTimeDynamic(W)
1000000,0.0324,0.013523,0.002678,0.000431,0.000940
1001000,0.0324,0.013523,0.002678,0.000431,0.000823
1002000,0.0324,0.013523,0.002678,0.000431,0.000823
1003000,0.0324,0.013523,0.002678,0.000431,0.000940
1004000,0.0324,0.013523,0.002678,0.000431,0.000705
1005000,0.0324,0.013523,0.002678,0.000431,0.000940
1006000,0.0324,0.013523,0.002678,0.000431,0.000823
1007000,0.0324,0.013523,0.002678,0.000431,0.000823
1008000,0.0324,0.013523,0.002678,0.000431,0.000940
1009000,0.0324,0.013523,0.002678,0.000431,0.000823
1010000,0.0324,0.013523,0.002678,0.000431,0.000823
1011000,0.0324,0.013523,0.002678,0.000431,0.001175
1012000,0.0324,0.013523,0.002678,0.000431,0.121289
1013000,0.0324,0.013523,0.002678,0.000431,0.092495
1014000,0.0324,0.013523,0.002678,0.000431,0.112592
1015000,0.0324,0.013523,0.002678,0.000431,0.083092
1016000,0.0324,0.013523,0.002678,0.000431,0.158428
1017000,0.0324,0.013523,0.002678,0.000431,0.166420
1018000,0.0324,0.013523,0.002678,0.000431,0.145382
1019000,0.0324,0.013523,0.002678,0.000431,0.129399
1020000,0.0324,0.013523,0.002678,0.000431,0.128458
1021000,0.0324,0.013523,0.002678,0.000431,0.116705
1022000,0.0324,0.013523,0.002678,0.000431,0.118233
1023000,0.0324,0.013523,0.002678,0.000431,0.112945
1024000,0.0324,0.013523,0.002678,0.000431,0.117293
1025000,0.0324,0.013523,0.002678,0.000431,0.121759
1026000,0.0324,0.013523,0.002678,0.000431,0.112827
1027000,0.0324,0.013523,0.002678,0.000431,0.106128
1028000,0.0324,0.013523,0.002678,0.000431,0.089674
1029000,0.0324,0.013523,0.002678,0.000431,0.088616
1030000,0.0324,0.013523,0.002678,0.000431,0.082270
1031000,0.0324,0.013523,0.002678,0.000431,0.070987
1032000,0.0324,0.013523,0.002678,0.000431,0.061232
1033000,0.0324,0.013523,0.002678,0.000431,0.053828
1034000,0.0324,0.013523,0.002678,0.000431,0.051712
1035000,0.0324,0.013523,0.002678,0.000431,0.042545
1036000,0.0324,0.013523,0.002678,0.000431,0.039489
1037000,0.0324,0.013523,0.002678,0.000431,0.037727
1038000,0.0324,0.013523,0.002678,0.000431,0.030792
1039000,0.0324,0.013523,0.002678,0.000431,0.025621
1040000,0.0324,0.013523,0.002678,0.000431,0.023388
1041000,0.0324,0.013523,0.002678,0.000431,0.018334
1042000,0.0324,0.013523,0.002678,0.000431,0.016689
1043000,0.0324,0.013523,0.002678,0.000431,0.015866
1044000,0.0324,0.013523,0.002678,0.000431,0.014573
1045000,0.0324,0.013523,0.002678,0.000431,0.012105
1046000,0.0324,0.013523,0.002678,0.000431,0.011400
1047000,0.0324,0.013523,0.002678,0.000431,0.011518
1048000,0.0324,0.013523,0.002678,0.000431,0.011988
1049000,0.0324,0.013523,0.002678,0.000431,0.009637
1050000,0.0324,0.013523,0.002678,0.000431,0.008580
1051000,0.0324,0.013523,0.002678,0.000431,0.007052
1052000,0.0324,0.013523,0.002678,0.000431,0.008697
1053000,0.0324,0.013523,0.002678,0.000431,0.007522
1054000,0.0324,0.013523,0.002678,0.000431,0.006817
1055000,0.0324,0.013523,0.002678,0.000431,0.006347
1056000,0.0324,0.013523,0.002678,0.000431,0.005641
1057000,0.0324,0.013523,0.002678,0.000431,0.005641
1058000,0.0324,0.013523,0.002678,0.000431,0.004936
1059000,0.0324,0.013523,0.002678,0.000431,0.005054
1060000,0.0324,0.013523,0.002678,0.000431,0.005171
1061000,0.0324,0.013523,0.002678,0.000431,0.004819
1062000,0.0324,0.013523,0.002678,0.000431,0.003408
1063000,0.0324,0.013523,0.002678,0.000431,0.002586
1064000,0.0324,0.013523,0.002678,0.000431,0.002586
1065000,0.0324,0.013523,0.002678,0.000431,0.003056
1066000,0.0324,0.013523,0.002678,0.000431,0.001763
1067000,0.0324,0.013523,0.002678,0.000431,0.001880
1068000,0.0324,0.013523,0.002678,0.000431,0.001410
1069000,0.0324,0.013523,0.002678,0.000431,0.001763
1070000,0.0324,0.013523,0.002678,0.000431,0.001763
1071000,0.0324,0.013523,0.002678,0.000431,0.001528
1072000,0.0324,0.013523,0.002678,0.000431,0.001880
1073000,0.0324,0.013523,0.002678,0.000431,0.001645
1074000,0.0324,0.013523,0.002678,0.000431,0.001645
1075000,0.0324,0.013523,0.002678,0.000431,0.001763
1076000,0.0324,0.013523,0.002678,0.000431,0.001528
1077000,0.0324,0.013523,0.002678,0.000431,0.001645
1078000,0.0324,0.013523,0.002678,0.000431,0.001763
1079000,0.0324,0.013523,0.002678,0.000431,0.001763
1080000,0.0324,0.013523,0.002678,0.000431,0.001645
1081000,0.0324,0.013523,0.002678,0.000431,0.001763
1082000,0.0324,0.013523,0.002678,0.000431,0.001528
1083000,0.0324,0.013523,0.002678,0.000431,0.002351
1084000,0.0324,0.013523,0.002678,0.000431,0.000940
1085000,0.0324,0.013523,0.002678,0.000431,0.000823
1086000,0.0324,0.013523,0.002678,0.000431,0.000940
1087000,0.0324,0.013523,0.002678,0.000431,0.000823
1088000,0.0324,0.013523,0.002678,0.000431,0.000823
1089000,0.0324,0.013523,0.002678,0.000431,0.000823
1090000,0.0324,0.013523,0.002678,0.000431,0.000823
1091000,0.0324,0.013523,0.002678,0.000431,0.000705
1092000,0.0324,0.013523,0.002678,0.000431,0.001175
1093000,0.0324,0.013523,0.002678,0.000431,0.000705
1094000,0.0324,0.013523,0.002678,0.000431,0.000940
1095000,0.0324,0.013523,0.002678,0.000431,0.000823
1096000,0.0324,0.013523,0.002678,0.000431,0.000823
1097000,0.0324,0.013523,0.002678,0.000431,0.000940
1098000,0.0324,0.013523,0.002678,0.000431,0.000823
1099000,0.0324,0.013523,0.002678,0.000431,0.000823
1100000,0.0324,0.013523,0.002678,0.000431,0.000940
1101000,0.0324,0.013523,0.002678,0.000431,0.057354
1102000,0.0324,0.013523,0.002678,0.000431,0.120349
1103000,0.0324,0.013523,0.002678,0.000431,0.085913
1104000,0.0324,0.013523,0.002678,0.000431,0.098254
1105000,0.0324,0.013523,0.002678,0.000431,0.124110
1106000,0.0324,0.013523,0.002678,0.000431,0.137508
1107000,0.0324,0.013523,0.002678,0.000431,0.138566
1108000,0.0324,0.013523,0.002678,0.000431,0.122229
1109000,0.0324,0.013523,0.002678,0.000431,0.114002
1110000,0.0324,0.013523,0.002678,0.000431,0.110594
1111000,0.0324,0.013523,0.002678,0.000431,0.106951
1112000,0.0324,0.013523,0.002678,0.000431,0.102955
1113000,0.0324,0.013523,0.002678,0.000431,0.098371
1114000,0.0324,0.013523,0.002678,0.000431,0.092495
1115000,0.0324,0.013523,0.002678,0.000431,0.083680
1116000,0.0324,0.013523,0.002678,0.000431,0.084033
1117000,0.0324,0.013523,0.002678,0.000431,0.076746
1118000,0.0324,0.013523,0.002678,0.000431,0.070282
1119000,0.0324,0.013523,0.002678,0.000431,0.065933
1120000,0.0324,0.013523,0.002678,0.000431,0.062878
1121000,0.0324,0.013523,0.002678,0.000431,0.053828
1122000,0.0324,0.013523,0.002678,0.000431,0.041135
1123000,0.0324,0.013523,0.002678,0.000431,0.034436
1124000,0.0324,0.013523,0.002678,0.000431,0.030087
1125000,0.0324,0.013523,0.002678,0.000431,0.026444
1126000,0.0324,0.013523,0.002678,0.000431,0.027149
1127000,0.0324,0.013523,0.002678,0.000431,0.029029
1128000,0.0324,0.013523,0.002678,0.000431,0.027854
1129000,0.0324,0.013523,0.002678,0.000431,0.023153
1130000,0.0324,0.013523,0.002678,0.000431,0.020567
1131000,0.0324,0.013523,0.002678,0.000431,0.019627
1132000,0.0324,0.013523,0.002678,0.000431,0.017864
1133000,0.0324,0.013523,0.002678,0.000431,0.017394
1134000,0.0324,0.013523,0.002678,0.000431,0.014691
1135000,0.0324,0.013523,0.002678,0.000431,0.015514
1136000,0.0324,0.013523,0.002678,0.000431,0.014103
1137000,0.0324,0.013523,0.002678,0.000431,0.014338
1138000,0.0324,0.013523,0.002678,0.000431,0.010342
1139000,0.0324,0.013523,0.002678,0.000431,0.009050
1140000,0.0324,0.013523,0.002678,0.000431,0.009167
1141000,0.0324,0.013523,0.002678,0.000431,0.007169
1142000,0.0324,0.013523,0.002678,0.000431,0.007404
1143000,0.0324,0.013523,0.002678,0.000431,0.006699
1144000,0.0324,0.013523,0.002678,0.000431,0.004936
1145000,0.0324,0.013523,0.002678,0.000431,0.005054
1146000,0.0324,0.013523,0.002678,0.000431,0.005406
1147000,0.0324,0.013523,0.002678,0.000431,0.004819
1148000,0.0324,0.013523,0.002678,0.000431,0.003996
1149000,0.0324,0.013523,0.002678,0.000431,0.003996
1150000,0.0324,0.013523,0.002678,0.000431,0.004231
1151000,0.0324,0.013523,0.002678,0.000431,0.004349
1152000,0.0324,0.013523,0.002678,0.000431,0.004584
1153000,0.0324,0.013523,0.002678,0.000431,0.003878
1154000,0.0324,0.013523,0.002678,0.000431,0.003996
1155000,0.0324,0.013523,0.002678,0.000431,0.003291
1156000,0.0324,0.013523,0.002678,0.000431,0.003408
1157000,0.0324,0.013523,0.002678,0.000431,0.003408
1158000,0.0324,0.013523,0.002678,0.000431,0.002351
1159000,0.0324,0.013523,0.002678,0.000431,0.002703
1160000,0.0324,0.013523,0.002678,0.000431,0.002468
1161000,0.0324,0.013523,0.002678,0.000431,0.003408
1162000,0.0324,0.013523,0.002678,0.000431,0.004701
1163000,0.0324,0.013523,0.002678,0.000431,0.003408
1164000,0.0324,0.013523,0.002678,0.000431,0.002703
1165000,0.0324,0.013523,0.002678,0.000431,0.002586
1166000,0.0324,0.013523,0.002678,0.000431,0.002821
1167000,0.0324,0.013523,0.002678,0.000431,0.002351
1168000,0.0324,0.013523,0.002678,0.000431,0.002586
1169000,0.0324,0.013523,0.002678,0.000431,0.002821
1170000,0.0324,0.013523,0.002678,0.000431,0.002586
1171000,0.0324,0.013523,0.002678,0.000431,0.002351
1172000,0.0324,0.013523,0.002678,0.000431,0.002703
1173000,0.0324,0.013523,0.002678,0.000431,0.003291
1174000,0.0324,0.013523,0.002678,0.000431,0.004466
1175000,0.0324,0.013523,0.002678,0.000431,0.003056
1176000,0.0324,0.013523,0.002678,0.000431,0.003291
1177000,0.0324,0.013523,0.002678,0.000431,0.002586
1178000,0.0324,0.013523,0.002678,0.000431,0.002586
1179000,0.0324,0.013523,0.002678,0.000431,0.002468
1180000,0.0324,0.013523,0.002678,0.000431,0.002821
1181000,0.0324,0.013523,0.002678,0.000431,0.002586
1182000,0.0324,0.013523,0.002678,0.000431,0.002703
1183000,0.0324,0.013523,0.002678,0.000431,0.002703
1184000,0.0324,0.013523,0.002678,0.000431,0.002586
1185000,0.0324,0.013523,0.002678,0.000431,0.002703
1186000,0.0324,0.013523,0.002678,0.000431,0.002468
1187000,0.0324,0.013523,0.002678,0.000431,0.002586
1188000,0.0324,0.013523,0.002678,0.000431,0.002821
1189000,0.0324,0.013523,0.002678,0.000431,0.002703
1190000,0.0324,0.013523,0.002678,0.000431,0.002233
1191000,0.0324,0.013523,0.002678,0.000431,0.002821
1192000,0.0324,0.013523,0.002678,0.000431,0.002468
1193000,0.0324,0.013523,0.002678,0.000431,0.003526
1194000,0.0324,0.013523,0.002678,0.000431,0.001058
1195000,0.0324,0.013523,0.002678,0.000431,0.000823
1196000,0.0324,0.013523,0.002678,0.000431,0.000823
1197000,0.0324,0.013523,0.002678,0.000431,0.000940
1198000,0.0324,0.013523,0.002678,0.000431,0.000705
1199000,0.0324,0.013523,0.002678,0.000431,0.000940
1200000,0.0324,0.013523,0.002678,0.000431,0.000823
1201000,0.0324,0.013523,0.002678,0.000431,0.000823
1202000,0.0324,0.013523,0.002678,0.000431,0.000940
1203000,0.0324,0.013523,0.002678,0.000431,0.000823
1204000,0.0324,0.013523,0.002678,0.000431,0.000823
1205000,0.0324,0.013523,0.002678,0.000431,0.000940
1206000,0.0324,0.013523,0.002678,0.000431,0.000705
1207000,0.0324,0.013523,0.002678,0.000431,0.000940
1208000,0.0324,0.013523,0.002678,0.000431,0.000823
1209000,0.0324,0.013523,0.002678,0.000431,0.000823
1210000,0.0324,0.013523,0.002678,0.000431,0.047951
1211000,0.0324,0.013523,0.002678,0.000431,0.148556
1212000,0.0324,0.013523,0.002678,0.000431,0.116353
1213000,0.0324,0.013523,0.002678,0.000431,0.128223
1214000,0.0324,0.013523,0.002678,0.000431,0.103777
1215000,0.0324,0.013523,0.002678,0.000431,0.155842
1216000,0.0324,0.013523,0.002678,0.000431,0.142092
1217000,0.0324,0.013523,0.002678,0.000431,0.115413
1218000,0.0324,0.013523,0.002678,0.000431,0.114708
1219000,0.0324,0.013523,0.002678,0.000431,0.103190
1220000,0.0324,0.013523,0.002678,0.000431,0.105540
1221000,0.0324,0.013523,0.002678,0.000431,0.094375
1222000,0.0324,0.013523,0.002678,0.000431,0.092965
1223000,0.0324,0.013523,0.002678,0.000431,0.098724
1224000,0.0324,0.013523,0.002678,0.000431,0.097196
1225000,0.0324,0.013523,0.002678,0.000431,0.088029
1226000,0.0324,0.013523,0.002678,0.000431,0.078861
1227000,0.0324,0.013523,0.002678,0.000431,0.077216
1228000,0.0324,0.013523,0.002678,0.000431,0.064758
1229000,0.0324,0.013523,0.002678,0.000431,0.062878
1230000,0.0324,0.013523,0.002678,0.000431,0.056061
1231000,0.0324,0.013523,0.002678,0.000431,0.048304
1232000,0.0324,0.013523,0.002678,0.000431,0.050420
1233000,0.0324,0.013523,0.002678,0.000431,0.039254
1234000,0.0324,0.013523,0.002678,0.000431,0.031850
1235000,0.0324,0.013523,0.002678,0.000431,0.025974
1236000,0.0324,0.013523,0.002678,0.000431,0.022213
1237000,0.0324,0.013523,0.002678,0.000431,0.017747
1238000,0.0324,0.013523,0.002678,0.000431,0.016571
1239000,0.0324,0.013523,0.002678,0.000431,0.015514
1240000,0.0324,0.013523,0.002678,0.000431,0.013868
1241000,0.0324,0.013523,0.002678,0.000431,0.009285
1242000,0.0324,0.013523,0.002678,0.000431,0.008345
1243000,0.0324,0.013523,0.002678,0.000431,0.009990
1244000,0.0324,0.013523,0.002678,0.000431,0.007992
1245000,0.0324,0.013523,0.002678,0.000431,0.007522
1246000,0.0324,0.013523,0.002678,0.000431,0.003291
1247000,0.0324,0.013523,0.002678,0.000431,0.003643
1248000,0.0324,0.013523,0.002678,0.000431,0.003173
1249000,0.0324,0.013523,0.002678,0.000431,0.002703
1250000,0.0324,0.013523,0.002678,0.000431,0.002586
1251000,0.0324,0.013523,0.002678,0.000431,0.002116
1252000,0.0324,0.013523,0.002678,0.000431,0.013986
1253000,0.0324,0.013523,0.002678,0.000431,0.168183
1254000,0.0324,0.013523,0.002678,0.000431,0.113532
1255000,0.0324,0.013523,0.002678,0.000431,0.145852
1256000,0.0324,0.013523,0.002678,0.000431,0.076041
1257000,0.0324,0.013523,0.002678,0.000431,0.177232
1258000,0.0324,0.013523,0.002678,0.000431,0.143267
1259000,0.0324,0.013523,0.002678,0.000431,0.135628
1260000,0.0324,0.013523,0.002678,0.000431,0.127988
1261000,0.0324,0.013523,0.002678,0.000431,0.120349
1262000,0.0324,0.013523,0.002678,0.000431,0.113180
1263000,0.0324,0.013523,0.002678,0.000431,0.114590
1264000,0.0324,0.013523,0.002678,0.000431,0.118351
1265000,0.0324,0.013523,0.002678,0.000431,0.113297
1266000,0.0324,0.013523,0.002678,0.000431,0.112474
1267000,0.0324,0.013523,0.002678,0.000431,0.100369
1268000,0.0324,0.013523,0.002678,0.000431,0.089321
1269000,0.0324,0.013523,0.002678,0.000431,0.086501
1270000,0.0324,0.013523,0.002678,0.000431,0.068636
1271000,0.0324,0.013523,0.002678,0.000431,0.057824
1272000,0.0324,0.013523,0.002678,0.000431,0.053005
1273000,0.0324,0.013523,0.002678,0.000431,0.048892
1274000,0.0324,0.013523,0.002678,0.000431,0.040782
1275000,0.0324,0.013523,0.002678,0.000431,0.041605
1276000,0.0324,0.013523,0.002678,0.000431,0.037256
1277000,0.0324,0.013523,0.002678,0.000431,0.035964
1278000,0.0324,0.013523,0.002678,0.000431,0.032673
1279000,0.0324,0.013523,0.002678,0.000431,0.024211
1280000,0.0324,0.013523,0.002678,0.000431,0.022800
1281000,0.0324,0.013523,0.002678,0.000431,0.019157
1282000,0.0324,0.013523,0.002678,0.000431,0.018217
1283000,0.0324,0.013523,0.002678,0.000431,0.018099
1284000,0.0324,0.013523,0.002678,0.000431,0.016924
1285000,0.0324,0.013523,0.002678,0.000431,0.016454
1286000,0.0324,0.013523,0.002678,0.000431,0.016219
1287000,0.0324,0.013523,0.002678,0.000431,0.014338
1288000,0.0324,0.013523,0.002678,0.000431,0.012811
1289000,0.0324,0.013523,0.002678,0.000431,0.013281
1290000,0.0324,0.013523,0.002678,0.000431,0.013986
1291000,0.0324,0.013523,0.002678,0.000431,0.012458
1292000,0.0324,0.013523,0.002678,0.000431,0.009285
1293000,0.0324,0.013523,0.002678,0.000431,0.007874
1294000,0.0324,0.013523,0.002678,0.000431,0.008580
1295000,0.0324,0.013523,0.002678,0.000431,0.007874
1296000,0.0324,0.013523,0.002678,0.000431,0.004819
1297000,0.0324,0.013523,0.002678,0.000431,0.003761
1298000,0.0324,0.013523,0.002678,0.000431,0.004113
1299000,0.0324,0.013523,0.002678,0.000431,0.004584
1300000,0.0324,0.013523,0.002678,0.000431,0.001763
1301000,0.0324,0.013523,0.002678,0.000431,0.001763
1302000,0.0324,0.013523,0.002678,0.000431,0.001880
1303000,0.0324,0.013523,0.002678,0.000431,0.000940
1304000,0.0324,0.013523,0.002678,0.000431,0.000823
1305000,0.0324,0.013523,0.002678,0.000431,0.000823
1306000,0.0324,0.013523,0.002678,0.000431,0.000940
1307000,0.0324,0.013523,0.002678,0.000431,0.098959
1308000,0.0324,0.013523,0.002678,0.000431,0.133630
1309000,0.0324,0.013523,0.002678,0.000431,0.138331
1310000,0.0324,0.013523,0.002678,0.000431,0.097666
1311000,0.0324,0.013523,0.002678,0.000431,0.125638
1312000,0.0324,0.013523,0.002678,0.000431,0.124345
1313000,0.0324,0.013523,0.002678,0.000431,0.111064
1314000,0.0324,0.013523,0.002678,0.000431,0.107891
1315000,0.0324,0.013523,0.002678,0.000431,0.092730
1316000,0.0324,0.013523,0.002678,0.000431,0.096138
1317000,0.0324,0.013523,0.002678,0.000431,0.091790
1318000,0.0324,0.013523,0.002678,0.000431,0.084503
1319000,0.0324,0.013523,0.002678,0.000431,0.080742
1320000,0.0324,0.013523,0.002678,0.000431,0.075453
1321000,0.0324,0.013523,0.002678,0.000431,0.066521
1322000,0.0324,0.013523,0.002678,0.000431,0.060762
1323000,0.0324,0.013523,0.002678,0.000431,0.061702
1324000,0.0324,0.013523,0.002678,0.000431,0.059117
1325000,0.0324,0.013523,0.002678,0.000431,0.051595
1326000,0.0324,0.013523,0.002678,0.000431,0.051947
1327000,0.0324,0.013523,0.002678,0.000431,0.046306
1328000,0.0324,0.013523,0.002678,0.000431,0.038197
1329000,0.0324,0.013523,0.002678,0.000431,0.028207
1330000,0.0324,0.013523,0.002678,0.000431,0.029617
1331000,0.0324,0.013523,0.002678,0.000431,0.023976
1332000,0.0324,0.013523,0.002678,0.000431,0.021978
1333000,0.0324,0.013523,0.002678,0.000431,0.016689
1334000,0.0324,0.013523,0.002678,0.000431,0.019275
1335000,0.0324,0.013523,0.002678,0.000431,0.014926
1336000,0.0324,0.013523,0.002678,0.000431,0.011518
1337000,0.0324,0.013523,0.002678,0.000431,0.009050
1338000,0.0324,0.013523,0.002678,0.000431,0.010578
1339000,0.0324,0.013523,0.002678,0.000431,0.010460
1340000,0.0324,0.013523,0.002678,0.000431,0.009167
1341000,0.0324,0.013523,0.002678,0.000431,0.007992
1342000,0.0324,0.013523,0.002678,0.000431,0.006347
1343000,0.0324,0.013523,0.002678,0.000431,0.003761
1344000,0.0324,0.013523,0.002678,0.000431,0.003643
1345000,0.0324,0.013523,0.002678,0.000431,0.003173
1346000,0.0324,0.013523,0.002678,0.000431,0.003526
1347000,0.0324,0.013523,0.002678,0.000431,0.003526
1348000,0.0324,0.013523,0.002678,0.000431,0.003526
1349000,0.0324,0.013523,0.002678,0.000431,0.003643
1350000,0.0324,0.013523,0.002678,0.000431,0.003291
1351000,0.0324,0.013523,0.002678,0.000431,0.003526
1352000,0.0324,0.013523,0.002678,0.000431,0.003408
1353000,0.0324,0.013523,0.002678,0.000431,0.003761
1354000,0.0324,0.013523,0.002678,0.000431,0.003291
1355000,0.0324,0.013523,0.002678,0.000431,0.003761
1356000,0.0324,0.013523,0.002678,0.000431,0.002586
1357000,0.0324,0.013523,0.002678,0.000431,0.002703
1358000,0.0324,0.013523,0.002678,0.000431,0.003291
1359000,0.0324,0.013523,0.002678,0.000431,0.001880
1360000,0.0324,0.013523,0.002678,0.000431,0.001528
1361000,0.0324,0.013523,0.002678,0.000431,0.001763
1362000,0.0324,0.013523,0.002678,0.000431,0.001645
1363000,0.0324,0.013523,0.002678,0.000431,0.001645
1364000,0.0324,0.013523,0.002678,0.000431,0.001763
1365000,0.0324,0.013523,0.002678,0.000431,0.000705
1366000,0.0324,0.013523,0.002678,0.000431,0.000940
1367000,0.0324,0.013523,0.002678,0.000431,0.000823
1368000,0.0324,0.013523,0.002678,0.000431,0.000823
1369000,0.0324,0.013523,0.002678,0.000431,0.000705
1370000,0.0324,0.013523,0.002678,0.000431,0.000940
1371000,0.0324,0.013523,0.002678,0.000431,0.000940
1372000,0.0324,0.013523,0.002678,0.000431,0.000705
1373000,0.0324,0.013523,0.002678,0.000431,0.000940
1374000,0.0324,0.013523,0.002678,0.000431,0.000940
1375000,0.0324,0.013523,0.002678,0.000431,0.000940
1376000,0.0324,0.013523,0.002678,0.000431,0.000705
1377000,0.0324,0.013523,0.002678,0.000431,0.000940
1378000,0.0324,0.013523,0.002678,0.000431,0.000705
1379000,0.0324,0.013523,0.002678,0.000431,0.000940
1380000,0.0324,0.013523,0.002678,0.000431,0.000940
1381000,0.0324,0.013523,0.002678,0.000431,0.000940
1382000,0.0324,0.013523,0.002678,0.000431,0.000823
1383000,0.0324,0.013523,0.002678,0.000431,0.000823
1384000,0.0324,0.013523,0.002678,0.000431,0.000940
1385000,0.0324,0.013523,0.002678,0.000431,0.000940
1386000,0.0324,0.013523,0.002678,0.000431,0.000705
1387000,0.0324,0.013523,0.002678,0.000431,0.000940
1388000,0.0324,0.013523,0.002678,0.000431,0.000940
1389000,0.0324,0.013523,0.002678,0.000431,0.000940
1390000,0.0324,0.013523,0.002678,0.000431,0.000705
1391000,0.0324,0.013523,0.002678,0.000431,0.000940
1392000,0.0324,0.013523,0.002678,0.000431,0.000940
1393000,0.0324,0.013523,0.002678,0.000431,0.000823
1394000,0.0324,0.013523,0.002678,0.000431,0.000940
1395000,0.0324,0.013523,0.002678,0.000431,0.000823
1396000,0.0324,0.013523,0.002678,0.000431,0.000940
1397000,0.0324,0.013523,0.002678,0.000431,0.000823
1398000,0.0324,0.013523,0.002678,0.000431,0.000823
1399000,0.0324,0.013523,0.002678,0.000431,0.000940
1400000,0.0324,0.013523,0.002678,0.000431,0.000940
1401000,0.0324,0.013523,0.002678,0.000431,0.000705
1402000,0.0324,0.013523,0.002678,0.000431,0.000940
1403000,0.0324,0.013523,0.002678,0.000431,0.000940
1404000,0.0324,0.013523,0.002678,0.000431,0.000823
1405000,0.0324,0.013523,0.002678,0.000431,0.000823
1406000,0.0324,0.013523,0.002678,0.000431,0.000940
1407000,0.0324,0.013523,0.002678,0.000431,0.000705
1408000,0.0324,0.013523,0.002678,0.000431,0.000940
1409000,0.0324,0.013523,0.002678,0.000431,0.000823
1410000,0.0324,0.013523,0.002678,0.000431,0.000823
1411000,0.0324,0.013523,0.002678,0.000431,0.000940
1412000,0.0324,0.013523,0.002678,0.000431,0.000823
1413000,0.0324,0.013523,0.002678,0.000431,0.000823
1414000,0.0324,0.013523,0.002678,0.000431,0.000823
1415000,0.0324,0.013523,0.002678,0.000431,0.000823
1416000,0.0324,0.013523,0.002678,0.000431,0.000940
1417000,0.0324,0.013523,0.002678,0.000431,0.000823
1418000,0.0324,0.013523,0.002678,0.000431,0.000823
1419000,0.0324,0.013523,0.002678,0.000431,0.000940
1420000,0.0324,0.013523,0.002678,0.000431,0.000823
1421000,0.0324,0.013523,0.002678,0.000431,0.000823
1422000,0.0324,0.013523,0.002678,0.000431,0.000823
1423000,0.0324,0.013523,0.002678,0.000431,0.000823
1424000,0.0324,0.013523,0.002678,0.000431,0.000940
1425000,0.0324,0.013523,0.002678,0.000431,0.000823
1426000,0.0324,0.013523,0.002678,0.000431,0.000823
1427000,0.0324,0.013523,0.002678,0.000431,0.000940
1428000,0.0324,0.013523,0.002678,0.000431,0.000705
1429000,0.0324,0.013523,0.002678,0.000431,0.000940
1430000,0.0324,0.013523,0.002678,0.000431,0.000823
1431000,0.0324,0.013523,0.002678,0.000431,0.000823
1432000,0.0324,0.013523,0.002678,0.000431,0.000940
1433000,0.0324,0.013523,0.002678,0.000431,0.031145
1434000,0.0324,0.013523,0.002678,0.000431,0.113885
1435000,0.0324,0.013523,0.002678,0.000431,0.080037
1436000,0.0324,0.013523,0.002678,0.000431,0.102367
1437000,0.0324,0.013523,0.002678,0.000431,0.089556
1438000,0.0324,0.013523,0.002678,0.000431,0.150671
1439000,0.0324,0.013523,0.002678,0.000431,0.139506
1440000,0.0324,0.013523,0.002678,0.000431,0.113297
1441000,0.0324,0.013523,0.002678,0.000431,0.114590
1442000,0.0324,0.013523,0.002678,0.000431,0.104365
1443000,0.0324,0.013523,0.002678,0.000431,0.097313
1444000,0.0324,0.013523,0.002678,0.000431,0.098959
1445000,0.0324,0.013523,0.002678,0.000431,0.089086
1446000,0.0324,0.013523,0.002678,0.000431,0.095080
1447000,0.0324,0.013523,0.002678,0.000431,0.088616
1448000,0.0324,0.013523,0.002678,0.000431,0.079332
1449000,0.0324,0.013523,0.002678,0.000431,0.071105
1450000,0.0324,0.013523,0.002678,0.000431,0.067931
1451000,0.0324,0.013523,0.002678,0.000431,0.065111
1452000,0.0324,0.013523,0.002678,0.000431,0.050655
1453000,0.0324,0.013523,0.002678,0.000431,0.039372
1454000,0.0324,0.013523,0.002678,0.000431,0.034436
1455000,0.0324,0.013523,0.002678,0.000431,0.027972
1456000,0.0324,0.013523,0.002678,0.000431,0.023036
1457000,0.0324,0.013523,0.002678,0.000431,0.018805
1458000,0.0324,0.013523,0.002678,0.000431,0.017982
1459000,0.0324,0.013523,0.002678,0.000431,0.014926
1460000,0.0324,0.013523,0.002678,0.000431,0.014691
1461000,0.0324,0.013523,0.002678,0.000431,0.016689
1462000,0.0324,0.013523,0.002678,0.000431,0.011870
1463000,0.0324,0.013523,0.002678,0.000431,0.012576
1464000,0.0324,0.013523,0.002678,0.000431,0.010225
1465000,0.0324,0.013523,0.002678,0.000431,0.008697
1466000,0.0324,0.013523,0.002678,0.000431,0.005524
1467000,0.0324,0.013523,0.002678,0.000431,0.006111
1468000,0.0324,0.013523,0.002678,0.000431,0.004349
1469000,0.0324,0.013523,0.002678,0.000431,0.002821
1470000,0.0324,0.013523,0.002678,0.000431,0.003291
1471000,0.0324,0.013523,0.002678,0.000431,0.003173
1472000,0.0324,0.013523,0.002678,0.000431,0.003291
1473000,0.0324,0.013523,0.002678,0.000431,0.003056
1474000,0.0324,0.013523,0.002678,0.000431,0.003878
1475000,0.0324,0.013523,0.002678,0.000431,0.003643
1476000,0.0324,0.013523,0.002678,0.000431,0.002938
1477000,0.0324,0.013523,0.002678,0.000431,0.003056
1478000,0.0324,0.013523,0.002678,0.000431,0.003643
1479000,0.0324,0.013523,0.002678,0.000431,0.003643
1480000,0.0324,0.013523,0.002678,0.000431,0.002821
1481000,0.0324,0.013523,0.002678,0.000431,0.002586
1482000,0.0324,0.013523,0.002678,0.000431,0.002703
1483000,0.0324,0.013523,0.002678,0.000431,0.002468
1484000,0.0324,0.013523,0.002678,0.000431,0.002703
1485000,0.0324,0.013523,0.002678,0.000431,0.002468
1486000,0.0324,0.013523,0.002678,0.000431,0.002703
1487000,0.0324,0.013523,0.002678,0.000431,0.002703
1488000,0.0324,0.013523,0.002678,0.000431,0.002351
1489000,0.0324,0.013523,0.002678,0.000431,0.002821
1490000,0.0324,0.013523,0.002678,0.000431,0.002351
1491000,0.0324,0.013523,0.002678,0.000431,0.002821
1492000,0.0324,0.013523,0.002678,0.000431,0.002468
1493000,0.0324,0.013523,0.002678,0.000431,0.002703
1494000,0.0324,0.013523,0.002678,0.000431,0.002468
1495000,0.0324,0.013523,0.002678,0.000431,0.002703
1496000,0.0324,0.013523,0.002678,0.000431,0.002586
1497000,0.0324,0.013523,0.002678,0.000431,0.003173
1498000,0.0324,0.013523,0.002678,0.000431,0.001763
1499000,0.0324,0.013523,0.002678,0.000431,0.001763
1500000,0.0324,0.013523,0.002678,0.000431,0.001645
1501000,0.0324,0.013523,0.002678,0.000431,0.000823
1502000,0.0324,0.013523,0.002678,0.000431,0.000940
1503000,0.0324,0.013523,0.002678,0.000431,0.000823
1504000,0.0324,0.013523,0.002678,0.000431,0.000823
1505000,0.0324,0.013523,0.002678,0.000431,0.000940
1506000,0.0324,0.013523,0.002678,0.000431,0.000705
1507000,0.0324,0.013523,0.002678,0.000431,0.000940
1508000,0.0324,0.013523,0.002678,0.000431,0.079802
1509000,0.0324,0.013523,0.002678,0.000431,0.103660
1510000,0.0324,0.013523,0.002678,0.000431,0.104247
1511000,0.0324,0.013523,0.002678,0.000431,0.082622
1512000,0.0324,0.013523,0.002678,0.000431,0.157370
1513000,0.0324,0.013523,0.002678,0.000431,0.167125
1514000,0.0324,0.013523,0.002678,0.000431,0.156783
1515000,0.0324,0.013523,0.002678,0.000431,0.139506
1516000,0.0324,0.013523,0.002678,0.000431,0.131279
1517000,0.0324,0.013523,0.002678,0.000431,0.132219
1518000,0.0324,0.013523,0.002678,0.000431,0.119291
1519000,0.0324,0.013523,0.002678,0.000431,0.109536
1520000,0.0324,0.013523,0.002678,0.000431,0.104953
1521000,0.0324,0.013523,0.002678,0.000431,0.109419
1522000,0.0324,0.013523,0.002678,0.000431,0.107186
1523000,0.0324,0.013523,0.002678,0.000431,0.098254
1524000,0.0324,0.013523,0.002678,0.000431,0.082387
1525000,0.0324,0.013523,0.002678,0.000431,0.068872
1526000,0.0324,0.013523,0.002678,0.000431,0.066991
1527000,0.0324,0.013523,0.002678,0.000431,0.055238
1528000,0.0324,0.013523,0.002678,0.000431,0.050655
1529000,0.0324,0.013523,0.002678,0.000431,0.038432
1530000,0.0324,0.013523,0.002678,0.000431,0.036904
1531000,0.0324,0.013523,0.002678,0.000431,0.031027
1532000,0.0324,0.013523,0.002678,0.000431,0.027854
1533000,0.0324,0.013523,0.002678,0.000431,0.018099
1534000,0.0324,0.013523,0.002678,0.000431,0.017512
1535000,0.0324,0.013523,0.002678,0.000431,0.019980
1536000,0.0324,0.013523,0.002678,0.000431,0.012105
1537000,0.0324,0.013523,0.002678,0.000431,0.012693
1538000,0.0324,0.013523,0.002678,0.000431,0.010695
1539000,0.0324,0.013523,0.002678,0.000431,0.011518
1540000,0.0324,0.013523,0.002678,0.000431,0.008109
1541000,0.0324,0.013523,0.002678,0.000431,0.006582
1542000,0.0324,0.013523,0.002678,0.000431,0.008697
1543000,0.0324,0.013523,0.002678,0.000431,0.008109
1544000,0.0324,0.013523,0.002678,0.000431,0.006582
1545000,0.0324,0.013523,0.002678,0.000431,0.008109
1546000,0.0324,0.013523,0.002678,0.000431,0.007052
1547000,0.0324,0.013523,0.002678,0.000431,0.004349
1548000,0.0324,0.013523,0.002678,0.000431,0.002821
1549000,0.0324,0.013523,0.002678,0.000431,0.003408
1550000,0.0324,0.013523,0.002678,0.000431,0.002233
1551000,0.0324,0.013523,0.002678,0.000431,0.003291
1552000,0.0324,0.013523,0.002678,0.000431,0.001058
1553000,0.0324,0.013523,0.002678,0.000431,0.000940
1554000,0.0324,0.013523,0.002678,0.000431,0.000940
1555000,0.0324,0.013523,0.002678,0.000431,0.000705
1556000,0.0324,0.013523,0.002678,0.000431,0.000940
1557000,0.0324,0.013523,0.002678,0.000431,0.000940
1558000,0.0324,0.013523,0.002678,0.000431,0.000823
1559000,0.0324,0.013523,0.002678,0.000431,0.000940
1560000,0.0324,0.013523,0.002678,0.000431,0.000940
1561000,0.0324,0.013523,0.002678,0.000431,0.000823
1562000,0.0324,0.013523,0.002678,0.000431,0.000940
1563000,0.0324,0.013523,0.002678,0.000431,0.001058
1564000,0.0324,0.013523,0.002678,0.000431,0.000823
1565000,0.0324,0.013523,0.002678,0.000431,0.000940
1566000,0.0324,0.013523,0.002678,0.000431,0.000823
1567000,0.0324,0.013523,0.002678,0.000431,0.000823
1568000,0.0324,0.013523,0.002678,0.000431,0.000940
1569000,0.0324,0.013523,0.002678,0.000431,0.000823
1570000,0.0324,0.013523,0.002678,0.000431,0.000823
1571000,0.0324,0.013523,0.002678,0.000431,0.000940
1572000,0.0324,0.013523,0.002678,0.000431,0.000705
1573000,0.0324,0.013523,0.002678,0.000431,0.000940
1574000,0.0324,0.013523,0.002678,0.000431,0.001293
1575000,0.0324,0.013523,0.002678,0.000431,0.129046
1576000,0.0324,0.013523,0.002678,0.000431,0.125990
1577000,0.0324,0.013523,0.002678,0.000431,0.135863
1578000,0.0324,0.013523,0.002678,0.000431,0.084150
1579000,0.0324,0.013523,0.002678,0.000431,0.161954
1580000,0.0324,0.013523,0.002678,0.000431,0.177468
1581000,0.0324,0.013523,0.002678,0.000431,0.140564
1582000,0.0324,0.013523,0.002678,0.000431,0.136333
1583000,0.0324,0.013523,0.002678,0.000431,0.115765
1584000,0.0324,0.013523,0.002678,0.000431,0.125520
1585000,0.0324,0.013523,0.002678,0.000431,0.130926
1586000,0.0324,0.013523,0.002678,0.000431,0.121877
1587000,0.0324,0.013523,0.002678,0.000431,0.109536
1588000,0.0324,0.013523,0.002678,0.000431,0.105775
1589000,0.0324,0.013523,0.002678,0.000431,0.088969
1590000,0.0324,0.013523,0.002678,0.000431,0.082505
1591000,0.0324,0.013523,0.002678,0.000431,0.077686
1592000,0.0324,0.013523,0.002678,0.000431,0.076746
1593000,0.0324,0.013523,0.002678,0.000431,0.060527
1594000,0.0324,0.013523,0.002678,0.000431,0.048774
1595000,0.0324,0.013523,0.002678,0.000431,0.039842
1596000,0.0324,0.013523,0.002678,0.000431,0.040195
1597000,0.0324,0.013523,0.002678,0.000431,0.030792
1598000,0.0324,0.013523,0.002678,0.000431,0.030322
1599000,0.0324,0.013523,0.002678,0.000431,0.025034
1600000,0.0324,0.013523,0.002678,0.000431,0.022800
1601000,0.0324,0.013523,0.002678,0.000431,0.017394
1602000,0.0324,0.013523,0.002678,0.000431,0.014691
1603000,0.0324,0.013523,0.002678,0.000431,0.012340
1604000,0.0324,0.013523,0.002678,0.000431,0.013163
1605000,0.0324,0.013523,0.002678,0.000431,0.015984
1606000,0.0324,0.013523,0.002678,0.000431,0.018569
1607000,0.0324,0.013523,0.002678,0.000431,0.013986
1608000,0.0324,0.013523,0.002678,0.000431,0.013046
1609000,0.0324,0.013523,0.002678,0.000431,0.009637
1610000,0.0324,0.013523,0.002678,0.000431,0.008462
1611000,0.0324,0.013523,0.002678,0.000431,0.007992
1612000,0.0324,0.013523,0.002678,0.000431,0.005171
1613000,0.0324,0.013523,0.002678,0.000431,0.003173
1614000,0.0324,0.013523,0.002678,0.000431,0.003291
1615000,0.0324,0.013523,0.002678,0.000431,0.003408
1616000,0.0324,0.013523,0.002678,0.000431,0.003643
1617000,0.0324,0.013523,0.002678,0.000431,0.002586
1618000,0.0324,0.013523,0.002678,0.000431,0.002586
1619000,0.0324,0.013523,0.002678,0.000431,0.001880
1620000,0.0324,0.013523,0.002678,0.000431,0.001645
1621000,0.0324,0.013523,0.002678,0.000431,0.001528
1622000,0.0324,0.013523,0.002678,0.000431,0.001410
1623000,0.0324,0.013523,0.002678,0.000431,0.000823
1624000,0.0324,0.013523,0.002678,0.000431,0.000823
1625000,0.0324,0.013523,0.002678,0.000431,0.000940
1626000,0.0324,0.013523,0.002678,0.000431,0.000940
1627000,0.0324,0.013523,0.002678,0.000431,0.001410
1628000,0.0324,0.013523,0.002678,0.000431,0.161014
1629000,0.0324,0.013523,0.002678,0.000431,0.108243
1630000,0.0324,0.013523,0.002678,0.000431,0.141034
1631000,0.0324,0.013523,0.002678,0.000431,0.060527
1632000,0.0324,0.013523,0.002678,0.000431,0.104247
1633000,0.0324,0.013523,0.002678,0.000431,0.098371
1634000,0.0324,0.013523,0.002678,0.000431,0.085796
1635000,0.0324,0.013523,0.002678,0.000431,0.079567
1636000,0.0324,0.013523,0.002678,0.000431,0.080037
1637000,0.0324,0.013523,0.002678,0.000431,0.080507
1638000,0.0324,0.013523,0.002678,0.000431,0.070752
1639000,0.0324,0.013523,0.002678,0.000431,0.063230
1640000,0.0324,0.013523,0.002678,0.000431,0.061350
1641000,0.0324,0.013523,0.002678,0.000431,0.070164
1642000,0.0324,0.013523,0.002678,0.000431,0.059939
1643000,0.0324,0.013523,0.002678,0.000431,0.061820
1644000,0.0324,0.013523,0.002678,0.000431,0.056766
1645000,0.0324,0.013523,0.002678,0.000431,0.053593
1646000,0.0324,0.013523,0.002678,0.000431,0.043720
1647000,0.0324,0.013523,0.002678,0.000431,0.045718
1648000,0.0324,0.013523,0.002678,0.000431,0.041487
1649000,0.0324,0.013523,0.002678,0.000431,0.040195
1650000,0.0324,0.013523,0.002678,0.000431,0.031615
1651000,0.0324,0.013523,0.002678,0.000431,0.031145
1652000,0.0324,0.013523,0.002678,0.000431,0.030675
1653000,0.0324,0.013523,0.002678,0.000431,0.025856
1654000,0.0324,0.013523,0.002678,0.000431,0.024798
1655000,0.0324,0.013523,0.002678,0.000431,0.021743
1656000,0.0324,0.013523,0.002678,0.000431,0.023741
1657000,0.0324,0.013523,0.002678,0.000431,0.016571
1658000,0.0324,0.013523,0.002678,0.000431,0.015984
1659000,0.0324,0.013523,0.002678,0.000431,0.015514
1660000,0.0324,0.013523,0.002678,0.000431,0.015866
1661000,0.0324,0.013523,0.002678,0.000431,0.012928
1662000,0.0324,0.013523,0.002678,0.000431,0.011753
1663000,0.0324,0.013523,0.002678,0.000431,0.011870
1664000,0.0324,0.013523,0.002678,0.000431,0.011988
1665000,0.0324,0.013523,0.002678,0.000431,0.009755
1666000,0.0324,0.013523,0.002678,0.000431,0.011283
1667000,0.0324,0.013523,0.002678,0.000431,0.009755
1668000,0.0324,0.013523,0.002678,0.000431,0.009402
1669000,0.0324,0.013523,0.002678,0.000431,0.008580
1670000,0.0324,0.013523,0.002678,0.000431,0.008932
1671000,0.0324,0.013523,0.002678,0.000431,0.007639
1672000,0.0324,0.013523,0.002678,0.000431,0.008345
1673000,0.0324,0.013523,0.002678,0.000431,0.008697
1674000,0.0324,0.013523,0.002678,0.000431,0.007874
1675000,0.0324,0.013523,0.002678,0.000431,0.007404
1676000,0.0324,0.013523,0.002678,0.000431,0.009755
1677000,0.0324,0.013523,0.002678,0.000431,0.007052
1678000,0.0324,0.013523,0.002678,0.000431,0.006464
1679000,0.0324,0.013523,0.002678,0.000431,0.006582
1680000,0.0324,0.013523,0.002678,0.000431,0.005524
1681000,0.0324,0.013523,0.002678,0.000431,0.005289
1682000,0.0324,0.013523,0.002678,0.000431,0.006817
1683000,0.0324,0.013523,0.002678,0.000431,0.002703
1684000,0.0324,0.013523,0.002678,0.000431,0.002703
1685000,0.0324,0.013523,0.002678,0.000431,0.002468
1686000,0.0324,0.013523,0.002678,0.000431,0.002703
1687000,0.0324,0.013523,0.002678,0.000431,0.002586
1688000,0.0324,0.013523,0.002678,0.000431,0.001645
1689000,0.0324,0.013523,0.002678,0.000431,0.001880
1690000,0.0324,0.013523,0.002678,0.000431,0.001528
1691000,0.0324,0.013523,0.002678,0.000431,0.001880
1692000,0.0324,0.013523,0.002678,0.000431,0.001528
1693000,0.0324,0.013523,0.002678,0.000431,0.001763
1694000,0.0324,0.013523,0.002678,0.000431,0.001880
1695000,0.0324,0.013523,0.002678,0.000431,0.001645
1696000,0.0324,0.013523,0.002678,0.000431,0.001645
1697000,0.0324,0.013523,0.002678,0.000431,0.001645
1698000,0.0324,0.013523,0.002678,0.000431,0.001880
1699000,0.0324,0.013523,0.002678,0.000431,0.001763
1700000,0.0324,0.013523,0.002678,0.000431,0.001528
1701000,0.0324,0.013523,0.002678,0.000431,0.001645
1702000,0.0324,0.013523,0.002678,0.000431,0.001880
1703000,0.0324,0.013523,0.002678,0.000431,0.001645
1704000,0.0324,0.013523,0.002678,0.000431,0.001645
1705000,0.0324,0.013523,0.002678,0.000431,0.001880
1706000,0.0324,0.013523,0.002678,0.000431,0.001645
1707000,0.0324,0.013523,0.002678,0.000431,0.001763
1708000,0.0324,0.013523,0.002678,0.000431,0.001645
1709000,0.0324,0.013523,0.002678,0.000431,0.001763
1710000,0.0324,0.013523,0.002678,0.000431,0.001645
1711000,0.0324,0.013523,0.002678,0.000431,0.001763
1712000,0.0324,0.013523,0.002678,0.000431,0.001645
1713000,0.0324,0.013523,0.002678,0.000431,0.001763
1714000,0.0324,0.013523,0.002678,0.000431,0.001763
1715000,0.0324,0.013523,0.002678,0.000431,0.001528
1716000,0.0324,0.013523,0.002678,0.000431,0.001763
1717000,0.0324,0.013523,0.002678,0.000431,0.002586
1718000,0.0324,0.013523,0.002678,0.000431,0.000940
1719000,0.0324,0.013523,0.002678,0.000431,0.000823
1720000,0.0324,0.013523,0.002678,0.000431,0.000823
1721000,0.0324,0.013523,0.002678,0.000431,0.000823
1722000,0.0324,0.013523,0.002678,0.000431,0.000823
1723000,0.0324,0.013523,0.002678,0.000431,0.000940
1724000,0.0324,0.013523,0.002678,0.000431,0.000823
1725000,0.0324,0.013523,0.002678,0.000431,0.000823
1726000,0.0324,0.013523,0.002678,0.000431,0.000705
1727000,0.0324,0.013523,0.002678,0.000431,0.000940
1728000,0.0324,0.013523,0.002678,0.000431,0.000940
1729000,0.0324,0.013523,0.002678,0.000431,0.000940
1730000,0.0324,0.013523,0.002678,0.000431,0.000940
1731000,0.0324,0.013523,0.002678,0.000431,0.000823
1732000,0.0324,0.013523,0.002678,0.000431,0.000823
1733000,0.0324,0.013523,0.002678,0.000431,0.000823
1734000,0.0324,0.013523,0.002678,0.000431,0.000823
1735000,0.0324,0.013523,0.002678,0.000431,0.000823
1736000,0.0324,0.013523,0.002678,0.000431,0.000823
1737000,0.0324,0.013523,0.002678,0.000431,0.000940
1738000,0.0324,0.013523,0.002678,0.000431,0.000705
1739000,0.0324,0.013523,0.002678,0.000431,0.000940
1740000,0.0324,0.013523,0.002678,0.000431,0.000940
1741000,0.0324,0.013523,0.002678,0.000431,0.000823
1742000,0.0324,0.013523,0.002678,0.000431,0.000823
1743000,0.0324,0.013523,0.002678,0.000431,0.000823
1744000,0.0324,0.013523,0.002678,0.000431,0.000823
1745000,0.0324,0.013523,0.002678,0.000431,0.000823
1746000,0.0324,0.013523,0.002678,0.000431,0.000823
1747000,0.0324,0.013523,0.002678,0.000431,0.000940
1748000,0.0324,0.013523,0.002678,0.000431,0.000705
1749000,0.0324,0.013523,0.002678,0.000431,0.000940
1750000,0.0324,0.013523,0.002678,0.000431,0.000823
1751000,0.0324,0.013523,0.002678,0.000431,0.000823
1752000,0.0324,0.013523,0.002678,0.000431,0.000823
1753000,0.0324,0.013523,0.002678,0.000431,0.000940
1754000,0.0324,0.013523,0.002678,0.000431,0.000823
1755000,0.0324,0.013523,0.002678,0.000431,0.000940
1756000,0.0324,0.013523,0.002678,0.000431,0.000705
1757000,0.0324,0.013523,0.002678,0.000431,0.000940
1758000,0.0324,0.013523,0.002678,0.000431,0.000823
1759000,0.0324,0.013523,0.002678,0.000431,0.000823
1760000,0.0324,0.013523,0.002678,0.000431,0.000823
1761000,0.0324,0.013523,0.002678,0.000431,0.000823
1762000,0.0324,0.013523,0.002678,0.000431,0.000823
1763000,0.0324,0.013523,0.002678,0.000431,0.000823
1764000,0.0324,0.013523,0.002678,0.000431,0.000940
1765000,0.0324,0.013523,0.002678,0.000431,0.000940
1766000,0.0324,0.013523,0.002678,0.000431,0.000940
1767000,0.0324,0.013523,0.002678,0.000431,0.000823
1768000,0.0324,0.013523,0.002678,0.000431,0.000823
1769000,0.0324,0.013523,0.002678,0.000431,0.000940
1770000,0.0324,0.013523,0.002678,0.000431,0.000823
1771000,0.0324,0.013523,0.002678,0.000431,0.000940
1772000,0.0324,0.013523,0.002678,0.000431,0.000823
1773000,0.0324,0.013523,0.002678,0.000431,0.000940
1774000,0.0324,0.013523,0.002678,0.000431,0.000940
1775000,0.0324,0.013523,0.002678,0.000431,0.000705
1776000,0.0324,0.013523,0.002678,0.000431,0.000940
1777000,0.0324,0.013523,0.002678,0.000431,0.000940
1778000,0.0324,0.013523,0.002678,0.000431,0.000940
1779000,0.0324,0.013523,0.002678,0.000431,0.000705
1780000,0.0324,0.013523,0.002678,0.000431,0.000940
1781000,0.0324,0.013523,0.002678,0.000431,0.000940
1782000,0.0324,0.013523,0.002678,0.000431,0.000823
1783000,0.0324,0.013523,0.002678,0.000431,0.000823
1784000,0.0324,0.013523,0.002678,0.000431,0.000940
1785000,0.0324,0.013523,0.002678,0.000431,0.000823
1786000,0.0324,0.013523,0.002678,0.000431,0.000940
1787000,0.0324,0.013523,0.002678,0.000431,0.000823
1788000,0.0324,0.013523,0.002678,0.000431,0.000940
1789000,0.0324,0.013523,0.002678,0.000431,0.000823
1790000,0.0324,0.013523,0.002678,0.000431,0.000823
1791000,0.0324,0.013523,0.002678,0.000431,0.000940
1792000,0.0324,0.013523,0.002678,0.000431,0.000940
1793000,0.0324,0.013523,0.002678,0.000431,0.000823
1794000,0.0324,0.013523,0.002678,0.000431,0.000823
1795000,0.0324,0.013523,0.002678,0.000431,0.000940
1796000,0.0324,0.013523,0.002678,0.000431,0.000940
1797000,0.0324,0.013523,0.002678,0.000431,0.000823
1798000,0.0324,0.013523,0.002678,0.000431,0.000823
1799000,0.0324,0.013523,0.002678,0.000431,0.000940
1800000,0.0324,0.013523,0.002678,0.000431,0.000940
1801000,0.0324,0.013523,0.002678,0.000431,0.000823
1802000,0.0324,0.013523,0.002678,0.000431,0.000823
1803000,0.0324,0.013523,0.002678,0.000431,0.000940
1804000,0.0324,0.013523,0.002678,0.000431,0.000823
1805000,0.0324,0.013523,0.002678,0.000431,0.000940
1806000,0.0324,0.013523,0.002678,0.000431,0.000823
1807000,0.0324,0.013523,0.002678,0.000431,0.000940
1808000,0.0324,0.013523,0.002678,0.000431,0.000823
1809000,0.0324,0.013523,0.002678,0.000431,0.000823
1810000,0.0324,0.013523,0.002678,0.000431,0.000940
1811000,0.0324,0.013523,0.002678,0.000431,0.000823
1812000,0.0324,0.013523,0.002678,0.000431,0.000823
1813000,0.0324,0.013523,0.002678,0.000431,0.000940
1814000,0.0324,0.013523,0.002678,0.000431,0.000705
1815000,0.0324,0.013523,0.002678,0.000431,0.000940
1816000,0.0324,0.013523,0.002678,0.000431,0.000823
1817000,0.0324,0.013523,0.002678,0.000431,0.000823
1818000,0.0324,0.013523,0.002678,0.000431,0.000940
1819000,0.0324,0.013523,0.002678,0.000431,0.000823
1820000,0.0324,0.013523,0.002678,0.000431,0.000823
1821000,0.0324,0.013523,0.002678,0.000431,0.000940
1822000,0.0324,0.013523,0.002678,0.000431,0.000705
1823000,0.0324,0.013523,0.002678,0.000431,0.000940
1824000,0.0324,0.013523,0.002678,0.000431,0.000823
1825000,0.0324,0.013523,0.002678,0.000431,0.000823
1826000,0.0324,0.013523,0.002678,0.000431,0.000940
1827000,0.0324,0.013523,0.002678,0.000431,0.000823
1828000,0.0324,0.013523,0.002678,0.000431,0.000823
1829000,0.0324,0.013523,0.002678,0.000431,0.000823
1830000,0.0324,0.013523,0.002678,0.000431,0.000823
1831000,0.0324,0.013523,0.002678,0.000431,0.000940
1832000,0.0324,0.013523,0.002678,0.000431,0.000823
1833000,0.0324,0.013523,0.002678,0.000431,0.000823
1834000,0.0324,0.013523,0.002678,0.000431,0.000940
1835000,0.0324,0.013523,0.002678,0.000431,0.000823
1836000,0.0324,0.013523,0.002678,0.000431,0.000823
1837000,0.0324,0.013523,0.002678,0.000431,0.000823
1838000,0.0324,0.013523,0.002678,0.000431,0.000823
1839000,0.0324,0.013523,0.002678,0.000431,0.000940
1840000,0.0324,0.013523,0.002678,0.000431,0.000823
1841000,0.0324,0.013523,0.002678,0.000431,0.000823
1842000,0.0324,0.013523,0.002678,0.000431,0.000940
1843000,0.0324,0.013523,0.002678,0.000431,0.000705
1844000,0.0324,0.013523,0.002678,0.000431,0.000940
1845000,0.0324,0.013523,0.002678,0.000431,0.000823
1846000,0.0324,0.013523,0.002678,0.000431,0.000823
1847000,0.0324,0.013523,0.002678,0.000431,0.000940
1848000,0.0324,0.013523,0.002678,0.000431,0.000823
1849000,0.0324,0.013523,0.002678,0.000431,0.000940
1850000,0.0324,0.013523,0.002678,0.000431,0.093082
1851000,0.0324,0.013523,0.002678,0.000431,0.063583
1852000,0.0324,0.013523,0.002678,0.000431,0.083798
1853000,0.0324,0.013523,0.002678,0.000431,0.061820
1854000,0.0324,0.013523,0.002678,0.000431,0.129399
1855000,0.0324,0.013523,0.002678,0.000431,0.117763
1856000,0.0324,0.013523,0.002678,0.000431,0.107303
1857000,0.0324,0.013523,0.002678,0.000431,0.097078
1858000,0.0324,0.013523,0.002678,0.000431,0.089792
1859000,0.0324,0.013523,0.002678,0.000431,0.078391
1860000,0.0324,0.013523,0.002678,0.000431,0.080624
1861000,0.0324,0.013523,0.002678,0.000431,0.089674
1862000,0.0324,0.013523,0.002678,0.000431,0.085913
1863000,0.0324,0.013523,0.002678,0.000431,0.074983
1864000,0.0324,0.013523,0.002678,0.000431,0.080272
1865000,0.0324,0.013523,0.002678,0.000431,0.070987
1866000,0.0324,0.013523,0.002678,0.000431,0.068166
1867000,0.0324,0.013523,0.002678,0.000431,0.061350
1868000,0.0324,0.013523,0.002678,0.000431,0.062760
1869000,0.0324,0.013523,0.002678,0.000431,0.060057
1870000,0.0324,0.013523,0.002678,0.000431,0.049479
1871000,0.0324,0.013523,0.002678,0.000431,0.053358
1872000,0.0324,0.013523,0.002678,0.000431,0.046071
1873000,0.0324,0.013523,0.002678,0.000431,0.046894
1874000,0.0324,0.013523,0.002678,0.000431,0.040665
1875000,0.0324,0.013523,0.002678,0.000431,0.035611
1876000,0.0324,0.013523,0.002678,0.000431,0.032203
1877000,0.0324,0.013523,0.002678,0.000431,0.026796
1878000,0.0324,0.013523,0.002678,0.000431,0.021508
1879000,0.0324,0.013523,0.002678,0.000431,0.019510
1880000,0.0324,0.013523,0.002678,0.000431,0.015044
1881000,0.0324,0.013523,0.002678,0.000431,0.013633
1882000,0.0324,0.013523,0.002678,0.000431,0.012105
1883000,0.0324,0.013523,0.002678,0.000431,0.011048
1884000,0.0324,0.013523,0.002678,0.000431,0.011400
1885000,0.0324,0.013523,0.002678,0.000431,0.010342
1886000,0.0324,0.013523,0.002678,0.000431,0.009285
1887000,0.0324,0.013523,0.002678,0.000431,0.010930
1888000,0.0324,0.013523,0.002678,0.000431,0.008227
1889000,0.0324,0.013523,0.002678,0.000431,0.008932
1890000,0.0324,0.013523,0.002678,0.000431,0.005641
1891000,0.0324,0.013523,0.002678,0.000431,0.003761
1892000,0.0324,0.013523,0.002678,0.000431,0.003056
1893000,0.0324,0.013523,0.002678,0.000431,0.001998
1894000,0.0324,0.013523,0.002678,0.000431,0.001645
1895000,0.0324,0.013523,0.002678,0.000431,0.001880
1896000,0.0324,0.013523,0.002678,0.000431,0.001645
1897000,0.0324,0.013523,0.002678,0.000431,0.001880
1898000,0.0324,0.013523,0.002678,0.000431,0.001763
1899000,0.0324,0.013523,0.002678,0.000431,0.001880
1900000,0.0324,0.013523,0.002678,0.000431,0.001880
1901000,0.0324,0.013523,0.002678,0.000431,0.000940
1902000,0.0324,0.013523,0.002678,0.000431,0.000940
1903000,0.0324,0.013523,0.002678,0.000431,0.000823
1904000,0.0324,0.013523,0.002678,0.000431,0.000940
1905000,0.0324,0.013523,0.002678,0.000431,0.000823
1906000,0.0324,0.013523,0.002678,0.000431,0.000940
1907000,0.0324,0.013523,0.002678,0.000431,0.000940
1908000,0.0324,0.013523,0.002678,0.000431,0.000940
1909000,0.0324,0.013523,0.002678,0.000431,0.012576
1910000,0.0324,0.013523,0.002678,0.000431,0.113297
1911000,0.0324,0.013523,0.002678,0.000431,0.067109
1912000,0.0324,0.013523,0.002678,0.000431,0.093200
1913000,0.0324,0.013523,0.002678,0.000431,0.101897
1914000,0.0324,0.013523,0.002678,0.000431,0.181464
1915000,0.0324,0.013523,0.002678,0.000431,0.158075
1916000,0.0324,0.013523,0.002678,0.000431,0.139506
1917000,0.0324,0.013523,0.002678,0.000431,0.126460
1918000,0.0324,0.013523,0.002678,0.000431,0.123522
1919000,0.0324,0.013523,0.002678,0.000431,0.123405
1920000,0.0324,0.013523,0.002678,0.000431,0.113297
1921000,0.0324,0.013523,0.002678,0.000431,0.108949
1922000,0.0324,0.013523,0.002678,0.000431,0.095550
1923000,0.0324,0.013523,0.002678,0.000431,0.098489
1924000,0.0324,0.013523,0.002678,0.000431,0.096373
1925000,0.0324,0.013523,0.002678,0.000431,0.083092
1926000,0.0324,0.013523,0.002678,0.000431,0.081447
1927000,0.0324,0.013523,0.002678,0.000431,0.085561
1928000,0.0324,0.013523,0.002678,0.000431,0.076393
1929000,0.0324,0.013523,0.002678,0.000431,0.064053
1930000,0.0324,0.013523,0.002678,0.000431,0.052065
1931000,0.0324,0.013523,0.002678,0.000431,0.050890
1932000,0.0324,0.013523,0.002678,0.000431,0.042545
1933000,0.0324,0.013523,0.002678,0.000431,0.033378
1934000,0.0324,0.013523,0.002678,0.000431,0.027972
1935000,0.0324,0.013523,0.002678,0.000431,0.025856
1936000,0.0324,0.013523,0.002678,0.000431,0.023388
1937000,0.0324,0.013523,0.002678,0.000431,0.023741
1938000,0.0324,0.013523,0.002678,0.000431,0.019745
1939000,0.0324,0.013523,0.002678,0.000431,0.018569
1940000,0.0324,0.013523,0.002678,0.000431,0.013046
1941000,0.0324,0.013523,0.002678,0.000431,0.012928
1942000,0.0324,0.013523,0.002678,0.000431,0.009755
1943000,0.0324,0.013523,0.002678,0.000431,0.009872
1944000,0.0324,0.013523,0.002678,0.000431,0.007992
1945000,0.0324,0.013523,0.002678,0.000431,0.010342
1946000,0.0324,0.013523,0.002678,0.000431,0.007169
1947000,0.0324,0.013523,0.002678,0.000431,0.005054
1948000,0.0324,0.013523,0.002678,0.000431,0.005171
1949000,0.0324,0.013523,0.002678,0.000431,0.004466
1950000,0.0324,0.013523,0.002678,0.000431,0.005876
1951000,0.0324,0.013523,0.002678,0.000431,0.004349
1952000,0.0324,0.013523,0.002678,0.000431,0.004113
1953000,0.0324,0.013523,0.002678,0.000431,0.004466
1954000,0.0324,0.013523,0.002678,0.000431,0.003526
1955000,0.0324,0.013523,0.002678,0.000431,0.004349
1956000,0.0324,0.013523,0.002678,0.000431,0.003173
1957000,0.0324,0.013523,0.002678,0.000431,0.001998
1958000,0.0324,0.013523,0.002678,0.000431,0.003173
1959000,0.0324,0.013523,0.002678,0.000431,0.002351
1960000,0.0324,0.013523,0.002678,0.000431,0.002351
1961000,0.0324,0.013523,0.002678,0.000431,0.001880
1962000,0.0324,0.013523,0.002678,0.000431,0.001880
1963000,0.0324,0.013523,0.002678,0.000431,0.001645
1964000,0.0324,0.013523,0.002678,0.000431,0.001645
1965000,0.0324,0.013523,0.002678,0.000431,0.001763
1966000,0.0324,0.013523,0.002678,0.000431,0.001528
1967000,0.0324,0.013523,0.002678,0.000431,0.001880
1968000,0.0324,0.013523,0.002678,0.000431,0.001645
1969000,0.0324,0.013523,0.002678,0.000431,0.001645
1970000,0.0324,0.013523,0.002678,0.000431,0.001880
1971000,0.0324,0.013523,0.002678,0.000431,0.001528
1972000,0.0324,0.013523,0.002678,0.000431,0.001763
1973000,0.0324,0.013523,0.002678,0.000431,0.001763
1974000,0.0324,0.013523,0.002678,0.000431,0.002938
1975000,0.0324,0.013523,0.002678,0.000431,0.176410
1976000,0.0324,0.013523,0.002678,0.000431,0.153139
1977000,0.0324,0.013523,0.002678,0.000431,0.184167
1978000,0.0324,0.013523,0.002678,0.000431,0.079802
1979000,0.0324,0.013523,0.002678,0.000431,0.119879
1980000,0.0324,0.013523,0.002678,0.000431,0.119291
1981000,0.0324,0.013523,0.002678,0.000431,0.107891
1982000,0.0324,0.013523,0.002678,0.000431,0.097196
1983000,0.0324,0.013523,0.002678,0.000431,0.085678
1984000,0.0324,0.013523,0.002678,0.000431,0.086383
1985000,0.0324,0.013523,0.002678,0.000431,0.082975
1986000,0.0324,0.013523,0.002678,0.000431,0.082152
1987000,0.0324,0.013523,0.002678,0.000431,0.085443
1988000,0.0324,0.013523,0.002678,0.000431,0.081917
1989000,0.0324,0.013523,0.002678,0.000431,0.079919
1990000,0.0324,0.013523,0.002678,0.000431,0.070399
1991000,0.0324,0.013523,0.002678,0.000431,0.072632
1992000,0.0324,0.013523,0.002678,0.000431,0.067696
1993000,0.0324,0.013523,0.002678,0.000431,0.063465
1994000,0.0324,0.013523,0.002678,0.000431,0.053005
1995000,0.0324,0.013523,0.002678,0.000431,0.054063
1996000,0.0324,0.013523,0.002678,0.000431,0.049949
1997000,0.0324,0.013523,0.002678,0.000431,0.041252
1998000,0.0324,0.013523,0.002678,0.000431,0.040430
1999000,0.0324,0.013523,0.002678,0.000431,0.042898
