Cycle,Area(mm^2),PeakDynamic(W),SubthresholdLeakage(W),GateLeakage(W),RunTimeDynamic(W)
1000,0.0324,0.013523,0.002678,0.000431,0.003761
2000,0.0324,0.013523,0.002678,0.000431,0.000000
3000,0.0324,0.013523,0.002678,0.000431,0.000000
4000,0.0324,0.013523,0.002678,0.000431,0.000000
5000,0.0324,0.013523,0.002678,0.000431,0.000000
6000,0.0324,0.013523,0.002678,0.000431,0.070282
7000,0.0324,0.013523,0.002678,0.000431,0.151494
8000,0.0324,0.013523,0.002678,0.000431,0.139741
9000,0.0324,0.013523,0.002678,0.000431,0.121642
10000,0.0324,0.013523,0.002678,0.000431,0.107891
11000,0.0324,0.013523,0.002678,0.000431,0.105893
12000,0.0324,0.013523,0.002678,0.000431,0.101779
13000,0.0324,0.013523,0.002678,0.000431,0.104953
14000,0.0324,0.013523,0.002678,0.000431,0.108008
15000,0.0324,0.013523,0.002678,0.000431,0.105305
16000,0.0324,0.013523,0.002678,0.000431,0.091907
17000,0.0324,0.013523,0.002678,0.000431,0.092730
18000,0.0324,0.013523,0.002678,0.000431,0.081330
19000,0.0324,0.013523,0.002678,0.000431,0.074395
20000,0.0324,0.013523,0.002678,0.000431,0.061115
21000,0.0324,0.013523,0.002678,0.000431,0.060997
22000,0.0324,0.013523,0.002678,0.000431,0.055003
23000,0.0324,0.013523,0.002678,0.000431,0.048774
24000,0.0324,0.013523,0.002678,0.000431,0.043603
25000,0.0324,0.013523,0.002678,0.000431,0.043956
26000,0.0324,0.013523,0.002678,0.000431,0.041252
27000,0.0324,0.013523,0.002678,0.000431,0.035494
28000,0.0324,0.013523,0.002678,0.000431,0.031498
29000,0.0324,0.013523,0.002678,0.000431,0.027502
30000,0.0324,0.013523,0.002678,0.000431,0.025504
31000,0.0324,0.013523,0.002678,0.000431,0.028442
32000,0.0324,0.013523,0.002678,0.000431,0.021625
33000,0.0324,0.013523,0.002678,0.000431,0.022918
34000,0.0324,0.013523,0.002678,0.000431,0.018922
35000,0.0324,0.013523,0.002678,0.000431,0.017629
36000,0.0324,0.013523,0.002678,0.000431,0.014338
37000,0.0324,0.013523,0.002678,0.000431,0.011753
38000,0.0324,0.013523,0.002678,0.000431,0.009520
39000,0.0324,0.013523,0.002678,0.000431,0.010342
40000,0.0324,0.013523,0.002678,0.000431,0.006347
41000,0.0324,0.013523,0.002678,0.000431,0.004936
42000,0.0324,0.013523,0.002678,0.000431,0.003526
43000,0.0324,0.013523,0.002678,0.000431,0.004113
44000,0.0324,0.013523,0.002678,0.000431,0.002821
45000,0.0324,0.013523,0.002678,0.000431,0.002586
46000,0.0324,0.013523,0.002678,0.000431,0.003173
47000,0.0324,0.013523,0.002678,0.000431,0.001880
48000,0.0324,0.013523,0.002678,0.000431,0.001763
49000,0.0324,0.013523,0.002678,0.000431,0.001998
50000,0.0324,0.013523,0.002678,0.000431,0.001528
51000,0.0324,0.013523,0.002678,0.000431,0.000940
52000,0.0324,0.013523,0.002678,0.000431,0.019980
53000,0.0324,0.013523,0.002678,0.000431,0.039137
54000,0.0324,0.013523,0.002678,0.000431,0.018687
55000,0.0324,0.013523,0.002678,0.000431,0.033143
56000,0.0324,0.013523,0.002678,0.000431,0.090614
57000,0.0324,0.013523,0.002678,0.000431,0.145617
58000,0.0324,0.013523,0.002678,0.000431,0.127753
59000,0.0324,0.013523,0.002678,0.000431,0.106481
60000,0.0324,0.013523,0.002678,0.000431,0.107538
61000,0.0324,0.013523,0.002678,0.000431,0.108479
62000,0.0324,0.013523,0.002678,0.000431,0.095550
63000,0.0324,0.013523,0.002678,0.000431,0.096961
64000,0.0324,0.013523,0.002678,0.000431,0.090144
65000,0.0324,0.013523,0.002678,0.000431,0.087088
66000,0.0324,0.013523,0.002678,0.000431,0.090849
67000,0.0324,0.013523,0.002678,0.000431,0.076511
68000,0.0324,0.013523,0.002678,0.000431,0.076863
69000,0.0324,0.013523,0.002678,0.000431,0.076158
70000,0.0324,0.013523,0.002678,0.000431,0.063818
71000,0.0324,0.013523,0.002678,0.000431,0.063465
72000,0.0324,0.013523,0.002678,0.000431,0.054298
73000,0.0324,0.013523,0.002678,0.000431,0.053358
74000,0.0324,0.013523,0.002678,0.000431,0.040547
75000,0.0324,0.013523,0.002678,0.000431,0.033731
76000,0.0324,0.013523,0.002678,0.000431,0.030205
77000,0.0324,0.013523,0.002678,0.000431,0.026209
78000,0.0324,0.013523,0.002678,0.000431,0.021038
79000,0.0324,0.013523,0.002678,0.000431,0.017042
80000,0.0324,0.013523,0.002678,0.000431,0.018334
81000,0.0324,0.013523,0.002678,0.000431,0.014221
82000,0.0324,0.013523,0.002678,0.000431,0.011635
83000,0.0324,0.013523,0.002678,0.000431,0.010695
84000,0.0324,0.013523,0.002678,0.000431,0.006934
85000,0.0324,0.013523,0.002678,0.000431,0.006464
86000,0.0324,0.013523,0.002678,0.000431,0.006699
87000,0.0324,0.013523,0.002678,0.000431,0.006699
88000,0.0324,0.013523,0.002678,0.000431,0.005289
89000,0.0324,0.013523,0.002678,0.000431,0.003878
90000,0.0324,0.013523,0.002678,0.000431,0.003996
91000,0.0324,0.013523,0.002678,0.000431,0.002821
92000,0.0324,0.013523,0.002678,0.000431,0.003173
93000,0.0324,0.013523,0.002678,0.000431,0.000940
94000,0.0324,0.013523,0.002678,0.000431,0.041370
95000,0.0324,0.013523,0.002678,0.000431,0.031262
96000,0.0324,0.013523,0.002678,0.000431,0.031027
97000,0.0324,0.013523,0.002678,0.000431,0.041487
98000,0.0324,0.013523,0.002678,0.000431,0.118116
99000,0.0324,0.013523,0.002678,0.000431,0.128223
100000,0.0324,0.013523,0.002678,0.000431,0.105423
101000,0.0324,0.013523,0.002678,0.000431,0.098959
102000,0.0324,0.013523,0.002678,0.000431,0.091790
103000,0.0324,0.013523,0.002678,0.000431,0.091437
104000,0.0324,0.013523,0.002678,0.000431,0.087206
105000,0.0324,0.013523,0.002678,0.000431,0.088969
106000,0.0324,0.013523,0.002678,0.000431,0.076863
107000,0.0324,0.013523,0.002678,0.000431,0.067226
108000,0.0324,0.013523,0.002678,0.000431,0.069342
109000,0.0324,0.013523,0.002678,0.000431,0.064876
110000,0.0324,0.013523,0.002678,0.000431,0.058059
111000,0.0324,0.013523,0.002678,0.000431,0.045131
112000,0.0324,0.013523,0.002678,0.000431,0.045013
113000,0.0324,0.013523,0.002678,0.000431,0.045954
114000,0.0324,0.013523,0.002678,0.000431,0.040312
115000,0.0324,0.013523,0.002678,0.000431,0.037491
116000,0.0324,0.013523,0.002678,0.000431,0.033025
117000,0.0324,0.013523,0.002678,0.000431,0.024446
118000,0.0324,0.013523,0.002678,0.000431,0.021038
119000,0.0324,0.013523,0.002678,0.000431,0.017512
120000,0.0324,0.013523,0.002678,0.000431,0.014221
121000,0.0324,0.013523,0.002678,0.000431,0.013751
122000,0.0324,0.013523,0.002678,0.000431,0.012576
123000,0.0324,0.013523,0.002678,0.000431,0.012458
124000,0.0324,0.013523,0.002678,0.000431,0.011283
125000,0.0324,0.013523,0.002678,0.000431,0.011753
126000,0.0324,0.013523,0.002678,0.000431,0.009167
127000,0.0324,0.013523,0.002678,0.000431,0.010460
128000,0.0324,0.013523,0.002678,0.000431,0.011518
129000,0.0324,0.013523,0.002678,0.000431,0.006464
130000,0.0324,0.013523,0.002678,0.000431,0.004466
131000,0.0324,0.013523,0.002678,0.000431,0.004113
132000,0.0324,0.013523,0.002678,0.000431,0.003526
133000,0.0324,0.013523,0.002678,0.000431,0.003878
134000,0.0324,0.013523,0.002678,0.000431,0.002586
135000,0.0324,0.013523,0.002678,0.000431,0.002821
136000,0.0324,0.013523,0.002678,0.000431,0.003056
137000,0.0324,0.013523,0.002678,0.000431,0.001880
138000,0.0324,0.013523,0.002678,0.000431,0.001998
139000,0.0324,0.013523,0.002678,0.000431,0.001528
140000,0.0324,0.013523,0.002678,0.000431,0.000823
141000,0.0324,0.013523,0.002678,0.000431,0.000823
142000,0.0324,0.013523,0.002678,0.000431,0.000940
143000,0.0324,0.013523,0.002678,0.000431,0.000940
144000,0.0324,0.013523,0.002678,0.000431,0.000940
145000,0.0324,0.013523,0.002678,0.000431,0.000940
146000,0.0324,0.013523,0.002678,0.000431,0.000940
147000,0.0324,0.013523,0.002678,0.000431,0.000940
148000,0.0324,0.013523,0.002678,0.000431,0.000823
149000,0.0324,0.013523,0.002678,0.000431,0.000823
150000,0.0324,0.013523,0.002678,0.000431,0.001058
151000,0.0324,0.013523,0.002678,0.000431,0.001293
152000,0.0324,0.013523,0.002678,0.000431,0.042310
153000,0.0324,0.013523,0.002678,0.000431,0.017864
154000,0.0324,0.013523,0.002678,0.000431,0.021625
155000,0.0324,0.013523,0.002678,0.000431,0.052770
156000,0.0324,0.013523,0.002678,0.000431,0.137508
157000,0.0324,0.013523,0.002678,0.000431,0.128223
158000,0.0324,0.013523,0.002678,0.000431,0.111417
159000,0.0324,0.013523,0.002678,0.000431,0.101897
160000,0.0324,0.013523,0.002678,0.000431,0.095315
161000,0.0324,0.013523,0.002678,0.000431,0.092142
162000,0.0324,0.013523,0.002678,0.000431,0.091437
163000,0.0324,0.013523,0.002678,0.000431,0.087441
164000,0.0324,0.013523,0.002678,0.000431,0.093200
165000,0.0324,0.013523,0.002678,0.000431,0.086501
166000,0.0324,0.013523,0.002678,0.000431,0.080977
167000,0.0324,0.013523,0.002678,0.000431,0.075453
168000,0.0324,0.013523,0.002678,0.000431,0.071810
169000,0.0324,0.013523,0.002678,0.000431,0.064758
170000,0.0324,0.013523,0.002678,0.000431,0.061467
171000,0.0324,0.013523,0.002678,0.000431,0.054298
172000,0.0324,0.013523,0.002678,0.000431,0.049714
173000,0.0324,0.013523,0.002678,0.000431,0.043368
174000,0.0324,0.013523,0.002678,0.000431,0.040077
175000,0.0324,0.013523,0.002678,0.000431,0.039254
176000,0.0324,0.013523,0.002678,0.000431,0.034788
177000,0.0324,0.013523,0.002678,0.000431,0.027619
178000,0.0324,0.013523,0.002678,0.000431,0.024916
179000,0.0324,0.013523,0.002678,0.000431,0.020450
180000,0.0324,0.013523,0.002678,0.000431,0.019157
181000,0.0324,0.013523,0.002678,0.000431,0.020567
182000,0.0324,0.013523,0.002678,0.000431,0.016807
183000,0.0324,0.013523,0.002678,0.000431,0.012928
184000,0.0324,0.013523,0.002678,0.000431,0.011283
185000,0.0324,0.013523,0.002678,0.000431,0.011165
186000,0.0324,0.013523,0.002678,0.000431,0.010225
187000,0.0324,0.013523,0.002678,0.000431,0.010578
188000,0.0324,0.013523,0.002678,0.000431,0.010460
189000,0.0324,0.013523,0.002678,0.000431,0.009637
190000,0.0324,0.013523,0.002678,0.000431,0.007992
191000,0.0324,0.013523,0.002678,0.000431,0.007052
192000,0.0324,0.013523,0.002678,0.000431,0.005171
193000,0.0324,0.013523,0.002678,0.000431,0.005524
194000,0.0324,0.013523,0.002678,0.000431,0.004936
195000,0.0324,0.013523,0.002678,0.000431,0.003526
196000,0.0324,0.013523,0.002678,0.000431,0.002586
197000,0.0324,0.013523,0.002678,0.000431,0.002938
198000,0.0324,0.013523,0.002678,0.000431,0.002703
199000,0.0324,0.013523,0.002678,0.000431,0.002821
200000,0.0324,0.013523,0.002678,0.000431,0.002821
201000,0.0324,0.013523,0.002678,0.000431,0.002821
202000,0.0324,0.013523,0.002678,0.000431,0.002468
203000,0.0324,0.013523,0.002678,0.000431,0.003173
204000,0.0324,0.013523,0.002678,0.000431,0.002351
205000,0.0324,0.013523,0.002678,0.000431,0.001645
206000,0.0324,0.013523,0.002678,0.000431,0.000940
207000,0.0324,0.013523,0.002678,0.000431,0.000705
208000,0.0324,0.013523,0.002678,0.000431,0.000940
209000,0.0324,0.013523,0.002678,0.000431,0.000940
210000,0.0324,0.013523,0.002678,0.000431,0.000823
211000,0.0324,0.013523,0.002678,0.000431,0.000823
212000,0.0324,0.013523,0.002678,0.000431,0.000940
213000,0.0324,0.013523,0.002678,0.000431,0.000823
214000,0.0324,0.013523,0.002678,0.000431,0.000823
215000,0.0324,0.013523,0.002678,0.000431,0.000940
216000,0.0324,0.013523,0.002678,0.000431,0.001645
217000,0.0324,0.013523,0.002678,0.000431,0.046189
218000,0.0324,0.013523,0.002678,0.000431,0.017394
219000,0.0324,0.013523,0.002678,0.000431,0.028677
220000,0.0324,0.013523,0.002678,0.000431,0.066638
221000,0.0324,0.013523,0.002678,0.000431,0.192276
222000,0.0324,0.013523,0.002678,0.000431,0.144912
223000,0.0324,0.013523,0.002678,0.000431,0.127283
224000,0.0324,0.013523,0.002678,0.000431,0.114590
225000,0.0324,0.013523,0.002678,0.000431,0.107773
226000,0.0324,0.013523,0.002678,0.000431,0.113062
227000,0.0324,0.013523,0.002678,0.000431,0.112004
228000,0.0324,0.013523,0.002678,0.000431,0.110124
229000,0.0324,0.013523,0.002678,0.000431,0.092495
230000,0.0324,0.013523,0.002678,0.000431,0.090027
231000,0.0324,0.013523,0.002678,0.000431,0.078861
232000,0.0324,0.013523,0.002678,0.000431,0.066874
233000,0.0324,0.013523,0.002678,0.000431,0.058176
234000,0.0324,0.013523,0.002678,0.000431,0.051125
235000,0.0324,0.013523,0.002678,0.000431,0.040900
236000,0.0324,0.013523,0.002678,0.000431,0.039137
237000,0.0324,0.013523,0.002678,0.000431,0.034671
238000,0.0324,0.013523,0.002678,0.000431,0.036199
239000,0.0324,0.013523,0.002678,0.000431,0.025269
240000,0.0324,0.013523,0.002678,0.000431,0.019627
241000,0.0324,0.013523,0.002678,0.000431,0.018334
242000,0.0324,0.013523,0.002678,0.000431,0.022800
243000,0.0324,0.013523,0.002678,0.000431,0.020685
244000,0.0324,0.013523,0.002678,0.000431,0.017864
245000,0.0324,0.013523,0.002678,0.000431,0.013751
246000,0.0324,0.013523,0.002678,0.000431,0.012340
247000,0.0324,0.013523,0.002678,0.000431,0.007992
248000,0.0324,0.013523,0.002678,0.000431,0.007757
249000,0.0324,0.013523,0.002678,0.000431,0.006229
250000,0.0324,0.013523,0.002678,0.000431,0.006347
251000,0.0324,0.013523,0.002678,0.000431,0.004349
252000,0.0324,0.013523,0.002678,0.000431,0.004113
253000,0.0324,0.013523,0.002678,0.000431,0.004701
254000,0.0324,0.013523,0.002678,0.000431,0.003643
255000,0.0324,0.013523,0.002678,0.000431,0.001645
256000,0.0324,0.013523,0.002678,0.000431,0.001645
257000,0.0324,0.013523,0.002678,0.000431,0.001880
258000,0.0324,0.013523,0.002678,0.000431,0.001763
259000,0.0324,0.013523,0.002678,0.000431,0.001763
260000,0.0324,0.013523,0.002678,0.000431,0.001645
261000,0.0324,0.013523,0.002678,0.000431,0.001528
262000,0.0324,0.013523,0.002678,0.000431,0.001528
263000,0.0324,0.013523,0.002678,0.000431,0.001645
264000,0.0324,0.013523,0.002678,0.000431,0.085090
265000,0.0324,0.013523,0.002678,0.000431,0.110594
266000,0.0324,0.013523,0.002678,0.000431,0.104835
267000,0.0324,0.013523,0.002678,0.000431,0.083092
268000,0.0324,0.013523,0.002678,0.000431,0.155842
269000,0.0324,0.013523,0.002678,0.000431,0.141269
270000,0.0324,0.013523,0.002678,0.000431,0.117176
271000,0.0324,0.013523,0.002678,0.000431,0.120231
272000,0.0324,0.013523,0.002678,0.000431,0.108126
273000,0.0324,0.013523,0.002678,0.000431,0.085561
274000,0.0324,0.013523,0.002678,0.000431,0.085913
275000,0.0324,0.013523,0.002678,0.000431,0.085325
276000,0.0324,0.013523,0.002678,0.000431,0.076041
277000,0.0324,0.013523,0.002678,0.000431,0.069694
278000,0.0324,0.013523,0.002678,0.000431,0.067109
279000,0.0324,0.013523,0.002678,0.000431,0.059469
280000,0.0324,0.013523,0.002678,0.000431,0.055121
281000,0.0324,0.013523,0.002678,0.000431,0.048774
282000,0.0324,0.013523,0.002678,0.000431,0.039607
283000,0.0324,0.013523,0.002678,0.000431,0.036316
284000,0.0324,0.013523,0.002678,0.000431,0.035494
285000,0.0324,0.013523,0.002678,0.000431,0.025974
286000,0.0324,0.013523,0.002678,0.000431,0.024798
287000,0.0324,0.013523,0.002678,0.000431,0.016101
288000,0.0324,0.013523,0.002678,0.000431,0.014691
289000,0.0324,0.013523,0.002678,0.000431,0.012340
290000,0.0324,0.013523,0.002678,0.000431,0.012576
291000,0.0324,0.013523,0.002678,0.000431,0.010225
292000,0.0324,0.013523,0.002678,0.000431,0.010460
293000,0.0324,0.013523,0.002678,0.000431,0.009167
294000,0.0324,0.013523,0.002678,0.000431,0.006347
295000,0.0324,0.013523,0.002678,0.000431,0.003878
296000,0.0324,0.013523,0.002678,0.000431,0.003761
297000,0.0324,0.013523,0.002678,0.000431,0.005876
298000,0.0324,0.013523,0.002678,0.000431,0.004231
299000,0.0324,0.013523,0.002678,0.000431,0.003056
300000,0.0324,0.013523,0.002678,0.000431,0.003291
301000,0.0324,0.013523,0.002678,0.000431,0.003878
302000,0.0324,0.013523,0.002678,0.000431,0.002468
303000,0.0324,0.013523,0.002678,0.000431,0.000940
304000,0.0324,0.013523,0.002678,0.000431,0.000823
305000,0.0324,0.013523,0.002678,0.000431,0.001058
306000,0.0324,0.013523,0.002678,0.000431,0.000940
307000,0.0324,0.013523,0.002678,0.000431,0.000823
308000,0.0324,0.013523,0.002678,0.000431,0.000940
309000,0.0324,0.013523,0.002678,0.000431,0.000823
310000,0.0324,0.013523,0.002678,0.000431,0.000940
311000,0.0324,0.013523,0.002678,0.000431,0.001410
312000,0.0324,0.013523,0.002678,0.000431,0.119291
313000,0.0324,0.013523,0.002678,0.000431,0.082740
314000,0.0324,0.013523,0.002678,0.000431,0.105893
315000,0.0324,0.013523,0.002678,0.000431,0.071105
316000,0.0324,0.013523,0.002678,0.000431,0.145735
317000,0.0324,0.013523,0.002678,0.000431,0.128458
318000,0.0324,0.013523,0.002678,0.000431,0.119056
319000,0.0324,0.013523,0.002678,0.000431,0.105775
320000,0.0324,0.013523,0.002678,0.000431,0.090732
321000,0.0324,0.013523,0.002678,0.000431,0.083563
322000,0.0324,0.013523,0.002678,0.000431,0.088616
323000,0.0324,0.013523,0.002678,0.000431,0.083327
324000,0.0324,0.013523,0.002678,0.000431,0.074630
325000,0.0324,0.013523,0.002678,0.000431,0.062643
326000,0.0324,0.013523,0.002678,0.000431,0.057001
327000,0.0324,0.013523,0.002678,0.000431,0.049597
328000,0.0324,0.013523,0.002678,0.000431,0.043133
329000,0.0324,0.013523,0.002678,0.000431,0.047246
330000,0.0324,0.013523,0.002678,0.000431,0.042428
331000,0.0324,0.013523,0.002678,0.000431,0.037491
332000,0.0324,0.013523,0.002678,0.000431,0.030675
333000,0.0324,0.013523,0.002678,0.000431,0.030087
334000,0.0324,0.013523,0.002678,0.000431,0.028324
335000,0.0324,0.013523,0.002678,0.000431,0.025621
336000,0.0324,0.013523,0.002678,0.000431,0.024563
337000,0.0324,0.013523,0.002678,0.000431,0.017629
338000,0.0324,0.013523,0.002678,0.000431,0.016807
339000,0.0324,0.013523,0.002678,0.000431,0.017629
340000,0.0324,0.013523,0.002678,0.000431,0.013986
341000,0.0324,0.013523,0.002678,0.000431,0.014338
342000,0.0324,0.013523,0.002678,0.000431,0.010695
343000,0.0324,0.013523,0.002678,0.000431,0.007404
344000,0.0324,0.013523,0.002678,0.000431,0.005289
345000,0.0324,0.013523,0.002678,0.000431,0.005406
346000,0.0324,0.013523,0.002678,0.000431,0.003761
347000,0.0324,0.013523,0.002678,0.000431,0.012340
348000,0.0324,0.013523,0.002678,0.000431,0.118939
349000,0.0324,0.013523,0.002678,0.000431,0.069107
350000,0.0324,0.013523,0.002678,0.000431,0.099546
351000,0.0324,0.013523,0.002678,0.000431,0.072632
352000,0.0324,0.013523,0.002678,0.000431,0.149731
353000,0.0324,0.013523,0.002678,0.000431,0.128928
354000,0.0324,0.013523,0.002678,0.000431,0.114002
355000,0.0324,0.013523,0.002678,0.000431,0.102602
356000,0.0324,0.013523,0.002678,0.000431,0.088616
357000,0.0324,0.013523,0.002678,0.000431,0.085796
358000,0.0324,0.013523,0.002678,0.000431,0.075806
359000,0.0324,0.013523,0.002678,0.000431,0.071222
360000,0.0324,0.013523,0.002678,0.000431,0.067579
361000,0.0324,0.013523,0.002678,0.000431,0.064641
362000,0.0324,0.013523,0.002678,0.000431,0.068166
363000,0.0324,0.013523,0.002678,0.000431,0.067931
364000,0.0324,0.013523,0.002678,0.000431,0.065933
365000,0.0324,0.013523,0.002678,0.000431,0.060527
366000,0.0324,0.013523,0.002678,0.000431,0.042310
367000,0.0324,0.013523,0.002678,0.000431,0.042310
368000,0.0324,0.013523,0.002678,0.000431,0.039019
369000,0.0324,0.013523,0.002678,0.000431,0.031380
370000,0.0324,0.013523,0.002678,0.000431,0.026914
371000,0.0324,0.013523,0.002678,0.000431,0.026209
372000,0.0324,0.013523,0.002678,0.000431,0.023388
373000,0.0324,0.013523,0.002678,0.000431,0.017982
374000,0.0324,0.013523,0.002678,0.000431,0.016807
375000,0.0324,0.013523,0.002678,0.000431,0.018687
376000,0.0324,0.013523,0.002678,0.000431,0.010930
377000,0.0324,0.013523,0.002678,0.000431,0.010225
378000,0.0324,0.013523,0.002678,0.000431,0.006699
379000,0.0324,0.013523,0.002678,0.000431,0.008462
380000,0.0324,0.013523,0.002678,0.000431,0.007052
381000,0.0324,0.013523,0.002678,0.000431,0.005171
382000,0.0324,0.013523,0.002678,0.000431,0.003761
383000,0.0324,0.013523,0.002678,0.000431,0.003643
384000,0.0324,0.013523,0.002678,0.000431,0.003643
385000,0.0324,0.013523,0.002678,0.000431,0.003408
386000,0.0324,0.013523,0.002678,0.000431,0.003526
387000,0.0324,0.013523,0.002678,0.000431,0.002821
388000,0.0324,0.013523,0.002678,0.000431,0.003761
389000,0.0324,0.013523,0.002678,0.000431,0.001058
390000,0.0324,0.013523,0.002678,0.000431,0.001058
391000,0.0324,0.013523,0.002678,0.000431,0.000940
392000,0.0324,0.013523,0.002678,0.000431,0.000940
393000,0.0324,0.013523,0.002678,0.000431,0.077569
394000,0.0324,0.013523,0.002678,0.000431,0.082152
395000,0.0324,0.013523,0.002678,0.000431,0.082975
396000,0.0324,0.013523,0.002678,0.000431,0.073338
397000,0.0324,0.013523,0.002678,0.000431,0.109184
398000,0.0324,0.013523,0.002678,0.000431,0.099899
399000,0.0324,0.013523,0.002678,0.000431,0.086148
400000,0.0324,0.013523,0.002678,0.000431,0.078509
401000,0.0324,0.013523,0.002678,0.000431,0.074983
402000,0.0324,0.013523,0.002678,0.000431,0.071340
403000,0.0324,0.013523,0.002678,0.000431,0.069694
404000,0.0324,0.013523,0.002678,0.000431,0.056414
405000,0.0324,0.013523,0.002678,0.000431,0.045366
406000,0.0324,0.013523,0.002678,0.000431,0.041723
407000,0.0324,0.013523,0.002678,0.000431,0.045131
408000,0.0324,0.013523,0.002678,0.000431,0.045248
409000,0.0324,0.013523,0.002678,0.000431,0.039254
410000,0.0324,0.013523,0.002678,0.000431,0.036434
411000,0.0324,0.013523,0.002678,0.000431,0.028794
412000,0.0324,0.013523,0.002678,0.000431,0.024093
413000,0.0324,0.013523,0.002678,0.000431,0.024446
414000,0.0324,0.013523,0.002678,0.000431,0.020685
415000,0.0324,0.013523,0.002678,0.000431,0.018099
416000,0.0324,0.013523,0.002678,0.000431,0.016924
417000,0.0324,0.013523,0.002678,0.000431,0.016219
418000,0.0324,0.013523,0.002678,0.000431,0.015514
419000,0.0324,0.013523,0.002678,0.000431,0.011870
420000,0.0324,0.013523,0.002678,0.000431,0.009050
421000,0.0324,0.013523,0.002678,0.000431,0.007992
422000,0.0324,0.013523,0.002678,0.000431,0.007287
423000,0.0324,0.013523,0.002678,0.000431,0.007404
424000,0.0324,0.013523,0.002678,0.000431,0.006347
425000,0.0324,0.013523,0.002678,0.000431,0.005876
426000,0.0324,0.013523,0.002678,0.000431,0.004349
427000,0.0324,0.013523,0.002678,0.000431,0.003643
428000,0.0324,0.013523,0.002678,0.000431,0.003291
429000,0.0324,0.013523,0.002678,0.000431,0.003878
430000,0.0324,0.013523,0.002678,0.000431,0.003291
431000,0.0324,0.013523,0.002678,0.000431,0.062407
432000,0.0324,0.013523,0.002678,0.000431,0.075218
433000,0.0324,0.013523,0.002678,0.000431,0.072750
434000,0.0324,0.013523,0.002678,0.000431,0.066991
435000,0.0324,0.013523,0.002678,0.000431,0.106716
436000,0.0324,0.013523,0.002678,0.000431,0.098606
437000,0.0324,0.013523,0.002678,0.000431,0.087911
438000,0.0324,0.013523,0.002678,0.000431,0.073925
439000,0.0324,0.013523,0.002678,0.000431,0.069929
440000,0.0324,0.013523,0.002678,0.000431,0.067226
441000,0.0324,0.013523,0.002678,0.000431,0.064170
442000,0.0324,0.013523,0.002678,0.000431,0.060057
443000,0.0324,0.013523,0.002678,0.000431,0.056296
444000,0.0324,0.013523,0.002678,0.000431,0.042663
445000,0.0324,0.013523,0.002678,0.000431,0.038314
446000,0.0324,0.013523,0.002678,0.000431,0.029265
447000,0.0324,0.013523,0.002678,0.000431,0.023388
448000,0.0324,0.013523,0.002678,0.000431,0.020332
449000,0.0324,0.013523,0.002678,0.000431,0.015749
450000,0.0324,0.013523,0.002678,0.000431,0.013633
451000,0.0324,0.013523,0.002678,0.000431,0.015866
452000,0.0324,0.013523,0.002678,0.000431,0.014691
453000,0.0324,0.013523,0.002678,0.000431,0.009872
454000,0.0324,0.013523,0.002678,0.000431,0.009285
455000,0.0324,0.013523,0.002678,0.000431,0.010107
456000,0.0324,0.013523,0.002678,0.000431,0.009637
457000,0.0324,0.013523,0.002678,0.000431,0.010225
458000,0.0324,0.013523,0.002678,0.000431,0.008580
459000,0.0324,0.013523,0.002678,0.000431,0.008932
460000,0.0324,0.013523,0.002678,0.000431,0.006464
461000,0.0324,0.013523,0.002678,0.000431,0.007639
462000,0.0324,0.013523,0.002678,0.000431,0.005641
463000,0.0324,0.013523,0.002678,0.000431,0.004466
464000,0.0324,0.013523,0.002678,0.000431,0.004701
465000,0.0324,0.013523,0.002678,0.000431,0.003761
466000,0.0324,0.013523,0.002678,0.000431,0.004231
467000,0.0324,0.013523,0.002678,0.000431,0.004701
468000,0.0324,0.013523,0.002678,0.000431,0.001880
469000,0.0324,0.013523,0.002678,0.000431,0.001880
470000,0.0324,0.013523,0.002678,0.000431,0.002468
471000,0.0324,0.013523,0.002678,0.000431,0.000823
472000,0.0324,0.013523,0.002678,0.000431,0.002351
473000,0.0324,0.013523,0.002678,0.000431,0.066403
474000,0.0324,0.013523,0.002678,0.000431,0.079449
475000,0.0324,0.013523,0.002678,0.000431,0.083563
476000,0.0324,0.013523,0.002678,0.000431,0.063230
477000,0.0324,0.013523,0.002678,0.000431,0.099664
478000,0.0324,0.013523,0.002678,0.000431,0.078039
479000,0.0324,0.013523,0.002678,0.000431,0.064641
480000,0.0324,0.013523,0.002678,0.000431,0.058294
481000,0.0324,0.013523,0.002678,0.000431,0.059234
482000,0.0324,0.013523,0.002678,0.000431,0.052300
483000,0.0324,0.013523,0.002678,0.000431,0.052770
484000,0.0324,0.013523,0.002678,0.000431,0.054533
485000,0.0324,0.013523,0.002678,0.000431,0.047129
486000,0.0324,0.013523,0.002678,0.000431,0.040430
487000,0.0324,0.013523,0.002678,0.000431,0.030675
488000,0.0324,0.013523,0.002678,0.000431,0.026326
489000,0.0324,0.013523,0.002678,0.000431,0.024563
490000,0.0324,0.013523,0.002678,0.000431,0.016689
491000,0.0324,0.013523,0.002678,0.000431,0.014103
492000,0.0324,0.013523,0.002678,0.000431,0.009167
493000,0.0324,0.013523,0.002678,0.000431,0.008697
494000,0.0324,0.013523,0.002678,0.000431,0.007404
495000,0.0324,0.013523,0.002678,0.000431,0.006817
496000,0.0324,0.013523,0.002678,0.000431,0.005641
497000,0.0324,0.013523,0.002678,0.000431,0.004231
498000,0.0324,0.013523,0.002678,0.000431,0.004466
499000,0.0324,0.013523,0.002678,0.000431,0.004701
500000,0.0324,0.013523,0.002678,0.000431,0.003878
501000,0.0324,0.013523,0.002678,0.000431,0.002351
502000,0.0324,0.013523,0.002678,0.000431,0.003878
503000,0.0324,0.013523,0.002678,0.000431,0.024916
504000,0.0324,0.013523,0.002678,0.000431,0.077334
505000,0.0324,0.013523,0.002678,0.000431,0.055238
506000,0.0324,0.013523,0.002678,0.000431,0.068519
507000,0.0324,0.013523,0.002678,0.000431,0.068636
508000,0.0324,0.013523,0.002678,0.000431,0.076041
509000,0.0324,0.013523,0.002678,0.000431,0.060762
510000,0.0324,0.013523,0.002678,0.000431,0.052418
511000,0.0324,0.013523,0.002678,0.000431,0.045366
512000,0.0324,0.013523,0.002678,0.000431,0.038079
513000,0.0324,0.013523,0.002678,0.000431,0.039137
514000,0.0324,0.013523,0.002678,0.000431,0.033496
515000,0.0324,0.013523,0.002678,0.000431,0.031850
516000,0.0324,0.013523,0.002678,0.000431,0.027267
517000,0.0324,0.013523,0.002678,0.000431,0.021155
518000,0.0324,0.013523,0.002678,0.000431,0.015396
519000,0.0324,0.013523,0.002678,0.000431,0.016571
520000,0.0324,0.013523,0.002678,0.000431,0.013868
521000,0.0324,0.013523,0.002678,0.000431,0.013986
522000,0.0324,0.013523,0.002678,0.000431,0.013516
523000,0.0324,0.013523,0.002678,0.000431,0.008462
524000,0.0324,0.013523,0.002678,0.000431,0.008345
525000,0.0324,0.013523,0.002678,0.000431,0.006464
526000,0.0324,0.013523,0.002678,0.000431,0.005524
527000,0.0324,0.013523,0.002678,0.000431,0.004349
528000,0.0324,0.013523,0.002678,0.000431,0.005289
529000,0.0324,0.013523,0.002678,0.000431,0.004584
530000,0.0324,0.013523,0.002678,0.000431,0.002703
531000,0.0324,0.013523,0.002678,0.000431,0.002938
532000,0.0324,0.013523,0.002678,0.000431,0.002703
533000,0.0324,0.013523,0.002678,0.000431,0.001645
534000,0.0324,0.013523,0.002678,0.000431,0.001880
535000,0.0324,0.013523,0.002678,0.000431,0.001645
536000,0.0324,0.013523,0.002678,0.000431,0.001763
537000,0.0324,0.013523,0.002678,0.000431,0.002233
538000,0.0324,0.013523,0.002678,0.000431,0.001175
539000,0.0324,0.013523,0.002678,0.000431,0.085913
540000,0.0324,0.013523,0.002678,0.000431,0.067226
541000,0.0324,0.013523,0.002678,0.000431,0.079449
542000,0.0324,0.013523,0.002678,0.000431,0.062407
543000,0.0324,0.013523,0.002678,0.000431,0.108243
544000,0.0324,0.013523,0.002678,0.000431,0.096961
545000,0.0324,0.013523,0.002678,0.000431,0.079096
546000,0.0324,0.013523,0.002678,0.000431,0.075453
547000,0.0324,0.013523,0.002678,0.000431,0.066991
548000,0.0324,0.013523,0.002678,0.000431,0.061467
549000,0.0324,0.013523,0.002678,0.000431,0.056178
550000,0.0324,0.013523,0.002678,0.000431,0.046424
551000,0.0324,0.013523,0.002678,0.000431,0.044896
552000,0.0324,0.013523,0.002678,0.000431,0.046776
553000,0.0324,0.013523,0.002678,0.000431,0.035964
554000,0.0324,0.013523,0.002678,0.000431,0.028207
555000,0.0324,0.013523,0.002678,0.000431,0.025739
556000,0.0324,0.013523,0.002678,0.000431,0.025974
557000,0.0324,0.013523,0.002678,0.000431,0.016454
558000,0.0324,0.013523,0.002678,0.000431,0.013633
559000,0.0324,0.013523,0.002678,0.000431,0.014573
560000,0.0324,0.013523,0.002678,0.000431,0.014103
561000,0.0324,0.013523,0.002678,0.000431,0.010107
562000,0.0324,0.013523,0.002678,0.000431,0.008227
563000,0.0324,0.013523,0.002678,0.000431,0.006582
564000,0.0324,0.013523,0.002678,0.000431,0.005994
565000,0.0324,0.013523,0.002678,0.000431,0.002821
566000,0.0324,0.013523,0.002678,0.000431,0.002703
567000,0.0324,0.013523,0.002678,0.000431,0.002468
568000,0.0324,0.013523,0.002678,0.000431,0.002586
569000,0.0324,0.013523,0.002678,0.000431,0.002821
570000,0.0324,0.013523,0.002678,0.000431,0.002468
571000,0.0324,0.013523,0.002678,0.000431,0.004231
572000,0.0324,0.013523,0.002678,0.000431,0.002703
573000,0.0324,0.013523,0.002678,0.000431,0.000940
574000,0.0324,0.013523,0.002678,0.000431,0.000940
575000,0.0324,0.013523,0.002678,0.000431,0.000823
576000,0.0324,0.013523,0.002678,0.000431,0.039019
577000,0.0324,0.013523,0.002678,0.000431,0.107186
578000,0.0324,0.013523,0.002678,0.000431,0.081212
579000,0.0324,0.013523,0.002678,0.000431,0.092260
580000,0.0324,0.013523,0.002678,0.000431,0.164539
581000,0.0324,0.013523,0.002678,0.000431,0.162424
582000,0.0324,0.013523,0.002678,0.000431,0.150906
583000,0.0324,0.013523,0.002678,0.000431,0.143737
584000,0.0324,0.013523,0.002678,0.000431,0.149731
585000,0.0324,0.013523,0.002678,0.000431,0.139036
586000,0.0324,0.013523,0.002678,0.000431,0.124110
587000,0.0324,0.013523,0.002678,0.000431,0.110947
588000,0.0324,0.013523,0.002678,0.000431,0.107421
589000,0.0324,0.013523,0.002678,0.000431,0.085090
590000,0.0324,0.013523,0.002678,0.000431,0.076981
591000,0.0324,0.013523,0.002678,0.000431,0.069577
592000,0.0324,0.013523,0.002678,0.000431,0.053123
593000,0.0324,0.013523,0.002678,0.000431,0.048774
594000,0.0324,0.013523,0.002678,0.000431,0.037727
595000,0.0324,0.013523,0.002678,0.000431,0.025269
596000,0.0324,0.013523,0.002678,0.000431,0.018217
597000,0.0324,0.013523,0.002678,0.000431,0.019510
598000,0.0324,0.013523,0.002678,0.000431,0.012223
599000,0.0324,0.013523,0.002678,0.000431,0.014691
600000,0.0324,0.013523,0.002678,0.000431,0.014221
601000,0.0324,0.013523,0.002678,0.000431,0.008580
602000,0.0324,0.013523,0.002678,0.000431,0.006934
603000,0.0324,0.013523,0.002678,0.000431,0.002821
604000,0.0324,0.013523,0.002678,0.000431,0.002586
605000,0.0324,0.013523,0.002678,0.000431,0.002586
606000,0.0324,0.013523,0.002678,0.000431,0.002586
607000,0.0324,0.013523,0.002678,0.000431,0.003408
608000,0.0324,0.013523,0.002678,0.000431,0.001998
609000,0.0324,0.013523,0.002678,0.000431,0.000940
610000,0.0324,0.013523,0.002678,0.000431,0.070869
611000,0.0324,0.013523,0.002678,0.000431,0.117646
612000,0.0324,0.013523,0.002678,0.000431,0.118939
613000,0.0324,0.013523,0.002678,0.000431,0.093670
614000,0.0324,0.013523,0.002678,0.000431,0.197682
615000,0.0324,0.013523,0.002678,0.000431,0.185224
616000,0.0324,0.013523,0.002678,0.000431,0.166420
617000,0.0324,0.013523,0.002678,0.000431,0.157840
618000,0.0324,0.013523,0.002678,0.000431,0.165010
619000,0.0324,0.013523,0.002678,0.000431,0.164539
620000,0.0324,0.013523,0.002678,0.000431,0.149848
621000,0.0324,0.013523,0.002678,0.000431,0.129751
622000,0.0324,0.013523,0.002678,0.000431,0.112357
623000,0.0324,0.013523,0.002678,0.000431,0.096608
624000,0.0324,0.013523,0.002678,0.000431,0.075101
625000,0.0324,0.013523,0.002678,0.000431,0.062995
626000,0.0324,0.013523,0.002678,0.000431,0.045131
627000,0.0324,0.013523,0.002678,0.000431,0.031733
628000,0.0324,0.013523,0.002678,0.000431,0.025034
629000,0.0324,0.013523,0.002678,0.000431,0.028207
630000,0.0324,0.013523,0.002678,0.000431,0.020097
631000,0.0324,0.013523,0.002678,0.000431,0.019157
632000,0.0324,0.013523,0.002678,0.000431,0.012340
633000,0.0324,0.013523,0.002678,0.000431,0.008697
634000,0.0324,0.013523,0.002678,0.000431,0.010930
635000,0.0324,0.013523,0.002678,0.000431,0.008932
636000,0.0324,0.013523,0.002678,0.000431,0.005876
637000,0.0324,0.013523,0.002678,0.000431,0.006464
638000,0.0324,0.013523,0.002678,0.000431,0.006347
639000,0.0324,0.013523,0.002678,0.000431,0.002703
640000,0.0324,0.013523,0.002678,0.000431,0.003526
641000,0.0324,0.013523,0.002678,0.000431,0.013046
642000,0.0324,0.013523,0.002678,0.000431,0.150906
643000,0.0324,0.013523,0.002678,0.000431,0.113532
644000,0.0324,0.013523,0.002678,0.000431,0.148438
645000,0.0324,0.013523,0.002678,0.000431,0.096491
646000,0.0324,0.013523,0.002678,0.000431,0.202384
647000,0.0324,0.013523,0.002678,0.000431,0.155255
648000,0.0324,0.013523,0.002678,0.000431,0.139741
649000,0.0324,0.013523,0.002678,0.000431,0.155960
650000,0.0324,0.013523,0.002678,0.000431,0.153609
651000,0.0324,0.013523,0.002678,0.000431,0.147380
652000,0.0324,0.013523,0.002678,0.000431,0.147263
653000,0.0324,0.013523,0.002678,0.000431,0.129986
654000,0.0324,0.013523,0.002678,0.000431,0.108479
655000,0.0324,0.013523,0.002678,0.000431,0.088381
656000,0.0324,0.013523,0.002678,0.000431,0.063700
657000,0.0324,0.013523,0.002678,0.000431,0.053710
658000,0.0324,0.013523,0.002678,0.000431,0.046189
659000,0.0324,0.013523,0.002678,0.000431,0.039725
660000,0.0324,0.013523,0.002678,0.000431,0.036669
661000,0.0324,0.013523,0.002678,0.000431,0.025739
662000,0.0324,0.013523,0.002678,0.000431,0.024916
663000,0.0324,0.013523,0.002678,0.000431,0.022565
664000,0.0324,0.013523,0.002678,0.000431,0.017394
665000,0.0324,0.013523,0.002678,0.000431,0.016219
666000,0.0324,0.013523,0.002678,0.000431,0.009520
667000,0.0324,0.013523,0.002678,0.000431,0.008580
668000,0.0324,0.013523,0.002678,0.000431,0.008580
669000,0.0324,0.013523,0.002678,0.000431,0.006229
670000,0.0324,0.013523,0.002678,0.000431,0.003643
671000,0.0324,0.013523,0.002678,0.000431,0.004701
672000,0.0324,0.013523,0.002678,0.000431,0.002703
673000,0.0324,0.013523,0.002678,0.000431,0.002703
674000,0.0324,0.013523,0.002678,0.000431,0.004701
675000,0.0324,0.013523,0.002678,0.000431,0.003408
676000,0.0324,0.013523,0.002678,0.000431,0.002586
677000,0.0324,0.013523,0.002678,0.000431,0.030205
678000,0.0324,0.013523,0.002678,0.000431,0.161014
679000,0.0324,0.013523,0.002678,0.000431,0.126578
680000,0.0324,0.013523,0.002678,0.000431,0.149261
681000,0.0324,0.013523,0.002678,0.000431,0.129751
682000,0.0324,0.013523,0.002678,0.000431,0.177703
683000,0.0324,0.013523,0.002678,0.000431,0.148438
684000,0.0324,0.013523,0.002678,0.000431,0.138683
685000,0.0324,0.013523,0.002678,0.000431,0.143737
686000,0.0324,0.013523,0.002678,0.000431,0.141269
687000,0.0324,0.013523,0.002678,0.000431,0.134217
688000,0.0324,0.013523,0.002678,0.000431,0.118703
689000,0.0324,0.013523,0.002678,0.000431,0.108008
690000,0.0324,0.013523,0.002678,0.000431,0.096491
691000,0.0324,0.013523,0.002678,0.000431,0.081330
692000,0.0324,0.013523,0.002678,0.000431,0.061232
693000,0.0324,0.013523,0.002678,0.000431,0.051007
694000,0.0324,0.013523,0.002678,0.000431,0.034436
695000,0.0324,0.013523,0.002678,0.000431,0.026444
696000,0.0324,0.013523,0.002678,0.000431,0.024328
697000,0.0324,0.013523,0.002678,0.000431,0.014456
698000,0.0324,0.013523,0.002678,0.000431,0.012928
699000,0.0324,0.013523,0.002678,0.000431,0.010342
700000,0.0324,0.013523,0.002678,0.000431,0.008227
701000,0.0324,0.013523,0.002678,0.000431,0.003526
702000,0.0324,0.013523,0.002678,0.000431,0.004113
703000,0.0324,0.013523,0.002678,0.000431,0.005289
704000,0.0324,0.013523,0.002678,0.000431,0.005289
705000,0.0324,0.013523,0.002678,0.000431,0.003056
706000,0.0324,0.013523,0.002678,0.000431,0.003173
707000,0.0324,0.013523,0.002678,0.000431,0.001998
708000,0.0324,0.013523,0.002678,0.000431,0.002233
709000,0.0324,0.013523,0.002678,0.000431,0.002116
710000,0.0324,0.013523,0.002678,0.000431,0.002233
711000,0.0324,0.013523,0.002678,0.000431,0.002468
712000,0.0324,0.013523,0.002678,0.000431,0.002586
713000,0.0324,0.013523,0.002678,0.000431,0.002233
714000,0.0324,0.013523,0.002678,0.000431,0.002586
715000,0.0324,0.013523,0.002678,0.000431,0.128341
716000,0.0324,0.013523,0.002678,0.000431,0.131161
717000,0.0324,0.013523,0.002678,0.000431,0.155725
718000,0.0324,0.013523,0.002678,0.000431,0.094140
719000,0.0324,0.013523,0.002678,0.000431,0.185107
720000,0.0324,0.013523,0.002678,0.000431,0.170768
721000,0.0324,0.013523,0.002678,0.000431,0.145382
722000,0.0324,0.013523,0.002678,0.000431,0.156665
723000,0.0324,0.013523,0.002678,0.000431,0.157018
724000,0.0324,0.013523,0.002678,0.000431,0.143267
725000,0.0324,0.013523,0.002678,0.000431,0.127871
726000,0.0324,0.013523,0.002678,0.000431,0.117411
727000,0.0324,0.013523,0.002678,0.000431,0.103190
728000,0.0324,0.013523,0.002678,0.000431,0.086971
729000,0.0324,0.013523,0.002678,0.000431,0.075218
730000,0.0324,0.013523,0.002678,0.000431,0.051007
731000,0.0324,0.013523,0.002678,0.000431,0.045013
732000,0.0324,0.013523,0.002678,0.000431,0.029852
733000,0.0324,0.013523,0.002678,0.000431,0.023153
734000,0.0324,0.013523,0.002678,0.000431,0.019040
735000,0.0324,0.013523,0.002678,0.000431,0.019862
736000,0.0324,0.013523,0.002678,0.000431,0.015044
737000,0.0324,0.013523,0.002678,0.000431,0.009167
738000,0.0324,0.013523,0.002678,0.000431,0.006582
739000,0.0324,0.013523,0.002678,0.000431,0.004584
740000,0.0324,0.013523,0.002678,0.000431,0.003996
741000,0.0324,0.013523,0.002678,0.000431,0.003173
742000,0.0324,0.013523,0.002678,0.000431,0.001998
743000,0.0324,0.013523,0.002678,0.000431,0.001880
744000,0.0324,0.013523,0.002678,0.000431,0.011870
745000,0.0324,0.013523,0.002678,0.000431,0.182756
746000,0.0324,0.013523,0.002678,0.000431,0.135275
747000,0.0324,0.013523,0.002678,0.000431,0.173707
748000,0.0324,0.013523,0.002678,0.000431,0.091907
749000,0.0324,0.013523,0.002678,0.000431,0.183461
750000,0.0324,0.013523,0.002678,0.000431,0.160308
751000,0.0324,0.013523,0.002678,0.000431,0.158898
752000,0.0324,0.013523,0.002678,0.000431,0.148908
753000,0.0324,0.013523,0.002678,0.000431,0.148203
754000,0.0324,0.013523,0.002678,0.000431,0.130221
755000,0.0324,0.013523,0.002678,0.000431,0.114355
756000,0.0324,0.013523,0.002678,0.000431,0.090849
757000,0.0324,0.013523,0.002678,0.000431,0.077804
758000,0.0324,0.013523,0.002678,0.000431,0.072397
759000,0.0324,0.013523,0.002678,0.000431,0.058999
760000,0.0324,0.013523,0.002678,0.000431,0.039489
761000,0.0324,0.013523,0.002678,0.000431,0.040900
762000,0.0324,0.013523,0.002678,0.000431,0.035846
763000,0.0324,0.013523,0.002678,0.000431,0.031733
764000,0.0324,0.013523,0.002678,0.000431,0.030792
765000,0.0324,0.013523,0.002678,0.000431,0.027502
766000,0.0324,0.013523,0.002678,0.000431,0.021508
767000,0.0324,0.013523,0.002678,0.000431,0.019392
768000,0.0324,0.013523,0.002678,0.000431,0.016336
769000,0.0324,0.013523,0.002678,0.000431,0.013633
770000,0.0324,0.013523,0.002678,0.000431,0.009167
771000,0.0324,0.013523,0.002678,0.000431,0.010107
772000,0.0324,0.013523,0.002678,0.000431,0.007169
773000,0.0324,0.013523,0.002678,0.000431,0.006111
774000,0.0324,0.013523,0.002678,0.000431,0.005406
775000,0.0324,0.013523,0.002678,0.000431,0.005524
776000,0.0324,0.013523,0.002678,0.000431,0.006582
777000,0.0324,0.013523,0.002678,0.000431,0.006347
778000,0.0324,0.013523,0.002678,0.000431,0.005759
779000,0.0324,0.013523,0.002678,0.000431,0.005054
780000,0.0324,0.013523,0.002678,0.000431,0.004936
781000,0.0324,0.013523,0.002678,0.000431,0.005171
782000,0.0324,0.013523,0.002678,0.000431,0.002938
783000,0.0324,0.013523,0.002678,0.000431,0.002703
784000,0.0324,0.013523,0.002678,0.000431,0.002821
785000,0.0324,0.013523,0.002678,0.000431,0.002938
786000,0.0324,0.013523,0.002678,0.000431,0.000940
787000,0.0324,0.013523,0.002678,0.000431,0.000940
788000,0.0324,0.013523,0.002678,0.000431,0.000940
789000,0.0324,0.013523,0.002678,0.000431,0.000940
790000,0.0324,0.013523,0.002678,0.000431,0.000705
791000,0.0324,0.013523,0.002678,0.000431,0.000940
792000,0.0324,0.013523,0.002678,0.000431,0.000940
793000,0.0324,0.013523,0.002678,0.000431,0.000823
794000,0.0324,0.013523,0.002678,0.000431,0.000823
795000,0.0324,0.013523,0.002678,0.000431,0.000940
796000,0.0324,0.013523,0.002678,0.000431,0.000940
797000,0.0324,0.013523,0.002678,0.000431,0.000823
798000,0.0324,0.013523,0.002678,0.000431,0.000823
799000,0.0324,0.013523,0.002678,0.000431,0.000940
800000,0.0324,0.013523,0.002678,0.000431,0.000940
801000,0.0324,0.013523,0.002678,0.000431,0.028677
802000,0.0324,0.013523,0.002678,0.000431,0.192746
803000,0.0324,0.013523,0.002678,0.000431,0.155372
804000,0.0324,0.013523,0.002678,0.000431,0.164069
805000,0.0324,0.013523,0.002678,0.000431,0.105305
806000,0.0324,0.013523,0.002678,0.000431,0.191453
807000,0.0324,0.013523,0.002678,0.000431,0.175470
808000,0.0324,0.013523,0.002678,0.000431,0.147028
809000,0.0324,0.013523,0.002678,0.000431,0.133865
810000,0.0324,0.013523,0.002678,0.000431,0.124815
811000,0.0324,0.013523,0.002678,0.000431,0.126460
812000,0.0324,0.013523,0.002678,0.000431,0.115060
813000,0.0324,0.013523,0.002678,0.000431,0.122347
814000,0.0324,0.013523,0.002678,0.000431,0.113062
815000,0.0324,0.013523,0.002678,0.000431,0.122817
816000,0.0324,0.013523,0.002678,0.000431,0.106598
817000,0.0324,0.013523,0.002678,0.000431,0.102837
818000,0.0324,0.013523,0.002678,0.000431,0.100487
819000,0.0324,0.013523,0.002678,0.000431,0.087323
820000,0.0324,0.013523,0.002678,0.000431,0.078861
821000,0.0324,0.013523,0.002678,0.000431,0.067109
822000,0.0324,0.013523,0.002678,0.000431,0.043015
823000,0.0324,0.013523,0.002678,0.000431,0.041958
824000,0.0324,0.013523,0.002678,0.000431,0.036669
825000,0.0324,0.013523,0.002678,0.000431,0.030910
826000,0.0324,0.013523,0.002678,0.000431,0.026326
827000,0.0324,0.013523,0.002678,0.000431,0.025504
828000,0.0324,0.013523,0.002678,0.000431,0.022213
829000,0.0324,0.013523,0.002678,0.000431,0.017747
830000,0.0324,0.013523,0.002678,0.000431,0.015631
831000,0.0324,0.013523,0.002678,0.000431,0.009520
832000,0.0324,0.013523,0.002678,0.000431,0.007992
833000,0.0324,0.013523,0.002678,0.000431,0.005641
834000,0.0324,0.013523,0.002678,0.000431,0.005759
835000,0.0324,0.013523,0.002678,0.000431,0.005171
836000,0.0324,0.013523,0.002678,0.000431,0.004466
837000,0.0324,0.013523,0.002678,0.000431,0.001645
838000,0.0324,0.013523,0.002678,0.000431,0.001410
839000,0.0324,0.013523,0.002678,0.000431,0.001058
840000,0.0324,0.013523,0.002678,0.000431,0.000940
841000,0.0324,0.013523,0.002678,0.000431,0.000940
842000,0.0324,0.013523,0.002678,0.000431,0.000823
843000,0.0324,0.013523,0.002678,0.000431,0.000823
844000,0.0324,0.013523,0.002678,0.000431,0.001410
845000,0.0324,0.013523,0.002678,0.000431,0.145147
846000,0.0324,0.013523,0.002678,0.000431,0.118586
847000,0.0324,0.013523,0.002678,0.000431,0.145735
848000,0.0324,0.013523,0.002678,0.000431,0.074395
849000,0.0324,0.013523,0.002678,0.000431,0.144912
850000,0.0324,0.013523,0.002678,0.000431,0.139271
851000,0.0324,0.013523,0.002678,0.000431,0.125638
852000,0.0324,0.013523,0.002678,0.000431,0.115883
853000,0.0324,0.013523,0.002678,0.000431,0.121877
854000,0.0324,0.013523,0.002678,0.000431,0.121054
855000,0.0324,0.013523,0.002678,0.000431,0.120466
856000,0.0324,0.013523,0.002678,0.000431,0.115648
857000,0.0324,0.013523,0.002678,0.000431,0.093905
858000,0.0324,0.013523,0.002678,0.000431,0.092377
859000,0.0324,0.013523,0.002678,0.000431,0.084620
860000,0.0324,0.013523,0.002678,0.000431,0.075336
861000,0.0324,0.013523,0.002678,0.000431,0.064170
862000,0.0324,0.013523,0.002678,0.000431,0.056414
863000,0.0324,0.013523,0.002678,0.000431,0.046894
864000,0.0324,0.013523,0.002678,0.000431,0.041958
865000,0.0324,0.013523,0.002678,0.000431,0.039842
866000,0.0324,0.013523,0.002678,0.000431,0.029147
867000,0.0324,0.013523,0.002678,0.000431,0.025269
868000,0.0324,0.013523,0.002678,0.000431,0.022213
869000,0.0324,0.013523,0.002678,0.000431,0.019040
870000,0.0324,0.013523,0.002678,0.000431,0.020920
871000,0.0324,0.013523,0.002678,0.000431,0.019980
872000,0.0324,0.013523,0.002678,0.000431,0.015631
873000,0.0324,0.013523,0.002678,0.000431,0.012576
874000,0.0324,0.013523,0.002678,0.000431,0.011283
875000,0.0324,0.013523,0.002678,0.000431,0.011165
876000,0.0324,0.013523,0.002678,0.000431,0.014221
877000,0.0324,0.013523,0.002678,0.000431,0.010460
878000,0.0324,0.013523,0.002678,0.000431,0.008580
879000,0.0324,0.013523,0.002678,0.000431,0.007639
880000,0.0324,0.013523,0.002678,0.000431,0.007639
881000,0.0324,0.013523,0.002678,0.000431,0.007287
882000,0.0324,0.013523,0.002678,0.000431,0.006934
883000,0.0324,0.013523,0.002678,0.000431,0.006347
884000,0.0324,0.013523,0.002678,0.000431,0.006699
885000,0.0324,0.013523,0.002678,0.000431,0.006582
886000,0.0324,0.013523,0.002678,0.000431,0.006111
887000,0.0324,0.013523,0.002678,0.000431,0.006229
888000,0.0324,0.013523,0.002678,0.000431,0.004113
889000,0.0324,0.013523,0.002678,0.000431,0.003526
890000,0.0324,0.013523,0.002678,0.000431,0.002233
891000,0.0324,0.013523,0.002678,0.000431,0.002821
892000,0.0324,0.013523,0.002678,0.000431,0.002586
893000,0.0324,0.013523,0.002678,0.000431,0.002351
894000,0.0324,0.013523,0.002678,0.000431,0.002703
895000,0.0324,0.013523,0.002678,0.000431,0.002351
896000,0.0324,0.013523,0.002678,0.000431,0.003643
897000,0.0324,0.013523,0.002678,0.000431,0.001880
898000,0.0324,0.013523,0.002678,0.000431,0.002586
899000,0.0324,0.013523,0.002678,0.000431,0.000940
900000,0.0324,0.013523,0.002678,0.000431,0.000823
901000,0.0324,0.013523,0.002678,0.000431,0.000823
902000,0.0324,0.013523,0.002678,0.000431,0.000940
903000,0.0324,0.013523,0.002678,0.000431,0.000940
904000,0.0324,0.013523,0.002678,0.000431,0.000823
905000,0.0324,0.013523,0.002678,0.000431,0.000823
906000,0.0324,0.013523,0.002678,0.000431,0.000940
907000,0.0324,0.013523,0.002678,0.000431,0.000823
908000,0.0324,0.013523,0.002678,0.000431,0.000823
909000,0.0324,0.013523,0.002678,0.000431,0.000940
910000,0.0324,0.013523,0.002678,0.000431,0.000823
911000,0.0324,0.013523,0.002678,0.000431,0.000823
912000,0.0324,0.013523,0.002678,0.000431,0.000940
913000,0.0324,0.013523,0.002678,0.000431,0.000705
914000,0.0324,0.013523,0.002678,0.000431,0.000940
915000,0.0324,0.013523,0.002678,0.000431,0.000823
916000,0.0324,0.013523,0.002678,0.000431,0.000823
917000,0.0324,0.013523,0.002678,0.000431,0.000940
918000,0.0324,0.013523,0.002678,0.000431,0.000823
919000,0.0324,0.013523,0.002678,0.000431,0.000823
920000,0.0324,0.013523,0.002678,0.000431,0.000940
921000,0.0324,0.013523,0.002678,0.000431,0.000705
922000,0.0324,0.013523,0.002678,0.000431,0.000940
923000,0.0324,0.013523,0.002678,0.000431,0.000823
924000,0.0324,0.013523,0.002678,0.000431,0.000823
925000,0.0324,0.013523,0.002678,0.000431,0.000940
926000,0.0324,0.013523,0.002678,0.000431,0.000823
927000,0.0324,0.013523,0.002678,0.000431,0.000940
928000,0.0324,0.013523,0.002678,0.000431,0.124345
929000,0.0324,0.013523,0.002678,0.000431,0.103777
930000,0.0324,0.013523,0.002678,0.000431,0.129751
931000,0.0324,0.013523,0.002678,0.000431,0.073808
932000,0.0324,0.013523,0.002678,0.000431,0.159133
933000,0.0324,0.013523,0.002678,0.000431,0.156548
934000,0.0324,0.013523,0.002678,0.000431,0.142679
935000,0.0324,0.013523,0.002678,0.000431,0.133512
936000,0.0324,0.013523,0.002678,0.000431,0.121289
937000,0.0324,0.013523,0.002678,0.000431,0.117176
938000,0.0324,0.013523,0.002678,0.000431,0.115178
939000,0.0324,0.013523,0.002678,0.000431,0.105070
940000,0.0324,0.013523,0.002678,0.000431,0.109184
941000,0.0324,0.013523,0.002678,0.000431,0.103307
942000,0.0324,0.013523,0.002678,0.000431,0.087676
943000,0.0324,0.013523,0.002678,0.000431,0.074865
944000,0.0324,0.013523,0.002678,0.000431,0.068872
945000,0.0324,0.013523,0.002678,0.000431,0.062055
946000,0.0324,0.013523,0.002678,0.000431,0.059352
947000,0.0324,0.013523,0.002678,0.000431,0.052300
948000,0.0324,0.013523,0.002678,0.000431,0.057354
949000,0.0324,0.013523,0.002678,0.000431,0.045601
950000,0.0324,0.013523,0.002678,0.000431,0.039607
951000,0.0324,0.013523,0.002678,0.000431,0.035964
952000,0.0324,0.013523,0.002678,0.000431,0.034318
953000,0.0324,0.013523,0.002678,0.000431,0.030322
954000,0.0324,0.013523,0.002678,0.000431,0.025504
955000,0.0324,0.013523,0.002678,0.000431,0.024211
956000,0.0324,0.013523,0.002678,0.000431,0.023858
957000,0.0324,0.013523,0.002678,0.000431,0.022330
958000,0.0324,0.013523,0.002678,0.000431,0.019862
959000,0.0324,0.013523,0.002678,0.000431,0.017982
960000,0.0324,0.013523,0.002678,0.000431,0.015514
961000,0.0324,0.013523,0.002678,0.000431,0.014691
962000,0.0324,0.013523,0.002678,0.000431,0.015514
963000,0.0324,0.013523,0.002678,0.000431,0.014338
964000,0.0324,0.013523,0.002678,0.000431,0.010813
965000,0.0324,0.013523,0.002678,0.000431,0.009637
966000,0.0324,0.013523,0.002678,0.000431,0.009050
967000,0.0324,0.013523,0.002678,0.000431,0.008345
968000,0.0324,0.013523,0.002678,0.000431,0.008109
969000,0.0324,0.013523,0.002678,0.000431,0.006817
970000,0.0324,0.013523,0.002678,0.000431,0.006934
971000,0.0324,0.013523,0.002678,0.000431,0.006464
972000,0.0324,0.013523,0.002678,0.000431,0.006347
973000,0.0324,0.013523,0.002678,0.000431,0.006111
974000,0.0324,0.013523,0.002678,0.000431,0.006347
975000,0.0324,0.013523,0.002678,0.000431,0.005994
976000,0.0324,0.013523,0.002678,0.000431,0.005524
977000,0.0324,0.013523,0.002678,0.000431,0.006111
978000,0.0324,0.013523,0.002678,0.000431,0.005524
979000,0.0324,0.013523,0.002678,0.000431,0.004584
980000,0.0324,0.013523,0.002678,0.000431,0.005171
981000,0.0324,0.013523,0.002678,0.000431,0.004584
982000,0.0324,0.013523,0.002678,0.000431,0.005406
983000,0.0324,0.013523,0.002678,0.000431,0.004819
984000,0.0324,0.013523,0.002678,0.000431,0.004466
985000,0.0324,0.013523,0.002678,0.000431,0.004584
986000,0.0324,0.013523,0.002678,0.000431,0.004113
987000,0.0324,0.013523,0.002678,0.000431,0.003526
988000,0.0324,0.013523,0.002678,0.000431,0.001763
989000,0.0324,0.013523,0.002678,0.000431,0.000940
990000,0.0324,0.013523,0.002678,0.000431,0.000940
991000,0.0324,0.013523,0.002678,0.000431,0.000823
992000,0.0324,0.013523,0.002678,0.000431,0.000823
993000,0.0324,0.013523,0.002678,0.000431,0.000940
994000,0.0324,0.013523,0.002678,0.000431,0.000940
995000,0.0324,0.013523,0.002678,0.000431,0.000823
996000,0.0324,0.013523,0.002678,0.000431,0.000823
997000,0.0324,0.013523,0.002678,0.000431,0.000940
998000,0.0324,0.013523,0.002678,0.000431,0.000823
999000,0.0324,0.013523,0.002678,0.000431,0.000823
