Cycle,Area(mm^2),PeakDynamic(W),SubthresholdLeakage(W),GateLeakage(W),RunTimeDynamic(W)
1000,0.0324,0.013523,0.002678,0.000431,0.298757
2000,0.0324,0.013523,0.002678,0.000431,0.000000
3000,0.0324,0.013523,0.002678,0.000431,0.000000
4000,0.0324,0.013523,0.002678,0.000431,0.000000
5000,0.0324,0.013523,0.002678,0.000431,0.000000
6000,0.0324,0.013523,0.002678,0.000431,0.727852
7000,0.0324,0.013523,0.002678,0.000431,0.258797
8000,0.0324,0.013523,0.002678,0.000431,0.334485
9000,0.0324,0.013523,0.002678,0.000431,0.222128
10000,0.0324,0.013523,0.002678,0.000431,0.215782
11000,0.0324,0.013523,0.002678,0.000431,0.230238
12000,0.0324,0.013523,0.002678,0.000431,0.212256
13000,0.0324,0.013523,0.002678,0.000431,0.209905
14000,0.0324,0.013523,0.002678,0.000431,0.209670
15000,0.0324,0.013523,0.002678,0.000431,0.203441
16000,0.0324,0.013523,0.002678,0.000431,0.202384
17000,0.0324,0.013523,0.002678,0.000431,0.199680
18000,0.0324,0.013523,0.002678,0.000431,0.208260
19000,0.0324,0.013523,0.002678,0.000431,0.197800
20000,0.0324,0.013523,0.002678,0.000431,0.200268
21000,0.0324,0.013523,0.002678,0.000431,0.196155
22000,0.0324,0.013523,0.002678,0.000431,0.198388
23000,0.0324,0.013523,0.002678,0.000431,0.208260
24000,0.0324,0.013523,0.002678,0.000431,0.189808
25000,0.0324,0.013523,0.002678,0.000431,0.199445
26000,0.0324,0.013523,0.002678,0.000431,0.188045
27000,0.0324,0.013523,0.002678,0.000431,0.200386
28000,0.0324,0.013523,0.002678,0.000431,0.191218
29000,0.0324,0.013523,0.002678,0.000431,0.196507
30000,0.0324,0.013523,0.002678,0.000431,0.194392
31000,0.0324,0.013523,0.002678,0.000431,0.187340
32000,0.0324,0.013523,0.002678,0.000431,0.189338
33000,0.0324,0.013523,0.002678,0.000431,0.193686
34000,0.0324,0.013523,0.002678,0.000431,0.192511
35000,0.0324,0.013523,0.002678,0.000431,0.192041
36000,0.0324,0.013523,0.002678,0.000431,0.183814
37000,0.0324,0.013523,0.002678,0.000431,0.186282
38000,0.0324,0.013523,0.002678,0.000431,0.191101
39000,0.0324,0.013523,0.002678,0.000431,0.188750
40000,0.0324,0.013523,0.002678,0.000431,0.182286
41000,0.0324,0.013523,0.002678,0.000431,0.182521
42000,0.0324,0.013523,0.002678,0.000431,0.184167
43000,0.0324,0.013523,0.002678,0.000431,0.185107
44000,0.0324,0.013523,0.002678,0.000431,0.173589
45000,0.0324,0.013523,0.002678,0.000431,0.181699
46000,0.0324,0.013523,0.002678,0.000431,0.178643
47000,0.0324,0.013523,0.002678,0.000431,0.175352
48000,0.0324,0.013523,0.002678,0.000431,0.177820
49000,0.0324,0.013523,0.002678,0.000431,0.165245
50000,0.0324,0.013523,0.002678,0.000431,0.174882
51000,0.0324,0.013523,0.002678,0.000431,0.169006
52000,0.0324,0.013523,0.002678,0.000431,0.168065
53000,0.0324,0.013523,0.002678,0.000431,0.152787
54000,0.0324,0.013523,0.002678,0.000431,0.174529
55000,0.0324,0.013523,0.002678,0.000431,0.160308
56000,0.0324,0.013523,0.002678,0.000431,0.157253
57000,0.0324,0.013523,0.002678,0.000431,0.154315
58000,0.0324,0.013523,0.002678,0.000431,0.164187
59000,0.0324,0.013523,0.002678,0.000431,0.153139
60000,0.0324,0.013523,0.002678,0.000431,0.146205
61000,0.0324,0.013523,0.002678,0.000431,0.157135
62000,0.0324,0.013523,0.002678,0.000431,0.149496
63000,0.0324,0.013523,0.002678,0.000431,0.140446
64000,0.0324,0.013523,0.002678,0.000431,0.142914
65000,0.0324,0.013523,0.002678,0.000431,0.146910
66000,0.0324,0.013523,0.002678,0.000431,0.140564
67000,0.0324,0.013523,0.002678,0.000431,0.138448
68000,0.0324,0.013523,0.002678,0.000431,0.139271
69000,0.0324,0.013523,0.002678,0.000431,0.138213
70000,0.0324,0.013523,0.002678,0.000431,0.129986
71000,0.0324,0.013523,0.002678,0.000431,0.138448
72000,0.0324,0.013523,0.002678,0.000431,0.129751
73000,0.0324,0.013523,0.002678,0.000431,0.132807
74000,0.0324,0.013523,0.002678,0.000431,0.126813
75000,0.0324,0.013523,0.002678,0.000431,0.121642
76000,0.0324,0.013523,0.002678,0.000431,0.129399
77000,0.0324,0.013523,0.002678,0.000431,0.120819
78000,0.0324,0.013523,0.002678,0.000431,0.121642
79000,0.0324,0.013523,0.002678,0.000431,0.124815
80000,0.0324,0.013523,0.002678,0.000431,0.117176
81000,0.0324,0.013523,0.002678,0.000431,0.115765
82000,0.0324,0.013523,0.002678,0.000431,0.110712
83000,0.0324,0.013523,0.002678,0.000431,0.119996
84000,0.0324,0.013523,0.002678,0.000431,0.111182
85000,0.0324,0.013523,0.002678,0.000431,0.107773
86000,0.0324,0.013523,0.002678,0.000431,0.110947
87000,0.0324,0.013523,0.002678,0.000431,0.112710
88000,0.0324,0.013523,0.002678,0.000431,0.100604
89000,0.0324,0.013523,0.002678,0.000431,0.108243
90000,0.0324,0.013523,0.002678,0.000431,0.110006
91000,0.0324,0.013523,0.002678,0.000431,0.104365
92000,0.0324,0.013523,0.002678,0.000431,0.100487
93000,0.0324,0.013523,0.002678,0.000431,0.105070
94000,0.0324,0.013523,0.002678,0.000431,0.106598
95000,0.0324,0.013523,0.002678,0.000431,0.095668
96000,0.0324,0.013523,0.002678,0.000431,0.097901
97000,0.0324,0.013523,0.002678,0.000431,0.105188
98000,0.0324,0.013523,0.002678,0.000431,0.095785
99000,0.0324,0.013523,0.002678,0.000431,0.096843
100000,0.0324,0.013523,0.002678,0.000431,0.098019
101000,0.0324,0.013523,0.002678,0.000431,0.096256
102000,0.0324,0.013523,0.002678,0.000431,0.092847
103000,0.0324,0.013523,0.002678,0.000431,0.093552
104000,0.0324,0.013523,0.002678,0.000431,0.094963
105000,0.0324,0.013523,0.002678,0.000431,0.090732
106000,0.0324,0.013523,0.002678,0.000431,0.087911
107000,0.0324,0.013523,0.002678,0.000431,0.091907
108000,0.0324,0.013523,0.002678,0.000431,0.085678
109000,0.0324,0.013523,0.002678,0.000431,0.090379
110000,0.0324,0.013523,0.002678,0.000431,0.086618
111000,0.0324,0.013523,0.002678,0.000431,0.086148
112000,0.0324,0.013523,0.002678,0.000431,0.085678
113000,0.0324,0.013523,0.002678,0.000431,0.084033
114000,0.0324,0.013523,0.002678,0.000431,0.085678
115000,0.0324,0.013523,0.002678,0.000431,0.081212
116000,0.0324,0.013523,0.002678,0.000431,0.082622
117000,0.0324,0.013523,0.002678,0.000431,0.078979
118000,0.0324,0.013523,0.002678,0.000431,0.085325
119000,0.0324,0.013523,0.002678,0.000431,0.082387
120000,0.0324,0.013523,0.002678,0.000431,0.078744
121000,0.0324,0.013523,0.002678,0.000431,0.075688
122000,0.0324,0.013523,0.002678,0.000431,0.080507
123000,0.0324,0.013523,0.002678,0.000431,0.077686
124000,0.0324,0.013523,0.002678,0.000431,0.074983
125000,0.0324,0.013523,0.002678,0.000431,0.077451
126000,0.0324,0.013523,0.002678,0.000431,0.075218
127000,0.0324,0.013523,0.002678,0.000431,0.070399
128000,0.0324,0.013523,0.002678,0.000431,0.074160
129000,0.0324,0.013523,0.002678,0.000431,0.074513
130000,0.0324,0.013523,0.002678,0.000431,0.068284
131000,0.0324,0.013523,0.002678,0.000431,0.069342
132000,0.0324,0.013523,0.002678,0.000431,0.073338
133000,0.0324,0.013523,0.002678,0.000431,0.069224
134000,0.0324,0.013523,0.002678,0.000431,0.066756
135000,0.0324,0.013523,0.002678,0.000431,0.070987
136000,0.0324,0.013523,0.002678,0.000431,0.066051
137000,0.0324,0.013523,0.002678,0.000431,0.068989
138000,0.0324,0.013523,0.002678,0.000431,0.065581
139000,0.0324,0.013523,0.002678,0.000431,0.070047
140000,0.0324,0.013523,0.002678,0.000431,0.063818
141000,0.0324,0.013523,0.002678,0.000431,0.062878
142000,0.0324,0.013523,0.002678,0.000431,0.067109
143000,0.0324,0.013523,0.002678,0.000431,0.062055
144000,0.0324,0.013523,0.002678,0.000431,0.065111
145000,0.0324,0.013523,0.002678,0.000431,0.063583
146000,0.0324,0.013523,0.002678,0.000431,0.061585
147000,0.0324,0.013523,0.002678,0.000431,0.061585
148000,0.0324,0.013523,0.002678,0.000431,0.061702
149000,0.0324,0.013523,0.002678,0.000431,0.062172
150000,0.0324,0.013523,0.002678,0.000431,0.059939
151000,0.0324,0.013523,0.002678,0.000431,0.062055
152000,0.0324,0.013523,0.002678,0.000431,0.058999
153000,0.0324,0.013523,0.002678,0.000431,0.056766
154000,0.0324,0.013523,0.002678,0.000431,0.060645
155000,0.0324,0.013523,0.002678,0.000431,0.054416
156000,0.0324,0.013523,0.002678,0.000431,0.060057
157000,0.0324,0.013523,0.002678,0.000431,0.056649
158000,0.0324,0.013523,0.002678,0.000431,0.056414
159000,0.0324,0.013523,0.002678,0.000431,0.058176
160000,0.0324,0.013523,0.002678,0.000431,0.053828
161000,0.0324,0.013523,0.002678,0.000431,0.056061
162000,0.0324,0.013523,0.002678,0.000431,0.054180
163000,0.0324,0.013523,0.002678,0.000431,0.055238
164000,0.0324,0.013523,0.002678,0.000431,0.053828
165000,0.0324,0.013523,0.002678,0.000431,0.054533
166000,0.0324,0.013523,0.002678,0.000431,0.053005
167000,0.0324,0.013523,0.002678,0.000431,0.051947
168000,0.0324,0.013523,0.002678,0.000431,0.056178
169000,0.0324,0.013523,0.002678,0.000431,0.052183
170000,0.0324,0.013523,0.002678,0.000431,0.048422
171000,0.0324,0.013523,0.002678,0.000431,0.055591
172000,0.0324,0.013523,0.002678,0.000431,0.053710
173000,0.0324,0.013523,0.002678,0.000431,0.049244
174000,0.0324,0.013523,0.002678,0.000431,0.051007
175000,0.0324,0.013523,0.002678,0.000431,0.053828
176000,0.0324,0.013523,0.002678,0.000431,0.046659
177000,0.0324,0.013523,0.002678,0.000431,0.050302
178000,0.0324,0.013523,0.002678,0.000431,0.050420
179000,0.0324,0.013523,0.002678,0.000431,0.049832
180000,0.0324,0.013523,0.002678,0.000431,0.046424
181000,0.0324,0.013523,0.002678,0.000431,0.051360
182000,0.0324,0.013523,0.002678,0.000431,0.047246
183000,0.0324,0.013523,0.002678,0.000431,0.046189
184000,0.0324,0.013523,0.002678,0.000431,0.047951
185000,0.0324,0.013523,0.002678,0.000431,0.046659
186000,0.0324,0.013523,0.002678,0.000431,0.044778
187000,0.0324,0.013523,0.002678,0.000431,0.047716
188000,0.0324,0.013523,0.002678,0.000431,0.046659
189000,0.0324,0.013523,0.002678,0.000431,0.042545
190000,0.0324,0.013523,0.002678,0.000431,0.046306
191000,0.0324,0.013523,0.002678,0.000431,0.041723
192000,0.0324,0.013523,0.002678,0.000431,0.044543
193000,0.0324,0.013523,0.002678,0.000431,0.045718
194000,0.0324,0.013523,0.002678,0.000431,0.040782
195000,0.0324,0.013523,0.002678,0.000431,0.042310
196000,0.0324,0.013523,0.002678,0.000431,0.043720
197000,0.0324,0.013523,0.002678,0.000431,0.042663
198000,0.0324,0.013523,0.002678,0.000431,0.041370
199000,0.0324,0.013523,0.002678,0.000431,0.043015
200000,0.0324,0.013523,0.002678,0.000431,0.039725
201000,0.0324,0.013523,0.002678,0.000431,0.040665
202000,0.0324,0.013523,0.002678,0.000431,0.041958
203000,0.0324,0.013523,0.002678,0.000431,0.039725
204000,0.0324,0.013523,0.002678,0.000431,0.040312
205000,0.0324,0.013523,0.002678,0.000431,0.036316
206000,0.0324,0.013523,0.002678,0.000431,0.040900
207000,0.0324,0.013523,0.002678,0.000431,0.037256
208000,0.0324,0.013523,0.002678,0.000431,0.038314
209000,0.0324,0.013523,0.002678,0.000431,0.036669
210000,0.0324,0.013523,0.002678,0.000431,0.038314
211000,0.0324,0.013523,0.002678,0.000431,0.035729
212000,0.0324,0.013523,0.002678,0.000431,0.038079
213000,0.0324,0.013523,0.002678,0.000431,0.037021
214000,0.0324,0.013523,0.002678,0.000431,0.035729
215000,0.0324,0.013523,0.002678,0.000431,0.035729
216000,0.0324,0.013523,0.002678,0.000431,0.036316
217000,0.0324,0.013523,0.002678,0.000431,0.035729
218000,0.0324,0.013523,0.002678,0.000431,0.036786
219000,0.0324,0.013523,0.002678,0.000431,0.033496
220000,0.0324,0.013523,0.002678,0.000431,0.037139
221000,0.0324,0.013523,0.002678,0.000431,0.033966
222000,0.0324,0.013523,0.002678,0.000431,0.033143
223000,0.0324,0.013523,0.002678,0.000431,0.035376
224000,0.0324,0.013523,0.002678,0.000431,0.032320
225000,0.0324,0.013523,0.002678,0.000431,0.033848
226000,0.0324,0.013523,0.002678,0.000431,0.032438
227000,0.0324,0.013523,0.002678,0.000431,0.031615
228000,0.0324,0.013523,0.002678,0.000431,0.031968
229000,0.0324,0.013523,0.002678,0.000431,0.030440
230000,0.0324,0.013523,0.002678,0.000431,0.031615
231000,0.0324,0.013523,0.002678,0.000431,0.031027
232000,0.0324,0.013523,0.002678,0.000431,0.030557
233000,0.0324,0.013523,0.002678,0.000431,0.030910
234000,0.0324,0.013523,0.002678,0.000431,0.028559
235000,0.0324,0.013523,0.002678,0.000431,0.030675
236000,0.0324,0.013523,0.002678,0.000431,0.028912
237000,0.0324,0.013523,0.002678,0.000431,0.027619
238000,0.0324,0.013523,0.002678,0.000431,0.030910
239000,0.0324,0.013523,0.002678,0.000431,0.027149
240000,0.0324,0.013523,0.002678,0.000431,0.029382
241000,0.0324,0.013523,0.002678,0.000431,0.027972
242000,0.0324,0.013523,0.002678,0.000431,0.027502
243000,0.0324,0.013523,0.002678,0.000431,0.028207
244000,0.0324,0.013523,0.002678,0.000431,0.025151
245000,0.0324,0.013523,0.002678,0.000431,0.026326
246000,0.0324,0.013523,0.002678,0.000431,0.025739
247000,0.0324,0.013523,0.002678,0.000431,0.026444
248000,0.0324,0.013523,0.002678,0.000431,0.025621
249000,0.0324,0.013523,0.002678,0.000431,0.025504
250000,0.0324,0.013523,0.002678,0.000431,0.024446
251000,0.0324,0.013523,0.002678,0.000431,0.025269
252000,0.0324,0.013523,0.002678,0.000431,0.025621
253000,0.0324,0.013523,0.002678,0.000431,0.023153
254000,0.0324,0.013523,0.002678,0.000431,0.025034
255000,0.0324,0.013523,0.002678,0.000431,0.023036
256000,0.0324,0.013523,0.002678,0.000431,0.023271
257000,0.0324,0.013523,0.002678,0.000431,0.023506
258000,0.0324,0.013523,0.002678,0.000431,0.024093
259000,0.0324,0.013523,0.002678,0.000431,0.021508
260000,0.0324,0.013523,0.002678,0.000431,0.024093
261000,0.0324,0.013523,0.002678,0.000431,0.022683
262000,0.0324,0.013523,0.002678,0.000431,0.023271
263000,0.0324,0.013523,0.002678,0.000431,0.022683
264000,0.0324,0.013523,0.002678,0.000431,0.022565
265000,0.0324,0.013523,0.002678,0.000431,0.022683
266000,0.0324,0.013523,0.002678,0.000431,0.021038
267000,0.0324,0.013523,0.002678,0.000431,0.021625
268000,0.0324,0.013523,0.002678,0.000431,0.021625
269000,0.0324,0.013523,0.002678,0.000431,0.020802
270000,0.0324,0.013523,0.002678,0.000431,0.022330
271000,0.0324,0.013523,0.002678,0.000431,0.020332
272000,0.0324,0.013523,0.002678,0.000431,0.021038
273000,0.0324,0.013523,0.002678,0.000431,0.020920
274000,0.0324,0.013523,0.002678,0.000431,0.020215
275000,0.0324,0.013523,0.002678,0.000431,0.019275
276000,0.0324,0.013523,0.002678,0.000431,0.020685
277000,0.0324,0.013523,0.002678,0.000431,0.019510
278000,0.0324,0.013523,0.002678,0.000431,0.020802
279000,0.0324,0.013523,0.002678,0.000431,0.017629
280000,0.0324,0.013523,0.002678,0.000431,0.020215
281000,0.0324,0.013523,0.002678,0.000431,0.018922
282000,0.0324,0.013523,0.002678,0.000431,0.018334
283000,0.0324,0.013523,0.002678,0.000431,0.019275
284000,0.0324,0.013523,0.002678,0.000431,0.018805
285000,0.0324,0.013523,0.002678,0.000431,0.018452
286000,0.0324,0.013523,0.002678,0.000431,0.019745
287000,0.0324,0.013523,0.002678,0.000431,0.018334
288000,0.0324,0.013523,0.002678,0.000431,0.017747
289000,0.0324,0.013523,0.002678,0.000431,0.017982
290000,0.0324,0.013523,0.002678,0.000431,0.019040
291000,0.0324,0.013523,0.002678,0.000431,0.016689
292000,0.0324,0.013523,0.002678,0.000431,0.019392
293000,0.0324,0.013523,0.002678,0.000431,0.017277
294000,0.0324,0.013523,0.002678,0.000431,0.018217
295000,0.0324,0.013523,0.002678,0.000431,0.019040
296000,0.0324,0.013523,0.002678,0.000431,0.016807
297000,0.0324,0.013523,0.002678,0.000431,0.016101
298000,0.0324,0.013523,0.002678,0.000431,0.017277
299000,0.0324,0.013523,0.002678,0.000431,0.016689
300000,0.0324,0.013523,0.002678,0.000431,0.016689
301000,0.0324,0.013523,0.002678,0.000431,0.017159
302000,0.0324,0.013523,0.002678,0.000431,0.016689
303000,0.0324,0.013523,0.002678,0.000431,0.016924
304000,0.0324,0.013523,0.002678,0.000431,0.015631
305000,0.0324,0.013523,0.002678,0.000431,0.015984
306000,0.0324,0.013523,0.002678,0.000431,0.015514
307000,0.0324,0.013523,0.002678,0.000431,0.014809
308000,0.0324,0.013523,0.002678,0.000431,0.016219
309000,0.0324,0.013523,0.002678,0.000431,0.014809
310000,0.0324,0.013523,0.002678,0.000431,0.015631
311000,0.0324,0.013523,0.002678,0.000431,0.015749
312000,0.0324,0.013523,0.002678,0.000431,0.013986
313000,0.0324,0.013523,0.002678,0.000431,0.014573
314000,0.0324,0.013523,0.002678,0.000431,0.014573
315000,0.0324,0.013523,0.002678,0.000431,0.013751
316000,0.0324,0.013523,0.002678,0.000431,0.014456
317000,0.0324,0.013523,0.002678,0.000431,0.015514
318000,0.0324,0.013523,0.002678,0.000431,0.013281
319000,0.0324,0.013523,0.002678,0.000431,0.015044
320000,0.0324,0.013523,0.002678,0.000431,0.013868
321000,0.0324,0.013523,0.002678,0.000431,0.014691
322000,0.0324,0.013523,0.002678,0.000431,0.012340
323000,0.0324,0.013523,0.002678,0.000431,0.014338
324000,0.0324,0.013523,0.002678,0.000431,0.013046
325000,0.0324,0.013523,0.002678,0.000431,0.013986
326000,0.0324,0.013523,0.002678,0.000431,0.013516
327000,0.0324,0.013523,0.002678,0.000431,0.013398
328000,0.0324,0.013523,0.002678,0.000431,0.013046
329000,0.0324,0.013523,0.002678,0.000431,0.013163
330000,0.0324,0.013523,0.002678,0.000431,0.012105
331000,0.0324,0.013523,0.002678,0.000431,0.013398
332000,0.0324,0.013523,0.002678,0.000431,0.012105
333000,0.0324,0.013523,0.002678,0.000431,0.014103
334000,0.0324,0.013523,0.002678,0.000431,0.012340
335000,0.0324,0.013523,0.002678,0.000431,0.013163
336000,0.0324,0.013523,0.002678,0.000431,0.012811
337000,0.0324,0.013523,0.002678,0.000431,0.011753
338000,0.0324,0.013523,0.002678,0.000431,0.011988
339000,0.0324,0.013523,0.002678,0.000431,0.011870
340000,0.0324,0.013523,0.002678,0.000431,0.011400
341000,0.0324,0.013523,0.002678,0.000431,0.012340
342000,0.0324,0.013523,0.002678,0.000431,0.009990
343000,0.0324,0.013523,0.002678,0.000431,0.011988
344000,0.0324,0.013523,0.002678,0.000431,0.010578
345000,0.0324,0.013523,0.002678,0.000431,0.010225
346000,0.0324,0.013523,0.002678,0.000431,0.010107
347000,0.0324,0.013523,0.002678,0.000431,0.009872
348000,0.0324,0.013523,0.002678,0.000431,0.010460
349000,0.0324,0.013523,0.002678,0.000431,0.009990
350000,0.0324,0.013523,0.002678,0.000431,0.009872
351000,0.0324,0.013523,0.002678,0.000431,0.010107
352000,0.0324,0.013523,0.002678,0.000431,0.009637
353000,0.0324,0.013523,0.002678,0.000431,0.009167
354000,0.0324,0.013523,0.002678,0.000431,0.010107
355000,0.0324,0.013523,0.002678,0.000431,0.008580
356000,0.0324,0.013523,0.002678,0.000431,0.010225
357000,0.0324,0.013523,0.002678,0.000431,0.009285
358000,0.0324,0.013523,0.002678,0.000431,0.008815
359000,0.0324,0.013523,0.002678,0.000431,0.009167
360000,0.0324,0.013523,0.002678,0.000431,0.007757
361000,0.0324,0.013523,0.002678,0.000431,0.008227
362000,0.0324,0.013523,0.002678,0.000431,0.008345
363000,0.0324,0.013523,0.002678,0.000431,0.007287
364000,0.0324,0.013523,0.002678,0.000431,0.008345
365000,0.0324,0.013523,0.002678,0.000431,0.006934
366000,0.0324,0.013523,0.002678,0.000431,0.008580
367000,0.0324,0.013523,0.002678,0.000431,0.007052
368000,0.0324,0.013523,0.002678,0.000431,0.006582
369000,0.0324,0.013523,0.002678,0.000431,0.007639
370000,0.0324,0.013523,0.002678,0.000431,0.005994
371000,0.0324,0.013523,0.002678,0.000431,0.007052
372000,0.0324,0.013523,0.002678,0.000431,0.006464
373000,0.0324,0.013523,0.002678,0.000431,0.006464
374000,0.0324,0.013523,0.002678,0.000431,0.006582
375000,0.0324,0.013523,0.002678,0.000431,0.006582
376000,0.0324,0.013523,0.002678,0.000431,0.006347
377000,0.0324,0.013523,0.002678,0.000431,0.006229
378000,0.0324,0.013523,0.002678,0.000431,0.005876
379000,0.0324,0.013523,0.002678,0.000431,0.006347
380000,0.0324,0.013523,0.002678,0.000431,0.006229
381000,0.0324,0.013523,0.002678,0.000431,0.005406
382000,0.0324,0.013523,0.002678,0.000431,0.006934
383000,0.0324,0.013523,0.002678,0.000431,0.005759
384000,0.0324,0.013523,0.002678,0.000431,0.005876
385000,0.0324,0.013523,0.002678,0.000431,0.006111
386000,0.0324,0.013523,0.002678,0.000431,0.005759
387000,0.0324,0.013523,0.002678,0.000431,0.005524
388000,0.0324,0.013523,0.002678,0.000431,0.005406
389000,0.0324,0.013523,0.002678,0.000431,0.004701
390000,0.0324,0.013523,0.002678,0.000431,0.005641
391000,0.0324,0.013523,0.002678,0.000431,0.004936
392000,0.0324,0.013523,0.002678,0.000431,0.004936
393000,0.0324,0.013523,0.002678,0.000431,0.005289
394000,0.0324,0.013523,0.002678,0.000431,0.004231
395000,0.0324,0.013523,0.002678,0.000431,0.005171
396000,0.0324,0.013523,0.002678,0.000431,0.004231
397000,0.0324,0.013523,0.002678,0.000431,0.004584
398000,0.0324,0.013523,0.002678,0.000431,0.004819
399000,0.0324,0.013523,0.002678,0.000431,0.004349
400000,0.0324,0.013523,0.002678,0.000431,0.004584
401000,0.0324,0.013523,0.002678,0.000431,0.005171
402000,0.0324,0.013523,0.002678,0.000431,0.003878
403000,0.0324,0.013523,0.002678,0.000431,0.004584
404000,0.0324,0.013523,0.002678,0.000431,0.003291
405000,0.0324,0.013523,0.002678,0.000431,0.003643
406000,0.0324,0.013523,0.002678,0.000431,0.004584
407000,0.0324,0.013523,0.002678,0.000431,0.003643
408000,0.0324,0.013523,0.002678,0.000431,0.003878
409000,0.0324,0.013523,0.002678,0.000431,0.003761
410000,0.0324,0.013523,0.002678,0.000431,0.003643
411000,0.0324,0.013523,0.002678,0.000431,0.003761
412000,0.0324,0.013523,0.002678,0.000431,0.003408
413000,0.0324,0.013523,0.002678,0.000431,0.003643
414000,0.0324,0.013523,0.002678,0.000431,0.003996
415000,0.0324,0.013523,0.002678,0.000431,0.003761
416000,0.0324,0.013523,0.002678,0.000431,0.003761
417000,0.0324,0.013523,0.002678,0.000431,0.003526
418000,0.0324,0.013523,0.002678,0.000431,0.003056
419000,0.0324,0.013523,0.002678,0.000431,0.003761
420000,0.0324,0.013523,0.002678,0.000431,0.002703
421000,0.0324,0.013523,0.002678,0.000431,0.003056
422000,0.0324,0.013523,0.002678,0.000431,0.002938
423000,0.0324,0.013523,0.002678,0.000431,0.002586
424000,0.0324,0.013523,0.002678,0.000431,0.003526
425000,0.0324,0.013523,0.002678,0.000431,0.002351
426000,0.0324,0.013523,0.002678,0.000431,0.003056
427000,0.0324,0.013523,0.002678,0.000431,0.002938
428000,0.0324,0.013523,0.002678,0.000431,0.002351
429000,0.0324,0.013523,0.002678,0.000431,0.002586
430000,0.0324,0.013523,0.002678,0.000431,0.003173
431000,0.0324,0.013523,0.002678,0.000431,0.002233
432000,0.0324,0.013523,0.002678,0.000431,0.002938
433000,0.0324,0.013523,0.002678,0.000431,0.002468
434000,0.0324,0.013523,0.002678,0.000431,0.002703
435000,0.0324,0.013523,0.002678,0.000431,0.003056
436000,0.0324,0.013523,0.002678,0.000431,0.002468
437000,0.0324,0.013523,0.002678,0.000431,0.002586
438000,0.0324,0.013523,0.002678,0.000431,0.002821
439000,0.0324,0.013523,0.002678,0.000431,0.001998
440000,0.0324,0.013523,0.002678,0.000431,0.002821
441000,0.0324,0.013523,0.002678,0.000431,0.002586
442000,0.0324,0.013523,0.002678,0.000431,0.002586
443000,0.0324,0.013523,0.002678,0.000431,0.002703
444000,0.0324,0.013523,0.002678,0.000431,0.002586
445000,0.0324,0.013523,0.002678,0.000431,0.002703
446000,0.0324,0.013523,0.002678,0.000431,0.002586
447000,0.0324,0.013523,0.002678,0.000431,0.002233
448000,0.0324,0.013523,0.002678,0.000431,0.002703
449000,0.0324,0.013523,0.002678,0.000431,0.002468
450000,0.0324,0.013523,0.002678,0.000431,0.002233
451000,0.0324,0.013523,0.002678,0.000431,0.002468
452000,0.0324,0.013523,0.002678,0.000431,0.001645
453000,0.0324,0.013523,0.002678,0.000431,0.001763
454000,0.0324,0.013523,0.002678,0.000431,0.002233
455000,0.0324,0.013523,0.002678,0.000431,0.001293
456000,0.0324,0.013523,0.002678,0.000431,0.002116
457000,0.0324,0.013523,0.002678,0.000431,0.001880
458000,0.0324,0.013523,0.002678,0.000431,0.001175
459000,0.0324,0.013523,0.002678,0.000431,0.001763
460000,0.0324,0.013523,0.002678,0.000431,0.001645
461000,0.0324,0.013523,0.002678,0.000431,0.001175
462000,0.0324,0.013523,0.002678,0.000431,0.001763
463000,0.0324,0.013523,0.002678,0.000431,0.001528
464000,0.0324,0.013523,0.002678,0.000431,0.001410
465000,0.0324,0.013523,0.002678,0.000431,0.001763
466000,0.0324,0.013523,0.002678,0.000431,0.001410
467000,0.0324,0.013523,0.002678,0.000431,0.001645
468000,0.0324,0.013523,0.002678,0.000431,0.001175
469000,0.0324,0.013523,0.002678,0.000431,0.001058
470000,0.0324,0.013523,0.002678,0.000431,0.001763
471000,0.0324,0.013523,0.002678,0.000431,0.001058
472000,0.0324,0.013523,0.002678,0.000431,0.001175
473000,0.0324,0.013523,0.002678,0.000431,0.001410
474000,0.0324,0.013523,0.002678,0.000431,0.000823
475000,0.0324,0.013523,0.002678,0.000431,0.001058
476000,0.0324,0.013523,0.002678,0.000431,0.001293
477000,0.0324,0.013523,0.002678,0.000431,0.000940
478000,0.0324,0.013523,0.002678,0.000431,0.001410
479000,0.0324,0.013523,0.002678,0.000431,0.000823
480000,0.0324,0.013523,0.002678,0.000431,0.000705
481000,0.0324,0.013523,0.002678,0.000431,0.001293
482000,0.0324,0.013523,0.002678,0.000431,0.000588
483000,0.0324,0.013523,0.002678,0.000431,0.000823
484000,0.0324,0.013523,0.002678,0.000431,0.000823
485000,0.0324,0.013523,0.002678,0.000431,0.000470
486000,0.0324,0.013523,0.002678,0.000431,0.000823
487000,0.0324,0.013523,0.002678,0.000431,0.000588
488000,0.0324,0.013523,0.002678,0.000431,0.000588
489000,0.0324,0.013523,0.002678,0.000431,0.000940
490000,0.0324,0.013523,0.002678,0.000431,0.000353
491000,0.0324,0.013523,0.002678,0.000431,0.001058
492000,0.0324,0.013523,0.002678,0.000431,0.000353
493000,0.0324,0.013523,0.002678,0.000431,0.000588
494000,0.0324,0.013523,0.002678,0.000431,0.000705
495000,0.0324,0.013523,0.002678,0.000431,0.000470
496000,0.0324,0.013523,0.002678,0.000431,0.000823
497000,0.0324,0.013523,0.002678,0.000431,0.000353
498000,0.0324,0.013523,0.002678,0.000431,0.000705
499000,0.0324,0.013523,0.002678,0.000431,0.000588
500000,0.0324,0.013523,0.002678,0.000431,0.000470
501000,0.0324,0.013523,0.002678,0.000431,0.000588
502000,0.0324,0.013523,0.002678,0.000431,0.000353
503000,0.0324,0.013523,0.002678,0.000431,0.000588
504000,0.0324,0.013523,0.002678,0.000431,0.000353
505000,0.0324,0.013523,0.002678,0.000431,0.000588
506000,0.0324,0.013523,0.002678,0.000431,0.000470
507000,0.0324,0.013523,0.002678,0.000431,0.000470
508000,0.0324,0.013523,0.002678,0.000431,0.000588
509000,0.0324,0.013523,0.002678,0.000431,0.000353
510000,0.0324,0.013523,0.002678,0.000431,0.000588
511000,0.0324,0.013523,0.002678,0.000431,0.000353
512000,0.0324,0.013523,0.002678,0.000431,0.000588
513000,0.0324,0.013523,0.002678,0.000431,0.000353
514000,0.0324,0.013523,0.002678,0.000431,0.000588
515000,0.0324,0.013523,0.002678,0.000431,0.000353
516000,0.0324,0.013523,0.002678,0.000431,0.000470
517000,0.0324,0.013523,0.002678,0.000431,0.000470
518000,0.0324,0.013523,0.002678,0.000431,0.000353
519000,0.0324,0.013523,0.002678,0.000431,0.000588
520000,0.0324,0.013523,0.002678,0.000431,0.000353
521000,0.0324,0.013523,0.002678,0.000431,0.000588
522000,0.0324,0.013523,0.002678,0.000431,0.000353
523000,0.0324,0.013523,0.002678,0.000431,0.000470
524000,0.0324,0.013523,0.002678,0.000431,0.000470
525000,0.0324,0.013523,0.002678,0.000431,0.000470
526000,0.0324,0.013523,0.002678,0.000431,0.000353
527000,0.0324,0.013523,0.002678,0.000431,0.000588
528000,0.0324,0.013523,0.002678,0.000431,0.000235
529000,0.0324,0.013523,0.002678,0.000431,0.000705
530000,0.0324,0.013523,0.002678,0.000431,0.000235
531000,0.0324,0.013523,0.002678,0.000431,0.000588
532000,0.0324,0.013523,0.002678,0.000431,0.000353
533000,0.0324,0.013523,0.002678,0.000431,0.000470
534000,0.0324,0.013523,0.002678,0.000431,0.000470
535000,0.0324,0.013523,0.002678,0.000431,0.000470
536000,0.0324,0.013523,0.002678,0.000431,0.000353
537000,0.0324,0.013523,0.002678,0.000431,0.000588
538000,0.0324,0.013523,0.002678,0.000431,0.000353
539000,0.0324,0.013523,0.002678,0.000431,0.000588
540000,0.0324,0.013523,0.002678,0.000431,0.000353
541000,0.0324,0.013523,0.002678,0.000431,0.000470
542000,0.0324,0.013523,0.002678,0.000431,0.000470
543000,0.0324,0.013523,0.002678,0.000431,0.000353
544000,0.0324,0.013523,0.002678,0.000431,0.000588
545000,0.0324,0.013523,0.002678,0.000431,0.000353
546000,0.0324,0.013523,0.002678,0.000431,0.000588
547000,0.0324,0.013523,0.002678,0.000431,0.000353
548000,0.0324,0.013523,0.002678,0.000431,0.000470
549000,0.0324,0.013523,0.002678,0.000431,0.000353
550000,0.0324,0.013523,0.002678,0.000431,0.000588
551000,0.0324,0.013523,0.002678,0.000431,0.000353
552000,0.0324,0.013523,0.002678,0.000431,0.000588
553000,0.0324,0.013523,0.002678,0.000431,0.000235
554000,0.0324,0.013523,0.002678,0.000431,0.000588
555000,0.0324,0.013523,0.002678,0.000431,0.000353
556000,0.0324,0.013523,0.002678,0.000431,0.000588
557000,0.0324,0.013523,0.002678,0.000431,0.000353
558000,0.0324,0.013523,0.002678,0.000431,0.000470
559000,0.0324,0.013523,0.002678,0.000431,0.000353
560000,0.0324,0.013523,0.002678,0.000431,0.000588
561000,0.0324,0.013523,0.002678,0.000431,0.000353
562000,0.0324,0.013523,0.002678,0.000431,0.000588
563000,0.0324,0.013523,0.002678,0.000431,0.000353
564000,0.0324,0.013523,0.002678,0.000431,0.000470
565000,0.0324,0.013523,0.002678,0.000431,0.000470
566000,0.0324,0.013523,0.002678,0.000431,0.000353
567000,0.0324,0.013523,0.002678,0.000431,0.000588
568000,0.0324,0.013523,0.002678,0.000431,0.000353
569000,0.0324,0.013523,0.002678,0.000431,0.000588
570000,0.0324,0.013523,0.002678,0.000431,0.000353
571000,0.0324,0.013523,0.002678,0.000431,0.000470
572000,0.0324,0.013523,0.002678,0.000431,0.000470
573000,0.0324,0.013523,0.002678,0.000431,0.000353
574000,0.0324,0.013523,0.002678,0.000431,0.000353
575000,0.0324,0.013523,0.002678,0.000431,0.000353
576000,0.0324,0.013523,0.002678,0.000431,0.000470
577000,0.0324,0.013523,0.002678,0.000431,0.000353
578000,0.0324,0.013523,0.002678,0.000431,0.000470
579000,0.0324,0.013523,0.002678,0.000431,0.000353
580000,0.0324,0.013523,0.002678,0.000431,0.000470
581000,0.0324,0.013523,0.002678,0.000431,0.000353
582000,0.0324,0.013523,0.002678,0.000431,0.000353
583000,0.0324,0.013523,0.002678,0.000431,0.000470
584000,0.0324,0.013523,0.002678,0.000431,0.000353
585000,0.0324,0.013523,0.002678,0.000431,0.000470
586000,0.0324,0.013523,0.002678,0.000431,0.000353
587000,0.0324,0.013523,0.002678,0.000431,0.000470
588000,0.0324,0.013523,0.002678,0.000431,0.000353
589000,0.0324,0.013523,0.002678,0.000431,0.000353
590000,0.0324,0.013523,0.002678,0.000431,0.000470
591000,0.0324,0.013523,0.002678,0.000431,0.000353
592000,0.0324,0.013523,0.002678,0.000431,0.000470
593000,0.0324,0.013523,0.002678,0.000431,0.000235
594000,0.0324,0.013523,0.002678,0.000431,0.000588
595000,0.0324,0.013523,0.002678,0.000431,0.000353
596000,0.0324,0.013523,0.002678,0.000431,0.000353
597000,0.0324,0.013523,0.002678,0.000431,0.000353
598000,0.0324,0.013523,0.002678,0.000431,0.000353
599000,0.0324,0.013523,0.002678,0.000431,0.000588
600000,0.0324,0.013523,0.002678,0.000431,0.000235
601000,0.0324,0.013523,0.002678,0.000431,0.000470
602000,0.0324,0.013523,0.002678,0.000431,0.000353
603000,0.0324,0.013523,0.002678,0.000431,0.000470
604000,0.0324,0.013523,0.002678,0.000431,0.000353
605000,0.0324,0.013523,0.002678,0.000431,0.000353
606000,0.0324,0.013523,0.002678,0.000431,0.000470
607000,0.0324,0.013523,0.002678,0.000431,0.000353
608000,0.0324,0.013523,0.002678,0.000431,0.000470
609000,0.0324,0.013523,0.002678,0.000431,0.000353
610000,0.0324,0.013523,0.002678,0.000431,0.000470
611000,0.0324,0.013523,0.002678,0.000431,0.000353
612000,0.0324,0.013523,0.002678,0.000431,0.000353
613000,0.0324,0.013523,0.002678,0.000431,0.000470
614000,0.0324,0.013523,0.002678,0.000431,0.000353
615000,0.0324,0.013523,0.002678,0.000431,0.000470
616000,0.0324,0.013523,0.002678,0.000431,0.000235
617000,0.0324,0.013523,0.002678,0.000431,0.000588
618000,0.0324,0.013523,0.002678,0.000431,0.000353
619000,0.0324,0.013523,0.002678,0.000431,0.000353
620000,0.0324,0.013523,0.002678,0.000431,0.000353
621000,0.0324,0.013523,0.002678,0.000431,0.000353
622000,0.0324,0.013523,0.002678,0.000431,0.000588
623000,0.0324,0.013523,0.002678,0.000431,0.000235
624000,0.0324,0.013523,0.002678,0.000431,0.000470
625000,0.0324,0.013523,0.002678,0.000431,0.000470
626000,0.0324,0.013523,0.002678,0.000431,0.000353
627000,0.0324,0.013523,0.002678,0.000431,0.000353
628000,0.0324,0.013523,0.002678,0.000431,0.000353
629000,0.0324,0.013523,0.002678,0.000431,0.000470
630000,0.0324,0.013523,0.002678,0.000431,0.000353
631000,0.0324,0.013523,0.002678,0.000431,0.000470
632000,0.0324,0.013523,0.002678,0.000431,0.000353
633000,0.0324,0.013523,0.002678,0.000431,0.000470
634000,0.0324,0.013523,0.002678,0.000431,0.000353
635000,0.0324,0.013523,0.002678,0.000431,0.000353
636000,0.0324,0.013523,0.002678,0.000431,0.000470
637000,0.0324,0.013523,0.002678,0.000431,0.000353
638000,0.0324,0.013523,0.002678,0.000431,0.000353
639000,0.0324,0.013523,0.002678,0.000431,0.000353
640000,0.0324,0.013523,0.002678,0.000431,0.000235
641000,0.0324,0.013523,0.002678,0.000431,0.000353
642000,0.0324,0.013523,0.002678,0.000431,0.000470
643000,0.0324,0.013523,0.002678,0.000431,0.000118
644000,0.0324,0.013523,0.002678,0.000431,0.000353
645000,0.0324,0.013523,0.002678,0.000431,0.000470
646000,0.0324,0.013523,0.002678,0.000431,0.000235
647000,0.0324,0.013523,0.002678,0.000431,0.000235
648000,0.0324,0.013523,0.002678,0.000431,0.000470
649000,0.0324,0.013523,0.002678,0.000431,0.000353
650000,0.0324,0.013523,0.002678,0.000431,0.000235
651000,0.0324,0.013523,0.002678,0.000431,0.000353
652000,0.0324,0.013523,0.002678,0.000431,0.000353
653000,0.0324,0.013523,0.002678,0.000431,0.000235
654000,0.0324,0.013523,0.002678,0.000431,0.000353
655000,0.0324,0.013523,0.002678,0.000431,0.000353
656000,0.0324,0.013523,0.002678,0.000431,0.000235
657000,0.0324,0.013523,0.002678,0.000431,0.000353
658000,0.0324,0.013523,0.002678,0.000431,0.000470
659000,0.0324,0.013523,0.002678,0.000431,0.000235
660000,0.0324,0.013523,0.002678,0.000431,0.000235
661000,0.0324,0.013523,0.002678,0.000431,0.000470
662000,0.0324,0.013523,0.002678,0.000431,0.000353
663000,0.0324,0.013523,0.002678,0.000431,0.000235
664000,0.0324,0.013523,0.002678,0.000431,0.000353
665000,0.0324,0.013523,0.002678,0.000431,0.000353
666000,0.0324,0.013523,0.002678,0.000431,0.000235
667000,0.0324,0.013523,0.002678,0.000431,0.000353
668000,0.0324,0.013523,0.002678,0.000431,0.000353
669000,0.0324,0.013523,0.002678,0.000431,0.000235
670000,0.0324,0.013523,0.002678,0.000431,0.000353
671000,0.0324,0.013523,0.002678,0.000431,0.000470
672000,0.0324,0.013523,0.002678,0.000431,0.000235
673000,0.0324,0.013523,0.002678,0.000431,0.000235
674000,0.0324,0.013523,0.002678,0.000431,0.000470
675000,0.0324,0.013523,0.002678,0.000431,0.000353
676000,0.0324,0.013523,0.002678,0.000431,0.000118
677000,0.0324,0.013523,0.002678,0.000431,0.000470
678000,0.0324,0.013523,0.002678,0.000431,0.000353
679000,0.0324,0.013523,0.002678,0.000431,0.000235
680000,0.0324,0.013523,0.002678,0.000431,0.000353
681000,0.0324,0.013523,0.002678,0.000431,0.000353
682000,0.0324,0.013523,0.002678,0.000431,0.000235
683000,0.0324,0.013523,0.002678,0.000431,0.000353
684000,0.0324,0.013523,0.002678,0.000431,0.000470
685000,0.0324,0.013523,0.002678,0.000431,0.000235
686000,0.0324,0.013523,0.002678,0.000431,0.000235
687000,0.0324,0.013523,0.002678,0.000431,0.000470
688000,0.0324,0.013523,0.002678,0.000431,0.000235
689000,0.0324,0.013523,0.002678,0.000431,0.000235
690000,0.0324,0.013523,0.002678,0.000431,0.000470
691000,0.0324,0.013523,0.002678,0.000431,0.000353
692000,0.0324,0.013523,0.002678,0.000431,0.000235
693000,0.0324,0.013523,0.002678,0.000431,0.000353
694000,0.0324,0.013523,0.002678,0.000431,0.000353
695000,0.0324,0.013523,0.002678,0.000431,0.000235
696000,0.0324,0.013523,0.002678,0.000431,0.000353
697000,0.0324,0.013523,0.002678,0.000431,0.000353
698000,0.0324,0.013523,0.002678,0.000431,0.000235
699000,0.0324,0.013523,0.002678,0.000431,0.000353
700000,0.0324,0.013523,0.002678,0.000431,0.000470
701000,0.0324,0.013523,0.002678,0.000431,0.000235
702000,0.0324,0.013523,0.002678,0.000431,0.000235
703000,0.0324,0.013523,0.002678,0.000431,0.000470
704000,0.0324,0.013523,0.002678,0.000431,0.000353
705000,0.0324,0.013523,0.002678,0.000431,0.000235
706000,0.0324,0.013523,0.002678,0.000431,0.000353
707000,0.0324,0.013523,0.002678,0.000431,0.000353
708000,0.0324,0.013523,0.002678,0.000431,0.000235
709000,0.0324,0.013523,0.002678,0.000431,0.000353
710000,0.0324,0.013523,0.002678,0.000431,0.000353
711000,0.0324,0.013523,0.002678,0.000431,0.000235
712000,0.0324,0.013523,0.002678,0.000431,0.000353
713000,0.0324,0.013523,0.002678,0.000431,0.000470
714000,0.0324,0.013523,0.002678,0.000431,0.000235
715000,0.0324,0.013523,0.002678,0.000431,0.000235
716000,0.0324,0.013523,0.002678,0.000431,0.000470
717000,0.0324,0.013523,0.002678,0.000431,0.000353
718000,0.0324,0.013523,0.002678,0.000431,0.000235
719000,0.0324,0.013523,0.002678,0.000431,0.000353
720000,0.0324,0.013523,0.002678,0.000431,0.000353
721000,0.0324,0.013523,0.002678,0.000431,0.000235
722000,0.0324,0.013523,0.002678,0.000431,0.000353
723000,0.0324,0.013523,0.002678,0.000431,0.000353
724000,0.0324,0.013523,0.002678,0.000431,0.000235
725000,0.0324,0.013523,0.002678,0.000431,0.000353
726000,0.0324,0.013523,0.002678,0.000431,0.000470
727000,0.0324,0.013523,0.002678,0.000431,0.000235
728000,0.0324,0.013523,0.002678,0.000431,0.000235
729000,0.0324,0.013523,0.002678,0.000431,0.000470
730000,0.0324,0.013523,0.002678,0.000431,0.000235
731000,0.0324,0.013523,0.002678,0.000431,0.000235
732000,0.0324,0.013523,0.002678,0.000431,0.000235
733000,0.0324,0.013523,0.002678,0.000431,0.000235
734000,0.0324,0.013523,0.002678,0.000431,0.000235
735000,0.0324,0.013523,0.002678,0.000431,0.000235
736000,0.0324,0.013523,0.002678,0.000431,0.000235
737000,0.0324,0.013523,0.002678,0.000431,0.000118
738000,0.0324,0.013523,0.002678,0.000431,0.000235
739000,0.0324,0.013523,0.002678,0.000431,0.000118
740000,0.0324,0.013523,0.002678,0.000431,0.000235
741000,0.0324,0.013523,0.002678,0.000431,0.000235
742000,0.0324,0.013523,0.002678,0.000431,0.000235
743000,0.0324,0.013523,0.002678,0.000431,0.000235
744000,0.0324,0.013523,0.002678,0.000431,0.000235
745000,0.0324,0.013523,0.002678,0.000431,0.000118
746000,0.0324,0.013523,0.002678,0.000431,0.000235
747000,0.0324,0.013523,0.002678,0.000431,0.000118
748000,0.0324,0.013523,0.002678,0.000431,0.000235
749000,0.0324,0.013523,0.002678,0.000431,0.000235
750000,0.0324,0.013523,0.002678,0.000431,0.000235
751000,0.0324,0.013523,0.002678,0.000431,0.000235
752000,0.0324,0.013523,0.002678,0.000431,0.000235
753000,0.0324,0.013523,0.002678,0.000431,0.000235
754000,0.0324,0.013523,0.002678,0.000431,0.000118
755000,0.0324,0.013523,0.002678,0.000431,0.000235
756000,0.0324,0.013523,0.002678,0.000431,0.000118
757000,0.0324,0.013523,0.002678,0.000431,0.000235
758000,0.0324,0.013523,0.002678,0.000431,0.000235
759000,0.0324,0.013523,0.002678,0.000431,0.000235
760000,0.0324,0.013523,0.002678,0.000431,0.000235
761000,0.0324,0.013523,0.002678,0.000431,0.000235
762000,0.0324,0.013523,0.002678,0.000431,0.000118
763000,0.0324,0.013523,0.002678,0.000431,0.000235
764000,0.0324,0.013523,0.002678,0.000431,0.000118
765000,0.0324,0.013523,0.002678,0.000431,0.000235
766000,0.0324,0.013523,0.002678,0.000431,0.000235
767000,0.0324,0.013523,0.002678,0.000431,0.000235
768000,0.0324,0.013523,0.002678,0.000431,0.000235
769000,0.0324,0.013523,0.002678,0.000431,0.000235
770000,0.0324,0.013523,0.002678,0.000431,0.000118
771000,0.0324,0.013523,0.002678,0.000431,0.000235
772000,0.0324,0.013523,0.002678,0.000431,0.000235
