Cycle,Area(mm^2),PeakDynamic(W),SubthresholdLeakage(W),GateLeakage(W),RunTimeDynamic(W)
1000,0.0324,0.013523,0.002678,0.000431,0.005289
2000,0.0324,0.013523,0.002678,0.000431,0.000000
3000,0.0324,0.013523,0.002678,0.000431,0.000000
4000,0.0324,0.013523,0.002678,0.000431,0.000000
5000,0.0324,0.013523,0.002678,0.000431,0.000000
6000,0.0324,0.013523,0.002678,0.000431,0.044896
7000,0.0324,0.013523,0.002678,0.000431,0.017747
8000,0.0324,0.013523,0.002678,0.000431,0.008345
9000,0.0324,0.013523,0.002678,0.000431,0.004584
10000,0.0324,0.013523,0.002678,0.000431,0.011400
11000,0.0324,0.013523,0.002678,0.000431,0.010460
12000,0.0324,0.013523,0.002678,0.000431,0.006817
13000,0.0324,0.013523,0.002678,0.000431,0.006347
14000,0.0324,0.013523,0.002678,0.000431,0.007404
15000,0.0324,0.013523,0.002678,0.000431,0.005406
16000,0.0324,0.013523,0.002678,0.000431,0.007052
17000,0.0324,0.013523,0.002678,0.000431,0.007992
18000,0.0324,0.013523,0.002678,0.000431,0.007287
19000,0.0324,0.013523,0.002678,0.000431,0.007287
20000,0.0324,0.013523,0.002678,0.000431,0.006229
21000,0.0324,0.013523,0.002678,0.000431,0.008109
22000,0.0324,0.013523,0.002678,0.000431,0.006111
23000,0.0324,0.013523,0.002678,0.000431,0.006229
24000,0.0324,0.013523,0.002678,0.000431,0.006582
25000,0.0324,0.013523,0.002678,0.000431,0.008227
26000,0.0324,0.013523,0.002678,0.000431,0.008697
27000,0.0324,0.013523,0.002678,0.000431,0.004936
28000,0.0324,0.013523,0.002678,0.000431,0.007052
29000,0.0324,0.013523,0.002678,0.000431,0.008462
30000,0.0324,0.013523,0.002678,0.000431,0.006582
31000,0.0324,0.013523,0.002678,0.000431,0.008109
32000,0.0324,0.013523,0.002678,0.000431,0.006111
33000,0.0324,0.013523,0.002678,0.000431,0.008462
34000,0.0324,0.013523,0.002678,0.000431,0.009285
35000,0.0324,0.013523,0.002678,0.000431,0.006817
36000,0.0324,0.013523,0.002678,0.000431,0.007992
37000,0.0324,0.013523,0.002678,0.000431,0.007522
38000,0.0324,0.013523,0.002678,0.000431,0.005759
39000,0.0324,0.013523,0.002678,0.000431,0.005289
40000,0.0324,0.013523,0.002678,0.000431,0.009167
41000,0.0324,0.013523,0.002678,0.000431,0.005524
42000,0.0324,0.013523,0.002678,0.000431,0.007757
43000,0.0324,0.013523,0.002678,0.000431,0.006111
44000,0.0324,0.013523,0.002678,0.000431,0.005289
45000,0.0324,0.013523,0.002678,0.000431,0.009285
46000,0.0324,0.013523,0.002678,0.000431,0.007639
47000,0.0324,0.013523,0.002678,0.000431,0.005524
48000,0.0324,0.013523,0.002678,0.000431,0.007052
49000,0.0324,0.013523,0.002678,0.000431,0.005994
50000,0.0324,0.013523,0.002678,0.000431,0.005876
51000,0.0324,0.013523,0.002678,0.000431,0.006817
52000,0.0324,0.013523,0.002678,0.000431,0.010342
53000,0.0324,0.013523,0.002678,0.000431,0.006229
54000,0.0324,0.013523,0.002678,0.000431,0.008815
55000,0.0324,0.013523,0.002678,0.000431,0.005406
56000,0.0324,0.013523,0.002678,0.000431,0.005994
57000,0.0324,0.013523,0.002678,0.000431,0.005876
58000,0.0324,0.013523,0.002678,0.000431,0.007992
59000,0.0324,0.013523,0.002678,0.000431,0.005289
60000,0.0324,0.013523,0.002678,0.000431,0.009285
61000,0.0324,0.013523,0.002678,0.000431,0.005994
62000,0.0324,0.013523,0.002678,0.000431,0.005524
63000,0.0324,0.013523,0.002678,0.000431,0.004584
64000,0.0324,0.013523,0.002678,0.000431,0.007639
65000,0.0324,0.013523,0.002678,0.000431,0.007169
66000,0.0324,0.013523,0.002678,0.000431,0.005289
67000,0.0324,0.013523,0.002678,0.000431,0.008580
68000,0.0324,0.013523,0.002678,0.000431,0.005876
69000,0.0324,0.013523,0.002678,0.000431,0.005524
70000,0.0324,0.013523,0.002678,0.000431,0.003996
71000,0.0324,0.013523,0.002678,0.000431,0.008932
72000,0.0324,0.013523,0.002678,0.000431,0.004701
73000,0.0324,0.013523,0.002678,0.000431,0.007522
74000,0.0324,0.013523,0.002678,0.000431,0.004701
75000,0.0324,0.013523,0.002678,0.000431,0.009637
76000,0.0324,0.013523,0.002678,0.000431,0.005054
77000,0.0324,0.013523,0.002678,0.000431,0.008345
78000,0.0324,0.013523,0.002678,0.000431,0.004584
79000,0.0324,0.013523,0.002678,0.000431,0.004113
80000,0.0324,0.013523,0.002678,0.000431,0.008580
81000,0.0324,0.013523,0.002678,0.000431,0.006464
82000,0.0324,0.013523,0.002678,0.000431,0.005876
83000,0.0324,0.013523,0.002678,0.000431,0.007992
84000,0.0324,0.013523,0.002678,0.000431,0.005876
85000,0.0324,0.013523,0.002678,0.000431,0.007287
86000,0.0324,0.013523,0.002678,0.000431,0.005876
87000,0.0324,0.013523,0.002678,0.000431,0.006111
88000,0.0324,0.013523,0.002678,0.000431,0.006582
89000,0.0324,0.013523,0.002678,0.000431,0.005876
90000,0.0324,0.013523,0.002678,0.000431,0.008109
91000,0.0324,0.013523,0.002678,0.000431,0.003996
92000,0.0324,0.013523,0.002678,0.000431,0.005289
93000,0.0324,0.013523,0.002678,0.000431,0.006111
94000,0.0324,0.013523,0.002678,0.000431,0.010460
95000,0.0324,0.013523,0.002678,0.000431,0.005524
96000,0.0324,0.013523,0.002678,0.000431,0.005641
97000,0.0324,0.013523,0.002678,0.000431,0.003408
98000,0.0324,0.013523,0.002678,0.000431,0.008815
99000,0.0324,0.013523,0.002678,0.000431,0.004701
100000,0.0324,0.013523,0.002678,0.000431,0.008345
101000,0.0324,0.013523,0.002678,0.000431,0.005171
102000,0.0324,0.013523,0.002678,0.000431,0.006229
103000,0.0324,0.013523,0.002678,0.000431,0.004466
104000,0.0324,0.013523,0.002678,0.000431,0.006229
105000,0.0324,0.013523,0.002678,0.000431,0.005524
106000,0.0324,0.013523,0.002678,0.000431,0.008227
107000,0.0324,0.013523,0.002678,0.000431,0.003173
108000,0.0324,0.013523,0.002678,0.000431,0.006464
109000,0.0324,0.013523,0.002678,0.000431,0.003643
110000,0.0324,0.013523,0.002678,0.000431,0.008345
111000,0.0324,0.013523,0.002678,0.000431,0.005641
112000,0.0324,0.013523,0.002678,0.000431,0.003996
113000,0.0324,0.013523,0.002678,0.000431,0.005641
114000,0.0324,0.013523,0.002678,0.000431,0.006111
115000,0.0324,0.013523,0.002678,0.000431,0.006817
116000,0.0324,0.013523,0.002678,0.000431,0.006111
117000,0.0324,0.013523,0.002678,0.000431,0.005289
118000,0.0324,0.013523,0.002678,0.000431,0.004349
119000,0.0324,0.013523,0.002678,0.000431,0.006347
120000,0.0324,0.013523,0.002678,0.000431,0.006464
121000,0.0324,0.013523,0.002678,0.000431,0.005994
122000,0.0324,0.013523,0.002678,0.000431,0.003408
123000,0.0324,0.013523,0.002678,0.000431,0.006817
124000,0.0324,0.013523,0.002678,0.000431,0.005171
125000,0.0324,0.013523,0.002678,0.000431,0.007052
126000,0.0324,0.013523,0.002678,0.000431,0.004113
127000,0.0324,0.013523,0.002678,0.000431,0.003056
128000,0.0324,0.013523,0.002678,0.000431,0.007052
129000,0.0324,0.013523,0.002678,0.000431,0.006582
130000,0.0324,0.013523,0.002678,0.000431,0.005171
131000,0.0324,0.013523,0.002678,0.000431,0.004701
132000,0.0324,0.013523,0.002678,0.000431,0.005406
133000,0.0324,0.013523,0.002678,0.000431,0.005289
134000,0.0324,0.013523,0.002678,0.000431,0.006464
135000,0.0324,0.013523,0.002678,0.000431,0.003643
136000,0.0324,0.013523,0.002678,0.000431,0.005876
137000,0.0324,0.013523,0.002678,0.000431,0.005171
138000,0.0324,0.013523,0.002678,0.000431,0.005406
139000,0.0324,0.013523,0.002678,0.000431,0.005289
140000,0.0324,0.013523,0.002678,0.000431,0.006111
141000,0.0324,0.013523,0.002678,0.000431,0.003526
142000,0.0324,0.013523,0.002678,0.000431,0.006111
143000,0.0324,0.013523,0.002678,0.000431,0.004466
144000,0.0324,0.013523,0.002678,0.000431,0.006699
145000,0.0324,0.013523,0.002678,0.000431,0.004819
146000,0.0324,0.013523,0.002678,0.000431,0.005289
147000,0.0324,0.013523,0.002678,0.000431,0.004113
148000,0.0324,0.013523,0.002678,0.000431,0.005054
149000,0.0324,0.013523,0.002678,0.000431,0.005641
150000,0.0324,0.013523,0.002678,0.000431,0.007169
151000,0.0324,0.013523,0.002678,0.000431,0.003878
152000,0.0324,0.013523,0.002678,0.000431,0.005406
153000,0.0324,0.013523,0.002678,0.000431,0.004584
154000,0.0324,0.013523,0.002678,0.000431,0.007169
155000,0.0324,0.013523,0.002678,0.000431,0.003056
156000,0.0324,0.013523,0.002678,0.000431,0.005876
157000,0.0324,0.013523,0.002678,0.000431,0.004349
158000,0.0324,0.013523,0.002678,0.000431,0.007522
159000,0.0324,0.013523,0.002678,0.000431,0.003408
160000,0.0324,0.013523,0.002678,0.000431,0.003761
161000,0.0324,0.013523,0.002678,0.000431,0.007169
162000,0.0324,0.013523,0.002678,0.000431,0.006229
163000,0.0324,0.013523,0.002678,0.000431,0.005171
164000,0.0324,0.013523,0.002678,0.000431,0.003761
165000,0.0324,0.013523,0.002678,0.000431,0.006582
166000,0.0324,0.013523,0.002678,0.000431,0.005054
167000,0.0324,0.013523,0.002678,0.000431,0.004936
168000,0.0324,0.013523,0.002678,0.000431,0.004936
169000,0.0324,0.013523,0.002678,0.000431,0.005876
170000,0.0324,0.013523,0.002678,0.000431,0.004466
171000,0.0324,0.013523,0.002678,0.000431,0.004349
172000,0.0324,0.013523,0.002678,0.000431,0.005171
173000,0.0324,0.013523,0.002678,0.000431,0.005994
174000,0.0324,0.013523,0.002678,0.000431,0.004701
175000,0.0324,0.013523,0.002678,0.000431,0.003291
176000,0.0324,0.013523,0.002678,0.000431,0.005994
177000,0.0324,0.013523,0.002678,0.000431,0.005289
178000,0.0324,0.013523,0.002678,0.000431,0.005406
179000,0.0324,0.013523,0.002678,0.000431,0.003408
180000,0.0324,0.013523,0.002678,0.000431,0.006464
181000,0.0324,0.013523,0.002678,0.000431,0.004584
182000,0.0324,0.013523,0.002678,0.000431,0.004113
183000,0.0324,0.013523,0.002678,0.000431,0.004819
184000,0.0324,0.013523,0.002678,0.000431,0.005054
185000,0.0324,0.013523,0.002678,0.000431,0.006582
186000,0.0324,0.013523,0.002678,0.000431,0.003056
187000,0.0324,0.013523,0.002678,0.000431,0.003761
188000,0.0324,0.013523,0.002678,0.000431,0.004819
189000,0.0324,0.013523,0.002678,0.000431,0.006699
190000,0.0324,0.013523,0.002678,0.000431,0.003408
191000,0.0324,0.013523,0.002678,0.000431,0.003761
192000,0.0324,0.013523,0.002678,0.000431,0.005171
193000,0.0324,0.013523,0.002678,0.000431,0.005641
194000,0.0324,0.013523,0.002678,0.000431,0.003643
195000,0.0324,0.013523,0.002678,0.000431,0.004349
196000,0.0324,0.013523,0.002678,0.000431,0.006934
197000,0.0324,0.013523,0.002678,0.000431,0.003056
198000,0.0324,0.013523,0.002678,0.000431,0.003291
199000,0.0324,0.013523,0.002678,0.000431,0.005524
200000,0.0324,0.013523,0.002678,0.000431,0.006582
201000,0.0324,0.013523,0.002678,0.000431,0.002116
202000,0.0324,0.013523,0.002678,0.000431,0.004349
203000,0.0324,0.013523,0.002678,0.000431,0.004466
204000,0.0324,0.013523,0.002678,0.000431,0.005876
205000,0.0324,0.013523,0.002678,0.000431,0.002116
206000,0.0324,0.013523,0.002678,0.000431,0.005524
207000,0.0324,0.013523,0.002678,0.000431,0.004349
208000,0.0324,0.013523,0.002678,0.000431,0.004584
209000,0.0324,0.013523,0.002678,0.000431,0.003291
210000,0.0324,0.013523,0.002678,0.000431,0.005289
211000,0.0324,0.013523,0.002678,0.000431,0.003408
212000,0.0324,0.013523,0.002678,0.000431,0.004466
213000,0.0324,0.013523,0.002678,0.000431,0.003526
214000,0.0324,0.013523,0.002678,0.000431,0.004701
215000,0.0324,0.013523,0.002678,0.000431,0.003643
216000,0.0324,0.013523,0.002678,0.000431,0.005054
217000,0.0324,0.013523,0.002678,0.000431,0.003996
218000,0.0324,0.013523,0.002678,0.000431,0.003526
219000,0.0324,0.013523,0.002678,0.000431,0.003996
220000,0.0324,0.013523,0.002678,0.000431,0.003056
221000,0.0324,0.013523,0.002678,0.000431,0.004584
222000,0.0324,0.013523,0.002678,0.000431,0.003996
223000,0.0324,0.013523,0.002678,0.000431,0.004231
224000,0.0324,0.013523,0.002678,0.000431,0.002586
225000,0.0324,0.013523,0.002678,0.000431,0.004584
226000,0.0324,0.013523,0.002678,0.000431,0.003878
227000,0.0324,0.013523,0.002678,0.000431,0.003761
228000,0.0324,0.013523,0.002678,0.000431,0.003996
229000,0.0324,0.013523,0.002678,0.000431,0.003878
230000,0.0324,0.013523,0.002678,0.000431,0.003996
231000,0.0324,0.013523,0.002678,0.000431,0.002586
232000,0.0324,0.013523,0.002678,0.000431,0.005054
233000,0.0324,0.013523,0.002678,0.000431,0.003291
234000,0.0324,0.013523,0.002678,0.000431,0.003761
235000,0.0324,0.013523,0.002678,0.000431,0.003056
236000,0.0324,0.013523,0.002678,0.000431,0.003996
237000,0.0324,0.013523,0.002678,0.000431,0.003643
238000,0.0324,0.013523,0.002678,0.000431,0.003878
239000,0.0324,0.013523,0.002678,0.000431,0.003643
240000,0.0324,0.013523,0.002678,0.000431,0.003291
241000,0.0324,0.013523,0.002678,0.000431,0.004113
242000,0.0324,0.013523,0.002678,0.000431,0.002351
243000,0.0324,0.013523,0.002678,0.000431,0.003996
244000,0.0324,0.013523,0.002678,0.000431,0.004466
245000,0.0324,0.013523,0.002678,0.000431,0.003761
246000,0.0324,0.013523,0.002678,0.000431,0.002233
247000,0.0324,0.013523,0.002678,0.000431,0.004584
248000,0.0324,0.013523,0.002678,0.000431,0.003761
249000,0.0324,0.013523,0.002678,0.000431,0.002703
250000,0.0324,0.013523,0.002678,0.000431,0.003761
251000,0.0324,0.013523,0.002678,0.000431,0.004349
252000,0.0324,0.013523,0.002678,0.000431,0.003761
253000,0.0324,0.013523,0.002678,0.000431,0.001998
254000,0.0324,0.013523,0.002678,0.000431,0.005054
255000,0.0324,0.013523,0.002678,0.000431,0.003761
256000,0.0324,0.013523,0.002678,0.000431,0.003291
257000,0.0324,0.013523,0.002678,0.000431,0.003056
258000,0.0324,0.013523,0.002678,0.000431,0.004231
259000,0.0324,0.013523,0.002678,0.000431,0.003643
260000,0.0324,0.013523,0.002678,0.000431,0.003056
261000,0.0324,0.013523,0.002678,0.000431,0.003996
262000,0.0324,0.013523,0.002678,0.000431,0.004113
263000,0.0324,0.013523,0.002678,0.000431,0.003408
264000,0.0324,0.013523,0.002678,0.000431,0.002586
265000,0.0324,0.013523,0.002678,0.000431,0.004231
266000,0.0324,0.013523,0.002678,0.000431,0.003056
267000,0.0324,0.013523,0.002678,0.000431,0.003056
268000,0.0324,0.013523,0.002678,0.000431,0.002351
269000,0.0324,0.013523,0.002678,0.000431,0.004113
270000,0.0324,0.013523,0.002678,0.000431,0.002821
271000,0.0324,0.013523,0.002678,0.000431,0.003408
272000,0.0324,0.013523,0.002678,0.000431,0.003291
273000,0.0324,0.013523,0.002678,0.000431,0.003878
274000,0.0324,0.013523,0.002678,0.000431,0.002586
275000,0.0324,0.013523,0.002678,0.000431,0.003173
276000,0.0324,0.013523,0.002678,0.000431,0.003526
277000,0.0324,0.013523,0.002678,0.000431,0.002938
278000,0.0324,0.013523,0.002678,0.000431,0.003526
279000,0.0324,0.013523,0.002678,0.000431,0.001998
280000,0.0324,0.013523,0.002678,0.000431,0.003996
281000,0.0324,0.013523,0.002678,0.000431,0.002938
282000,0.0324,0.013523,0.002678,0.000431,0.002351
283000,0.0324,0.013523,0.002678,0.000431,0.003643
284000,0.0324,0.013523,0.002678,0.000431,0.003643
285000,0.0324,0.013523,0.002678,0.000431,0.002703
286000,0.0324,0.013523,0.002678,0.000431,0.002351
287000,0.0324,0.013523,0.002678,0.000431,0.003761
288000,0.0324,0.013523,0.002678,0.000431,0.002938
289000,0.0324,0.013523,0.002678,0.000431,0.002586
290000,0.0324,0.013523,0.002678,0.000431,0.003761
291000,0.0324,0.013523,0.002678,0.000431,0.003056
292000,0.0324,0.013523,0.002678,0.000431,0.003056
293000,0.0324,0.013523,0.002678,0.000431,0.002821
294000,0.0324,0.013523,0.002678,0.000431,0.003408
295000,0.0324,0.013523,0.002678,0.000431,0.003056
296000,0.0324,0.013523,0.002678,0.000431,0.002468
297000,0.0324,0.013523,0.002678,0.000431,0.003408
298000,0.0324,0.013523,0.002678,0.000431,0.002703
299000,0.0324,0.013523,0.002678,0.000431,0.003526
300000,0.0324,0.013523,0.002678,0.000431,0.002586
301000,0.0324,0.013523,0.002678,0.000431,0.002586
302000,0.0324,0.013523,0.002678,0.000431,0.004466
303000,0.0324,0.013523,0.002678,0.000431,0.001763
304000,0.0324,0.013523,0.002678,0.000431,0.002586
305000,0.0324,0.013523,0.002678,0.000431,0.004349
306000,0.0324,0.013523,0.002678,0.000431,0.003056
307000,0.0324,0.013523,0.002678,0.000431,0.001880
308000,0.0324,0.013523,0.002678,0.000431,0.003526
309000,0.0324,0.013523,0.002678,0.000431,0.004113
310000,0.0324,0.013523,0.002678,0.000431,0.001645
311000,0.0324,0.013523,0.002678,0.000431,0.003408
312000,0.0324,0.013523,0.002678,0.000431,0.003056
313000,0.0324,0.013523,0.002678,0.000431,0.003056
314000,0.0324,0.013523,0.002678,0.000431,0.003291
315000,0.0324,0.013523,0.002678,0.000431,0.002938
316000,0.0324,0.013523,0.002678,0.000431,0.003526
317000,0.0324,0.013523,0.002678,0.000431,0.002468
318000,0.0324,0.013523,0.002678,0.000431,0.001880
319000,0.0324,0.013523,0.002678,0.000431,0.003996
320000,0.0324,0.013523,0.002678,0.000431,0.002938
321000,0.0324,0.013523,0.002678,0.000431,0.002351
322000,0.0324,0.013523,0.002678,0.000431,0.003056
323000,0.0324,0.013523,0.002678,0.000431,0.003056
324000,0.0324,0.013523,0.002678,0.000431,0.003291
325000,0.0324,0.013523,0.002678,0.000431,0.001645
326000,0.0324,0.013523,0.002678,0.000431,0.003526
327000,0.0324,0.013523,0.002678,0.000431,0.003878
328000,0.0324,0.013523,0.002678,0.000431,0.002233
329000,0.0324,0.013523,0.002678,0.000431,0.001763
330000,0.0324,0.013523,0.002678,0.000431,0.003526
331000,0.0324,0.013523,0.002678,0.000431,0.003526
332000,0.0324,0.013523,0.002678,0.000431,0.001763
333000,0.0324,0.013523,0.002678,0.000431,0.003526
334000,0.0324,0.013523,0.002678,0.000431,0.003408
335000,0.0324,0.013523,0.002678,0.000431,0.001998
336000,0.0324,0.013523,0.002678,0.000431,0.002703
337000,0.0324,0.013523,0.002678,0.000431,0.003291
338000,0.0324,0.013523,0.002678,0.000431,0.003056
339000,0.0324,0.013523,0.002678,0.000431,0.002351
340000,0.0324,0.013523,0.002678,0.000431,0.002351
341000,0.0324,0.013523,0.002678,0.000431,0.003643
342000,0.0324,0.013523,0.002678,0.000431,0.002703
343000,0.0324,0.013523,0.002678,0.000431,0.002468
344000,0.0324,0.013523,0.002678,0.000431,0.002233
345000,0.0324,0.013523,0.002678,0.000431,0.003526
346000,0.0324,0.013523,0.002678,0.000431,0.002703
347000,0.0324,0.013523,0.002678,0.000431,0.002116
348000,0.0324,0.013523,0.002678,0.000431,0.003643
349000,0.0324,0.013523,0.002678,0.000431,0.002468
350000,0.0324,0.013523,0.002678,0.000431,0.002116
351000,0.0324,0.013523,0.002678,0.000431,0.002351
352000,0.0324,0.013523,0.002678,0.000431,0.003291
353000,0.0324,0.013523,0.002678,0.000431,0.002586
354000,0.0324,0.013523,0.002678,0.000431,0.001880
355000,0.0324,0.013523,0.002678,0.000431,0.003526
356000,0.0324,0.013523,0.002678,0.000431,0.002468
357000,0.0324,0.013523,0.002678,0.000431,0.001763
358000,0.0324,0.013523,0.002678,0.000431,0.002703
359000,0.0324,0.013523,0.002678,0.000431,0.002821
360000,0.0324,0.013523,0.002678,0.000431,0.002586
361000,0.0324,0.013523,0.002678,0.000431,0.002116
362000,0.0324,0.013523,0.002678,0.000431,0.002703
363000,0.0324,0.013523,0.002678,0.000431,0.002351
364000,0.0324,0.013523,0.002678,0.000431,0.002586
365000,0.0324,0.013523,0.002678,0.000431,0.002468
366000,0.0324,0.013523,0.002678,0.000431,0.002233
367000,0.0324,0.013523,0.002678,0.000431,0.003056
368000,0.0324,0.013523,0.002678,0.000431,0.002586
369000,0.0324,0.013523,0.002678,0.000431,0.001528
370000,0.0324,0.013523,0.002678,0.000431,0.003408
371000,0.0324,0.013523,0.002678,0.000431,0.002468
372000,0.0324,0.013523,0.002678,0.000431,0.001880
373000,0.0324,0.013523,0.002678,0.000431,0.002821
374000,0.0324,0.013523,0.002678,0.000431,0.002586
375000,0.0324,0.013523,0.002678,0.000431,0.002468
376000,0.0324,0.013523,0.002678,0.000431,0.001998
377000,0.0324,0.013523,0.002678,0.000431,0.003173
378000,0.0324,0.013523,0.002678,0.000431,0.002703
379000,0.0324,0.013523,0.002678,0.000431,0.001528
380000,0.0324,0.013523,0.002678,0.000431,0.002586
381000,0.0324,0.013523,0.002678,0.000431,0.002821
382000,0.0324,0.013523,0.002678,0.000431,0.002233
383000,0.0324,0.013523,0.002678,0.000431,0.001998
384000,0.0324,0.013523,0.002678,0.000431,0.002586
385000,0.0324,0.013523,0.002678,0.000431,0.002233
386000,0.0324,0.013523,0.002678,0.000431,0.002116
387000,0.0324,0.013523,0.002678,0.000431,0.002821
388000,0.0324,0.013523,0.002678,0.000431,0.002468
389000,0.0324,0.013523,0.002678,0.000431,0.001880
390000,0.0324,0.013523,0.002678,0.000431,0.002116
391000,0.0324,0.013523,0.002678,0.000431,0.002586
392000,0.0324,0.013523,0.002678,0.000431,0.002468
393000,0.0324,0.013523,0.002678,0.000431,0.001880
394000,0.0324,0.013523,0.002678,0.000431,0.002703
395000,0.0324,0.013523,0.002678,0.000431,0.002468
396000,0.0324,0.013523,0.002678,0.000431,0.001645
397000,0.0324,0.013523,0.002678,0.000431,0.002116
398000,0.0324,0.013523,0.002678,0.000431,0.002938
399000,0.0324,0.013523,0.002678,0.000431,0.001763
400000,0.0324,0.013523,0.002678,0.000431,0.001880
401000,0.0324,0.013523,0.002678,0.000431,0.002703
402000,0.0324,0.013523,0.002678,0.000431,0.001763
403000,0.0324,0.013523,0.002678,0.000431,0.001880
404000,0.0324,0.013523,0.002678,0.000431,0.002351
405000,0.0324,0.013523,0.002678,0.000431,0.002233
406000,0.0324,0.013523,0.002678,0.000431,0.001528
407000,0.0324,0.013523,0.002678,0.000431,0.001645
408000,0.0324,0.013523,0.002678,0.000431,0.002586
409000,0.0324,0.013523,0.002678,0.000431,0.001410
410000,0.0324,0.013523,0.002678,0.000431,0.001410
411000,0.0324,0.013523,0.002678,0.000431,0.002351
412000,0.0324,0.013523,0.002678,0.000431,0.001880
413000,0.0324,0.013523,0.002678,0.000431,0.001410
414000,0.0324,0.013523,0.002678,0.000431,0.002116
415000,0.0324,0.013523,0.002678,0.000431,0.002233
416000,0.0324,0.013523,0.002678,0.000431,0.001293
417000,0.0324,0.013523,0.002678,0.000431,0.001763
418000,0.0324,0.013523,0.002678,0.000431,0.002468
419000,0.0324,0.013523,0.002678,0.000431,0.001293
420000,0.0324,0.013523,0.002678,0.000431,0.001645
421000,0.0324,0.013523,0.002678,0.000431,0.002351
422000,0.0324,0.013523,0.002678,0.000431,0.001645
423000,0.0324,0.013523,0.002678,0.000431,0.001293
424000,0.0324,0.013523,0.002678,0.000431,0.002116
425000,0.0324,0.013523,0.002678,0.000431,0.002116
426000,0.0324,0.013523,0.002678,0.000431,0.001175
427000,0.0324,0.013523,0.002678,0.000431,0.001880
428000,0.0324,0.013523,0.002678,0.000431,0.001998
429000,0.0324,0.013523,0.002678,0.000431,0.001645
430000,0.0324,0.013523,0.002678,0.000431,0.000940
431000,0.0324,0.013523,0.002678,0.000431,0.002703
432000,0.0324,0.013523,0.002678,0.000431,0.001528
433000,0.0324,0.013523,0.002678,0.000431,0.001058
434000,0.0324,0.013523,0.002678,0.000431,0.002233
435000,0.0324,0.013523,0.002678,0.000431,0.002116
436000,0.0324,0.013523,0.002678,0.000431,0.000823
437000,0.0324,0.013523,0.002678,0.000431,0.001998
438000,0.0324,0.013523,0.002678,0.000431,0.002351
439000,0.0324,0.013523,0.002678,0.000431,0.000940
440000,0.0324,0.013523,0.002678,0.000431,0.001528
441000,0.0324,0.013523,0.002678,0.000431,0.002468
442000,0.0324,0.013523,0.002678,0.000431,0.001645
443000,0.0324,0.013523,0.002678,0.000431,0.001058
444000,0.0324,0.013523,0.002678,0.000431,0.002351
445000,0.0324,0.013523,0.002678,0.000431,0.001645
446000,0.0324,0.013523,0.002678,0.000431,0.001410
447000,0.0324,0.013523,0.002678,0.000431,0.001410
448000,0.0324,0.013523,0.002678,0.000431,0.002116
449000,0.0324,0.013523,0.002678,0.000431,0.001410
450000,0.0324,0.013523,0.002678,0.000431,0.001058
451000,0.0324,0.013523,0.002678,0.000431,0.002233
452000,0.0324,0.013523,0.002678,0.000431,0.001175
453000,0.0324,0.013523,0.002678,0.000431,0.000823
454000,0.0324,0.013523,0.002678,0.000431,0.002351
455000,0.0324,0.013523,0.002678,0.000431,0.000823
456000,0.0324,0.013523,0.002678,0.000431,0.001058
457000,0.0324,0.013523,0.002678,0.000431,0.001998
458000,0.0324,0.013523,0.002678,0.000431,0.001645
459000,0.0324,0.013523,0.002678,0.000431,0.001058
460000,0.0324,0.013523,0.002678,0.000431,0.001293
461000,0.0324,0.013523,0.002678,0.000431,0.001998
462000,0.0324,0.013523,0.002678,0.000431,0.000588
463000,0.0324,0.013523,0.002678,0.000431,0.001410
464000,0.0324,0.013523,0.002678,0.000431,0.001880
465000,0.0324,0.013523,0.002678,0.000431,0.000470
466000,0.0324,0.013523,0.002678,0.000431,0.001528
467000,0.0324,0.013523,0.002678,0.000431,0.001175
468000,0.0324,0.013523,0.002678,0.000431,0.001293
469000,0.0324,0.013523,0.002678,0.000431,0.000470
470000,0.0324,0.013523,0.002678,0.000431,0.001645
471000,0.0324,0.013523,0.002678,0.000431,0.001175
472000,0.0324,0.013523,0.002678,0.000431,0.000588
473000,0.0324,0.013523,0.002678,0.000431,0.001763
474000,0.0324,0.013523,0.002678,0.000431,0.000940
475000,0.0324,0.013523,0.002678,0.000431,0.000588
476000,0.0324,0.013523,0.002678,0.000431,0.001645
477000,0.0324,0.013523,0.002678,0.000431,0.000588
478000,0.0324,0.013523,0.002678,0.000431,0.000705
479000,0.0324,0.013523,0.002678,0.000431,0.001410
480000,0.0324,0.013523,0.002678,0.000431,0.000588
481000,0.0324,0.013523,0.002678,0.000431,0.001763
482000,0.0324,0.013523,0.002678,0.000431,0.000235
483000,0.0324,0.013523,0.002678,0.000431,0.001058
484000,0.0324,0.013523,0.002678,0.000431,0.000823
485000,0.0324,0.013523,0.002678,0.000431,0.000823
486000,0.0324,0.013523,0.002678,0.000431,0.000588
487000,0.0324,0.013523,0.002678,0.000431,0.001293
488000,0.0324,0.013523,0.002678,0.000431,0.000588
489000,0.0324,0.013523,0.002678,0.000431,0.001293
490000,0.0324,0.013523,0.002678,0.000431,0.000588
491000,0.0324,0.013523,0.002678,0.000431,0.000470
492000,0.0324,0.013523,0.002678,0.000431,0.001410
493000,0.0324,0.013523,0.002678,0.000431,0.000470
494000,0.0324,0.013523,0.002678,0.000431,0.001175
495000,0.0324,0.013523,0.002678,0.000431,0.000705
496000,0.0324,0.013523,0.002678,0.000431,0.000705
497000,0.0324,0.013523,0.002678,0.000431,0.001293
498000,0.0324,0.013523,0.002678,0.000431,0.000823
499000,0.0324,0.013523,0.002678,0.000431,0.000470
500000,0.0324,0.013523,0.002678,0.000431,0.001410
501000,0.0324,0.013523,0.002678,0.000431,0.000353
502000,0.0324,0.013523,0.002678,0.000431,0.001293
503000,0.0324,0.013523,0.002678,0.000431,0.000235
504000,0.0324,0.013523,0.002678,0.000431,0.001058
505000,0.0324,0.013523,0.002678,0.000431,0.000823
506000,0.0324,0.013523,0.002678,0.000431,0.000823
507000,0.0324,0.013523,0.002678,0.000431,0.000588
508000,0.0324,0.013523,0.002678,0.000431,0.000705
509000,0.0324,0.013523,0.002678,0.000431,0.000705
510000,0.0324,0.013523,0.002678,0.000431,0.000823
511000,0.0324,0.013523,0.002678,0.000431,0.000705
512000,0.0324,0.013523,0.002678,0.000431,0.000353
513000,0.0324,0.013523,0.002678,0.000431,0.001058
514000,0.0324,0.013523,0.002678,0.000431,0.000353
515000,0.0324,0.013523,0.002678,0.000431,0.000940
516000,0.0324,0.013523,0.002678,0.000431,0.013633
517000,0.0324,0.013523,0.002678,0.000431,0.000705
518000,0.0324,0.013523,0.002678,0.000431,0.000705
519000,0.0324,0.013523,0.002678,0.000431,0.000588
520000,0.0324,0.013523,0.002678,0.000431,0.000353
521000,0.0324,0.013523,0.002678,0.000431,0.000823
522000,0.0324,0.013523,0.002678,0.000431,0.000353
523000,0.0324,0.013523,0.002678,0.000431,0.000705
524000,0.0324,0.013523,0.002678,0.000431,0.000470
525000,0.0324,0.013523,0.002678,0.000431,0.000588
526000,0.0324,0.013523,0.002678,0.000431,0.000823
527000,0.0324,0.013523,0.002678,0.000431,0.000470
528000,0.0324,0.013523,0.002678,0.000431,0.000470
529000,0.0324,0.013523,0.002678,0.000431,0.000588
530000,0.0324,0.013523,0.002678,0.000431,0.000588
531000,0.0324,0.013523,0.002678,0.000431,0.000823
532000,0.0324,0.013523,0.002678,0.000431,0.000470
533000,0.0324,0.013523,0.002678,0.000431,0.000235
534000,0.0324,0.013523,0.002678,0.000431,0.001058
535000,0.0324,0.013523,0.002678,0.000431,0.000353
536000,0.0324,0.013523,0.002678,0.000431,0.000705
537000,0.0324,0.013523,0.002678,0.000431,0.000353
538000,0.0324,0.013523,0.002678,0.000431,0.000588
539000,0.0324,0.013523,0.002678,0.000431,0.000588
540000,0.0324,0.013523,0.002678,0.000431,0.000470
541000,0.0324,0.013523,0.002678,0.000431,0.000470
542000,0.0324,0.013523,0.002678,0.000431,0.000470
543000,0.0324,0.013523,0.002678,0.000431,0.000470
544000,0.0324,0.013523,0.002678,0.000431,0.000705
545000,0.0324,0.013523,0.002678,0.000431,0.000353
546000,0.0324,0.013523,0.002678,0.000431,0.000470
547000,0.0324,0.013523,0.002678,0.000431,0.000588
548000,0.0324,0.013523,0.002678,0.000431,0.000470
549000,0.0324,0.013523,0.002678,0.000431,0.000588
550000,0.0324,0.013523,0.002678,0.000431,0.000353
551000,0.0324,0.013523,0.002678,0.000431,0.000470
552000,0.0324,0.013523,0.002678,0.000431,0.000588
553000,0.0324,0.013523,0.002678,0.000431,0.000588
554000,0.0324,0.013523,0.002678,0.000431,0.000235
555000,0.0324,0.013523,0.002678,0.000431,0.000705
556000,0.0324,0.013523,0.002678,0.000431,0.000235
557000,0.0324,0.013523,0.002678,0.000431,0.000940
558000,0.0324,0.013523,0.002678,0.000431,0.000118
559000,0.0324,0.013523,0.002678,0.000431,0.000705
560000,0.0324,0.013523,0.002678,0.000431,0.000353
561000,0.0324,0.013523,0.002678,0.000431,0.000588
562000,0.0324,0.013523,0.002678,0.000431,0.000353
563000,0.0324,0.013523,0.002678,0.000431,0.000470
564000,0.0324,0.013523,0.002678,0.000431,0.000470
565000,0.0324,0.013523,0.002678,0.000431,0.000705
566000,0.0324,0.013523,0.002678,0.000431,0.000353
567000,0.0324,0.013523,0.002678,0.000431,0.000588
568000,0.0324,0.013523,0.002678,0.000431,0.000470
569000,0.0324,0.013523,0.002678,0.000431,0.000470
570000,0.0324,0.013523,0.002678,0.000431,0.000705
571000,0.0324,0.013523,0.002678,0.000431,0.000235
572000,0.0324,0.013523,0.002678,0.000431,0.000588
573000,0.0324,0.013523,0.002678,0.000431,0.000353
574000,0.0324,0.013523,0.002678,0.000431,0.000588
575000,0.0324,0.013523,0.002678,0.000431,0.000353
576000,0.0324,0.013523,0.002678,0.000431,0.000588
577000,0.0324,0.013523,0.002678,0.000431,0.000353
578000,0.0324,0.013523,0.002678,0.000431,0.000705
579000,0.0324,0.013523,0.002678,0.000431,0.000353
580000,0.0324,0.013523,0.002678,0.000431,0.000588
581000,0.0324,0.013523,0.002678,0.000431,0.000470
582000,0.0324,0.013523,0.002678,0.000431,0.000235
583000,0.0324,0.013523,0.002678,0.000431,0.000705
584000,0.0324,0.013523,0.002678,0.000431,0.000118
585000,0.0324,0.013523,0.002678,0.000431,0.000705
586000,0.0324,0.013523,0.002678,0.000431,0.000118
587000,0.0324,0.013523,0.002678,0.000431,0.000588
588000,0.0324,0.013523,0.002678,0.000431,0.000353
589000,0.0324,0.013523,0.002678,0.000431,0.000353
590000,0.0324,0.013523,0.002678,0.000431,0.000588
591000,0.0324,0.013523,0.002678,0.000431,0.000235
592000,0.0324,0.013523,0.002678,0.000431,0.000470
593000,0.0324,0.013523,0.002678,0.000431,0.019980
594000,0.0324,0.013523,0.002678,0.000431,0.000235
595000,0.0324,0.013523,0.002678,0.000431,0.000470
596000,0.0324,0.013523,0.002678,0.000431,0.000235
597000,0.0324,0.013523,0.002678,0.000431,0.000353
598000,0.0324,0.013523,0.002678,0.000431,0.000353
599000,0.0324,0.013523,0.002678,0.000431,0.000118
600000,0.0324,0.013523,0.002678,0.000431,0.000588
601000,0.0324,0.013523,0.002678,0.000431,0.000000
602000,0.0324,0.013523,0.002678,0.000431,0.000705
603000,0.0324,0.013523,0.002678,0.000431,0.000000
604000,0.0324,0.013523,0.002678,0.000431,0.000353
605000,0.0324,0.013523,0.002678,0.000431,0.000353
606000,0.0324,0.013523,0.002678,0.000431,0.000235
607000,0.0324,0.013523,0.002678,0.000431,0.000470
608000,0.0324,0.013523,0.002678,0.000431,0.000000
609000,0.0324,0.013523,0.002678,0.000431,0.000588
610000,0.0324,0.013523,0.002678,0.000431,0.000118
611000,0.0324,0.013523,0.002678,0.000431,0.000470
612000,0.0324,0.013523,0.002678,0.000431,0.000235
613000,0.0324,0.013523,0.002678,0.000431,0.000235
614000,0.0324,0.013523,0.002678,0.000431,0.000470
615000,0.0324,0.013523,0.002678,0.000431,0.000235
616000,0.0324,0.013523,0.002678,0.000431,0.000353
617000,0.0324,0.013523,0.002678,0.000431,0.000353
618000,0.0324,0.013523,0.002678,0.000431,0.000118
619000,0.0324,0.013523,0.002678,0.000431,0.000588
620000,0.0324,0.013523,0.002678,0.000431,0.000000
621000,0.0324,0.013523,0.002678,0.000431,0.000588
622000,0.0324,0.013523,0.002678,0.000431,0.000118
623000,0.0324,0.013523,0.002678,0.000431,0.000235
624000,0.0324,0.013523,0.002678,0.000431,0.000470
625000,0.0324,0.013523,0.002678,0.000431,0.000000
626000,0.0324,0.013523,0.002678,0.000431,0.000705
627000,0.0324,0.013523,0.002678,0.000431,0.000000
628000,0.0324,0.013523,0.002678,0.000431,0.000588
629000,0.0324,0.013523,0.002678,0.000431,0.000118
630000,0.0324,0.013523,0.002678,0.000431,0.000353
631000,0.0324,0.013523,0.002678,0.000431,0.000353
632000,0.0324,0.013523,0.002678,0.000431,0.000235
633000,0.0324,0.013523,0.002678,0.000431,0.000470
634000,0.0324,0.013523,0.002678,0.000431,0.000235
635000,0.0324,0.013523,0.002678,0.000431,0.000235
636000,0.0324,0.013523,0.002678,0.000431,0.000470
637000,0.0324,0.013523,0.002678,0.000431,0.000000
638000,0.0324,0.013523,0.002678,0.000431,0.000705
639000,0.0324,0.013523,0.002678,0.000431,0.000000
640000,0.0324,0.013523,0.002678,0.000431,0.000588
641000,0.0324,0.013523,0.002678,0.000431,0.000118
642000,0.0324,0.013523,0.002678,0.000431,0.000235
643000,0.0324,0.013523,0.002678,0.000431,0.000470
644000,0.0324,0.013523,0.002678,0.000431,0.000118
645000,0.0324,0.013523,0.002678,0.000431,0.000588
646000,0.0324,0.013523,0.002678,0.000431,0.000000
647000,0.0324,0.013523,0.002678,0.000431,0.000470
648000,0.0324,0.013523,0.002678,0.000431,0.000235
649000,0.0324,0.013523,0.002678,0.000431,0.000353
650000,0.0324,0.013523,0.002678,0.000431,0.000353
651000,0.0324,0.013523,0.002678,0.000431,0.000235
652000,0.0324,0.013523,0.002678,0.000431,0.000353
653000,0.0324,0.013523,0.002678,0.000431,0.000353
654000,0.0324,0.013523,0.002678,0.000431,0.000235
655000,0.0324,0.013523,0.002678,0.000431,0.000470
656000,0.0324,0.013523,0.002678,0.000431,0.000000
657000,0.0324,0.013523,0.002678,0.000431,0.000705
658000,0.0324,0.013523,0.002678,0.000431,0.000000
659000,0.0324,0.013523,0.002678,0.000431,0.000588
660000,0.0324,0.013523,0.002678,0.000431,0.000118
661000,0.0324,0.013523,0.002678,0.000431,0.000353
662000,0.0324,0.013523,0.002678,0.000431,0.000353
663000,0.0324,0.013523,0.002678,0.000431,0.000118
664000,0.0324,0.013523,0.002678,0.000431,0.000588
665000,0.0324,0.013523,0.002678,0.000431,0.000118
666000,0.0324,0.013523,0.002678,0.000431,0.000353
667000,0.0324,0.013523,0.002678,0.000431,0.000353
668000,0.0324,0.013523,0.002678,0.000431,0.000118
669000,0.0324,0.013523,0.002678,0.000431,0.000470
670000,0.0324,0.013523,0.002678,0.000431,0.000235
671000,0.0324,0.013523,0.002678,0.000431,0.000353
672000,0.0324,0.013523,0.002678,0.000431,0.000353
673000,0.0324,0.013523,0.002678,0.000431,0.000118
674000,0.0324,0.013523,0.002678,0.000431,0.000588
675000,0.0324,0.013523,0.002678,0.000431,0.000000
676000,0.0324,0.013523,0.002678,0.000431,0.000705
677000,0.0324,0.013523,0.002678,0.000431,0.000000
678000,0.0324,0.013523,0.002678,0.000431,0.000470
679000,0.0324,0.013523,0.002678,0.000431,0.000235
680000,0.0324,0.013523,0.002678,0.000431,0.000353
681000,0.0324,0.013523,0.002678,0.000431,0.000353
682000,0.0324,0.013523,0.002678,0.000431,0.000118
683000,0.0324,0.013523,0.002678,0.000431,0.000470
684000,0.0324,0.013523,0.002678,0.000431,0.000118
685000,0.0324,0.013523,0.002678,0.000431,0.000470
686000,0.0324,0.013523,0.002678,0.000431,0.000235
687000,0.0324,0.013523,0.002678,0.000431,0.000235
688000,0.0324,0.013523,0.002678,0.000431,0.000470
689000,0.0324,0.013523,0.002678,0.000431,0.000235
690000,0.0324,0.013523,0.002678,0.000431,0.000353
691000,0.0324,0.013523,0.002678,0.000431,0.000353
692000,0.0324,0.013523,0.002678,0.000431,0.000118
693000,0.0324,0.013523,0.002678,0.000431,0.000588
694000,0.0324,0.013523,0.002678,0.000431,0.000000
695000,0.0324,0.013523,0.002678,0.000431,0.000588
696000,0.0324,0.013523,0.002678,0.000431,0.000118
697000,0.0324,0.013523,0.002678,0.000431,0.000235
698000,0.0324,0.013523,0.002678,0.000431,0.000470
699000,0.0324,0.013523,0.002678,0.000431,0.000000
700000,0.0324,0.013523,0.002678,0.000431,0.000705
701000,0.0324,0.013523,0.002678,0.000431,0.000000
702000,0.0324,0.013523,0.002678,0.000431,0.000470
703000,0.0324,0.013523,0.002678,0.000431,0.000000
704000,0.0324,0.013523,0.002678,0.000431,0.000470
705000,0.0324,0.013523,0.002678,0.000431,0.000000
706000,0.0324,0.013523,0.002678,0.000431,0.000470
707000,0.0324,0.013523,0.002678,0.000431,0.000000
708000,0.0324,0.013523,0.002678,0.000431,0.000353
709000,0.0324,0.013523,0.002678,0.000431,0.000118
710000,0.0324,0.013523,0.002678,0.000431,0.000353
711000,0.0324,0.013523,0.002678,0.000431,0.000118
712000,0.0324,0.013523,0.002678,0.000431,0.000118
713000,0.0324,0.013523,0.002678,0.000431,0.000353
714000,0.0324,0.013523,0.002678,0.000431,0.000118
715000,0.0324,0.013523,0.002678,0.000431,0.000353
716000,0.0324,0.013523,0.002678,0.000431,0.000118
717000,0.0324,0.013523,0.002678,0.000431,0.000353
718000,0.0324,0.013523,0.002678,0.000431,0.000000
719000,0.0324,0.013523,0.002678,0.000431,0.000470
720000,0.0324,0.013523,0.002678,0.000431,0.000000
721000,0.0324,0.013523,0.002678,0.000431,0.000470
722000,0.0324,0.013523,0.002678,0.000431,0.000000
723000,0.0324,0.013523,0.002678,0.000431,0.000353
724000,0.0324,0.013523,0.002678,0.000431,0.000118
725000,0.0324,0.013523,0.002678,0.000431,0.000353
726000,0.0324,0.013523,0.002678,0.000431,0.000118
727000,0.0324,0.013523,0.002678,0.000431,0.000235
728000,0.0324,0.013523,0.002678,0.000431,0.000235
729000,0.0324,0.013523,0.002678,0.000431,0.000118
730000,0.0324,0.013523,0.002678,0.000431,0.000353
731000,0.0324,0.013523,0.002678,0.000431,0.000118
732000,0.0324,0.013523,0.002678,0.000431,0.000353
733000,0.0324,0.013523,0.002678,0.000431,0.000000
734000,0.0324,0.013523,0.002678,0.000431,0.000470
735000,0.0324,0.013523,0.002678,0.000431,0.000000
736000,0.0324,0.013523,0.002678,0.000431,0.000470
737000,0.0324,0.013523,0.002678,0.000431,0.000000
738000,0.0324,0.013523,0.002678,0.000431,0.000470
739000,0.0324,0.013523,0.002678,0.000431,0.000000
740000,0.0324,0.013523,0.002678,0.000431,0.000353
741000,0.0324,0.013523,0.002678,0.000431,0.000118
742000,0.0324,0.013523,0.002678,0.000431,0.000235
743000,0.0324,0.013523,0.002678,0.000431,0.000235
744000,0.0324,0.013523,0.002678,0.000431,0.000235
745000,0.0324,0.013523,0.002678,0.000431,0.000235
746000,0.0324,0.013523,0.002678,0.000431,0.000118
747000,0.0324,0.013523,0.002678,0.000431,0.000353
748000,0.0324,0.013523,0.002678,0.000431,0.000000
749000,0.0324,0.013523,0.002678,0.000431,0.000470
750000,0.0324,0.013523,0.002678,0.000431,0.000000
751000,0.0324,0.013523,0.002678,0.000431,0.000470
752000,0.0324,0.013523,0.002678,0.000431,0.000000
753000,0.0324,0.013523,0.002678,0.000431,0.000353
754000,0.0324,0.013523,0.002678,0.000431,0.000118
755000,0.0324,0.013523,0.002678,0.000431,0.000235
756000,0.0324,0.013523,0.002678,0.000431,0.000235
757000,0.0324,0.013523,0.002678,0.000431,0.000235
758000,0.0324,0.013523,0.002678,0.000431,0.000235
759000,0.0324,0.013523,0.002678,0.000431,0.000235
760000,0.0324,0.013523,0.002678,0.000431,0.000235
761000,0.0324,0.013523,0.002678,0.000431,0.000118
762000,0.0324,0.013523,0.002678,0.000431,0.000353
763000,0.0324,0.013523,0.002678,0.000431,0.000000
764000,0.0324,0.013523,0.002678,0.000431,0.000470
765000,0.0324,0.013523,0.002678,0.000431,0.000000
766000,0.0324,0.013523,0.002678,0.000431,0.000353
767000,0.0324,0.013523,0.002678,0.000431,0.000118
768000,0.0324,0.013523,0.002678,0.000431,0.000235
769000,0.0324,0.013523,0.002678,0.000431,0.000235
770000,0.0324,0.013523,0.002678,0.000431,0.000235
771000,0.0324,0.013523,0.002678,0.000431,0.000235
772000,0.0324,0.013523,0.002678,0.000431,0.000235
773000,0.0324,0.013523,0.002678,0.000431,0.000235
774000,0.0324,0.013523,0.002678,0.000431,0.000118
775000,0.0324,0.013523,0.002678,0.000431,0.000353
776000,0.0324,0.013523,0.002678,0.000431,0.000000
777000,0.0324,0.013523,0.002678,0.000431,0.007874
778000,0.0324,0.013523,0.002678,0.000431,0.001528
779000,0.0324,0.013523,0.002678,0.000431,0.000235
780000,0.0324,0.013523,0.002678,0.000431,0.000000
781000,0.0324,0.013523,0.002678,0.000431,0.000235
782000,0.0324,0.013523,0.002678,0.000431,0.000000
783000,0.0324,0.013523,0.002678,0.000431,0.000235
784000,0.0324,0.013523,0.002678,0.000431,0.000000
785000,0.0324,0.013523,0.002678,0.000431,0.000235
786000,0.0324,0.013523,0.002678,0.000431,0.000000
787000,0.0324,0.013523,0.002678,0.000431,0.000118
788000,0.0324,0.013523,0.002678,0.000431,0.000118
789000,0.0324,0.013523,0.002678,0.000431,0.000000
790000,0.0324,0.013523,0.002678,0.000431,0.000235
791000,0.0324,0.013523,0.002678,0.000431,0.000000
792000,0.0324,0.013523,0.002678,0.000431,0.011988
