Cycle,Area(mm^2),PeakDynamic(W),SubthresholdLeakage(W),GateLeakage(W),RunTimeDynamic(W)
1000,0.0324,0.013523,0.002678,0.000431,0.000000
2000,0.0324,0.013523,0.002678,0.000431,0.000000
3000,0.0324,0.013523,0.002678,0.000431,0.000000
4000,0.0324,0.013523,0.002678,0.000431,0.000000
5000,0.0324,0.013523,0.002678,0.000431,0.000000
6000,0.0324,0.013523,0.002678,0.000431,1.711445
7000,0.0324,0.013523,0.002678,0.000431,1.410456
8000,0.0324,0.013523,0.002678,0.000431,2.356558
9000,0.0324,0.013523,0.002678,0.000431,1.471923
10000,0.0324,0.013523,0.002678,0.000431,1.276121
11000,0.0324,0.013523,0.002678,0.000431,1.422914
12000,0.0324,0.013523,0.002678,0.000431,1.153304
13000,0.0324,0.013523,0.002678,0.000431,0.823050
14000,0.0324,0.013523,0.002678,0.000431,0.639588
15000,0.0324,0.013523,0.002678,0.000431,0.539102
16000,0.0324,0.013523,0.002678,0.000431,0.457655
17000,0.0324,0.013523,0.002678,0.000431,0.430741
18000,0.0324,0.013523,0.002678,0.000431,0.425452
19000,0.0324,0.013523,0.002678,0.000431,0.377265
20000,0.0324,0.013523,0.002678,0.000431,0.398773
21000,0.0324,0.013523,0.002678,0.000431,0.444962
22000,0.0324,0.013523,0.002678,0.000431,0.445784
23000,0.0324,0.013523,0.002678,0.000431,0.410173
24000,0.0324,0.013523,0.002678,0.000431,0.440026
25000,0.0324,0.013523,0.002678,0.000431,0.447077
26000,0.0324,0.013523,0.002678,0.000431,0.356933
27000,0.0324,0.013523,0.002678,0.000431,0.464236
28000,0.0324,0.013523,0.002678,0.000431,0.508544
29000,0.0324,0.013523,0.002678,0.000431,0.426275
30000,0.0324,0.013523,0.002678,0.000431,0.416637
31000,0.0324,0.013523,0.002678,0.000431,0.397010
32000,0.0324,0.013523,0.002678,0.000431,0.406765
33000,0.0324,0.013523,0.002678,0.000431,0.392662
34000,0.0324,0.013523,0.002678,0.000431,0.409821
35000,0.0324,0.013523,0.002678,0.000431,0.378441
36000,0.0324,0.013523,0.002678,0.000431,0.348824
37000,0.0324,0.013523,0.002678,0.000431,0.346003
38000,0.0324,0.013523,0.002678,0.000431,0.340244
39000,0.0324,0.013523,0.002678,0.000431,0.360576
40000,0.0324,0.013523,0.002678,0.000431,0.340009
41000,0.0324,0.013523,0.002678,0.000431,0.331782
42000,0.0324,0.013523,0.002678,0.000431,0.281127
43000,0.0324,0.013523,0.002678,0.000431,0.258797
44000,0.0324,0.013523,0.002678,0.000431,0.235762
45000,0.0324,0.013523,0.002678,0.000431,0.225419
46000,0.0324,0.013523,0.002678,0.000431,0.260442
47000,0.0324,0.013523,0.002678,0.000431,0.314740
48000,0.0324,0.013523,0.002678,0.000431,0.267142
49000,0.0324,0.013523,0.002678,0.000431,0.284771
50000,0.0324,0.013523,0.002678,0.000431,0.266789
51000,0.0324,0.013523,0.002678,0.000431,0.285946
52000,0.0324,0.013523,0.002678,0.000431,0.291705
53000,0.0324,0.013523,0.002678,0.000431,0.265379
54000,0.0324,0.013523,0.002678,0.000431,0.285123
55000,0.0324,0.013523,0.002678,0.000431,0.290295
56000,0.0324,0.013523,0.002678,0.000431,0.332017
57000,0.0324,0.013523,0.002678,0.000431,0.405002
58000,0.0324,0.013523,0.002678,0.000431,0.369979
59000,0.0324,0.013523,0.002678,0.000431,0.293350
60000,0.0324,0.013523,0.002678,0.000431,0.273488
61000,0.0324,0.013523,0.002678,0.000431,0.223304
62000,0.0324,0.013523,0.002678,0.000431,0.246339
63000,0.0324,0.013523,0.002678,0.000431,0.402416
64000,0.0324,0.013523,0.002678,0.000431,0.386315
65000,0.0324,0.013523,0.002678,0.000431,0.366805
66000,0.0324,0.013523,0.002678,0.000431,0.465647
67000,0.0324,0.013523,0.002678,0.000431,0.487037
68000,0.0324,0.013523,0.002678,0.000431,0.452366
69000,0.0324,0.013523,0.002678,0.000431,0.385492
70000,0.0324,0.013523,0.002678,0.000431,0.342830
71000,0.0324,0.013523,0.002678,0.000431,0.312625
72000,0.0324,0.013523,0.002678,0.000431,0.314976
73000,0.0324,0.013523,0.002678,0.000431,0.326611
74000,0.0324,0.013523,0.002678,0.000431,0.327434
75000,0.0324,0.013523,0.002678,0.000431,0.351409
76000,0.0324,0.013523,0.002678,0.000431,0.308864
77000,0.0324,0.013523,0.002678,0.000431,0.308982
78000,0.0324,0.013523,0.002678,0.000431,0.349529
79000,0.0324,0.013523,0.002678,0.000431,0.319559
80000,0.0324,0.013523,0.002678,0.000431,0.326963
81000,0.0324,0.013523,0.002678,0.000431,0.353525
82000,0.0324,0.013523,0.002678,0.000431,0.285123
83000,0.0324,0.013523,0.002678,0.000431,0.243283
84000,0.0324,0.013523,0.002678,0.000431,0.222246
85000,0.0324,0.013523,0.002678,0.000431,0.246927
86000,0.0324,0.013523,0.002678,0.000431,0.208025
87000,0.0324,0.013523,0.002678,0.000431,0.205909
88000,0.0324,0.013523,0.002678,0.000431,0.249042
89000,0.0324,0.013523,0.002678,0.000431,0.258562
90000,0.0324,0.013523,0.002678,0.000431,0.277484
91000,0.0324,0.013523,0.002678,0.000431,0.289119
92000,0.0324,0.013523,0.002678,0.000431,0.259972
93000,0.0324,0.013523,0.002678,0.000431,0.281715
94000,0.0324,0.013523,0.002678,0.000431,0.310627
95000,0.0324,0.013523,0.002678,0.000431,0.254566
96000,0.0324,0.013523,0.002678,0.000431,0.247397
97000,0.0324,0.013523,0.002678,0.000431,0.256211
98000,0.0324,0.013523,0.002678,0.000431,0.228945
99000,0.0324,0.013523,0.002678,0.000431,0.242343
100000,0.0324,0.013523,0.002678,0.000431,0.269022
101000,0.0324,0.013523,0.002678,0.000431,0.223656
102000,0.0324,0.013523,0.002678,0.000431,0.242931
103000,0.0324,0.013523,0.002678,0.000431,0.293350
104000,0.0324,0.013523,0.002678,0.000431,0.239993
105000,0.0324,0.013523,0.002678,0.000431,0.203559
106000,0.0324,0.013523,0.002678,0.000431,0.278189
107000,0.0324,0.013523,0.002678,0.000431,0.327786
108000,0.0324,0.013523,0.002678,0.000431,0.260325
109000,0.0324,0.013523,0.002678,0.000431,0.208142
110000,0.0324,0.013523,0.002678,0.000431,0.273606
111000,0.0324,0.013523,0.002678,0.000431,0.345650
112000,0.0324,0.013523,0.002678,0.000431,0.290882
113000,0.0324,0.013523,0.002678,0.000431,0.299462
114000,0.0324,0.013523,0.002678,0.000431,0.331429
115000,0.0324,0.013523,0.002678,0.000431,0.252803
116000,0.0324,0.013523,0.002678,0.000431,0.250218
117000,0.0324,0.013523,0.002678,0.000431,0.255741
118000,0.0324,0.013523,0.002678,0.000431,0.298287
119000,0.0324,0.013523,0.002678,0.000431,0.310980
120000,0.0324,0.013523,0.002678,0.000431,0.302047
121000,0.0324,0.013523,0.002678,0.000431,0.373505
122000,0.0324,0.013523,0.002678,0.000431,0.327786
123000,0.0324,0.013523,0.002678,0.000431,0.396423
124000,0.0324,0.013523,0.002678,0.000431,0.388666
125000,0.0324,0.013523,0.002678,0.000431,0.361987
126000,0.0324,0.013523,0.002678,0.000431,0.365513
127000,0.0324,0.013523,0.002678,0.000431,0.287239
128000,0.0324,0.013523,0.002678,0.000431,0.296053
129000,0.0324,0.013523,0.002678,0.000431,0.456950
130000,0.0324,0.013523,0.002678,0.000431,0.419458
131000,0.0324,0.013523,0.002678,0.000431,0.379028
132000,0.0324,0.013523,0.002678,0.000431,0.360812
133000,0.0324,0.013523,0.002678,0.000431,0.415345
134000,0.0324,0.013523,0.002678,0.000431,0.350469
135000,0.0324,0.013523,0.002678,0.000431,0.349999
136000,0.0324,0.013523,0.002678,0.000431,0.365160
137000,0.0324,0.013523,0.002678,0.000431,0.381732
138000,0.0324,0.013523,0.002678,0.000431,0.334015
139000,0.0324,0.013523,0.002678,0.000431,0.335073
140000,0.0324,0.013523,0.002678,0.000431,0.316033
141000,0.0324,0.013523,0.002678,0.000431,0.295348
142000,0.0324,0.013523,0.002678,0.000431,0.399713
143000,0.0324,0.013523,0.002678,0.000431,0.471170
144000,0.0324,0.013523,0.002678,0.000431,0.412524
145000,0.0324,0.013523,0.002678,0.000431,0.348941
146000,0.0324,0.013523,0.002678,0.000431,0.328256
147000,0.0324,0.013523,0.002678,0.000431,0.309217
148000,0.0324,0.013523,0.002678,0.000431,0.382319
149000,0.0324,0.013523,0.002678,0.000431,0.464589
150000,0.0324,0.013523,0.002678,0.000431,0.390429
151000,0.0324,0.013523,0.002678,0.000431,0.432621
152000,0.0324,0.013523,0.002678,0.000431,0.435207
153000,0.0324,0.013523,0.002678,0.000431,0.396188
154000,0.0324,0.013523,0.002678,0.000431,0.363632
155000,0.0324,0.013523,0.002678,0.000431,0.343182
156000,0.0324,0.013523,0.002678,0.000431,0.370214
157000,0.0324,0.013523,0.002678,0.000431,0.356933
158000,0.0324,0.013523,0.002678,0.000431,0.297699
159000,0.0324,0.013523,0.002678,0.000431,0.358578
160000,0.0324,0.013523,0.002678,0.000431,0.394307
161000,0.0324,0.013523,0.002678,0.000431,0.415815
162000,0.0324,0.013523,0.002678,0.000431,0.369509
163000,0.0324,0.013523,0.002678,0.000431,0.323438
164000,0.0324,0.013523,0.002678,0.000431,0.407118
165000,0.0324,0.013523,0.002678,0.000431,0.458830
166000,0.0324,0.013523,0.002678,0.000431,0.444021
167000,0.0324,0.013523,0.002678,0.000431,0.427568
168000,0.0324,0.013523,0.002678,0.000431,0.494324
169000,0.0324,0.013523,0.002678,0.000431,0.471288
170000,0.0324,0.013523,0.002678,0.000431,0.457185
171000,0.0324,0.013523,0.002678,0.000431,0.415110
172000,0.0324,0.013523,0.002678,0.000431,0.414757
173000,0.0324,0.013523,0.002678,0.000431,0.353877
174000,0.0324,0.013523,0.002678,0.000431,0.387961
175000,0.0324,0.013523,0.002678,0.000431,0.449310
176000,0.0324,0.013523,0.002678,0.000431,0.392192
177000,0.0324,0.013523,0.002678,0.000431,0.451426
178000,0.0324,0.013523,0.002678,0.000431,0.485509
179000,0.0324,0.013523,0.002678,0.000431,0.508309
180000,0.0324,0.013523,0.002678,0.000431,0.530522
181000,0.0324,0.013523,0.002678,0.000431,0.524998
182000,0.0324,0.013523,0.002678,0.000431,0.513951
183000,0.0324,0.013523,0.002678,0.000431,0.445314
184000,0.0324,0.013523,0.002678,0.000431,0.460828
185000,0.0324,0.013523,0.002678,0.000431,0.623369
186000,0.0324,0.013523,0.002678,0.000431,0.433914
187000,0.0324,0.013523,0.002678,0.000431,0.457772
188000,0.0324,0.013523,0.002678,0.000431,0.475049
189000,0.0324,0.013523,0.002678,0.000431,0.458712
190000,0.0324,0.013523,0.002678,0.000431,0.599276
191000,0.0324,0.013523,0.002678,0.000431,0.592930
192000,0.0324,0.013523,0.002678,0.000431,0.555086
193000,0.0324,0.013523,0.002678,0.000431,0.624427
194000,0.0324,0.013523,0.002678,0.000431,0.580942
195000,0.0324,0.013523,0.002678,0.000431,0.625250
196000,0.0324,0.013523,0.002678,0.000431,0.642644
197000,0.0324,0.013523,0.002678,0.000431,0.653692
198000,0.0324,0.013523,0.002678,0.000431,0.584703
199000,0.0324,0.013523,0.002678,0.000431,0.643584
200000,0.0324,0.013523,0.002678,0.000431,0.641939
201000,0.0324,0.013523,0.002678,0.000431,0.595868
202000,0.0324,0.013523,0.002678,0.000431,0.499260
203000,0.0324,0.013523,0.002678,0.000431,0.558259
204000,0.0324,0.013523,0.002678,0.000431,0.487389
205000,0.0324,0.013523,0.002678,0.000431,0.656865
206000,0.0324,0.013523,0.002678,0.000431,0.647110
207000,0.0324,0.013523,0.002678,0.000431,0.500200
208000,0.0324,0.013523,0.002678,0.000431,0.757704
209000,0.0324,0.013523,0.002678,0.000431,0.517124
210000,0.0324,0.013523,0.002678,0.000431,0.632537
211000,0.0324,0.013523,0.002678,0.000431,0.701996
212000,0.0324,0.013523,0.002678,0.000431,0.622194
213000,0.0324,0.013523,0.002678,0.000431,0.593400
214000,0.0324,0.013523,0.002678,0.000431,0.658863
215000,0.0324,0.013523,0.002678,0.000431,0.639706
216000,0.0324,0.013523,0.002678,0.000431,0.698000
217000,0.0324,0.013523,0.002678,0.000431,0.698823
218000,0.0324,0.013523,0.002678,0.000431,0.745951
219000,0.0324,0.013523,0.002678,0.000431,0.774746
220000,0.0324,0.013523,0.002678,0.000431,0.754061
221000,0.0324,0.013523,0.002678,0.000431,0.676022
222000,0.0324,0.013523,0.002678,0.000431,0.852079
223000,0.0324,0.013523,0.002678,0.000431,0.792728
224000,0.0324,0.013523,0.002678,0.000431,0.794491
225000,0.0324,0.013523,0.002678,0.000431,0.782855
226000,0.0324,0.013523,0.002678,0.000431,0.907318
227000,0.0324,0.013523,0.002678,0.000431,0.853842
228000,0.0324,0.013523,0.002678,0.000431,0.894037
229000,0.0324,0.013523,0.002678,0.000431,0.879346
230000,0.0324,0.013523,0.002678,0.000431,0.960088
231000,0.0324,0.013523,0.002678,0.000431,0.946572
232000,0.0324,0.013523,0.002678,0.000431,0.965612
233000,0.0324,0.013523,0.002678,0.000431,0.999107
234000,0.0324,0.013523,0.002678,0.000431,1.012388
235000,0.0324,0.013523,0.002678,0.000431,1.087606
236000,0.0324,0.013523,0.002678,0.000431,1.002398
237000,0.0324,0.013523,0.002678,0.000431,1.052817
238000,0.0324,0.013523,0.002678,0.000431,1.060574
239000,0.0324,0.013523,0.002678,0.000431,1.186447
240000,0.0324,0.013523,0.002678,0.000431,0.920951
241000,0.0324,0.013523,0.002678,0.000431,0.161954
242000,0.0324,0.013523,0.002678,0.000431,0.048422
243000,0.0324,0.013523,0.002678,0.000431,0.040782
244000,0.0324,0.013523,0.002678,0.000431,0.037256
245000,0.0324,0.013523,0.002678,0.000431,0.039137
246000,0.0324,0.013523,0.002678,0.000431,0.037374
247000,0.0324,0.013523,0.002678,0.000431,0.036786
248000,0.0324,0.013523,0.002678,0.000431,0.034671
249000,0.0324,0.013523,0.002678,0.000431,0.033260
250000,0.0324,0.013523,0.002678,0.000431,0.035141
251000,0.0324,0.013523,0.002678,0.000431,0.034318
252000,0.0324,0.013523,0.002678,0.000431,0.032085
253000,0.0324,0.013523,0.002678,0.000431,0.031850
254000,0.0324,0.013523,0.002678,0.000431,0.033260
255000,0.0324,0.013523,0.002678,0.000431,0.034083
256000,0.0324,0.013523,0.002678,0.000431,0.031850
257000,0.0324,0.013523,0.002678,0.000431,0.032438
258000,0.0324,0.013523,0.002678,0.000431,0.034083
259000,0.0324,0.013523,0.002678,0.000431,0.034788
260000,0.0324,0.013523,0.002678,0.000431,0.029617
261000,0.0324,0.013523,0.002678,0.000431,0.030205
262000,0.0324,0.013523,0.002678,0.000431,0.029382
263000,0.0324,0.013523,0.002678,0.000431,0.029500
264000,0.0324,0.013523,0.002678,0.000431,0.029382
265000,0.0324,0.013523,0.002678,0.000431,0.028207
266000,0.0324,0.013523,0.002678,0.000431,0.026209
267000,0.0324,0.013523,0.002678,0.000431,0.028324
268000,0.0324,0.013523,0.002678,0.000431,0.027031
269000,0.0324,0.013523,0.002678,0.000431,0.026796
270000,0.0324,0.013523,0.002678,0.000431,0.026444
271000,0.0324,0.013523,0.002678,0.000431,0.025504
272000,0.0324,0.013523,0.002678,0.000431,0.025739
273000,0.0324,0.013523,0.002678,0.000431,0.025974
274000,0.0324,0.013523,0.002678,0.000431,0.023506
275000,0.0324,0.013523,0.002678,0.000431,0.025621
276000,0.0324,0.013523,0.002678,0.000431,0.024681
277000,0.0324,0.013523,0.002678,0.000431,0.025739
278000,0.0324,0.013523,0.002678,0.000431,0.025974
279000,0.0324,0.013523,0.002678,0.000431,0.026561
280000,0.0324,0.013523,0.002678,0.000431,0.024798
281000,0.0324,0.013523,0.002678,0.000431,0.024211
282000,0.0324,0.013523,0.002678,0.000431,0.024328
283000,0.0324,0.013523,0.002678,0.000431,0.022683
284000,0.0324,0.013523,0.002678,0.000431,0.024681
285000,0.0324,0.013523,0.002678,0.000431,0.022800
286000,0.0324,0.013523,0.002678,0.000431,0.023506
287000,0.0324,0.013523,0.002678,0.000431,0.023741
288000,0.0324,0.013523,0.002678,0.000431,0.022800
289000,0.0324,0.013523,0.002678,0.000431,0.023271
290000,0.0324,0.013523,0.002678,0.000431,0.021978
291000,0.0324,0.013523,0.002678,0.000431,0.024563
292000,0.0324,0.013523,0.002678,0.000431,0.023271
293000,0.0324,0.013523,0.002678,0.000431,0.022448
294000,0.0324,0.013523,0.002678,0.000431,0.023388
295000,0.0324,0.013523,0.002678,0.000431,0.023153
296000,0.0324,0.013523,0.002678,0.000431,0.022448
297000,0.0324,0.013523,0.002678,0.000431,0.023741
298000,0.0324,0.013523,0.002678,0.000431,0.022448
299000,0.0324,0.013523,0.002678,0.000431,0.023388
300000,0.0324,0.013523,0.002678,0.000431,0.022683
301000,0.0324,0.013523,0.002678,0.000431,0.021390
302000,0.0324,0.013523,0.002678,0.000431,0.022330
303000,0.0324,0.013523,0.002678,0.000431,0.022213
304000,0.0324,0.013523,0.002678,0.000431,0.021038
305000,0.0324,0.013523,0.002678,0.000431,0.022330
306000,0.0324,0.013523,0.002678,0.000431,0.022448
307000,0.0324,0.013523,0.002678,0.000431,0.021038
308000,0.0324,0.013523,0.002678,0.000431,0.022095
309000,0.0324,0.013523,0.002678,0.000431,0.021155
310000,0.0324,0.013523,0.002678,0.000431,0.020567
311000,0.0324,0.013523,0.002678,0.000431,0.020567
312000,0.0324,0.013523,0.002678,0.000431,0.020332
313000,0.0324,0.013523,0.002678,0.000431,0.020802
314000,0.0324,0.013523,0.002678,0.000431,0.020920
315000,0.0324,0.013523,0.002678,0.000431,0.020567
316000,0.0324,0.013523,0.002678,0.000431,0.021038
317000,0.0324,0.013523,0.002678,0.000431,0.020450
318000,0.0324,0.013523,0.002678,0.000431,0.021625
319000,0.0324,0.013523,0.002678,0.000431,0.019745
320000,0.0324,0.013523,0.002678,0.000431,0.018687
321000,0.0324,0.013523,0.002678,0.000431,0.018922
322000,0.0324,0.013523,0.002678,0.000431,0.018805
323000,0.0324,0.013523,0.002678,0.000431,0.018334
324000,0.0324,0.013523,0.002678,0.000431,0.017394
325000,0.0324,0.013523,0.002678,0.000431,0.018452
326000,0.0324,0.013523,0.002678,0.000431,0.018805
327000,0.0324,0.013523,0.002678,0.000431,0.017159
328000,0.0324,0.013523,0.002678,0.000431,0.017747
329000,0.0324,0.013523,0.002678,0.000431,0.017982
330000,0.0324,0.013523,0.002678,0.000431,0.018569
331000,0.0324,0.013523,0.002678,0.000431,0.017512
332000,0.0324,0.013523,0.002678,0.000431,0.018805
333000,0.0324,0.013523,0.002678,0.000431,0.018569
334000,0.0324,0.013523,0.002678,0.000431,0.017277
335000,0.0324,0.013523,0.002678,0.000431,0.017277
336000,0.0324,0.013523,0.002678,0.000431,0.018569
337000,0.0324,0.013523,0.002678,0.000431,0.017629
338000,0.0324,0.013523,0.002678,0.000431,0.016924
339000,0.0324,0.013523,0.002678,0.000431,0.019040
340000,0.0324,0.013523,0.002678,0.000431,0.016571
341000,0.0324,0.013523,0.002678,0.000431,0.016924
342000,0.0324,0.013523,0.002678,0.000431,0.017394
343000,0.0324,0.013523,0.002678,0.000431,0.016101
344000,0.0324,0.013523,0.002678,0.000431,0.017159
345000,0.0324,0.013523,0.002678,0.000431,0.016571
346000,0.0324,0.013523,0.002678,0.000431,0.018687
347000,0.0324,0.013523,0.002678,0.000431,0.017629
348000,0.0324,0.013523,0.002678,0.000431,0.016219
349000,0.0324,0.013523,0.002678,0.000431,0.016571
350000,0.0324,0.013523,0.002678,0.000431,0.017864
351000,0.0324,0.013523,0.002678,0.000431,0.015396
352000,0.0324,0.013523,0.002678,0.000431,0.017277
353000,0.0324,0.013523,0.002678,0.000431,0.016219
354000,0.0324,0.013523,0.002678,0.000431,0.016101
355000,0.0324,0.013523,0.002678,0.000431,0.015514
356000,0.0324,0.013523,0.002678,0.000431,0.015161
357000,0.0324,0.013523,0.002678,0.000431,0.016336
358000,0.0324,0.013523,0.002678,0.000431,0.015044
359000,0.0324,0.013523,0.002678,0.000431,0.013516
360000,0.0324,0.013523,0.002678,0.000431,0.014456
361000,0.0324,0.013523,0.002678,0.000431,0.014573
362000,0.0324,0.013523,0.002678,0.000431,0.013986
363000,0.0324,0.013523,0.002678,0.000431,0.014221
364000,0.0324,0.013523,0.002678,0.000431,0.015514
365000,0.0324,0.013523,0.002678,0.000431,0.014573
366000,0.0324,0.013523,0.002678,0.000431,0.015514
367000,0.0324,0.013523,0.002678,0.000431,0.014573
368000,0.0324,0.013523,0.002678,0.000431,0.014691
369000,0.0324,0.013523,0.002678,0.000431,0.013398
370000,0.0324,0.013523,0.002678,0.000431,0.013281
371000,0.0324,0.013523,0.002678,0.000431,0.012693
372000,0.0324,0.013523,0.002678,0.000431,0.012693
373000,0.0324,0.013523,0.002678,0.000431,0.012928
374000,0.0324,0.013523,0.002678,0.000431,0.011988
375000,0.0324,0.013523,0.002678,0.000431,0.013281
376000,0.0324,0.013523,0.002678,0.000431,0.011635
377000,0.0324,0.013523,0.002678,0.000431,0.012340
378000,0.0324,0.013523,0.002678,0.000431,0.013163
379000,0.0324,0.013523,0.002678,0.000431,0.012223
380000,0.0324,0.013523,0.002678,0.000431,0.012340
381000,0.0324,0.013523,0.002678,0.000431,0.013046
382000,0.0324,0.013523,0.002678,0.000431,0.012105
383000,0.0324,0.013523,0.002678,0.000431,0.011165
384000,0.0324,0.013523,0.002678,0.000431,0.012576
385000,0.0324,0.013523,0.002678,0.000431,0.011165
386000,0.0324,0.013523,0.002678,0.000431,0.011753
387000,0.0324,0.013523,0.002678,0.000431,0.010695
388000,0.0324,0.013523,0.002678,0.000431,0.011165
389000,0.0324,0.013523,0.002678,0.000431,0.010342
390000,0.0324,0.013523,0.002678,0.000431,0.010225
391000,0.0324,0.013523,0.002678,0.000431,0.010930
392000,0.0324,0.013523,0.002678,0.000431,0.011518
393000,0.0324,0.013523,0.002678,0.000431,0.009990
394000,0.0324,0.013523,0.002678,0.000431,0.011518
395000,0.0324,0.013523,0.002678,0.000431,0.010695
396000,0.0324,0.013523,0.002678,0.000431,0.010342
397000,0.0324,0.013523,0.002678,0.000431,0.011283
398000,0.0324,0.013523,0.002678,0.000431,0.009755
399000,0.0324,0.013523,0.002678,0.000431,0.010813
400000,0.0324,0.013523,0.002678,0.000431,0.011400
401000,0.0324,0.013523,0.002678,0.000431,0.008932
402000,0.0324,0.013523,0.002678,0.000431,0.011635
403000,0.0324,0.013523,0.002678,0.000431,0.010460
404000,0.0324,0.013523,0.002678,0.000431,0.010578
405000,0.0324,0.013523,0.002678,0.000431,0.009637
406000,0.0324,0.013523,0.002678,0.000431,0.011165
407000,0.0324,0.013523,0.002678,0.000431,0.010813
408000,0.0324,0.013523,0.002678,0.000431,0.010695
409000,0.0324,0.013523,0.002678,0.000431,0.010695
410000,0.0324,0.013523,0.002678,0.000431,0.010342
411000,0.0324,0.013523,0.002678,0.000431,0.010930
412000,0.0324,0.013523,0.002678,0.000431,0.010578
413000,0.0324,0.013523,0.002678,0.000431,0.010578
414000,0.0324,0.013523,0.002678,0.000431,0.009990
415000,0.0324,0.013523,0.002678,0.000431,0.009402
416000,0.0324,0.013523,0.002678,0.000431,0.010107
417000,0.0324,0.013523,0.002678,0.000431,0.010107
418000,0.0324,0.013523,0.002678,0.000431,0.007052
419000,0.0324,0.013523,0.002678,0.000431,0.008580
420000,0.0324,0.013523,0.002678,0.000431,0.008462
421000,0.0324,0.013523,0.002678,0.000431,0.008109
422000,0.0324,0.013523,0.002678,0.000431,0.008109
423000,0.0324,0.013523,0.002678,0.000431,0.007757
424000,0.0324,0.013523,0.002678,0.000431,0.008227
425000,0.0324,0.013523,0.002678,0.000431,0.007874
426000,0.0324,0.013523,0.002678,0.000431,0.008462
427000,0.0324,0.013523,0.002678,0.000431,0.007639
428000,0.0324,0.013523,0.002678,0.000431,0.007522
429000,0.0324,0.013523,0.002678,0.000431,0.006934
430000,0.0324,0.013523,0.002678,0.000431,0.007522
431000,0.0324,0.013523,0.002678,0.000431,0.007639
432000,0.0324,0.013523,0.002678,0.000431,0.007052
433000,0.0324,0.013523,0.002678,0.000431,0.007169
434000,0.0324,0.013523,0.002678,0.000431,0.007522
435000,0.0324,0.013523,0.002678,0.000431,0.007287
436000,0.0324,0.013523,0.002678,0.000431,0.006582
437000,0.0324,0.013523,0.002678,0.000431,0.008227
438000,0.0324,0.013523,0.002678,0.000431,0.007287
439000,0.0324,0.013523,0.002678,0.000431,0.006934
440000,0.0324,0.013523,0.002678,0.000431,0.007287
441000,0.0324,0.013523,0.002678,0.000431,0.007992
442000,0.0324,0.013523,0.002678,0.000431,0.006934
443000,0.0324,0.013523,0.002678,0.000431,0.007639
444000,0.0324,0.013523,0.002678,0.000431,0.007404
445000,0.0324,0.013523,0.002678,0.000431,0.007052
446000,0.0324,0.013523,0.002678,0.000431,0.007287
447000,0.0324,0.013523,0.002678,0.000431,0.007169
448000,0.0324,0.013523,0.002678,0.000431,0.007874
449000,0.0324,0.013523,0.002678,0.000431,0.007287
450000,0.0324,0.013523,0.002678,0.000431,0.007404
451000,0.0324,0.013523,0.002678,0.000431,0.008109
452000,0.0324,0.013523,0.002678,0.000431,0.007404
453000,0.0324,0.013523,0.002678,0.000431,0.006817
454000,0.0324,0.013523,0.002678,0.000431,0.008109
455000,0.0324,0.013523,0.002678,0.000431,0.007404
456000,0.0324,0.013523,0.002678,0.000431,0.007404
457000,0.0324,0.013523,0.002678,0.000431,0.007052
458000,0.0324,0.013523,0.002678,0.000431,0.007874
459000,0.0324,0.013523,0.002678,0.000431,0.007052
460000,0.0324,0.013523,0.002678,0.000431,0.007052
461000,0.0324,0.013523,0.002678,0.000431,0.008580
462000,0.0324,0.013523,0.002678,0.000431,0.007404
463000,0.0324,0.013523,0.002678,0.000431,0.005759
464000,0.0324,0.013523,0.002678,0.000431,0.007052
465000,0.0324,0.013523,0.002678,0.000431,0.006934
466000,0.0324,0.013523,0.002678,0.000431,0.006229
467000,0.0324,0.013523,0.002678,0.000431,0.006699
468000,0.0324,0.013523,0.002678,0.000431,0.007404
469000,0.0324,0.013523,0.002678,0.000431,0.006347
470000,0.0324,0.013523,0.002678,0.000431,0.006699
471000,0.0324,0.013523,0.002678,0.000431,0.007757
472000,0.0324,0.013523,0.002678,0.000431,0.006347
473000,0.0324,0.013523,0.002678,0.000431,0.006347
474000,0.0324,0.013523,0.002678,0.000431,0.007052
475000,0.0324,0.013523,0.002678,0.000431,0.006582
476000,0.0324,0.013523,0.002678,0.000431,0.006699
477000,0.0324,0.013523,0.002678,0.000431,0.007052
478000,0.0324,0.013523,0.002678,0.000431,0.006464
479000,0.0324,0.013523,0.002678,0.000431,0.006347
480000,0.0324,0.013523,0.002678,0.000431,0.006699
481000,0.0324,0.013523,0.002678,0.000431,0.006934
482000,0.0324,0.013523,0.002678,0.000431,0.006464
483000,0.0324,0.013523,0.002678,0.000431,0.007169
484000,0.0324,0.013523,0.002678,0.000431,0.006464
485000,0.0324,0.013523,0.002678,0.000431,0.007169
486000,0.0324,0.013523,0.002678,0.000431,0.006582
487000,0.0324,0.013523,0.002678,0.000431,0.006934
488000,0.0324,0.013523,0.002678,0.000431,0.006699
489000,0.0324,0.013523,0.002678,0.000431,0.006582
490000,0.0324,0.013523,0.002678,0.000431,0.007052
491000,0.0324,0.013523,0.002678,0.000431,0.006699
492000,0.0324,0.013523,0.002678,0.000431,0.007287
493000,0.0324,0.013523,0.002678,0.000431,0.006817
494000,0.0324,0.013523,0.002678,0.000431,0.006229
495000,0.0324,0.013523,0.002678,0.000431,0.007639
496000,0.0324,0.013523,0.002678,0.000431,0.006347
497000,0.0324,0.013523,0.002678,0.000431,0.007052
498000,0.0324,0.013523,0.002678,0.000431,0.006934
499000,0.0324,0.013523,0.002678,0.000431,0.006934
500000,0.0324,0.013523,0.002678,0.000431,0.006229
501000,0.0324,0.013523,0.002678,0.000431,0.006934
502000,0.0324,0.013523,0.002678,0.000431,0.006347
503000,0.0324,0.013523,0.002678,0.000431,0.006464
504000,0.0324,0.013523,0.002678,0.000431,0.006229
505000,0.0324,0.013523,0.002678,0.000431,0.005759
506000,0.0324,0.013523,0.002678,0.000431,0.006347
507000,0.0324,0.013523,0.002678,0.000431,0.006464
508000,0.0324,0.013523,0.002678,0.000431,0.006347
509000,0.0324,0.013523,0.002678,0.000431,0.006817
510000,0.0324,0.013523,0.002678,0.000431,0.006347
511000,0.0324,0.013523,0.002678,0.000431,0.005759
512000,0.0324,0.013523,0.002678,0.000431,0.006347
513000,0.0324,0.013523,0.002678,0.000431,0.006347
514000,0.0324,0.013523,0.002678,0.000431,0.006817
515000,0.0324,0.013523,0.002678,0.000431,0.005876
516000,0.0324,0.013523,0.002678,0.000431,0.006464
517000,0.0324,0.013523,0.002678,0.000431,0.005524
518000,0.0324,0.013523,0.002678,0.000431,0.006111
519000,0.0324,0.013523,0.002678,0.000431,0.005759
520000,0.0324,0.013523,0.002678,0.000431,0.005876
521000,0.0324,0.013523,0.002678,0.000431,0.006582
522000,0.0324,0.013523,0.002678,0.000431,0.006229
523000,0.0324,0.013523,0.002678,0.000431,0.005171
524000,0.0324,0.013523,0.002678,0.000431,0.006347
525000,0.0324,0.013523,0.002678,0.000431,0.006699
526000,0.0324,0.013523,0.002678,0.000431,0.005524
527000,0.0324,0.013523,0.002678,0.000431,0.005994
528000,0.0324,0.013523,0.002678,0.000431,0.006111
529000,0.0324,0.013523,0.002678,0.000431,0.005759
530000,0.0324,0.013523,0.002678,0.000431,0.005759
531000,0.0324,0.013523,0.002678,0.000431,0.006464
532000,0.0324,0.013523,0.002678,0.000431,0.005994
533000,0.0324,0.013523,0.002678,0.000431,0.005876
534000,0.0324,0.013523,0.002678,0.000431,0.005876
535000,0.0324,0.013523,0.002678,0.000431,0.005759
536000,0.0324,0.013523,0.002678,0.000431,0.006347
537000,0.0324,0.013523,0.002678,0.000431,0.005524
538000,0.0324,0.013523,0.002678,0.000431,0.005641
539000,0.0324,0.013523,0.002678,0.000431,0.006229
540000,0.0324,0.013523,0.002678,0.000431,0.005876
541000,0.0324,0.013523,0.002678,0.000431,0.005641
542000,0.0324,0.013523,0.002678,0.000431,0.006464
543000,0.0324,0.013523,0.002678,0.000431,0.005759
544000,0.0324,0.013523,0.002678,0.000431,0.005641
545000,0.0324,0.013523,0.002678,0.000431,0.006229
546000,0.0324,0.013523,0.002678,0.000431,0.006229
547000,0.0324,0.013523,0.002678,0.000431,0.005759
548000,0.0324,0.013523,0.002678,0.000431,0.005759
549000,0.0324,0.013523,0.002678,0.000431,0.006229
550000,0.0324,0.013523,0.002678,0.000431,0.006111
551000,0.0324,0.013523,0.002678,0.000431,0.005406
552000,0.0324,0.013523,0.002678,0.000431,0.006464
553000,0.0324,0.013523,0.002678,0.000431,0.005641
554000,0.0324,0.013523,0.002678,0.000431,0.005524
555000,0.0324,0.013523,0.002678,0.000431,0.006229
556000,0.0324,0.013523,0.002678,0.000431,0.005994
557000,0.0324,0.013523,0.002678,0.000431,0.005289
558000,0.0324,0.013523,0.002678,0.000431,0.005524
559000,0.0324,0.013523,0.002678,0.000431,0.006699
560000,0.0324,0.013523,0.002678,0.000431,0.005994
561000,0.0324,0.013523,0.002678,0.000431,0.005641
562000,0.0324,0.013523,0.002678,0.000431,0.006464
563000,0.0324,0.013523,0.002678,0.000431,0.005641
564000,0.0324,0.013523,0.002678,0.000431,0.005524
565000,0.0324,0.013523,0.002678,0.000431,0.006699
566000,0.0324,0.013523,0.002678,0.000431,0.005524
567000,0.0324,0.013523,0.002678,0.000431,0.005759
568000,0.0324,0.013523,0.002678,0.000431,0.006229
569000,0.0324,0.013523,0.002678,0.000431,0.006111
570000,0.0324,0.013523,0.002678,0.000431,0.005406
571000,0.0324,0.013523,0.002678,0.000431,0.006464
572000,0.0324,0.013523,0.002678,0.000431,0.005406
573000,0.0324,0.013523,0.002678,0.000431,0.005876
574000,0.0324,0.013523,0.002678,0.000431,0.005994
575000,0.0324,0.013523,0.002678,0.000431,0.006229
576000,0.0324,0.013523,0.002678,0.000431,0.006347
577000,0.0324,0.013523,0.002678,0.000431,0.005876
578000,0.0324,0.013523,0.002678,0.000431,0.006347
579000,0.0324,0.013523,0.002678,0.000431,0.005641
580000,0.0324,0.013523,0.002678,0.000431,0.006229
581000,0.0324,0.013523,0.002678,0.000431,0.006229
582000,0.0324,0.013523,0.002678,0.000431,0.005641
583000,0.0324,0.013523,0.002678,0.000431,0.006347
584000,0.0324,0.013523,0.002678,0.000431,0.006464
585000,0.0324,0.013523,0.002678,0.000431,0.005524
586000,0.0324,0.013523,0.002678,0.000431,0.006347
587000,0.0324,0.013523,0.002678,0.000431,0.006229
588000,0.0324,0.013523,0.002678,0.000431,0.005759
589000,0.0324,0.013523,0.002678,0.000431,0.005876
590000,0.0324,0.013523,0.002678,0.000431,0.006464
591000,0.0324,0.013523,0.002678,0.000431,0.005524
592000,0.0324,0.013523,0.002678,0.000431,0.005759
593000,0.0324,0.013523,0.002678,0.000431,0.006464
594000,0.0324,0.013523,0.002678,0.000431,0.006111
595000,0.0324,0.013523,0.002678,0.000431,0.005406
596000,0.0324,0.013523,0.002678,0.000431,0.006111
597000,0.0324,0.013523,0.002678,0.000431,0.005994
598000,0.0324,0.013523,0.002678,0.000431,0.005759
599000,0.0324,0.013523,0.002678,0.000431,0.005876
600000,0.0324,0.013523,0.002678,0.000431,0.006464
601000,0.0324,0.013523,0.002678,0.000431,0.005876
602000,0.0324,0.013523,0.002678,0.000431,0.005876
603000,0.0324,0.013523,0.002678,0.000431,0.006347
604000,0.0324,0.013523,0.002678,0.000431,0.005994
605000,0.0324,0.013523,0.002678,0.000431,0.005641
606000,0.0324,0.013523,0.002678,0.000431,0.005876
607000,0.0324,0.013523,0.002678,0.000431,0.006464
608000,0.0324,0.013523,0.002678,0.000431,0.005876
609000,0.0324,0.013523,0.002678,0.000431,0.005876
610000,0.0324,0.013523,0.002678,0.000431,0.006699
611000,0.0324,0.013523,0.002678,0.000431,0.006111
612000,0.0324,0.013523,0.002678,0.000431,0.005994
613000,0.0324,0.013523,0.002678,0.000431,0.005876
614000,0.0324,0.013523,0.002678,0.000431,0.005994
615000,0.0324,0.013523,0.002678,0.000431,0.005994
616000,0.0324,0.013523,0.002678,0.000431,0.006229
617000,0.0324,0.013523,0.002678,0.000431,0.006111
618000,0.0324,0.013523,0.002678,0.000431,0.005641
619000,0.0324,0.013523,0.002678,0.000431,0.006464
620000,0.0324,0.013523,0.002678,0.000431,0.005759
621000,0.0324,0.013523,0.002678,0.000431,0.006464
622000,0.0324,0.013523,0.002678,0.000431,0.005759
623000,0.0324,0.013523,0.002678,0.000431,0.006229
624000,0.0324,0.013523,0.002678,0.000431,0.005759
625000,0.0324,0.013523,0.002678,0.000431,0.005289
626000,0.0324,0.013523,0.002678,0.000431,0.006111
627000,0.0324,0.013523,0.002678,0.000431,0.006347
628000,0.0324,0.013523,0.002678,0.000431,0.005876
629000,0.0324,0.013523,0.002678,0.000431,0.006347
630000,0.0324,0.013523,0.002678,0.000431,0.005759
631000,0.0324,0.013523,0.002678,0.000431,0.005054
632000,0.0324,0.013523,0.002678,0.000431,0.005406
633000,0.0324,0.013523,0.002678,0.000431,0.005406
634000,0.0324,0.013523,0.002678,0.000431,0.005994
635000,0.0324,0.013523,0.002678,0.000431,0.004936
636000,0.0324,0.013523,0.002678,0.000431,0.005171
637000,0.0324,0.013523,0.002678,0.000431,0.005171
638000,0.0324,0.013523,0.002678,0.000431,0.004936
639000,0.0324,0.013523,0.002678,0.000431,0.004701
640000,0.0324,0.013523,0.002678,0.000431,0.005289
641000,0.0324,0.013523,0.002678,0.000431,0.004936
642000,0.0324,0.013523,0.002678,0.000431,0.004936
643000,0.0324,0.013523,0.002678,0.000431,0.005524
644000,0.0324,0.013523,0.002678,0.000431,0.004701
645000,0.0324,0.013523,0.002678,0.000431,0.005054
646000,0.0324,0.013523,0.002678,0.000431,0.005406
647000,0.0324,0.013523,0.002678,0.000431,0.004584
648000,0.0324,0.013523,0.002678,0.000431,0.004936
649000,0.0324,0.013523,0.002678,0.000431,0.005406
650000,0.0324,0.013523,0.002678,0.000431,0.004466
651000,0.0324,0.013523,0.002678,0.000431,0.004936
652000,0.0324,0.013523,0.002678,0.000431,0.005524
653000,0.0324,0.013523,0.002678,0.000431,0.005171
654000,0.0324,0.013523,0.002678,0.000431,0.005289
655000,0.0324,0.013523,0.002678,0.000431,0.005054
656000,0.0324,0.013523,0.002678,0.000431,0.005054
657000,0.0324,0.013523,0.002678,0.000431,0.005054
658000,0.0324,0.013523,0.002678,0.000431,0.004936
659000,0.0324,0.013523,0.002678,0.000431,0.004701
660000,0.0324,0.013523,0.002678,0.000431,0.004936
661000,0.0324,0.013523,0.002678,0.000431,0.004936
662000,0.0324,0.013523,0.002678,0.000431,0.005289
663000,0.0324,0.013523,0.002678,0.000431,0.004936
664000,0.0324,0.013523,0.002678,0.000431,0.004819
665000,0.0324,0.013523,0.002678,0.000431,0.004819
666000,0.0324,0.013523,0.002678,0.000431,0.005524
667000,0.0324,0.013523,0.002678,0.000431,0.004936
668000,0.0324,0.013523,0.002678,0.000431,0.004584
669000,0.0324,0.013523,0.002678,0.000431,0.005406
670000,0.0324,0.013523,0.002678,0.000431,0.005289
671000,0.0324,0.013523,0.002678,0.000431,0.004584
672000,0.0324,0.013523,0.002678,0.000431,0.004701
673000,0.0324,0.013523,0.002678,0.000431,0.005524
674000,0.0324,0.013523,0.002678,0.000431,0.004701
675000,0.0324,0.013523,0.002678,0.000431,0.004701
676000,0.0324,0.013523,0.002678,0.000431,0.005524
677000,0.0324,0.013523,0.002678,0.000431,0.004819
678000,0.0324,0.013523,0.002678,0.000431,0.004584
679000,0.0324,0.013523,0.002678,0.000431,0.005054
680000,0.0324,0.013523,0.002678,0.000431,0.004819
681000,0.0324,0.013523,0.002678,0.000431,0.004819
682000,0.0324,0.013523,0.002678,0.000431,0.005054
683000,0.0324,0.013523,0.002678,0.000431,0.004819
684000,0.0324,0.013523,0.002678,0.000431,0.004584
685000,0.0324,0.013523,0.002678,0.000431,0.005054
686000,0.0324,0.013523,0.002678,0.000431,0.005289
687000,0.0324,0.013523,0.002678,0.000431,0.004231
688000,0.0324,0.013523,0.002678,0.000431,0.005054
689000,0.0324,0.013523,0.002678,0.000431,0.005289
690000,0.0324,0.013523,0.002678,0.000431,0.004584
691000,0.0324,0.013523,0.002678,0.000431,0.005171
692000,0.0324,0.013523,0.002678,0.000431,0.004819
693000,0.0324,0.013523,0.002678,0.000431,0.005171
694000,0.0324,0.013523,0.002678,0.000431,0.004936
695000,0.0324,0.013523,0.002678,0.000431,0.004584
696000,0.0324,0.013523,0.002678,0.000431,0.005171
697000,0.0324,0.013523,0.002678,0.000431,0.005171
698000,0.0324,0.013523,0.002678,0.000431,0.004701
699000,0.0324,0.013523,0.002678,0.000431,0.005289
700000,0.0324,0.013523,0.002678,0.000431,0.005406
701000,0.0324,0.013523,0.002678,0.000431,0.004231
702000,0.0324,0.013523,0.002678,0.000431,0.004936
703000,0.0324,0.013523,0.002678,0.000431,0.004819
704000,0.0324,0.013523,0.002678,0.000431,0.004936
705000,0.0324,0.013523,0.002678,0.000431,0.005171
706000,0.0324,0.013523,0.002678,0.000431,0.004819
707000,0.0324,0.013523,0.002678,0.000431,0.004584
708000,0.0324,0.013523,0.002678,0.000431,0.005171
709000,0.0324,0.013523,0.002678,0.000431,0.005171
710000,0.0324,0.013523,0.002678,0.000431,0.004936
711000,0.0324,0.013523,0.002678,0.000431,0.004819
712000,0.0324,0.013523,0.002678,0.000431,0.004701
713000,0.0324,0.013523,0.002678,0.000431,0.003761
714000,0.0324,0.013523,0.002678,0.000431,0.004466
715000,0.0324,0.013523,0.002678,0.000431,0.004231
716000,0.0324,0.013523,0.002678,0.000431,0.004349
717000,0.0324,0.013523,0.002678,0.000431,0.003878
718000,0.0324,0.013523,0.002678,0.000431,0.004466
719000,0.0324,0.013523,0.002678,0.000431,0.004231
720000,0.0324,0.013523,0.002678,0.000431,0.003996
721000,0.0324,0.013523,0.002678,0.000431,0.004701
722000,0.0324,0.013523,0.002678,0.000431,0.004819
723000,0.0324,0.013523,0.002678,0.000431,0.003291
724000,0.0324,0.013523,0.002678,0.000431,0.003643
725000,0.0324,0.013523,0.002678,0.000431,0.003291
726000,0.0324,0.013523,0.002678,0.000431,0.003526
727000,0.0324,0.013523,0.002678,0.000431,0.003291
728000,0.0324,0.013523,0.002678,0.000431,0.003643
729000,0.0324,0.013523,0.002678,0.000431,0.003526
730000,0.0324,0.013523,0.002678,0.000431,0.003291
731000,0.0324,0.013523,0.002678,0.000431,0.003173
732000,0.0324,0.013523,0.002678,0.000431,0.003761
733000,0.0324,0.013523,0.002678,0.000431,0.003526
734000,0.0324,0.013523,0.002678,0.000431,0.003643
735000,0.0324,0.013523,0.002678,0.000431,0.003408
736000,0.0324,0.013523,0.002678,0.000431,0.003408
737000,0.0324,0.013523,0.002678,0.000431,0.003291
738000,0.0324,0.013523,0.002678,0.000431,0.003643
739000,0.0324,0.013523,0.002678,0.000431,0.003761
740000,0.0324,0.013523,0.002678,0.000431,0.003408
741000,0.0324,0.013523,0.002678,0.000431,0.003408
742000,0.0324,0.013523,0.002678,0.000431,0.004231
743000,0.0324,0.013523,0.002678,0.000431,0.002821
744000,0.0324,0.013523,0.002678,0.000431,0.003996
745000,0.0324,0.013523,0.002678,0.000431,0.003056
746000,0.0324,0.013523,0.002678,0.000431,0.002938
747000,0.0324,0.013523,0.002678,0.000431,0.002351
748000,0.0324,0.013523,0.002678,0.000431,0.002821
749000,0.0324,0.013523,0.002678,0.000431,0.002938
750000,0.0324,0.013523,0.002678,0.000431,0.002468
751000,0.0324,0.013523,0.002678,0.000431,0.002938
752000,0.0324,0.013523,0.002678,0.000431,0.002821
753000,0.0324,0.013523,0.002678,0.000431,0.002703
754000,0.0324,0.013523,0.002678,0.000431,0.002233
755000,0.0324,0.013523,0.002678,0.000431,0.003173
756000,0.0324,0.013523,0.002678,0.000431,0.002703
757000,0.0324,0.013523,0.002678,0.000431,0.002821
758000,0.0324,0.013523,0.002678,0.000431,0.003056
759000,0.0324,0.013523,0.002678,0.000431,0.002821
760000,0.0324,0.013523,0.002678,0.000431,0.002586
761000,0.0324,0.013523,0.002678,0.000431,0.002821
762000,0.0324,0.013523,0.002678,0.000431,0.002938
763000,0.0324,0.013523,0.002678,0.000431,0.002586
764000,0.0324,0.013523,0.002678,0.000431,0.003056
765000,0.0324,0.013523,0.002678,0.000431,0.002821
766000,0.0324,0.013523,0.002678,0.000431,0.002703
767000,0.0324,0.013523,0.002678,0.000431,0.002821
768000,0.0324,0.013523,0.002678,0.000431,0.002703
769000,0.0324,0.013523,0.002678,0.000431,0.002938
770000,0.0324,0.013523,0.002678,0.000431,0.002821
771000,0.0324,0.013523,0.002678,0.000431,0.002821
772000,0.0324,0.013523,0.002678,0.000431,0.002703
773000,0.0324,0.013523,0.002678,0.000431,0.002821
774000,0.0324,0.013523,0.002678,0.000431,0.002821
775000,0.0324,0.013523,0.002678,0.000431,0.002821
776000,0.0324,0.013523,0.002678,0.000431,0.002586
777000,0.0324,0.013523,0.002678,0.000431,0.002938
778000,0.0324,0.013523,0.002678,0.000431,0.002586
779000,0.0324,0.013523,0.002678,0.000431,0.002938
780000,0.0324,0.013523,0.002678,0.000431,0.002586
781000,0.0324,0.013523,0.002678,0.000431,0.002821
782000,0.0324,0.013523,0.002678,0.000431,0.002586
783000,0.0324,0.013523,0.002678,0.000431,0.003056
784000,0.0324,0.013523,0.002678,0.000431,0.002351
785000,0.0324,0.013523,0.002678,0.000431,0.002821
786000,0.0324,0.013523,0.002678,0.000431,0.002938
787000,0.0324,0.013523,0.002678,0.000431,0.002821
788000,0.0324,0.013523,0.002678,0.000431,0.002586
789000,0.0324,0.013523,0.002678,0.000431,0.002938
790000,0.0324,0.013523,0.002678,0.000431,0.002703
791000,0.0324,0.013523,0.002678,0.000431,0.002586
792000,0.0324,0.013523,0.002678,0.000431,0.002468
793000,0.0324,0.013523,0.002678,0.000431,0.003056
794000,0.0324,0.013523,0.002678,0.000431,0.002586
795000,0.0324,0.013523,0.002678,0.000431,0.002703
796000,0.0324,0.013523,0.002678,0.000431,0.002938
797000,0.0324,0.013523,0.002678,0.000431,0.002586
798000,0.0324,0.013523,0.002678,0.000431,0.002821
799000,0.0324,0.013523,0.002678,0.000431,0.003056
800000,0.0324,0.013523,0.002678,0.000431,0.002468
801000,0.0324,0.013523,0.002678,0.000431,0.002703
802000,0.0324,0.013523,0.002678,0.000431,0.002821
803000,0.0324,0.013523,0.002678,0.000431,0.003056
804000,0.0324,0.013523,0.002678,0.000431,0.002586
805000,0.0324,0.013523,0.002678,0.000431,0.002703
806000,0.0324,0.013523,0.002678,0.000431,0.003056
807000,0.0324,0.013523,0.002678,0.000431,0.002586
808000,0.0324,0.013523,0.002678,0.000431,0.002468
809000,0.0324,0.013523,0.002678,0.000431,0.002586
810000,0.0324,0.013523,0.002678,0.000431,0.002703
811000,0.0324,0.013523,0.002678,0.000431,0.002938
812000,0.0324,0.013523,0.002678,0.000431,0.002821
813000,0.0324,0.013523,0.002678,0.000431,0.002703
814000,0.0324,0.013523,0.002678,0.000431,0.002938
815000,0.0324,0.013523,0.002678,0.000431,0.002586
816000,0.0324,0.013523,0.002678,0.000431,0.002821
817000,0.0324,0.013523,0.002678,0.000431,0.002938
818000,0.0324,0.013523,0.002678,0.000431,0.003056
819000,0.0324,0.013523,0.002678,0.000431,0.002468
820000,0.0324,0.013523,0.002678,0.000431,0.002821
821000,0.0324,0.013523,0.002678,0.000431,0.002586
822000,0.0324,0.013523,0.002678,0.000431,0.002821
823000,0.0324,0.013523,0.002678,0.000431,0.002703
824000,0.0324,0.013523,0.002678,0.000431,0.003173
825000,0.0324,0.013523,0.002678,0.000431,0.002821
826000,0.0324,0.013523,0.002678,0.000431,0.003643
827000,0.0324,0.013523,0.002678,0.000431,0.002703
828000,0.0324,0.013523,0.002678,0.000431,0.002233
829000,0.0324,0.013523,0.002678,0.000431,0.002468
830000,0.0324,0.013523,0.002678,0.000431,0.002351
831000,0.0324,0.013523,0.002678,0.000431,0.002586
832000,0.0324,0.013523,0.002678,0.000431,0.002116
833000,0.0324,0.013523,0.002678,0.000431,0.002468
834000,0.0324,0.013523,0.002678,0.000431,0.002586
835000,0.0324,0.013523,0.002678,0.000431,0.002116
836000,0.0324,0.013523,0.002678,0.000431,0.002468
837000,0.0324,0.013523,0.002678,0.000431,0.002468
838000,0.0324,0.013523,0.002678,0.000431,0.002703
839000,0.0324,0.013523,0.002678,0.000431,0.002116
840000,0.0324,0.013523,0.002678,0.000431,0.002351
841000,0.0324,0.013523,0.002678,0.000431,0.002586
842000,0.0324,0.013523,0.002678,0.000431,0.002351
843000,0.0324,0.013523,0.002678,0.000431,0.002468
844000,0.0324,0.013523,0.002678,0.000431,0.002468
845000,0.0324,0.013523,0.002678,0.000431,0.002233
846000,0.0324,0.013523,0.002678,0.000431,0.002821
847000,0.0324,0.013523,0.002678,0.000431,0.002116
848000,0.0324,0.013523,0.002678,0.000431,0.001410
849000,0.0324,0.013523,0.002678,0.000431,0.001880
850000,0.0324,0.013523,0.002678,0.000431,0.001645
851000,0.0324,0.013523,0.002678,0.000431,0.001410
852000,0.0324,0.013523,0.002678,0.000431,0.001880
853000,0.0324,0.013523,0.002678,0.000431,0.001645
854000,0.0324,0.013523,0.002678,0.000431,0.001645
855000,0.0324,0.013523,0.002678,0.000431,0.001880
856000,0.0324,0.013523,0.002678,0.000431,0.001528
857000,0.0324,0.013523,0.002678,0.000431,0.001880
858000,0.0324,0.013523,0.002678,0.000431,0.001410
859000,0.0324,0.013523,0.002678,0.000431,0.001528
860000,0.0324,0.013523,0.002678,0.000431,0.001880
861000,0.0324,0.013523,0.002678,0.000431,0.001763
862000,0.0324,0.013523,0.002678,0.000431,0.001645
863000,0.0324,0.013523,0.002678,0.000431,0.001645
864000,0.0324,0.013523,0.002678,0.000431,0.001645
865000,0.0324,0.013523,0.002678,0.000431,0.001528
866000,0.0324,0.013523,0.002678,0.000431,0.001880
867000,0.0324,0.013523,0.002678,0.000431,0.001763
868000,0.0324,0.013523,0.002678,0.000431,0.001763
869000,0.0324,0.013523,0.002678,0.000431,0.001763
870000,0.0324,0.013523,0.002678,0.000431,0.001880
871000,0.0324,0.013523,0.002678,0.000431,0.001998
872000,0.0324,0.013523,0.002678,0.000431,0.001763
873000,0.0324,0.013523,0.002678,0.000431,0.001528
874000,0.0324,0.013523,0.002678,0.000431,0.001763
875000,0.0324,0.013523,0.002678,0.000431,0.001763
876000,0.0324,0.013523,0.002678,0.000431,0.001410
877000,0.0324,0.013523,0.002678,0.000431,0.001763
878000,0.0324,0.013523,0.002678,0.000431,0.001998
879000,0.0324,0.013523,0.002678,0.000431,0.001880
880000,0.0324,0.013523,0.002678,0.000431,0.001293
881000,0.0324,0.013523,0.002678,0.000431,0.002116
882000,0.0324,0.013523,0.002678,0.000431,0.001410
883000,0.0324,0.013523,0.002678,0.000431,0.001528
884000,0.0324,0.013523,0.002678,0.000431,0.001880
885000,0.0324,0.013523,0.002678,0.000431,0.001763
886000,0.0324,0.013523,0.002678,0.000431,0.001528
887000,0.0324,0.013523,0.002678,0.000431,0.001645
888000,0.0324,0.013523,0.002678,0.000431,0.001645
889000,0.0324,0.013523,0.002678,0.000431,0.001645
890000,0.0324,0.013523,0.002678,0.000431,0.001645
891000,0.0324,0.013523,0.002678,0.000431,0.001763
892000,0.0324,0.013523,0.002678,0.000431,0.001763
893000,0.0324,0.013523,0.002678,0.000431,0.001645
894000,0.0324,0.013523,0.002678,0.000431,0.001763
895000,0.0324,0.013523,0.002678,0.000431,0.001763
896000,0.0324,0.013523,0.002678,0.000431,0.001763
897000,0.0324,0.013523,0.002678,0.000431,0.001528
898000,0.0324,0.013523,0.002678,0.000431,0.001998
899000,0.0324,0.013523,0.002678,0.000431,0.001763
900000,0.0324,0.013523,0.002678,0.000431,0.001410
901000,0.0324,0.013523,0.002678,0.000431,0.001763
902000,0.0324,0.013523,0.002678,0.000431,0.001645
903000,0.0324,0.013523,0.002678,0.000431,0.001645
904000,0.0324,0.013523,0.002678,0.000431,0.001880
905000,0.0324,0.013523,0.002678,0.000431,0.001763
906000,0.0324,0.013523,0.002678,0.000431,0.001763
907000,0.0324,0.013523,0.002678,0.000431,0.001645
908000,0.0324,0.013523,0.002678,0.000431,0.001763
909000,0.0324,0.013523,0.002678,0.000431,0.001763
910000,0.0324,0.013523,0.002678,0.000431,0.001763
911000,0.0324,0.013523,0.002678,0.000431,0.001763
912000,0.0324,0.013523,0.002678,0.000431,0.001763
913000,0.0324,0.013523,0.002678,0.000431,0.001645
914000,0.0324,0.013523,0.002678,0.000431,0.001645
915000,0.0324,0.013523,0.002678,0.000431,0.001528
916000,0.0324,0.013523,0.002678,0.000431,0.001880
917000,0.0324,0.013523,0.002678,0.000431,0.001528
918000,0.0324,0.013523,0.002678,0.000431,0.001763
919000,0.0324,0.013523,0.002678,0.000431,0.001880
920000,0.0324,0.013523,0.002678,0.000431,0.001763
921000,0.0324,0.013523,0.002678,0.000431,0.001645
922000,0.0324,0.013523,0.002678,0.000431,0.001880
923000,0.0324,0.013523,0.002678,0.000431,0.001763
924000,0.0324,0.013523,0.002678,0.000431,0.001528
925000,0.0324,0.013523,0.002678,0.000431,0.001645
926000,0.0324,0.013523,0.002678,0.000431,0.001880
927000,0.0324,0.013523,0.002678,0.000431,0.001645
928000,0.0324,0.013523,0.002678,0.000431,0.001528
929000,0.0324,0.013523,0.002678,0.000431,0.002116
930000,0.0324,0.013523,0.002678,0.000431,0.001763
931000,0.0324,0.013523,0.002678,0.000431,0.001293
932000,0.0324,0.013523,0.002678,0.000431,0.001880
933000,0.0324,0.013523,0.002678,0.000431,0.001645
934000,0.0324,0.013523,0.002678,0.000431,0.001528
935000,0.0324,0.013523,0.002678,0.000431,0.001645
936000,0.0324,0.013523,0.002678,0.000431,0.001880
937000,0.0324,0.013523,0.002678,0.000431,0.001763
938000,0.0324,0.013523,0.002678,0.000431,0.001293
939000,0.0324,0.013523,0.002678,0.000431,0.001998
940000,0.0324,0.013523,0.002678,0.000431,0.001763
941000,0.0324,0.013523,0.002678,0.000431,0.001410
942000,0.0324,0.013523,0.002678,0.000431,0.001880
943000,0.0324,0.013523,0.002678,0.000431,0.001645
944000,0.0324,0.013523,0.002678,0.000431,0.001763
945000,0.0324,0.013523,0.002678,0.000431,0.001763
946000,0.0324,0.013523,0.002678,0.000431,0.001763
947000,0.0324,0.013523,0.002678,0.000431,0.001763
948000,0.0324,0.013523,0.002678,0.000431,0.001645
949000,0.0324,0.013523,0.002678,0.000431,0.001645
950000,0.0324,0.013523,0.002678,0.000431,0.001880
951000,0.0324,0.013523,0.002678,0.000431,0.001763
952000,0.0324,0.013523,0.002678,0.000431,0.001763
953000,0.0324,0.013523,0.002678,0.000431,0.001528
954000,0.0324,0.013523,0.002678,0.000431,0.001880
955000,0.0324,0.013523,0.002678,0.000431,0.001763
956000,0.0324,0.013523,0.002678,0.000431,0.001410
957000,0.0324,0.013523,0.002678,0.000431,0.001998
958000,0.0324,0.013523,0.002678,0.000431,0.001645
959000,0.0324,0.013523,0.002678,0.000431,0.001645
960000,0.0324,0.013523,0.002678,0.000431,0.001880
961000,0.0324,0.013523,0.002678,0.000431,0.001998
962000,0.0324,0.013523,0.002678,0.000431,0.001410
963000,0.0324,0.013523,0.002678,0.000431,0.001763
964000,0.0324,0.013523,0.002678,0.000431,0.001880
965000,0.0324,0.013523,0.002678,0.000431,0.001528
966000,0.0324,0.013523,0.002678,0.000431,0.001645
967000,0.0324,0.013523,0.002678,0.000431,0.001763
968000,0.0324,0.013523,0.002678,0.000431,0.001880
969000,0.0324,0.013523,0.002678,0.000431,0.001293
970000,0.0324,0.013523,0.002678,0.000431,0.001880
971000,0.0324,0.013523,0.002678,0.000431,0.001763
972000,0.0324,0.013523,0.002678,0.000431,0.001645
973000,0.0324,0.013523,0.002678,0.000431,0.001998
974000,0.0324,0.013523,0.002678,0.000431,0.001645
975000,0.0324,0.013523,0.002678,0.000431,0.001763
976000,0.0324,0.013523,0.002678,0.000431,0.001528
977000,0.0324,0.013523,0.002678,0.000431,0.001998
978000,0.0324,0.013523,0.002678,0.000431,0.001645
979000,0.0324,0.013523,0.002678,0.000431,0.001880
980000,0.0324,0.013523,0.002678,0.000431,0.001763
981000,0.0324,0.013523,0.002678,0.000431,0.001645
982000,0.0324,0.013523,0.002678,0.000431,0.001645
983000,0.0324,0.013523,0.002678,0.000431,0.001763
984000,0.0324,0.013523,0.002678,0.000431,0.001763
985000,0.0324,0.013523,0.002678,0.000431,0.001645
986000,0.0324,0.013523,0.002678,0.000431,0.001880
987000,0.0324,0.013523,0.002678,0.000431,0.001528
988000,0.0324,0.013523,0.002678,0.000431,0.001880
989000,0.0324,0.013523,0.002678,0.000431,0.001880
990000,0.0324,0.013523,0.002678,0.000431,0.001645
991000,0.0324,0.013523,0.002678,0.000431,0.001880
992000,0.0324,0.013523,0.002678,0.000431,0.001998
993000,0.0324,0.013523,0.002678,0.000431,0.001293
994000,0.0324,0.013523,0.002678,0.000431,0.001645
995000,0.0324,0.013523,0.002678,0.000431,0.001880
996000,0.0324,0.013523,0.002678,0.000431,0.001763
997000,0.0324,0.013523,0.002678,0.000431,0.001763
998000,0.0324,0.013523,0.002678,0.000431,0.001998
999000,0.0324,0.013523,0.002678,0.000431,0.001763
