Cycle,Area(mm^2),PeakDynamic(W),SubthresholdLeakage(W),GateLeakage(W),RunTimeDynamic(W)
5000000,0.0324,0.013523,0.002678,0.000431,0.001763
5001000,0.0324,0.013523,0.002678,0.000431,0.001645
5002000,0.0324,0.013523,0.002678,0.000431,0.001645
5003000,0.0324,0.013523,0.002678,0.000431,0.001410
5004000,0.0324,0.013523,0.002678,0.000431,0.001763
5005000,0.0324,0.013523,0.002678,0.000431,0.001175
5006000,0.0324,0.013523,0.002678,0.000431,0.001528
5007000,0.0324,0.013523,0.002678,0.000431,0.001763
5008000,0.0324,0.013523,0.002678,0.000431,0.001410
5009000,0.0324,0.013523,0.002678,0.000431,0.001528
5010000,0.0324,0.013523,0.002678,0.000431,0.001528
5011000,0.0324,0.013523,0.002678,0.000431,0.001528
5012000,0.0324,0.013523,0.002678,0.000431,0.001528
5013000,0.0324,0.013523,0.002678,0.000431,0.001645
5014000,0.0324,0.013523,0.002678,0.000431,0.001410
5015000,0.0324,0.013523,0.002678,0.000431,0.001645
5016000,0.0324,0.013523,0.002678,0.000431,0.001410
5017000,0.0324,0.013523,0.002678,0.000431,0.001645
5018000,0.0324,0.013523,0.002678,0.000431,0.001763
5019000,0.0324,0.013523,0.002678,0.000431,0.001410
5020000,0.0324,0.013523,0.002678,0.000431,0.001528
5021000,0.0324,0.013523,0.002678,0.000431,0.001645
5022000,0.0324,0.013523,0.002678,0.000431,0.001410
5023000,0.0324,0.013523,0.002678,0.000431,0.001763
5024000,0.0324,0.013523,0.002678,0.000431,0.001410
5025000,0.0324,0.013523,0.002678,0.000431,0.001528
5026000,0.0324,0.013523,0.002678,0.000431,0.001645
5027000,0.0324,0.013523,0.002678,0.000431,0.001880
5028000,0.0324,0.013523,0.002678,0.000431,0.001998
5029000,0.0324,0.013523,0.002678,0.000431,0.001763
5030000,0.0324,0.013523,0.002678,0.000431,0.001645
5031000,0.0324,0.013523,0.002678,0.000431,0.001645
5032000,0.0324,0.013523,0.002678,0.000431,0.001763
5033000,0.0324,0.013523,0.002678,0.000431,0.001763
5034000,0.0324,0.013523,0.002678,0.000431,0.001763
5035000,0.0324,0.013523,0.002678,0.000431,0.001645
5036000,0.0324,0.013523,0.002678,0.000431,0.001763
5037000,0.0324,0.013523,0.002678,0.000431,0.001528
5038000,0.0324,0.013523,0.002678,0.000431,0.001998
5039000,0.0324,0.013523,0.002678,0.000431,0.001410
5040000,0.0324,0.013523,0.002678,0.000431,0.001645
5041000,0.0324,0.013523,0.002678,0.000431,0.001528
5042000,0.0324,0.013523,0.002678,0.000431,0.001410
5043000,0.0324,0.013523,0.002678,0.000431,0.001763
5044000,0.0324,0.013523,0.002678,0.000431,0.001645
5045000,0.0324,0.013523,0.002678,0.000431,0.001763
5046000,0.0324,0.013523,0.002678,0.000431,0.001293
5047000,0.0324,0.013523,0.002678,0.000431,0.001998
5048000,0.0324,0.013523,0.002678,0.000431,0.001645
5049000,0.0324,0.013523,0.002678,0.000431,0.001763
5050000,0.0324,0.013523,0.002678,0.000431,0.001528
5051000,0.0324,0.013523,0.002678,0.000431,0.001998
5052000,0.0324,0.013523,0.002678,0.000431,0.001763
5053000,0.0324,0.013523,0.002678,0.000431,0.001645
5054000,0.0324,0.013523,0.002678,0.000431,0.001528
5055000,0.0324,0.013523,0.002678,0.000431,0.001645
5056000,0.0324,0.013523,0.002678,0.000431,0.001763
5057000,0.0324,0.013523,0.002678,0.000431,0.001645
5058000,0.0324,0.013523,0.002678,0.000431,0.001998
5059000,0.0324,0.013523,0.002678,0.000431,0.001410
5060000,0.0324,0.013523,0.002678,0.000431,0.002116
5061000,0.0324,0.013523,0.002678,0.000431,0.001528
5062000,0.0324,0.013523,0.002678,0.000431,0.001645
5063000,0.0324,0.013523,0.002678,0.000431,0.001410
5064000,0.0324,0.013523,0.002678,0.000431,0.001645
5065000,0.0324,0.013523,0.002678,0.000431,0.001763
5066000,0.0324,0.013523,0.002678,0.000431,0.001998
5067000,0.0324,0.013523,0.002678,0.000431,0.001880
5068000,0.0324,0.013523,0.002678,0.000431,0.001645
5069000,0.0324,0.013523,0.002678,0.000431,0.001645
5070000,0.0324,0.013523,0.002678,0.000431,0.001880
5071000,0.0324,0.013523,0.002678,0.000431,0.001763
5072000,0.0324,0.013523,0.002678,0.000431,0.001998
5073000,0.0324,0.013523,0.002678,0.000431,0.001410
5074000,0.0324,0.013523,0.002678,0.000431,0.001998
5075000,0.0324,0.013523,0.002678,0.000431,0.001645
5076000,0.0324,0.013523,0.002678,0.000431,0.001528
5077000,0.0324,0.013523,0.002678,0.000431,0.001410
5078000,0.0324,0.013523,0.002678,0.000431,0.001528
5079000,0.0324,0.013523,0.002678,0.000431,0.001645
5080000,0.0324,0.013523,0.002678,0.000431,0.001880
5081000,0.0324,0.013523,0.002678,0.000431,0.001645
5082000,0.0324,0.013523,0.002678,0.000431,0.001880
5083000,0.0324,0.013523,0.002678,0.000431,0.001528
5084000,0.0324,0.013523,0.002678,0.000431,0.001528
5085000,0.0324,0.013523,0.002678,0.000431,0.001645
5086000,0.0324,0.013523,0.002678,0.000431,0.001763
5087000,0.0324,0.013523,0.002678,0.000431,0.001293
5088000,0.0324,0.013523,0.002678,0.000431,0.001763
5089000,0.0324,0.013523,0.002678,0.000431,0.001645
5090000,0.0324,0.013523,0.002678,0.000431,0.001763
5091000,0.0324,0.013523,0.002678,0.000431,0.001880
5092000,0.0324,0.013523,0.002678,0.000431,0.001410
5093000,0.0324,0.013523,0.002678,0.000431,0.001528
5094000,0.0324,0.013523,0.002678,0.000431,0.000705
5095000,0.0324,0.013523,0.002678,0.000431,0.000588
5096000,0.0324,0.013523,0.002678,0.000431,0.000588
5097000,0.0324,0.013523,0.002678,0.000431,0.000705
5098000,0.0324,0.013523,0.002678,0.000431,0.000588
5099000,0.0324,0.013523,0.002678,0.000431,0.000940
5100000,0.0324,0.013523,0.002678,0.000431,0.000940
5101000,0.0324,0.013523,0.002678,0.000431,0.001058
5102000,0.0324,0.013523,0.002678,0.000431,0.000940
5103000,0.0324,0.013523,0.002678,0.000431,0.000705
5104000,0.0324,0.013523,0.002678,0.000431,0.000940
5105000,0.0324,0.013523,0.002678,0.000431,0.000823
5106000,0.0324,0.013523,0.002678,0.000431,0.001175
5107000,0.0324,0.013523,0.002678,0.000431,0.000940
5108000,0.0324,0.013523,0.002678,0.000431,0.001058
5109000,0.0324,0.013523,0.002678,0.000431,0.000705
5110000,0.0324,0.013523,0.002678,0.000431,0.000705
5111000,0.0324,0.013523,0.002678,0.000431,0.000940
5112000,0.0324,0.013523,0.002678,0.000431,0.000940
5113000,0.0324,0.013523,0.002678,0.000431,0.000705
5114000,0.0324,0.013523,0.002678,0.000431,0.000940
5115000,0.0324,0.013523,0.002678,0.000431,0.000705
5116000,0.0324,0.013523,0.002678,0.000431,0.000940
5117000,0.0324,0.013523,0.002678,0.000431,0.000705
5118000,0.0324,0.013523,0.002678,0.000431,0.000940
5119000,0.0324,0.013523,0.002678,0.000431,0.000588
5120000,0.0324,0.013523,0.002678,0.000431,0.000588
5121000,0.0324,0.013523,0.002678,0.000431,0.000588
5122000,0.0324,0.013523,0.002678,0.000431,0.000940
5123000,0.0324,0.013523,0.002678,0.000431,0.000705
5124000,0.0324,0.013523,0.002678,0.000431,0.000588
5125000,0.0324,0.013523,0.002678,0.000431,0.000588
5126000,0.0324,0.013523,0.002678,0.000431,0.000588
5127000,0.0324,0.013523,0.002678,0.000431,0.000470
5128000,0.0324,0.013523,0.002678,0.000431,0.000588
5129000,0.0324,0.013523,0.002678,0.000431,0.000940
5130000,0.0324,0.013523,0.002678,0.000431,0.000588
5131000,0.0324,0.013523,0.002678,0.000431,0.000940
5132000,0.0324,0.013523,0.002678,0.000431,0.000705
5133000,0.0324,0.013523,0.002678,0.000431,0.000705
5134000,0.0324,0.013523,0.002678,0.000431,0.000705
5135000,0.0324,0.013523,0.002678,0.000431,0.001058
5136000,0.0324,0.013523,0.002678,0.000431,0.000823
5137000,0.0324,0.013523,0.002678,0.000431,0.000588
5138000,0.0324,0.013523,0.002678,0.000431,0.000705
5139000,0.0324,0.013523,0.002678,0.000431,0.000588
5140000,0.0324,0.013523,0.002678,0.000431,0.000470
5141000,0.0324,0.013523,0.002678,0.000431,0.000705
5142000,0.0324,0.013523,0.002678,0.000431,0.000940
5143000,0.0324,0.013523,0.002678,0.000431,0.000823
5144000,0.0324,0.013523,0.002678,0.000431,0.000588
5145000,0.0324,0.013523,0.002678,0.000431,0.000588
5146000,0.0324,0.013523,0.002678,0.000431,0.000705
5147000,0.0324,0.013523,0.002678,0.000431,0.001058
5148000,0.0324,0.013523,0.002678,0.000431,0.001175
5149000,0.0324,0.013523,0.002678,0.000431,0.000470
5150000,0.0324,0.013523,0.002678,0.000431,0.000705
5151000,0.0324,0.013523,0.002678,0.000431,0.000588
5152000,0.0324,0.013523,0.002678,0.000431,0.000588
5153000,0.0324,0.013523,0.002678,0.000431,0.000705
5154000,0.0324,0.013523,0.002678,0.000431,0.000705
5155000,0.0324,0.013523,0.002678,0.000431,0.000940
5156000,0.0324,0.013523,0.002678,0.000431,0.000940
5157000,0.0324,0.013523,0.002678,0.000431,0.000705
5158000,0.0324,0.013523,0.002678,0.000431,0.001058
5159000,0.0324,0.013523,0.002678,0.000431,0.000588
5160000,0.0324,0.013523,0.002678,0.000431,0.000470
5161000,0.0324,0.013523,0.002678,0.000431,0.000705
5162000,0.0324,0.013523,0.002678,0.000431,0.000823
5163000,0.0324,0.013523,0.002678,0.000431,0.000588
5164000,0.0324,0.013523,0.002678,0.000431,0.000470
5165000,0.0324,0.013523,0.002678,0.000431,0.000705
5166000,0.0324,0.013523,0.002678,0.000431,0.000705
5167000,0.0324,0.013523,0.002678,0.000431,0.000705
5168000,0.0324,0.013523,0.002678,0.000431,0.000705
5169000,0.0324,0.013523,0.002678,0.000431,0.000940
5170000,0.0324,0.013523,0.002678,0.000431,0.000705
5171000,0.0324,0.013523,0.002678,0.000431,0.000940
5172000,0.0324,0.013523,0.002678,0.000431,0.000940
5173000,0.0324,0.013523,0.002678,0.000431,0.000705
5174000,0.0324,0.013523,0.002678,0.000431,0.000588
5175000,0.0324,0.013523,0.002678,0.000431,0.000823
5176000,0.0324,0.013523,0.002678,0.000431,0.000470
5177000,0.0324,0.013523,0.002678,0.000431,0.000823
5178000,0.0324,0.013523,0.002678,0.000431,0.001175
5179000,0.0324,0.013523,0.002678,0.000431,0.001058
5180000,0.0324,0.013523,0.002678,0.000431,0.000705
5181000,0.0324,0.013523,0.002678,0.000431,0.000940
5182000,0.0324,0.013523,0.002678,0.000431,0.001058
5183000,0.0324,0.013523,0.002678,0.000431,0.000823
5184000,0.0324,0.013523,0.002678,0.000431,0.000823
5185000,0.0324,0.013523,0.002678,0.000431,0.000823
5186000,0.0324,0.013523,0.002678,0.000431,0.001058
5187000,0.0324,0.013523,0.002678,0.000431,0.000823
5188000,0.0324,0.013523,0.002678,0.000431,0.000705
5189000,0.0324,0.013523,0.002678,0.000431,0.000823
5190000,0.0324,0.013523,0.002678,0.000431,0.001058
5191000,0.0324,0.013523,0.002678,0.000431,0.000823
5192000,0.0324,0.013523,0.002678,0.000431,0.000940
5193000,0.0324,0.013523,0.002678,0.000431,0.001058
5194000,0.0324,0.013523,0.002678,0.000431,0.000705
5195000,0.0324,0.013523,0.002678,0.000431,0.000705
5196000,0.0324,0.013523,0.002678,0.000431,0.000823
5197000,0.0324,0.013523,0.002678,0.000431,0.000588
5198000,0.0324,0.013523,0.002678,0.000431,0.000705
5199000,0.0324,0.013523,0.002678,0.000431,0.000588
5200000,0.0324,0.013523,0.002678,0.000431,0.000588
5201000,0.0324,0.013523,0.002678,0.000431,0.000940
5202000,0.0324,0.013523,0.002678,0.000431,0.000705
5203000,0.0324,0.013523,0.002678,0.000431,0.000470
5204000,0.0324,0.013523,0.002678,0.000431,0.000705
5205000,0.0324,0.013523,0.002678,0.000431,0.000470
5206000,0.0324,0.013523,0.002678,0.000431,0.000705
5207000,0.0324,0.013523,0.002678,0.000431,0.000470
5208000,0.0324,0.013523,0.002678,0.000431,0.000470
5209000,0.0324,0.013523,0.002678,0.000431,0.000705
5210000,0.0324,0.013523,0.002678,0.000431,0.000470
5211000,0.0324,0.013523,0.002678,0.000431,0.000588
5212000,0.0324,0.013523,0.002678,0.000431,0.000940
5213000,0.0324,0.013523,0.002678,0.000431,0.000823
5214000,0.0324,0.013523,0.002678,0.000431,0.000823
5215000,0.0324,0.013523,0.002678,0.000431,0.000588
5216000,0.0324,0.013523,0.002678,0.000431,0.000823
5217000,0.0324,0.013523,0.002678,0.000431,0.000823
5218000,0.0324,0.013523,0.002678,0.000431,0.000588
5219000,0.0324,0.013523,0.002678,0.000431,0.000588
5220000,0.0324,0.013523,0.002678,0.000431,0.000705
5221000,0.0324,0.013523,0.002678,0.000431,0.000470
5222000,0.0324,0.013523,0.002678,0.000431,0.000705
5223000,0.0324,0.013523,0.002678,0.000431,0.000470
5224000,0.0324,0.013523,0.002678,0.000431,0.000705
5225000,0.0324,0.013523,0.002678,0.000431,0.000705
5226000,0.0324,0.013523,0.002678,0.000431,0.000940
5227000,0.0324,0.013523,0.002678,0.000431,0.000470
5228000,0.0324,0.013523,0.002678,0.000431,0.000705
5229000,0.0324,0.013523,0.002678,0.000431,0.000470
5230000,0.0324,0.013523,0.002678,0.000431,0.000705
5231000,0.0324,0.013523,0.002678,0.000431,0.000470
5232000,0.0324,0.013523,0.002678,0.000431,0.000705
5233000,0.0324,0.013523,0.002678,0.000431,0.000588
5234000,0.0324,0.013523,0.002678,0.000431,0.000823
5235000,0.0324,0.013523,0.002678,0.000431,0.000588
5236000,0.0324,0.013523,0.002678,0.000431,0.001058
5237000,0.0324,0.013523,0.002678,0.000431,0.000705
5238000,0.0324,0.013523,0.002678,0.000431,0.000940
5239000,0.0324,0.013523,0.002678,0.000431,0.000705
5240000,0.0324,0.013523,0.002678,0.000431,0.000940
5241000,0.0324,0.013523,0.002678,0.000431,0.000588
5242000,0.0324,0.013523,0.002678,0.000431,0.000705
5243000,0.0324,0.013523,0.002678,0.000431,0.000588
5244000,0.0324,0.013523,0.002678,0.000431,0.001058
5245000,0.0324,0.013523,0.002678,0.000431,0.000940
5246000,0.0324,0.013523,0.002678,0.000431,0.000940
5247000,0.0324,0.013523,0.002678,0.000431,0.000940
5248000,0.0324,0.013523,0.002678,0.000431,0.000588
5249000,0.0324,0.013523,0.002678,0.000431,0.000940
5250000,0.0324,0.013523,0.002678,0.000431,0.000940
5251000,0.0324,0.013523,0.002678,0.000431,0.001058
5252000,0.0324,0.013523,0.002678,0.000431,0.000940
5253000,0.0324,0.013523,0.002678,0.000431,0.000705
5254000,0.0324,0.013523,0.002678,0.000431,0.000705
5255000,0.0324,0.013523,0.002678,0.000431,0.000705
5256000,0.0324,0.013523,0.002678,0.000431,0.000588
5257000,0.0324,0.013523,0.002678,0.000431,0.001058
5258000,0.0324,0.013523,0.002678,0.000431,0.000940
5259000,0.0324,0.013523,0.002678,0.000431,0.000940
5260000,0.0324,0.013523,0.002678,0.000431,0.000823
5261000,0.0324,0.013523,0.002678,0.000431,0.000705
5262000,0.0324,0.013523,0.002678,0.000431,0.001058
5263000,0.0324,0.013523,0.002678,0.000431,0.000588
5264000,0.0324,0.013523,0.002678,0.000431,0.000940
5265000,0.0324,0.013523,0.002678,0.000431,0.000940
5266000,0.0324,0.013523,0.002678,0.000431,0.001058
5267000,0.0324,0.013523,0.002678,0.000431,0.000940
5268000,0.0324,0.013523,0.002678,0.000431,0.000588
5269000,0.0324,0.013523,0.002678,0.000431,0.000705
5270000,0.0324,0.013523,0.002678,0.000431,0.000940
5271000,0.0324,0.013523,0.002678,0.000431,0.000588
5272000,0.0324,0.013523,0.002678,0.000431,0.001175
5273000,0.0324,0.013523,0.002678,0.000431,0.000588
5274000,0.0324,0.013523,0.002678,0.000431,0.000940
5275000,0.0324,0.013523,0.002678,0.000431,0.000705
5276000,0.0324,0.013523,0.002678,0.000431,0.000940
5277000,0.0324,0.013523,0.002678,0.000431,0.000823
5278000,0.0324,0.013523,0.002678,0.000431,0.001058
5279000,0.0324,0.013523,0.002678,0.000431,0.000940
5280000,0.0324,0.013523,0.002678,0.000431,0.000940
5281000,0.0324,0.013523,0.002678,0.000431,0.001058
5282000,0.0324,0.013523,0.002678,0.000431,0.000823
5283000,0.0324,0.013523,0.002678,0.000431,0.000588
5284000,0.0324,0.013523,0.002678,0.000431,0.000940
5285000,0.0324,0.013523,0.002678,0.000431,0.000588
5286000,0.0324,0.013523,0.002678,0.000431,0.000705
5287000,0.0324,0.013523,0.002678,0.000431,0.000940
5288000,0.0324,0.013523,0.002678,0.000431,0.000705
5289000,0.0324,0.013523,0.002678,0.000431,0.000588
5290000,0.0324,0.013523,0.002678,0.000431,0.000588
5291000,0.0324,0.013523,0.002678,0.000431,0.000705
5292000,0.0324,0.013523,0.002678,0.000431,0.000823
5293000,0.0324,0.013523,0.002678,0.000431,0.000588
5294000,0.0324,0.013523,0.002678,0.000431,0.000705
5295000,0.0324,0.013523,0.002678,0.000431,0.000705
5296000,0.0324,0.013523,0.002678,0.000431,0.000588
5297000,0.0324,0.013523,0.002678,0.000431,0.000588
5298000,0.0324,0.013523,0.002678,0.000431,0.000470
5299000,0.0324,0.013523,0.002678,0.000431,0.000588
5300000,0.0324,0.013523,0.002678,0.000431,0.000823
5301000,0.0324,0.013523,0.002678,0.000431,0.000705
5302000,0.0324,0.013523,0.002678,0.000431,0.001175
5303000,0.0324,0.013523,0.002678,0.000431,0.000940
5304000,0.0324,0.013523,0.002678,0.000431,0.001175
5305000,0.0324,0.013523,0.002678,0.000431,0.000705
5306000,0.0324,0.013523,0.002678,0.000431,0.000940
5307000,0.0324,0.013523,0.002678,0.000431,0.000940
5308000,0.0324,0.013523,0.002678,0.000431,0.000705
5309000,0.0324,0.013523,0.002678,0.000431,0.000940
5310000,0.0324,0.013523,0.002678,0.000431,0.000588
5311000,0.0324,0.013523,0.002678,0.000431,0.000705
5312000,0.0324,0.013523,0.002678,0.000431,0.001058
5313000,0.0324,0.013523,0.002678,0.000431,0.000823
5314000,0.0324,0.013523,0.002678,0.000431,0.000940
5315000,0.0324,0.013523,0.002678,0.000431,0.001058
5316000,0.0324,0.013523,0.002678,0.000431,0.000705
5317000,0.0324,0.013523,0.002678,0.000431,0.000940
5318000,0.0324,0.013523,0.002678,0.000431,0.000823
5319000,0.0324,0.013523,0.002678,0.000431,0.000823
5320000,0.0324,0.013523,0.002678,0.000431,0.001058
5321000,0.0324,0.013523,0.002678,0.000431,0.000588
5322000,0.0324,0.013523,0.002678,0.000431,0.000940
5323000,0.0324,0.013523,0.002678,0.000431,0.000940
5324000,0.0324,0.013523,0.002678,0.000431,0.000823
5325000,0.0324,0.013523,0.002678,0.000431,0.000823
5326000,0.0324,0.013523,0.002678,0.000431,0.000940
5327000,0.0324,0.013523,0.002678,0.000431,0.000705
5328000,0.0324,0.013523,0.002678,0.000431,0.000705
5329000,0.0324,0.013523,0.002678,0.000431,0.000705
5330000,0.0324,0.013523,0.002678,0.000431,0.000470
5331000,0.0324,0.013523,0.002678,0.000431,0.000705
5332000,0.0324,0.013523,0.002678,0.000431,0.000588
5333000,0.0324,0.013523,0.002678,0.000431,0.000588
5334000,0.0324,0.013523,0.002678,0.000431,0.001058
5335000,0.0324,0.013523,0.002678,0.000431,0.000705
5336000,0.0324,0.013523,0.002678,0.000431,0.000588
5337000,0.0324,0.013523,0.002678,0.000431,0.000588
5338000,0.0324,0.013523,0.002678,0.000431,0.000588
5339000,0.0324,0.013523,0.002678,0.000431,0.000705
5340000,0.0324,0.013523,0.002678,0.000431,0.000940
5341000,0.0324,0.013523,0.002678,0.000431,0.000705
5342000,0.0324,0.013523,0.002678,0.000431,0.000940
5343000,0.0324,0.013523,0.002678,0.000431,0.000470
5344000,0.0324,0.013523,0.002678,0.000431,0.000940
5345000,0.0324,0.013523,0.002678,0.000431,0.001058
5346000,0.0324,0.013523,0.002678,0.000431,0.000823
5347000,0.0324,0.013523,0.002678,0.000431,0.000940
5348000,0.0324,0.013523,0.002678,0.000431,0.000470
5349000,0.0324,0.013523,0.002678,0.000431,0.000705
5350000,0.0324,0.013523,0.002678,0.000431,0.000823
5351000,0.0324,0.013523,0.002678,0.000431,0.000823
5352000,0.0324,0.013523,0.002678,0.000431,0.000823
5353000,0.0324,0.013523,0.002678,0.000431,0.001058
5354000,0.0324,0.013523,0.002678,0.000431,0.000940
5355000,0.0324,0.013523,0.002678,0.000431,0.000940
5356000,0.0324,0.013523,0.002678,0.000431,0.000705
5357000,0.0324,0.013523,0.002678,0.000431,0.000940
5358000,0.0324,0.013523,0.002678,0.000431,0.001175
5359000,0.0324,0.013523,0.002678,0.000431,0.000940
5360000,0.0324,0.013523,0.002678,0.000431,0.000588
5361000,0.0324,0.013523,0.002678,0.000431,0.000940
5362000,0.0324,0.013523,0.002678,0.000431,0.000470
5363000,0.0324,0.013523,0.002678,0.000431,0.001058
5364000,0.0324,0.013523,0.002678,0.000431,0.000940
5365000,0.0324,0.013523,0.002678,0.000431,0.000470
5366000,0.0324,0.013523,0.002678,0.000431,0.000940
5367000,0.0324,0.013523,0.002678,0.000431,0.001058
5368000,0.0324,0.013523,0.002678,0.000431,0.000705
5369000,0.0324,0.013523,0.002678,0.000431,0.000588
5370000,0.0324,0.013523,0.002678,0.000431,0.000940
5371000,0.0324,0.013523,0.002678,0.000431,0.000940
5372000,0.0324,0.013523,0.002678,0.000431,0.000940
5373000,0.0324,0.013523,0.002678,0.000431,0.001175
5374000,0.0324,0.013523,0.002678,0.000431,0.000940
5375000,0.0324,0.013523,0.002678,0.000431,0.000940
5376000,0.0324,0.013523,0.002678,0.000431,0.000588
5377000,0.0324,0.013523,0.002678,0.000431,0.000940
5378000,0.0324,0.013523,0.002678,0.000431,0.000823
5379000,0.0324,0.013523,0.002678,0.000431,0.000940
5380000,0.0324,0.013523,0.002678,0.000431,0.000823
5381000,0.0324,0.013523,0.002678,0.000431,0.000823
5382000,0.0324,0.013523,0.002678,0.000431,0.000940
5383000,0.0324,0.013523,0.002678,0.000431,0.000705
5384000,0.0324,0.013523,0.002678,0.000431,0.000940
5385000,0.0324,0.013523,0.002678,0.000431,0.000705
5386000,0.0324,0.013523,0.002678,0.000431,0.000940
5387000,0.0324,0.013523,0.002678,0.000431,0.000705
5388000,0.0324,0.013523,0.002678,0.000431,0.000940
5389000,0.0324,0.013523,0.002678,0.000431,0.000940
5390000,0.0324,0.013523,0.002678,0.000431,0.001175
5391000,0.0324,0.013523,0.002678,0.000431,0.000705
5392000,0.0324,0.013523,0.002678,0.000431,0.000588
5393000,0.0324,0.013523,0.002678,0.000431,0.000823
5394000,0.0324,0.013523,0.002678,0.000431,0.000940
5395000,0.0324,0.013523,0.002678,0.000431,0.000940
5396000,0.0324,0.013523,0.002678,0.000431,0.000705
5397000,0.0324,0.013523,0.002678,0.000431,0.000470
5398000,0.0324,0.013523,0.002678,0.000431,0.000705
5399000,0.0324,0.013523,0.002678,0.000431,0.000705
5400000,0.0324,0.013523,0.002678,0.000431,0.000940
5401000,0.0324,0.013523,0.002678,0.000431,0.001058
5402000,0.0324,0.013523,0.002678,0.000431,0.000705
5403000,0.0324,0.013523,0.002678,0.000431,0.000940
5404000,0.0324,0.013523,0.002678,0.000431,0.000823
5405000,0.0324,0.013523,0.002678,0.000431,0.000705
5406000,0.0324,0.013523,0.002678,0.000431,0.001058
5407000,0.0324,0.013523,0.002678,0.000431,0.001058
5408000,0.0324,0.013523,0.002678,0.000431,0.000940
5409000,0.0324,0.013523,0.002678,0.000431,0.000470
5410000,0.0324,0.013523,0.002678,0.000431,0.000823
5411000,0.0324,0.013523,0.002678,0.000431,0.001175
5412000,0.0324,0.013523,0.002678,0.000431,0.001058
5413000,0.0324,0.013523,0.002678,0.000431,0.000940
5414000,0.0324,0.013523,0.002678,0.000431,0.000940
5415000,0.0324,0.013523,0.002678,0.000431,0.000705
5416000,0.0324,0.013523,0.002678,0.000431,0.000940
5417000,0.0324,0.013523,0.002678,0.000431,0.000705
5418000,0.0324,0.013523,0.002678,0.000431,0.001058
5419000,0.0324,0.013523,0.002678,0.000431,0.001058
5420000,0.0324,0.013523,0.002678,0.000431,0.000940
5421000,0.0324,0.013523,0.002678,0.000431,0.000940
5422000,0.0324,0.013523,0.002678,0.000431,0.001058
5423000,0.0324,0.013523,0.002678,0.000431,0.000823
5424000,0.0324,0.013523,0.002678,0.000431,0.000940
5425000,0.0324,0.013523,0.002678,0.000431,0.000940
5426000,0.0324,0.013523,0.002678,0.000431,0.000940
5427000,0.0324,0.013523,0.002678,0.000431,0.000705
5428000,0.0324,0.013523,0.002678,0.000431,0.000940
5429000,0.0324,0.013523,0.002678,0.000431,0.000705
5430000,0.0324,0.013523,0.002678,0.000431,0.000588
5431000,0.0324,0.013523,0.002678,0.000431,0.000705
5432000,0.0324,0.013523,0.002678,0.000431,0.000940
5433000,0.0324,0.013523,0.002678,0.000431,0.000940
5434000,0.0324,0.013523,0.002678,0.000431,0.000940
5435000,0.0324,0.013523,0.002678,0.000431,0.000823
5436000,0.0324,0.013523,0.002678,0.000431,0.000705
5437000,0.0324,0.013523,0.002678,0.000431,0.000588
5438000,0.0324,0.013523,0.002678,0.000431,0.000588
5439000,0.0324,0.013523,0.002678,0.000431,0.000705
5440000,0.0324,0.013523,0.002678,0.000431,0.000705
5441000,0.0324,0.013523,0.002678,0.000431,0.000940
5442000,0.0324,0.013523,0.002678,0.000431,0.000705
5443000,0.0324,0.013523,0.002678,0.000431,0.000823
5444000,0.0324,0.013523,0.002678,0.000431,0.001058
5445000,0.0324,0.013523,0.002678,0.000431,0.000940
5446000,0.0324,0.013523,0.002678,0.000431,0.000940
5447000,0.0324,0.013523,0.002678,0.000431,0.001058
5448000,0.0324,0.013523,0.002678,0.000431,0.000823
5449000,0.0324,0.013523,0.002678,0.000431,0.000470
5450000,0.0324,0.013523,0.002678,0.000431,0.001058
5451000,0.0324,0.013523,0.002678,0.000431,0.000588
5452000,0.0324,0.013523,0.002678,0.000431,0.000705
5453000,0.0324,0.013523,0.002678,0.000431,0.000705
5454000,0.0324,0.013523,0.002678,0.000431,0.000940
5455000,0.0324,0.013523,0.002678,0.000431,0.000940
5456000,0.0324,0.013523,0.002678,0.000431,0.000588
5457000,0.0324,0.013523,0.002678,0.000431,0.001058
5458000,0.0324,0.013523,0.002678,0.000431,0.001058
5459000,0.0324,0.013523,0.002678,0.000431,0.000823
5460000,0.0324,0.013523,0.002678,0.000431,0.000940
5461000,0.0324,0.013523,0.002678,0.000431,0.000823
5462000,0.0324,0.013523,0.002678,0.000431,0.000588
5463000,0.0324,0.013523,0.002678,0.000431,0.000705
5464000,0.0324,0.013523,0.002678,0.000431,0.000470
5465000,0.0324,0.013523,0.002678,0.000431,0.000588
5466000,0.0324,0.013523,0.002678,0.000431,0.000940
5467000,0.0324,0.013523,0.002678,0.000431,0.000940
5468000,0.0324,0.013523,0.002678,0.000431,0.000823
5469000,0.0324,0.013523,0.002678,0.000431,0.000705
5470000,0.0324,0.013523,0.002678,0.000431,0.000823
5471000,0.0324,0.013523,0.002678,0.000431,0.000588
5472000,0.0324,0.013523,0.002678,0.000431,0.000470
5473000,0.0324,0.013523,0.002678,0.000431,0.000940
5474000,0.0324,0.013523,0.002678,0.000431,0.001175
5475000,0.0324,0.013523,0.002678,0.000431,0.000588
5476000,0.0324,0.013523,0.002678,0.000431,0.000940
5477000,0.0324,0.013523,0.002678,0.000431,0.000823
5478000,0.0324,0.013523,0.002678,0.000431,0.000823
5479000,0.0324,0.013523,0.002678,0.000431,0.001293
5480000,0.0324,0.013523,0.002678,0.000431,0.000940
5481000,0.0324,0.013523,0.002678,0.000431,0.000940
5482000,0.0324,0.013523,0.002678,0.000431,0.000823
5483000,0.0324,0.013523,0.002678,0.000431,0.000588
5484000,0.0324,0.013523,0.002678,0.000431,0.000470
5485000,0.0324,0.013523,0.002678,0.000431,0.000705
5486000,0.0324,0.013523,0.002678,0.000431,0.000470
5487000,0.0324,0.013523,0.002678,0.000431,0.000705
5488000,0.0324,0.013523,0.002678,0.000431,0.000823
5489000,0.0324,0.013523,0.002678,0.000431,0.000823
5490000,0.0324,0.013523,0.002678,0.000431,0.000470
5491000,0.0324,0.013523,0.002678,0.000431,0.000823
5492000,0.0324,0.013523,0.002678,0.000431,0.000823
5493000,0.0324,0.013523,0.002678,0.000431,0.000470
5494000,0.0324,0.013523,0.002678,0.000431,0.000588
5495000,0.0324,0.013523,0.002678,0.000431,0.000705
5496000,0.0324,0.013523,0.002678,0.000431,0.000823
5497000,0.0324,0.013523,0.002678,0.000431,0.000588
5498000,0.0324,0.013523,0.002678,0.000431,0.000588
5499000,0.0324,0.013523,0.002678,0.000431,0.000823
5500000,0.0324,0.013523,0.002678,0.000431,0.001058
5501000,0.0324,0.013523,0.002678,0.000431,0.000823
5502000,0.0324,0.013523,0.002678,0.000431,0.000588
5503000,0.0324,0.013523,0.002678,0.000431,0.000705
5504000,0.0324,0.013523,0.002678,0.000431,0.000940
5505000,0.0324,0.013523,0.002678,0.000431,0.000470
5506000,0.0324,0.013523,0.002678,0.000431,0.000940
5507000,0.0324,0.013523,0.002678,0.000431,0.001058
5508000,0.0324,0.013523,0.002678,0.000431,0.000823
5509000,0.0324,0.013523,0.002678,0.000431,0.000470
5510000,0.0324,0.013523,0.002678,0.000431,0.001058
5511000,0.0324,0.013523,0.002678,0.000431,0.000588
5512000,0.0324,0.013523,0.002678,0.000431,0.000588
5513000,0.0324,0.013523,0.002678,0.000431,0.000940
5514000,0.0324,0.013523,0.002678,0.000431,0.000823
5515000,0.0324,0.013523,0.002678,0.000431,0.000705
5516000,0.0324,0.013523,0.002678,0.000431,0.000705
5517000,0.0324,0.013523,0.002678,0.000431,0.000705
5518000,0.0324,0.013523,0.002678,0.000431,0.000588
5519000,0.0324,0.013523,0.002678,0.000431,0.000588
5520000,0.0324,0.013523,0.002678,0.000431,0.000705
5521000,0.0324,0.013523,0.002678,0.000431,0.000470
5522000,0.0324,0.013523,0.002678,0.000431,0.000705
5523000,0.0324,0.013523,0.002678,0.000431,0.000588
5524000,0.0324,0.013523,0.002678,0.000431,0.000588
5525000,0.0324,0.013523,0.002678,0.000431,0.000470
5526000,0.0324,0.013523,0.002678,0.000431,0.000470
5527000,0.0324,0.013523,0.002678,0.000431,0.000705
5528000,0.0324,0.013523,0.002678,0.000431,0.000705
5529000,0.0324,0.013523,0.002678,0.000431,0.001058
5530000,0.0324,0.013523,0.002678,0.000431,0.000823
5531000,0.0324,0.013523,0.002678,0.000431,0.000823
5532000,0.0324,0.013523,0.002678,0.000431,0.000823
5533000,0.0324,0.013523,0.002678,0.000431,0.000705
5534000,0.0324,0.013523,0.002678,0.000431,0.000705
5535000,0.0324,0.013523,0.002678,0.000431,0.000705
5536000,0.0324,0.013523,0.002678,0.000431,0.000940
5537000,0.0324,0.013523,0.002678,0.000431,0.000705
5538000,0.0324,0.013523,0.002678,0.000431,0.000940
5539000,0.0324,0.013523,0.002678,0.000431,0.000470
5540000,0.0324,0.013523,0.002678,0.000431,0.000940
5541000,0.0324,0.013523,0.002678,0.000431,0.000705
5542000,0.0324,0.013523,0.002678,0.000431,0.000705
5543000,0.0324,0.013523,0.002678,0.000431,0.000705
5544000,0.0324,0.013523,0.002678,0.000431,0.001175
5545000,0.0324,0.013523,0.002678,0.000431,0.000705
5546000,0.0324,0.013523,0.002678,0.000431,0.000705
5547000,0.0324,0.013523,0.002678,0.000431,0.000940
5548000,0.0324,0.013523,0.002678,0.000431,0.001058
5549000,0.0324,0.013523,0.002678,0.000431,0.000940
5550000,0.0324,0.013523,0.002678,0.000431,0.000940
5551000,0.0324,0.013523,0.002678,0.000431,0.000705
5552000,0.0324,0.013523,0.002678,0.000431,0.000940
5553000,0.0324,0.013523,0.002678,0.000431,0.001058
5554000,0.0324,0.013523,0.002678,0.000431,0.000705
5555000,0.0324,0.013523,0.002678,0.000431,0.000705
5556000,0.0324,0.013523,0.002678,0.000431,0.000940
5557000,0.0324,0.013523,0.002678,0.000431,0.001175
5558000,0.0324,0.013523,0.002678,0.000431,0.000588
5559000,0.0324,0.013523,0.002678,0.000431,0.000940
5560000,0.0324,0.013523,0.002678,0.000431,0.000940
5561000,0.0324,0.013523,0.002678,0.000431,0.000823
5562000,0.0324,0.013523,0.002678,0.000431,0.000823
5563000,0.0324,0.013523,0.002678,0.000431,0.001058
5564000,0.0324,0.013523,0.002678,0.000431,0.000705
5565000,0.0324,0.013523,0.002678,0.000431,0.000940
5566000,0.0324,0.013523,0.002678,0.000431,0.000940
5567000,0.0324,0.013523,0.002678,0.000431,0.001175
5568000,0.0324,0.013523,0.002678,0.000431,0.000588
5569000,0.0324,0.013523,0.002678,0.000431,0.000823
5570000,0.0324,0.013523,0.002678,0.000431,0.000705
5571000,0.0324,0.013523,0.002678,0.000431,0.000823
5572000,0.0324,0.013523,0.002678,0.000431,0.000705
5573000,0.0324,0.013523,0.002678,0.000431,0.000705
5574000,0.0324,0.013523,0.002678,0.000431,0.000823
5575000,0.0324,0.013523,0.002678,0.000431,0.000705
5576000,0.0324,0.013523,0.002678,0.000431,0.000705
5577000,0.0324,0.013523,0.002678,0.000431,0.000940
5578000,0.0324,0.013523,0.002678,0.000431,0.000940
5579000,0.0324,0.013523,0.002678,0.000431,0.001175
5580000,0.0324,0.013523,0.002678,0.000431,0.000940
5581000,0.0324,0.013523,0.002678,0.000431,0.000705
5582000,0.0324,0.013523,0.002678,0.000431,0.000588
5583000,0.0324,0.013523,0.002678,0.000431,0.000705
5584000,0.0324,0.013523,0.002678,0.000431,0.000940
5585000,0.0324,0.013523,0.002678,0.000431,0.000705
5586000,0.0324,0.013523,0.002678,0.000431,0.000823
5587000,0.0324,0.013523,0.002678,0.000431,0.000823
5588000,0.0324,0.013523,0.002678,0.000431,0.000940
5589000,0.0324,0.013523,0.002678,0.000431,0.001058
5590000,0.0324,0.013523,0.002678,0.000431,0.000823
5591000,0.0324,0.013523,0.002678,0.000431,0.001058
5592000,0.0324,0.013523,0.002678,0.000431,0.000940
5593000,0.0324,0.013523,0.002678,0.000431,0.001058
5594000,0.0324,0.013523,0.002678,0.000431,0.000588
5595000,0.0324,0.013523,0.002678,0.000431,0.000940
5596000,0.0324,0.013523,0.002678,0.000431,0.000940
5597000,0.0324,0.013523,0.002678,0.000431,0.000940
5598000,0.0324,0.013523,0.002678,0.000431,0.001175
5599000,0.0324,0.013523,0.002678,0.000431,0.000823
5600000,0.0324,0.013523,0.002678,0.000431,0.000823
5601000,0.0324,0.013523,0.002678,0.000431,0.001293
5602000,0.0324,0.013523,0.002678,0.000431,0.000823
5603000,0.0324,0.013523,0.002678,0.000431,0.000470
5604000,0.0324,0.013523,0.002678,0.000431,0.000940
5605000,0.0324,0.013523,0.002678,0.000431,0.001058
5606000,0.0324,0.013523,0.002678,0.000431,0.000940
5607000,0.0324,0.013523,0.002678,0.000431,0.000823
5608000,0.0324,0.013523,0.002678,0.000431,0.000823
5609000,0.0324,0.013523,0.002678,0.000431,0.000823
5610000,0.0324,0.013523,0.002678,0.000431,0.000705
5611000,0.0324,0.013523,0.002678,0.000431,0.000705
5612000,0.0324,0.013523,0.002678,0.000431,0.000823
5613000,0.0324,0.013523,0.002678,0.000431,0.000940
5614000,0.0324,0.013523,0.002678,0.000431,0.000823
5615000,0.0324,0.013523,0.002678,0.000431,0.000823
5616000,0.0324,0.013523,0.002678,0.000431,0.000940
5617000,0.0324,0.013523,0.002678,0.000431,0.001058
5618000,0.0324,0.013523,0.002678,0.000431,0.000705
5619000,0.0324,0.013523,0.002678,0.000431,0.001058
5620000,0.0324,0.013523,0.002678,0.000431,0.000823
5621000,0.0324,0.013523,0.002678,0.000431,0.000940
5622000,0.0324,0.013523,0.002678,0.000431,0.000940
5623000,0.0324,0.013523,0.002678,0.000431,0.001175
5624000,0.0324,0.013523,0.002678,0.000431,0.000705
5625000,0.0324,0.013523,0.002678,0.000431,0.001058
5626000,0.0324,0.013523,0.002678,0.000431,0.000940
5627000,0.0324,0.013523,0.002678,0.000431,0.000823
5628000,0.0324,0.013523,0.002678,0.000431,0.001058
5629000,0.0324,0.013523,0.002678,0.000431,0.000940
5630000,0.0324,0.013523,0.002678,0.000431,0.001175
5631000,0.0324,0.013523,0.002678,0.000431,0.000823
5632000,0.0324,0.013523,0.002678,0.000431,0.000940
5633000,0.0324,0.013523,0.002678,0.000431,0.001175
5634000,0.0324,0.013523,0.002678,0.000431,0.000588
5635000,0.0324,0.013523,0.002678,0.000431,0.000588
5636000,0.0324,0.013523,0.002678,0.000431,0.000940
5637000,0.0324,0.013523,0.002678,0.000431,0.000823
5638000,0.0324,0.013523,0.002678,0.000431,0.001058
5639000,0.0324,0.013523,0.002678,0.000431,0.000940
5640000,0.0324,0.013523,0.002678,0.000431,0.000823
5641000,0.0324,0.013523,0.002678,0.000431,0.001058
5642000,0.0324,0.013523,0.002678,0.000431,0.000470
5643000,0.0324,0.013523,0.002678,0.000431,0.000940
5644000,0.0324,0.013523,0.002678,0.000431,0.001175
5645000,0.0324,0.013523,0.002678,0.000431,0.000470
5646000,0.0324,0.013523,0.002678,0.000431,0.001058
5647000,0.0324,0.013523,0.002678,0.000431,0.000588
5648000,0.0324,0.013523,0.002678,0.000431,0.000588
5649000,0.0324,0.013523,0.002678,0.000431,0.000823
5650000,0.0324,0.013523,0.002678,0.000431,0.000940
5651000,0.0324,0.013523,0.002678,0.000431,0.000940
5652000,0.0324,0.013523,0.002678,0.000431,0.000470
5653000,0.0324,0.013523,0.002678,0.000431,0.000705
5654000,0.0324,0.013523,0.002678,0.000431,0.000588
5655000,0.0324,0.013523,0.002678,0.000431,0.000705
5656000,0.0324,0.013523,0.002678,0.000431,0.000940
5657000,0.0324,0.013523,0.002678,0.000431,0.001175
5658000,0.0324,0.013523,0.002678,0.000431,0.001058
5659000,0.0324,0.013523,0.002678,0.000431,0.000940
5660000,0.0324,0.013523,0.002678,0.000431,0.000705
5661000,0.0324,0.013523,0.002678,0.000431,0.001058
5662000,0.0324,0.013523,0.002678,0.000431,0.000823
5663000,0.0324,0.013523,0.002678,0.000431,0.000705
5664000,0.0324,0.013523,0.002678,0.000431,0.000823
5665000,0.0324,0.013523,0.002678,0.000431,0.000823
5666000,0.0324,0.013523,0.002678,0.000431,0.000940
5667000,0.0324,0.013523,0.002678,0.000431,0.000940
5668000,0.0324,0.013523,0.002678,0.000431,0.001058
5669000,0.0324,0.013523,0.002678,0.000431,0.000823
5670000,0.0324,0.013523,0.002678,0.000431,0.000705
5671000,0.0324,0.013523,0.002678,0.000431,0.000940
5672000,0.0324,0.013523,0.002678,0.000431,0.000705
5673000,0.0324,0.013523,0.002678,0.000431,0.000940
5674000,0.0324,0.013523,0.002678,0.000431,0.000940
5675000,0.0324,0.013523,0.002678,0.000431,0.000823
5676000,0.0324,0.013523,0.002678,0.000431,0.000940
5677000,0.0324,0.013523,0.002678,0.000431,0.001058
5678000,0.0324,0.013523,0.002678,0.000431,0.001058
5679000,0.0324,0.013523,0.002678,0.000431,0.000940
5680000,0.0324,0.013523,0.002678,0.000431,0.001058
5681000,0.0324,0.013523,0.002678,0.000431,0.001175
5682000,0.0324,0.013523,0.002678,0.000431,0.000823
5683000,0.0324,0.013523,0.002678,0.000431,0.000823
5684000,0.0324,0.013523,0.002678,0.000431,0.000940
5685000,0.0324,0.013523,0.002678,0.000431,0.000940
5686000,0.0324,0.013523,0.002678,0.000431,0.000940
5687000,0.0324,0.013523,0.002678,0.000431,0.001058
5688000,0.0324,0.013523,0.002678,0.000431,0.000588
5689000,0.0324,0.013523,0.002678,0.000431,0.000940
5690000,0.0324,0.013523,0.002678,0.000431,0.001175
5691000,0.0324,0.013523,0.002678,0.000431,0.000940
5692000,0.0324,0.013523,0.002678,0.000431,0.000940
5693000,0.0324,0.013523,0.002678,0.000431,0.001058
5694000,0.0324,0.013523,0.002678,0.000431,0.000823
5695000,0.0324,0.013523,0.002678,0.000431,0.000705
5696000,0.0324,0.013523,0.002678,0.000431,0.000940
5697000,0.0324,0.013523,0.002678,0.000431,0.000705
5698000,0.0324,0.013523,0.002678,0.000431,0.001175
5699000,0.0324,0.013523,0.002678,0.000431,0.001058
5700000,0.0324,0.013523,0.002678,0.000431,0.001058
5701000,0.0324,0.013523,0.002678,0.000431,0.000940
5702000,0.0324,0.013523,0.002678,0.000431,0.001175
5703000,0.0324,0.013523,0.002678,0.000431,0.000940
5704000,0.0324,0.013523,0.002678,0.000431,0.001058
5705000,0.0324,0.013523,0.002678,0.000431,0.001175
5706000,0.0324,0.013523,0.002678,0.000431,0.001058
5707000,0.0324,0.013523,0.002678,0.000431,0.000705
5708000,0.0324,0.013523,0.002678,0.000431,0.000940
5709000,0.0324,0.013523,0.002678,0.000431,0.000705
5710000,0.0324,0.013523,0.002678,0.000431,0.000940
5711000,0.0324,0.013523,0.002678,0.000431,0.001175
5712000,0.0324,0.013523,0.002678,0.000431,0.001058
5713000,0.0324,0.013523,0.002678,0.000431,0.001175
5714000,0.0324,0.013523,0.002678,0.000431,0.000823
5715000,0.0324,0.013523,0.002678,0.000431,0.000823
5716000,0.0324,0.013523,0.002678,0.000431,0.000940
5717000,0.0324,0.013523,0.002678,0.000431,0.000940
5718000,0.0324,0.013523,0.002678,0.000431,0.001058
5719000,0.0324,0.013523,0.002678,0.000431,0.000940
5720000,0.0324,0.013523,0.002678,0.000431,0.000940
5721000,0.0324,0.013523,0.002678,0.000431,0.001175
5722000,0.0324,0.013523,0.002678,0.000431,0.000940
5723000,0.0324,0.013523,0.002678,0.000431,0.000940
5724000,0.0324,0.013523,0.002678,0.000431,0.000940
5725000,0.0324,0.013523,0.002678,0.000431,0.000823
5726000,0.0324,0.013523,0.002678,0.000431,0.000940
5727000,0.0324,0.013523,0.002678,0.000431,0.000823
5728000,0.0324,0.013523,0.002678,0.000431,0.000705
5729000,0.0324,0.013523,0.002678,0.000431,0.000588
5730000,0.0324,0.013523,0.002678,0.000431,0.000588
5731000,0.0324,0.013523,0.002678,0.000431,0.000588
5732000,0.0324,0.013523,0.002678,0.000431,0.000940
5733000,0.0324,0.013523,0.002678,0.000431,0.001058
5734000,0.0324,0.013523,0.002678,0.000431,0.000940
5735000,0.0324,0.013523,0.002678,0.000431,0.001175
5736000,0.0324,0.013523,0.002678,0.000431,0.000705
5737000,0.0324,0.013523,0.002678,0.000431,0.001058
5738000,0.0324,0.013523,0.002678,0.000431,0.000705
5739000,0.0324,0.013523,0.002678,0.000431,0.000823
5740000,0.0324,0.013523,0.002678,0.000431,0.000940
5741000,0.0324,0.013523,0.002678,0.000431,0.000823
5742000,0.0324,0.013523,0.002678,0.000431,0.001175
5743000,0.0324,0.013523,0.002678,0.000431,0.000705
5744000,0.0324,0.013523,0.002678,0.000431,0.001058
5745000,0.0324,0.013523,0.002678,0.000431,0.000940
5746000,0.0324,0.013523,0.002678,0.000431,0.000940
5747000,0.0324,0.013523,0.002678,0.000431,0.000940
5748000,0.0324,0.013523,0.002678,0.000431,0.000940
5749000,0.0324,0.013523,0.002678,0.000431,0.000705
5750000,0.0324,0.013523,0.002678,0.000431,0.000940
5751000,0.0324,0.013523,0.002678,0.000431,0.000705
5752000,0.0324,0.013523,0.002678,0.000431,0.001058
5753000,0.0324,0.013523,0.002678,0.000431,0.000470
5754000,0.0324,0.013523,0.002678,0.000431,0.000940
5755000,0.0324,0.013523,0.002678,0.000431,0.000705
5756000,0.0324,0.013523,0.002678,0.000431,0.000588
5757000,0.0324,0.013523,0.002678,0.000431,0.001175
5758000,0.0324,0.013523,0.002678,0.000431,0.001058
5759000,0.0324,0.013523,0.002678,0.000431,0.000940
5760000,0.0324,0.013523,0.002678,0.000431,0.000940
5761000,0.0324,0.013523,0.002678,0.000431,0.001175
5762000,0.0324,0.013523,0.002678,0.000431,0.000940
5763000,0.0324,0.013523,0.002678,0.000431,0.000588
5764000,0.0324,0.013523,0.002678,0.000431,0.000823
5765000,0.0324,0.013523,0.002678,0.000431,0.000823
5766000,0.0324,0.013523,0.002678,0.000431,0.000940
5767000,0.0324,0.013523,0.002678,0.000431,0.000940
5768000,0.0324,0.013523,0.002678,0.000431,0.000705
5769000,0.0324,0.013523,0.002678,0.000431,0.000705
5770000,0.0324,0.013523,0.002678,0.000431,0.000940
5771000,0.0324,0.013523,0.002678,0.000431,0.000940
5772000,0.0324,0.013523,0.002678,0.000431,0.000940
5773000,0.0324,0.013523,0.002678,0.000431,0.000705
5774000,0.0324,0.013523,0.002678,0.000431,0.000940
5775000,0.0324,0.013523,0.002678,0.000431,0.000823
5776000,0.0324,0.013523,0.002678,0.000431,0.000823
5777000,0.0324,0.013523,0.002678,0.000431,0.000940
5778000,0.0324,0.013523,0.002678,0.000431,0.000705
5779000,0.0324,0.013523,0.002678,0.000431,0.000705
5780000,0.0324,0.013523,0.002678,0.000431,0.001058
5781000,0.0324,0.013523,0.002678,0.000431,0.000940
5782000,0.0324,0.013523,0.002678,0.000431,0.001058
5783000,0.0324,0.013523,0.002678,0.000431,0.000705
5784000,0.0324,0.013523,0.002678,0.000431,0.000940
5785000,0.0324,0.013523,0.002678,0.000431,0.000823
5786000,0.0324,0.013523,0.002678,0.000431,0.001058
5787000,0.0324,0.013523,0.002678,0.000431,0.000823
5788000,0.0324,0.013523,0.002678,0.000431,0.001058
5789000,0.0324,0.013523,0.002678,0.000431,0.000588
5790000,0.0324,0.013523,0.002678,0.000431,0.000940
5791000,0.0324,0.013523,0.002678,0.000431,0.001058
5792000,0.0324,0.013523,0.002678,0.000431,0.001058
5793000,0.0324,0.013523,0.002678,0.000431,0.000823
5794000,0.0324,0.013523,0.002678,0.000431,0.000940
5795000,0.0324,0.013523,0.002678,0.000431,0.000940
5796000,0.0324,0.013523,0.002678,0.000431,0.001175
5797000,0.0324,0.013523,0.002678,0.000431,0.000705
5798000,0.0324,0.013523,0.002678,0.000431,0.001058
5799000,0.0324,0.013523,0.002678,0.000431,0.000940
5800000,0.0324,0.013523,0.002678,0.000431,0.000823
5801000,0.0324,0.013523,0.002678,0.000431,0.000705
5802000,0.0324,0.013523,0.002678,0.000431,0.000823
5803000,0.0324,0.013523,0.002678,0.000431,0.000588
5804000,0.0324,0.013523,0.002678,0.000431,0.000940
5805000,0.0324,0.013523,0.002678,0.000431,0.000940
5806000,0.0324,0.013523,0.002678,0.000431,0.001058
5807000,0.0324,0.013523,0.002678,0.000431,0.001058
5808000,0.0324,0.013523,0.002678,0.000431,0.001058
5809000,0.0324,0.013523,0.002678,0.000431,0.001058
5810000,0.0324,0.013523,0.002678,0.000431,0.000705
5811000,0.0324,0.013523,0.002678,0.000431,0.000823
5812000,0.0324,0.013523,0.002678,0.000431,0.001175
5813000,0.0324,0.013523,0.002678,0.000431,0.000940
5814000,0.0324,0.013523,0.002678,0.000431,0.000823
5815000,0.0324,0.013523,0.002678,0.000431,0.001058
5816000,0.0324,0.013523,0.002678,0.000431,0.001058
5817000,0.0324,0.013523,0.002678,0.000431,0.000823
5818000,0.0324,0.013523,0.002678,0.000431,0.000705
5819000,0.0324,0.013523,0.002678,0.000431,0.001058
5820000,0.0324,0.013523,0.002678,0.000431,0.000705
5821000,0.0324,0.013523,0.002678,0.000431,0.000823
5822000,0.0324,0.013523,0.002678,0.000431,0.000823
5823000,0.0324,0.013523,0.002678,0.000431,0.001058
5824000,0.0324,0.013523,0.002678,0.000431,0.000705
5825000,0.0324,0.013523,0.002678,0.000431,0.000940
5826000,0.0324,0.013523,0.002678,0.000431,0.000940
5827000,0.0324,0.013523,0.002678,0.000431,0.000823
5828000,0.0324,0.013523,0.002678,0.000431,0.001058
5829000,0.0324,0.013523,0.002678,0.000431,0.001058
5830000,0.0324,0.013523,0.002678,0.000431,0.001058
5831000,0.0324,0.013523,0.002678,0.000431,0.001175
5832000,0.0324,0.013523,0.002678,0.000431,0.000823
5833000,0.0324,0.013523,0.002678,0.000431,0.001058
5834000,0.0324,0.013523,0.002678,0.000431,0.000823
5835000,0.0324,0.013523,0.002678,0.000431,0.000705
5836000,0.0324,0.013523,0.002678,0.000431,0.000705
5837000,0.0324,0.013523,0.002678,0.000431,0.000705
5838000,0.0324,0.013523,0.002678,0.000431,0.000940
5839000,0.0324,0.013523,0.002678,0.000431,0.000940
5840000,0.0324,0.013523,0.002678,0.000431,0.000940
5841000,0.0324,0.013523,0.002678,0.000431,0.000588
5842000,0.0324,0.013523,0.002678,0.000431,0.000823
5843000,0.0324,0.013523,0.002678,0.000431,0.000705
5844000,0.0324,0.013523,0.002678,0.000431,0.000940
5845000,0.0324,0.013523,0.002678,0.000431,0.000940
5846000,0.0324,0.013523,0.002678,0.000431,0.000940
5847000,0.0324,0.013523,0.002678,0.000431,0.000940
5848000,0.0324,0.013523,0.002678,0.000431,0.001058
5849000,0.0324,0.013523,0.002678,0.000431,0.000588
5850000,0.0324,0.013523,0.002678,0.000431,0.000705
5851000,0.0324,0.013523,0.002678,0.000431,0.000940
5852000,0.0324,0.013523,0.002678,0.000431,0.000940
5853000,0.0324,0.013523,0.002678,0.000431,0.000705
5854000,0.0324,0.013523,0.002678,0.000431,0.000470
5855000,0.0324,0.013523,0.002678,0.000431,0.001175
5856000,0.0324,0.013523,0.002678,0.000431,0.000823
5857000,0.0324,0.013523,0.002678,0.000431,0.001058
5858000,0.0324,0.013523,0.002678,0.000431,0.000940
5859000,0.0324,0.013523,0.002678,0.000431,0.000705
5860000,0.0324,0.013523,0.002678,0.000431,0.000940
5861000,0.0324,0.013523,0.002678,0.000431,0.000588
5862000,0.0324,0.013523,0.002678,0.000431,0.000588
5863000,0.0324,0.013523,0.002678,0.000431,0.000823
5864000,0.0324,0.013523,0.002678,0.000431,0.000823
5865000,0.0324,0.013523,0.002678,0.000431,0.000940
5866000,0.0324,0.013523,0.002678,0.000431,0.000940
5867000,0.0324,0.013523,0.002678,0.000431,0.000705
5868000,0.0324,0.013523,0.002678,0.000431,0.000705
5869000,0.0324,0.013523,0.002678,0.000431,0.001175
5870000,0.0324,0.013523,0.002678,0.000431,0.000940
5871000,0.0324,0.013523,0.002678,0.000431,0.000940
5872000,0.0324,0.013523,0.002678,0.000431,0.000940
5873000,0.0324,0.013523,0.002678,0.000431,0.000470
5874000,0.0324,0.013523,0.002678,0.000431,0.001058
5875000,0.0324,0.013523,0.002678,0.000431,0.000940
5876000,0.0324,0.013523,0.002678,0.000431,0.001058
5877000,0.0324,0.013523,0.002678,0.000431,0.000705
5878000,0.0324,0.013523,0.002678,0.000431,0.000940
5879000,0.0324,0.013523,0.002678,0.000431,0.000940
5880000,0.0324,0.013523,0.002678,0.000431,0.000940
5881000,0.0324,0.013523,0.002678,0.000431,0.000940
5882000,0.0324,0.013523,0.002678,0.000431,0.000823
5883000,0.0324,0.013523,0.002678,0.000431,0.001058
5884000,0.0324,0.013523,0.002678,0.000431,0.000940
5885000,0.0324,0.013523,0.002678,0.000431,0.001058
5886000,0.0324,0.013523,0.002678,0.000431,0.000940
5887000,0.0324,0.013523,0.002678,0.000431,0.000823
5888000,0.0324,0.013523,0.002678,0.000431,0.000940
5889000,0.0324,0.013523,0.002678,0.000431,0.000705
5890000,0.0324,0.013523,0.002678,0.000431,0.000940
5891000,0.0324,0.013523,0.002678,0.000431,0.000705
5892000,0.0324,0.013523,0.002678,0.000431,0.001175
5893000,0.0324,0.013523,0.002678,0.000431,0.000823
5894000,0.0324,0.013523,0.002678,0.000431,0.001058
5895000,0.0324,0.013523,0.002678,0.000431,0.000940
5896000,0.0324,0.013523,0.002678,0.000431,0.000940
5897000,0.0324,0.013523,0.002678,0.000431,0.000823
5898000,0.0324,0.013523,0.002678,0.000431,0.001058
5899000,0.0324,0.013523,0.002678,0.000431,0.001058
5900000,0.0324,0.013523,0.002678,0.000431,0.000588
5901000,0.0324,0.013523,0.002678,0.000431,0.000470
5902000,0.0324,0.013523,0.002678,0.000431,0.001058
5903000,0.0324,0.013523,0.002678,0.000431,0.000940
5904000,0.0324,0.013523,0.002678,0.000431,0.000940
5905000,0.0324,0.013523,0.002678,0.000431,0.000588
5906000,0.0324,0.013523,0.002678,0.000431,0.000588
5907000,0.0324,0.013523,0.002678,0.000431,0.000940
5908000,0.0324,0.013523,0.002678,0.000431,0.000823
5909000,0.0324,0.013523,0.002678,0.000431,0.000940
5910000,0.0324,0.013523,0.002678,0.000431,0.000705
5911000,0.0324,0.013523,0.002678,0.000431,0.000940
5912000,0.0324,0.013523,0.002678,0.000431,0.000940
5913000,0.0324,0.013523,0.002678,0.000431,0.000940
5914000,0.0324,0.013523,0.002678,0.000431,0.001175
5915000,0.0324,0.013523,0.002678,0.000431,0.000940
5916000,0.0324,0.013523,0.002678,0.000431,0.000823
5917000,0.0324,0.013523,0.002678,0.000431,0.000940
5918000,0.0324,0.013523,0.002678,0.000431,0.001058
5919000,0.0324,0.013523,0.002678,0.000431,0.000823
5920000,0.0324,0.013523,0.002678,0.000431,0.001058
5921000,0.0324,0.013523,0.002678,0.000431,0.000940
5922000,0.0324,0.013523,0.002678,0.000431,0.000940
5923000,0.0324,0.013523,0.002678,0.000431,0.000940
5924000,0.0324,0.013523,0.002678,0.000431,0.000940
5925000,0.0324,0.013523,0.002678,0.000431,0.000823
5926000,0.0324,0.013523,0.002678,0.000431,0.000823
5927000,0.0324,0.013523,0.002678,0.000431,0.000940
5928000,0.0324,0.013523,0.002678,0.000431,0.000940
5929000,0.0324,0.013523,0.002678,0.000431,0.001175
5930000,0.0324,0.013523,0.002678,0.000431,0.000940
5931000,0.0324,0.013523,0.002678,0.000431,0.000705
5932000,0.0324,0.013523,0.002678,0.000431,0.000940
5933000,0.0324,0.013523,0.002678,0.000431,0.000705
5934000,0.0324,0.013523,0.002678,0.000431,0.000940
5935000,0.0324,0.013523,0.002678,0.000431,0.001058
5936000,0.0324,0.013523,0.002678,0.000431,0.001058
5937000,0.0324,0.013523,0.002678,0.000431,0.000705
5938000,0.0324,0.013523,0.002678,0.000431,0.001058
5939000,0.0324,0.013523,0.002678,0.000431,0.000940
5940000,0.0324,0.013523,0.002678,0.000431,0.000823
5941000,0.0324,0.013523,0.002678,0.000431,0.000940
5942000,0.0324,0.013523,0.002678,0.000431,0.001175
5943000,0.0324,0.013523,0.002678,0.000431,0.000823
5944000,0.0324,0.013523,0.002678,0.000431,0.000940
5945000,0.0324,0.013523,0.002678,0.000431,0.000588
5946000,0.0324,0.013523,0.002678,0.000431,0.000588
5947000,0.0324,0.013523,0.002678,0.000431,0.000588
5948000,0.0324,0.013523,0.002678,0.000431,0.000823
5949000,0.0324,0.013523,0.002678,0.000431,0.001058
5950000,0.0324,0.013523,0.002678,0.000431,0.000705
5951000,0.0324,0.013523,0.002678,0.000431,0.000940
5952000,0.0324,0.013523,0.002678,0.000431,0.000705
5953000,0.0324,0.013523,0.002678,0.000431,0.000705
5954000,0.0324,0.013523,0.002678,0.000431,0.000470
5955000,0.0324,0.013523,0.002678,0.000431,0.000940
5956000,0.0324,0.013523,0.002678,0.000431,0.000470
5957000,0.0324,0.013523,0.002678,0.000431,0.000940
5958000,0.0324,0.013523,0.002678,0.000431,0.000705
5959000,0.0324,0.013523,0.002678,0.000431,0.000940
5960000,0.0324,0.013523,0.002678,0.000431,0.000705
5961000,0.0324,0.013523,0.002678,0.000431,0.000823
5962000,0.0324,0.013523,0.002678,0.000431,0.000940
5963000,0.0324,0.013523,0.002678,0.000431,0.000823
5964000,0.0324,0.013523,0.002678,0.000431,0.000705
5965000,0.0324,0.013523,0.002678,0.000431,0.000705
5966000,0.0324,0.013523,0.002678,0.000431,0.001058
5967000,0.0324,0.013523,0.002678,0.000431,0.000940
5968000,0.0324,0.013523,0.002678,0.000431,0.000823
5969000,0.0324,0.013523,0.002678,0.000431,0.000940
5970000,0.0324,0.013523,0.002678,0.000431,0.000470
5971000,0.0324,0.013523,0.002678,0.000431,0.001058
5972000,0.0324,0.013523,0.002678,0.000431,0.000940
5973000,0.0324,0.013523,0.002678,0.000431,0.000823
5974000,0.0324,0.013523,0.002678,0.000431,0.000940
5975000,0.0324,0.013523,0.002678,0.000431,0.000940
5976000,0.0324,0.013523,0.002678,0.000431,0.001058
5977000,0.0324,0.013523,0.002678,0.000431,0.000588
5978000,0.0324,0.013523,0.002678,0.000431,0.000705
5979000,0.0324,0.013523,0.002678,0.000431,0.001175
5980000,0.0324,0.013523,0.002678,0.000431,0.000823
5981000,0.0324,0.013523,0.002678,0.000431,0.000823
5982000,0.0324,0.013523,0.002678,0.000431,0.000940
5983000,0.0324,0.013523,0.002678,0.000431,0.000823
5984000,0.0324,0.013523,0.002678,0.000431,0.001058
5985000,0.0324,0.013523,0.002678,0.000431,0.001058
5986000,0.0324,0.013523,0.002678,0.000431,0.001058
5987000,0.0324,0.013523,0.002678,0.000431,0.001058
5988000,0.0324,0.013523,0.002678,0.000431,0.000823
5989000,0.0324,0.013523,0.002678,0.000431,0.000705
5990000,0.0324,0.013523,0.002678,0.000431,0.000940
5991000,0.0324,0.013523,0.002678,0.000431,0.000940
5992000,0.0324,0.013523,0.002678,0.000431,0.001058
5993000,0.0324,0.013523,0.002678,0.000431,0.000823
5994000,0.0324,0.013523,0.002678,0.000431,0.000940
5995000,0.0324,0.013523,0.002678,0.000431,0.001058
5996000,0.0324,0.013523,0.002678,0.000431,0.001058
5997000,0.0324,0.013523,0.002678,0.000431,0.000940
5998000,0.0324,0.013523,0.002678,0.000431,0.000823
5999000,0.0324,0.013523,0.002678,0.000431,0.000823
