Cycle,Area(mm^2),PeakDynamic(W),SubthresholdLeakage(W),GateLeakage(W),RunTimeDynamic(W)
6000000,0.0324,0.013523,0.002678,0.000431,0.000940
6001000,0.0324,0.013523,0.002678,0.000431,0.000705
6002000,0.0324,0.013523,0.002678,0.000431,0.000940
6003000,0.0324,0.013523,0.002678,0.000431,0.000940
6004000,0.0324,0.013523,0.002678,0.000431,0.000940
6005000,0.0324,0.013523,0.002678,0.000431,0.001058
6006000,0.0324,0.013523,0.002678,0.000431,0.000705
6007000,0.0324,0.013523,0.002678,0.000431,0.000823
6008000,0.0324,0.013523,0.002678,0.000431,0.001175
6009000,0.0324,0.013523,0.002678,0.000431,0.000705
6010000,0.0324,0.013523,0.002678,0.000431,0.000940
6011000,0.0324,0.013523,0.002678,0.000431,0.000940
6012000,0.0324,0.013523,0.002678,0.000431,0.000823
6013000,0.0324,0.013523,0.002678,0.000431,0.000823
6014000,0.0324,0.013523,0.002678,0.000431,0.000940
6015000,0.0324,0.013523,0.002678,0.000431,0.000705
6016000,0.0324,0.013523,0.002678,0.000431,0.000588
6017000,0.0324,0.013523,0.002678,0.000431,0.000588
6018000,0.0324,0.013523,0.002678,0.000431,0.000588
6019000,0.0324,0.013523,0.002678,0.000431,0.000470
6020000,0.0324,0.013523,0.002678,0.000431,0.000588
6021000,0.0324,0.013523,0.002678,0.000431,0.000705
6022000,0.0324,0.013523,0.002678,0.000431,0.000940
6023000,0.0324,0.013523,0.002678,0.000431,0.000823
6024000,0.0324,0.013523,0.002678,0.000431,0.001058
6025000,0.0324,0.013523,0.002678,0.000431,0.000705
6026000,0.0324,0.013523,0.002678,0.000431,0.000705
6027000,0.0324,0.013523,0.002678,0.000431,0.000940
6028000,0.0324,0.013523,0.002678,0.000431,0.000940
6029000,0.0324,0.013523,0.002678,0.000431,0.000705
6030000,0.0324,0.013523,0.002678,0.000431,0.000940
6031000,0.0324,0.013523,0.002678,0.000431,0.001058
6032000,0.0324,0.013523,0.002678,0.000431,0.000823
6033000,0.0324,0.013523,0.002678,0.000431,0.000705
6034000,0.0324,0.013523,0.002678,0.000431,0.000705
6035000,0.0324,0.013523,0.002678,0.000431,0.000940
6036000,0.0324,0.013523,0.002678,0.000431,0.000940
6037000,0.0324,0.013523,0.002678,0.000431,0.000823
6038000,0.0324,0.013523,0.002678,0.000431,0.001175
6039000,0.0324,0.013523,0.002678,0.000431,0.001058
6040000,0.0324,0.013523,0.002678,0.000431,0.000705
6041000,0.0324,0.013523,0.002678,0.000431,0.000940
6042000,0.0324,0.013523,0.002678,0.000431,0.000940
6043000,0.0324,0.013523,0.002678,0.000431,0.000940
6044000,0.0324,0.013523,0.002678,0.000431,0.000705
6045000,0.0324,0.013523,0.002678,0.000431,0.000823
6046000,0.0324,0.013523,0.002678,0.000431,0.000823
6047000,0.0324,0.013523,0.002678,0.000431,0.001175
6048000,0.0324,0.013523,0.002678,0.000431,0.000940
6049000,0.0324,0.013523,0.002678,0.000431,0.001058
6050000,0.0324,0.013523,0.002678,0.000431,0.000940
6051000,0.0324,0.013523,0.002678,0.000431,0.001175
6052000,0.0324,0.013523,0.002678,0.000431,0.000823
6053000,0.0324,0.013523,0.002678,0.000431,0.001058
6054000,0.0324,0.013523,0.002678,0.000431,0.001058
6055000,0.0324,0.013523,0.002678,0.000431,0.000940
6056000,0.0324,0.013523,0.002678,0.000431,0.000705
6057000,0.0324,0.013523,0.002678,0.000431,0.000940
6058000,0.0324,0.013523,0.002678,0.000431,0.001175
6059000,0.0324,0.013523,0.002678,0.000431,0.000940
6060000,0.0324,0.013523,0.002678,0.000431,0.000823
6061000,0.0324,0.013523,0.002678,0.000431,0.000588
6062000,0.0324,0.013523,0.002678,0.000431,0.000705
6063000,0.0324,0.013523,0.002678,0.000431,0.001058
6064000,0.0324,0.013523,0.002678,0.000431,0.001058
6065000,0.0324,0.013523,0.002678,0.000431,0.000940
6066000,0.0324,0.013523,0.002678,0.000431,0.000940
6067000,0.0324,0.013523,0.002678,0.000431,0.000940
6068000,0.0324,0.013523,0.002678,0.000431,0.001058
6069000,0.0324,0.013523,0.002678,0.000431,0.000705
6070000,0.0324,0.013523,0.002678,0.000431,0.000940
6071000,0.0324,0.013523,0.002678,0.000431,0.000940
6072000,0.0324,0.013523,0.002678,0.000431,0.001058
6073000,0.0324,0.013523,0.002678,0.000431,0.000705
6074000,0.0324,0.013523,0.002678,0.000431,0.000823
6075000,0.0324,0.013523,0.002678,0.000431,0.001058
6076000,0.0324,0.013523,0.002678,0.000431,0.000705
6077000,0.0324,0.013523,0.002678,0.000431,0.000940
6078000,0.0324,0.013523,0.002678,0.000431,0.000705
6079000,0.0324,0.013523,0.002678,0.000431,0.000940
6080000,0.0324,0.013523,0.002678,0.000431,0.001058
6081000,0.0324,0.013523,0.002678,0.000431,0.000588
6082000,0.0324,0.013523,0.002678,0.000431,0.000940
6083000,0.0324,0.013523,0.002678,0.000431,0.000705
6084000,0.0324,0.013523,0.002678,0.000431,0.000940
6085000,0.0324,0.013523,0.002678,0.000431,0.000705
6086000,0.0324,0.013523,0.002678,0.000431,0.001293
6087000,0.0324,0.013523,0.002678,0.000431,0.000940
6088000,0.0324,0.013523,0.002678,0.000431,0.000940
6089000,0.0324,0.013523,0.002678,0.000431,0.001058
6090000,0.0324,0.013523,0.002678,0.000431,0.001058
6091000,0.0324,0.013523,0.002678,0.000431,0.001058
6092000,0.0324,0.013523,0.002678,0.000431,0.000940
6093000,0.0324,0.013523,0.002678,0.000431,0.000588
6094000,0.0324,0.013523,0.002678,0.000431,0.000940
6095000,0.0324,0.013523,0.002678,0.000431,0.000705
6096000,0.0324,0.013523,0.002678,0.000431,0.001058
6097000,0.0324,0.013523,0.002678,0.000431,0.000823
6098000,0.0324,0.013523,0.002678,0.000431,0.000940
6099000,0.0324,0.013523,0.002678,0.000431,0.000823
6100000,0.0324,0.013523,0.002678,0.000431,0.001175
6101000,0.0324,0.013523,0.002678,0.000431,0.000940
6102000,0.0324,0.013523,0.002678,0.000431,0.000588
6103000,0.0324,0.013523,0.002678,0.000431,0.000940
6104000,0.0324,0.013523,0.002678,0.000431,0.001058
6105000,0.0324,0.013523,0.002678,0.000431,0.000940
6106000,0.0324,0.013523,0.002678,0.000431,0.000823
6107000,0.0324,0.013523,0.002678,0.000431,0.000940
6108000,0.0324,0.013523,0.002678,0.000431,0.000823
6109000,0.0324,0.013523,0.002678,0.000431,0.001058
6110000,0.0324,0.013523,0.002678,0.000431,0.001058
6111000,0.0324,0.013523,0.002678,0.000431,0.000940
6112000,0.0324,0.013523,0.002678,0.000431,0.000940
6113000,0.0324,0.013523,0.002678,0.000431,0.001058
6114000,0.0324,0.013523,0.002678,0.000431,0.001058
6115000,0.0324,0.013523,0.002678,0.000431,0.000940
6116000,0.0324,0.013523,0.002678,0.000431,0.000940
6117000,0.0324,0.013523,0.002678,0.000431,0.000705
6118000,0.0324,0.013523,0.002678,0.000431,0.000940
6119000,0.0324,0.013523,0.002678,0.000431,0.001175
6120000,0.0324,0.013523,0.002678,0.000431,0.000940
6121000,0.0324,0.013523,0.002678,0.000431,0.001175
6122000,0.0324,0.013523,0.002678,0.000431,0.000823
6123000,0.0324,0.013523,0.002678,0.000431,0.000823
6124000,0.0324,0.013523,0.002678,0.000431,0.000940
6125000,0.0324,0.013523,0.002678,0.000431,0.000940
6126000,0.0324,0.013523,0.002678,0.000431,0.000940
6127000,0.0324,0.013523,0.002678,0.000431,0.000940
6128000,0.0324,0.013523,0.002678,0.000431,0.000823
6129000,0.0324,0.013523,0.002678,0.000431,0.000705
6130000,0.0324,0.013523,0.002678,0.000431,0.001058
6131000,0.0324,0.013523,0.002678,0.000431,0.000823
6132000,0.0324,0.013523,0.002678,0.000431,0.000940
6133000,0.0324,0.013523,0.002678,0.000431,0.000940
6134000,0.0324,0.013523,0.002678,0.000431,0.001058
6135000,0.0324,0.013523,0.002678,0.000431,0.000940
6136000,0.0324,0.013523,0.002678,0.000431,0.000940
6137000,0.0324,0.013523,0.002678,0.000431,0.001175
6138000,0.0324,0.013523,0.002678,0.000431,0.000705
6139000,0.0324,0.013523,0.002678,0.000431,0.001058
6140000,0.0324,0.013523,0.002678,0.000431,0.000940
6141000,0.0324,0.013523,0.002678,0.000431,0.000823
6142000,0.0324,0.013523,0.002678,0.000431,0.000705
6143000,0.0324,0.013523,0.002678,0.000431,0.000705
6144000,0.0324,0.013523,0.002678,0.000431,0.000940
6145000,0.0324,0.013523,0.002678,0.000431,0.000470
6146000,0.0324,0.013523,0.002678,0.000431,0.001175
6147000,0.0324,0.013523,0.002678,0.000431,0.000940
6148000,0.0324,0.013523,0.002678,0.000431,0.000940
6149000,0.0324,0.013523,0.002678,0.000431,0.000940
6150000,0.0324,0.013523,0.002678,0.000431,0.000940
6151000,0.0324,0.013523,0.002678,0.000431,0.001058
6152000,0.0324,0.013523,0.002678,0.000431,0.000823
6153000,0.0324,0.013523,0.002678,0.000431,0.001175
6154000,0.0324,0.013523,0.002678,0.000431,0.001058
6155000,0.0324,0.013523,0.002678,0.000431,0.000823
6156000,0.0324,0.013523,0.002678,0.000431,0.001058
6157000,0.0324,0.013523,0.002678,0.000431,0.000940
6158000,0.0324,0.013523,0.002678,0.000431,0.000940
6159000,0.0324,0.013523,0.002678,0.000431,0.000940
6160000,0.0324,0.013523,0.002678,0.000431,0.000940
6161000,0.0324,0.013523,0.002678,0.000431,0.000823
6162000,0.0324,0.013523,0.002678,0.000431,0.000940
6163000,0.0324,0.013523,0.002678,0.000431,0.000940
6164000,0.0324,0.013523,0.002678,0.000431,0.000823
6165000,0.0324,0.013523,0.002678,0.000431,0.000823
6166000,0.0324,0.013523,0.002678,0.000431,0.001058
6167000,0.0324,0.013523,0.002678,0.000431,0.001058
6168000,0.0324,0.013523,0.002678,0.000431,0.000705
6169000,0.0324,0.013523,0.002678,0.000431,0.000823
6170000,0.0324,0.013523,0.002678,0.000431,0.000940
6171000,0.0324,0.013523,0.002678,0.000431,0.000588
6172000,0.0324,0.013523,0.002678,0.000431,0.001058
6173000,0.0324,0.013523,0.002678,0.000431,0.000940
6174000,0.0324,0.013523,0.002678,0.000431,0.000823
6175000,0.0324,0.013523,0.002678,0.000431,0.000823
6176000,0.0324,0.013523,0.002678,0.000431,0.000823
6177000,0.0324,0.013523,0.002678,0.000431,0.000940
6178000,0.0324,0.013523,0.002678,0.000431,0.000940
6179000,0.0324,0.013523,0.002678,0.000431,0.000705
6180000,0.0324,0.013523,0.002678,0.000431,0.001058
6181000,0.0324,0.013523,0.002678,0.000431,0.000588
6182000,0.0324,0.013523,0.002678,0.000431,0.000823
6183000,0.0324,0.013523,0.002678,0.000431,0.000823
6184000,0.0324,0.013523,0.002678,0.000431,0.001175
6185000,0.0324,0.013523,0.002678,0.000431,0.000940
6186000,0.0324,0.013523,0.002678,0.000431,0.000823
6187000,0.0324,0.013523,0.002678,0.000431,0.001175
6188000,0.0324,0.013523,0.002678,0.000431,0.000823
6189000,0.0324,0.013523,0.002678,0.000431,0.000940
6190000,0.0324,0.013523,0.002678,0.000431,0.000940
6191000,0.0324,0.013523,0.002678,0.000431,0.000940
6192000,0.0324,0.013523,0.002678,0.000431,0.000705
6193000,0.0324,0.013523,0.002678,0.000431,0.000940
6194000,0.0324,0.013523,0.002678,0.000431,0.001175
6195000,0.0324,0.013523,0.002678,0.000431,0.001058
6196000,0.0324,0.013523,0.002678,0.000431,0.001058
6197000,0.0324,0.013523,0.002678,0.000431,0.001058
6198000,0.0324,0.013523,0.002678,0.000431,0.001058
6199000,0.0324,0.013523,0.002678,0.000431,0.000940
6200000,0.0324,0.013523,0.002678,0.000431,0.000940
6201000,0.0324,0.013523,0.002678,0.000431,0.000823
6202000,0.0324,0.013523,0.002678,0.000431,0.001058
6203000,0.0324,0.013523,0.002678,0.000431,0.000940
6204000,0.0324,0.013523,0.002678,0.000431,0.000940
6205000,0.0324,0.013523,0.002678,0.000431,0.001058
6206000,0.0324,0.013523,0.002678,0.000431,0.000823
6207000,0.0324,0.013523,0.002678,0.000431,0.000823
6208000,0.0324,0.013523,0.002678,0.000431,0.000940
6209000,0.0324,0.013523,0.002678,0.000431,0.000823
6210000,0.0324,0.013523,0.002678,0.000431,0.000940
6211000,0.0324,0.013523,0.002678,0.000431,0.000705
6212000,0.0324,0.013523,0.002678,0.000431,0.001058
6213000,0.0324,0.013523,0.002678,0.000431,0.000940
6214000,0.0324,0.013523,0.002678,0.000431,0.000823
6215000,0.0324,0.013523,0.002678,0.000431,0.000940
6216000,0.0324,0.013523,0.002678,0.000431,0.000940
6217000,0.0324,0.013523,0.002678,0.000431,0.001058
6218000,0.0324,0.013523,0.002678,0.000431,0.000823
6219000,0.0324,0.013523,0.002678,0.000431,0.001175
6220000,0.0324,0.013523,0.002678,0.000431,0.000940
6221000,0.0324,0.013523,0.002678,0.000431,0.000705
6222000,0.0324,0.013523,0.002678,0.000431,0.000823
6223000,0.0324,0.013523,0.002678,0.000431,0.001058
6224000,0.0324,0.013523,0.002678,0.000431,0.001058
6225000,0.0324,0.013523,0.002678,0.000431,0.001058
6226000,0.0324,0.013523,0.002678,0.000431,0.000940
6227000,0.0324,0.013523,0.002678,0.000431,0.000823
6228000,0.0324,0.013523,0.002678,0.000431,0.000823
6229000,0.0324,0.013523,0.002678,0.000431,0.001175
6230000,0.0324,0.013523,0.002678,0.000431,0.000823
6231000,0.0324,0.013523,0.002678,0.000431,0.001058
6232000,0.0324,0.013523,0.002678,0.000431,0.000940
6233000,0.0324,0.013523,0.002678,0.000431,0.000940
6234000,0.0324,0.013523,0.002678,0.000431,0.001058
6235000,0.0324,0.013523,0.002678,0.000431,0.001058
6236000,0.0324,0.013523,0.002678,0.000431,0.000940
6237000,0.0324,0.013523,0.002678,0.000431,0.001175
6238000,0.0324,0.013523,0.002678,0.000431,0.000940
6239000,0.0324,0.013523,0.002678,0.000431,0.000940
6240000,0.0324,0.013523,0.002678,0.000431,0.001058
6241000,0.0324,0.013523,0.002678,0.000431,0.000823
6242000,0.0324,0.013523,0.002678,0.000431,0.001175
6243000,0.0324,0.013523,0.002678,0.000431,0.001058
6244000,0.0324,0.013523,0.002678,0.000431,0.000705
6245000,0.0324,0.013523,0.002678,0.000431,0.000940
6246000,0.0324,0.013523,0.002678,0.000431,0.000940
6247000,0.0324,0.013523,0.002678,0.000431,0.000940
6248000,0.0324,0.013523,0.002678,0.000431,0.000823
6249000,0.0324,0.013523,0.002678,0.000431,0.001058
6250000,0.0324,0.013523,0.002678,0.000431,0.000823
6251000,0.0324,0.013523,0.002678,0.000431,0.001175
6252000,0.0324,0.013523,0.002678,0.000431,0.000705
6253000,0.0324,0.013523,0.002678,0.000431,0.000940
6254000,0.0324,0.013523,0.002678,0.000431,0.001175
6255000,0.0324,0.013523,0.002678,0.000431,0.000823
6256000,0.0324,0.013523,0.002678,0.000431,0.001058
6257000,0.0324,0.013523,0.002678,0.000431,0.000940
6258000,0.0324,0.013523,0.002678,0.000431,0.000705
6259000,0.0324,0.013523,0.002678,0.000431,0.001175
6260000,0.0324,0.013523,0.002678,0.000431,0.000940
6261000,0.0324,0.013523,0.002678,0.000431,0.001058
6262000,0.0324,0.013523,0.002678,0.000431,0.000940
6263000,0.0324,0.013523,0.002678,0.000431,0.001175
6264000,0.0324,0.013523,0.002678,0.000431,0.000940
6265000,0.0324,0.013523,0.002678,0.000431,0.000940
6266000,0.0324,0.013523,0.002678,0.000431,0.000823
6267000,0.0324,0.013523,0.002678,0.000431,0.000823
6268000,0.0324,0.013523,0.002678,0.000431,0.000823
6269000,0.0324,0.013523,0.002678,0.000431,0.001058
6270000,0.0324,0.013523,0.002678,0.000431,0.001058
6271000,0.0324,0.013523,0.002678,0.000431,0.000940
6272000,0.0324,0.013523,0.002678,0.000431,0.000823
6273000,0.0324,0.013523,0.002678,0.000431,0.001058
6274000,0.0324,0.013523,0.002678,0.000431,0.001058
6275000,0.0324,0.013523,0.002678,0.000431,0.001058
6276000,0.0324,0.013523,0.002678,0.000431,0.000823
6277000,0.0324,0.013523,0.002678,0.000431,0.000823
6278000,0.0324,0.013523,0.002678,0.000431,0.000940
6279000,0.0324,0.013523,0.002678,0.000431,0.000940
6280000,0.0324,0.013523,0.002678,0.000431,0.001058
6281000,0.0324,0.013523,0.002678,0.000431,0.000588
6282000,0.0324,0.013523,0.002678,0.000431,0.000940
6283000,0.0324,0.013523,0.002678,0.000431,0.001058
6284000,0.0324,0.013523,0.002678,0.000431,0.000823
6285000,0.0324,0.013523,0.002678,0.000431,0.001175
6286000,0.0324,0.013523,0.002678,0.000431,0.000705
6287000,0.0324,0.013523,0.002678,0.000431,0.000940
6288000,0.0324,0.013523,0.002678,0.000431,0.001175
6289000,0.0324,0.013523,0.002678,0.000431,0.001175
6290000,0.0324,0.013523,0.002678,0.000431,0.000940
6291000,0.0324,0.013523,0.002678,0.000431,0.001175
6292000,0.0324,0.013523,0.002678,0.000431,0.000823
6293000,0.0324,0.013523,0.002678,0.000431,0.001058
6294000,0.0324,0.013523,0.002678,0.000431,0.000940
6295000,0.0324,0.013523,0.002678,0.000431,0.001175
6296000,0.0324,0.013523,0.002678,0.000431,0.001058
6297000,0.0324,0.013523,0.002678,0.000431,0.001058
6298000,0.0324,0.013523,0.002678,0.000431,0.000940
6299000,0.0324,0.013523,0.002678,0.000431,0.000940
6300000,0.0324,0.013523,0.002678,0.000431,0.001058
6301000,0.0324,0.013523,0.002678,0.000431,0.001058
6302000,0.0324,0.013523,0.002678,0.000431,0.000823
6303000,0.0324,0.013523,0.002678,0.000431,0.000940
6304000,0.0324,0.013523,0.002678,0.000431,0.000823
6305000,0.0324,0.013523,0.002678,0.000431,0.001058
6306000,0.0324,0.013523,0.002678,0.000431,0.001175
6307000,0.0324,0.013523,0.002678,0.000431,0.000940
6308000,0.0324,0.013523,0.002678,0.000431,0.001058
6309000,0.0324,0.013523,0.002678,0.000431,0.000940
6310000,0.0324,0.013523,0.002678,0.000431,0.000940
6311000,0.0324,0.013523,0.002678,0.000431,0.000940
6312000,0.0324,0.013523,0.002678,0.000431,0.001175
6313000,0.0324,0.013523,0.002678,0.000431,0.000940
6314000,0.0324,0.013523,0.002678,0.000431,0.000705
6315000,0.0324,0.013523,0.002678,0.000431,0.000823
6316000,0.0324,0.013523,0.002678,0.000431,0.000823
6317000,0.0324,0.013523,0.002678,0.000431,0.000940
6318000,0.0324,0.013523,0.002678,0.000431,0.000940
6319000,0.0324,0.013523,0.002678,0.000431,0.001058
6320000,0.0324,0.013523,0.002678,0.000431,0.001058
6321000,0.0324,0.013523,0.002678,0.000431,0.001058
6322000,0.0324,0.013523,0.002678,0.000431,0.000823
6323000,0.0324,0.013523,0.002678,0.000431,0.000705
6324000,0.0324,0.013523,0.002678,0.000431,0.000823
6325000,0.0324,0.013523,0.002678,0.000431,0.001058
6326000,0.0324,0.013523,0.002678,0.000431,0.000940
6327000,0.0324,0.013523,0.002678,0.000431,0.001175
6328000,0.0324,0.013523,0.002678,0.000431,0.000940
6329000,0.0324,0.013523,0.002678,0.000431,0.000940
6330000,0.0324,0.013523,0.002678,0.000431,0.000940
6331000,0.0324,0.013523,0.002678,0.000431,0.000705
6332000,0.0324,0.013523,0.002678,0.000431,0.001058
6333000,0.0324,0.013523,0.002678,0.000431,0.000940
6334000,0.0324,0.013523,0.002678,0.000431,0.000823
6335000,0.0324,0.013523,0.002678,0.000431,0.000940
6336000,0.0324,0.013523,0.002678,0.000431,0.000940
6337000,0.0324,0.013523,0.002678,0.000431,0.000940
6338000,0.0324,0.013523,0.002678,0.000431,0.001058
6339000,0.0324,0.013523,0.002678,0.000431,0.001058
6340000,0.0324,0.013523,0.002678,0.000431,0.000940
6341000,0.0324,0.013523,0.002678,0.000431,0.001175
6342000,0.0324,0.013523,0.002678,0.000431,0.000705
6343000,0.0324,0.013523,0.002678,0.000431,0.000940
6344000,0.0324,0.013523,0.002678,0.000431,0.001175
6345000,0.0324,0.013523,0.002678,0.000431,0.000705
6346000,0.0324,0.013523,0.002678,0.000431,0.000940
6347000,0.0324,0.013523,0.002678,0.000431,0.001058
6348000,0.0324,0.013523,0.002678,0.000431,0.000940
6349000,0.0324,0.013523,0.002678,0.000431,0.000940
6350000,0.0324,0.013523,0.002678,0.000431,0.000588
6351000,0.0324,0.013523,0.002678,0.000431,0.001175
6352000,0.0324,0.013523,0.002678,0.000431,0.000940
6353000,0.0324,0.013523,0.002678,0.000431,0.000823
6354000,0.0324,0.013523,0.002678,0.000431,0.001058
6355000,0.0324,0.013523,0.002678,0.000431,0.000705
6356000,0.0324,0.013523,0.002678,0.000431,0.000940
6357000,0.0324,0.013523,0.002678,0.000431,0.000940
6358000,0.0324,0.013523,0.002678,0.000431,0.000940
6359000,0.0324,0.013523,0.002678,0.000431,0.000940
6360000,0.0324,0.013523,0.002678,0.000431,0.000940
6361000,0.0324,0.013523,0.002678,0.000431,0.001058
6362000,0.0324,0.013523,0.002678,0.000431,0.000940
6363000,0.0324,0.013523,0.002678,0.000431,0.000588
6364000,0.0324,0.013523,0.002678,0.000431,0.000940
6365000,0.0324,0.013523,0.002678,0.000431,0.001175
6366000,0.0324,0.013523,0.002678,0.000431,0.000823
6367000,0.0324,0.013523,0.002678,0.000431,0.001058
6368000,0.0324,0.013523,0.002678,0.000431,0.000940
6369000,0.0324,0.013523,0.002678,0.000431,0.000470
6370000,0.0324,0.013523,0.002678,0.000431,0.000940
6371000,0.0324,0.013523,0.002678,0.000431,0.000705
6372000,0.0324,0.013523,0.002678,0.000431,0.000940
6373000,0.0324,0.013523,0.002678,0.000431,0.000940
6374000,0.0324,0.013523,0.002678,0.000431,0.000470
6375000,0.0324,0.013523,0.002678,0.000431,0.001058
6376000,0.0324,0.013523,0.002678,0.000431,0.000940
6377000,0.0324,0.013523,0.002678,0.000431,0.000823
6378000,0.0324,0.013523,0.002678,0.000431,0.000705
6379000,0.0324,0.013523,0.002678,0.000431,0.001058
6380000,0.0324,0.013523,0.002678,0.000431,0.000705
6381000,0.0324,0.013523,0.002678,0.000431,0.001058
6382000,0.0324,0.013523,0.002678,0.000431,0.000823
6383000,0.0324,0.013523,0.002678,0.000431,0.000588
6384000,0.0324,0.013523,0.002678,0.000431,0.001175
6385000,0.0324,0.013523,0.002678,0.000431,0.000940
6386000,0.0324,0.013523,0.002678,0.000431,0.001058
6387000,0.0324,0.013523,0.002678,0.000431,0.000823
6388000,0.0324,0.013523,0.002678,0.000431,0.001058
6389000,0.0324,0.013523,0.002678,0.000431,0.000940
6390000,0.0324,0.013523,0.002678,0.000431,0.000823
6391000,0.0324,0.013523,0.002678,0.000431,0.000940
6392000,0.0324,0.013523,0.002678,0.000431,0.000823
6393000,0.0324,0.013523,0.002678,0.000431,0.001058
6394000,0.0324,0.013523,0.002678,0.000431,0.001058
6395000,0.0324,0.013523,0.002678,0.000431,0.001175
6396000,0.0324,0.013523,0.002678,0.000431,0.000940
6397000,0.0324,0.013523,0.002678,0.000431,0.001058
6398000,0.0324,0.013523,0.002678,0.000431,0.000940
6399000,0.0324,0.013523,0.002678,0.000431,0.001175
6400000,0.0324,0.013523,0.002678,0.000431,0.000940
6401000,0.0324,0.013523,0.002678,0.000431,0.001058
6402000,0.0324,0.013523,0.002678,0.000431,0.000940
6403000,0.0324,0.013523,0.002678,0.000431,0.000823
6404000,0.0324,0.013523,0.002678,0.000431,0.000940
6405000,0.0324,0.013523,0.002678,0.000431,0.001058
6406000,0.0324,0.013523,0.002678,0.000431,0.000940
6407000,0.0324,0.013523,0.002678,0.000431,0.000823
6408000,0.0324,0.013523,0.002678,0.000431,0.000940
6409000,0.0324,0.013523,0.002678,0.000431,0.000588
6410000,0.0324,0.013523,0.002678,0.000431,0.001058
6411000,0.0324,0.013523,0.002678,0.000431,0.000940
6412000,0.0324,0.013523,0.002678,0.000431,0.000470
6413000,0.0324,0.013523,0.002678,0.000431,0.001175
6414000,0.0324,0.013523,0.002678,0.000431,0.000940
6415000,0.0324,0.013523,0.002678,0.000431,0.000940
6416000,0.0324,0.013523,0.002678,0.000431,0.000940
6417000,0.0324,0.013523,0.002678,0.000431,0.001175
6418000,0.0324,0.013523,0.002678,0.000431,0.000940
6419000,0.0324,0.013523,0.002678,0.000431,0.001058
6420000,0.0324,0.013523,0.002678,0.000431,0.000940
6421000,0.0324,0.013523,0.002678,0.000431,0.000823
6422000,0.0324,0.013523,0.002678,0.000431,0.000823
6423000,0.0324,0.013523,0.002678,0.000431,0.001058
6424000,0.0324,0.013523,0.002678,0.000431,0.000823
6425000,0.0324,0.013523,0.002678,0.000431,0.001058
6426000,0.0324,0.013523,0.002678,0.000431,0.000705
6427000,0.0324,0.013523,0.002678,0.000431,0.000940
6428000,0.0324,0.013523,0.002678,0.000431,0.000940
6429000,0.0324,0.013523,0.002678,0.000431,0.000940
6430000,0.0324,0.013523,0.002678,0.000431,0.000705
6431000,0.0324,0.013523,0.002678,0.000431,0.000470
6432000,0.0324,0.013523,0.002678,0.000431,0.000588
6433000,0.0324,0.013523,0.002678,0.000431,0.000588
6434000,0.0324,0.013523,0.002678,0.000431,0.000470
6435000,0.0324,0.013523,0.002678,0.000431,0.000823
6436000,0.0324,0.013523,0.002678,0.000431,0.000823
6437000,0.0324,0.013523,0.002678,0.000431,0.000705
6438000,0.0324,0.013523,0.002678,0.000431,0.000823
6439000,0.0324,0.013523,0.002678,0.000431,0.000588
6440000,0.0324,0.013523,0.002678,0.000431,0.000588
6441000,0.0324,0.013523,0.002678,0.000431,0.000940
6442000,0.0324,0.013523,0.002678,0.000431,0.000823
6443000,0.0324,0.013523,0.002678,0.000431,0.000705
6444000,0.0324,0.013523,0.002678,0.000431,0.000705
6445000,0.0324,0.013523,0.002678,0.000431,0.000470
6446000,0.0324,0.013523,0.002678,0.000431,0.001175
6447000,0.0324,0.013523,0.002678,0.000431,0.000470
6448000,0.0324,0.013523,0.002678,0.000431,0.000705
6449000,0.0324,0.013523,0.002678,0.000431,0.000470
6450000,0.0324,0.013523,0.002678,0.000431,0.000705
6451000,0.0324,0.013523,0.002678,0.000431,0.000470
6452000,0.0324,0.013523,0.002678,0.000431,0.000588
6453000,0.0324,0.013523,0.002678,0.000431,0.000823
6454000,0.0324,0.013523,0.002678,0.000431,0.000705
6455000,0.0324,0.013523,0.002678,0.000431,0.000588
6456000,0.0324,0.013523,0.002678,0.000431,0.000588
6457000,0.0324,0.013523,0.002678,0.000431,0.000470
6458000,0.0324,0.013523,0.002678,0.000431,0.001058
6459000,0.0324,0.013523,0.002678,0.000431,0.000588
6460000,0.0324,0.013523,0.002678,0.000431,0.000588
6461000,0.0324,0.013523,0.002678,0.000431,0.000588
6462000,0.0324,0.013523,0.002678,0.000431,0.000588
6463000,0.0324,0.013523,0.002678,0.000431,0.000588
6464000,0.0324,0.013523,0.002678,0.000431,0.000705
6465000,0.0324,0.013523,0.002678,0.000431,0.000705
6466000,0.0324,0.013523,0.002678,0.000431,0.000823
6467000,0.0324,0.013523,0.002678,0.000431,0.000823
6468000,0.0324,0.013523,0.002678,0.000431,0.000940
6469000,0.0324,0.013523,0.002678,0.000431,0.000705
6470000,0.0324,0.013523,0.002678,0.000431,0.000705
6471000,0.0324,0.013523,0.002678,0.000431,0.000940
6472000,0.0324,0.013523,0.002678,0.000431,0.000470
6473000,0.0324,0.013523,0.002678,0.000431,0.001058
6474000,0.0324,0.013523,0.002678,0.000431,0.000588
6475000,0.0324,0.013523,0.002678,0.000431,0.000705
6476000,0.0324,0.013523,0.002678,0.000431,0.000470
6477000,0.0324,0.013523,0.002678,0.000431,0.000705
6478000,0.0324,0.013523,0.002678,0.000431,0.000940
6479000,0.0324,0.013523,0.002678,0.000431,0.000588
6480000,0.0324,0.013523,0.002678,0.000431,0.000823
6481000,0.0324,0.013523,0.002678,0.000431,0.000705
6482000,0.0324,0.013523,0.002678,0.000431,0.000705
6483000,0.0324,0.013523,0.002678,0.000431,0.000588
6484000,0.0324,0.013523,0.002678,0.000431,0.000588
6485000,0.0324,0.013523,0.002678,0.000431,0.000940
6486000,0.0324,0.013523,0.002678,0.000431,0.000470
6487000,0.0324,0.013523,0.002678,0.000431,0.000705
6488000,0.0324,0.013523,0.002678,0.000431,0.000940
6489000,0.0324,0.013523,0.002678,0.000431,0.000588
6490000,0.0324,0.013523,0.002678,0.000431,0.000588
6491000,0.0324,0.013523,0.002678,0.000431,0.000588
6492000,0.0324,0.013523,0.002678,0.000431,0.000588
6493000,0.0324,0.013523,0.002678,0.000431,0.000705
6494000,0.0324,0.013523,0.002678,0.000431,0.000823
6495000,0.0324,0.013523,0.002678,0.000431,0.000588
6496000,0.0324,0.013523,0.002678,0.000431,0.000588
6497000,0.0324,0.013523,0.002678,0.000431,0.001058
6498000,0.0324,0.013523,0.002678,0.000431,0.000940
6499000,0.0324,0.013523,0.002678,0.000431,0.000940
6500000,0.0324,0.013523,0.002678,0.000431,0.000705
6501000,0.0324,0.013523,0.002678,0.000431,0.000940
6502000,0.0324,0.013523,0.002678,0.000431,0.000940
6503000,0.0324,0.013523,0.002678,0.000431,0.000705
6504000,0.0324,0.013523,0.002678,0.000431,0.000705
6505000,0.0324,0.013523,0.002678,0.000431,0.000705
6506000,0.0324,0.013523,0.002678,0.000431,0.000940
6507000,0.0324,0.013523,0.002678,0.000431,0.000823
6508000,0.0324,0.013523,0.002678,0.000431,0.000823
6509000,0.0324,0.013523,0.002678,0.000431,0.000588
6510000,0.0324,0.013523,0.002678,0.000431,0.001058
6511000,0.0324,0.013523,0.002678,0.000431,0.001058
6512000,0.0324,0.013523,0.002678,0.000431,0.000940
6513000,0.0324,0.013523,0.002678,0.000431,0.000823
6514000,0.0324,0.013523,0.002678,0.000431,0.000940
6515000,0.0324,0.013523,0.002678,0.000431,0.000940
6516000,0.0324,0.013523,0.002678,0.000431,0.000940
6517000,0.0324,0.013523,0.002678,0.000431,0.000705
6518000,0.0324,0.013523,0.002678,0.000431,0.000470
6519000,0.0324,0.013523,0.002678,0.000431,0.000823
6520000,0.0324,0.013523,0.002678,0.000431,0.001058
6521000,0.0324,0.013523,0.002678,0.000431,0.000823
6522000,0.0324,0.013523,0.002678,0.000431,0.000823
6523000,0.0324,0.013523,0.002678,0.000431,0.000823
6524000,0.0324,0.013523,0.002678,0.000431,0.001058
6525000,0.0324,0.013523,0.002678,0.000431,0.000940
6526000,0.0324,0.013523,0.002678,0.000431,0.000940
6527000,0.0324,0.013523,0.002678,0.000431,0.001175
6528000,0.0324,0.013523,0.002678,0.000431,0.000705
6529000,0.0324,0.013523,0.002678,0.000431,0.000940
6530000,0.0324,0.013523,0.002678,0.000431,0.000470
6531000,0.0324,0.013523,0.002678,0.000431,0.001175
6532000,0.0324,0.013523,0.002678,0.000431,0.000940
6533000,0.0324,0.013523,0.002678,0.000431,0.000705
6534000,0.0324,0.013523,0.002678,0.000431,0.000705
6535000,0.0324,0.013523,0.002678,0.000431,0.001058
6536000,0.0324,0.013523,0.002678,0.000431,0.000588
6537000,0.0324,0.013523,0.002678,0.000431,0.000940
6538000,0.0324,0.013523,0.002678,0.000431,0.000940
6539000,0.0324,0.013523,0.002678,0.000431,0.000940
6540000,0.0324,0.013523,0.002678,0.000431,0.001175
6541000,0.0324,0.013523,0.002678,0.000431,0.000940
6542000,0.0324,0.013523,0.002678,0.000431,0.000588
6543000,0.0324,0.013523,0.002678,0.000431,0.001175
6544000,0.0324,0.013523,0.002678,0.000431,0.000823
6545000,0.0324,0.013523,0.002678,0.000431,0.001175
6546000,0.0324,0.013523,0.002678,0.000431,0.000705
6547000,0.0324,0.013523,0.002678,0.000431,0.001058
6548000,0.0324,0.013523,0.002678,0.000431,0.000588
6549000,0.0324,0.013523,0.002678,0.000431,0.000940
6550000,0.0324,0.013523,0.002678,0.000431,0.000823
6551000,0.0324,0.013523,0.002678,0.000431,0.000823
6552000,0.0324,0.013523,0.002678,0.000431,0.001058
6553000,0.0324,0.013523,0.002678,0.000431,0.000940
6554000,0.0324,0.013523,0.002678,0.000431,0.001058
6555000,0.0324,0.013523,0.002678,0.000431,0.000940
6556000,0.0324,0.013523,0.002678,0.000431,0.001058
6557000,0.0324,0.013523,0.002678,0.000431,0.000823
6558000,0.0324,0.013523,0.002678,0.000431,0.000705
6559000,0.0324,0.013523,0.002678,0.000431,0.000940
6560000,0.0324,0.013523,0.002678,0.000431,0.000823
6561000,0.0324,0.013523,0.002678,0.000431,0.001058
6562000,0.0324,0.013523,0.002678,0.000431,0.000940
6563000,0.0324,0.013523,0.002678,0.000431,0.000940
6564000,0.0324,0.013523,0.002678,0.000431,0.000940
6565000,0.0324,0.013523,0.002678,0.000431,0.001175
6566000,0.0324,0.013523,0.002678,0.000431,0.000940
6567000,0.0324,0.013523,0.002678,0.000431,0.000940
6568000,0.0324,0.013523,0.002678,0.000431,0.000940
6569000,0.0324,0.013523,0.002678,0.000431,0.000940
6570000,0.0324,0.013523,0.002678,0.000431,0.000823
6571000,0.0324,0.013523,0.002678,0.000431,0.001058
6572000,0.0324,0.013523,0.002678,0.000431,0.000470
6573000,0.0324,0.013523,0.002678,0.000431,0.000940
6574000,0.0324,0.013523,0.002678,0.000431,0.000823
6575000,0.0324,0.013523,0.002678,0.000431,0.001058
6576000,0.0324,0.013523,0.002678,0.000431,0.000940
6577000,0.0324,0.013523,0.002678,0.000431,0.000940
6578000,0.0324,0.013523,0.002678,0.000431,0.000940
6579000,0.0324,0.013523,0.002678,0.000431,0.000823
6580000,0.0324,0.013523,0.002678,0.000431,0.000823
6581000,0.0324,0.013523,0.002678,0.000431,0.000588
6582000,0.0324,0.013523,0.002678,0.000431,0.000588
6583000,0.0324,0.013523,0.002678,0.000431,0.000705
6584000,0.0324,0.013523,0.002678,0.000431,0.000705
6585000,0.0324,0.013523,0.002678,0.000431,0.001058
6586000,0.0324,0.013523,0.002678,0.000431,0.000823
6587000,0.0324,0.013523,0.002678,0.000431,0.000705
6588000,0.0324,0.013523,0.002678,0.000431,0.000705
6589000,0.0324,0.013523,0.002678,0.000431,0.000940
6590000,0.0324,0.013523,0.002678,0.000431,0.000823
6591000,0.0324,0.013523,0.002678,0.000431,0.001058
6592000,0.0324,0.013523,0.002678,0.000431,0.000940
6593000,0.0324,0.013523,0.002678,0.000431,0.000823
6594000,0.0324,0.013523,0.002678,0.000431,0.001058
6595000,0.0324,0.013523,0.002678,0.000431,0.000940
6596000,0.0324,0.013523,0.002678,0.000431,0.000940
6597000,0.0324,0.013523,0.002678,0.000431,0.000940
6598000,0.0324,0.013523,0.002678,0.000431,0.000940
6599000,0.0324,0.013523,0.002678,0.000431,0.000705
6600000,0.0324,0.013523,0.002678,0.000431,0.000705
6601000,0.0324,0.013523,0.002678,0.000431,0.000588
6602000,0.0324,0.013523,0.002678,0.000431,0.000588
6603000,0.0324,0.013523,0.002678,0.000431,0.000588
6604000,0.0324,0.013523,0.002678,0.000431,0.000705
6605000,0.0324,0.013523,0.002678,0.000431,0.000940
6606000,0.0324,0.013523,0.002678,0.000431,0.000940
6607000,0.0324,0.013523,0.002678,0.000431,0.000588
6608000,0.0324,0.013523,0.002678,0.000431,0.001058
6609000,0.0324,0.013523,0.002678,0.000431,0.000823
6610000,0.0324,0.013523,0.002678,0.000431,0.000470
6611000,0.0324,0.013523,0.002678,0.000431,0.000940
6612000,0.0324,0.013523,0.002678,0.000431,0.000940
6613000,0.0324,0.013523,0.002678,0.000431,0.000940
6614000,0.0324,0.013523,0.002678,0.000431,0.000705
6615000,0.0324,0.013523,0.002678,0.000431,0.000823
6616000,0.0324,0.013523,0.002678,0.000431,0.001175
6617000,0.0324,0.013523,0.002678,0.000431,0.000940
6618000,0.0324,0.013523,0.002678,0.000431,0.000940
6619000,0.0324,0.013523,0.002678,0.000431,0.000823
6620000,0.0324,0.013523,0.002678,0.000431,0.000940
6621000,0.0324,0.013523,0.002678,0.000431,0.000940
6622000,0.0324,0.013523,0.002678,0.000431,0.001058
6623000,0.0324,0.013523,0.002678,0.000431,0.000940
6624000,0.0324,0.013523,0.002678,0.000431,0.000588
6625000,0.0324,0.013523,0.002678,0.000431,0.000940
6626000,0.0324,0.013523,0.002678,0.000431,0.001058
6627000,0.0324,0.013523,0.002678,0.000431,0.000823
6628000,0.0324,0.013523,0.002678,0.000431,0.000823
6629000,0.0324,0.013523,0.002678,0.000431,0.000823
6630000,0.0324,0.013523,0.002678,0.000431,0.001058
6631000,0.0324,0.013523,0.002678,0.000431,0.000588
6632000,0.0324,0.013523,0.002678,0.000431,0.000705
6633000,0.0324,0.013523,0.002678,0.000431,0.001058
6634000,0.0324,0.013523,0.002678,0.000431,0.001058
6635000,0.0324,0.013523,0.002678,0.000431,0.001058
6636000,0.0324,0.013523,0.002678,0.000431,0.001175
6637000,0.0324,0.013523,0.002678,0.000431,0.000705
6638000,0.0324,0.013523,0.002678,0.000431,0.001058
6639000,0.0324,0.013523,0.002678,0.000431,0.001058
6640000,0.0324,0.013523,0.002678,0.000431,0.001175
6641000,0.0324,0.013523,0.002678,0.000431,0.000823
6642000,0.0324,0.013523,0.002678,0.000431,0.001175
6643000,0.0324,0.013523,0.002678,0.000431,0.001058
6644000,0.0324,0.013523,0.002678,0.000431,0.000940
6645000,0.0324,0.013523,0.002678,0.000431,0.001058
6646000,0.0324,0.013523,0.002678,0.000431,0.001058
6647000,0.0324,0.013523,0.002678,0.000431,0.001058
6648000,0.0324,0.013523,0.002678,0.000431,0.001058
6649000,0.0324,0.013523,0.002678,0.000431,0.001058
6650000,0.0324,0.013523,0.002678,0.000431,0.001175
6651000,0.0324,0.013523,0.002678,0.000431,0.000940
6652000,0.0324,0.013523,0.002678,0.000431,0.001058
6653000,0.0324,0.013523,0.002678,0.000431,0.000940
6654000,0.0324,0.013523,0.002678,0.000431,0.001175
6655000,0.0324,0.013523,0.002678,0.000431,0.000823
6656000,0.0324,0.013523,0.002678,0.000431,0.001175
6657000,0.0324,0.013523,0.002678,0.000431,0.000940
6658000,0.0324,0.013523,0.002678,0.000431,0.001058
6659000,0.0324,0.013523,0.002678,0.000431,0.001058
6660000,0.0324,0.013523,0.002678,0.000431,0.001175
6661000,0.0324,0.013523,0.002678,0.000431,0.001058
6662000,0.0324,0.013523,0.002678,0.000431,0.001175
6663000,0.0324,0.013523,0.002678,0.000431,0.000823
6664000,0.0324,0.013523,0.002678,0.000431,0.001175
6665000,0.0324,0.013523,0.002678,0.000431,0.001058
6666000,0.0324,0.013523,0.002678,0.000431,0.001058
6667000,0.0324,0.013523,0.002678,0.000431,0.001058
6668000,0.0324,0.013523,0.002678,0.000431,0.001058
6669000,0.0324,0.013523,0.002678,0.000431,0.001175
6670000,0.0324,0.013523,0.002678,0.000431,0.000940
6671000,0.0324,0.013523,0.002678,0.000431,0.001058
6672000,0.0324,0.013523,0.002678,0.000431,0.001058
6673000,0.0324,0.013523,0.002678,0.000431,0.000705
6674000,0.0324,0.013523,0.002678,0.000431,0.000705
6675000,0.0324,0.013523,0.002678,0.000431,0.000940
6676000,0.0324,0.013523,0.002678,0.000431,0.001058
6677000,0.0324,0.013523,0.002678,0.000431,0.000588
6678000,0.0324,0.013523,0.002678,0.000431,0.001058
6679000,0.0324,0.013523,0.002678,0.000431,0.000823
6680000,0.0324,0.013523,0.002678,0.000431,0.001058
6681000,0.0324,0.013523,0.002678,0.000431,0.000823
6682000,0.0324,0.013523,0.002678,0.000431,0.001058
6683000,0.0324,0.013523,0.002678,0.000431,0.000588
6684000,0.0324,0.013523,0.002678,0.000431,0.000823
6685000,0.0324,0.013523,0.002678,0.000431,0.000940
6686000,0.0324,0.013523,0.002678,0.000431,0.000588
6687000,0.0324,0.013523,0.002678,0.000431,0.000940
6688000,0.0324,0.013523,0.002678,0.000431,0.000823
6689000,0.0324,0.013523,0.002678,0.000431,0.001175
6690000,0.0324,0.013523,0.002678,0.000431,0.000940
6691000,0.0324,0.013523,0.002678,0.000431,0.000940
6692000,0.0324,0.013523,0.002678,0.000431,0.000940
6693000,0.0324,0.013523,0.002678,0.000431,0.000588
6694000,0.0324,0.013523,0.002678,0.000431,0.000588
6695000,0.0324,0.013523,0.002678,0.000431,0.000588
6696000,0.0324,0.013523,0.002678,0.000431,0.000940
6697000,0.0324,0.013523,0.002678,0.000431,0.000705
6698000,0.0324,0.013523,0.002678,0.000431,0.000940
6699000,0.0324,0.013523,0.002678,0.000431,0.000823
6700000,0.0324,0.013523,0.002678,0.000431,0.000823
6701000,0.0324,0.013523,0.002678,0.000431,0.000940
6702000,0.0324,0.013523,0.002678,0.000431,0.000705
6703000,0.0324,0.013523,0.002678,0.000431,0.000823
6704000,0.0324,0.013523,0.002678,0.000431,0.000588
6705000,0.0324,0.013523,0.002678,0.000431,0.000940
6706000,0.0324,0.013523,0.002678,0.000431,0.000588
6707000,0.0324,0.013523,0.002678,0.000431,0.000588
6708000,0.0324,0.013523,0.002678,0.000431,0.000588
6709000,0.0324,0.013523,0.002678,0.000431,0.000940
6710000,0.0324,0.013523,0.002678,0.000431,0.000705
6711000,0.0324,0.013523,0.002678,0.000431,0.000823
6712000,0.0324,0.013523,0.002678,0.000431,0.000705
6713000,0.0324,0.013523,0.002678,0.000431,0.001058
6714000,0.0324,0.013523,0.002678,0.000431,0.001058
6715000,0.0324,0.013523,0.002678,0.000431,0.000470
6716000,0.0324,0.013523,0.002678,0.000431,0.000588
6717000,0.0324,0.013523,0.002678,0.000431,0.000588
6718000,0.0324,0.013523,0.002678,0.000431,0.000940
6719000,0.0324,0.013523,0.002678,0.000431,0.000705
6720000,0.0324,0.013523,0.002678,0.000431,0.000940
6721000,0.0324,0.013523,0.002678,0.000431,0.000940
6722000,0.0324,0.013523,0.002678,0.000431,0.000705
6723000,0.0324,0.013523,0.002678,0.000431,0.000823
6724000,0.0324,0.013523,0.002678,0.000431,0.000705
6725000,0.0324,0.013523,0.002678,0.000431,0.000823
6726000,0.0324,0.013523,0.002678,0.000431,0.001058
6727000,0.0324,0.013523,0.002678,0.000431,0.000588
6728000,0.0324,0.013523,0.002678,0.000431,0.000705
6729000,0.0324,0.013523,0.002678,0.000431,0.000588
6730000,0.0324,0.013523,0.002678,0.000431,0.000823
6731000,0.0324,0.013523,0.002678,0.000431,0.001058
6732000,0.0324,0.013523,0.002678,0.000431,0.000705
6733000,0.0324,0.013523,0.002678,0.000431,0.000940
6734000,0.0324,0.013523,0.002678,0.000431,0.001058
6735000,0.0324,0.013523,0.002678,0.000431,0.000705
6736000,0.0324,0.013523,0.002678,0.000431,0.001058
6737000,0.0324,0.013523,0.002678,0.000431,0.001058
6738000,0.0324,0.013523,0.002678,0.000431,0.000940
6739000,0.0324,0.013523,0.002678,0.000431,0.001175
6740000,0.0324,0.013523,0.002678,0.000431,0.000705
6741000,0.0324,0.013523,0.002678,0.000431,0.000705
6742000,0.0324,0.013523,0.002678,0.000431,0.000588
6743000,0.0324,0.013523,0.002678,0.000431,0.000588
6744000,0.0324,0.013523,0.002678,0.000431,0.000705
6745000,0.0324,0.013523,0.002678,0.000431,0.000588
6746000,0.0324,0.013523,0.002678,0.000431,0.000940
6747000,0.0324,0.013523,0.002678,0.000431,0.000588
6748000,0.0324,0.013523,0.002678,0.000431,0.001175
6749000,0.0324,0.013523,0.002678,0.000431,0.000823
6750000,0.0324,0.013523,0.002678,0.000431,0.000940
6751000,0.0324,0.013523,0.002678,0.000431,0.000940
6752000,0.0324,0.013523,0.002678,0.000431,0.001058
6753000,0.0324,0.013523,0.002678,0.000431,0.001058
6754000,0.0324,0.013523,0.002678,0.000431,0.000588
6755000,0.0324,0.013523,0.002678,0.000431,0.000705
6756000,0.0324,0.013523,0.002678,0.000431,0.000823
6757000,0.0324,0.013523,0.002678,0.000431,0.000588
6758000,0.0324,0.013523,0.002678,0.000431,0.000588
6759000,0.0324,0.013523,0.002678,0.000431,0.000588
6760000,0.0324,0.013523,0.002678,0.000431,0.000705
6761000,0.0324,0.013523,0.002678,0.000431,0.001175
6762000,0.0324,0.013523,0.002678,0.000431,0.000940
6763000,0.0324,0.013523,0.002678,0.000431,0.000940
6764000,0.0324,0.013523,0.002678,0.000431,0.000940
6765000,0.0324,0.013523,0.002678,0.000431,0.000940
6766000,0.0324,0.013523,0.002678,0.000431,0.000940
6767000,0.0324,0.013523,0.002678,0.000431,0.000705
6768000,0.0324,0.013523,0.002678,0.000431,0.000940
6769000,0.0324,0.013523,0.002678,0.000431,0.000705
6770000,0.0324,0.013523,0.002678,0.000431,0.000823
6771000,0.0324,0.013523,0.002678,0.000431,0.000940
6772000,0.0324,0.013523,0.002678,0.000431,0.000940
6773000,0.0324,0.013523,0.002678,0.000431,0.000823
6774000,0.0324,0.013523,0.002678,0.000431,0.000940
6775000,0.0324,0.013523,0.002678,0.000431,0.000823
6776000,0.0324,0.013523,0.002678,0.000431,0.000588
6777000,0.0324,0.013523,0.002678,0.000431,0.000470
6778000,0.0324,0.013523,0.002678,0.000431,0.000823
6779000,0.0324,0.013523,0.002678,0.000431,0.000823
6780000,0.0324,0.013523,0.002678,0.000431,0.000470
6781000,0.0324,0.013523,0.002678,0.000431,0.000705
6782000,0.0324,0.013523,0.002678,0.000431,0.000940
6783000,0.0324,0.013523,0.002678,0.000431,0.000940
6784000,0.0324,0.013523,0.002678,0.000431,0.000823
6785000,0.0324,0.013523,0.002678,0.000431,0.001058
6786000,0.0324,0.013523,0.002678,0.000431,0.000588
6787000,0.0324,0.013523,0.002678,0.000431,0.000940
6788000,0.0324,0.013523,0.002678,0.000431,0.000940
6789000,0.0324,0.013523,0.002678,0.000431,0.000588
6790000,0.0324,0.013523,0.002678,0.000431,0.001058
6791000,0.0324,0.013523,0.002678,0.000431,0.001058
6792000,0.0324,0.013523,0.002678,0.000431,0.000470
6793000,0.0324,0.013523,0.002678,0.000431,0.000940
6794000,0.0324,0.013523,0.002678,0.000431,0.000940
6795000,0.0324,0.013523,0.002678,0.000431,0.000705
6796000,0.0324,0.013523,0.002678,0.000431,0.000940
6797000,0.0324,0.013523,0.002678,0.000431,0.001058
6798000,0.0324,0.013523,0.002678,0.000431,0.000705
6799000,0.0324,0.013523,0.002678,0.000431,0.000940
6800000,0.0324,0.013523,0.002678,0.000431,0.000823
6801000,0.0324,0.013523,0.002678,0.000431,0.000940
6802000,0.0324,0.013523,0.002678,0.000431,0.000940
6803000,0.0324,0.013523,0.002678,0.000431,0.001175
6804000,0.0324,0.013523,0.002678,0.000431,0.000823
6805000,0.0324,0.013523,0.002678,0.000431,0.000940
6806000,0.0324,0.013523,0.002678,0.000431,0.000823
6807000,0.0324,0.013523,0.002678,0.000431,0.000823
6808000,0.0324,0.013523,0.002678,0.000431,0.000823
6809000,0.0324,0.013523,0.002678,0.000431,0.000940
6810000,0.0324,0.013523,0.002678,0.000431,0.000940
6811000,0.0324,0.013523,0.002678,0.000431,0.001058
6812000,0.0324,0.013523,0.002678,0.000431,0.000588
6813000,0.0324,0.013523,0.002678,0.000431,0.000940
6814000,0.0324,0.013523,0.002678,0.000431,0.000940
6815000,0.0324,0.013523,0.002678,0.000431,0.000940
6816000,0.0324,0.013523,0.002678,0.000431,0.000940
6817000,0.0324,0.013523,0.002678,0.000431,0.001058
6818000,0.0324,0.013523,0.002678,0.000431,0.000823
6819000,0.0324,0.013523,0.002678,0.000431,0.000588
6820000,0.0324,0.013523,0.002678,0.000431,0.000705
6821000,0.0324,0.013523,0.002678,0.000431,0.001058
6822000,0.0324,0.013523,0.002678,0.000431,0.000705
6823000,0.0324,0.013523,0.002678,0.000431,0.000705
6824000,0.0324,0.013523,0.002678,0.000431,0.000940
6825000,0.0324,0.013523,0.002678,0.000431,0.000940
6826000,0.0324,0.013523,0.002678,0.000431,0.000940
6827000,0.0324,0.013523,0.002678,0.000431,0.000940
6828000,0.0324,0.013523,0.002678,0.000431,0.000940
6829000,0.0324,0.013523,0.002678,0.000431,0.000940
6830000,0.0324,0.013523,0.002678,0.000431,0.001058
6831000,0.0324,0.013523,0.002678,0.000431,0.001058
6832000,0.0324,0.013523,0.002678,0.000431,0.000940
6833000,0.0324,0.013523,0.002678,0.000431,0.000705
6834000,0.0324,0.013523,0.002678,0.000431,0.000940
6835000,0.0324,0.013523,0.002678,0.000431,0.000940
6836000,0.0324,0.013523,0.002678,0.000431,0.000823
6837000,0.0324,0.013523,0.002678,0.000431,0.000823
6838000,0.0324,0.013523,0.002678,0.000431,0.001175
6839000,0.0324,0.013523,0.002678,0.000431,0.000823
6840000,0.0324,0.013523,0.002678,0.000431,0.000940
6841000,0.0324,0.013523,0.002678,0.000431,0.000940
6842000,0.0324,0.013523,0.002678,0.000431,0.001058
6843000,0.0324,0.013523,0.002678,0.000431,0.000705
6844000,0.0324,0.013523,0.002678,0.000431,0.000940
6845000,0.0324,0.013523,0.002678,0.000431,0.001058
6846000,0.0324,0.013523,0.002678,0.000431,0.001058
6847000,0.0324,0.013523,0.002678,0.000431,0.000940
6848000,0.0324,0.013523,0.002678,0.000431,0.000823
6849000,0.0324,0.013523,0.002678,0.000431,0.001175
6850000,0.0324,0.013523,0.002678,0.000431,0.000940
6851000,0.0324,0.013523,0.002678,0.000431,0.001058
6852000,0.0324,0.013523,0.002678,0.000431,0.000940
6853000,0.0324,0.013523,0.002678,0.000431,0.000940
6854000,0.0324,0.013523,0.002678,0.000431,0.001058
6855000,0.0324,0.013523,0.002678,0.000431,0.001058
6856000,0.0324,0.013523,0.002678,0.000431,0.001058
6857000,0.0324,0.013523,0.002678,0.000431,0.001058
6858000,0.0324,0.013523,0.002678,0.000431,0.000940
6859000,0.0324,0.013523,0.002678,0.000431,0.001058
6860000,0.0324,0.013523,0.002678,0.000431,0.000823
6861000,0.0324,0.013523,0.002678,0.000431,0.000705
6862000,0.0324,0.013523,0.002678,0.000431,0.000940
6863000,0.0324,0.013523,0.002678,0.000431,0.000940
6864000,0.0324,0.013523,0.002678,0.000431,0.000940
6865000,0.0324,0.013523,0.002678,0.000431,0.000705
6866000,0.0324,0.013523,0.002678,0.000431,0.001293
6867000,0.0324,0.013523,0.002678,0.000431,0.000823
6868000,0.0324,0.013523,0.002678,0.000431,0.000705
6869000,0.0324,0.013523,0.002678,0.000431,0.000940
6870000,0.0324,0.013523,0.002678,0.000431,0.000940
6871000,0.0324,0.013523,0.002678,0.000431,0.000940
6872000,0.0324,0.013523,0.002678,0.000431,0.000940
6873000,0.0324,0.013523,0.002678,0.000431,0.000940
6874000,0.0324,0.013523,0.002678,0.000431,0.000940
6875000,0.0324,0.013523,0.002678,0.000431,0.000940
6876000,0.0324,0.013523,0.002678,0.000431,0.001058
6877000,0.0324,0.013523,0.002678,0.000431,0.000588
6878000,0.0324,0.013523,0.002678,0.000431,0.001175
6879000,0.0324,0.013523,0.002678,0.000431,0.000940
6880000,0.0324,0.013523,0.002678,0.000431,0.001175
6881000,0.0324,0.013523,0.002678,0.000431,0.001058
6882000,0.0324,0.013523,0.002678,0.000431,0.000940
6883000,0.0324,0.013523,0.002678,0.000431,0.000823
6884000,0.0324,0.013523,0.002678,0.000431,0.001175
6885000,0.0324,0.013523,0.002678,0.000431,0.001058
6886000,0.0324,0.013523,0.002678,0.000431,0.000940
6887000,0.0324,0.013523,0.002678,0.000431,0.000823
6888000,0.0324,0.013523,0.002678,0.000431,0.000940
6889000,0.0324,0.013523,0.002678,0.000431,0.000940
6890000,0.0324,0.013523,0.002678,0.000431,0.000940
6891000,0.0324,0.013523,0.002678,0.000431,0.000705
6892000,0.0324,0.013523,0.002678,0.000431,0.000940
6893000,0.0324,0.013523,0.002678,0.000431,0.000705
6894000,0.0324,0.013523,0.002678,0.000431,0.000940
6895000,0.0324,0.013523,0.002678,0.000431,0.000823
6896000,0.0324,0.013523,0.002678,0.000431,0.001175
6897000,0.0324,0.013523,0.002678,0.000431,0.000940
6898000,0.0324,0.013523,0.002678,0.000431,0.000940
6899000,0.0324,0.013523,0.002678,0.000431,0.001058
6900000,0.0324,0.013523,0.002678,0.000431,0.000940
6901000,0.0324,0.013523,0.002678,0.000431,0.000705
6902000,0.0324,0.013523,0.002678,0.000431,0.000823
6903000,0.0324,0.013523,0.002678,0.000431,0.001058
6904000,0.0324,0.013523,0.002678,0.000431,0.000940
6905000,0.0324,0.013523,0.002678,0.000431,0.000940
6906000,0.0324,0.013523,0.002678,0.000431,0.001058
6907000,0.0324,0.013523,0.002678,0.000431,0.000823
6908000,0.0324,0.013523,0.002678,0.000431,0.000940
6909000,0.0324,0.013523,0.002678,0.000431,0.000940
6910000,0.0324,0.013523,0.002678,0.000431,0.001175
6911000,0.0324,0.013523,0.002678,0.000431,0.000940
6912000,0.0324,0.013523,0.002678,0.000431,0.000940
6913000,0.0324,0.013523,0.002678,0.000431,0.000940
6914000,0.0324,0.013523,0.002678,0.000431,0.001175
6915000,0.0324,0.013523,0.002678,0.000431,0.000705
6916000,0.0324,0.013523,0.002678,0.000431,0.001058
6917000,0.0324,0.013523,0.002678,0.000431,0.000940
6918000,0.0324,0.013523,0.002678,0.000431,0.001175
6919000,0.0324,0.013523,0.002678,0.000431,0.000705
6920000,0.0324,0.013523,0.002678,0.000431,0.001058
6921000,0.0324,0.013523,0.002678,0.000431,0.000940
6922000,0.0324,0.013523,0.002678,0.000431,0.000940
6923000,0.0324,0.013523,0.002678,0.000431,0.000940
6924000,0.0324,0.013523,0.002678,0.000431,0.000705
6925000,0.0324,0.013523,0.002678,0.000431,0.000940
6926000,0.0324,0.013523,0.002678,0.000431,0.000823
6927000,0.0324,0.013523,0.002678,0.000431,0.001058
6928000,0.0324,0.013523,0.002678,0.000431,0.001058
6929000,0.0324,0.013523,0.002678,0.000431,0.000823
6930000,0.0324,0.013523,0.002678,0.000431,0.001058
6931000,0.0324,0.013523,0.002678,0.000431,0.000588
6932000,0.0324,0.013523,0.002678,0.000431,0.000823
6933000,0.0324,0.013523,0.002678,0.000431,0.001058
6934000,0.0324,0.013523,0.002678,0.000431,0.000940
6935000,0.0324,0.013523,0.002678,0.000431,0.001175
6936000,0.0324,0.013523,0.002678,0.000431,0.000940
6937000,0.0324,0.013523,0.002678,0.000431,0.000940
6938000,0.0324,0.013523,0.002678,0.000431,0.000940
6939000,0.0324,0.013523,0.002678,0.000431,0.001058
6940000,0.0324,0.013523,0.002678,0.000431,0.000940
6941000,0.0324,0.013523,0.002678,0.000431,0.000940
6942000,0.0324,0.013523,0.002678,0.000431,0.000823
6943000,0.0324,0.013523,0.002678,0.000431,0.000940
6944000,0.0324,0.013523,0.002678,0.000431,0.000940
6945000,0.0324,0.013523,0.002678,0.000431,0.001175
6946000,0.0324,0.013523,0.002678,0.000431,0.000940
6947000,0.0324,0.013523,0.002678,0.000431,0.000940
6948000,0.0324,0.013523,0.002678,0.000431,0.001175
6949000,0.0324,0.013523,0.002678,0.000431,0.000940
6950000,0.0324,0.013523,0.002678,0.000431,0.001175
6951000,0.0324,0.013523,0.002678,0.000431,0.000940
6952000,0.0324,0.013523,0.002678,0.000431,0.000940
6953000,0.0324,0.013523,0.002678,0.000431,0.000940
6954000,0.0324,0.013523,0.002678,0.000431,0.000940
6955000,0.0324,0.013523,0.002678,0.000431,0.000940
6956000,0.0324,0.013523,0.002678,0.000431,0.000940
6957000,0.0324,0.013523,0.002678,0.000431,0.000940
6958000,0.0324,0.013523,0.002678,0.000431,0.000705
6959000,0.0324,0.013523,0.002678,0.000431,0.001175
6960000,0.0324,0.013523,0.002678,0.000431,0.000823
6961000,0.0324,0.013523,0.002678,0.000431,0.000823
6962000,0.0324,0.013523,0.002678,0.000431,0.000823
6963000,0.0324,0.013523,0.002678,0.000431,0.001058
6964000,0.0324,0.013523,0.002678,0.000431,0.000823
6965000,0.0324,0.013523,0.002678,0.000431,0.000940
6966000,0.0324,0.013523,0.002678,0.000431,0.000940
6967000,0.0324,0.013523,0.002678,0.000431,0.001058
6968000,0.0324,0.013523,0.002678,0.000431,0.000940
6969000,0.0324,0.013523,0.002678,0.000431,0.000940
6970000,0.0324,0.013523,0.002678,0.000431,0.000940
6971000,0.0324,0.013523,0.002678,0.000431,0.000823
6972000,0.0324,0.013523,0.002678,0.000431,0.001058
6973000,0.0324,0.013523,0.002678,0.000431,0.000940
6974000,0.0324,0.013523,0.002678,0.000431,0.001058
6975000,0.0324,0.013523,0.002678,0.000431,0.000940
6976000,0.0324,0.013523,0.002678,0.000431,0.001058
6977000,0.0324,0.013523,0.002678,0.000431,0.001058
6978000,0.0324,0.013523,0.002678,0.000431,0.000940
6979000,0.0324,0.013523,0.002678,0.000431,0.001058
6980000,0.0324,0.013523,0.002678,0.000431,0.000705
6981000,0.0324,0.013523,0.002678,0.000431,0.000940
6982000,0.0324,0.013523,0.002678,0.000431,0.001175
6983000,0.0324,0.013523,0.002678,0.000431,0.000940
6984000,0.0324,0.013523,0.002678,0.000431,0.000940
6985000,0.0324,0.013523,0.002678,0.000431,0.000940
6986000,0.0324,0.013523,0.002678,0.000431,0.001058
6987000,0.0324,0.013523,0.002678,0.000431,0.000588
6988000,0.0324,0.013523,0.002678,0.000431,0.000940
6989000,0.0324,0.013523,0.002678,0.000431,0.000940
6990000,0.0324,0.013523,0.002678,0.000431,0.001175
6991000,0.0324,0.013523,0.002678,0.000431,0.000823
6992000,0.0324,0.013523,0.002678,0.000431,0.001058
6993000,0.0324,0.013523,0.002678,0.000431,0.001175
6994000,0.0324,0.013523,0.002678,0.000431,0.001058
6995000,0.0324,0.013523,0.002678,0.000431,0.000823
6996000,0.0324,0.013523,0.002678,0.000431,0.001175
6997000,0.0324,0.013523,0.002678,0.000431,0.000470
6998000,0.0324,0.013523,0.002678,0.000431,0.000940
6999000,0.0324,0.013523,0.002678,0.000431,0.001175
