Cycle,Area(mm^2),PeakDynamic(W),SubthresholdLeakage(W),GateLeakage(W),RunTimeDynamic(W)
2000000,0.0324,0.013523,0.002678,0.000431,1.637873
2001000,0.0324,0.013523,0.002678,0.000431,1.650801
2002000,0.0324,0.013523,0.002678,0.000431,1.696284
2003000,0.0324,0.013523,0.002678,0.000431,1.785371
2004000,0.0324,0.013523,0.002678,0.000431,1.709918
2005000,0.0324,0.013523,0.002678,0.000431,1.721083
2006000,0.0324,0.013523,0.002678,0.000431,1.670663
2007000,0.0324,0.013523,0.002678,0.000431,1.589921
2008000,0.0324,0.013523,0.002678,0.000431,1.466282
2009000,0.0324,0.013523,0.002678,0.000431,1.759867
2010000,0.0324,0.013523,0.002678,0.000431,1.806408
2011000,0.0324,0.013523,0.002678,0.000431,1.670781
2012000,0.0324,0.013523,0.002678,0.000431,1.813225
2013000,0.0324,0.013523,0.002678,0.000431,1.889501
2014000,0.0324,0.013523,0.002678,0.000431,1.759985
2015000,0.0324,0.013523,0.002678,0.000431,1.867053
2016000,0.0324,0.013523,0.002678,0.000431,1.952261
2017000,0.0324,0.013523,0.002678,0.000431,1.917237
2018000,0.0324,0.013523,0.002678,0.000431,1.881744
2019000,0.0324,0.013523,0.002678,0.000431,1.905484
2020000,0.0324,0.013523,0.002678,0.000431,1.708507
2021000,0.0324,0.013523,0.002678,0.000431,1.813460
2022000,0.0324,0.013523,0.002678,0.000431,1.835673
2023000,0.0324,0.013523,0.002678,0.000431,1.881039
2024000,0.0324,0.013523,0.002678,0.000431,1.814283
2025000,0.0324,0.013523,0.002678,0.000431,1.979057
2026000,0.0324,0.013523,0.002678,0.000431,1.767741
2027000,0.0324,0.013523,0.002678,0.000431,1.841549
2028000,0.0324,0.013523,0.002678,0.000431,1.921586
2029000,0.0324,0.013523,0.002678,0.000431,1.877160
2030000,0.0324,0.013523,0.002678,0.000431,1.929343
2031000,0.0324,0.013523,0.002678,0.000431,1.889383
2032000,0.0324,0.013523,0.002678,0.000431,1.841432
2033000,0.0324,0.013523,0.002678,0.000431,1.860236
2034000,0.0324,0.013523,0.002678,0.000431,1.933926
2035000,0.0324,0.013523,0.002678,0.000431,1.856828
2036000,0.0324,0.013523,0.002678,0.000431,1.806878
2037000,0.0324,0.013523,0.002678,0.000431,1.775498
2038000,0.0324,0.013523,0.002678,0.000431,1.772443
2039000,0.0324,0.013523,0.002678,0.000431,1.839316
2040000,0.0324,0.013523,0.002678,0.000431,1.848836
2041000,0.0324,0.013523,0.002678,0.000431,1.788896
2042000,0.0324,0.013523,0.002678,0.000431,1.807113
2043000,0.0324,0.013523,0.002678,0.000431,1.839786
2044000,0.0324,0.013523,0.002678,0.000431,1.822627
2045000,0.0324,0.013523,0.002678,0.000431,1.788896
2046000,0.0324,0.013523,0.002678,0.000431,1.775968
2047000,0.0324,0.013523,0.002678,0.000431,1.832852
2048000,0.0324,0.013523,0.002678,0.000431,1.756341
2049000,0.0324,0.013523,0.002678,0.000431,1.826505
2050000,0.0324,0.013523,0.002678,0.000431,1.736596
2051000,0.0324,0.013523,0.002678,0.000431,1.815928
2052000,0.0324,0.013523,0.002678,0.000431,1.665844
2053000,0.0324,0.013523,0.002678,0.000431,1.716734
2054000,0.0324,0.013523,0.002678,0.000431,1.506711
2055000,0.0324,0.013523,0.002678,0.000431,1.599088
2056000,0.0324,0.013523,0.002678,0.000431,1.761277
2057000,0.0324,0.013523,0.002678,0.000431,1.699575
2058000,0.0324,0.013523,0.002678,0.000431,1.611899
2059000,0.0324,0.013523,0.002678,0.000431,1.627295
2060000,0.0324,0.013523,0.002678,0.000431,1.681476
2061000,0.0324,0.013523,0.002678,0.000431,1.731425
2062000,0.0324,0.013523,0.002678,0.000431,1.691583
2063000,0.0324,0.013523,0.002678,0.000431,1.685354
2064000,0.0324,0.013523,0.002678,0.000431,1.718497
2065000,0.0324,0.013523,0.002678,0.000431,1.719672
2066000,0.0324,0.013523,0.002678,0.000431,1.701926
2067000,0.0324,0.013523,0.002678,0.000431,1.710623
2068000,0.0324,0.013523,0.002678,0.000431,1.699222
2069000,0.0324,0.013523,0.002678,0.000431,1.724609
2070000,0.0324,0.013523,0.002678,0.000431,1.573585
2071000,0.0324,0.013523,0.002678,0.000431,1.687235
2072000,0.0324,0.013523,0.002678,0.000431,1.693346
2073000,0.0324,0.013523,0.002678,0.000431,1.738947
2074000,0.0324,0.013523,0.002678,0.000431,1.662554
2075000,0.0324,0.013523,0.002678,0.000431,1.799709
2076000,0.0324,0.013523,0.002678,0.000431,1.751640
2077000,0.0324,0.013523,0.002678,0.000431,1.704394
2078000,0.0324,0.013523,0.002678,0.000431,1.590391
2079000,0.0324,0.013523,0.002678,0.000431,1.642926
2080000,0.0324,0.013523,0.002678,0.000431,1.765626
2081000,0.0324,0.013523,0.002678,0.000431,1.709095
2082000,0.0324,0.013523,0.002678,0.000431,1.707802
2083000,0.0324,0.013523,0.002678,0.000431,1.738124
2084000,0.0324,0.013523,0.002678,0.000431,1.747762
2085000,0.0324,0.013523,0.002678,0.000431,1.782080
2086000,0.0324,0.013523,0.002678,0.000431,1.672779
2087000,0.0324,0.013523,0.002678,0.000431,1.675599
2088000,0.0324,0.013523,0.002678,0.000431,1.640106
2089000,0.0324,0.013523,0.002678,0.000431,1.645630
2090000,0.0324,0.013523,0.002678,0.000431,1.770562
2091000,0.0324,0.013523,0.002678,0.000431,1.733658
2092000,0.0324,0.013523,0.002678,0.000431,1.754108
2093000,0.0324,0.013523,0.002678,0.000431,1.660673
2094000,0.0324,0.013523,0.002678,0.000431,1.759985
2095000,0.0324,0.013523,0.002678,0.000431,1.824743
2096000,0.0324,0.013523,0.002678,0.000431,1.797711
2097000,0.0324,0.013523,0.002678,0.000431,1.699575
2098000,0.0324,0.013523,0.002678,0.000431,1.637050
2099000,0.0324,0.013523,0.002678,0.000431,1.802060
2100000,0.0324,0.013523,0.002678,0.000431,1.805938
2101000,0.0324,0.013523,0.002678,0.000431,1.775733
2102000,0.0324,0.013523,0.002678,0.000431,1.680183
2103000,0.0324,0.013523,0.002678,0.000431,1.493666
2104000,0.0324,0.013523,0.002678,0.000431,1.709330
2105000,0.0324,0.013523,0.002678,0.000431,1.648098
2106000,0.0324,0.013523,0.002678,0.000431,1.735774
2107000,0.0324,0.013523,0.002678,0.000431,1.748702
2108000,0.0324,0.013523,0.002678,0.000431,1.829444
2109000,0.0324,0.013523,0.002678,0.000431,1.770797
2110000,0.0324,0.013523,0.002678,0.000431,1.764568
2111000,0.0324,0.013523,0.002678,0.000431,1.844722
2112000,0.0324,0.013523,0.002678,0.000431,1.780082
2113000,0.0324,0.013523,0.002678,0.000431,1.792657
2114000,0.0324,0.013523,0.002678,0.000431,1.814635
2115000,0.0324,0.013523,0.002678,0.000431,1.717792
2116000,0.0324,0.013523,0.002678,0.000431,1.847425
2117000,0.0324,0.013523,0.002678,0.000431,1.781257
2118000,0.0324,0.013523,0.002678,0.000431,1.839434
2119000,0.0324,0.013523,0.002678,0.000431,1.700633
2120000,0.0324,0.013523,0.002678,0.000431,1.853890
2121000,0.0324,0.013523,0.002678,0.000431,1.633524
2122000,0.0324,0.013523,0.002678,0.000431,1.608491
2123000,0.0324,0.013523,0.002678,0.000431,1.688057
2124000,0.0324,0.013523,0.002678,0.000431,1.715324
2125000,0.0324,0.013523,0.002678,0.000431,1.771267
2126000,0.0324,0.013523,0.002678,0.000431,1.684414
2127000,0.0324,0.013523,0.002678,0.000431,1.779024
2128000,0.0324,0.013523,0.002678,0.000431,1.736479
2129000,0.0324,0.013523,0.002678,0.000431,1.724373
2130000,0.0324,0.013523,0.002678,0.000431,1.737654
2131000,0.0324,0.013523,0.002678,0.000431,1.641399
2132000,0.0324,0.013523,0.002678,0.000431,1.709447
2133000,0.0324,0.013523,0.002678,0.000431,1.691466
2134000,0.0324,0.013523,0.002678,0.000431,1.793010
2135000,0.0324,0.013523,0.002678,0.000431,1.594740
2136000,0.0324,0.013523,0.002678,0.000431,1.466399
2137000,0.0324,0.013523,0.002678,0.000431,1.644102
2138000,0.0324,0.013523,0.002678,0.000431,1.607315
2139000,0.0324,0.013523,0.002678,0.000431,1.542675
2140000,0.0324,0.013523,0.002678,0.000431,1.721200
2141000,0.0324,0.013523,0.002678,0.000431,1.759749
2142000,0.0324,0.013523,0.002678,0.000431,1.641164
2143000,0.0324,0.013523,0.002678,0.000431,1.643044
2144000,0.0324,0.013523,0.002678,0.000431,1.825918
2145000,0.0324,0.013523,0.002678,0.000431,1.801237
2146000,0.0324,0.013523,0.002678,0.000431,1.868933
2147000,0.0324,0.013523,0.002678,0.000431,1.791365
2148000,0.0324,0.013523,0.002678,0.000431,1.920763
2149000,0.0324,0.013523,0.002678,0.000431,1.881626
2150000,0.0324,0.013523,0.002678,0.000431,1.787721
2151000,0.0324,0.013523,0.002678,0.000431,1.762805
2152000,0.0324,0.013523,0.002678,0.000431,1.769152
2153000,0.0324,0.013523,0.002678,0.000431,1.875397
2154000,0.0324,0.013523,0.002678,0.000431,1.816163
2155000,0.0324,0.013523,0.002678,0.000431,1.788191
2156000,0.0324,0.013523,0.002678,0.000431,1.637403
2157000,0.0324,0.013523,0.002678,0.000431,1.752345
2158000,0.0324,0.013523,0.002678,0.000431,1.793010
2159000,0.0324,0.013523,0.002678,0.000431,1.837201
2160000,0.0324,0.013523,0.002678,0.000431,1.700633
2161000,0.0324,0.013523,0.002678,0.000431,1.604965
2162000,0.0324,0.013523,0.002678,0.000431,1.865055
2163000,0.0324,0.013523,0.002678,0.000431,1.751052
2164000,0.0324,0.013523,0.002678,0.000431,1.649626
2165000,0.0324,0.013523,0.002678,0.000431,1.875045
2166000,0.0324,0.013523,0.002678,0.000431,1.791482
2167000,0.0324,0.013523,0.002678,0.000431,1.877278
2168000,0.0324,0.013523,0.002678,0.000431,1.775851
2169000,0.0324,0.013523,0.002678,0.000431,1.835320
2170000,0.0324,0.013523,0.002678,0.000431,1.756459
2171000,0.0324,0.013523,0.002678,0.000431,1.690995
2172000,0.0324,0.013523,0.002678,0.000431,1.810522
2173000,0.0324,0.013523,0.002678,0.000431,1.885740
2174000,0.0324,0.013523,0.002678,0.000431,1.610606
2175000,0.0324,0.013523,0.002678,0.000431,1.761865
2176000,0.0324,0.013523,0.002678,0.000431,1.914769
2177000,0.0324,0.013523,0.002678,0.000431,1.847308
2178000,0.0324,0.013523,0.002678,0.000431,1.877983
2179000,0.0324,0.013523,0.002678,0.000431,1.907600
2180000,0.0324,0.013523,0.002678,0.000431,1.927697
2181000,0.0324,0.013523,0.002678,0.000431,1.937100
2182000,0.0324,0.013523,0.002678,0.000431,1.860471
2183000,0.0324,0.013523,0.002678,0.000431,1.805115
2184000,0.0324,0.013523,0.002678,0.000431,1.861176
2185000,0.0324,0.013523,0.002678,0.000431,1.779964
2186000,0.0324,0.013523,0.002678,0.000431,1.709447
2187000,0.0324,0.013523,0.002678,0.000431,1.784783
2188000,0.0324,0.013523,0.002678,0.000431,1.714266
2189000,0.0324,0.013523,0.002678,0.000431,1.840139
2190000,0.0324,0.013523,0.002678,0.000431,1.810287
2191000,0.0324,0.013523,0.002678,0.000431,1.743060
2192000,0.0324,0.013523,0.002678,0.000431,1.771032
2193000,0.0324,0.013523,0.002678,0.000431,1.860236
2194000,0.0324,0.013523,0.002678,0.000431,1.725079
2195000,0.0324,0.013523,0.002678,0.000431,1.805821
2196000,0.0324,0.013523,0.002678,0.000431,1.783373
2197000,0.0324,0.013523,0.002678,0.000431,1.646217
2198000,0.0324,0.013523,0.002678,0.000431,1.570177
2199000,0.0324,0.013523,0.002678,0.000431,1.535976
2200000,0.0324,0.013523,0.002678,0.000431,1.706392
2201000,0.0324,0.013523,0.002678,0.000431,1.775616
2202000,0.0324,0.013523,0.002678,0.000431,1.737889
2203000,0.0324,0.013523,0.002678,0.000431,1.707449
2204000,0.0324,0.013523,0.002678,0.000431,1.682416
2205000,0.0324,0.013523,0.002678,0.000431,1.727547
2206000,0.0324,0.013523,0.002678,0.000431,1.713443
2207000,0.0324,0.013523,0.002678,0.000431,1.745881
2208000,0.0324,0.013523,0.002678,0.000431,1.789602
2209000,0.0324,0.013523,0.002678,0.000431,1.695227
2210000,0.0324,0.013523,0.002678,0.000431,1.755636
2211000,0.0324,0.013523,0.002678,0.000431,1.760337
2212000,0.0324,0.013523,0.002678,0.000431,1.653739
2213000,0.0324,0.013523,0.002678,0.000431,1.739182
2214000,0.0324,0.013523,0.002678,0.000431,1.625767
2215000,0.0324,0.013523,0.002678,0.000431,1.717674
2216000,0.0324,0.013523,0.002678,0.000431,1.591449
2217000,0.0324,0.013523,0.002678,0.000431,1.602967
2218000,0.0324,0.013523,0.002678,0.000431,1.596738
2219000,0.0324,0.013523,0.002678,0.000431,1.653269
2220000,0.0324,0.013523,0.002678,0.000431,1.527984
2221000,0.0324,0.013523,0.002678,0.000431,1.672896
2222000,0.0324,0.013523,0.002678,0.000431,1.533743
2223000,0.0324,0.013523,0.002678,0.000431,1.540207
2224000,0.0324,0.013523,0.002678,0.000431,1.551490
2225000,0.0324,0.013523,0.002678,0.000431,1.612722
2226000,0.0324,0.013523,0.002678,0.000431,1.600499
2227000,0.0324,0.013523,0.002678,0.000431,1.686059
2228000,0.0324,0.013523,0.002678,0.000431,1.656207
2229000,0.0324,0.013523,0.002678,0.000431,1.671838
2230000,0.0324,0.013523,0.002678,0.000431,1.677010
2231000,0.0324,0.013523,0.002678,0.000431,1.752345
2232000,0.0324,0.013523,0.002678,0.000431,1.674071
2233000,0.0324,0.013523,0.002678,0.000431,1.564653
2234000,0.0324,0.013523,0.002678,0.000431,1.614602
2235000,0.0324,0.013523,0.002678,0.000431,1.604025
2236000,0.0324,0.013523,0.002678,0.000431,1.636345
2237000,0.0324,0.013523,0.002678,0.000431,1.639518
2238000,0.0324,0.013523,0.002678,0.000431,1.673719
2239000,0.0324,0.013523,0.002678,0.000431,1.606140
2240000,0.0324,0.013523,0.002678,0.000431,1.639401
2241000,0.0324,0.013523,0.002678,0.000431,1.668313
2242000,0.0324,0.013523,0.002678,0.000431,1.650096
2243000,0.0324,0.013523,0.002678,0.000431,1.608843
2244000,0.0324,0.013523,0.002678,0.000431,1.649391
2245000,0.0324,0.013523,0.002678,0.000431,1.590509
2246000,0.0324,0.013523,0.002678,0.000431,1.568884
2247000,0.0324,0.013523,0.002678,0.000431,1.548904
2248000,0.0324,0.013523,0.002678,0.000431,1.587101
2249000,0.0324,0.013523,0.002678,0.000431,1.567121
2250000,0.0324,0.013523,0.002678,0.000431,1.643514
2251000,0.0324,0.013523,0.002678,0.000431,1.439133
2252000,0.0324,0.013523,0.002678,0.000431,1.553958
2253000,0.0324,0.013523,0.002678,0.000431,1.496486
2254000,0.0324,0.013523,0.002678,0.000431,1.544908
2255000,0.0324,0.013523,0.002678,0.000431,1.536799
2256000,0.0324,0.013523,0.002678,0.000431,1.644572
2257000,0.0324,0.013523,0.002678,0.000431,1.695462
2258000,0.0324,0.013523,0.002678,0.000431,1.557366
2259000,0.0324,0.013523,0.002678,0.000431,1.552900
2260000,0.0324,0.013523,0.002678,0.000431,1.694756
2261000,0.0324,0.013523,0.002678,0.000431,1.636110
2262000,0.0324,0.013523,0.002678,0.000431,1.444186
2263000,0.0324,0.013523,0.002678,0.000431,1.698870
2264000,0.0324,0.013523,0.002678,0.000431,1.773735
2265000,0.0324,0.013523,0.002678,0.000431,1.711445
2266000,0.0324,0.013523,0.002678,0.000431,1.778201
2267000,0.0324,0.013523,0.002678,0.000431,1.673484
2268000,0.0324,0.013523,0.002678,0.000431,1.690995
2269000,0.0324,0.013523,0.002678,0.000431,1.689820
2270000,0.0324,0.013523,0.002678,0.000431,1.699810
2271000,0.0324,0.013523,0.002678,0.000431,1.692876
2272000,0.0324,0.013523,0.002678,0.000431,1.696989
2273000,0.0324,0.013523,0.002678,0.000431,1.749877
2274000,0.0324,0.013523,0.002678,0.000431,1.745176
2275000,0.0324,0.013523,0.002678,0.000431,1.742943
2276000,0.0324,0.013523,0.002678,0.000431,1.791482
2277000,0.0324,0.013523,0.002678,0.000431,1.813342
2278000,0.0324,0.013523,0.002678,0.000431,1.742473
2279000,0.0324,0.013523,0.002678,0.000431,1.708390
2280000,0.0324,0.013523,0.002678,0.000431,1.832029
2281000,0.0324,0.013523,0.002678,0.000431,1.687470
2282000,0.0324,0.013523,0.002678,0.000431,1.725666
2283000,0.0324,0.013523,0.002678,0.000431,1.649978
2284000,0.0324,0.013523,0.002678,0.000431,1.677832
2285000,0.0324,0.013523,0.002678,0.000431,1.672779
2286000,0.0324,0.013523,0.002678,0.000431,1.726019
2287000,0.0324,0.013523,0.002678,0.000431,1.707449
2288000,0.0324,0.013523,0.002678,0.000431,1.706509
2289000,0.0324,0.013523,0.002678,0.000431,1.740475
2290000,0.0324,0.013523,0.002678,0.000431,1.647980
2291000,0.0324,0.013523,0.002678,0.000431,1.675247
2292000,0.0324,0.013523,0.002678,0.000431,1.629293
2293000,0.0324,0.013523,0.002678,0.000431,1.703336
2294000,0.0324,0.013523,0.002678,0.000431,1.523635
2295000,0.0324,0.013523,0.002678,0.000431,1.346285
2296000,0.0324,0.013523,0.002678,0.000431,1.563360
2297000,0.0324,0.013523,0.002678,0.000431,1.683709
2298000,0.0324,0.013523,0.002678,0.000431,1.608021
2299000,0.0324,0.013523,0.002678,0.000431,1.628470
2300000,0.0324,0.013523,0.002678,0.000431,1.642574
2301000,0.0324,0.013523,0.002678,0.000431,1.650096
2302000,0.0324,0.013523,0.002678,0.000431,1.580872
2303000,0.0324,0.013523,0.002678,0.000431,1.604495
2304000,0.0324,0.013523,0.002678,0.000431,1.594857
2305000,0.0324,0.013523,0.002678,0.000431,1.706627
2306000,0.0324,0.013523,0.002678,0.000431,1.650096
2307000,0.0324,0.013523,0.002678,0.000431,1.705451
2308000,0.0324,0.013523,0.002678,0.000431,1.666902
2309000,0.0324,0.013523,0.002678,0.000431,1.663494
2310000,0.0324,0.013523,0.002678,0.000431,1.743883
2311000,0.0324,0.013523,0.002678,0.000431,1.659733
2312000,0.0324,0.013523,0.002678,0.000431,1.555133
2313000,0.0324,0.013523,0.002678,0.000431,1.742003
2314000,0.0324,0.013523,0.002678,0.000431,1.639871
2315000,0.0324,0.013523,0.002678,0.000431,1.687235
2316000,0.0324,0.013523,0.002678,0.000431,1.637873
2317000,0.0324,0.013523,0.002678,0.000431,1.665374
2318000,0.0324,0.013523,0.002678,0.000431,1.613309
2319000,0.0324,0.013523,0.002678,0.000431,1.655384
2320000,0.0324,0.013523,0.002678,0.000431,1.613192
2321000,0.0324,0.013523,0.002678,0.000431,1.576876
2322000,0.0324,0.013523,0.002678,0.000431,1.555956
2323000,0.0324,0.013523,0.002678,0.000431,1.612369
2324000,0.0324,0.013523,0.002678,0.000431,1.585103
2325000,0.0324,0.013523,0.002678,0.000431,1.558306
2326000,0.0324,0.013523,0.002678,0.000431,1.580754
2327000,0.0324,0.013523,0.002678,0.000431,1.616718
2328000,0.0324,0.013523,0.002678,0.000431,1.552900
2329000,0.0324,0.013523,0.002678,0.000431,1.467809
2330000,0.0324,0.013523,0.002678,0.000431,1.628706
2331000,0.0324,0.013523,0.002678,0.000431,1.582164
2332000,0.0324,0.013523,0.002678,0.000431,1.652681
2333000,0.0324,0.013523,0.002678,0.000431,1.469925
2334000,0.0324,0.013523,0.002678,0.000431,1.427027
2335000,0.0324,0.013523,0.002678,0.000431,1.647745
2336000,0.0324,0.013523,0.002678,0.000431,1.515996
2337000,0.0324,0.013523,0.002678,0.000431,1.494253
2338000,0.0324,0.013523,0.002678,0.000431,1.631526
2339000,0.0324,0.013523,0.002678,0.000431,1.586513
2340000,0.0324,0.013523,0.002678,0.000431,1.566533
2341000,0.0324,0.013523,0.002678,0.000431,1.645159
2342000,0.0324,0.013523,0.002678,0.000431,1.590039
2343000,0.0324,0.013523,0.002678,0.000431,1.433726
2344000,0.0324,0.013523,0.002678,0.000431,1.523870
2345000,0.0324,0.013523,0.002678,0.000431,1.619303
2346000,0.0324,0.013523,0.002678,0.000431,1.625532
2347000,0.0324,0.013523,0.002678,0.000431,1.565946
2348000,0.0324,0.013523,0.002678,0.000431,1.672309
2349000,0.0324,0.013523,0.002678,0.000431,1.539149
2350000,0.0324,0.013523,0.002678,0.000431,1.594975
2351000,0.0324,0.013523,0.002678,0.000431,1.476624
2352000,0.0324,0.013523,0.002678,0.000431,1.620831
2353000,0.0324,0.013523,0.002678,0.000431,1.574172
2354000,0.0324,0.013523,0.002678,0.000431,1.478387
2355000,0.0324,0.013523,0.002678,0.000431,1.561950
2356000,0.0324,0.013523,0.002678,0.000431,1.580166
2357000,0.0324,0.013523,0.002678,0.000431,1.582164
2358000,0.0324,0.013523,0.002678,0.000431,1.596738
2359000,0.0324,0.013523,0.002678,0.000431,1.608138
2360000,0.0324,0.013523,0.002678,0.000431,1.522930
2361000,0.0324,0.013523,0.002678,0.000431,1.558541
2362000,0.0324,0.013523,0.002678,0.000431,1.457232
2363000,0.0324,0.013523,0.002678,0.000431,1.513998
2364000,0.0324,0.013523,0.002678,0.000431,1.447242
2365000,0.0324,0.013523,0.002678,0.000431,1.454881
2366000,0.0324,0.013523,0.002678,0.000431,1.381426
2367000,0.0324,0.013523,0.002678,0.000431,1.435254
2368000,0.0324,0.013523,0.002678,0.000431,1.379076
2369000,0.0324,0.013523,0.002678,0.000431,1.380133
2370000,0.0324,0.013523,0.002678,0.000431,1.435842
2371000,0.0324,0.013523,0.002678,0.000431,1.384364
2372000,0.0324,0.013523,0.002678,0.000431,1.458995
2373000,0.0324,0.013523,0.002678,0.000431,1.479680
2374000,0.0324,0.013523,0.002678,0.000431,1.434902
2375000,0.0324,0.013523,0.002678,0.000431,1.421268
2376000,0.0324,0.013523,0.002678,0.000431,1.474274
2377000,0.0324,0.013523,0.002678,0.000431,1.437605
2378000,0.0324,0.013523,0.002678,0.000431,1.478034
2379000,0.0324,0.013523,0.002678,0.000431,1.416215
2380000,0.0324,0.013523,0.002678,0.000431,1.413629
2381000,0.0324,0.013523,0.002678,0.000431,1.367088
2382000,0.0324,0.013523,0.002678,0.000431,1.431141
2383000,0.0324,0.013523,0.002678,0.000431,1.434667
2384000,0.0324,0.013523,0.002678,0.000431,1.404344
2385000,0.0324,0.013523,0.002678,0.000431,1.450415
2386000,0.0324,0.013523,0.002678,0.000431,1.475449
2387000,0.0324,0.013523,0.002678,0.000431,1.402581
2388000,0.0324,0.013523,0.002678,0.000431,1.468397
2389000,0.0324,0.013523,0.002678,0.000431,1.374610
2390000,0.0324,0.013523,0.002678,0.000431,1.501658
2391000,0.0324,0.013523,0.002678,0.000431,1.430671
2392000,0.0324,0.013523,0.002678,0.000431,1.517524
2393000,0.0324,0.013523,0.002678,0.000431,1.554075
2394000,0.0324,0.013523,0.002678,0.000431,1.501893
2395000,0.0324,0.013523,0.002678,0.000431,1.572410
2396000,0.0324,0.013523,0.002678,0.000431,1.490257
2397000,0.0324,0.013523,0.002678,0.000431,1.525868
2398000,0.0324,0.013523,0.002678,0.000431,1.517406
2399000,0.0324,0.013523,0.002678,0.000431,1.470395
2400000,0.0324,0.013523,0.002678,0.000431,1.473921
2401000,0.0324,0.013523,0.002678,0.000431,1.460170
2402000,0.0324,0.013523,0.002678,0.000431,1.462638
2403000,0.0324,0.013523,0.002678,0.000431,1.366853
2404000,0.0324,0.013523,0.002678,0.000431,1.331359
2405000,0.0324,0.013523,0.002678,0.000431,1.444774
2406000,0.0324,0.013523,0.002678,0.000431,1.464166
2407000,0.0324,0.013523,0.002678,0.000431,1.484616
2408000,0.0324,0.013523,0.002678,0.000431,1.406107
2409000,0.0324,0.013523,0.002678,0.000431,1.541382
2410000,0.0324,0.013523,0.002678,0.000431,1.476507
2411000,0.0324,0.013523,0.002678,0.000431,1.447712
2412000,0.0324,0.013523,0.002678,0.000431,1.438192
2413000,0.0324,0.013523,0.002678,0.000431,1.449710
2414000,0.0324,0.013523,0.002678,0.000431,1.513881
2415000,0.0324,0.013523,0.002678,0.000431,1.484969
2416000,0.0324,0.013523,0.002678,0.000431,1.419975
2417000,0.0324,0.013523,0.002678,0.000431,1.506829
2418000,0.0324,0.013523,0.002678,0.000431,1.438545
2419000,0.0324,0.013523,0.002678,0.000431,1.479445
2420000,0.0324,0.013523,0.002678,0.000431,1.391769
2421000,0.0324,0.013523,0.002678,0.000431,1.435842
2422000,0.0324,0.013523,0.002678,0.000431,1.433844
2423000,0.0324,0.013523,0.002678,0.000431,1.428673
2424000,0.0324,0.013523,0.002678,0.000431,1.440896
2425000,0.0324,0.013523,0.002678,0.000431,1.482618
2426000,0.0324,0.013523,0.002678,0.000431,1.371554
2427000,0.0324,0.013523,0.002678,0.000431,1.323132
2428000,0.0324,0.013523,0.002678,0.000431,1.450768
2429000,0.0324,0.013523,0.002678,0.000431,1.410926
2430000,0.0324,0.013523,0.002678,0.000431,1.463931
2431000,0.0324,0.013523,0.002678,0.000431,1.335355
2432000,0.0324,0.013523,0.002678,0.000431,1.248619
2433000,0.0324,0.013523,0.002678,0.000431,1.405049
2434000,0.0324,0.013523,0.002678,0.000431,1.410691
2435000,0.0324,0.013523,0.002678,0.000431,1.491550
2436000,0.0324,0.013523,0.002678,0.000431,1.424207
2437000,0.0324,0.013523,0.002678,0.000431,1.458172
2438000,0.0324,0.013523,0.002678,0.000431,1.385187
2439000,0.0324,0.013523,0.002678,0.000431,1.327951
2440000,0.0324,0.013523,0.002678,0.000431,1.378488
2441000,0.0324,0.013523,0.002678,0.000431,1.256024
2442000,0.0324,0.013523,0.002678,0.000431,1.316786
2443000,0.0324,0.013523,0.002678,0.000431,1.427615
2444000,0.0324,0.013523,0.002678,0.000431,1.394002
2445000,0.0324,0.013523,0.002678,0.000431,1.372847
2446000,0.0324,0.013523,0.002678,0.000431,1.437252
2447000,0.0324,0.013523,0.002678,0.000431,1.370614
2448000,0.0324,0.013523,0.002678,0.000431,1.441248
2449000,0.0324,0.013523,0.002678,0.000431,1.313377
2450000,0.0324,0.013523,0.002678,0.000431,1.398703
2451000,0.0324,0.013523,0.002678,0.000431,1.312555
2452000,0.0324,0.013523,0.002678,0.000431,1.344405
2453000,0.0324,0.013523,0.002678,0.000431,1.358156
2454000,0.0324,0.013523,0.002678,0.000431,1.323015
2455000,0.0324,0.013523,0.002678,0.000431,1.319371
2456000,0.0324,0.013523,0.002678,0.000431,1.278472
2457000,0.0324,0.013523,0.002678,0.000431,1.303740
2458000,0.0324,0.013523,0.002678,0.000431,1.230755
2459000,0.0324,0.013523,0.002678,0.000431,1.257081
2460000,0.0324,0.013523,0.002678,0.000431,1.242743
2461000,0.0324,0.013523,0.002678,0.000431,1.185977
2462000,0.0324,0.013523,0.002678,0.000431,1.198905
2463000,0.0324,0.013523,0.002678,0.000431,1.191383
2464000,0.0324,0.013523,0.002678,0.000431,1.188445
2465000,0.0324,0.013523,0.002678,0.000431,1.152951
2466000,0.0324,0.013523,0.002678,0.000431,1.146722
2467000,0.0324,0.013523,0.002678,0.000431,1.126508
2468000,0.0324,0.013523,0.002678,0.000431,1.116165
2469000,0.0324,0.013523,0.002678,0.000431,1.081612
2470000,0.0324,0.013523,0.002678,0.000431,1.051995
2471000,0.0324,0.013523,0.002678,0.000431,1.042357
2472000,0.0324,0.013523,0.002678,0.000431,1.030017
2473000,0.0324,0.013523,0.002678,0.000431,0.996992
2474000,0.0324,0.013523,0.002678,0.000431,1.000400
2475000,0.0324,0.013523,0.002678,0.000431,0.970430
2476000,0.0324,0.013523,0.002678,0.000431,0.926357
2477000,0.0324,0.013523,0.002678,0.000431,0.893214
2478000,0.0324,0.013523,0.002678,0.000431,0.912841
2479000,0.0324,0.013523,0.002678,0.000431,0.883812
2480000,0.0324,0.013523,0.002678,0.000431,0.886750
2481000,0.0324,0.013523,0.002678,0.000431,0.857721
2482000,0.0324,0.013523,0.002678,0.000431,0.842089
2483000,0.0324,0.013523,0.002678,0.000431,0.798486
2484000,0.0324,0.013523,0.002678,0.000431,0.785441
2485000,0.0324,0.013523,0.002678,0.000431,0.788026
2486000,0.0324,0.013523,0.002678,0.000431,0.773335
2487000,0.0324,0.013523,0.002678,0.000431,0.754413
2488000,0.0324,0.013523,0.002678,0.000431,0.731025
2489000,0.0324,0.013523,0.002678,0.000431,0.709753
2490000,0.0324,0.013523,0.002678,0.000431,0.700585
2491000,0.0324,0.013523,0.002678,0.000431,0.681311
2492000,0.0324,0.013523,0.002678,0.000431,0.670968
2493000,0.0324,0.013523,0.002678,0.000431,0.669323
2494000,0.0324,0.013523,0.002678,0.000431,0.643819
2495000,0.0324,0.013523,0.002678,0.000431,0.648403
2496000,0.0324,0.013523,0.002678,0.000431,0.604800
2497000,0.0324,0.013523,0.002678,0.000431,0.611499
2498000,0.0324,0.013523,0.002678,0.000431,0.593517
2499000,0.0324,0.013523,0.002678,0.000431,0.576241
2500000,0.0324,0.013523,0.002678,0.000431,0.573890
2501000,0.0324,0.013523,0.002678,0.000431,0.546859
2502000,0.0324,0.013523,0.002678,0.000431,0.531697
2503000,0.0324,0.013523,0.002678,0.000431,0.509837
2504000,0.0324,0.013523,0.002678,0.000431,0.504431
2505000,0.0324,0.013523,0.002678,0.000431,0.470113
2506000,0.0324,0.013523,0.002678,0.000431,0.476107
2507000,0.0324,0.013523,0.002678,0.000431,0.458830
2508000,0.0324,0.013523,0.002678,0.000431,0.444257
2509000,0.0324,0.013523,0.002678,0.000431,0.432856
2510000,0.0324,0.013523,0.002678,0.000431,0.426157
2511000,0.0324,0.013523,0.002678,0.000431,0.422749
2512000,0.0324,0.013523,0.002678,0.000431,0.403709
2513000,0.0324,0.013523,0.002678,0.000431,0.396070
2514000,0.0324,0.013523,0.002678,0.000431,0.385257
2515000,0.0324,0.013523,0.002678,0.000431,0.376325
2516000,0.0324,0.013523,0.002678,0.000431,0.378676
2517000,0.0324,0.013523,0.002678,0.000431,0.367393
2518000,0.0324,0.013523,0.002678,0.000431,0.353760
2519000,0.0324,0.013523,0.002678,0.000431,0.345415
2520000,0.0324,0.013523,0.002678,0.000431,0.335543
2521000,0.0324,0.013523,0.002678,0.000431,0.329079
2522000,0.0324,0.013523,0.002678,0.000431,0.331429
2523000,0.0324,0.013523,0.002678,0.000431,0.325083
2524000,0.0324,0.013523,0.002678,0.000431,0.306396
2525000,0.0324,0.013523,0.002678,0.000431,0.298169
2526000,0.0324,0.013523,0.002678,0.000431,0.284066
2527000,0.0324,0.013523,0.002678,0.000431,0.280540
2528000,0.0324,0.013523,0.002678,0.000431,0.282538
2529000,0.0324,0.013523,0.002678,0.000431,0.277602
2530000,0.0324,0.013523,0.002678,0.000431,0.265144
2531000,0.0324,0.013523,0.002678,0.000431,0.255389
2532000,0.0324,0.013523,0.002678,0.000431,0.243048
2533000,0.0324,0.013523,0.002678,0.000431,0.245164
2534000,0.0324,0.013523,0.002678,0.000431,0.241168
2535000,0.0324,0.013523,0.002678,0.000431,0.236232
2536000,0.0324,0.013523,0.002678,0.000431,0.224479
2537000,0.0324,0.013523,0.002678,0.000431,0.221893
2538000,0.0324,0.013523,0.002678,0.000431,0.212961
2539000,0.0324,0.013523,0.002678,0.000431,0.204382
2540000,0.0324,0.013523,0.002678,0.000431,0.203206
2541000,0.0324,0.013523,0.002678,0.000431,0.197330
2542000,0.0324,0.013523,0.002678,0.000431,0.197212
2543000,0.0324,0.013523,0.002678,0.000431,0.193804
2544000,0.0324,0.013523,0.002678,0.000431,0.192159
2545000,0.0324,0.013523,0.002678,0.000431,0.181464
2546000,0.0324,0.013523,0.002678,0.000431,0.177468
2547000,0.0324,0.013523,0.002678,0.000431,0.169828
2548000,0.0324,0.013523,0.002678,0.000431,0.167948
2549000,0.0324,0.013523,0.002678,0.000431,0.164657
2550000,0.0324,0.013523,0.002678,0.000431,0.167243
2551000,0.0324,0.013523,0.002678,0.000431,0.159603
2552000,0.0324,0.013523,0.002678,0.000431,0.158310
2553000,0.0324,0.013523,0.002678,0.000431,0.156195
2554000,0.0324,0.013523,0.002678,0.000431,0.154902
2555000,0.0324,0.013523,0.002678,0.000431,0.156900
2556000,0.0324,0.013523,0.002678,0.000431,0.146910
2557000,0.0324,0.013523,0.002678,0.000431,0.140916
2558000,0.0324,0.013523,0.002678,0.000431,0.137155
2559000,0.0324,0.013523,0.002678,0.000431,0.136685
2560000,0.0324,0.013523,0.002678,0.000431,0.132572
2561000,0.0324,0.013523,0.002678,0.000431,0.125285
2562000,0.0324,0.013523,0.002678,0.000431,0.121172
2563000,0.0324,0.013523,0.002678,0.000431,0.119761
2564000,0.0324,0.013523,0.002678,0.000431,0.117411
2565000,0.0324,0.013523,0.002678,0.000431,0.116941
2566000,0.0324,0.013523,0.002678,0.000431,0.109536
2567000,0.0324,0.013523,0.002678,0.000431,0.109889
2568000,0.0324,0.013523,0.002678,0.000431,0.108126
2569000,0.0324,0.013523,0.002678,0.000431,0.108596
2570000,0.0324,0.013523,0.002678,0.000431,0.106598
2571000,0.0324,0.013523,0.002678,0.000431,0.103307
2572000,0.0324,0.013523,0.002678,0.000431,0.102720
2573000,0.0324,0.013523,0.002678,0.000431,0.100722
2574000,0.0324,0.013523,0.002678,0.000431,0.098136
2575000,0.0324,0.013523,0.002678,0.000431,0.099664
2576000,0.0324,0.013523,0.002678,0.000431,0.093200
2577000,0.0324,0.013523,0.002678,0.000431,0.095550
2578000,0.0324,0.013523,0.002678,0.000431,0.094023
2579000,0.0324,0.013523,0.002678,0.000431,0.097196
2580000,0.0324,0.013523,0.002678,0.000431,0.089674
2581000,0.0324,0.013523,0.002678,0.000431,0.092730
2582000,0.0324,0.013523,0.002678,0.000431,0.083092
2583000,0.0324,0.013523,0.002678,0.000431,0.081330
2584000,0.0324,0.013523,0.002678,0.000431,0.080742
2585000,0.0324,0.013523,0.002678,0.000431,0.083680
2586000,0.0324,0.013523,0.002678,0.000431,0.084385
2587000,0.0324,0.013523,0.002678,0.000431,0.087911
2588000,0.0324,0.013523,0.002678,0.000431,0.079567
2589000,0.0324,0.013523,0.002678,0.000431,0.080624
2590000,0.0324,0.013523,0.002678,0.000431,0.077451
2591000,0.0324,0.013523,0.002678,0.000431,0.075453
2592000,0.0324,0.013523,0.002678,0.000431,0.076393
2593000,0.0324,0.013523,0.002678,0.000431,0.072397
2594000,0.0324,0.013523,0.002678,0.000431,0.071927
2595000,0.0324,0.013523,0.002678,0.000431,0.069694
2596000,0.0324,0.013523,0.002678,0.000431,0.067931
2597000,0.0324,0.013523,0.002678,0.000431,0.067579
2598000,0.0324,0.013523,0.002678,0.000431,0.066051
2599000,0.0324,0.013523,0.002678,0.000431,0.067696
2600000,0.0324,0.013523,0.002678,0.000431,0.067226
2601000,0.0324,0.013523,0.002678,0.000431,0.064758
2602000,0.0324,0.013523,0.002678,0.000431,0.061350
2603000,0.0324,0.013523,0.002678,0.000431,0.064053
2604000,0.0324,0.013523,0.002678,0.000431,0.060057
2605000,0.0324,0.013523,0.002678,0.000431,0.059939
2606000,0.0324,0.013523,0.002678,0.000431,0.059234
2607000,0.0324,0.013523,0.002678,0.000431,0.057941
2608000,0.0324,0.013523,0.002678,0.000431,0.056531
2609000,0.0324,0.013523,0.002678,0.000431,0.055238
2610000,0.0324,0.013523,0.002678,0.000431,0.056061
2611000,0.0324,0.013523,0.002678,0.000431,0.054768
2612000,0.0324,0.013523,0.002678,0.000431,0.054651
2613000,0.0324,0.013523,0.002678,0.000431,0.053240
2614000,0.0324,0.013523,0.002678,0.000431,0.051595
2615000,0.0324,0.013523,0.002678,0.000431,0.050302
2616000,0.0324,0.013523,0.002678,0.000431,0.045601
2617000,0.0324,0.013523,0.002678,0.000431,0.047129
2618000,0.0324,0.013523,0.002678,0.000431,0.046189
2619000,0.0324,0.013523,0.002678,0.000431,0.045131
2620000,0.0324,0.013523,0.002678,0.000431,0.043720
2621000,0.0324,0.013523,0.002678,0.000431,0.045366
2622000,0.0324,0.013523,0.002678,0.000431,0.040900
2623000,0.0324,0.013523,0.002678,0.000431,0.041605
2624000,0.0324,0.013523,0.002678,0.000431,0.041723
2625000,0.0324,0.013523,0.002678,0.000431,0.040430
2626000,0.0324,0.013523,0.002678,0.000431,0.040547
2627000,0.0324,0.013523,0.002678,0.000431,0.040547
2628000,0.0324,0.013523,0.002678,0.000431,0.039372
2629000,0.0324,0.013523,0.002678,0.000431,0.037256
2630000,0.0324,0.013523,0.002678,0.000431,0.038079
2631000,0.0324,0.013523,0.002678,0.000431,0.040547
2632000,0.0324,0.013523,0.002678,0.000431,0.038549
2633000,0.0324,0.013523,0.002678,0.000431,0.035729
2634000,0.0324,0.013523,0.002678,0.000431,0.036551
2635000,0.0324,0.013523,0.002678,0.000431,0.037491
2636000,0.0324,0.013523,0.002678,0.000431,0.037374
2637000,0.0324,0.013523,0.002678,0.000431,0.035964
2638000,0.0324,0.013523,0.002678,0.000431,0.035729
2639000,0.0324,0.013523,0.002678,0.000431,0.035258
2640000,0.0324,0.013523,0.002678,0.000431,0.033025
2641000,0.0324,0.013523,0.002678,0.000431,0.034083
2642000,0.0324,0.013523,0.002678,0.000431,0.033496
2643000,0.0324,0.013523,0.002678,0.000431,0.032438
2644000,0.0324,0.013523,0.002678,0.000431,0.032320
2645000,0.0324,0.013523,0.002678,0.000431,0.031968
2646000,0.0324,0.013523,0.002678,0.000431,0.032320
2647000,0.0324,0.013523,0.002678,0.000431,0.030910
2648000,0.0324,0.013523,0.002678,0.000431,0.030675
2649000,0.0324,0.013523,0.002678,0.000431,0.029735
2650000,0.0324,0.013523,0.002678,0.000431,0.029265
2651000,0.0324,0.013523,0.002678,0.000431,0.027619
2652000,0.0324,0.013523,0.002678,0.000431,0.027737
2653000,0.0324,0.013523,0.002678,0.000431,0.027267
2654000,0.0324,0.013523,0.002678,0.000431,0.028207
2655000,0.0324,0.013523,0.002678,0.000431,0.028559
2656000,0.0324,0.013523,0.002678,0.000431,0.027502
2657000,0.0324,0.013523,0.002678,0.000431,0.027031
2658000,0.0324,0.013523,0.002678,0.000431,0.028207
2659000,0.0324,0.013523,0.002678,0.000431,0.027502
2660000,0.0324,0.013523,0.002678,0.000431,0.027384
2661000,0.0324,0.013523,0.002678,0.000431,0.028912
2662000,0.0324,0.013523,0.002678,0.000431,0.029382
2663000,0.0324,0.013523,0.002678,0.000431,0.026914
2664000,0.0324,0.013523,0.002678,0.000431,0.026914
2665000,0.0324,0.013523,0.002678,0.000431,0.027502
2666000,0.0324,0.013523,0.002678,0.000431,0.027502
2667000,0.0324,0.013523,0.002678,0.000431,0.025739
2668000,0.0324,0.013523,0.002678,0.000431,0.025151
2669000,0.0324,0.013523,0.002678,0.000431,0.025504
2670000,0.0324,0.013523,0.002678,0.000431,0.026091
2671000,0.0324,0.013523,0.002678,0.000431,0.025621
2672000,0.0324,0.013523,0.002678,0.000431,0.026561
2673000,0.0324,0.013523,0.002678,0.000431,0.026444
2674000,0.0324,0.013523,0.002678,0.000431,0.025269
2675000,0.0324,0.013523,0.002678,0.000431,0.025151
2676000,0.0324,0.013523,0.002678,0.000431,0.023858
2677000,0.0324,0.013523,0.002678,0.000431,0.025151
2678000,0.0324,0.013523,0.002678,0.000431,0.021978
2679000,0.0324,0.013523,0.002678,0.000431,0.023388
2680000,0.0324,0.013523,0.002678,0.000431,0.024328
2681000,0.0324,0.013523,0.002678,0.000431,0.021508
2682000,0.0324,0.013523,0.002678,0.000431,0.020450
2683000,0.0324,0.013523,0.002678,0.000431,0.020215
2684000,0.0324,0.013523,0.002678,0.000431,0.017747
2685000,0.0324,0.013523,0.002678,0.000431,0.017982
2686000,0.0324,0.013523,0.002678,0.000431,0.016571
2687000,0.0324,0.013523,0.002678,0.000431,0.015984
2688000,0.0324,0.013523,0.002678,0.000431,0.014221
2689000,0.0324,0.013523,0.002678,0.000431,0.015161
2690000,0.0324,0.013523,0.002678,0.000431,0.014456
2691000,0.0324,0.013523,0.002678,0.000431,0.014103
2692000,0.0324,0.013523,0.002678,0.000431,0.014338
2693000,0.0324,0.013523,0.002678,0.000431,0.013633
2694000,0.0324,0.013523,0.002678,0.000431,0.013633
2695000,0.0324,0.013523,0.002678,0.000431,0.013633
2696000,0.0324,0.013523,0.002678,0.000431,0.012693
2697000,0.0324,0.013523,0.002678,0.000431,0.012458
2698000,0.0324,0.013523,0.002678,0.000431,0.014573
2699000,0.0324,0.013523,0.002678,0.000431,0.012928
2700000,0.0324,0.013523,0.002678,0.000431,0.012811
2701000,0.0324,0.013523,0.002678,0.000431,0.011753
2702000,0.0324,0.013523,0.002678,0.000431,0.013281
2703000,0.0324,0.013523,0.002678,0.000431,0.010578
2704000,0.0324,0.013523,0.002678,0.000431,0.012105
2705000,0.0324,0.013523,0.002678,0.000431,0.011165
2706000,0.0324,0.013523,0.002678,0.000431,0.010578
2707000,0.0324,0.013523,0.002678,0.000431,0.011753
2708000,0.0324,0.013523,0.002678,0.000431,0.012105
2709000,0.0324,0.013523,0.002678,0.000431,0.011165
2710000,0.0324,0.013523,0.002678,0.000431,0.010342
2711000,0.0324,0.013523,0.002678,0.000431,0.010578
2712000,0.0324,0.013523,0.002678,0.000431,0.010460
2713000,0.0324,0.013523,0.002678,0.000431,0.009285
2714000,0.0324,0.013523,0.002678,0.000431,0.009520
2715000,0.0324,0.013523,0.002678,0.000431,0.009285
2716000,0.0324,0.013523,0.002678,0.000431,0.009167
2717000,0.0324,0.013523,0.002678,0.000431,0.008109
2718000,0.0324,0.013523,0.002678,0.000431,0.008345
2719000,0.0324,0.013523,0.002678,0.000431,0.007639
2720000,0.0324,0.013523,0.002678,0.000431,0.007992
2721000,0.0324,0.013523,0.002678,0.000431,0.007522
2722000,0.0324,0.013523,0.002678,0.000431,0.007404
2723000,0.0324,0.013523,0.002678,0.000431,0.007287
2724000,0.0324,0.013523,0.002678,0.000431,0.007404
2725000,0.0324,0.013523,0.002678,0.000431,0.008697
2726000,0.0324,0.013523,0.002678,0.000431,0.007757
2727000,0.0324,0.013523,0.002678,0.000431,0.007874
2728000,0.0324,0.013523,0.002678,0.000431,0.008109
2729000,0.0324,0.013523,0.002678,0.000431,0.008227
2730000,0.0324,0.013523,0.002678,0.000431,0.006699
2731000,0.0324,0.013523,0.002678,0.000431,0.006817
2732000,0.0324,0.013523,0.002678,0.000431,0.007992
2733000,0.0324,0.013523,0.002678,0.000431,0.007169
2734000,0.0324,0.013523,0.002678,0.000431,0.007522
2735000,0.0324,0.013523,0.002678,0.000431,0.007052
2736000,0.0324,0.013523,0.002678,0.000431,0.007639
2737000,0.0324,0.013523,0.002678,0.000431,0.008109
2738000,0.0324,0.013523,0.002678,0.000431,0.008227
2739000,0.0324,0.013523,0.002678,0.000431,0.007992
2740000,0.0324,0.013523,0.002678,0.000431,0.007874
2741000,0.0324,0.013523,0.002678,0.000431,0.008109
2742000,0.0324,0.013523,0.002678,0.000431,0.008580
2743000,0.0324,0.013523,0.002678,0.000431,0.007992
2744000,0.0324,0.013523,0.002678,0.000431,0.007874
2745000,0.0324,0.013523,0.002678,0.000431,0.007639
2746000,0.0324,0.013523,0.002678,0.000431,0.007169
2747000,0.0324,0.013523,0.002678,0.000431,0.006934
2748000,0.0324,0.013523,0.002678,0.000431,0.006817
2749000,0.0324,0.013523,0.002678,0.000431,0.006817
2750000,0.0324,0.013523,0.002678,0.000431,0.005876
2751000,0.0324,0.013523,0.002678,0.000431,0.005759
2752000,0.0324,0.013523,0.002678,0.000431,0.006229
2753000,0.0324,0.013523,0.002678,0.000431,0.005641
2754000,0.0324,0.013523,0.002678,0.000431,0.005054
2755000,0.0324,0.013523,0.002678,0.000431,0.004466
2756000,0.0324,0.013523,0.002678,0.000431,0.004466
2757000,0.0324,0.013523,0.002678,0.000431,0.005524
2758000,0.0324,0.013523,0.002678,0.000431,0.004231
2759000,0.0324,0.013523,0.002678,0.000431,0.005406
2760000,0.0324,0.013523,0.002678,0.000431,0.005524
2761000,0.0324,0.013523,0.002678,0.000431,0.004466
2762000,0.0324,0.013523,0.002678,0.000431,0.005524
2763000,0.0324,0.013523,0.002678,0.000431,0.005641
2764000,0.0324,0.013523,0.002678,0.000431,0.003878
2765000,0.0324,0.013523,0.002678,0.000431,0.005289
2766000,0.0324,0.013523,0.002678,0.000431,0.004584
2767000,0.0324,0.013523,0.002678,0.000431,0.004701
2768000,0.0324,0.013523,0.002678,0.000431,0.004936
2769000,0.0324,0.013523,0.002678,0.000431,0.004701
2770000,0.0324,0.013523,0.002678,0.000431,0.004819
2771000,0.0324,0.013523,0.002678,0.000431,0.004701
2772000,0.0324,0.013523,0.002678,0.000431,0.005054
2773000,0.0324,0.013523,0.002678,0.000431,0.005524
2774000,0.0324,0.013523,0.002678,0.000431,0.004466
2775000,0.0324,0.013523,0.002678,0.000431,0.004349
2776000,0.0324,0.013523,0.002678,0.000431,0.005171
2777000,0.0324,0.013523,0.002678,0.000431,0.005994
2778000,0.0324,0.013523,0.002678,0.000431,0.005289
2779000,0.0324,0.013523,0.002678,0.000431,0.005054
2780000,0.0324,0.013523,0.002678,0.000431,0.005759
2781000,0.0324,0.013523,0.002678,0.000431,0.004936
2782000,0.0324,0.013523,0.002678,0.000431,0.004113
2783000,0.0324,0.013523,0.002678,0.000431,0.004584
2784000,0.0324,0.013523,0.002678,0.000431,0.004819
2785000,0.0324,0.013523,0.002678,0.000431,0.005054
2786000,0.0324,0.013523,0.002678,0.000431,0.004231
2787000,0.0324,0.013523,0.002678,0.000431,0.003878
2788000,0.0324,0.013523,0.002678,0.000431,0.004113
2789000,0.0324,0.013523,0.002678,0.000431,0.003996
2790000,0.0324,0.013523,0.002678,0.000431,0.004701
2791000,0.0324,0.013523,0.002678,0.000431,0.003996
2792000,0.0324,0.013523,0.002678,0.000431,0.004936
2793000,0.0324,0.013523,0.002678,0.000431,0.003878
2794000,0.0324,0.013523,0.002678,0.000431,0.004113
2795000,0.0324,0.013523,0.002678,0.000431,0.004819
2796000,0.0324,0.013523,0.002678,0.000431,0.004349
2797000,0.0324,0.013523,0.002678,0.000431,0.003173
2798000,0.0324,0.013523,0.002678,0.000431,0.003173
2799000,0.0324,0.013523,0.002678,0.000431,0.002938
2800000,0.0324,0.013523,0.002678,0.000431,0.003408
2801000,0.0324,0.013523,0.002678,0.000431,0.003173
2802000,0.0324,0.013523,0.002678,0.000431,0.003291
2803000,0.0324,0.013523,0.002678,0.000431,0.003173
2804000,0.0324,0.013523,0.002678,0.000431,0.002703
2805000,0.0324,0.013523,0.002678,0.000431,0.002233
2806000,0.0324,0.013523,0.002678,0.000431,0.002351
2807000,0.0324,0.013523,0.002678,0.000431,0.002821
2808000,0.0324,0.013523,0.002678,0.000431,0.001998
2809000,0.0324,0.013523,0.002678,0.000431,0.002821
2810000,0.0324,0.013523,0.002678,0.000431,0.001880
2811000,0.0324,0.013523,0.002678,0.000431,0.002351
2812000,0.0324,0.013523,0.002678,0.000431,0.002586
2813000,0.0324,0.013523,0.002678,0.000431,0.002586
2814000,0.0324,0.013523,0.002678,0.000431,0.002351
2815000,0.0324,0.013523,0.002678,0.000431,0.002703
2816000,0.0324,0.013523,0.002678,0.000431,0.002351
2817000,0.0324,0.013523,0.002678,0.000431,0.002351
2818000,0.0324,0.013523,0.002678,0.000431,0.002703
2819000,0.0324,0.013523,0.002678,0.000431,0.002586
2820000,0.0324,0.013523,0.002678,0.000431,0.002233
2821000,0.0324,0.013523,0.002678,0.000431,0.001998
2822000,0.0324,0.013523,0.002678,0.000431,0.001998
2823000,0.0324,0.013523,0.002678,0.000431,0.002116
2824000,0.0324,0.013523,0.002678,0.000431,0.001998
2825000,0.0324,0.013523,0.002678,0.000431,0.002116
2826000,0.0324,0.013523,0.002678,0.000431,0.002468
2827000,0.0324,0.013523,0.002678,0.000431,0.002821
2828000,0.0324,0.013523,0.002678,0.000431,0.002703
2829000,0.0324,0.013523,0.002678,0.000431,0.002821
2830000,0.0324,0.013523,0.002678,0.000431,0.002703
2831000,0.0324,0.013523,0.002678,0.000431,0.003056
2832000,0.0324,0.013523,0.002678,0.000431,0.001998
2833000,0.0324,0.013523,0.002678,0.000431,0.002821
2834000,0.0324,0.013523,0.002678,0.000431,0.001880
2835000,0.0324,0.013523,0.002678,0.000431,0.002468
2836000,0.0324,0.013523,0.002678,0.000431,0.002351
2837000,0.0324,0.013523,0.002678,0.000431,0.002586
2838000,0.0324,0.013523,0.002678,0.000431,0.002468
2839000,0.0324,0.013523,0.002678,0.000431,0.002468
2840000,0.0324,0.013523,0.002678,0.000431,0.001880
2841000,0.0324,0.013523,0.002678,0.000431,0.002586
2842000,0.0324,0.013523,0.002678,0.000431,0.001880
2843000,0.0324,0.013523,0.002678,0.000431,0.002468
2844000,0.0324,0.013523,0.002678,0.000431,0.002586
2845000,0.0324,0.013523,0.002678,0.000431,0.002468
2846000,0.0324,0.013523,0.002678,0.000431,0.002586
2847000,0.0324,0.013523,0.002678,0.000431,0.002233
2848000,0.0324,0.013523,0.002678,0.000431,0.002116
2849000,0.0324,0.013523,0.002678,0.000431,0.002586
2850000,0.0324,0.013523,0.002678,0.000431,0.002468
2851000,0.0324,0.013523,0.002678,0.000431,0.002468
2852000,0.0324,0.013523,0.002678,0.000431,0.002703
2853000,0.0324,0.013523,0.002678,0.000431,0.001998
2854000,0.0324,0.013523,0.002678,0.000431,0.003056
2855000,0.0324,0.013523,0.002678,0.000431,0.002703
2856000,0.0324,0.013523,0.002678,0.000431,0.002586
2857000,0.0324,0.013523,0.002678,0.000431,0.002351
2858000,0.0324,0.013523,0.002678,0.000431,0.002703
2859000,0.0324,0.013523,0.002678,0.000431,0.002703
2860000,0.0324,0.013523,0.002678,0.000431,0.002703
2861000,0.0324,0.013523,0.002678,0.000431,0.003056
2862000,0.0324,0.013523,0.002678,0.000431,0.002703
2863000,0.0324,0.013523,0.002678,0.000431,0.001763
2864000,0.0324,0.013523,0.002678,0.000431,0.001880
2865000,0.0324,0.013523,0.002678,0.000431,0.002938
2866000,0.0324,0.013523,0.002678,0.000431,0.002351
2867000,0.0324,0.013523,0.002678,0.000431,0.002703
2868000,0.0324,0.013523,0.002678,0.000431,0.002233
2869000,0.0324,0.013523,0.002678,0.000431,0.001998
2870000,0.0324,0.013523,0.002678,0.000431,0.001998
2871000,0.0324,0.013523,0.002678,0.000431,0.002116
2872000,0.0324,0.013523,0.002678,0.000431,0.002938
2873000,0.0324,0.013523,0.002678,0.000431,0.002351
2874000,0.0324,0.013523,0.002678,0.000431,0.002938
2875000,0.0324,0.013523,0.002678,0.000431,0.002938
2876000,0.0324,0.013523,0.002678,0.000431,0.002703
2877000,0.0324,0.013523,0.002678,0.000431,0.002821
2878000,0.0324,0.013523,0.002678,0.000431,0.002351
2879000,0.0324,0.013523,0.002678,0.000431,0.002938
2880000,0.0324,0.013523,0.002678,0.000431,0.002586
2881000,0.0324,0.013523,0.002678,0.000431,0.002586
2882000,0.0324,0.013523,0.002678,0.000431,0.002468
2883000,0.0324,0.013523,0.002678,0.000431,0.002351
2884000,0.0324,0.013523,0.002678,0.000431,0.002586
2885000,0.0324,0.013523,0.002678,0.000431,0.002703
2886000,0.0324,0.013523,0.002678,0.000431,0.002233
2887000,0.0324,0.013523,0.002678,0.000431,0.002703
2888000,0.0324,0.013523,0.002678,0.000431,0.002586
2889000,0.0324,0.013523,0.002678,0.000431,0.002233
2890000,0.0324,0.013523,0.002678,0.000431,0.002233
2891000,0.0324,0.013523,0.002678,0.000431,0.002938
2892000,0.0324,0.013523,0.002678,0.000431,0.002233
2893000,0.0324,0.013523,0.002678,0.000431,0.002703
2894000,0.0324,0.013523,0.002678,0.000431,0.002468
2895000,0.0324,0.013523,0.002678,0.000431,0.002116
2896000,0.0324,0.013523,0.002678,0.000431,0.002116
2897000,0.0324,0.013523,0.002678,0.000431,0.002351
2898000,0.0324,0.013523,0.002678,0.000431,0.003173
2899000,0.0324,0.013523,0.002678,0.000431,0.002468
2900000,0.0324,0.013523,0.002678,0.000431,0.002233
2901000,0.0324,0.013523,0.002678,0.000431,0.002586
2902000,0.0324,0.013523,0.002678,0.000431,0.002116
2903000,0.0324,0.013523,0.002678,0.000431,0.002468
2904000,0.0324,0.013523,0.002678,0.000431,0.002116
2905000,0.0324,0.013523,0.002678,0.000431,0.002116
2906000,0.0324,0.013523,0.002678,0.000431,0.002116
2907000,0.0324,0.013523,0.002678,0.000431,0.001880
2908000,0.0324,0.013523,0.002678,0.000431,0.002586
2909000,0.0324,0.013523,0.002678,0.000431,0.002468
2910000,0.0324,0.013523,0.002678,0.000431,0.002116
2911000,0.0324,0.013523,0.002678,0.000431,0.002586
2912000,0.0324,0.013523,0.002678,0.000431,0.002468
2913000,0.0324,0.013523,0.002678,0.000431,0.002821
2914000,0.0324,0.013523,0.002678,0.000431,0.002233
2915000,0.0324,0.013523,0.002678,0.000431,0.002233
2916000,0.0324,0.013523,0.002678,0.000431,0.001880
2917000,0.0324,0.013523,0.002678,0.000431,0.002116
2918000,0.0324,0.013523,0.002678,0.000431,0.002351
2919000,0.0324,0.013523,0.002678,0.000431,0.002468
2920000,0.0324,0.013523,0.002678,0.000431,0.002586
2921000,0.0324,0.013523,0.002678,0.000431,0.002116
2922000,0.0324,0.013523,0.002678,0.000431,0.002468
2923000,0.0324,0.013523,0.002678,0.000431,0.002468
2924000,0.0324,0.013523,0.002678,0.000431,0.002233
2925000,0.0324,0.013523,0.002678,0.000431,0.001998
2926000,0.0324,0.013523,0.002678,0.000431,0.002351
2927000,0.0324,0.013523,0.002678,0.000431,0.002468
2928000,0.0324,0.013523,0.002678,0.000431,0.001998
2929000,0.0324,0.013523,0.002678,0.000431,0.002468
2930000,0.0324,0.013523,0.002678,0.000431,0.002703
2931000,0.0324,0.013523,0.002678,0.000431,0.002351
2932000,0.0324,0.013523,0.002678,0.000431,0.002586
2933000,0.0324,0.013523,0.002678,0.000431,0.001998
2934000,0.0324,0.013523,0.002678,0.000431,0.002233
2935000,0.0324,0.013523,0.002678,0.000431,0.002468
2936000,0.0324,0.013523,0.002678,0.000431,0.002233
2937000,0.0324,0.013523,0.002678,0.000431,0.002468
2938000,0.0324,0.013523,0.002678,0.000431,0.002468
2939000,0.0324,0.013523,0.002678,0.000431,0.002233
2940000,0.0324,0.013523,0.002678,0.000431,0.002116
2941000,0.0324,0.013523,0.002678,0.000431,0.002468
2942000,0.0324,0.013523,0.002678,0.000431,0.002233
2943000,0.0324,0.013523,0.002678,0.000431,0.002233
2944000,0.0324,0.013523,0.002678,0.000431,0.002351
2945000,0.0324,0.013523,0.002678,0.000431,0.002703
2946000,0.0324,0.013523,0.002678,0.000431,0.002468
2947000,0.0324,0.013523,0.002678,0.000431,0.002233
2948000,0.0324,0.013523,0.002678,0.000431,0.002468
2949000,0.0324,0.013523,0.002678,0.000431,0.002233
2950000,0.0324,0.013523,0.002678,0.000431,0.002351
2951000,0.0324,0.013523,0.002678,0.000431,0.002586
2952000,0.0324,0.013523,0.002678,0.000431,0.002586
2953000,0.0324,0.013523,0.002678,0.000431,0.002351
2954000,0.0324,0.013523,0.002678,0.000431,0.002821
2955000,0.0324,0.013523,0.002678,0.000431,0.002233
2956000,0.0324,0.013523,0.002678,0.000431,0.002586
2957000,0.0324,0.013523,0.002678,0.000431,0.002586
2958000,0.0324,0.013523,0.002678,0.000431,0.002233
2959000,0.0324,0.013523,0.002678,0.000431,0.002586
2960000,0.0324,0.013523,0.002678,0.000431,0.002586
2961000,0.0324,0.013523,0.002678,0.000431,0.001998
2962000,0.0324,0.013523,0.002678,0.000431,0.002468
2963000,0.0324,0.013523,0.002678,0.000431,0.002351
2964000,0.0324,0.013523,0.002678,0.000431,0.002116
2965000,0.0324,0.013523,0.002678,0.000431,0.002116
2966000,0.0324,0.013523,0.002678,0.000431,0.002468
2967000,0.0324,0.013523,0.002678,0.000431,0.002821
2968000,0.0324,0.013523,0.002678,0.000431,0.002116
2969000,0.0324,0.013523,0.002678,0.000431,0.002938
2970000,0.0324,0.013523,0.002678,0.000431,0.002703
2971000,0.0324,0.013523,0.002678,0.000431,0.002351
2972000,0.0324,0.013523,0.002678,0.000431,0.002468
2973000,0.0324,0.013523,0.002678,0.000431,0.002351
2974000,0.0324,0.013523,0.002678,0.000431,0.002821
2975000,0.0324,0.013523,0.002678,0.000431,0.002468
2976000,0.0324,0.013523,0.002678,0.000431,0.002586
2977000,0.0324,0.013523,0.002678,0.000431,0.002351
2978000,0.0324,0.013523,0.002678,0.000431,0.002468
2979000,0.0324,0.013523,0.002678,0.000431,0.002351
2980000,0.0324,0.013523,0.002678,0.000431,0.002586
2981000,0.0324,0.013523,0.002678,0.000431,0.002233
2982000,0.0324,0.013523,0.002678,0.000431,0.002351
2983000,0.0324,0.013523,0.002678,0.000431,0.002586
2984000,0.0324,0.013523,0.002678,0.000431,0.002468
2985000,0.0324,0.013523,0.002678,0.000431,0.002351
2986000,0.0324,0.013523,0.002678,0.000431,0.002351
2987000,0.0324,0.013523,0.002678,0.000431,0.002586
2988000,0.0324,0.013523,0.002678,0.000431,0.001998
2989000,0.0324,0.013523,0.002678,0.000431,0.002116
2990000,0.0324,0.013523,0.002678,0.000431,0.002233
2991000,0.0324,0.013523,0.002678,0.000431,0.002468
2992000,0.0324,0.013523,0.002678,0.000431,0.002351
2993000,0.0324,0.013523,0.002678,0.000431,0.002821
2994000,0.0324,0.013523,0.002678,0.000431,0.002468
2995000,0.0324,0.013523,0.002678,0.000431,0.002586
2996000,0.0324,0.013523,0.002678,0.000431,0.002351
2997000,0.0324,0.013523,0.002678,0.000431,0.002351
2998000,0.0324,0.013523,0.002678,0.000431,0.001998
2999000,0.0324,0.013523,0.002678,0.000431,0.002586
