Cycle,Area(mm^2),PeakDynamic(W),SubthresholdLeakage(W),GateLeakage(W),RunTimeDynamic(W)
7000000,0.0324,0.013523,0.002678,0.000431,0.000940
7001000,0.0324,0.013523,0.002678,0.000431,0.001058
7002000,0.0324,0.013523,0.002678,0.000431,0.001058
7003000,0.0324,0.013523,0.002678,0.000431,0.000705
7004000,0.0324,0.013523,0.002678,0.000431,0.001175
7005000,0.0324,0.013523,0.002678,0.000431,0.000940
7006000,0.0324,0.013523,0.002678,0.000431,0.000940
7007000,0.0324,0.013523,0.002678,0.000431,0.000940
7008000,0.0324,0.013523,0.002678,0.000431,0.000940
7009000,0.0324,0.013523,0.002678,0.000431,0.000940
7010000,0.0324,0.013523,0.002678,0.000431,0.001058
7011000,0.0324,0.013523,0.002678,0.000431,0.001058
7012000,0.0324,0.013523,0.002678,0.000431,0.000705
7013000,0.0324,0.013523,0.002678,0.000431,0.001175
7014000,0.0324,0.013523,0.002678,0.000431,0.000940
7015000,0.0324,0.013523,0.002678,0.000431,0.000940
7016000,0.0324,0.013523,0.002678,0.000431,0.000823
7017000,0.0324,0.013523,0.002678,0.000431,0.001058
7018000,0.0324,0.013523,0.002678,0.000431,0.000823
7019000,0.0324,0.013523,0.002678,0.000431,0.001058
7020000,0.0324,0.013523,0.002678,0.000431,0.000940
7021000,0.0324,0.013523,0.002678,0.000431,0.000940
7022000,0.0324,0.013523,0.002678,0.000431,0.001058
7023000,0.0324,0.013523,0.002678,0.000431,0.000940
7024000,0.0324,0.013523,0.002678,0.000431,0.001058
7025000,0.0324,0.013523,0.002678,0.000431,0.000940
7026000,0.0324,0.013523,0.002678,0.000431,0.001058
7027000,0.0324,0.013523,0.002678,0.000431,0.000940
7028000,0.0324,0.013523,0.002678,0.000431,0.000823
7029000,0.0324,0.013523,0.002678,0.000431,0.000940
7030000,0.0324,0.013523,0.002678,0.000431,0.001058
7031000,0.0324,0.013523,0.002678,0.000431,0.000940
7032000,0.0324,0.013523,0.002678,0.000431,0.001058
7033000,0.0324,0.013523,0.002678,0.000431,0.000940
7034000,0.0324,0.013523,0.002678,0.000431,0.000940
7035000,0.0324,0.013523,0.002678,0.000431,0.000940
7036000,0.0324,0.013523,0.002678,0.000431,0.000940
7037000,0.0324,0.013523,0.002678,0.000431,0.001058
7038000,0.0324,0.013523,0.002678,0.000431,0.000823
7039000,0.0324,0.013523,0.002678,0.000431,0.000940
7040000,0.0324,0.013523,0.002678,0.000431,0.001175
7041000,0.0324,0.013523,0.002678,0.000431,0.000940
7042000,0.0324,0.013523,0.002678,0.000431,0.000940
7043000,0.0324,0.013523,0.002678,0.000431,0.000588
7044000,0.0324,0.013523,0.002678,0.000431,0.001058
7045000,0.0324,0.013523,0.002678,0.000431,0.000940
7046000,0.0324,0.013523,0.002678,0.000431,0.000705
7047000,0.0324,0.013523,0.002678,0.000431,0.001175
7048000,0.0324,0.013523,0.002678,0.000431,0.000823
7049000,0.0324,0.013523,0.002678,0.000431,0.001058
7050000,0.0324,0.013523,0.002678,0.000431,0.000940
7051000,0.0324,0.013523,0.002678,0.000431,0.000940
7052000,0.0324,0.013523,0.002678,0.000431,0.000940
7053000,0.0324,0.013523,0.002678,0.000431,0.000705
7054000,0.0324,0.013523,0.002678,0.000431,0.001175
7055000,0.0324,0.013523,0.002678,0.000431,0.001175
7056000,0.0324,0.013523,0.002678,0.000431,0.000940
7057000,0.0324,0.013523,0.002678,0.000431,0.000940
7058000,0.0324,0.013523,0.002678,0.000431,0.000940
7059000,0.0324,0.013523,0.002678,0.000431,0.000940
7060000,0.0324,0.013523,0.002678,0.000431,0.000940
7061000,0.0324,0.013523,0.002678,0.000431,0.001175
7062000,0.0324,0.013523,0.002678,0.000431,0.000940
7063000,0.0324,0.013523,0.002678,0.000431,0.000940
7064000,0.0324,0.013523,0.002678,0.000431,0.000940
7065000,0.0324,0.013523,0.002678,0.000431,0.000823
7066000,0.0324,0.013523,0.002678,0.000431,0.000940
7067000,0.0324,0.013523,0.002678,0.000431,0.001058
7068000,0.0324,0.013523,0.002678,0.000431,0.001058
7069000,0.0324,0.013523,0.002678,0.000431,0.000940
7070000,0.0324,0.013523,0.002678,0.000431,0.000705
7071000,0.0324,0.013523,0.002678,0.000431,0.000823
7072000,0.0324,0.013523,0.002678,0.000431,0.001058
7073000,0.0324,0.013523,0.002678,0.000431,0.000940
7074000,0.0324,0.013523,0.002678,0.000431,0.000940
7075000,0.0324,0.013523,0.002678,0.000431,0.001058
7076000,0.0324,0.013523,0.002678,0.000431,0.000940
7077000,0.0324,0.013523,0.002678,0.000431,0.000940
7078000,0.0324,0.013523,0.002678,0.000431,0.001058
7079000,0.0324,0.013523,0.002678,0.000431,0.001058
7080000,0.0324,0.013523,0.002678,0.000431,0.000940
7081000,0.0324,0.013523,0.002678,0.000431,0.000940
7082000,0.0324,0.013523,0.002678,0.000431,0.001058
7083000,0.0324,0.013523,0.002678,0.000431,0.000940
7084000,0.0324,0.013523,0.002678,0.000431,0.000823
7085000,0.0324,0.013523,0.002678,0.000431,0.000940
7086000,0.0324,0.013523,0.002678,0.000431,0.000705
7087000,0.0324,0.013523,0.002678,0.000431,0.000940
7088000,0.0324,0.013523,0.002678,0.000431,0.000940
7089000,0.0324,0.013523,0.002678,0.000431,0.000940
7090000,0.0324,0.013523,0.002678,0.000431,0.000940
7091000,0.0324,0.013523,0.002678,0.000431,0.000940
7092000,0.0324,0.013523,0.002678,0.000431,0.001058
7093000,0.0324,0.013523,0.002678,0.000431,0.000940
7094000,0.0324,0.013523,0.002678,0.000431,0.001058
7095000,0.0324,0.013523,0.002678,0.000431,0.000705
7096000,0.0324,0.013523,0.002678,0.000431,0.000940
7097000,0.0324,0.013523,0.002678,0.000431,0.000940
7098000,0.0324,0.013523,0.002678,0.000431,0.000705
7099000,0.0324,0.013523,0.002678,0.000431,0.000940
7100000,0.0324,0.013523,0.002678,0.000431,0.000940
7101000,0.0324,0.013523,0.002678,0.000431,0.000588
7102000,0.0324,0.013523,0.002678,0.000431,0.001058
7103000,0.0324,0.013523,0.002678,0.000431,0.000940
7104000,0.0324,0.013523,0.002678,0.000431,0.000823
7105000,0.0324,0.013523,0.002678,0.000431,0.001058
7106000,0.0324,0.013523,0.002678,0.000431,0.000705
7107000,0.0324,0.013523,0.002678,0.000431,0.000940
7108000,0.0324,0.013523,0.002678,0.000431,0.000940
7109000,0.0324,0.013523,0.002678,0.000431,0.000940
7110000,0.0324,0.013523,0.002678,0.000431,0.001058
7111000,0.0324,0.013523,0.002678,0.000431,0.001175
7112000,0.0324,0.013523,0.002678,0.000431,0.000823
7113000,0.0324,0.013523,0.002678,0.000431,0.001058
7114000,0.0324,0.013523,0.002678,0.000431,0.000940
7115000,0.0324,0.013523,0.002678,0.000431,0.001058
7116000,0.0324,0.013523,0.002678,0.000431,0.000940
7117000,0.0324,0.013523,0.002678,0.000431,0.001058
7118000,0.0324,0.013523,0.002678,0.000431,0.000823
7119000,0.0324,0.013523,0.002678,0.000431,0.001175
7120000,0.0324,0.013523,0.002678,0.000431,0.000940
7121000,0.0324,0.013523,0.002678,0.000431,0.000940
7122000,0.0324,0.013523,0.002678,0.000431,0.000940
7123000,0.0324,0.013523,0.002678,0.000431,0.001175
7124000,0.0324,0.013523,0.002678,0.000431,0.000823
7125000,0.0324,0.013523,0.002678,0.000431,0.001058
7126000,0.0324,0.013523,0.002678,0.000431,0.001058
7127000,0.0324,0.013523,0.002678,0.000431,0.000823
7128000,0.0324,0.013523,0.002678,0.000431,0.000940
7129000,0.0324,0.013523,0.002678,0.000431,0.001175
7130000,0.0324,0.013523,0.002678,0.000431,0.000940
7131000,0.0324,0.013523,0.002678,0.000431,0.000705
7132000,0.0324,0.013523,0.002678,0.000431,0.001058
7133000,0.0324,0.013523,0.002678,0.000431,0.000823
7134000,0.0324,0.013523,0.002678,0.000431,0.000705
7135000,0.0324,0.013523,0.002678,0.000431,0.000940
7136000,0.0324,0.013523,0.002678,0.000431,0.000940
7137000,0.0324,0.013523,0.002678,0.000431,0.001058
7138000,0.0324,0.013523,0.002678,0.000431,0.000940
7139000,0.0324,0.013523,0.002678,0.000431,0.001058
7140000,0.0324,0.013523,0.002678,0.000431,0.000940
7141000,0.0324,0.013523,0.002678,0.000431,0.000940
7142000,0.0324,0.013523,0.002678,0.000431,0.000940
7143000,0.0324,0.013523,0.002678,0.000431,0.000940
7144000,0.0324,0.013523,0.002678,0.000431,0.000940
7145000,0.0324,0.013523,0.002678,0.000431,0.000940
7146000,0.0324,0.013523,0.002678,0.000431,0.000940
7147000,0.0324,0.013523,0.002678,0.000431,0.000940
7148000,0.0324,0.013523,0.002678,0.000431,0.000940
7149000,0.0324,0.013523,0.002678,0.000431,0.000940
7150000,0.0324,0.013523,0.002678,0.000431,0.000823
7151000,0.0324,0.013523,0.002678,0.000431,0.001058
7152000,0.0324,0.013523,0.002678,0.000431,0.001058
7153000,0.0324,0.013523,0.002678,0.000431,0.000823
7154000,0.0324,0.013523,0.002678,0.000431,0.000823
7155000,0.0324,0.013523,0.002678,0.000431,0.001058
7156000,0.0324,0.013523,0.002678,0.000431,0.000940
7157000,0.0324,0.013523,0.002678,0.000431,0.000940
7158000,0.0324,0.013523,0.002678,0.000431,0.000705
7159000,0.0324,0.013523,0.002678,0.000431,0.000940
7160000,0.0324,0.013523,0.002678,0.000431,0.000705
7161000,0.0324,0.013523,0.002678,0.000431,0.000940
7162000,0.0324,0.013523,0.002678,0.000431,0.000823
7163000,0.0324,0.013523,0.002678,0.000431,0.001058
7164000,0.0324,0.013523,0.002678,0.000431,0.000705
7165000,0.0324,0.013523,0.002678,0.000431,0.001175
7166000,0.0324,0.013523,0.002678,0.000431,0.000940
7167000,0.0324,0.013523,0.002678,0.000431,0.001175
7168000,0.0324,0.013523,0.002678,0.000431,0.000940
7169000,0.0324,0.013523,0.002678,0.000431,0.000940
7170000,0.0324,0.013523,0.002678,0.000431,0.000940
7171000,0.0324,0.013523,0.002678,0.000431,0.001293
7172000,0.0324,0.013523,0.002678,0.000431,0.000823
7173000,0.0324,0.013523,0.002678,0.000431,0.000940
7174000,0.0324,0.013523,0.002678,0.000431,0.000823
7175000,0.0324,0.013523,0.002678,0.000431,0.001058
7176000,0.0324,0.013523,0.002678,0.000431,0.000940
7177000,0.0324,0.013523,0.002678,0.000431,0.000940
7178000,0.0324,0.013523,0.002678,0.000431,0.001058
7179000,0.0324,0.013523,0.002678,0.000431,0.000823
7180000,0.0324,0.013523,0.002678,0.000431,0.001058
7181000,0.0324,0.013523,0.002678,0.000431,0.000823
7182000,0.0324,0.013523,0.002678,0.000431,0.000940
7183000,0.0324,0.013523,0.002678,0.000431,0.000470
7184000,0.0324,0.013523,0.002678,0.000431,0.000940
7185000,0.0324,0.013523,0.002678,0.000431,0.001058
7186000,0.0324,0.013523,0.002678,0.000431,0.000940
7187000,0.0324,0.013523,0.002678,0.000431,0.000588
7188000,0.0324,0.013523,0.002678,0.000431,0.001175
7189000,0.0324,0.013523,0.002678,0.000431,0.000823
7190000,0.0324,0.013523,0.002678,0.000431,0.001058
7191000,0.0324,0.013523,0.002678,0.000431,0.000940
7192000,0.0324,0.013523,0.002678,0.000431,0.000823
7193000,0.0324,0.013523,0.002678,0.000431,0.000940
7194000,0.0324,0.013523,0.002678,0.000431,0.001058
7195000,0.0324,0.013523,0.002678,0.000431,0.000705
7196000,0.0324,0.013523,0.002678,0.000431,0.000823
7197000,0.0324,0.013523,0.002678,0.000431,0.000823
7198000,0.0324,0.013523,0.002678,0.000431,0.000940
7199000,0.0324,0.013523,0.002678,0.000431,0.000940
7200000,0.0324,0.013523,0.002678,0.000431,0.001058
7201000,0.0324,0.013523,0.002678,0.000431,0.000940
7202000,0.0324,0.013523,0.002678,0.000431,0.001058
7203000,0.0324,0.013523,0.002678,0.000431,0.000940
7204000,0.0324,0.013523,0.002678,0.000431,0.001058
7205000,0.0324,0.013523,0.002678,0.000431,0.000940
7206000,0.0324,0.013523,0.002678,0.000431,0.000940
7207000,0.0324,0.013523,0.002678,0.000431,0.001058
7208000,0.0324,0.013523,0.002678,0.000431,0.000940
7209000,0.0324,0.013523,0.002678,0.000431,0.001175
7210000,0.0324,0.013523,0.002678,0.000431,0.000705
7211000,0.0324,0.013523,0.002678,0.000431,0.000940
7212000,0.0324,0.013523,0.002678,0.000431,0.000940
7213000,0.0324,0.013523,0.002678,0.000431,0.001175
7214000,0.0324,0.013523,0.002678,0.000431,0.000940
7215000,0.0324,0.013523,0.002678,0.000431,0.000940
7216000,0.0324,0.013523,0.002678,0.000431,0.000940
7217000,0.0324,0.013523,0.002678,0.000431,0.000705
7218000,0.0324,0.013523,0.002678,0.000431,0.000940
7219000,0.0324,0.013523,0.002678,0.000431,0.001293
7220000,0.0324,0.013523,0.002678,0.000431,0.001058
7221000,0.0324,0.013523,0.002678,0.000431,0.000940
7222000,0.0324,0.013523,0.002678,0.000431,0.000940
7223000,0.0324,0.013523,0.002678,0.000431,0.000705
7224000,0.0324,0.013523,0.002678,0.000431,0.000705
7225000,0.0324,0.013523,0.002678,0.000431,0.000940
7226000,0.0324,0.013523,0.002678,0.000431,0.000940
7227000,0.0324,0.013523,0.002678,0.000431,0.001058
7228000,0.0324,0.013523,0.002678,0.000431,0.001175
7229000,0.0324,0.013523,0.002678,0.000431,0.000823
7230000,0.0324,0.013523,0.002678,0.000431,0.001058
7231000,0.0324,0.013523,0.002678,0.000431,0.001058
7232000,0.0324,0.013523,0.002678,0.000431,0.001175
7233000,0.0324,0.013523,0.002678,0.000431,0.000823
7234000,0.0324,0.013523,0.002678,0.000431,0.000823
7235000,0.0324,0.013523,0.002678,0.000431,0.000823
7236000,0.0324,0.013523,0.002678,0.000431,0.000940
7237000,0.0324,0.013523,0.002678,0.000431,0.001058
7238000,0.0324,0.013523,0.002678,0.000431,0.000823
7239000,0.0324,0.013523,0.002678,0.000431,0.000705
7240000,0.0324,0.013523,0.002678,0.000431,0.000588
7241000,0.0324,0.013523,0.002678,0.000431,0.000823
7242000,0.0324,0.013523,0.002678,0.000431,0.000588
7243000,0.0324,0.013523,0.002678,0.000431,0.000705
7244000,0.0324,0.013523,0.002678,0.000431,0.000470
7245000,0.0324,0.013523,0.002678,0.000431,0.000940
7246000,0.0324,0.013523,0.002678,0.000431,0.000940
7247000,0.0324,0.013523,0.002678,0.000431,0.000940
7248000,0.0324,0.013523,0.002678,0.000431,0.001058
7249000,0.0324,0.013523,0.002678,0.000431,0.000823
7250000,0.0324,0.013523,0.002678,0.000431,0.000705
7251000,0.0324,0.013523,0.002678,0.000431,0.000705
7252000,0.0324,0.013523,0.002678,0.000431,0.000940
7253000,0.0324,0.013523,0.002678,0.000431,0.000823
7254000,0.0324,0.013523,0.002678,0.000431,0.000823
7255000,0.0324,0.013523,0.002678,0.000431,0.000705
7256000,0.0324,0.013523,0.002678,0.000431,0.000705
7257000,0.0324,0.013523,0.002678,0.000431,0.000823
7258000,0.0324,0.013523,0.002678,0.000431,0.000823
7259000,0.0324,0.013523,0.002678,0.000431,0.000940
7260000,0.0324,0.013523,0.002678,0.000431,0.000823
7261000,0.0324,0.013523,0.002678,0.000431,0.000823
7262000,0.0324,0.013523,0.002678,0.000431,0.000823
7263000,0.0324,0.013523,0.002678,0.000431,0.000940
7264000,0.0324,0.013523,0.002678,0.000431,0.001058
7265000,0.0324,0.013523,0.002678,0.000431,0.000940
7266000,0.0324,0.013523,0.002678,0.000431,0.000823
7267000,0.0324,0.013523,0.002678,0.000431,0.001058
7268000,0.0324,0.013523,0.002678,0.000431,0.000940
7269000,0.0324,0.013523,0.002678,0.000431,0.000940
7270000,0.0324,0.013523,0.002678,0.000431,0.000940
7271000,0.0324,0.013523,0.002678,0.000431,0.000705
7272000,0.0324,0.013523,0.002678,0.000431,0.000705
7273000,0.0324,0.013523,0.002678,0.000431,0.000940
7274000,0.0324,0.013523,0.002678,0.000431,0.001175
7275000,0.0324,0.013523,0.002678,0.000431,0.000705
7276000,0.0324,0.013523,0.002678,0.000431,0.001175
7277000,0.0324,0.013523,0.002678,0.000431,0.000705
7278000,0.0324,0.013523,0.002678,0.000431,0.000940
7279000,0.0324,0.013523,0.002678,0.000431,0.000940
7280000,0.0324,0.013523,0.002678,0.000431,0.000940
7281000,0.0324,0.013523,0.002678,0.000431,0.000940
7282000,0.0324,0.013523,0.002678,0.000431,0.000940
7283000,0.0324,0.013523,0.002678,0.000431,0.000588
7284000,0.0324,0.013523,0.002678,0.000431,0.000588
7285000,0.0324,0.013523,0.002678,0.000431,0.000940
7286000,0.0324,0.013523,0.002678,0.000431,0.000940
7287000,0.0324,0.013523,0.002678,0.000431,0.000705
7288000,0.0324,0.013523,0.002678,0.000431,0.000940
7289000,0.0324,0.013523,0.002678,0.000431,0.000940
7290000,0.0324,0.013523,0.002678,0.000431,0.000940
7291000,0.0324,0.013523,0.002678,0.000431,0.000940
7292000,0.0324,0.013523,0.002678,0.000431,0.000940
7293000,0.0324,0.013523,0.002678,0.000431,0.001058
7294000,0.0324,0.013523,0.002678,0.000431,0.001058
7295000,0.0324,0.013523,0.002678,0.000431,0.000940
7296000,0.0324,0.013523,0.002678,0.000431,0.000940
7297000,0.0324,0.013523,0.002678,0.000431,0.000588
7298000,0.0324,0.013523,0.002678,0.000431,0.001058
7299000,0.0324,0.013523,0.002678,0.000431,0.000940
7300000,0.0324,0.013523,0.002678,0.000431,0.000940
7301000,0.0324,0.013523,0.002678,0.000431,0.000940
7302000,0.0324,0.013523,0.002678,0.000431,0.001058
7303000,0.0324,0.013523,0.002678,0.000431,0.000470
7304000,0.0324,0.013523,0.002678,0.000431,0.000705
7305000,0.0324,0.013523,0.002678,0.000431,0.000823
7306000,0.0324,0.013523,0.002678,0.000431,0.000588
7307000,0.0324,0.013523,0.002678,0.000431,0.000823
7308000,0.0324,0.013523,0.002678,0.000431,0.000705
7309000,0.0324,0.013523,0.002678,0.000431,0.000705
7310000,0.0324,0.013523,0.002678,0.000431,0.000940
7311000,0.0324,0.013523,0.002678,0.000431,0.000940
7312000,0.0324,0.013523,0.002678,0.000431,0.000940
7313000,0.0324,0.013523,0.002678,0.000431,0.000940
7314000,0.0324,0.013523,0.002678,0.000431,0.000940
7315000,0.0324,0.013523,0.002678,0.000431,0.000705
7316000,0.0324,0.013523,0.002678,0.000431,0.000940
7317000,0.0324,0.013523,0.002678,0.000431,0.000940
7318000,0.0324,0.013523,0.002678,0.000431,0.000940
7319000,0.0324,0.013523,0.002678,0.000431,0.000940
7320000,0.0324,0.013523,0.002678,0.000431,0.001058
7321000,0.0324,0.013523,0.002678,0.000431,0.000588
7322000,0.0324,0.013523,0.002678,0.000431,0.000823
7323000,0.0324,0.013523,0.002678,0.000431,0.001058
7324000,0.0324,0.013523,0.002678,0.000431,0.000588
7325000,0.0324,0.013523,0.002678,0.000431,0.000940
7326000,0.0324,0.013523,0.002678,0.000431,0.000588
7327000,0.0324,0.013523,0.002678,0.000431,0.000705
7328000,0.0324,0.013523,0.002678,0.000431,0.000940
7329000,0.0324,0.013523,0.002678,0.000431,0.000823
7330000,0.0324,0.013523,0.002678,0.000431,0.000588
7331000,0.0324,0.013523,0.002678,0.000431,0.000823
7332000,0.0324,0.013523,0.002678,0.000431,0.000940
7333000,0.0324,0.013523,0.002678,0.000431,0.001175
7334000,0.0324,0.013523,0.002678,0.000431,0.000940
7335000,0.0324,0.013523,0.002678,0.000431,0.000823
7336000,0.0324,0.013523,0.002678,0.000431,0.001058
7337000,0.0324,0.013523,0.002678,0.000431,0.000940
7338000,0.0324,0.013523,0.002678,0.000431,0.000823
7339000,0.0324,0.013523,0.002678,0.000431,0.000705
7340000,0.0324,0.013523,0.002678,0.000431,0.000940
7341000,0.0324,0.013523,0.002678,0.000431,0.000940
7342000,0.0324,0.013523,0.002678,0.000431,0.000940
7343000,0.0324,0.013523,0.002678,0.000431,0.000940
7344000,0.0324,0.013523,0.002678,0.000431,0.001175
7345000,0.0324,0.013523,0.002678,0.000431,0.000823
7346000,0.0324,0.013523,0.002678,0.000431,0.000823
7347000,0.0324,0.013523,0.002678,0.000431,0.000823
7348000,0.0324,0.013523,0.002678,0.000431,0.001058
7349000,0.0324,0.013523,0.002678,0.000431,0.000940
7350000,0.0324,0.013523,0.002678,0.000431,0.001058
7351000,0.0324,0.013523,0.002678,0.000431,0.000705
7352000,0.0324,0.013523,0.002678,0.000431,0.000588
7353000,0.0324,0.013523,0.002678,0.000431,0.000705
7354000,0.0324,0.013523,0.002678,0.000431,0.000940
7355000,0.0324,0.013523,0.002678,0.000431,0.000705
7356000,0.0324,0.013523,0.002678,0.000431,0.000940
7357000,0.0324,0.013523,0.002678,0.000431,0.000705
7358000,0.0324,0.013523,0.002678,0.000431,0.000705
7359000,0.0324,0.013523,0.002678,0.000431,0.000940
7360000,0.0324,0.013523,0.002678,0.000431,0.000705
7361000,0.0324,0.013523,0.002678,0.000431,0.000705
7362000,0.0324,0.013523,0.002678,0.000431,0.000705
7363000,0.0324,0.013523,0.002678,0.000431,0.000940
7364000,0.0324,0.013523,0.002678,0.000431,0.000940
7365000,0.0324,0.013523,0.002678,0.000431,0.000705
7366000,0.0324,0.013523,0.002678,0.000431,0.000940
7367000,0.0324,0.013523,0.002678,0.000431,0.000705
7368000,0.0324,0.013523,0.002678,0.000431,0.000823
7369000,0.0324,0.013523,0.002678,0.000431,0.001058
7370000,0.0324,0.013523,0.002678,0.000431,0.000705
7371000,0.0324,0.013523,0.002678,0.000431,0.000940
7372000,0.0324,0.013523,0.002678,0.000431,0.000940
7373000,0.0324,0.013523,0.002678,0.000431,0.001293
7374000,0.0324,0.013523,0.002678,0.000431,0.000823
7375000,0.0324,0.013523,0.002678,0.000431,0.000940
7376000,0.0324,0.013523,0.002678,0.000431,0.000940
7377000,0.0324,0.013523,0.002678,0.000431,0.000705
7378000,0.0324,0.013523,0.002678,0.000431,0.000705
7379000,0.0324,0.013523,0.002678,0.000431,0.000588
7380000,0.0324,0.013523,0.002678,0.000431,0.000705
7381000,0.0324,0.013523,0.002678,0.000431,0.001058
7382000,0.0324,0.013523,0.002678,0.000431,0.000705
7383000,0.0324,0.013523,0.002678,0.000431,0.000940
7384000,0.0324,0.013523,0.002678,0.000431,0.000823
7385000,0.0324,0.013523,0.002678,0.000431,0.000823
7386000,0.0324,0.013523,0.002678,0.000431,0.001058
7387000,0.0324,0.013523,0.002678,0.000431,0.000940
7388000,0.0324,0.013523,0.002678,0.000431,0.000940
7389000,0.0324,0.013523,0.002678,0.000431,0.000940
7390000,0.0324,0.013523,0.002678,0.000431,0.001058
7391000,0.0324,0.013523,0.002678,0.000431,0.000940
7392000,0.0324,0.013523,0.002678,0.000431,0.001058
7393000,0.0324,0.013523,0.002678,0.000431,0.000940
7394000,0.0324,0.013523,0.002678,0.000431,0.001058
7395000,0.0324,0.013523,0.002678,0.000431,0.000940
7396000,0.0324,0.013523,0.002678,0.000431,0.000705
7397000,0.0324,0.013523,0.002678,0.000431,0.000823
7398000,0.0324,0.013523,0.002678,0.000431,0.001058
7399000,0.0324,0.013523,0.002678,0.000431,0.000940
7400000,0.0324,0.013523,0.002678,0.000431,0.000940
7401000,0.0324,0.013523,0.002678,0.000431,0.000940
7402000,0.0324,0.013523,0.002678,0.000431,0.000823
7403000,0.0324,0.013523,0.002678,0.000431,0.001058
7404000,0.0324,0.013523,0.002678,0.000431,0.000823
7405000,0.0324,0.013523,0.002678,0.000431,0.001058
7406000,0.0324,0.013523,0.002678,0.000431,0.000823
7407000,0.0324,0.013523,0.002678,0.000431,0.001175
7408000,0.0324,0.013523,0.002678,0.000431,0.000823
7409000,0.0324,0.013523,0.002678,0.000431,0.000940
7410000,0.0324,0.013523,0.002678,0.000431,0.000940
7411000,0.0324,0.013523,0.002678,0.000431,0.001175
7412000,0.0324,0.013523,0.002678,0.000431,0.001175
7413000,0.0324,0.013523,0.002678,0.000431,0.000940
7414000,0.0324,0.013523,0.002678,0.000431,0.001058
7415000,0.0324,0.013523,0.002678,0.000431,0.000823
7416000,0.0324,0.013523,0.002678,0.000431,0.001058
7417000,0.0324,0.013523,0.002678,0.000431,0.000823
7418000,0.0324,0.013523,0.002678,0.000431,0.001058
7419000,0.0324,0.013523,0.002678,0.000431,0.000940
7420000,0.0324,0.013523,0.002678,0.000431,0.000823
7421000,0.0324,0.013523,0.002678,0.000431,0.000470
7422000,0.0324,0.013523,0.002678,0.000431,0.000705
7423000,0.0324,0.013523,0.002678,0.000431,0.000940
7424000,0.0324,0.013523,0.002678,0.000431,0.000940
7425000,0.0324,0.013523,0.002678,0.000431,0.000940
7426000,0.0324,0.013523,0.002678,0.000431,0.000705
7427000,0.0324,0.013523,0.002678,0.000431,0.000470
7428000,0.0324,0.013523,0.002678,0.000431,0.000940
7429000,0.0324,0.013523,0.002678,0.000431,0.000588
7430000,0.0324,0.013523,0.002678,0.000431,0.000588
7431000,0.0324,0.013523,0.002678,0.000431,0.000940
7432000,0.0324,0.013523,0.002678,0.000431,0.000705
7433000,0.0324,0.013523,0.002678,0.000431,0.000823
7434000,0.0324,0.013523,0.002678,0.000431,0.000823
7435000,0.0324,0.013523,0.002678,0.000431,0.000588
7436000,0.0324,0.013523,0.002678,0.000431,0.000823
7437000,0.0324,0.013523,0.002678,0.000431,0.000940
7438000,0.0324,0.013523,0.002678,0.000431,0.001058
7439000,0.0324,0.013523,0.002678,0.000431,0.000940
7440000,0.0324,0.013523,0.002678,0.000431,0.000940
7441000,0.0324,0.013523,0.002678,0.000431,0.000705
7442000,0.0324,0.013523,0.002678,0.000431,0.000940
7443000,0.0324,0.013523,0.002678,0.000431,0.000940
7444000,0.0324,0.013523,0.002678,0.000431,0.000823
7445000,0.0324,0.013523,0.002678,0.000431,0.000940
7446000,0.0324,0.013523,0.002678,0.000431,0.000940
7447000,0.0324,0.013523,0.002678,0.000431,0.000940
7448000,0.0324,0.013523,0.002678,0.000431,0.000940
7449000,0.0324,0.013523,0.002678,0.000431,0.000940
7450000,0.0324,0.013523,0.002678,0.000431,0.000823
7451000,0.0324,0.013523,0.002678,0.000431,0.000588
7452000,0.0324,0.013523,0.002678,0.000431,0.000705
7453000,0.0324,0.013523,0.002678,0.000431,0.000705
7454000,0.0324,0.013523,0.002678,0.000431,0.001058
7455000,0.0324,0.013523,0.002678,0.000431,0.000940
7456000,0.0324,0.013523,0.002678,0.000431,0.001058
7457000,0.0324,0.013523,0.002678,0.000431,0.000940
7458000,0.0324,0.013523,0.002678,0.000431,0.000823
7459000,0.0324,0.013523,0.002678,0.000431,0.000823
7460000,0.0324,0.013523,0.002678,0.000431,0.001058
7461000,0.0324,0.013523,0.002678,0.000431,0.000940
7462000,0.0324,0.013523,0.002678,0.000431,0.000940
7463000,0.0324,0.013523,0.002678,0.000431,0.000940
7464000,0.0324,0.013523,0.002678,0.000431,0.000940
7465000,0.0324,0.013523,0.002678,0.000431,0.000823
7466000,0.0324,0.013523,0.002678,0.000431,0.000940
7467000,0.0324,0.013523,0.002678,0.000431,0.000940
7468000,0.0324,0.013523,0.002678,0.000431,0.001058
7469000,0.0324,0.013523,0.002678,0.000431,0.001058
7470000,0.0324,0.013523,0.002678,0.000431,0.001058
7471000,0.0324,0.013523,0.002678,0.000431,0.000940
7472000,0.0324,0.013523,0.002678,0.000431,0.001058
7473000,0.0324,0.013523,0.002678,0.000431,0.000705
7474000,0.0324,0.013523,0.002678,0.000431,0.000940
7475000,0.0324,0.013523,0.002678,0.000431,0.000940
7476000,0.0324,0.013523,0.002678,0.000431,0.000940
7477000,0.0324,0.013523,0.002678,0.000431,0.001175
7478000,0.0324,0.013523,0.002678,0.000431,0.000940
7479000,0.0324,0.013523,0.002678,0.000431,0.000940
7480000,0.0324,0.013523,0.002678,0.000431,0.000940
7481000,0.0324,0.013523,0.002678,0.000431,0.001175
7482000,0.0324,0.013523,0.002678,0.000431,0.000940
7483000,0.0324,0.013523,0.002678,0.000431,0.000823
7484000,0.0324,0.013523,0.002678,0.000431,0.000940
7485000,0.0324,0.013523,0.002678,0.000431,0.000588
7486000,0.0324,0.013523,0.002678,0.000431,0.000823
7487000,0.0324,0.013523,0.002678,0.000431,0.000940
7488000,0.0324,0.013523,0.002678,0.000431,0.000940
7489000,0.0324,0.013523,0.002678,0.000431,0.001058
7490000,0.0324,0.013523,0.002678,0.000431,0.001058
7491000,0.0324,0.013523,0.002678,0.000431,0.000940
7492000,0.0324,0.013523,0.002678,0.000431,0.000823
7493000,0.0324,0.013523,0.002678,0.000431,0.000823
7494000,0.0324,0.013523,0.002678,0.000431,0.000588
7495000,0.0324,0.013523,0.002678,0.000431,0.000823
7496000,0.0324,0.013523,0.002678,0.000431,0.000940
7497000,0.0324,0.013523,0.002678,0.000431,0.000823
7498000,0.0324,0.013523,0.002678,0.000431,0.000940
7499000,0.0324,0.013523,0.002678,0.000431,0.000940
7500000,0.0324,0.013523,0.002678,0.000431,0.000940
7501000,0.0324,0.013523,0.002678,0.000431,0.000705
7502000,0.0324,0.013523,0.002678,0.000431,0.000940
7503000,0.0324,0.013523,0.002678,0.000431,0.000705
7504000,0.0324,0.013523,0.002678,0.000431,0.000940
7505000,0.0324,0.013523,0.002678,0.000431,0.000705
7506000,0.0324,0.013523,0.002678,0.000431,0.000823
7507000,0.0324,0.013523,0.002678,0.000431,0.000940
7508000,0.0324,0.013523,0.002678,0.000431,0.000940
7509000,0.0324,0.013523,0.002678,0.000431,0.001175
7510000,0.0324,0.013523,0.002678,0.000431,0.000588
7511000,0.0324,0.013523,0.002678,0.000431,0.000940
7512000,0.0324,0.013523,0.002678,0.000431,0.001058
7513000,0.0324,0.013523,0.002678,0.000431,0.000823
7514000,0.0324,0.013523,0.002678,0.000431,0.000705
7515000,0.0324,0.013523,0.002678,0.000431,0.000940
7516000,0.0324,0.013523,0.002678,0.000431,0.000940
7517000,0.0324,0.013523,0.002678,0.000431,0.000940
7518000,0.0324,0.013523,0.002678,0.000431,0.001058
7519000,0.0324,0.013523,0.002678,0.000431,0.000940
7520000,0.0324,0.013523,0.002678,0.000431,0.000940
7521000,0.0324,0.013523,0.002678,0.000431,0.000823
7522000,0.0324,0.013523,0.002678,0.000431,0.000940
7523000,0.0324,0.013523,0.002678,0.000431,0.000940
7524000,0.0324,0.013523,0.002678,0.000431,0.001175
7525000,0.0324,0.013523,0.002678,0.000431,0.000940
7526000,0.0324,0.013523,0.002678,0.000431,0.000470
7527000,0.0324,0.013523,0.002678,0.000431,0.000705
7528000,0.0324,0.013523,0.002678,0.000431,0.000823
7529000,0.0324,0.013523,0.002678,0.000431,0.000588
7530000,0.0324,0.013523,0.002678,0.000431,0.000705
7531000,0.0324,0.013523,0.002678,0.000431,0.000940
7532000,0.0324,0.013523,0.002678,0.000431,0.000470
7533000,0.0324,0.013523,0.002678,0.000431,0.000705
7534000,0.0324,0.013523,0.002678,0.000431,0.000940
7535000,0.0324,0.013523,0.002678,0.000431,0.000940
7536000,0.0324,0.013523,0.002678,0.000431,0.000940
7537000,0.0324,0.013523,0.002678,0.000431,0.000588
7538000,0.0324,0.013523,0.002678,0.000431,0.000940
7539000,0.0324,0.013523,0.002678,0.000431,0.000940
7540000,0.0324,0.013523,0.002678,0.000431,0.001058
7541000,0.0324,0.013523,0.002678,0.000431,0.001058
7542000,0.0324,0.013523,0.002678,0.000431,0.000940
7543000,0.0324,0.013523,0.002678,0.000431,0.000940
7544000,0.0324,0.013523,0.002678,0.000431,0.001058
7545000,0.0324,0.013523,0.002678,0.000431,0.000823
7546000,0.0324,0.013523,0.002678,0.000431,0.001175
7547000,0.0324,0.013523,0.002678,0.000431,0.000940
7548000,0.0324,0.013523,0.002678,0.000431,0.000940
7549000,0.0324,0.013523,0.002678,0.000431,0.001058
7550000,0.0324,0.013523,0.002678,0.000431,0.000705
7551000,0.0324,0.013523,0.002678,0.000431,0.000940
7552000,0.0324,0.013523,0.002678,0.000431,0.000940
7553000,0.0324,0.013523,0.002678,0.000431,0.000940
7554000,0.0324,0.013523,0.002678,0.000431,0.001058
7555000,0.0324,0.013523,0.002678,0.000431,0.001058
7556000,0.0324,0.013523,0.002678,0.000431,0.000940
7557000,0.0324,0.013523,0.002678,0.000431,0.000705
7558000,0.0324,0.013523,0.002678,0.000431,0.000940
7559000,0.0324,0.013523,0.002678,0.000431,0.001175
7560000,0.0324,0.013523,0.002678,0.000431,0.001058
7561000,0.0324,0.013523,0.002678,0.000431,0.000940
7562000,0.0324,0.013523,0.002678,0.000431,0.000940
7563000,0.0324,0.013523,0.002678,0.000431,0.000940
7564000,0.0324,0.013523,0.002678,0.000431,0.001058
7565000,0.0324,0.013523,0.002678,0.000431,0.000940
7566000,0.0324,0.013523,0.002678,0.000431,0.000940
7567000,0.0324,0.013523,0.002678,0.000431,0.000940
7568000,0.0324,0.013523,0.002678,0.000431,0.000588
7569000,0.0324,0.013523,0.002678,0.000431,0.001058
7570000,0.0324,0.013523,0.002678,0.000431,0.000940
7571000,0.0324,0.013523,0.002678,0.000431,0.000940
7572000,0.0324,0.013523,0.002678,0.000431,0.000823
7573000,0.0324,0.013523,0.002678,0.000431,0.000823
7574000,0.0324,0.013523,0.002678,0.000431,0.000940
7575000,0.0324,0.013523,0.002678,0.000431,0.000823
7576000,0.0324,0.013523,0.002678,0.000431,0.000940
7577000,0.0324,0.013523,0.002678,0.000431,0.000940
7578000,0.0324,0.013523,0.002678,0.000431,0.000940
7579000,0.0324,0.013523,0.002678,0.000431,0.000940
7580000,0.0324,0.013523,0.002678,0.000431,0.000823
7581000,0.0324,0.013523,0.002678,0.000431,0.000940
7582000,0.0324,0.013523,0.002678,0.000431,0.000940
7583000,0.0324,0.013523,0.002678,0.000431,0.001058
7584000,0.0324,0.013523,0.002678,0.000431,0.001058
7585000,0.0324,0.013523,0.002678,0.000431,0.000940
7586000,0.0324,0.013523,0.002678,0.000431,0.000940
7587000,0.0324,0.013523,0.002678,0.000431,0.000940
7588000,0.0324,0.013523,0.002678,0.000431,0.000940
7589000,0.0324,0.013523,0.002678,0.000431,0.000940
7590000,0.0324,0.013523,0.002678,0.000431,0.000823
7591000,0.0324,0.013523,0.002678,0.000431,0.001058
7592000,0.0324,0.013523,0.002678,0.000431,0.001058
7593000,0.0324,0.013523,0.002678,0.000431,0.001058
7594000,0.0324,0.013523,0.002678,0.000431,0.000705
7595000,0.0324,0.013523,0.002678,0.000431,0.001058
7596000,0.0324,0.013523,0.002678,0.000431,0.001175
7597000,0.0324,0.013523,0.002678,0.000431,0.000940
7598000,0.0324,0.013523,0.002678,0.000431,0.000940
7599000,0.0324,0.013523,0.002678,0.000431,0.001058
7600000,0.0324,0.013523,0.002678,0.000431,0.000940
7601000,0.0324,0.013523,0.002678,0.000431,0.000940
7602000,0.0324,0.013523,0.002678,0.000431,0.000940
7603000,0.0324,0.013523,0.002678,0.000431,0.001175
7604000,0.0324,0.013523,0.002678,0.000431,0.000940
7605000,0.0324,0.013523,0.002678,0.000431,0.000940
7606000,0.0324,0.013523,0.002678,0.000431,0.000823
7607000,0.0324,0.013523,0.002678,0.000431,0.001058
7608000,0.0324,0.013523,0.002678,0.000431,0.000705
7609000,0.0324,0.013523,0.002678,0.000431,0.000940
7610000,0.0324,0.013523,0.002678,0.000431,0.000940
7611000,0.0324,0.013523,0.002678,0.000431,0.001058
7612000,0.0324,0.013523,0.002678,0.000431,0.001058
7613000,0.0324,0.013523,0.002678,0.000431,0.000705
7614000,0.0324,0.013523,0.002678,0.000431,0.000823
7615000,0.0324,0.013523,0.002678,0.000431,0.000588
7616000,0.0324,0.013523,0.002678,0.000431,0.000940
7617000,0.0324,0.013523,0.002678,0.000431,0.000705
7618000,0.0324,0.013523,0.002678,0.000431,0.001175
7619000,0.0324,0.013523,0.002678,0.000431,0.000940
7620000,0.0324,0.013523,0.002678,0.000431,0.000705
7621000,0.0324,0.013523,0.002678,0.000431,0.001058
7622000,0.0324,0.013523,0.002678,0.000431,0.000823
7623000,0.0324,0.013523,0.002678,0.000431,0.000705
7624000,0.0324,0.013523,0.002678,0.000431,0.001175
7625000,0.0324,0.013523,0.002678,0.000431,0.000940
7626000,0.0324,0.013523,0.002678,0.000431,0.000940
7627000,0.0324,0.013523,0.002678,0.000431,0.000940
7628000,0.0324,0.013523,0.002678,0.000431,0.000940
7629000,0.0324,0.013523,0.002678,0.000431,0.000823
7630000,0.0324,0.013523,0.002678,0.000431,0.001058
7631000,0.0324,0.013523,0.002678,0.000431,0.000940
7632000,0.0324,0.013523,0.002678,0.000431,0.001175
7633000,0.0324,0.013523,0.002678,0.000431,0.000940
7634000,0.0324,0.013523,0.002678,0.000431,0.000823
7635000,0.0324,0.013523,0.002678,0.000431,0.000705
7636000,0.0324,0.013523,0.002678,0.000431,0.000823
7637000,0.0324,0.013523,0.002678,0.000431,0.000705
7638000,0.0324,0.013523,0.002678,0.000431,0.001175
7639000,0.0324,0.013523,0.002678,0.000431,0.000940
7640000,0.0324,0.013523,0.002678,0.000431,0.000940
7641000,0.0324,0.013523,0.002678,0.000431,0.000940
7642000,0.0324,0.013523,0.002678,0.000431,0.000705
7643000,0.0324,0.013523,0.002678,0.000431,0.001058
7644000,0.0324,0.013523,0.002678,0.000431,0.000940
7645000,0.0324,0.013523,0.002678,0.000431,0.001175
7646000,0.0324,0.013523,0.002678,0.000431,0.000705
7647000,0.0324,0.013523,0.002678,0.000431,0.000823
7648000,0.0324,0.013523,0.002678,0.000431,0.001175
7649000,0.0324,0.013523,0.002678,0.000431,0.001058
7650000,0.0324,0.013523,0.002678,0.000431,0.000823
7651000,0.0324,0.013523,0.002678,0.000431,0.001058
7652000,0.0324,0.013523,0.002678,0.000431,0.000823
7653000,0.0324,0.013523,0.002678,0.000431,0.000940
7654000,0.0324,0.013523,0.002678,0.000431,0.000940
7655000,0.0324,0.013523,0.002678,0.000431,0.000940
7656000,0.0324,0.013523,0.002678,0.000431,0.000823
7657000,0.0324,0.013523,0.002678,0.000431,0.000940
7658000,0.0324,0.013523,0.002678,0.000431,0.001058
7659000,0.0324,0.013523,0.002678,0.000431,0.001058
7660000,0.0324,0.013523,0.002678,0.000431,0.000940
7661000,0.0324,0.013523,0.002678,0.000431,0.000823
7662000,0.0324,0.013523,0.002678,0.000431,0.000940
7663000,0.0324,0.013523,0.002678,0.000431,0.000705
7664000,0.0324,0.013523,0.002678,0.000431,0.001175
7665000,0.0324,0.013523,0.002678,0.000431,0.000940
7666000,0.0324,0.013523,0.002678,0.000431,0.000705
7667000,0.0324,0.013523,0.002678,0.000431,0.001058
7668000,0.0324,0.013523,0.002678,0.000431,0.001058
7669000,0.0324,0.013523,0.002678,0.000431,0.000823
7670000,0.0324,0.013523,0.002678,0.000431,0.000940
7671000,0.0324,0.013523,0.002678,0.000431,0.001058
7672000,0.0324,0.013523,0.002678,0.000431,0.000823
7673000,0.0324,0.013523,0.002678,0.000431,0.000823
7674000,0.0324,0.013523,0.002678,0.000431,0.000823
7675000,0.0324,0.013523,0.002678,0.000431,0.001175
7676000,0.0324,0.013523,0.002678,0.000431,0.000823
7677000,0.0324,0.013523,0.002678,0.000431,0.001058
7678000,0.0324,0.013523,0.002678,0.000431,0.000940
7679000,0.0324,0.013523,0.002678,0.000431,0.000823
7680000,0.0324,0.013523,0.002678,0.000431,0.000940
7681000,0.0324,0.013523,0.002678,0.000431,0.000940
7682000,0.0324,0.013523,0.002678,0.000431,0.001175
7683000,0.0324,0.013523,0.002678,0.000431,0.000823
7684000,0.0324,0.013523,0.002678,0.000431,0.001058
7685000,0.0324,0.013523,0.002678,0.000431,0.000940
7686000,0.0324,0.013523,0.002678,0.000431,0.001175
7687000,0.0324,0.013523,0.002678,0.000431,0.000940
7688000,0.0324,0.013523,0.002678,0.000431,0.000940
7689000,0.0324,0.013523,0.002678,0.000431,0.000940
7690000,0.0324,0.013523,0.002678,0.000431,0.000940
7691000,0.0324,0.013523,0.002678,0.000431,0.000940
7692000,0.0324,0.013523,0.002678,0.000431,0.000940
7693000,0.0324,0.013523,0.002678,0.000431,0.000940
7694000,0.0324,0.013523,0.002678,0.000431,0.000940
7695000,0.0324,0.013523,0.002678,0.000431,0.000823
7696000,0.0324,0.013523,0.002678,0.000431,0.001058
7697000,0.0324,0.013523,0.002678,0.000431,0.000705
7698000,0.0324,0.013523,0.002678,0.000431,0.001058
7699000,0.0324,0.013523,0.002678,0.000431,0.000823
7700000,0.0324,0.013523,0.002678,0.000431,0.000705
7701000,0.0324,0.013523,0.002678,0.000431,0.001058
7702000,0.0324,0.013523,0.002678,0.000431,0.000940
7703000,0.0324,0.013523,0.002678,0.000431,0.000588
7704000,0.0324,0.013523,0.002678,0.000431,0.000940
7705000,0.0324,0.013523,0.002678,0.000431,0.000940
7706000,0.0324,0.013523,0.002678,0.000431,0.000705
7707000,0.0324,0.013523,0.002678,0.000431,0.000588
7708000,0.0324,0.013523,0.002678,0.000431,0.000940
7709000,0.0324,0.013523,0.002678,0.000431,0.001058
7710000,0.0324,0.013523,0.002678,0.000431,0.000940
7711000,0.0324,0.013523,0.002678,0.000431,0.000940
7712000,0.0324,0.013523,0.002678,0.000431,0.000940
7713000,0.0324,0.013523,0.002678,0.000431,0.000588
7714000,0.0324,0.013523,0.002678,0.000431,0.000940
7715000,0.0324,0.013523,0.002678,0.000431,0.000940
7716000,0.0324,0.013523,0.002678,0.000431,0.000823
7717000,0.0324,0.013523,0.002678,0.000431,0.000940
7718000,0.0324,0.013523,0.002678,0.000431,0.000940
7719000,0.0324,0.013523,0.002678,0.000431,0.000940
7720000,0.0324,0.013523,0.002678,0.000431,0.000940
7721000,0.0324,0.013523,0.002678,0.000431,0.001175
7722000,0.0324,0.013523,0.002678,0.000431,0.000940
7723000,0.0324,0.013523,0.002678,0.000431,0.000940
7724000,0.0324,0.013523,0.002678,0.000431,0.000940
7725000,0.0324,0.013523,0.002678,0.000431,0.000940
7726000,0.0324,0.013523,0.002678,0.000431,0.000823
7727000,0.0324,0.013523,0.002678,0.000431,0.000940
7728000,0.0324,0.013523,0.002678,0.000431,0.001058
7729000,0.0324,0.013523,0.002678,0.000431,0.000823
7730000,0.0324,0.013523,0.002678,0.000431,0.001058
7731000,0.0324,0.013523,0.002678,0.000431,0.001058
7732000,0.0324,0.013523,0.002678,0.000431,0.000940
7733000,0.0324,0.013523,0.002678,0.000431,0.000940
7734000,0.0324,0.013523,0.002678,0.000431,0.001058
7735000,0.0324,0.013523,0.002678,0.000431,0.001058
7736000,0.0324,0.013523,0.002678,0.000431,0.000940
7737000,0.0324,0.013523,0.002678,0.000431,0.000940
7738000,0.0324,0.013523,0.002678,0.000431,0.001058
7739000,0.0324,0.013523,0.002678,0.000431,0.000823
7740000,0.0324,0.013523,0.002678,0.000431,0.001175
7741000,0.0324,0.013523,0.002678,0.000431,0.001058
7742000,0.0324,0.013523,0.002678,0.000431,0.000940
7743000,0.0324,0.013523,0.002678,0.000431,0.001058
7744000,0.0324,0.013523,0.002678,0.000431,0.000940
7745000,0.0324,0.013523,0.002678,0.000431,0.000940
7746000,0.0324,0.013523,0.002678,0.000431,0.000823
7747000,0.0324,0.013523,0.002678,0.000431,0.001175
7748000,0.0324,0.013523,0.002678,0.000431,0.000940
7749000,0.0324,0.013523,0.002678,0.000431,0.001058
7750000,0.0324,0.013523,0.002678,0.000431,0.001058
7751000,0.0324,0.013523,0.002678,0.000431,0.000940
7752000,0.0324,0.013523,0.002678,0.000431,0.000940
7753000,0.0324,0.013523,0.002678,0.000431,0.001175
7754000,0.0324,0.013523,0.002678,0.000431,0.000940
7755000,0.0324,0.013523,0.002678,0.000431,0.000940
7756000,0.0324,0.013523,0.002678,0.000431,0.000940
7757000,0.0324,0.013523,0.002678,0.000431,0.000940
7758000,0.0324,0.013523,0.002678,0.000431,0.001058
7759000,0.0324,0.013523,0.002678,0.000431,0.001058
7760000,0.0324,0.013523,0.002678,0.000431,0.000940
7761000,0.0324,0.013523,0.002678,0.000431,0.000940
7762000,0.0324,0.013523,0.002678,0.000431,0.001058
7763000,0.0324,0.013523,0.002678,0.000431,0.000940
7764000,0.0324,0.013523,0.002678,0.000431,0.001058
7765000,0.0324,0.013523,0.002678,0.000431,0.000940
7766000,0.0324,0.013523,0.002678,0.000431,0.000940
7767000,0.0324,0.013523,0.002678,0.000431,0.000940
7768000,0.0324,0.013523,0.002678,0.000431,0.000588
7769000,0.0324,0.013523,0.002678,0.000431,0.000823
7770000,0.0324,0.013523,0.002678,0.000431,0.001058
7771000,0.0324,0.013523,0.002678,0.000431,0.000940
7772000,0.0324,0.013523,0.002678,0.000431,0.000823
7773000,0.0324,0.013523,0.002678,0.000431,0.001058
7774000,0.0324,0.013523,0.002678,0.000431,0.000940
7775000,0.0324,0.013523,0.002678,0.000431,0.000823
7776000,0.0324,0.013523,0.002678,0.000431,0.001175
7777000,0.0324,0.013523,0.002678,0.000431,0.000705
7778000,0.0324,0.013523,0.002678,0.000431,0.000823
7779000,0.0324,0.013523,0.002678,0.000431,0.000940
7780000,0.0324,0.013523,0.002678,0.000431,0.000940
7781000,0.0324,0.013523,0.002678,0.000431,0.000823
7782000,0.0324,0.013523,0.002678,0.000431,0.001058
7783000,0.0324,0.013523,0.002678,0.000431,0.000705
7784000,0.0324,0.013523,0.002678,0.000431,0.000940
7785000,0.0324,0.013523,0.002678,0.000431,0.000940
7786000,0.0324,0.013523,0.002678,0.000431,0.001058
7787000,0.0324,0.013523,0.002678,0.000431,0.001058
7788000,0.0324,0.013523,0.002678,0.000431,0.000588
7789000,0.0324,0.013523,0.002678,0.000431,0.000823
7790000,0.0324,0.013523,0.002678,0.000431,0.000940
7791000,0.0324,0.013523,0.002678,0.000431,0.001058
7792000,0.0324,0.013523,0.002678,0.000431,0.000940
7793000,0.0324,0.013523,0.002678,0.000431,0.000940
7794000,0.0324,0.013523,0.002678,0.000431,0.000940
7795000,0.0324,0.013523,0.002678,0.000431,0.000940
7796000,0.0324,0.013523,0.002678,0.000431,0.000940
7797000,0.0324,0.013523,0.002678,0.000431,0.000940
7798000,0.0324,0.013523,0.002678,0.000431,0.000940
7799000,0.0324,0.013523,0.002678,0.000431,0.000823
7800000,0.0324,0.013523,0.002678,0.000431,0.001058
7801000,0.0324,0.013523,0.002678,0.000431,0.000940
7802000,0.0324,0.013523,0.002678,0.000431,0.000940
7803000,0.0324,0.013523,0.002678,0.000431,0.000940
7804000,0.0324,0.013523,0.002678,0.000431,0.000940
7805000,0.0324,0.013523,0.002678,0.000431,0.000940
7806000,0.0324,0.013523,0.002678,0.000431,0.000823
7807000,0.0324,0.013523,0.002678,0.000431,0.001058
7808000,0.0324,0.013523,0.002678,0.000431,0.000940
7809000,0.0324,0.013523,0.002678,0.000431,0.001058
7810000,0.0324,0.013523,0.002678,0.000431,0.000940
7811000,0.0324,0.013523,0.002678,0.000431,0.000823
7812000,0.0324,0.013523,0.002678,0.000431,0.000940
7813000,0.0324,0.013523,0.002678,0.000431,0.000705
7814000,0.0324,0.013523,0.002678,0.000431,0.000705
7815000,0.0324,0.013523,0.002678,0.000431,0.000940
7816000,0.0324,0.013523,0.002678,0.000431,0.000705
7817000,0.0324,0.013523,0.002678,0.000431,0.000705
7818000,0.0324,0.013523,0.002678,0.000431,0.000940
7819000,0.0324,0.013523,0.002678,0.000431,0.000940
7820000,0.0324,0.013523,0.002678,0.000431,0.001175
7821000,0.0324,0.013523,0.002678,0.000431,0.000940
7822000,0.0324,0.013523,0.002678,0.000431,0.001058
7823000,0.0324,0.013523,0.002678,0.000431,0.000940
7824000,0.0324,0.013523,0.002678,0.000431,0.001058
7825000,0.0324,0.013523,0.002678,0.000431,0.000940
7826000,0.0324,0.013523,0.002678,0.000431,0.000940
7827000,0.0324,0.013523,0.002678,0.000431,0.000940
7828000,0.0324,0.013523,0.002678,0.000431,0.000940
7829000,0.0324,0.013523,0.002678,0.000431,0.001058
7830000,0.0324,0.013523,0.002678,0.000431,0.000940
7831000,0.0324,0.013523,0.002678,0.000431,0.000588
7832000,0.0324,0.013523,0.002678,0.000431,0.001058
7833000,0.0324,0.013523,0.002678,0.000431,0.000823
7834000,0.0324,0.013523,0.002678,0.000431,0.000705
7835000,0.0324,0.013523,0.002678,0.000431,0.000940
7836000,0.0324,0.013523,0.002678,0.000431,0.000823
7837000,0.0324,0.013523,0.002678,0.000431,0.001058
7838000,0.0324,0.013523,0.002678,0.000431,0.000940
7839000,0.0324,0.013523,0.002678,0.000431,0.001058
7840000,0.0324,0.013523,0.002678,0.000431,0.001058
7841000,0.0324,0.013523,0.002678,0.000431,0.000940
7842000,0.0324,0.013523,0.002678,0.000431,0.000940
7843000,0.0324,0.013523,0.002678,0.000431,0.000705
7844000,0.0324,0.013523,0.002678,0.000431,0.000940
7845000,0.0324,0.013523,0.002678,0.000431,0.000705
7846000,0.0324,0.013523,0.002678,0.000431,0.000940
7847000,0.0324,0.013523,0.002678,0.000431,0.000940
7848000,0.0324,0.013523,0.002678,0.000431,0.000705
7849000,0.0324,0.013523,0.002678,0.000431,0.000940
7850000,0.0324,0.013523,0.002678,0.000431,0.000940
7851000,0.0324,0.013523,0.002678,0.000431,0.000940
7852000,0.0324,0.013523,0.002678,0.000431,0.000940
7853000,0.0324,0.013523,0.002678,0.000431,0.001175
7854000,0.0324,0.013523,0.002678,0.000431,0.000940
7855000,0.0324,0.013523,0.002678,0.000431,0.000940
7856000,0.0324,0.013523,0.002678,0.000431,0.000823
7857000,0.0324,0.013523,0.002678,0.000431,0.000588
7858000,0.0324,0.013523,0.002678,0.000431,0.000940
7859000,0.0324,0.013523,0.002678,0.000431,0.000940
7860000,0.0324,0.013523,0.002678,0.000431,0.000940
7861000,0.0324,0.013523,0.002678,0.000431,0.000823
7862000,0.0324,0.013523,0.002678,0.000431,0.000940
7863000,0.0324,0.013523,0.002678,0.000431,0.000940
7864000,0.0324,0.013523,0.002678,0.000431,0.000940
7865000,0.0324,0.013523,0.002678,0.000431,0.000823
7866000,0.0324,0.013523,0.002678,0.000431,0.000823
7867000,0.0324,0.013523,0.002678,0.000431,0.000823
7868000,0.0324,0.013523,0.002678,0.000431,0.000940
7869000,0.0324,0.013523,0.002678,0.000431,0.000940
7870000,0.0324,0.013523,0.002678,0.000431,0.000940
7871000,0.0324,0.013523,0.002678,0.000431,0.000940
7872000,0.0324,0.013523,0.002678,0.000431,0.000940
7873000,0.0324,0.013523,0.002678,0.000431,0.000940
7874000,0.0324,0.013523,0.002678,0.000431,0.000940
7875000,0.0324,0.013523,0.002678,0.000431,0.001058
7876000,0.0324,0.013523,0.002678,0.000431,0.000940
7877000,0.0324,0.013523,0.002678,0.000431,0.000940
7878000,0.0324,0.013523,0.002678,0.000431,0.001058
7879000,0.0324,0.013523,0.002678,0.000431,0.000940
7880000,0.0324,0.013523,0.002678,0.000431,0.001058
7881000,0.0324,0.013523,0.002678,0.000431,0.001058
7882000,0.0324,0.013523,0.002678,0.000431,0.000823
7883000,0.0324,0.013523,0.002678,0.000431,0.000823
7884000,0.0324,0.013523,0.002678,0.000431,0.000940
7885000,0.0324,0.013523,0.002678,0.000431,0.000940
7886000,0.0324,0.013523,0.002678,0.000431,0.000823
7887000,0.0324,0.013523,0.002678,0.000431,0.000940
7888000,0.0324,0.013523,0.002678,0.000431,0.000823
7889000,0.0324,0.013523,0.002678,0.000431,0.000940
7890000,0.0324,0.013523,0.002678,0.000431,0.000940
7891000,0.0324,0.013523,0.002678,0.000431,0.000940
7892000,0.0324,0.013523,0.002678,0.000431,0.000940
7893000,0.0324,0.013523,0.002678,0.000431,0.000823
7894000,0.0324,0.013523,0.002678,0.000431,0.000823
7895000,0.0324,0.013523,0.002678,0.000431,0.000940
7896000,0.0324,0.013523,0.002678,0.000431,0.000940
7897000,0.0324,0.013523,0.002678,0.000431,0.000940
7898000,0.0324,0.013523,0.002678,0.000431,0.000940
7899000,0.0324,0.013523,0.002678,0.000431,0.001058
7900000,0.0324,0.013523,0.002678,0.000431,0.001058
7901000,0.0324,0.013523,0.002678,0.000431,0.000940
7902000,0.0324,0.013523,0.002678,0.000431,0.000940
7903000,0.0324,0.013523,0.002678,0.000431,0.000940
7904000,0.0324,0.013523,0.002678,0.000431,0.001175
7905000,0.0324,0.013523,0.002678,0.000431,0.000940
7906000,0.0324,0.013523,0.002678,0.000431,0.000705
7907000,0.0324,0.013523,0.002678,0.000431,0.001058
7908000,0.0324,0.013523,0.002678,0.000431,0.000588
7909000,0.0324,0.013523,0.002678,0.000431,0.001058
7910000,0.0324,0.013523,0.002678,0.000431,0.000940
7911000,0.0324,0.013523,0.002678,0.000431,0.000940
7912000,0.0324,0.013523,0.002678,0.000431,0.000940
7913000,0.0324,0.013523,0.002678,0.000431,0.000940
7914000,0.0324,0.013523,0.002678,0.000431,0.000940
7915000,0.0324,0.013523,0.002678,0.000431,0.000823
7916000,0.0324,0.013523,0.002678,0.000431,0.000940
7917000,0.0324,0.013523,0.002678,0.000431,0.001058
7918000,0.0324,0.013523,0.002678,0.000431,0.001058
7919000,0.0324,0.013523,0.002678,0.000431,0.000823
7920000,0.0324,0.013523,0.002678,0.000431,0.001058
7921000,0.0324,0.013523,0.002678,0.000431,0.001058
7922000,0.0324,0.013523,0.002678,0.000431,0.001058
7923000,0.0324,0.013523,0.002678,0.000431,0.000823
7924000,0.0324,0.013523,0.002678,0.000431,0.000940
7925000,0.0324,0.013523,0.002678,0.000431,0.001058
7926000,0.0324,0.013523,0.002678,0.000431,0.000940
7927000,0.0324,0.013523,0.002678,0.000431,0.001175
7928000,0.0324,0.013523,0.002678,0.000431,0.000940
7929000,0.0324,0.013523,0.002678,0.000431,0.000940
7930000,0.0324,0.013523,0.002678,0.000431,0.000940
7931000,0.0324,0.013523,0.002678,0.000431,0.000940
7932000,0.0324,0.013523,0.002678,0.000431,0.001058
7933000,0.0324,0.013523,0.002678,0.000431,0.000940
7934000,0.0324,0.013523,0.002678,0.000431,0.000588
7935000,0.0324,0.013523,0.002678,0.000431,0.000823
7936000,0.0324,0.013523,0.002678,0.000431,0.000940
7937000,0.0324,0.013523,0.002678,0.000431,0.001058
7938000,0.0324,0.013523,0.002678,0.000431,0.000940
7939000,0.0324,0.013523,0.002678,0.000431,0.001058
7940000,0.0324,0.013523,0.002678,0.000431,0.000940
7941000,0.0324,0.013523,0.002678,0.000431,0.000940
7942000,0.0324,0.013523,0.002678,0.000431,0.001058
7943000,0.0324,0.013523,0.002678,0.000431,0.000823
7944000,0.0324,0.013523,0.002678,0.000431,0.001058
7945000,0.0324,0.013523,0.002678,0.000431,0.000940
7946000,0.0324,0.013523,0.002678,0.000431,0.000940
7947000,0.0324,0.013523,0.002678,0.000431,0.001175
7948000,0.0324,0.013523,0.002678,0.000431,0.000823
7949000,0.0324,0.013523,0.002678,0.000431,0.001058
7950000,0.0324,0.013523,0.002678,0.000431,0.000940
7951000,0.0324,0.013523,0.002678,0.000431,0.001175
7952000,0.0324,0.013523,0.002678,0.000431,0.000823
7953000,0.0324,0.013523,0.002678,0.000431,0.001058
7954000,0.0324,0.013523,0.002678,0.000431,0.000940
7955000,0.0324,0.013523,0.002678,0.000431,0.000940
7956000,0.0324,0.013523,0.002678,0.000431,0.000823
7957000,0.0324,0.013523,0.002678,0.000431,0.000823
7958000,0.0324,0.013523,0.002678,0.000431,0.000940
7959000,0.0324,0.013523,0.002678,0.000431,0.000940
7960000,0.0324,0.013523,0.002678,0.000431,0.001058
7961000,0.0324,0.013523,0.002678,0.000431,0.000940
7962000,0.0324,0.013523,0.002678,0.000431,0.001058
7963000,0.0324,0.013523,0.002678,0.000431,0.000705
7964000,0.0324,0.013523,0.002678,0.000431,0.000940
7965000,0.0324,0.013523,0.002678,0.000431,0.001058
7966000,0.0324,0.013523,0.002678,0.000431,0.001058
7967000,0.0324,0.013523,0.002678,0.000431,0.000940
7968000,0.0324,0.013523,0.002678,0.000431,0.001058
7969000,0.0324,0.013523,0.002678,0.000431,0.000823
7970000,0.0324,0.013523,0.002678,0.000431,0.001058
7971000,0.0324,0.013523,0.002678,0.000431,0.000940
7972000,0.0324,0.013523,0.002678,0.000431,0.001058
7973000,0.0324,0.013523,0.002678,0.000431,0.000940
7974000,0.0324,0.013523,0.002678,0.000431,0.000705
7975000,0.0324,0.013523,0.002678,0.000431,0.001058
7976000,0.0324,0.013523,0.002678,0.000431,0.000823
7977000,0.0324,0.013523,0.002678,0.000431,0.001175
7978000,0.0324,0.013523,0.002678,0.000431,0.000705
7979000,0.0324,0.013523,0.002678,0.000431,0.000705
7980000,0.0324,0.013523,0.002678,0.000431,0.000940
7981000,0.0324,0.013523,0.002678,0.000431,0.000823
7982000,0.0324,0.013523,0.002678,0.000431,0.000823
7983000,0.0324,0.013523,0.002678,0.000431,0.001058
7984000,0.0324,0.013523,0.002678,0.000431,0.000940
7985000,0.0324,0.013523,0.002678,0.000431,0.000940
7986000,0.0324,0.013523,0.002678,0.000431,0.000823
7987000,0.0324,0.013523,0.002678,0.000431,0.000940
7988000,0.0324,0.013523,0.002678,0.000431,0.000940
7989000,0.0324,0.013523,0.002678,0.000431,0.000823
7990000,0.0324,0.013523,0.002678,0.000431,0.001058
7991000,0.0324,0.013523,0.002678,0.000431,0.000705
7992000,0.0324,0.013523,0.002678,0.000431,0.000940
7993000,0.0324,0.013523,0.002678,0.000431,0.000940
7994000,0.0324,0.013523,0.002678,0.000431,0.001058
7995000,0.0324,0.013523,0.002678,0.000431,0.000588
7996000,0.0324,0.013523,0.002678,0.000431,0.000823
7997000,0.0324,0.013523,0.002678,0.000431,0.000823
7998000,0.0324,0.013523,0.002678,0.000431,0.000940
7999000,0.0324,0.013523,0.002678,0.000431,0.000940
