Cycle,Area(mm^2),PeakDynamic(W),SubthresholdLeakage(W),GateLeakage(W),RunTimeDynamic(W)
7000000,0.0324,0.013523,0.002678,0.000431,0.212491
7001000,0.0324,0.013523,0.002678,0.000431,0.239052
7002000,0.0324,0.013523,0.002678,0.000431,0.092025
7003000,0.0324,0.013523,0.002678,0.000431,0.075688
7004000,0.0324,0.013523,0.002678,0.000431,0.152904
7005000,0.0324,0.013523,0.002678,0.000431,0.037844
7006000,0.0324,0.013523,0.002678,0.000431,0.071105
7007000,0.0324,0.013523,0.002678,0.000431,0.123875
7008000,0.0324,0.013523,0.002678,0.000431,0.088029
7009000,0.0324,0.013523,0.002678,0.000431,0.068754
7010000,0.0324,0.013523,0.002678,0.000431,0.121877
7011000,0.0324,0.013523,0.002678,0.000431,0.106833
7012000,0.0324,0.013523,0.002678,0.000431,0.050890
7013000,0.0324,0.013523,0.002678,0.000431,0.053005
7014000,0.0324,0.013523,0.002678,0.000431,0.079332
7015000,0.0324,0.013523,0.002678,0.000431,0.115883
7016000,0.0324,0.013523,0.002678,0.000431,0.143619
7017000,0.0324,0.013523,0.002678,0.000431,0.174764
7018000,0.0324,0.013523,0.002678,0.000431,0.035141
7019000,0.0324,0.013523,0.002678,0.000431,0.050185
7020000,0.0324,0.013523,0.002678,0.000431,0.087911
7021000,0.0324,0.013523,0.002678,0.000431,0.200738
7022000,0.0324,0.013523,0.002678,0.000431,0.098959
7023000,0.0324,0.013523,0.002678,0.000431,0.152081
7024000,0.0324,0.013523,0.002678,0.000431,0.050302
7025000,0.0324,0.013523,0.002678,0.000431,0.143737
7026000,0.0324,0.013523,0.002678,0.000431,0.091907
7027000,0.0324,0.013523,0.002678,0.000431,0.099781
7028000,0.0324,0.013523,0.002678,0.000431,0.146558
7029000,0.0324,0.013523,0.002678,0.000431,0.114120
7030000,0.0324,0.013523,0.002678,0.000431,0.050302
7031000,0.0324,0.013523,0.002678,0.000431,0.038667
7032000,0.0324,0.013523,0.002678,0.000431,0.101779
7033000,0.0324,0.013523,0.002678,0.000431,0.154197
7034000,0.0324,0.013523,0.002678,0.000431,0.214254
7035000,0.0324,0.013523,0.002678,0.000431,0.054063
7036000,0.0324,0.013523,0.002678,0.000431,0.166655
7037000,0.0324,0.013523,0.002678,0.000431,0.065463
7038000,0.0324,0.013523,0.002678,0.000431,0.080507
7039000,0.0324,0.013523,0.002678,0.000431,0.110476
7040000,0.0324,0.013523,0.002678,0.000431,0.139036
7041000,0.0324,0.013523,0.002678,0.000431,0.116000
7042000,0.0324,0.013523,0.002678,0.000431,0.092142
7043000,0.0324,0.013523,0.002678,0.000431,0.086971
7044000,0.0324,0.013523,0.002678,0.000431,0.079684
7045000,0.0324,0.013523,0.002678,0.000431,0.171239
7046000,0.0324,0.013523,0.002678,0.000431,0.052888
7047000,0.0324,0.013523,0.002678,0.000431,0.212608
7048000,0.0324,0.013523,0.002678,0.000431,0.082387
7049000,0.0324,0.013523,0.002678,0.000431,0.348824
7050000,0.0324,0.013523,0.002678,0.000431,0.085678
7051000,0.0324,0.013523,0.002678,0.000431,0.089086
7052000,0.0324,0.013523,0.002678,0.000431,0.042545
7053000,0.0324,0.013523,0.002678,0.000431,0.042545
7054000,0.0324,0.013523,0.002678,0.000431,0.080272
7055000,0.0324,0.013523,0.002678,0.000431,0.220130
7056000,0.0324,0.013523,0.002678,0.000431,0.059469
7057000,0.0324,0.013523,0.002678,0.000431,0.129046
7058000,0.0324,0.013523,0.002678,0.000431,0.249042
7059000,0.0324,0.013523,0.002678,0.000431,0.141739
7060000,0.0324,0.013523,0.002678,0.000431,0.193922
7061000,0.0324,0.013523,0.002678,0.000431,0.088969
7062000,0.0324,0.013523,0.002678,0.000431,0.080272
7063000,0.0324,0.013523,0.002678,0.000431,0.051712
7064000,0.0324,0.013523,0.002678,0.000431,0.070752
7065000,0.0324,0.013523,0.002678,0.000431,0.145030
7066000,0.0324,0.013523,0.002678,0.000431,0.141151
7067000,0.0324,0.013523,0.002678,0.000431,0.063583
7068000,0.0324,0.013523,0.002678,0.000431,0.178643
7069000,0.0324,0.013523,0.002678,0.000431,0.083092
7070000,0.0324,0.013523,0.002678,0.000431,0.065463
7071000,0.0324,0.013523,0.002678,0.000431,0.230003
7072000,0.0324,0.013523,0.002678,0.000431,0.075336
7073000,0.0324,0.013523,0.002678,0.000431,0.231883
7074000,0.0324,0.013523,0.002678,0.000431,0.104600
7075000,0.0324,0.013523,0.002678,0.000431,0.120466
7076000,0.0324,0.013523,0.002678,0.000431,0.050185
7077000,0.0324,0.013523,0.002678,0.000431,0.095433
7078000,0.0324,0.013523,0.002678,0.000431,0.042780
7079000,0.0324,0.013523,0.002678,0.000431,0.095315
7080000,0.0324,0.013523,0.002678,0.000431,0.087558
7081000,0.0324,0.013523,0.002678,0.000431,0.207672
7082000,0.0324,0.013523,0.002678,0.000431,0.141621
7083000,0.0324,0.013523,0.002678,0.000431,0.057471
7084000,0.0324,0.013523,0.002678,0.000431,0.111182
7085000,0.0324,0.013523,0.002678,0.000431,0.048892
7086000,0.0324,0.013523,0.002678,0.000431,0.138096
7087000,0.0324,0.013523,0.002678,0.000431,0.173354
7088000,0.0324,0.013523,0.002678,0.000431,0.157840
7089000,0.0324,0.013523,0.002678,0.000431,0.123522
7090000,0.0324,0.013523,0.002678,0.000431,0.035141
7091000,0.0324,0.013523,0.002678,0.000431,0.120114
7092000,0.0324,0.013523,0.002678,0.000431,0.168300
7093000,0.0324,0.013523,0.002678,0.000431,0.103190
7094000,0.0324,0.013523,0.002678,0.000431,0.087794
7095000,0.0324,0.013523,0.002678,0.000431,0.041605
7096000,0.0324,0.013523,0.002678,0.000431,0.073808
7097000,0.0324,0.013523,0.002678,0.000431,0.042663
7098000,0.0324,0.013523,0.002678,0.000431,0.064641
7099000,0.0324,0.013523,0.002678,0.000431,0.193922
7100000,0.0324,0.013523,0.002678,0.000431,0.144560
7101000,0.0324,0.013523,0.002678,0.000431,0.076628
7102000,0.0324,0.013523,0.002678,0.000431,0.072867
7103000,0.0324,0.013523,0.002678,0.000431,0.078274
7104000,0.0324,0.013523,0.002678,0.000431,0.067109
7105000,0.0324,0.013523,0.002678,0.000431,0.208730
7106000,0.0324,0.013523,0.002678,0.000431,0.342595
7107000,0.0324,0.013523,0.002678,0.000431,0.141151
7108000,0.0324,0.013523,0.002678,0.000431,0.125403
7109000,0.0324,0.013523,0.002678,0.000431,0.050537
7110000,0.0324,0.013523,0.002678,0.000431,0.053828
7111000,0.0324,0.013523,0.002678,0.000431,0.207555
7112000,0.0324,0.013523,0.002678,0.000431,0.136920
7113000,0.0324,0.013523,0.002678,0.000431,0.174999
7114000,0.0324,0.013523,0.002678,0.000431,0.069107
7115000,0.0324,0.013523,0.002678,0.000431,0.080389
7116000,0.0324,0.013523,0.002678,0.000431,0.065228
7117000,0.0324,0.013523,0.002678,0.000431,0.046071
7118000,0.0324,0.013523,0.002678,0.000431,0.053475
7119000,0.0324,0.013523,0.002678,0.000431,0.095315
7120000,0.0324,0.013523,0.002678,0.000431,0.095315
7121000,0.0324,0.013523,0.002678,0.000431,0.042780
7122000,0.0324,0.013523,0.002678,0.000431,0.083210
7123000,0.0324,0.013523,0.002678,0.000431,0.047129
7124000,0.0324,0.013523,0.002678,0.000431,0.083210
7125000,0.0324,0.013523,0.002678,0.000431,0.097313
7126000,0.0324,0.013523,0.002678,0.000431,0.153727
7127000,0.0324,0.013523,0.002678,0.000431,0.066403
7128000,0.0324,0.013523,0.002678,0.000431,0.049832
7129000,0.0324,0.013523,0.002678,0.000431,0.068989
7130000,0.0324,0.013523,0.002678,0.000431,0.053828
7131000,0.0324,0.013523,0.002678,0.000431,0.102367
7132000,0.0324,0.013523,0.002678,0.000431,0.069577
7133000,0.0324,0.013523,0.002678,0.000431,0.122699
7134000,0.0324,0.013523,0.002678,0.000431,0.045601
7135000,0.0324,0.013523,0.002678,0.000431,0.050067
7136000,0.0324,0.013523,0.002678,0.000431,0.035258
7137000,0.0324,0.013523,0.002678,0.000431,0.095315
7138000,0.0324,0.013523,0.002678,0.000431,0.151729
7139000,0.0324,0.013523,0.002678,0.000431,0.140916
7140000,0.0324,0.013523,0.002678,0.000431,0.121407
7141000,0.0324,0.013523,0.002678,0.000431,0.051477
7142000,0.0324,0.013523,0.002678,0.000431,0.116823
7143000,0.0324,0.013523,0.002678,0.000431,0.057589
7144000,0.0324,0.013523,0.002678,0.000431,0.237760
7145000,0.0324,0.013523,0.002678,0.000431,0.072750
7146000,0.0324,0.013523,0.002678,0.000431,0.073103
7147000,0.0324,0.013523,0.002678,0.000431,0.055003
7148000,0.0324,0.013523,0.002678,0.000431,0.180758
7149000,0.0324,0.013523,0.002678,0.000431,0.047716
7150000,0.0324,0.013523,0.002678,0.000431,0.121642
7151000,0.0324,0.013523,0.002678,0.000431,0.288884
7152000,0.0324,0.013523,0.002678,0.000431,0.188868
7153000,0.0324,0.013523,0.002678,0.000431,0.240580
7154000,0.0324,0.013523,0.002678,0.000431,0.162306
7155000,0.0324,0.013523,0.002678,0.000431,0.114943
7156000,0.0324,0.013523,0.002678,0.000431,0.052888
7157000,0.0324,0.013523,0.002678,0.000431,0.062172
7158000,0.0324,0.013523,0.002678,0.000431,0.083798
7159000,0.0324,0.013523,0.002678,0.000431,0.054298
7160000,0.0324,0.013523,0.002678,0.000431,0.034788
7161000,0.0324,0.013523,0.002678,0.000431,0.095903
7162000,0.0324,0.013523,0.002678,0.000431,0.106598
7163000,0.0324,0.013523,0.002678,0.000431,0.257269
7164000,0.0324,0.013523,0.002678,0.000431,0.034553
7165000,0.0324,0.013523,0.002678,0.000431,0.080624
7166000,0.0324,0.013523,0.002678,0.000431,0.102955
7167000,0.0324,0.013523,0.002678,0.000431,0.112592
7168000,0.0324,0.013523,0.002678,0.000431,0.040195
7169000,0.0324,0.013523,0.002678,0.000431,0.093435
7170000,0.0324,0.013523,0.002678,0.000431,0.079096
7171000,0.0324,0.013523,0.002678,0.000431,0.110476
7172000,0.0324,0.013523,0.002678,0.000431,0.145500
7173000,0.0324,0.013523,0.002678,0.000431,0.064405
7174000,0.0324,0.013523,0.002678,0.000431,0.095785
7175000,0.0324,0.013523,0.002678,0.000431,0.042663
7176000,0.0324,0.013523,0.002678,0.000431,0.149496
7177000,0.0324,0.013523,0.002678,0.000431,0.088264
7178000,0.0324,0.013523,0.002678,0.000431,0.122464
7179000,0.0324,0.013523,0.002678,0.000431,0.142092
7180000,0.0324,0.013523,0.002678,0.000431,0.170651
7181000,0.0324,0.013523,0.002678,0.000431,0.065346
7182000,0.0324,0.013523,0.002678,0.000431,0.296876
7183000,0.0324,0.013523,0.002678,0.000431,0.126930
7184000,0.0324,0.013523,0.002678,0.000431,0.214136
7185000,0.0324,0.013523,0.002678,0.000431,0.179113
7186000,0.0324,0.013523,0.002678,0.000431,0.081094
7187000,0.0324,0.013523,0.002678,0.000431,0.075806
7188000,0.0324,0.013523,0.002678,0.000431,0.057706
7189000,0.0324,0.013523,0.002678,0.000431,0.311215
7190000,0.0324,0.013523,0.002678,0.000431,0.188985
7191000,0.0324,0.013523,0.002678,0.000431,0.151024
7192000,0.0324,0.013523,0.002678,0.000431,0.073455
7193000,0.0324,0.013523,0.002678,0.000431,0.220365
7194000,0.0324,0.013523,0.002678,0.000431,0.063230
7195000,0.0324,0.013523,0.002678,0.000431,0.202384
7196000,0.0324,0.013523,0.002678,0.000431,0.309452
7197000,0.0324,0.013523,0.002678,0.000431,0.113885
7198000,0.0324,0.013523,0.002678,0.000431,0.102485
7199000,0.0324,0.013523,0.002678,0.000431,0.131984
7200000,0.0324,0.013523,0.002678,0.000431,0.100134
7201000,0.0324,0.013523,0.002678,0.000431,0.092612
7202000,0.0324,0.013523,0.002678,0.000431,0.266201
7203000,0.0324,0.013523,0.002678,0.000431,0.123052
7204000,0.0324,0.013523,0.002678,0.000431,0.117881
7205000,0.0324,0.013523,0.002678,0.000431,0.132924
7206000,0.0324,0.013523,0.002678,0.000431,0.141857
7207000,0.0324,0.013523,0.002678,0.000431,0.078274
7208000,0.0324,0.013523,0.002678,0.000431,0.082152
7209000,0.0324,0.013523,0.002678,0.000431,0.241520
7210000,0.0324,0.013523,0.002678,0.000431,0.076041
7211000,0.0324,0.013523,0.002678,0.000431,0.109536
7212000,0.0324,0.013523,0.002678,0.000431,0.068872
7213000,0.0324,0.013523,0.002678,0.000431,0.070282
7214000,0.0324,0.013523,0.002678,0.000431,0.107773
7215000,0.0324,0.013523,0.002678,0.000431,0.271725
7216000,0.0324,0.013523,0.002678,0.000431,0.094258
7217000,0.0324,0.013523,0.002678,0.000431,0.069459
7218000,0.0324,0.013523,0.002678,0.000431,0.045836
7219000,0.0324,0.013523,0.002678,0.000431,0.065346
7220000,0.0324,0.013523,0.002678,0.000431,0.066874
7221000,0.0324,0.013523,0.002678,0.000431,0.282773
7222000,0.0324,0.013523,0.002678,0.000431,0.303810
7223000,0.0324,0.013523,0.002678,0.000431,0.198270
7224000,0.0324,0.013523,0.002678,0.000431,0.072397
7225000,0.0324,0.013523,0.002678,0.000431,0.066991
7226000,0.0324,0.013523,0.002678,0.000431,0.150201
7227000,0.0324,0.013523,0.002678,0.000431,0.198388
7228000,0.0324,0.013523,0.002678,0.000431,0.171826
7229000,0.0324,0.013523,0.002678,0.000431,0.149613
7230000,0.0324,0.013523,0.002678,0.000431,0.149378
7231000,0.0324,0.013523,0.002678,0.000431,0.086148
7232000,0.0324,0.013523,0.002678,0.000431,0.200973
7233000,0.0324,0.013523,0.002678,0.000431,0.053710
7234000,0.0324,0.013523,0.002678,0.000431,0.216839
7235000,0.0324,0.013523,0.002678,0.000431,0.173472
7236000,0.0324,0.013523,0.002678,0.000431,0.125755
7237000,0.0324,0.013523,0.002678,0.000431,0.042780
7238000,0.0324,0.013523,0.002678,0.000431,0.093435
7239000,0.0324,0.013523,0.002678,0.000431,0.160543
7240000,0.0324,0.013523,0.002678,0.000431,0.114590
7241000,0.0324,0.013523,0.002678,0.000431,0.158075
7242000,0.0324,0.013523,0.002678,0.000431,0.086501
7243000,0.0324,0.013523,0.002678,0.000431,0.064288
7244000,0.0324,0.013523,0.002678,0.000431,0.042310
7245000,0.0324,0.013523,0.002678,0.000431,0.119056
7246000,0.0324,0.013523,0.002678,0.000431,0.152669
7247000,0.0324,0.013523,0.002678,0.000431,0.163599
7248000,0.0324,0.013523,0.002678,0.000431,0.065933
7249000,0.0324,0.013523,0.002678,0.000431,0.107538
7250000,0.0324,0.013523,0.002678,0.000431,0.038667
7251000,0.0324,0.013523,0.002678,0.000431,0.059234
7252000,0.0324,0.013523,0.002678,0.000431,0.145500
7253000,0.0324,0.013523,0.002678,0.000431,0.170063
7254000,0.0324,0.013523,0.002678,0.000431,0.306866
7255000,0.0324,0.013523,0.002678,0.000431,0.216839
7256000,0.0324,0.013523,0.002678,0.000431,0.149496
7257000,0.0324,0.013523,0.002678,0.000431,0.038784
7258000,0.0324,0.013523,0.002678,0.000431,0.114237
7259000,0.0324,0.013523,0.002678,0.000431,0.175235
7260000,0.0324,0.013523,0.002678,0.000431,0.094375
7261000,0.0324,0.013523,0.002678,0.000431,0.172884
7262000,0.0324,0.013523,0.002678,0.000431,0.126578
7263000,0.0324,0.013523,0.002678,0.000431,0.035376
7264000,0.0324,0.013523,0.002678,0.000431,0.125168
7265000,0.0324,0.013523,0.002678,0.000431,0.104012
7266000,0.0324,0.013523,0.002678,0.000431,0.199093
7267000,0.0324,0.013523,0.002678,0.000431,0.371507
7268000,0.0324,0.013523,0.002678,0.000431,0.122347
7269000,0.0324,0.013523,0.002678,0.000431,0.100957
7270000,0.0324,0.013523,0.002678,0.000431,0.148791
7271000,0.0324,0.013523,0.002678,0.000431,0.064405
7272000,0.0324,0.013523,0.002678,0.000431,0.231295
7273000,0.0324,0.013523,0.002678,0.000431,0.286299
7274000,0.0324,0.013523,0.002678,0.000431,0.219073
7275000,0.0324,0.013523,0.002678,0.000431,0.059822
7276000,0.0324,0.013523,0.002678,0.000431,0.150789
7277000,0.0324,0.013523,0.002678,0.000431,0.121759
7278000,0.0324,0.013523,0.002678,0.000431,0.084150
7279000,0.0324,0.013523,0.002678,0.000431,0.182286
7280000,0.0324,0.013523,0.002678,0.000431,0.127871
7281000,0.0324,0.013523,0.002678,0.000431,0.173824
7282000,0.0324,0.013523,0.002678,0.000431,0.104247
7283000,0.0324,0.013523,0.002678,0.000431,0.091790
7284000,0.0324,0.013523,0.002678,0.000431,0.083445
7285000,0.0324,0.013523,0.002678,0.000431,0.275486
7286000,0.0324,0.013523,0.002678,0.000431,0.215194
7287000,0.0324,0.013523,0.002678,0.000431,0.119761
7288000,0.0324,0.013523,0.002678,0.000431,0.050302
7289000,0.0324,0.013523,0.002678,0.000431,0.071927
7290000,0.0324,0.013523,0.002678,0.000431,0.280775
7291000,0.0324,0.013523,0.002678,0.000431,0.144325
7292000,0.0324,0.013523,0.002678,0.000431,0.129516
7293000,0.0324,0.013523,0.002678,0.000431,0.163717
7294000,0.0324,0.013523,0.002678,0.000431,0.061115
7295000,0.0324,0.013523,0.002678,0.000431,0.106245
7296000,0.0324,0.013523,0.002678,0.000431,0.205792
7297000,0.0324,0.013523,0.002678,0.000431,0.206497
7298000,0.0324,0.013523,0.002678,0.000431,0.253743
7299000,0.0324,0.013523,0.002678,0.000431,0.095785
7300000,0.0324,0.013523,0.002678,0.000431,0.202266
7301000,0.0324,0.013523,0.002678,0.000431,0.176880
7302000,0.0324,0.013523,0.002678,0.000431,0.264321
7303000,0.0324,0.013523,0.002678,0.000431,0.207672
7304000,0.0324,0.013523,0.002678,0.000431,0.109419
7305000,0.0324,0.013523,0.002678,0.000431,0.165245
7306000,0.0324,0.013523,0.002678,0.000431,0.225184
7307000,0.0324,0.013523,0.002678,0.000431,0.042545
7308000,0.0324,0.013523,0.002678,0.000431,0.077451
7309000,0.0324,0.013523,0.002678,0.000431,0.158075
7310000,0.0324,0.013523,0.002678,0.000431,0.141857
7311000,0.0324,0.013523,0.002678,0.000431,0.042780
7312000,0.0324,0.013523,0.002678,0.000431,0.207085
7313000,0.0324,0.013523,0.002678,0.000431,0.114590
7314000,0.0324,0.013523,0.002678,0.000431,0.061585
7315000,0.0324,0.013523,0.002678,0.000431,0.101074
7316000,0.0324,0.013523,0.002678,0.000431,0.155725
7317000,0.0324,0.013523,0.002678,0.000431,0.132924
7318000,0.0324,0.013523,0.002678,0.000431,0.135980
7319000,0.0324,0.013523,0.002678,0.000431,0.117881
7320000,0.0324,0.013523,0.002678,0.000431,0.194509
7321000,0.0324,0.013523,0.002678,0.000431,0.158663
7322000,0.0324,0.013523,0.002678,0.000431,0.173354
7323000,0.0324,0.013523,0.002678,0.000431,0.049949
7324000,0.0324,0.013523,0.002678,0.000431,0.068166
7325000,0.0324,0.013523,0.002678,0.000431,0.114237
7326000,0.0324,0.013523,0.002678,0.000431,0.073455
7327000,0.0324,0.013523,0.002678,0.000431,0.128223
7328000,0.0324,0.013523,0.002678,0.000431,0.164069
7329000,0.0324,0.013523,0.002678,0.000431,0.065346
7330000,0.0324,0.013523,0.002678,0.000431,0.234586
7331000,0.0324,0.013523,0.002678,0.000431,0.122582
7332000,0.0324,0.013523,0.002678,0.000431,0.241168
7333000,0.0324,0.013523,0.002678,0.000431,0.261383
7334000,0.0324,0.013523,0.002678,0.000431,0.210140
7335000,0.0324,0.013523,0.002678,0.000431,0.056061
7336000,0.0324,0.013523,0.002678,0.000431,0.063583
7337000,0.0324,0.013523,0.002678,0.000431,0.179583
7338000,0.0324,0.013523,0.002678,0.000431,0.072985
7339000,0.0324,0.013523,0.002678,0.000431,0.119291
7340000,0.0324,0.013523,0.002678,0.000431,0.268669
7341000,0.0324,0.013523,0.002678,0.000431,0.102602
7342000,0.0324,0.013523,0.002678,0.000431,0.072397
7343000,0.0324,0.013523,0.002678,0.000431,0.183109
7344000,0.0324,0.013523,0.002678,0.000431,0.187340
7345000,0.0324,0.013523,0.002678,0.000431,0.260442
7346000,0.0324,0.013523,0.002678,0.000431,0.096256
7347000,0.0324,0.013523,0.002678,0.000431,0.129399
7348000,0.0324,0.013523,0.002678,0.000431,0.053710
7349000,0.0324,0.013523,0.002678,0.000431,0.084150
7350000,0.0324,0.013523,0.002678,0.000431,0.271020
7351000,0.0324,0.013523,0.002678,0.000431,0.261970
7352000,0.0324,0.013523,0.002678,0.000431,0.205087
7353000,0.0324,0.013523,0.002678,0.000431,0.216604
7354000,0.0324,0.013523,0.002678,0.000431,0.109889
7355000,0.0324,0.013523,0.002678,0.000431,0.112945
7356000,0.0324,0.013523,0.002678,0.000431,0.102955
7357000,0.0324,0.013523,0.002678,0.000431,0.050537
7358000,0.0324,0.013523,0.002678,0.000431,0.079802
7359000,0.0324,0.013523,0.002678,0.000431,0.148791
7360000,0.0324,0.013523,0.002678,0.000431,0.152787
7361000,0.0324,0.013523,0.002678,0.000431,0.102955
7362000,0.0324,0.013523,0.002678,0.000431,0.257152
7363000,0.0324,0.013523,0.002678,0.000431,0.185812
7364000,0.0324,0.013523,0.002678,0.000431,0.161249
7365000,0.0324,0.013523,0.002678,0.000431,0.061702
7366000,0.0324,0.013523,0.002678,0.000431,0.124110
7367000,0.0324,0.013523,0.002678,0.000431,0.319442
7368000,0.0324,0.013523,0.002678,0.000431,0.183697
7369000,0.0324,0.013523,0.002678,0.000431,0.225537
7370000,0.0324,0.013523,0.002678,0.000431,0.346591
7371000,0.0324,0.013523,0.002678,0.000431,0.248925
7372000,0.0324,0.013523,0.002678,0.000431,0.107186
7373000,0.0324,0.013523,0.002678,0.000431,0.222363
7374000,0.0324,0.013523,0.002678,0.000431,0.177938
7375000,0.0324,0.013523,0.002678,0.000431,0.148556
7376000,0.0324,0.013523,0.002678,0.000431,0.170063
7377000,0.0324,0.013523,0.002678,0.000431,0.164187
7378000,0.0324,0.013523,0.002678,0.000431,0.072045
7379000,0.0324,0.013523,0.002678,0.000431,0.099429
7380000,0.0324,0.013523,0.002678,0.000431,0.198505
7381000,0.0324,0.013523,0.002678,0.000431,0.273606
7382000,0.0324,0.013523,0.002678,0.000431,0.153492
7383000,0.0324,0.013523,0.002678,0.000431,0.204382
7384000,0.0324,0.013523,0.002678,0.000431,0.084268
7385000,0.0324,0.013523,0.002678,0.000431,0.147733
7386000,0.0324,0.013523,0.002678,0.000431,0.168888
7387000,0.0324,0.013523,0.002678,0.000431,0.175822
7388000,0.0324,0.013523,0.002678,0.000431,0.190631
7389000,0.0324,0.013523,0.002678,0.000431,0.103190
7390000,0.0324,0.013523,0.002678,0.000431,0.138566
7391000,0.0324,0.013523,0.002678,0.000431,0.118821
7392000,0.0324,0.013523,0.002678,0.000431,0.281715
7393000,0.0324,0.013523,0.002678,0.000431,0.134452
7394000,0.0324,0.013523,0.002678,0.000431,0.100839
7395000,0.0324,0.013523,0.002678,0.000431,0.248337
7396000,0.0324,0.013523,0.002678,0.000431,0.188985
7397000,0.0324,0.013523,0.002678,0.000431,0.093787
7398000,0.0324,0.013523,0.002678,0.000431,0.100252
7399000,0.0324,0.013523,0.002678,0.000431,0.348824
7400000,0.0324,0.013523,0.002678,0.000431,0.135980
7401000,0.0324,0.013523,0.002678,0.000431,0.284888
7402000,0.0324,0.013523,0.002678,0.000431,0.087323
7403000,0.0324,0.013523,0.002678,0.000431,0.154315
7404000,0.0324,0.013523,0.002678,0.000431,0.081447
7405000,0.0324,0.013523,0.002678,0.000431,0.241638
7406000,0.0324,0.013523,0.002678,0.000431,0.178995
7407000,0.0324,0.013523,0.002678,0.000431,0.063113
7408000,0.0324,0.013523,0.002678,0.000431,0.099546
7409000,0.0324,0.013523,0.002678,0.000431,0.057941
7410000,0.0324,0.013523,0.002678,0.000431,0.228710
7411000,0.0324,0.013523,0.002678,0.000431,0.211551
7412000,0.0324,0.013523,0.002678,0.000431,0.193099
7413000,0.0324,0.013523,0.002678,0.000431,0.181934
7414000,0.0324,0.013523,0.002678,0.000431,0.099194
7415000,0.0324,0.013523,0.002678,0.000431,0.081212
7416000,0.0324,0.013523,0.002678,0.000431,0.223068
7417000,0.0324,0.013523,0.002678,0.000431,0.177938
7418000,0.0324,0.013523,0.002678,0.000431,0.122229
7419000,0.0324,0.013523,0.002678,0.000431,0.233881
7420000,0.0324,0.013523,0.002678,0.000431,0.065698
7421000,0.0324,0.013523,0.002678,0.000431,0.057824
7422000,0.0324,0.013523,0.002678,0.000431,0.283243
7423000,0.0324,0.013523,0.002678,0.000431,0.155842
7424000,0.0324,0.013523,0.002678,0.000431,0.161954
7425000,0.0324,0.013523,0.002678,0.000431,0.238700
7426000,0.0324,0.013523,0.002678,0.000431,0.287004
7427000,0.0324,0.013523,0.002678,0.000431,0.149613
7428000,0.0324,0.013523,0.002678,0.000431,0.183461
7429000,0.0324,0.013523,0.002678,0.000431,0.099311
7430000,0.0324,0.013523,0.002678,0.000431,0.117998
7431000,0.0324,0.013523,0.002678,0.000431,0.089909
7432000,0.0324,0.013523,0.002678,0.000431,0.180876
7433000,0.0324,0.013523,0.002678,0.000431,0.132454
7434000,0.0324,0.013523,0.002678,0.000431,0.066168
7435000,0.0324,0.013523,0.002678,0.000431,0.187457
7436000,0.0324,0.013523,0.002678,0.000431,0.189103
7437000,0.0324,0.013523,0.002678,0.000431,0.118351
7438000,0.0324,0.013523,0.002678,0.000431,0.130809
7439000,0.0324,0.013523,0.002678,0.000431,0.274546
7440000,0.0324,0.013523,0.002678,0.000431,0.217662
7441000,0.0324,0.013523,0.002678,0.000431,0.125755
7442000,0.0324,0.013523,0.002678,0.000431,0.036551
7443000,0.0324,0.013523,0.002678,0.000431,0.078626
7444000,0.0324,0.013523,0.002678,0.000431,0.099311
7445000,0.0324,0.013523,0.002678,0.000431,0.099194
7446000,0.0324,0.013523,0.002678,0.000431,0.327081
7447000,0.0324,0.013523,0.002678,0.000431,0.521708
7448000,0.0324,0.013523,0.002678,0.000431,0.523471
7449000,0.0324,0.013523,0.002678,0.000431,0.116353
7450000,0.0324,0.013523,0.002678,0.000431,0.035258
7451000,0.0324,0.013523,0.002678,0.000431,0.065228
7452000,0.0324,0.013523,0.002678,0.000431,0.194979
7453000,0.0324,0.013523,0.002678,0.000431,0.164304
7454000,0.0324,0.013523,0.002678,0.000431,0.151846
7455000,0.0324,0.013523,0.002678,0.000431,0.209553
7456000,0.0324,0.013523,0.002678,0.000431,0.281950
7457000,0.0324,0.013523,0.002678,0.000431,0.124932
7458000,0.0324,0.013523,0.002678,0.000431,0.100839
7459000,0.0324,0.013523,0.002678,0.000431,0.210140
7460000,0.0324,0.013523,0.002678,0.000431,0.195214
7461000,0.0324,0.013523,0.002678,0.000431,0.118233
7462000,0.0324,0.013523,0.002678,0.000431,0.067344
7463000,0.0324,0.013523,0.002678,0.000431,0.244576
7464000,0.0324,0.013523,0.002678,0.000431,0.219073
7465000,0.0324,0.013523,0.002678,0.000431,0.114825
7466000,0.0324,0.013523,0.002678,0.000431,0.149261
7467000,0.0324,0.013523,0.002678,0.000431,0.117646
7468000,0.0324,0.013523,0.002678,0.000431,0.154315
7469000,0.0324,0.013523,0.002678,0.000431,0.112827
7470000,0.0324,0.013523,0.002678,0.000431,0.125520
7471000,0.0324,0.013523,0.002678,0.000431,0.204617
7472000,0.0324,0.013523,0.002678,0.000431,0.334603
7473000,0.0324,0.013523,0.002678,0.000431,0.344005
7474000,0.0324,0.013523,0.002678,0.000431,0.226242
7475000,0.0324,0.013523,0.002678,0.000431,0.143384
7476000,0.0324,0.013523,0.002678,0.000431,0.130926
7477000,0.0324,0.013523,0.002678,0.000431,0.119761
7478000,0.0324,0.013523,0.002678,0.000431,0.190396
7479000,0.0324,0.013523,0.002678,0.000431,0.261383
7480000,0.0324,0.013523,0.002678,0.000431,0.311802
7481000,0.0324,0.013523,0.002678,0.000431,0.168653
7482000,0.0324,0.013523,0.002678,0.000431,0.168065
7483000,0.0324,0.013523,0.002678,0.000431,0.059822
7484000,0.0324,0.013523,0.002678,0.000431,0.054651
7485000,0.0324,0.013523,0.002678,0.000431,0.155255
7486000,0.0324,0.013523,0.002678,0.000431,0.220600
7487000,0.0324,0.013523,0.002678,0.000431,0.375973
7488000,0.0324,0.013523,0.002678,0.000431,0.242578
7489000,0.0324,0.013523,0.002678,0.000431,0.115413
7490000,0.0324,0.013523,0.002678,0.000431,0.105423
7491000,0.0324,0.013523,0.002678,0.000431,0.273135
7492000,0.0324,0.013523,0.002678,0.000431,0.121407
7493000,0.0324,0.013523,0.002678,0.000431,0.143619
7494000,0.0324,0.013523,0.002678,0.000431,0.094963
7495000,0.0324,0.013523,0.002678,0.000431,0.216487
7496000,0.0324,0.013523,0.002678,0.000431,0.155607
7497000,0.0324,0.013523,0.002678,0.000431,0.108243
7498000,0.0324,0.013523,0.002678,0.000431,0.336601
7499000,0.0324,0.013523,0.002678,0.000431,0.329196
7500000,0.0324,0.013523,0.002678,0.000431,0.175587
7501000,0.0324,0.013523,0.002678,0.000431,0.220130
7502000,0.0324,0.013523,0.002678,0.000431,0.255154
7503000,0.0324,0.013523,0.002678,0.000431,0.174177
7504000,0.0324,0.013523,0.002678,0.000431,0.152552
7505000,0.0324,0.013523,0.002678,0.000431,0.152434
7506000,0.0324,0.013523,0.002678,0.000431,0.152787
7507000,0.0324,0.013523,0.002678,0.000431,0.108243
7508000,0.0324,0.013523,0.002678,0.000431,0.331547
7509000,0.0324,0.013523,0.002678,0.000431,0.424629
7510000,0.0324,0.013523,0.002678,0.000431,0.128811
7511000,0.0324,0.013523,0.002678,0.000431,0.232588
7512000,0.0324,0.013523,0.002678,0.000431,0.180288
7513000,0.0324,0.013523,0.002678,0.000431,0.068872
7514000,0.0324,0.013523,0.002678,0.000431,0.128223
7515000,0.0324,0.013523,0.002678,0.000431,0.156665
7516000,0.0324,0.013523,0.002678,0.000431,0.112004
7517000,0.0324,0.013523,0.002678,0.000431,0.106010
7518000,0.0324,0.013523,0.002678,0.000431,0.193099
7519000,0.0324,0.013523,0.002678,0.000431,0.202854
7520000,0.0324,0.013523,0.002678,0.000431,0.093670
7521000,0.0324,0.013523,0.002678,0.000431,0.108949
7522000,0.0324,0.013523,0.002678,0.000431,0.121524
7523000,0.0324,0.013523,0.002678,0.000431,0.074043
7524000,0.0324,0.013523,0.002678,0.000431,0.079567
7525000,0.0324,0.013523,0.002678,0.000431,0.298874
7526000,0.0324,0.013523,0.002678,0.000431,0.193216
7527000,0.0324,0.013523,0.002678,0.000431,0.155255
7528000,0.0324,0.013523,0.002678,0.000431,0.198505
7529000,0.0324,0.013523,0.002678,0.000431,0.158898
7530000,0.0324,0.013523,0.002678,0.000431,0.147968
7531000,0.0324,0.013523,0.002678,0.000431,0.254331
7532000,0.0324,0.013523,0.002678,0.000431,0.152552
7533000,0.0324,0.013523,0.002678,0.000431,0.071810
7534000,0.0324,0.013523,0.002678,0.000431,0.199563
7535000,0.0324,0.013523,0.002678,0.000431,0.204734
7536000,0.0324,0.013523,0.002678,0.000431,0.233881
7537000,0.0324,0.013523,0.002678,0.000431,0.086971
7538000,0.0324,0.013523,0.002678,0.000431,0.154079
7539000,0.0324,0.013523,0.002678,0.000431,0.065581
7540000,0.0324,0.013523,0.002678,0.000431,0.197565
7541000,0.0324,0.013523,0.002678,0.000431,0.185224
7542000,0.0324,0.013523,0.002678,0.000431,0.065346
7543000,0.0324,0.013523,0.002678,0.000431,0.162306
7544000,0.0324,0.013523,0.002678,0.000431,0.138801
7545000,0.0324,0.013523,0.002678,0.000431,0.299932
7546000,0.0324,0.013523,0.002678,0.000431,0.170416
7547000,0.0324,0.013523,0.002678,0.000431,0.126108
7548000,0.0324,0.013523,0.002678,0.000431,0.123640
7549000,0.0324,0.013523,0.002678,0.000431,0.151729
7550000,0.0324,0.013523,0.002678,0.000431,0.243283
7551000,0.0324,0.013523,0.002678,0.000431,0.227417
7552000,0.0324,0.013523,0.002678,0.000431,0.116353
7553000,0.0324,0.013523,0.002678,0.000431,0.171826
7554000,0.0324,0.013523,0.002678,0.000431,0.167595
7555000,0.0324,0.013523,0.002678,0.000431,0.068989
7556000,0.0324,0.013523,0.002678,0.000431,0.095668
7557000,0.0324,0.013523,0.002678,0.000431,0.108714
7558000,0.0324,0.013523,0.002678,0.000431,0.097666
7559000,0.0324,0.013523,0.002678,0.000431,0.104718
7560000,0.0324,0.013523,0.002678,0.000431,0.397363
7561000,0.0324,0.013523,0.002678,0.000431,0.111534
7562000,0.0324,0.013523,0.002678,0.000431,0.124580
7563000,0.0324,0.013523,0.002678,0.000431,0.112357
7564000,0.0324,0.013523,0.002678,0.000431,0.117176
7565000,0.0324,0.013523,0.002678,0.000431,0.188163
7566000,0.0324,0.013523,0.002678,0.000431,0.086736
7567000,0.0324,0.013523,0.002678,0.000431,0.157253
7568000,0.0324,0.013523,0.002678,0.000431,0.066168
7569000,0.0324,0.013523,0.002678,0.000431,0.174294
7570000,0.0324,0.013523,0.002678,0.000431,0.177703
7571000,0.0324,0.013523,0.002678,0.000431,0.178173
7572000,0.0324,0.013523,0.002678,0.000431,0.076041
7573000,0.0324,0.013523,0.002678,0.000431,0.072515
7574000,0.0324,0.013523,0.002678,0.000431,0.131161
7575000,0.0324,0.013523,0.002678,0.000431,0.464941
7576000,0.0324,0.013523,0.002678,0.000431,0.131397
7577000,0.0324,0.013523,0.002678,0.000431,0.094963
7578000,0.0324,0.013523,0.002678,0.000431,0.069107
7579000,0.0324,0.013523,0.002678,0.000431,0.095550
7580000,0.0324,0.013523,0.002678,0.000431,0.088851
7581000,0.0324,0.013523,0.002678,0.000431,0.304163
7582000,0.0324,0.013523,0.002678,0.000431,0.214254
7583000,0.0324,0.013523,0.002678,0.000431,0.313800
7584000,0.0324,0.013523,0.002678,0.000431,0.171944
7585000,0.0324,0.013523,0.002678,0.000431,0.144912
7586000,0.0324,0.013523,0.002678,0.000431,0.109536
7587000,0.0324,0.013523,0.002678,0.000431,0.131279
7588000,0.0324,0.013523,0.002678,0.000431,0.257974
7589000,0.0324,0.013523,0.002678,0.000431,0.181464
7590000,0.0324,0.013523,0.002678,0.000431,0.168770
7591000,0.0324,0.013523,0.002678,0.000431,0.114708
7592000,0.0324,0.013523,0.002678,0.000431,0.253156
7593000,0.0324,0.013523,0.002678,0.000431,0.089086
7594000,0.0324,0.013523,0.002678,0.000431,0.219778
7595000,0.0324,0.013523,0.002678,0.000431,0.147850
7596000,0.0324,0.013523,0.002678,0.000431,0.156783
7597000,0.0324,0.013523,0.002678,0.000431,0.272195
7598000,0.0324,0.013523,0.002678,0.000431,0.063818
7599000,0.0324,0.013523,0.002678,0.000431,0.222363
7600000,0.0324,0.013523,0.002678,0.000431,0.076981
7601000,0.0324,0.013523,0.002678,0.000431,0.153022
7602000,0.0324,0.013523,0.002678,0.000431,0.188398
7603000,0.0324,0.013523,0.002678,0.000431,0.284653
7604000,0.0324,0.013523,0.002678,0.000431,0.206144
7605000,0.0324,0.013523,0.002678,0.000431,0.202501
7606000,0.0324,0.013523,0.002678,0.000431,0.080037
7607000,0.0324,0.013523,0.002678,0.000431,0.207320
7608000,0.0324,0.013523,0.002678,0.000431,0.227182
7609000,0.0324,0.013523,0.002678,0.000431,0.083563
7610000,0.0324,0.013523,0.002678,0.000431,0.163952
7611000,0.0324,0.013523,0.002678,0.000431,0.135040
7612000,0.0324,0.013523,0.002678,0.000431,0.089792
7613000,0.0324,0.013523,0.002678,0.000431,0.142327
7614000,0.0324,0.013523,0.002678,0.000431,0.173707
7615000,0.0324,0.013523,0.002678,0.000431,0.188633
7616000,0.0324,0.013523,0.002678,0.000431,0.268552
7617000,0.0324,0.013523,0.002678,0.000431,0.265496
7618000,0.0324,0.013523,0.002678,0.000431,0.189103
7619000,0.0324,0.013523,0.002678,0.000431,0.097196
7620000,0.0324,0.013523,0.002678,0.000431,0.155020
7621000,0.0324,0.013523,0.002678,0.000431,0.183461
7622000,0.0324,0.013523,0.002678,0.000431,0.114590
7623000,0.0324,0.013523,0.002678,0.000431,0.084150
7624000,0.0324,0.013523,0.002678,0.000431,0.068989
7625000,0.0324,0.013523,0.002678,0.000431,0.067931
7626000,0.0324,0.013523,0.002678,0.000431,0.220600
7627000,0.0324,0.013523,0.002678,0.000431,0.311920
7628000,0.0324,0.013523,0.002678,0.000431,0.116118
7629000,0.0324,0.013523,0.002678,0.000431,0.212373
7630000,0.0324,0.013523,0.002678,0.000431,0.133982
7631000,0.0324,0.013523,0.002678,0.000431,0.184637
7632000,0.0324,0.013523,0.002678,0.000431,0.121407
7633000,0.0324,0.013523,0.002678,0.000431,0.148438
7634000,0.0324,0.013523,0.002678,0.000431,0.182169
7635000,0.0324,0.013523,0.002678,0.000431,0.096373
7636000,0.0324,0.013523,0.002678,0.000431,0.139623
7637000,0.0324,0.013523,0.002678,0.000431,0.072397
7638000,0.0324,0.013523,0.002678,0.000431,0.152552
7639000,0.0324,0.013523,0.002678,0.000431,0.211316
7640000,0.0324,0.013523,0.002678,0.000431,0.227064
7641000,0.0324,0.013523,0.002678,0.000431,0.092377
7642000,0.0324,0.013523,0.002678,0.000431,0.050302
7643000,0.0324,0.013523,0.002678,0.000431,0.108361
7644000,0.0324,0.013523,0.002678,0.000431,0.205557
7645000,0.0324,0.013523,0.002678,0.000431,0.249630
7646000,0.0324,0.013523,0.002678,0.000431,0.212491
7647000,0.0324,0.013523,0.002678,0.000431,0.166890
7648000,0.0324,0.013523,0.002678,0.000431,0.068754
7649000,0.0324,0.013523,0.002678,0.000431,0.114355
7650000,0.0324,0.013523,0.002678,0.000431,0.080507
7651000,0.0324,0.013523,0.002678,0.000431,0.062172
7652000,0.0324,0.013523,0.002678,0.000431,0.200973
7653000,0.0324,0.013523,0.002678,0.000431,0.106598
7654000,0.0324,0.013523,0.002678,0.000431,0.068519
7655000,0.0324,0.013523,0.002678,0.000431,0.223421
7656000,0.0324,0.013523,0.002678,0.000431,0.114472
7657000,0.0324,0.013523,0.002678,0.000431,0.230003
7658000,0.0324,0.013523,0.002678,0.000431,0.216134
7659000,0.0324,0.013523,0.002678,0.000431,0.169358
7660000,0.0324,0.013523,0.002678,0.000431,0.074513
7661000,0.0324,0.013523,0.002678,0.000431,0.088851
7662000,0.0324,0.013523,0.002678,0.000431,0.068519
7663000,0.0324,0.013523,0.002678,0.000431,0.139153
7664000,0.0324,0.013523,0.002678,0.000431,0.115883
7665000,0.0324,0.013523,0.002678,0.000431,0.140329
7666000,0.0324,0.013523,0.002678,0.000431,0.140564
7667000,0.0324,0.013523,0.002678,0.000431,0.057824
7668000,0.0324,0.013523,0.002678,0.000431,0.166890
7669000,0.0324,0.013523,0.002678,0.000431,0.357873
7670000,0.0324,0.013523,0.002678,0.000431,0.218955
7671000,0.0324,0.013523,0.002678,0.000431,0.247162
7672000,0.0324,0.013523,0.002678,0.000431,0.330372
7673000,0.0324,0.013523,0.002678,0.000431,0.058176
7674000,0.0324,0.013523,0.002678,0.000431,0.195449
7675000,0.0324,0.013523,0.002678,0.000431,0.122934
7676000,0.0324,0.013523,0.002678,0.000431,0.238700
7677000,0.0324,0.013523,0.002678,0.000431,0.095315
7678000,0.0324,0.013523,0.002678,0.000431,0.215899
7679000,0.0324,0.013523,0.002678,0.000431,0.254566
7680000,0.0324,0.013523,0.002678,0.000431,0.073455
7681000,0.0324,0.013523,0.002678,0.000431,0.200033
7682000,0.0324,0.013523,0.002678,0.000431,0.083445
7683000,0.0324,0.013523,0.002678,0.000431,0.098959
7684000,0.0324,0.013523,0.002678,0.000431,0.246692
7685000,0.0324,0.013523,0.002678,0.000431,0.316503
7686000,0.0324,0.013523,0.002678,0.000431,0.049949
7687000,0.0324,0.013523,0.002678,0.000431,0.190983
7688000,0.0324,0.013523,0.002678,0.000431,0.054416
7689000,0.0324,0.013523,0.002678,0.000431,0.086383
7690000,0.0324,0.013523,0.002678,0.000431,0.201443
7691000,0.0324,0.013523,0.002678,0.000431,0.131867
7692000,0.0324,0.013523,0.002678,0.000431,0.043720
7693000,0.0324,0.013523,0.002678,0.000431,0.137508
7694000,0.0324,0.013523,0.002678,0.000431,0.186400
7695000,0.0324,0.013523,0.002678,0.000431,0.067579
7696000,0.0324,0.013523,0.002678,0.000431,0.106716
7697000,0.0324,0.013523,0.002678,0.000431,0.183579
7698000,0.0324,0.013523,0.002678,0.000431,0.232471
7699000,0.0324,0.013523,0.002678,0.000431,0.065816
7700000,0.0324,0.013523,0.002678,0.000431,0.178760
7701000,0.0324,0.013523,0.002678,0.000431,0.109066
7702000,0.0324,0.013523,0.002678,0.000431,0.102837
7703000,0.0324,0.013523,0.002678,0.000431,0.152904
7704000,0.0324,0.013523,0.002678,0.000431,0.241638
7705000,0.0324,0.013523,0.002678,0.000431,0.091672
7706000,0.0324,0.013523,0.002678,0.000431,0.192511
7707000,0.0324,0.013523,0.002678,0.000431,0.274781
7708000,0.0324,0.013523,0.002678,0.000431,0.244929
7709000,0.0324,0.013523,0.002678,0.000431,0.099899
7710000,0.0324,0.013523,0.002678,0.000431,0.132924
7711000,0.0324,0.013523,0.002678,0.000431,0.156783
7712000,0.0324,0.013523,0.002678,0.000431,0.097431
7713000,0.0324,0.013523,0.002678,0.000431,0.121759
7714000,0.0324,0.013523,0.002678,0.000431,0.149731
7715000,0.0324,0.013523,0.002678,0.000431,0.083680
7716000,0.0324,0.013523,0.002678,0.000431,0.136685
7717000,0.0324,0.013523,0.002678,0.000431,0.112357
7718000,0.0324,0.013523,0.002678,0.000431,0.054651
7719000,0.0324,0.013523,0.002678,0.000431,0.087911
7720000,0.0324,0.013523,0.002678,0.000431,0.192981
7721000,0.0324,0.013523,0.002678,0.000431,0.057589
7722000,0.0324,0.013523,0.002678,0.000431,0.057824
7723000,0.0324,0.013523,0.002678,0.000431,0.140329
7724000,0.0324,0.013523,0.002678,0.000431,0.042663
7725000,0.0324,0.013523,0.002678,0.000431,0.112945
7726000,0.0324,0.013523,0.002678,0.000431,0.250688
7727000,0.0324,0.013523,0.002678,0.000431,0.232353
7728000,0.0324,0.013523,0.002678,0.000431,0.067344
7729000,0.0324,0.013523,0.002678,0.000431,0.244811
7730000,0.0324,0.013523,0.002678,0.000431,0.085678
7731000,0.0324,0.013523,0.002678,0.000431,0.048069
7732000,0.0324,0.013523,0.002678,0.000431,0.161836
7733000,0.0324,0.013523,0.002678,0.000431,0.087676
7734000,0.0324,0.013523,0.002678,0.000431,0.051712
7735000,0.0324,0.013523,0.002678,0.000431,0.075218
7736000,0.0324,0.013523,0.002678,0.000431,0.213431
7737000,0.0324,0.013523,0.002678,0.000431,0.113415
7738000,0.0324,0.013523,0.002678,0.000431,0.100134
7739000,0.0324,0.013523,0.002678,0.000431,0.257974
7740000,0.0324,0.013523,0.002678,0.000431,0.074865
7741000,0.0324,0.013523,0.002678,0.000431,0.098254
7742000,0.0324,0.013523,0.002678,0.000431,0.309804
7743000,0.0324,0.013523,0.002678,0.000431,0.081094
7744000,0.0324,0.013523,0.002678,0.000431,0.062407
7745000,0.0324,0.013523,0.002678,0.000431,0.223891
7746000,0.0324,0.013523,0.002678,0.000431,0.081094
7747000,0.0324,0.013523,0.002678,0.000431,0.069107
7748000,0.0324,0.013523,0.002678,0.000431,0.059587
7749000,0.0324,0.013523,0.002678,0.000431,0.141386
7750000,0.0324,0.013523,0.002678,0.000431,0.069929
7751000,0.0324,0.013523,0.002678,0.000431,0.156430
7752000,0.0324,0.013523,0.002678,0.000431,0.216369
7753000,0.0324,0.013523,0.002678,0.000431,0.051360
7754000,0.0324,0.013523,0.002678,0.000431,0.160779
7755000,0.0324,0.013523,0.002678,0.000431,0.178760
7756000,0.0324,0.013523,0.002678,0.000431,0.156900
7757000,0.0324,0.013523,0.002678,0.000431,0.100604
7758000,0.0324,0.013523,0.002678,0.000431,0.136920
7759000,0.0324,0.013523,0.002678,0.000431,0.211786
7760000,0.0324,0.013523,0.002678,0.000431,0.080037
7761000,0.0324,0.013523,0.002678,0.000431,0.068872
7762000,0.0324,0.013523,0.002678,0.000431,0.156312
7763000,0.0324,0.013523,0.002678,0.000431,0.092495
7764000,0.0324,0.013523,0.002678,0.000431,0.104365
7765000,0.0324,0.013523,0.002678,0.000431,0.101662
7766000,0.0324,0.013523,0.002678,0.000431,0.070047
7767000,0.0324,0.013523,0.002678,0.000431,0.045718
7768000,0.0324,0.013523,0.002678,0.000431,0.113767
7769000,0.0324,0.013523,0.002678,0.000431,0.140329
7770000,0.0324,0.013523,0.002678,0.000431,0.108243
7771000,0.0324,0.013523,0.002678,0.000431,0.321087
7772000,0.0324,0.013523,0.002678,0.000431,0.073573
7773000,0.0324,0.013523,0.002678,0.000431,0.120466
7774000,0.0324,0.013523,0.002678,0.000431,0.081447
7775000,0.0324,0.013523,0.002678,0.000431,0.201443
7776000,0.0324,0.013523,0.002678,0.000431,0.134687
7777000,0.0324,0.013523,0.002678,0.000431,0.069577
7778000,0.0324,0.013523,0.002678,0.000431,0.062643
7779000,0.0324,0.013523,0.002678,0.000431,0.066168
7780000,0.0324,0.013523,0.002678,0.000431,0.070164
7781000,0.0324,0.013523,0.002678,0.000431,0.247867
7782000,0.0324,0.013523,0.002678,0.000431,0.091907
7783000,0.0324,0.013523,0.002678,0.000431,0.087088
7784000,0.0324,0.013523,0.002678,0.000431,0.196860
7785000,0.0324,0.013523,0.002678,0.000431,0.049949
7786000,0.0324,0.013523,0.002678,0.000431,0.125638
7787000,0.0324,0.013523,0.002678,0.000431,0.099194
7788000,0.0324,0.013523,0.002678,0.000431,0.087794
7789000,0.0324,0.013523,0.002678,0.000431,0.061232
7790000,0.0324,0.013523,0.002678,0.000431,0.152434
7791000,0.0324,0.013523,0.002678,0.000431,0.107773
7792000,0.0324,0.013523,0.002678,0.000431,0.094140
7793000,0.0324,0.013523,0.002678,0.000431,0.129986
7794000,0.0324,0.013523,0.002678,0.000431,0.153139
7795000,0.0324,0.013523,0.002678,0.000431,0.113650
7796000,0.0324,0.013523,0.002678,0.000431,0.057119
7797000,0.0324,0.013523,0.002678,0.000431,0.081800
7798000,0.0324,0.013523,0.002678,0.000431,0.058999
7799000,0.0324,0.013523,0.002678,0.000431,0.109889
7800000,0.0324,0.013523,0.002678,0.000431,0.087911
7801000,0.0324,0.013523,0.002678,0.000431,0.110359
7802000,0.0324,0.013523,0.002678,0.000431,0.144090
7803000,0.0324,0.013523,0.002678,0.000431,0.187928
7804000,0.0324,0.013523,0.002678,0.000431,0.068284
7805000,0.0324,0.013523,0.002678,0.000431,0.042898
7806000,0.0324,0.013523,0.002678,0.000431,0.160073
7807000,0.0324,0.013523,0.002678,0.000431,0.099899
7808000,0.0324,0.013523,0.002678,0.000431,0.133277
7809000,0.0324,0.013523,0.002678,0.000431,0.090614
7810000,0.0324,0.013523,0.002678,0.000431,0.142444
7811000,0.0324,0.013523,0.002678,0.000431,0.065228
7812000,0.0324,0.013523,0.002678,0.000431,0.046776
7813000,0.0324,0.013523,0.002678,0.000431,0.079449
7814000,0.0324,0.013523,0.002678,0.000431,0.113650
7815000,0.0324,0.013523,0.002678,0.000431,0.089321
7816000,0.0324,0.013523,0.002678,0.000431,0.114472
7817000,0.0324,0.013523,0.002678,0.000431,0.062760
7818000,0.0324,0.013523,0.002678,0.000431,0.047481
7819000,0.0324,0.013523,0.002678,0.000431,0.100839
7820000,0.0324,0.013523,0.002678,0.000431,0.052535
7821000,0.0324,0.013523,0.002678,0.000431,0.098254
7822000,0.0324,0.013523,0.002678,0.000431,0.135275
7823000,0.0324,0.013523,0.002678,0.000431,0.099546
7824000,0.0324,0.013523,0.002678,0.000431,0.082740
7825000,0.0324,0.013523,0.002678,0.000431,0.038784
7826000,0.0324,0.013523,0.002678,0.000431,0.050537
7827000,0.0324,0.013523,0.002678,0.000431,0.079449
7828000,0.0324,0.013523,0.002678,0.000431,0.105658
7829000,0.0324,0.013523,0.002678,0.000431,0.148438
7830000,0.0324,0.013523,0.002678,0.000431,0.101897
7831000,0.0324,0.013523,0.002678,0.000431,0.054416
7832000,0.0324,0.013523,0.002678,0.000431,0.153022
7833000,0.0324,0.013523,0.002678,0.000431,0.141504
7834000,0.0324,0.013523,0.002678,0.000431,0.203206
7835000,0.0324,0.013523,0.002678,0.000431,0.101309
7836000,0.0324,0.013523,0.002678,0.000431,0.129399
7837000,0.0324,0.013523,0.002678,0.000431,0.053358
7838000,0.0324,0.013523,0.002678,0.000431,0.097666
7839000,0.0324,0.013523,0.002678,0.000431,0.143619
7840000,0.0324,0.013523,0.002678,0.000431,0.098724
7841000,0.0324,0.013523,0.002678,0.000431,0.054180
7842000,0.0324,0.013523,0.002678,0.000431,0.075923
7843000,0.0324,0.013523,0.002678,0.000431,0.055238
7844000,0.0324,0.013523,0.002678,0.000431,0.071810
7845000,0.0324,0.013523,0.002678,0.000431,0.137390
7846000,0.0324,0.013523,0.002678,0.000431,0.180758
7847000,0.0324,0.013523,0.002678,0.000431,0.061350
7848000,0.0324,0.013523,0.002678,0.000431,0.123640
7849000,0.0324,0.013523,0.002678,0.000431,0.114237
7850000,0.0324,0.013523,0.002678,0.000431,0.116353
7851000,0.0324,0.013523,0.002678,0.000431,0.179936
7852000,0.0324,0.013523,0.002678,0.000431,0.066521
7853000,0.0324,0.013523,0.002678,0.000431,0.050772
7854000,0.0324,0.013523,0.002678,0.000431,0.052300
7855000,0.0324,0.013523,0.002678,0.000431,0.250570
7856000,0.0324,0.013523,0.002678,0.000431,0.069929
7857000,0.0324,0.013523,0.002678,0.000431,0.047834
7858000,0.0324,0.013523,0.002678,0.000431,0.158546
7859000,0.0324,0.013523,0.002678,0.000431,0.120114
7860000,0.0324,0.013523,0.002678,0.000431,0.089674
7861000,0.0324,0.013523,0.002678,0.000431,0.087911
7862000,0.0324,0.013523,0.002678,0.000431,0.068989
7863000,0.0324,0.013523,0.002678,0.000431,0.076276
7864000,0.0324,0.013523,0.002678,0.000431,0.046894
7865000,0.0324,0.013523,0.002678,0.000431,0.168888
7866000,0.0324,0.013523,0.002678,0.000431,0.203089
7867000,0.0324,0.013523,0.002678,0.000431,0.037609
7868000,0.0324,0.013523,0.002678,0.000431,0.120349
7869000,0.0324,0.013523,0.002678,0.000431,0.046189
7870000,0.0324,0.013523,0.002678,0.000431,0.087676
7871000,0.0324,0.013523,0.002678,0.000431,0.146323
7872000,0.0324,0.013523,0.002678,0.000431,0.042898
7873000,0.0324,0.013523,0.002678,0.000431,0.074043
7874000,0.0324,0.013523,0.002678,0.000431,0.128811
7875000,0.0324,0.013523,0.002678,0.000431,0.066521
7876000,0.0324,0.013523,0.002678,0.000431,0.051477
7877000,0.0324,0.013523,0.002678,0.000431,0.098489
7878000,0.0324,0.013523,0.002678,0.000431,0.075101
7879000,0.0324,0.013523,0.002678,0.000431,0.117411
7880000,0.0324,0.013523,0.002678,0.000431,0.102132
7881000,0.0324,0.013523,0.002678,0.000431,0.178760
7882000,0.0324,0.013523,0.002678,0.000431,0.064993
7883000,0.0324,0.013523,0.002678,0.000431,0.105188
7884000,0.0324,0.013523,0.002678,0.000431,0.134100
7885000,0.0324,0.013523,0.002678,0.000431,0.059822
7886000,0.0324,0.013523,0.002678,0.000431,0.079214
7887000,0.0324,0.013523,0.002678,0.000431,0.210258
7888000,0.0324,0.013523,0.002678,0.000431,0.049714
7889000,0.0324,0.013523,0.002678,0.000431,0.051595
7890000,0.0324,0.013523,0.002678,0.000431,0.092260
7891000,0.0324,0.013523,0.002678,0.000431,0.078039
7892000,0.0324,0.013523,0.002678,0.000431,0.109771
7893000,0.0324,0.013523,0.002678,0.000431,0.091907
7894000,0.0324,0.013523,0.002678,0.000431,0.072750
7895000,0.0324,0.013523,0.002678,0.000431,0.105775
7896000,0.0324,0.013523,0.002678,0.000431,0.210846
7897000,0.0324,0.013523,0.002678,0.000431,0.081094
7898000,0.0324,0.013523,0.002678,0.000431,0.099076
7899000,0.0324,0.013523,0.002678,0.000431,0.072750
7900000,0.0324,0.013523,0.002678,0.000431,0.119174
7901000,0.0324,0.013523,0.002678,0.000431,0.112239
7902000,0.0324,0.013523,0.002678,0.000431,0.084268
7903000,0.0324,0.013523,0.002678,0.000431,0.057236
7904000,0.0324,0.013523,0.002678,0.000431,0.084033
7905000,0.0324,0.013523,0.002678,0.000431,0.179818
7906000,0.0324,0.013523,0.002678,0.000431,0.059822
7907000,0.0324,0.013523,0.002678,0.000431,0.093200
7908000,0.0324,0.013523,0.002678,0.000431,0.080272
7909000,0.0324,0.013523,0.002678,0.000431,0.096608
7910000,0.0324,0.013523,0.002678,0.000431,0.128106
7911000,0.0324,0.013523,0.002678,0.000431,0.246809
7912000,0.0324,0.013523,0.002678,0.000431,0.139976
7913000,0.0324,0.013523,0.002678,0.000431,0.116470
7914000,0.0324,0.013523,0.002678,0.000431,0.071105
7915000,0.0324,0.013523,0.002678,0.000431,0.076393
7916000,0.0324,0.013523,0.002678,0.000431,0.107773
7917000,0.0324,0.013523,0.002678,0.000431,0.077686
7918000,0.0324,0.013523,0.002678,0.000431,0.096373
7919000,0.0324,0.013523,0.002678,0.000431,0.101544
7920000,0.0324,0.013523,0.002678,0.000431,0.074983
7921000,0.0324,0.013523,0.002678,0.000431,0.070399
7922000,0.0324,0.013523,0.002678,0.000431,0.133042
7923000,0.0324,0.013523,0.002678,0.000431,0.103307
7924000,0.0324,0.013523,0.002678,0.000431,0.087441
7925000,0.0324,0.013523,0.002678,0.000431,0.082975
7926000,0.0324,0.013523,0.002678,0.000431,0.092377
7927000,0.0324,0.013523,0.002678,0.000431,0.169828
7928000,0.0324,0.013523,0.002678,0.000431,0.075571
7929000,0.0324,0.013523,0.002678,0.000431,0.067696
7930000,0.0324,0.013523,0.002678,0.000431,0.111417
7931000,0.0324,0.013523,0.002678,0.000431,0.076511
7932000,0.0324,0.013523,0.002678,0.000431,0.086853
7933000,0.0324,0.013523,0.002678,0.000431,0.063935
7934000,0.0324,0.013523,0.002678,0.000431,0.047129
7935000,0.0324,0.013523,0.002678,0.000431,0.047716
7936000,0.0324,0.013523,0.002678,0.000431,0.112710
7937000,0.0324,0.013523,0.002678,0.000431,0.125990
7938000,0.0324,0.013523,0.002678,0.000431,0.059469
7939000,0.0324,0.013523,0.002678,0.000431,0.061350
7940000,0.0324,0.013523,0.002678,0.000431,0.056061
7941000,0.0324,0.013523,0.002678,0.000431,0.040665
7942000,0.0324,0.013523,0.002678,0.000431,0.078979
7943000,0.0324,0.013523,0.002678,0.000431,0.107656
7944000,0.0324,0.013523,0.002678,0.000431,0.069694
7945000,0.0324,0.013523,0.002678,0.000431,0.110829
7946000,0.0324,0.013523,0.002678,0.000431,0.073925
7947000,0.0324,0.013523,0.002678,0.000431,0.105070
7948000,0.0324,0.013523,0.002678,0.000431,0.076863
7949000,0.0324,0.013523,0.002678,0.000431,0.080037
7950000,0.0324,0.013523,0.002678,0.000431,0.078039
7951000,0.0324,0.013523,0.002678,0.000431,0.065346
7952000,0.0324,0.013523,0.002678,0.000431,0.064993
7953000,0.0324,0.013523,0.002678,0.000431,0.064758
7954000,0.0324,0.013523,0.002678,0.000431,0.050655
7955000,0.0324,0.013523,0.002678,0.000431,0.072632
7956000,0.0324,0.013523,0.002678,0.000431,0.105305
7957000,0.0324,0.013523,0.002678,0.000431,0.070634
7958000,0.0324,0.013523,0.002678,0.000431,0.050772
7959000,0.0324,0.013523,0.002678,0.000431,0.081800
7960000,0.0324,0.013523,0.002678,0.000431,0.036081
7961000,0.0324,0.013523,0.002678,0.000431,0.081094
7962000,0.0324,0.013523,0.002678,0.000431,0.110947
7963000,0.0324,0.013523,0.002678,0.000431,0.101662
7964000,0.0324,0.013523,0.002678,0.000431,0.074513
7965000,0.0324,0.013523,0.002678,0.000431,0.084855
7966000,0.0324,0.013523,0.002678,0.000431,0.066168
7967000,0.0324,0.013523,0.002678,0.000431,0.037491
7968000,0.0324,0.013523,0.002678,0.000431,0.128928
7969000,0.0324,0.013523,0.002678,0.000431,0.159956
7970000,0.0324,0.013523,0.002678,0.000431,0.067109
7971000,0.0324,0.013523,0.002678,0.000431,0.064876
7972000,0.0324,0.013523,0.002678,0.000431,0.061820
7973000,0.0324,0.013523,0.002678,0.000431,0.064523
7974000,0.0324,0.013523,0.002678,0.000431,0.070517
7975000,0.0324,0.013523,0.002678,0.000431,0.054768
7976000,0.0324,0.013523,0.002678,0.000431,0.069342
7977000,0.0324,0.013523,0.002678,0.000431,0.064053
7978000,0.0324,0.013523,0.002678,0.000431,0.038902
7979000,0.0324,0.013523,0.002678,0.000431,0.065581
7980000,0.0324,0.013523,0.002678,0.000431,0.058764
7981000,0.0324,0.013523,0.002678,0.000431,0.066521
7982000,0.0324,0.013523,0.002678,0.000431,0.188398
7983000,0.0324,0.013523,0.002678,0.000431,0.065111
7984000,0.0324,0.013523,0.002678,0.000431,0.095785
7985000,0.0324,0.013523,0.002678,0.000431,0.051595
7986000,0.0324,0.013523,0.002678,0.000431,0.038784
7987000,0.0324,0.013523,0.002678,0.000431,0.063583
7988000,0.0324,0.013523,0.002678,0.000431,0.087206
7989000,0.0324,0.013523,0.002678,0.000431,0.075923
7990000,0.0324,0.013523,0.002678,0.000431,0.214019
7991000,0.0324,0.013523,0.002678,0.000431,0.057236
7992000,0.0324,0.013523,0.002678,0.000431,0.069694
7993000,0.0324,0.013523,0.002678,0.000431,0.035141
7994000,0.0324,0.013523,0.002678,0.000431,0.058059
7995000,0.0324,0.013523,0.002678,0.000431,0.149261
7996000,0.0324,0.013523,0.002678,0.000431,0.059117
7997000,0.0324,0.013523,0.002678,0.000431,0.065463
7998000,0.0324,0.013523,0.002678,0.000431,0.072515
7999000,0.0324,0.013523,0.002678,0.000431,0.046071
