Cycle,Area(mm^2),PeakDynamic(W),SubthresholdLeakage(W),GateLeakage(W),RunTimeDynamic(W)
19000000,0.0324,0.013523,0.002678,0.000431,0.127401
19001000,0.0324,0.013523,0.002678,0.000431,0.154079
19002000,0.0324,0.013523,0.002678,0.000431,0.115765
19003000,0.0324,0.013523,0.002678,0.000431,0.151611
19004000,0.0324,0.013523,0.002678,0.000431,0.115648
19005000,0.0324,0.013523,0.002678,0.000431,0.149613
19006000,0.0324,0.013523,0.002678,0.000431,0.114237
19007000,0.0324,0.013523,0.002678,0.000431,0.075453
19008000,0.0324,0.013523,0.002678,0.000431,0.076393
19009000,0.0324,0.013523,0.002678,0.000431,0.062055
19010000,0.0324,0.013523,0.002678,0.000431,0.273488
19011000,0.0324,0.013523,0.002678,0.000431,0.091084
19012000,0.0324,0.013523,0.002678,0.000431,0.288297
19013000,0.0324,0.013523,0.002678,0.000431,0.225889
19014000,0.0324,0.013523,0.002678,0.000431,0.107068
19015000,0.0324,0.013523,0.002678,0.000431,0.173472
19016000,0.0324,0.013523,0.002678,0.000431,0.104247
19017000,0.0324,0.013523,0.002678,0.000431,0.094023
19018000,0.0324,0.013523,0.002678,0.000431,0.072867
19019000,0.0324,0.013523,0.002678,0.000431,0.147968
19020000,0.0324,0.013523,0.002678,0.000431,0.183226
19021000,0.0324,0.013523,0.002678,0.000431,0.204969
19022000,0.0324,0.013523,0.002678,0.000431,0.094963
19023000,0.0324,0.013523,0.002678,0.000431,0.246574
19024000,0.0324,0.013523,0.002678,0.000431,0.180876
19025000,0.0324,0.013523,0.002678,0.000431,0.196625
19026000,0.0324,0.013523,0.002678,0.000431,0.108479
19027000,0.0324,0.013523,0.002678,0.000431,0.137390
19028000,0.0324,0.013523,0.002678,0.000431,0.103895
19029000,0.0324,0.013523,0.002678,0.000431,0.230238
19030000,0.0324,0.013523,0.002678,0.000431,0.304633
19031000,0.0324,0.013523,0.002678,0.000431,0.248572
19032000,0.0324,0.013523,0.002678,0.000431,0.122582
19033000,0.0324,0.013523,0.002678,0.000431,0.197095
19034000,0.0324,0.013523,0.002678,0.000431,0.187810
19035000,0.0324,0.013523,0.002678,0.000431,0.098136
19036000,0.0324,0.013523,0.002678,0.000431,0.255389
19037000,0.0324,0.013523,0.002678,0.000431,0.111887
19038000,0.0324,0.013523,0.002678,0.000431,0.061585
19039000,0.0324,0.013523,0.002678,0.000431,0.114708
19040000,0.0324,0.013523,0.002678,0.000431,0.153139
19041000,0.0324,0.013523,0.002678,0.000431,0.068166
19042000,0.0324,0.013523,0.002678,0.000431,0.157723
19043000,0.0324,0.013523,0.002678,0.000431,0.173942
19044000,0.0324,0.013523,0.002678,0.000431,0.283125
19045000,0.0324,0.013523,0.002678,0.000431,0.297581
19046000,0.0324,0.013523,0.002678,0.000431,0.089792
19047000,0.0324,0.013523,0.002678,0.000431,0.102485
19048000,0.0324,0.013523,0.002678,0.000431,0.072515
19049000,0.0324,0.013523,0.002678,0.000431,0.146793
19050000,0.0324,0.013523,0.002678,0.000431,0.098959
19051000,0.0324,0.013523,0.002678,0.000431,0.083563
19052000,0.0324,0.013523,0.002678,0.000431,0.221188
19053000,0.0324,0.013523,0.002678,0.000431,0.154079
19054000,0.0324,0.013523,0.002678,0.000431,0.072750
19055000,0.0324,0.013523,0.002678,0.000431,0.289002
19056000,0.0324,0.013523,0.002678,0.000431,0.111652
19057000,0.0324,0.013523,0.002678,0.000431,0.167830
19058000,0.0324,0.013523,0.002678,0.000431,0.208260
19059000,0.0324,0.013523,0.002678,0.000431,0.172061
19060000,0.0324,0.013523,0.002678,0.000431,0.135392
19061000,0.0324,0.013523,0.002678,0.000431,0.109771
19062000,0.0324,0.013523,0.002678,0.000431,0.131397
19063000,0.0324,0.013523,0.002678,0.000431,0.199680
19064000,0.0324,0.013523,0.002678,0.000431,0.133159
19065000,0.0324,0.013523,0.002678,0.000431,0.225184
19066000,0.0324,0.013523,0.002678,0.000431,0.349646
19067000,0.0324,0.013523,0.002678,0.000431,0.109066
19068000,0.0324,0.013523,0.002678,0.000431,0.117763
19069000,0.0324,0.013523,0.002678,0.000431,0.247514
19070000,0.0324,0.013523,0.002678,0.000431,0.106481
19071000,0.0324,0.013523,0.002678,0.000431,0.151846
19072000,0.0324,0.013523,0.002678,0.000431,0.042193
19073000,0.0324,0.013523,0.002678,0.000431,0.227300
19074000,0.0324,0.013523,0.002678,0.000431,0.041958
19075000,0.0324,0.013523,0.002678,0.000431,0.096256
19076000,0.0324,0.013523,0.002678,0.000431,0.125285
19077000,0.0324,0.013523,0.002678,0.000431,0.145500
19078000,0.0324,0.013523,0.002678,0.000431,0.166185
19079000,0.0324,0.013523,0.002678,0.000431,0.162659
19080000,0.0324,0.013523,0.002678,0.000431,0.073338
19081000,0.0324,0.013523,0.002678,0.000431,0.139388
19082000,0.0324,0.013523,0.002678,0.000431,0.093317
19083000,0.0324,0.013523,0.002678,0.000431,0.145030
19084000,0.0324,0.013523,0.002678,0.000431,0.190983
19085000,0.0324,0.013523,0.002678,0.000431,0.110476
19086000,0.0324,0.013523,0.002678,0.000431,0.146323
19087000,0.0324,0.013523,0.002678,0.000431,0.140094
19088000,0.0324,0.013523,0.002678,0.000431,0.102014
19089000,0.0324,0.013523,0.002678,0.000431,0.217427
19090000,0.0324,0.013523,0.002678,0.000431,0.094610
19091000,0.0324,0.013523,0.002678,0.000431,0.193099
19092000,0.0324,0.013523,0.002678,0.000431,0.126225
19093000,0.0324,0.013523,0.002678,0.000431,0.096608
19094000,0.0324,0.013523,0.002678,0.000431,0.239170
19095000,0.0324,0.013523,0.002678,0.000431,0.238817
19096000,0.0324,0.013523,0.002678,0.000431,0.087794
19097000,0.0324,0.013523,0.002678,0.000431,0.114355
19098000,0.0324,0.013523,0.002678,0.000431,0.183461
19099000,0.0324,0.013523,0.002678,0.000431,0.125403
19100000,0.0324,0.013523,0.002678,0.000431,0.169241
19101000,0.0324,0.013523,0.002678,0.000431,0.081565
19102000,0.0324,0.013523,0.002678,0.000431,0.201326
19103000,0.0324,0.013523,0.002678,0.000431,0.195332
19104000,0.0324,0.013523,0.002678,0.000431,0.131632
19105000,0.0324,0.013523,0.002678,0.000431,0.219425
19106000,0.0324,0.013523,0.002678,0.000431,0.136920
19107000,0.0324,0.013523,0.002678,0.000431,0.148673
19108000,0.0324,0.013523,0.002678,0.000431,0.164892
19109000,0.0324,0.013523,0.002678,0.000431,0.139271
19110000,0.0324,0.013523,0.002678,0.000431,0.127518
19111000,0.0324,0.013523,0.002678,0.000431,0.164657
19112000,0.0324,0.013523,0.002678,0.000431,0.239170
19113000,0.0324,0.013523,0.002678,0.000431,0.165127
19114000,0.0324,0.013523,0.002678,0.000431,0.071340
19115000,0.0324,0.013523,0.002678,0.000431,0.134452
19116000,0.0324,0.013523,0.002678,0.000431,0.037021
19117000,0.0324,0.013523,0.002678,0.000431,0.155490
19118000,0.0324,0.013523,0.002678,0.000431,0.080859
19119000,0.0324,0.013523,0.002678,0.000431,0.098606
19120000,0.0324,0.013523,0.002678,0.000431,0.124932
19121000,0.0324,0.013523,0.002678,0.000431,0.195684
19122000,0.0324,0.013523,0.002678,0.000431,0.207907
19123000,0.0324,0.013523,0.002678,0.000431,0.108949
19124000,0.0324,0.013523,0.002678,0.000431,0.199328
19125000,0.0324,0.013523,0.002678,0.000431,0.239993
19126000,0.0324,0.013523,0.002678,0.000431,0.095080
19127000,0.0324,0.013523,0.002678,0.000431,0.168065
19128000,0.0324,0.013523,0.002678,0.000431,0.180993
19129000,0.0324,0.013523,0.002678,0.000431,0.105188
19130000,0.0324,0.013523,0.002678,0.000431,0.146910
19131000,0.0324,0.013523,0.002678,0.000431,0.062643
19132000,0.0324,0.013523,0.002678,0.000431,0.181111
19133000,0.0324,0.013523,0.002678,0.000431,0.168770
19134000,0.0324,0.013523,0.002678,0.000431,0.257739
19135000,0.0324,0.013523,0.002678,0.000431,0.307924
19136000,0.0324,0.013523,0.002678,0.000431,0.117763
19137000,0.0324,0.013523,0.002678,0.000431,0.147145
19138000,0.0324,0.013523,0.002678,0.000431,0.061467
19139000,0.0324,0.013523,0.002678,0.000431,0.102720
19140000,0.0324,0.013523,0.002678,0.000431,0.130809
19141000,0.0324,0.013523,0.002678,0.000431,0.314858
19142000,0.0324,0.013523,0.002678,0.000431,0.076041
19143000,0.0324,0.013523,0.002678,0.000431,0.106481
19144000,0.0324,0.013523,0.002678,0.000431,0.041135
19145000,0.0324,0.013523,0.002678,0.000431,0.157018
19146000,0.0324,0.013523,0.002678,0.000431,0.053828
19147000,0.0324,0.013523,0.002678,0.000431,0.264673
19148000,0.0324,0.013523,0.002678,0.000431,0.178173
19149000,0.0324,0.013523,0.002678,0.000431,0.133042
19150000,0.0324,0.013523,0.002678,0.000431,0.196272
19151000,0.0324,0.013523,0.002678,0.000431,0.118703
19152000,0.0324,0.013523,0.002678,0.000431,0.115413
19153000,0.0324,0.013523,0.002678,0.000431,0.075453
19154000,0.0324,0.013523,0.002678,0.000431,0.109301
19155000,0.0324,0.013523,0.002678,0.000431,0.121524
19156000,0.0324,0.013523,0.002678,0.000431,0.106245
19157000,0.0324,0.013523,0.002678,0.000431,0.272430
19158000,0.0324,0.013523,0.002678,0.000431,0.151494
19159000,0.0324,0.013523,0.002678,0.000431,0.278894
19160000,0.0324,0.013523,0.002678,0.000431,0.255036
19161000,0.0324,0.013523,0.002678,0.000431,0.099429
19162000,0.0324,0.013523,0.002678,0.000431,0.138918
19163000,0.0324,0.013523,0.002678,0.000431,0.168770
19164000,0.0324,0.013523,0.002678,0.000431,0.108831
19165000,0.0324,0.013523,0.002678,0.000431,0.158781
19166000,0.0324,0.013523,0.002678,0.000431,0.146440
19167000,0.0324,0.013523,0.002678,0.000431,0.240110
19168000,0.0324,0.013523,0.002678,0.000431,0.174177
19169000,0.0324,0.013523,0.002678,0.000431,0.099194
19170000,0.0324,0.013523,0.002678,0.000431,0.103777
19171000,0.0324,0.013523,0.002678,0.000431,0.269022
19172000,0.0324,0.013523,0.002678,0.000431,0.100957
19173000,0.0324,0.013523,0.002678,0.000431,0.188868
19174000,0.0324,0.013523,0.002678,0.000431,0.105540
19175000,0.0324,0.013523,0.002678,0.000431,0.194979
19176000,0.0324,0.013523,0.002678,0.000431,0.107891
19177000,0.0324,0.013523,0.002678,0.000431,0.119996
19178000,0.0324,0.013523,0.002678,0.000431,0.107068
19179000,0.0324,0.013523,0.002678,0.000431,0.246222
19180000,0.0324,0.013523,0.002678,0.000431,0.313095
19181000,0.0324,0.013523,0.002678,0.000431,0.068401
19182000,0.0324,0.013523,0.002678,0.000431,0.127048
19183000,0.0324,0.013523,0.002678,0.000431,0.196507
19184000,0.0324,0.013523,0.002678,0.000431,0.187457
19185000,0.0324,0.013523,0.002678,0.000431,0.094375
19186000,0.0324,0.013523,0.002678,0.000431,0.198740
19187000,0.0324,0.013523,0.002678,0.000431,0.200033
19188000,0.0324,0.013523,0.002678,0.000431,0.308982
19189000,0.0324,0.013523,0.002678,0.000431,0.075453
19190000,0.0324,0.013523,0.002678,0.000431,0.121642
19191000,0.0324,0.013523,0.002678,0.000431,0.106481
19192000,0.0324,0.013523,0.002678,0.000431,0.137038
19193000,0.0324,0.013523,0.002678,0.000431,0.104130
19194000,0.0324,0.013523,0.002678,0.000431,0.119056
19195000,0.0324,0.013523,0.002678,0.000431,0.150319
19196000,0.0324,0.013523,0.002678,0.000431,0.071575
19197000,0.0324,0.013523,0.002678,0.000431,0.164069
19198000,0.0324,0.013523,0.002678,0.000431,0.132572
19199000,0.0324,0.013523,0.002678,0.000431,0.239052
19200000,0.0324,0.013523,0.002678,0.000431,0.128811
19201000,0.0324,0.013523,0.002678,0.000431,0.118351
19202000,0.0324,0.013523,0.002678,0.000431,0.085443
19203000,0.0324,0.013523,0.002678,0.000431,0.279364
19204000,0.0324,0.013523,0.002678,0.000431,0.170181
19205000,0.0324,0.013523,0.002678,0.000431,0.204499
19206000,0.0324,0.013523,0.002678,0.000431,0.155255
19207000,0.0324,0.013523,0.002678,0.000431,0.308982
19208000,0.0324,0.013523,0.002678,0.000431,0.172061
19209000,0.0324,0.013523,0.002678,0.000431,0.077451
19210000,0.0324,0.013523,0.002678,0.000431,0.188045
19211000,0.0324,0.013523,0.002678,0.000431,0.113297
19212000,0.0324,0.013523,0.002678,0.000431,0.178290
19213000,0.0324,0.013523,0.002678,0.000431,0.147615
19214000,0.0324,0.013523,0.002678,0.000431,0.197800
19215000,0.0324,0.013523,0.002678,0.000431,0.237760
19216000,0.0324,0.013523,0.002678,0.000431,0.149731
19217000,0.0324,0.013523,0.002678,0.000431,0.271725
19218000,0.0324,0.013523,0.002678,0.000431,0.246692
19219000,0.0324,0.013523,0.002678,0.000431,0.072045
19220000,0.0324,0.013523,0.002678,0.000431,0.183226
19221000,0.0324,0.013523,0.002678,0.000431,0.154197
19222000,0.0324,0.013523,0.002678,0.000431,0.288884
19223000,0.0324,0.013523,0.002678,0.000431,0.188750
19224000,0.0324,0.013523,0.002678,0.000431,0.166772
19225000,0.0324,0.013523,0.002678,0.000431,0.148321
19226000,0.0324,0.013523,0.002678,0.000431,0.157840
19227000,0.0324,0.013523,0.002678,0.000431,0.119526
19228000,0.0324,0.013523,0.002678,0.000431,0.080389
19229000,0.0324,0.013523,0.002678,0.000431,0.117881
19230000,0.0324,0.013523,0.002678,0.000431,0.253508
19231000,0.0324,0.013523,0.002678,0.000431,0.214959
19232000,0.0324,0.013523,0.002678,0.000431,0.063230
19233000,0.0324,0.013523,0.002678,0.000431,0.498555
19234000,0.0324,0.013523,0.002678,0.000431,0.320734
19235000,0.0324,0.013523,0.002678,0.000431,0.143619
19236000,0.0324,0.013523,0.002678,0.000431,0.115178
19237000,0.0324,0.013523,0.002678,0.000431,0.144090
19238000,0.0324,0.013523,0.002678,0.000431,0.095198
19239000,0.0324,0.013523,0.002678,0.000431,0.140329
19240000,0.0324,0.013523,0.002678,0.000431,0.187928
19241000,0.0324,0.013523,0.002678,0.000431,0.138213
19242000,0.0324,0.013523,0.002678,0.000431,0.186282
19243000,0.0324,0.013523,0.002678,0.000431,0.190396
19244000,0.0324,0.013523,0.002678,0.000431,0.397715
19245000,0.0324,0.013523,0.002678,0.000431,0.140329
19246000,0.0324,0.013523,0.002678,0.000431,0.091672
19247000,0.0324,0.013523,0.002678,0.000431,0.095668
19248000,0.0324,0.013523,0.002678,0.000431,0.235526
19249000,0.0324,0.013523,0.002678,0.000431,0.221776
19250000,0.0324,0.013523,0.002678,0.000431,0.136568
19251000,0.0324,0.013523,0.002678,0.000431,0.143267
19252000,0.0324,0.013523,0.002678,0.000431,0.274898
19253000,0.0324,0.013523,0.002678,0.000431,0.179583
19254000,0.0324,0.013523,0.002678,0.000431,0.084738
19255000,0.0324,0.013523,0.002678,0.000431,0.116470
19256000,0.0324,0.013523,0.002678,0.000431,0.053240
19257000,0.0324,0.013523,0.002678,0.000431,0.205674
19258000,0.0324,0.013523,0.002678,0.000431,0.135863
19259000,0.0324,0.013523,0.002678,0.000431,0.160543
19260000,0.0324,0.013523,0.002678,0.000431,0.072867
19261000,0.0324,0.013523,0.002678,0.000431,0.123522
19262000,0.0324,0.013523,0.002678,0.000431,0.074395
19263000,0.0324,0.013523,0.002678,0.000431,0.213549
19264000,0.0324,0.013523,0.002678,0.000431,0.086266
19265000,0.0324,0.013523,0.002678,0.000431,0.171356
19266000,0.0324,0.013523,0.002678,0.000431,0.219425
19267000,0.0324,0.013523,0.002678,0.000431,0.050537
19268000,0.0324,0.013523,0.002678,0.000431,0.147145
19269000,0.0324,0.013523,0.002678,0.000431,0.115295
19270000,0.0324,0.013523,0.002678,0.000431,0.160308
19271000,0.0324,0.013523,0.002678,0.000431,0.281598
19272000,0.0324,0.013523,0.002678,0.000431,0.090027
19273000,0.0324,0.013523,0.002678,0.000431,0.168183
19274000,0.0324,0.013523,0.002678,0.000431,0.230473
19275000,0.0324,0.013523,0.002678,0.000431,0.164069
19276000,0.0324,0.013523,0.002678,0.000431,0.247632
19277000,0.0324,0.013523,0.002678,0.000431,0.213079
19278000,0.0324,0.013523,0.002678,0.000431,0.076276
19279000,0.0324,0.013523,0.002678,0.000431,0.241638
19280000,0.0324,0.013523,0.002678,0.000431,0.077686
19281000,0.0324,0.013523,0.002678,0.000431,0.277014
19282000,0.0324,0.013523,0.002678,0.000431,0.176762
19283000,0.0324,0.013523,0.002678,0.000431,0.354347
19284000,0.0324,0.013523,0.002678,0.000431,0.125873
19285000,0.0324,0.013523,0.002678,0.000431,0.049244
19286000,0.0324,0.013523,0.002678,0.000431,0.059117
19287000,0.0324,0.013523,0.002678,0.000431,0.123522
19288000,0.0324,0.013523,0.002678,0.000431,0.130809
19289000,0.0324,0.013523,0.002678,0.000431,0.230590
19290000,0.0324,0.013523,0.002678,0.000431,0.174177
19291000,0.0324,0.013523,0.002678,0.000431,0.093317
19292000,0.0324,0.013523,0.002678,0.000431,0.142209
19293000,0.0324,0.013523,0.002678,0.000431,0.091672
19294000,0.0324,0.013523,0.002678,0.000431,0.053593
19295000,0.0324,0.013523,0.002678,0.000431,0.115883
19296000,0.0324,0.013523,0.002678,0.000431,0.135275
19297000,0.0324,0.013523,0.002678,0.000431,0.140564
19298000,0.0324,0.013523,0.002678,0.000431,0.110006
19299000,0.0324,0.013523,0.002678,0.000431,0.177703
19300000,0.0324,0.013523,0.002678,0.000431,0.132454
19301000,0.0324,0.013523,0.002678,0.000431,0.109184
19302000,0.0324,0.013523,0.002678,0.000431,0.184637
19303000,0.0324,0.013523,0.002678,0.000431,0.242696
19304000,0.0324,0.013523,0.002678,0.000431,0.266907
19305000,0.0324,0.013523,0.002678,0.000431,0.121994
19306000,0.0324,0.013523,0.002678,0.000431,0.102720
19307000,0.0324,0.013523,0.002678,0.000431,0.158310
19308000,0.0324,0.013523,0.002678,0.000431,0.213079
19309000,0.0324,0.013523,0.002678,0.000431,0.162306
19310000,0.0324,0.013523,0.002678,0.000431,0.108831
19311000,0.0324,0.013523,0.002678,0.000431,0.130456
19312000,0.0324,0.013523,0.002678,0.000431,0.088851
19313000,0.0324,0.013523,0.002678,0.000431,0.087558
19314000,0.0324,0.013523,0.002678,0.000431,0.162071
19315000,0.0324,0.013523,0.002678,0.000431,0.186870
19316000,0.0324,0.013523,0.002678,0.000431,0.130926
19317000,0.0324,0.013523,0.002678,0.000431,0.082505
19318000,0.0324,0.013523,0.002678,0.000431,0.155490
19319000,0.0324,0.013523,0.002678,0.000431,0.065463
19320000,0.0324,0.013523,0.002678,0.000431,0.106598
19321000,0.0324,0.013523,0.002678,0.000431,0.202854
19322000,0.0324,0.013523,0.002678,0.000431,0.148321
19323000,0.0324,0.013523,0.002678,0.000431,0.178525
19324000,0.0324,0.013523,0.002678,0.000431,0.078274
19325000,0.0324,0.013523,0.002678,0.000431,0.067579
19326000,0.0324,0.013523,0.002678,0.000431,0.104718
19327000,0.0324,0.013523,0.002678,0.000431,0.227652
19328000,0.0324,0.013523,0.002678,0.000431,0.260795
19329000,0.0324,0.013523,0.002678,0.000431,0.074160
19330000,0.0324,0.013523,0.002678,0.000431,0.095198
19331000,0.0324,0.013523,0.002678,0.000431,0.078509
19332000,0.0324,0.013523,0.002678,0.000431,0.113062
19333000,0.0324,0.013523,0.002678,0.000431,0.260913
19334000,0.0324,0.013523,0.002678,0.000431,0.140681
19335000,0.0324,0.013523,0.002678,0.000431,0.121524
19336000,0.0324,0.013523,0.002678,0.000431,0.248337
19337000,0.0324,0.013523,0.002678,0.000431,0.096608
19338000,0.0324,0.013523,0.002678,0.000431,0.050302
19339000,0.0324,0.013523,0.002678,0.000431,0.332722
19340000,0.0324,0.013523,0.002678,0.000431,0.172884
19341000,0.0324,0.013523,0.002678,0.000431,0.221071
19342000,0.0324,0.013523,0.002678,0.000431,0.138566
19343000,0.0324,0.013523,0.002678,0.000431,0.158546
19344000,0.0324,0.013523,0.002678,0.000431,0.119409
19345000,0.0324,0.013523,0.002678,0.000431,0.152081
19346000,0.0324,0.013523,0.002678,0.000431,0.284653
19347000,0.0324,0.013523,0.002678,0.000431,0.106010
19348000,0.0324,0.013523,0.002678,0.000431,0.235174
19349000,0.0324,0.013523,0.002678,0.000431,0.129751
19350000,0.0324,0.013523,0.002678,0.000431,0.126460
19351000,0.0324,0.013523,0.002678,0.000431,0.087206
19352000,0.0324,0.013523,0.002678,0.000431,0.151494
19353000,0.0324,0.013523,0.002678,0.000431,0.191688
19354000,0.0324,0.013523,0.002678,0.000431,0.120114
19355000,0.0324,0.013523,0.002678,0.000431,0.166890
19356000,0.0324,0.013523,0.002678,0.000431,0.123992
19357000,0.0324,0.013523,0.002678,0.000431,0.057354
19358000,0.0324,0.013523,0.002678,0.000431,0.130339
19359000,0.0324,0.013523,0.002678,0.000431,0.187340
19360000,0.0324,0.013523,0.002678,0.000431,0.140799
19361000,0.0324,0.013523,0.002678,0.000431,0.123640
19362000,0.0324,0.013523,0.002678,0.000431,0.080272
19363000,0.0324,0.013523,0.002678,0.000431,0.195097
19364000,0.0324,0.013523,0.002678,0.000431,0.123757
19365000,0.0324,0.013523,0.002678,0.000431,0.145617
19366000,0.0324,0.013523,0.002678,0.000431,0.096138
19367000,0.0324,0.013523,0.002678,0.000431,0.108008
19368000,0.0324,0.013523,0.002678,0.000431,0.180171
19369000,0.0324,0.013523,0.002678,0.000431,0.062055
19370000,0.0324,0.013523,0.002678,0.000431,0.156077
19371000,0.0324,0.013523,0.002678,0.000431,0.109066
19372000,0.0324,0.013523,0.002678,0.000431,0.155490
19373000,0.0324,0.013523,0.002678,0.000431,0.080272
19374000,0.0324,0.013523,0.002678,0.000431,0.166890
19375000,0.0324,0.013523,0.002678,0.000431,0.166890
19376000,0.0324,0.013523,0.002678,0.000431,0.238465
19377000,0.0324,0.013523,0.002678,0.000431,0.229297
19378000,0.0324,0.013523,0.002678,0.000431,0.251510
19379000,0.0324,0.013523,0.002678,0.000431,0.243401
19380000,0.0324,0.013523,0.002678,0.000431,0.106833
19381000,0.0324,0.013523,0.002678,0.000431,0.098959
19382000,0.0324,0.013523,0.002678,0.000431,0.280070
19383000,0.0324,0.013523,0.002678,0.000431,0.110476
19384000,0.0324,0.013523,0.002678,0.000431,0.148791
19385000,0.0324,0.013523,0.002678,0.000431,0.279482
19386000,0.0324,0.013523,0.002678,0.000431,0.035141
19387000,0.0324,0.013523,0.002678,0.000431,0.070399
19388000,0.0324,0.013523,0.002678,0.000431,0.135980
19389000,0.0324,0.013523,0.002678,0.000431,0.134335
19390000,0.0324,0.013523,0.002678,0.000431,0.227535
19391000,0.0324,0.013523,0.002678,0.000431,0.260442
19392000,0.0324,0.013523,0.002678,0.000431,0.174882
19393000,0.0324,0.013523,0.002678,0.000431,0.080389
19394000,0.0324,0.013523,0.002678,0.000431,0.125873
19395000,0.0324,0.013523,0.002678,0.000431,0.083798
19396000,0.0324,0.013523,0.002678,0.000431,0.076393
19397000,0.0324,0.013523,0.002678,0.000431,0.155020
19398000,0.0324,0.013523,0.002678,0.000431,0.389018
19399000,0.0324,0.013523,0.002678,0.000431,0.071457
19400000,0.0324,0.013523,0.002678,0.000431,0.209435
19401000,0.0324,0.013523,0.002678,0.000431,0.191571
19402000,0.0324,0.013523,0.002678,0.000431,0.232706
19403000,0.0324,0.013523,0.002678,0.000431,0.163129
19404000,0.0324,0.013523,0.002678,0.000431,0.148321
19405000,0.0324,0.013523,0.002678,0.000431,0.178055
19406000,0.0324,0.013523,0.002678,0.000431,0.236114
19407000,0.0324,0.013523,0.002678,0.000431,0.092612
19408000,0.0324,0.013523,0.002678,0.000431,0.075571
19409000,0.0324,0.013523,0.002678,0.000431,0.042663
19410000,0.0324,0.013523,0.002678,0.000431,0.074160
19411000,0.0324,0.013523,0.002678,0.000431,0.180523
19412000,0.0324,0.013523,0.002678,0.000431,0.046189
19413000,0.0324,0.013523,0.002678,0.000431,0.118703
19414000,0.0324,0.013523,0.002678,0.000431,0.388196
19415000,0.0324,0.013523,0.002678,0.000431,0.159368
19416000,0.0324,0.013523,0.002678,0.000431,0.120584
19417000,0.0324,0.013523,0.002678,0.000431,0.153139
19418000,0.0324,0.013523,0.002678,0.000431,0.104953
19419000,0.0324,0.013523,0.002678,0.000431,0.105070
19420000,0.0324,0.013523,0.002678,0.000431,0.293115
19421000,0.0324,0.013523,0.002678,0.000431,0.188045
19422000,0.0324,0.013523,0.002678,0.000431,0.089321
19423000,0.0324,0.013523,0.002678,0.000431,0.138096
19424000,0.0324,0.013523,0.002678,0.000431,0.039137
19425000,0.0324,0.013523,0.002678,0.000431,0.188280
19426000,0.0324,0.013523,0.002678,0.000431,0.235997
19427000,0.0324,0.013523,0.002678,0.000431,0.110124
19428000,0.0324,0.013523,0.002678,0.000431,0.119056
19429000,0.0324,0.013523,0.002678,0.000431,0.090262
19430000,0.0324,0.013523,0.002678,0.000431,0.190161
19431000,0.0324,0.013523,0.002678,0.000431,0.084150
19432000,0.0324,0.013523,0.002678,0.000431,0.085796
19433000,0.0324,0.013523,0.002678,0.000431,0.139271
19434000,0.0324,0.013523,0.002678,0.000431,0.230943
19435000,0.0324,0.013523,0.002678,0.000431,0.084268
19436000,0.0324,0.013523,0.002678,0.000431,0.192276
19437000,0.0324,0.013523,0.002678,0.000431,0.066521
19438000,0.0324,0.013523,0.002678,0.000431,0.166302
19439000,0.0324,0.013523,0.002678,0.000431,0.089086
19440000,0.0324,0.013523,0.002678,0.000431,0.177820
19441000,0.0324,0.013523,0.002678,0.000431,0.272313
19442000,0.0324,0.013523,0.002678,0.000431,0.126225
19443000,0.0324,0.013523,0.002678,0.000431,0.211668
19444000,0.0324,0.013523,0.002678,0.000431,0.229297
19445000,0.0324,0.013523,0.002678,0.000431,0.143737
19446000,0.0324,0.013523,0.002678,0.000431,0.106481
19447000,0.0324,0.013523,0.002678,0.000431,0.306984
19448000,0.0324,0.013523,0.002678,0.000431,0.124580
19449000,0.0324,0.013523,0.002678,0.000431,0.279129
19450000,0.0324,0.013523,0.002678,0.000431,0.084150
19451000,0.0324,0.013523,0.002678,0.000431,0.103190
19452000,0.0324,0.013523,0.002678,0.000431,0.188163
19453000,0.0324,0.013523,0.002678,0.000431,0.070399
19454000,0.0324,0.013523,0.002678,0.000431,0.061820
19455000,0.0324,0.013523,0.002678,0.000431,0.106716
19456000,0.0324,0.013523,0.002678,0.000431,0.094023
19457000,0.0324,0.013523,0.002678,0.000431,0.078744
19458000,0.0324,0.013523,0.002678,0.000431,0.064641
19459000,0.0324,0.013523,0.002678,0.000431,0.215312
19460000,0.0324,0.013523,0.002678,0.000431,0.099194
19461000,0.0324,0.013523,0.002678,0.000431,0.059469
19462000,0.0324,0.013523,0.002678,0.000431,0.260678
19463000,0.0324,0.013523,0.002678,0.000431,0.172061
19464000,0.0324,0.013523,0.002678,0.000431,0.145852
19465000,0.0324,0.013523,0.002678,0.000431,0.121524
19466000,0.0324,0.013523,0.002678,0.000431,0.163364
19467000,0.0324,0.013523,0.002678,0.000431,0.064993
19468000,0.0324,0.013523,0.002678,0.000431,0.239757
19469000,0.0324,0.013523,0.002678,0.000431,0.143972
19470000,0.0324,0.013523,0.002678,0.000431,0.111534
19471000,0.0324,0.013523,0.002678,0.000431,0.198035
19472000,0.0324,0.013523,0.002678,0.000431,0.174999
19473000,0.0324,0.013523,0.002678,0.000431,0.115648
19474000,0.0324,0.013523,0.002678,0.000431,0.113415
19475000,0.0324,0.013523,0.002678,0.000431,0.126108
19476000,0.0324,0.013523,0.002678,0.000431,0.182756
19477000,0.0324,0.013523,0.002678,0.000431,0.090967
19478000,0.0324,0.013523,0.002678,0.000431,0.103307
19479000,0.0324,0.013523,0.002678,0.000431,0.191806
19480000,0.0324,0.013523,0.002678,0.000431,0.078274
19481000,0.0324,0.013523,0.002678,0.000431,0.137038
19482000,0.0324,0.013523,0.002678,0.000431,0.259737
19483000,0.0324,0.013523,0.002678,0.000431,0.184872
19484000,0.0324,0.013523,0.002678,0.000431,0.054416
19485000,0.0324,0.013523,0.002678,0.000431,0.107773
19486000,0.0324,0.013523,0.002678,0.000431,0.097783
19487000,0.0324,0.013523,0.002678,0.000431,0.064758
19488000,0.0324,0.013523,0.002678,0.000431,0.084268
19489000,0.0324,0.013523,0.002678,0.000431,0.285006
19490000,0.0324,0.013523,0.002678,0.000431,0.157723
19491000,0.0324,0.013523,0.002678,0.000431,0.050302
19492000,0.0324,0.013523,0.002678,0.000431,0.140446
19493000,0.0324,0.013523,0.002678,0.000431,0.102485
19494000,0.0324,0.013523,0.002678,0.000431,0.057706
19495000,0.0324,0.013523,0.002678,0.000431,0.083092
19496000,0.0324,0.013523,0.002678,0.000431,0.141621
19497000,0.0324,0.013523,0.002678,0.000431,0.061585
19498000,0.0324,0.013523,0.002678,0.000431,0.095550
19499000,0.0324,0.013523,0.002678,0.000431,0.090027
19500000,0.0324,0.013523,0.002678,0.000431,0.087794
19501000,0.0324,0.013523,0.002678,0.000431,0.226007
19502000,0.0324,0.013523,0.002678,0.000431,0.178995
19503000,0.0324,0.013523,0.002678,0.000431,0.235526
19504000,0.0324,0.013523,0.002678,0.000431,0.134452
19505000,0.0324,0.013523,0.002678,0.000431,0.125050
19506000,0.0324,0.013523,0.002678,0.000431,0.119291
19507000,0.0324,0.013523,0.002678,0.000431,0.212256
19508000,0.0324,0.013523,0.002678,0.000431,0.299697
19509000,0.0324,0.013523,0.002678,0.000431,0.085208
19510000,0.0324,0.013523,0.002678,0.000431,0.035023
19511000,0.0324,0.013523,0.002678,0.000431,0.099546
19512000,0.0324,0.013523,0.002678,0.000431,0.113767
19513000,0.0324,0.013523,0.002678,0.000431,0.042663
19514000,0.0324,0.013523,0.002678,0.000431,0.103190
19515000,0.0324,0.013523,0.002678,0.000431,0.236584
19516000,0.0324,0.013523,0.002678,0.000431,0.148321
19517000,0.0324,0.013523,0.002678,0.000431,0.064288
19518000,0.0324,0.013523,0.002678,0.000431,0.172296
19519000,0.0324,0.013523,0.002678,0.000431,0.199680
19520000,0.0324,0.013523,0.002678,0.000431,0.074160
19521000,0.0324,0.013523,0.002678,0.000431,0.113297
19522000,0.0324,0.013523,0.002678,0.000431,0.213431
19523000,0.0324,0.013523,0.002678,0.000431,0.140446
19524000,0.0324,0.013523,0.002678,0.000431,0.071105
19525000,0.0324,0.013523,0.002678,0.000431,0.051712
19526000,0.0324,0.013523,0.002678,0.000431,0.096961
19527000,0.0324,0.013523,0.002678,0.000431,0.140916
19528000,0.0324,0.013523,0.002678,0.000431,0.176410
19529000,0.0324,0.013523,0.002678,0.000431,0.141974
19530000,0.0324,0.013523,0.002678,0.000431,0.076628
19531000,0.0324,0.013523,0.002678,0.000431,0.066638
19532000,0.0324,0.013523,0.002678,0.000431,0.053710
19533000,0.0324,0.013523,0.002678,0.000431,0.137390
19534000,0.0324,0.013523,0.002678,0.000431,0.125990
19535000,0.0324,0.013523,0.002678,0.000431,0.162894
19536000,0.0324,0.013523,0.002678,0.000431,0.178525
19537000,0.0324,0.013523,0.002678,0.000431,0.087558
19538000,0.0324,0.013523,0.002678,0.000431,0.116353
19539000,0.0324,0.013523,0.002678,0.000431,0.147850
19540000,0.0324,0.013523,0.002678,0.000431,0.108361
19541000,0.0324,0.013523,0.002678,0.000431,0.162071
19542000,0.0324,0.013523,0.002678,0.000431,0.196625
19543000,0.0324,0.013523,0.002678,0.000431,0.176292
19544000,0.0324,0.013523,0.002678,0.000431,0.120936
19545000,0.0324,0.013523,0.002678,0.000431,0.068519
19546000,0.0324,0.013523,0.002678,0.000431,0.073455
19547000,0.0324,0.013523,0.002678,0.000431,0.103190
19548000,0.0324,0.013523,0.002678,0.000431,0.049479
19549000,0.0324,0.013523,0.002678,0.000431,0.106598
19550000,0.0324,0.013523,0.002678,0.000431,0.102837
19551000,0.0324,0.013523,0.002678,0.000431,0.117881
19552000,0.0324,0.013523,0.002678,0.000431,0.117998
19553000,0.0324,0.013523,0.002678,0.000431,0.316738
19554000,0.0324,0.013523,0.002678,0.000431,0.054768
19555000,0.0324,0.013523,0.002678,0.000431,0.127283
19556000,0.0324,0.013523,0.002678,0.000431,0.279482
19557000,0.0324,0.013523,0.002678,0.000431,0.138096
19558000,0.0324,0.013523,0.002678,0.000431,0.069929
19559000,0.0324,0.013523,0.002678,0.000431,0.163482
19560000,0.0324,0.013523,0.002678,0.000431,0.096843
19561000,0.0324,0.013523,0.002678,0.000431,0.082505
19562000,0.0324,0.013523,0.002678,0.000431,0.098724
19563000,0.0324,0.013523,0.002678,0.000431,0.156548
19564000,0.0324,0.013523,0.002678,0.000431,0.176175
19565000,0.0324,0.013523,0.002678,0.000431,0.213784
19566000,0.0324,0.013523,0.002678,0.000431,0.122347
19567000,0.0324,0.013523,0.002678,0.000431,0.154667
19568000,0.0324,0.013523,0.002678,0.000431,0.057706
19569000,0.0324,0.013523,0.002678,0.000431,0.140564
19570000,0.0324,0.013523,0.002678,0.000431,0.044191
19571000,0.0324,0.013523,0.002678,0.000431,0.235526
19572000,0.0324,0.013523,0.002678,0.000431,0.249395
19573000,0.0324,0.013523,0.002678,0.000431,0.317091
19574000,0.0324,0.013523,0.002678,0.000431,0.108361
19575000,0.0324,0.013523,0.002678,0.000431,0.068754
19576000,0.0324,0.013523,0.002678,0.000431,0.118351
19577000,0.0324,0.013523,0.002678,0.000431,0.057354
19578000,0.0324,0.013523,0.002678,0.000431,0.090732
19579000,0.0324,0.013523,0.002678,0.000431,0.148673
19580000,0.0324,0.013523,0.002678,0.000431,0.292175
19581000,0.0324,0.013523,0.002678,0.000431,0.060527
19582000,0.0324,0.013523,0.002678,0.000431,0.136803
19583000,0.0324,0.013523,0.002678,0.000431,0.054063
19584000,0.0324,0.013523,0.002678,0.000431,0.065228
19585000,0.0324,0.013523,0.002678,0.000431,0.186165
19586000,0.0324,0.013523,0.002678,0.000431,0.143267
19587000,0.0324,0.013523,0.002678,0.000431,0.114120
19588000,0.0324,0.013523,0.002678,0.000431,0.043956
19589000,0.0324,0.013523,0.002678,0.000431,0.142797
19590000,0.0324,0.013523,0.002678,0.000431,0.158193
19591000,0.0324,0.013523,0.002678,0.000431,0.088029
19592000,0.0324,0.013523,0.002678,0.000431,0.149026
19593000,0.0324,0.013523,0.002678,0.000431,0.184872
19594000,0.0324,0.013523,0.002678,0.000431,0.106128
19595000,0.0324,0.013523,0.002678,0.000431,0.294996
19596000,0.0324,0.013523,0.002678,0.000431,0.057236
19597000,0.0324,0.013523,0.002678,0.000431,0.042663
19598000,0.0324,0.013523,0.002678,0.000431,0.177938
19599000,0.0324,0.013523,0.002678,0.000431,0.229533
19600000,0.0324,0.013523,0.002678,0.000431,0.134452
19601000,0.0324,0.013523,0.002678,0.000431,0.145970
19602000,0.0324,0.013523,0.002678,0.000431,0.146910
19603000,0.0324,0.013523,0.002678,0.000431,0.259972
19604000,0.0324,0.013523,0.002678,0.000431,0.089556
19605000,0.0324,0.013523,0.002678,0.000431,0.071692
19606000,0.0324,0.013523,0.002678,0.000431,0.109184
19607000,0.0324,0.013523,0.002678,0.000431,0.090732
19608000,0.0324,0.013523,0.002678,0.000431,0.162541
19609000,0.0324,0.013523,0.002678,0.000431,0.091319
19610000,0.0324,0.013523,0.002678,0.000431,0.065463
19611000,0.0324,0.013523,0.002678,0.000431,0.174059
19612000,0.0324,0.013523,0.002678,0.000431,0.140916
19613000,0.0324,0.013523,0.002678,0.000431,0.099429
19614000,0.0324,0.013523,0.002678,0.000431,0.172296
19615000,0.0324,0.013523,0.002678,0.000431,0.153727
19616000,0.0324,0.013523,0.002678,0.000431,0.154432
19617000,0.0324,0.013523,0.002678,0.000431,0.093082
19618000,0.0324,0.013523,0.002678,0.000431,0.091084
19619000,0.0324,0.013523,0.002678,0.000431,0.152904
19620000,0.0324,0.013523,0.002678,0.000431,0.097783
19621000,0.0324,0.013523,0.002678,0.000431,0.190513
19622000,0.0324,0.013523,0.002678,0.000431,0.180641
19623000,0.0324,0.013523,0.002678,0.000431,0.095433
19624000,0.0324,0.013523,0.002678,0.000431,0.216252
19625000,0.0324,0.013523,0.002678,0.000431,0.151611
19626000,0.0324,0.013523,0.002678,0.000431,0.102955
19627000,0.0324,0.013523,0.002678,0.000431,0.091554
19628000,0.0324,0.013523,0.002678,0.000431,0.117763
19629000,0.0324,0.013523,0.002678,0.000431,0.057471
19630000,0.0324,0.013523,0.002678,0.000431,0.091319
19631000,0.0324,0.013523,0.002678,0.000431,0.084268
19632000,0.0324,0.013523,0.002678,0.000431,0.050067
19633000,0.0324,0.013523,0.002678,0.000431,0.182521
19634000,0.0324,0.013523,0.002678,0.000431,0.132219
19635000,0.0324,0.013523,0.002678,0.000431,0.054298
19636000,0.0324,0.013523,0.002678,0.000431,0.091437
19637000,0.0324,0.013523,0.002678,0.000431,0.322380
19638000,0.0324,0.013523,0.002678,0.000431,0.269845
19639000,0.0324,0.013523,0.002678,0.000431,0.155020
19640000,0.0324,0.013523,0.002678,0.000431,0.160191
19641000,0.0324,0.013523,0.002678,0.000431,0.124932
19642000,0.0324,0.013523,0.002678,0.000431,0.052183
19643000,0.0324,0.013523,0.002678,0.000431,0.210728
19644000,0.0324,0.013523,0.002678,0.000431,0.233293
19645000,0.0324,0.013523,0.002678,0.000431,0.101779
19646000,0.0324,0.013523,0.002678,0.000431,0.050067
19647000,0.0324,0.013523,0.002678,0.000431,0.106128
19648000,0.0324,0.013523,0.002678,0.000431,0.167125
19649000,0.0324,0.013523,0.002678,0.000431,0.147380
19650000,0.0324,0.013523,0.002678,0.000431,0.161601
19651000,0.0324,0.013523,0.002678,0.000431,0.218250
19652000,0.0324,0.013523,0.002678,0.000431,0.245751
19653000,0.0324,0.013523,0.002678,0.000431,0.104247
19654000,0.0324,0.013523,0.002678,0.000431,0.119291
19655000,0.0324,0.013523,0.002678,0.000431,0.086266
19656000,0.0324,0.013523,0.002678,0.000431,0.092612
19657000,0.0324,0.013523,0.002678,0.000431,0.171826
19658000,0.0324,0.013523,0.002678,0.000431,0.107656
19659000,0.0324,0.013523,0.002678,0.000431,0.129046
19660000,0.0324,0.013523,0.002678,0.000431,0.081917
19661000,0.0324,0.013523,0.002678,0.000431,0.090027
19662000,0.0324,0.013523,0.002678,0.000431,0.095433
19663000,0.0324,0.013523,0.002678,0.000431,0.102837
19664000,0.0324,0.013523,0.002678,0.000431,0.084150
19665000,0.0324,0.013523,0.002678,0.000431,0.113062
19666000,0.0324,0.013523,0.002678,0.000431,0.111417
19667000,0.0324,0.013523,0.002678,0.000431,0.114472
19668000,0.0324,0.013523,0.002678,0.000431,0.227652
19669000,0.0324,0.013523,0.002678,0.000431,0.341537
19670000,0.0324,0.013523,0.002678,0.000431,0.183226
19671000,0.0324,0.013523,0.002678,0.000431,0.079214
19672000,0.0324,0.013523,0.002678,0.000431,0.145852
19673000,0.0324,0.013523,0.002678,0.000431,0.181346
19674000,0.0324,0.013523,0.002678,0.000431,0.070164
19675000,0.0324,0.013523,0.002678,0.000431,0.259032
19676000,0.0324,0.013523,0.002678,0.000431,0.226007
19677000,0.0324,0.013523,0.002678,0.000431,0.075688
19678000,0.0324,0.013523,0.002678,0.000431,0.097548
19679000,0.0324,0.013523,0.002678,0.000431,0.102720
19680000,0.0324,0.013523,0.002678,0.000431,0.048892
19681000,0.0324,0.013523,0.002678,0.000431,0.193804
19682000,0.0324,0.013523,0.002678,0.000431,0.220835
19683000,0.0324,0.013523,0.002678,0.000431,0.057941
19684000,0.0324,0.013523,0.002678,0.000431,0.232706
19685000,0.0324,0.013523,0.002678,0.000431,0.099429
19686000,0.0324,0.013523,0.002678,0.000431,0.168653
19687000,0.0324,0.013523,0.002678,0.000431,0.078274
19688000,0.0324,0.013523,0.002678,0.000431,0.184637
19689000,0.0324,0.013523,0.002678,0.000431,0.131279
19690000,0.0324,0.013523,0.002678,0.000431,0.131279
19691000,0.0324,0.013523,0.002678,0.000431,0.112239
19692000,0.0324,0.013523,0.002678,0.000431,0.141504
19693000,0.0324,0.013523,0.002678,0.000431,0.079919
19694000,0.0324,0.013523,0.002678,0.000431,0.093082
19695000,0.0324,0.013523,0.002678,0.000431,0.120114
19696000,0.0324,0.013523,0.002678,0.000431,0.114825
19697000,0.0324,0.013523,0.002678,0.000431,0.176527
19698000,0.0324,0.013523,0.002678,0.000431,0.148673
19699000,0.0324,0.013523,0.002678,0.000431,0.081447
19700000,0.0324,0.013523,0.002678,0.000431,0.139153
19701000,0.0324,0.013523,0.002678,0.000431,0.088381
19702000,0.0324,0.013523,0.002678,0.000431,0.152081
19703000,0.0324,0.013523,0.002678,0.000431,0.220600
19704000,0.0324,0.013523,0.002678,0.000431,0.094023
19705000,0.0324,0.013523,0.002678,0.000431,0.106481
19706000,0.0324,0.013523,0.002678,0.000431,0.193922
19707000,0.0324,0.013523,0.002678,0.000431,0.159721
19708000,0.0324,0.013523,0.002678,0.000431,0.076276
19709000,0.0324,0.013523,0.002678,0.000431,0.147145
19710000,0.0324,0.013523,0.002678,0.000431,0.175822
19711000,0.0324,0.013523,0.002678,0.000431,0.118351
19712000,0.0324,0.013523,0.002678,0.000431,0.206027
19713000,0.0324,0.013523,0.002678,0.000431,0.112004
19714000,0.0324,0.013523,0.002678,0.000431,0.221658
19715000,0.0324,0.013523,0.002678,0.000431,0.109654
19716000,0.0324,0.013523,0.002678,0.000431,0.152904
19717000,0.0324,0.013523,0.002678,0.000431,0.160779
19718000,0.0324,0.013523,0.002678,0.000431,0.125638
19719000,0.0324,0.013523,0.002678,0.000431,0.203559
19720000,0.0324,0.013523,0.002678,0.000431,0.144560
19721000,0.0324,0.013523,0.002678,0.000431,0.198388
19722000,0.0324,0.013523,0.002678,0.000431,0.174177
19723000,0.0324,0.013523,0.002678,0.000431,0.129634
19724000,0.0324,0.013523,0.002678,0.000431,0.073690
19725000,0.0324,0.013523,0.002678,0.000431,0.150083
19726000,0.0324,0.013523,0.002678,0.000431,0.227770
19727000,0.0324,0.013523,0.002678,0.000431,0.153844
19728000,0.0324,0.013523,0.002678,0.000431,0.081800
19729000,0.0324,0.013523,0.002678,0.000431,0.120114
19730000,0.0324,0.013523,0.002678,0.000431,0.100839
19731000,0.0324,0.013523,0.002678,0.000431,0.100487
19732000,0.0324,0.013523,0.002678,0.000431,0.092025
19733000,0.0324,0.013523,0.002678,0.000431,0.267377
19734000,0.0324,0.013523,0.002678,0.000431,0.079802
19735000,0.0324,0.013523,0.002678,0.000431,0.145265
19736000,0.0324,0.013523,0.002678,0.000431,0.060880
19737000,0.0324,0.013523,0.002678,0.000431,0.083915
19738000,0.0324,0.013523,0.002678,0.000431,0.068989
19739000,0.0324,0.013523,0.002678,0.000431,0.193334
19740000,0.0324,0.013523,0.002678,0.000431,0.284183
19741000,0.0324,0.013523,0.002678,0.000431,0.205909
19742000,0.0324,0.013523,0.002678,0.000431,0.259150
19743000,0.0324,0.013523,0.002678,0.000431,0.072045
19744000,0.0324,0.013523,0.002678,0.000431,0.121289
19745000,0.0324,0.013523,0.002678,0.000431,0.146088
19746000,0.0324,0.013523,0.002678,0.000431,0.158663
19747000,0.0324,0.013523,0.002678,0.000431,0.361869
19748000,0.0324,0.013523,0.002678,0.000431,0.091437
19749000,0.0324,0.013523,0.002678,0.000431,0.118116
19750000,0.0324,0.013523,0.002678,0.000431,0.042663
19751000,0.0324,0.013523,0.002678,0.000431,0.092025
19752000,0.0324,0.013523,0.002678,0.000431,0.152904
19753000,0.0324,0.013523,0.002678,0.000431,0.206379
19754000,0.0324,0.013523,0.002678,0.000431,0.100839
19755000,0.0324,0.013523,0.002678,0.000431,0.164187
19756000,0.0324,0.013523,0.002678,0.000431,0.102250
19757000,0.0324,0.013523,0.002678,0.000431,0.135392
19758000,0.0324,0.013523,0.002678,0.000431,0.271138
19759000,0.0324,0.013523,0.002678,0.000431,0.156430
19760000,0.0324,0.013523,0.002678,0.000431,0.272783
19761000,0.0324,0.013523,0.002678,0.000431,0.084620
19762000,0.0324,0.013523,0.002678,0.000431,0.298287
19763000,0.0324,0.013523,0.002678,0.000431,0.122229
19764000,0.0324,0.013523,0.002678,0.000431,0.042428
19765000,0.0324,0.013523,0.002678,0.000431,0.122817
19766000,0.0324,0.013523,0.002678,0.000431,0.135392
19767000,0.0324,0.013523,0.002678,0.000431,0.094845
19768000,0.0324,0.013523,0.002678,0.000431,0.194039
19769000,0.0324,0.013523,0.002678,0.000431,0.108479
19770000,0.0324,0.013523,0.002678,0.000431,0.059587
19771000,0.0324,0.013523,0.002678,0.000431,0.220953
19772000,0.0324,0.013523,0.002678,0.000431,0.289472
19773000,0.0324,0.013523,0.002678,0.000431,0.181816
19774000,0.0324,0.013523,0.002678,0.000431,0.072397
19775000,0.0324,0.013523,0.002678,0.000431,0.172531
19776000,0.0324,0.013523,0.002678,0.000431,0.122229
19777000,0.0324,0.013523,0.002678,0.000431,0.104718
19778000,0.0324,0.013523,0.002678,0.000431,0.048774
19779000,0.0324,0.013523,0.002678,0.000431,0.123405
19780000,0.0324,0.013523,0.002678,0.000431,0.054063
19781000,0.0324,0.013523,0.002678,0.000431,0.083915
19782000,0.0324,0.013523,0.002678,0.000431,0.046541
19783000,0.0324,0.013523,0.002678,0.000431,0.183579
19784000,0.0324,0.013523,0.002678,0.000431,0.096961
19785000,0.0324,0.013523,0.002678,0.000431,0.131867
19786000,0.0324,0.013523,0.002678,0.000431,0.111064
19787000,0.0324,0.013523,0.002678,0.000431,0.082152
19788000,0.0324,0.013523,0.002678,0.000431,0.127988
19789000,0.0324,0.013523,0.002678,0.000431,0.059822
19790000,0.0324,0.013523,0.002678,0.000431,0.168300
19791000,0.0324,0.013523,0.002678,0.000431,0.099781
19792000,0.0324,0.013523,0.002678,0.000431,0.142679
19793000,0.0324,0.013523,0.002678,0.000431,0.146440
19794000,0.0324,0.013523,0.002678,0.000431,0.157605
19795000,0.0324,0.013523,0.002678,0.000431,0.128928
19796000,0.0324,0.013523,0.002678,0.000431,0.181934
19797000,0.0324,0.013523,0.002678,0.000431,0.163012
19798000,0.0324,0.013523,0.002678,0.000431,0.128576
19799000,0.0324,0.013523,0.002678,0.000431,0.250218
19800000,0.0324,0.013523,0.002678,0.000431,0.128928
19801000,0.0324,0.013523,0.002678,0.000431,0.174529
19802000,0.0324,0.013523,0.002678,0.000431,0.139741
19803000,0.0324,0.013523,0.002678,0.000431,0.143972
19804000,0.0324,0.013523,0.002678,0.000431,0.129281
19805000,0.0324,0.013523,0.002678,0.000431,0.119056
19806000,0.0324,0.013523,0.002678,0.000431,0.196507
19807000,0.0324,0.013523,0.002678,0.000431,0.187575
19808000,0.0324,0.013523,0.002678,0.000431,0.091554
19809000,0.0324,0.013523,0.002678,0.000431,0.165715
19810000,0.0324,0.013523,0.002678,0.000431,0.135275
19811000,0.0324,0.013523,0.002678,0.000431,0.121172
19812000,0.0324,0.013523,0.002678,0.000431,0.169828
19813000,0.0324,0.013523,0.002678,0.000431,0.290765
19814000,0.0324,0.013523,0.002678,0.000431,0.238700
19815000,0.0324,0.013523,0.002678,0.000431,0.202501
19816000,0.0324,0.013523,0.002678,0.000431,0.175940
19817000,0.0324,0.013523,0.002678,0.000431,0.098959
19818000,0.0324,0.013523,0.002678,0.000431,0.110359
19819000,0.0324,0.013523,0.002678,0.000431,0.102837
19820000,0.0324,0.013523,0.002678,0.000431,0.252215
19821000,0.0324,0.013523,0.002678,0.000431,0.122229
19822000,0.0324,0.013523,0.002678,0.000431,0.171121
19823000,0.0324,0.013523,0.002678,0.000431,0.307924
19824000,0.0324,0.013523,0.002678,0.000431,0.247984
19825000,0.0324,0.013523,0.002678,0.000431,0.185812
19826000,0.0324,0.013523,0.002678,0.000431,0.140681
19827000,0.0324,0.013523,0.002678,0.000431,0.158663
19828000,0.0324,0.013523,0.002678,0.000431,0.151729
19829000,0.0324,0.013523,0.002678,0.000431,0.064758
19830000,0.0324,0.013523,0.002678,0.000431,0.090849
19831000,0.0324,0.013523,0.002678,0.000431,0.193804
19832000,0.0324,0.013523,0.002678,0.000431,0.160308
19833000,0.0324,0.013523,0.002678,0.000431,0.109771
19834000,0.0324,0.013523,0.002678,0.000431,0.095433
19835000,0.0324,0.013523,0.002678,0.000431,0.076511
19836000,0.0324,0.013523,0.002678,0.000431,0.336131
19837000,0.0324,0.013523,0.002678,0.000431,0.146205
19838000,0.0324,0.013523,0.002678,0.000431,0.123640
19839000,0.0324,0.013523,0.002678,0.000431,0.065228
19840000,0.0324,0.013523,0.002678,0.000431,0.035258
19841000,0.0324,0.013523,0.002678,0.000431,0.233999
19842000,0.0324,0.013523,0.002678,0.000431,0.084503
19843000,0.0324,0.013523,0.002678,0.000431,0.125520
19844000,0.0324,0.013523,0.002678,0.000431,0.128341
19845000,0.0324,0.013523,0.002678,0.000431,0.132337
19846000,0.0324,0.013523,0.002678,0.000431,0.126225
19847000,0.0324,0.013523,0.002678,0.000431,0.149378
19848000,0.0324,0.013523,0.002678,0.000431,0.078391
19849000,0.0324,0.013523,0.002678,0.000431,0.346708
19850000,0.0324,0.013523,0.002678,0.000431,0.092495
19851000,0.0324,0.013523,0.002678,0.000431,0.145500
19852000,0.0324,0.013523,0.002678,0.000431,0.217780
19853000,0.0324,0.013523,0.002678,0.000431,0.176175
19854000,0.0324,0.013523,0.002678,0.000431,0.163129
19855000,0.0324,0.013523,0.002678,0.000431,0.107186
19856000,0.0324,0.013523,0.002678,0.000431,0.120936
19857000,0.0324,0.013523,0.002678,0.000431,0.070399
19858000,0.0324,0.013523,0.002678,0.000431,0.133865
19859000,0.0324,0.013523,0.002678,0.000431,0.128223
19860000,0.0324,0.013523,0.002678,0.000431,0.220718
19861000,0.0324,0.013523,0.002678,0.000431,0.097196
19862000,0.0324,0.013523,0.002678,0.000431,0.140564
19863000,0.0324,0.013523,0.002678,0.000431,0.155255
19864000,0.0324,0.013523,0.002678,0.000431,0.102837
19865000,0.0324,0.013523,0.002678,0.000431,0.065581
19866000,0.0324,0.013523,0.002678,0.000431,0.053828
19867000,0.0324,0.013523,0.002678,0.000431,0.174177
19868000,0.0324,0.013523,0.002678,0.000431,0.212373
19869000,0.0324,0.013523,0.002678,0.000431,0.233999
19870000,0.0324,0.013523,0.002678,0.000431,0.221776
19871000,0.0324,0.013523,0.002678,0.000431,0.248102
19872000,0.0324,0.013523,0.002678,0.000431,0.082152
19873000,0.0324,0.013523,0.002678,0.000431,0.168888
19874000,0.0324,0.013523,0.002678,0.000431,0.155607
19875000,0.0324,0.013523,0.002678,0.000431,0.178173
19876000,0.0324,0.013523,0.002678,0.000431,0.135040
19877000,0.0324,0.013523,0.002678,0.000431,0.171591
19878000,0.0324,0.013523,0.002678,0.000431,0.054886
19879000,0.0324,0.013523,0.002678,0.000431,0.121759
19880000,0.0324,0.013523,0.002678,0.000431,0.281715
19881000,0.0324,0.013523,0.002678,0.000431,0.156195
19882000,0.0324,0.013523,0.002678,0.000431,0.197447
19883000,0.0324,0.013523,0.002678,0.000431,0.181346
19884000,0.0324,0.013523,0.002678,0.000431,0.115060
19885000,0.0324,0.013523,0.002678,0.000431,0.065346
19886000,0.0324,0.013523,0.002678,0.000431,0.216957
19887000,0.0324,0.013523,0.002678,0.000431,0.205792
19888000,0.0324,0.013523,0.002678,0.000431,0.101544
19889000,0.0324,0.013523,0.002678,0.000431,0.397950
19890000,0.0324,0.013523,0.002678,0.000431,0.156665
19891000,0.0324,0.013523,0.002678,0.000431,0.039019
19892000,0.0324,0.013523,0.002678,0.000431,0.339892
19893000,0.0324,0.013523,0.002678,0.000431,0.082270
19894000,0.0324,0.013523,0.002678,0.000431,0.057941
19895000,0.0324,0.013523,0.002678,0.000431,0.228357
19896000,0.0324,0.013523,0.002678,0.000431,0.182404
19897000,0.0324,0.013523,0.002678,0.000431,0.068636
19898000,0.0324,0.013523,0.002678,0.000431,0.142797
19899000,0.0324,0.013523,0.002678,0.000431,0.153257
19900000,0.0324,0.013523,0.002678,0.000431,0.108008
19901000,0.0324,0.013523,0.002678,0.000431,0.107068
19902000,0.0324,0.013523,0.002678,0.000431,0.275721
19903000,0.0324,0.013523,0.002678,0.000431,0.093435
19904000,0.0324,0.013523,0.002678,0.000431,0.048892
19905000,0.0324,0.013523,0.002678,0.000431,0.177232
19906000,0.0324,0.013523,0.002678,0.000431,0.219895
19907000,0.0324,0.013523,0.002678,0.000431,0.215429
19908000,0.0324,0.013523,0.002678,0.000431,0.114825
19909000,0.0324,0.013523,0.002678,0.000431,0.240110
19910000,0.0324,0.013523,0.002678,0.000431,0.034788
19911000,0.0324,0.013523,0.002678,0.000431,0.182521
19912000,0.0324,0.013523,0.002678,0.000431,0.203441
19913000,0.0324,0.013523,0.002678,0.000431,0.050067
19914000,0.0324,0.013523,0.002678,0.000431,0.136098
19915000,0.0324,0.013523,0.002678,0.000431,0.196625
19916000,0.0324,0.013523,0.002678,0.000431,0.219425
19917000,0.0324,0.013523,0.002678,0.000431,0.054298
19918000,0.0324,0.013523,0.002678,0.000431,0.293233
19919000,0.0324,0.013523,0.002678,0.000431,0.254449
19920000,0.0324,0.013523,0.002678,0.000431,0.185224
19921000,0.0324,0.013523,0.002678,0.000431,0.089321
19922000,0.0324,0.013523,0.002678,0.000431,0.060645
19923000,0.0324,0.013523,0.002678,0.000431,0.110476
19924000,0.0324,0.013523,0.002678,0.000431,0.165597
19925000,0.0324,0.013523,0.002678,0.000431,0.244576
19926000,0.0324,0.013523,0.002678,0.000431,0.147498
19927000,0.0324,0.013523,0.002678,0.000431,0.447430
19928000,0.0324,0.013523,0.002678,0.000431,0.121054
19929000,0.0324,0.013523,0.002678,0.000431,0.062525
19930000,0.0324,0.013523,0.002678,0.000431,0.080977
19931000,0.0324,0.013523,0.002678,0.000431,0.220365
19932000,0.0324,0.013523,0.002678,0.000431,0.221188
19933000,0.0324,0.013523,0.002678,0.000431,0.283596
19934000,0.0324,0.013523,0.002678,0.000431,0.196155
19935000,0.0324,0.013523,0.002678,0.000431,0.078039
19936000,0.0324,0.013523,0.002678,0.000431,0.076628
19937000,0.0324,0.013523,0.002678,0.000431,0.141857
19938000,0.0324,0.013523,0.002678,0.000431,0.191688
19939000,0.0324,0.013523,0.002678,0.000431,0.238582
19940000,0.0324,0.013523,0.002678,0.000431,0.095433
19941000,0.0324,0.013523,0.002678,0.000431,0.102955
19942000,0.0324,0.013523,0.002678,0.000431,0.239287
19943000,0.0324,0.013523,0.002678,0.000431,0.168770
19944000,0.0324,0.013523,0.002678,0.000431,0.156312
19945000,0.0324,0.013523,0.002678,0.000431,0.151259
19946000,0.0324,0.013523,0.002678,0.000431,0.169358
19947000,0.0324,0.013523,0.002678,0.000431,0.235291
19948000,0.0324,0.013523,0.002678,0.000431,0.132807
19949000,0.0324,0.013523,0.002678,0.000431,0.038902
19950000,0.0324,0.013523,0.002678,0.000431,0.206497
19951000,0.0324,0.013523,0.002678,0.000431,0.168065
19952000,0.0324,0.013523,0.002678,0.000431,0.160308
19953000,0.0324,0.013523,0.002678,0.000431,0.200856
19954000,0.0324,0.013523,0.002678,0.000431,0.154902
19955000,0.0324,0.013523,0.002678,0.000431,0.082857
19956000,0.0324,0.013523,0.002678,0.000431,0.183226
19957000,0.0324,0.013523,0.002678,0.000431,0.144325
19958000,0.0324,0.013523,0.002678,0.000431,0.183697
19959000,0.0324,0.013523,0.002678,0.000431,0.155490
19960000,0.0324,0.013523,0.002678,0.000431,0.186400
19961000,0.0324,0.013523,0.002678,0.000431,0.055591
19962000,0.0324,0.013523,0.002678,0.000431,0.079802
19963000,0.0324,0.013523,0.002678,0.000431,0.141504
19964000,0.0324,0.013523,0.002678,0.000431,0.198270
19965000,0.0324,0.013523,0.002678,0.000431,0.124227
19966000,0.0324,0.013523,0.002678,0.000431,0.297111
19967000,0.0324,0.013523,0.002678,0.000431,0.157018
19968000,0.0324,0.013523,0.002678,0.000431,0.192041
19969000,0.0324,0.013523,0.002678,0.000431,0.211786
19970000,0.0324,0.013523,0.002678,0.000431,0.223891
19971000,0.0324,0.013523,0.002678,0.000431,0.125050
19972000,0.0324,0.013523,0.002678,0.000431,0.269727
19973000,0.0324,0.013523,0.002678,0.000431,0.109419
19974000,0.0324,0.013523,0.002678,0.000431,0.056884
19975000,0.0324,0.013523,0.002678,0.000431,0.062878
19976000,0.0324,0.013523,0.002678,0.000431,0.233764
19977000,0.0324,0.013523,0.002678,0.000431,0.122347
19978000,0.0324,0.013523,0.002678,0.000431,0.156900
19979000,0.0324,0.013523,0.002678,0.000431,0.289002
19980000,0.0324,0.013523,0.002678,0.000431,0.107303
19981000,0.0324,0.013523,0.002678,0.000431,0.080624
19982000,0.0324,0.013523,0.002678,0.000431,0.212373
19983000,0.0324,0.013523,0.002678,0.000431,0.171004
19984000,0.0324,0.013523,0.002678,0.000431,0.146205
19985000,0.0324,0.013523,0.002678,0.000431,0.152199
19986000,0.0324,0.013523,0.002678,0.000431,0.170651
19987000,0.0324,0.013523,0.002678,0.000431,0.056296
19988000,0.0324,0.013523,0.002678,0.000431,0.126225
19989000,0.0324,0.013523,0.002678,0.000431,0.102250
19990000,0.0324,0.013523,0.002678,0.000431,0.132807
19991000,0.0324,0.013523,0.002678,0.000431,0.113180
19992000,0.0324,0.013523,0.002678,0.000431,0.292645
19993000,0.0324,0.013523,0.002678,0.000431,0.068401
19994000,0.0324,0.013523,0.002678,0.000431,0.128693
19995000,0.0324,0.013523,0.002678,0.000431,0.101662
19996000,0.0324,0.013523,0.002678,0.000431,0.108008
19997000,0.0324,0.013523,0.002678,0.000431,0.107068
19998000,0.0324,0.013523,0.002678,0.000431,0.196272
19999000,0.0324,0.013523,0.002678,0.000431,0.118586
