Cycle,Area(mm^2),PeakDynamic(W),SubthresholdLeakage(W),GateLeakage(W),RunTimeDynamic(W)
18000000,0.0324,0.013523,0.002678,0.000431,0.065111
18001000,0.0324,0.013523,0.002678,0.000431,0.065581
18002000,0.0324,0.013523,0.002678,0.000431,0.069342
18003000,0.0324,0.013523,0.002678,0.000431,0.234234
18004000,0.0324,0.013523,0.002678,0.000431,0.115060
18005000,0.0324,0.013523,0.002678,0.000431,0.143502
18006000,0.0324,0.013523,0.002678,0.000431,0.149848
18007000,0.0324,0.013523,0.002678,0.000431,0.130809
18008000,0.0324,0.013523,0.002678,0.000431,0.035611
18009000,0.0324,0.013523,0.002678,0.000431,0.080154
18010000,0.0324,0.013523,0.002678,0.000431,0.168535
18011000,0.0324,0.013523,0.002678,0.000431,0.074983
18012000,0.0324,0.013523,0.002678,0.000431,0.107891
18013000,0.0324,0.013523,0.002678,0.000431,0.161014
18014000,0.0324,0.013523,0.002678,0.000431,0.114590
18015000,0.0324,0.013523,0.002678,0.000431,0.071927
18016000,0.0324,0.013523,0.002678,0.000431,0.131044
18017000,0.0324,0.013523,0.002678,0.000431,0.045013
18018000,0.0324,0.013523,0.002678,0.000431,0.084385
18019000,0.0324,0.013523,0.002678,0.000431,0.188163
18020000,0.0324,0.013523,0.002678,0.000431,0.114708
18021000,0.0324,0.013523,0.002678,0.000431,0.039019
18022000,0.0324,0.013523,0.002678,0.000431,0.100957
18023000,0.0324,0.013523,0.002678,0.000431,0.082152
18024000,0.0324,0.013523,0.002678,0.000431,0.117646
18025000,0.0324,0.013523,0.002678,0.000431,0.088264
18026000,0.0324,0.013523,0.002678,0.000431,0.343182
18027000,0.0324,0.013523,0.002678,0.000431,0.125520
18028000,0.0324,0.013523,0.002678,0.000431,0.119409
18029000,0.0324,0.013523,0.002678,0.000431,0.154197
18030000,0.0324,0.013523,0.002678,0.000431,0.087323
18031000,0.0324,0.013523,0.002678,0.000431,0.096843
18032000,0.0324,0.013523,0.002678,0.000431,0.181346
18033000,0.0324,0.013523,0.002678,0.000431,0.113180
18034000,0.0324,0.013523,0.002678,0.000431,0.057706
18035000,0.0324,0.013523,0.002678,0.000431,0.035258
18036000,0.0324,0.013523,0.002678,0.000431,0.066638
18037000,0.0324,0.013523,0.002678,0.000431,0.191688
18038000,0.0324,0.013523,0.002678,0.000431,0.053475
18039000,0.0324,0.013523,0.002678,0.000431,0.211668
18040000,0.0324,0.013523,0.002678,0.000431,0.102955
18041000,0.0324,0.013523,0.002678,0.000431,0.035258
18042000,0.0324,0.013523,0.002678,0.000431,0.095433
18043000,0.0324,0.013523,0.002678,0.000431,0.125520
18044000,0.0324,0.013523,0.002678,0.000431,0.055826
18045000,0.0324,0.013523,0.002678,0.000431,0.196155
18046000,0.0324,0.013523,0.002678,0.000431,0.127636
18047000,0.0324,0.013523,0.002678,0.000431,0.042075
18048000,0.0324,0.013523,0.002678,0.000431,0.103660
18049000,0.0324,0.013523,0.002678,0.000431,0.092025
18050000,0.0324,0.013523,0.002678,0.000431,0.128458
18051000,0.0324,0.013523,0.002678,0.000431,0.138918
18052000,0.0324,0.013523,0.002678,0.000431,0.141974
18053000,0.0324,0.013523,0.002678,0.000431,0.038314
18054000,0.0324,0.013523,0.002678,0.000431,0.155725
18055000,0.0324,0.013523,0.002678,0.000431,0.143032
18056000,0.0324,0.013523,0.002678,0.000431,0.119174
18057000,0.0324,0.013523,0.002678,0.000431,0.106245
18058000,0.0324,0.013523,0.002678,0.000431,0.137038
18059000,0.0324,0.013523,0.002678,0.000431,0.110006
18060000,0.0324,0.013523,0.002678,0.000431,0.061115
18061000,0.0324,0.013523,0.002678,0.000431,0.102720
18062000,0.0324,0.013523,0.002678,0.000431,0.125638
18063000,0.0324,0.013523,0.002678,0.000431,0.161249
18064000,0.0324,0.013523,0.002678,0.000431,0.105775
18065000,0.0324,0.013523,0.002678,0.000431,0.124462
18066000,0.0324,0.013523,0.002678,0.000431,0.076511
18067000,0.0324,0.013523,0.002678,0.000431,0.117881
18068000,0.0324,0.013523,0.002678,0.000431,0.101779
18069000,0.0324,0.013523,0.002678,0.000431,0.082035
18070000,0.0324,0.013523,0.002678,0.000431,0.117293
18071000,0.0324,0.013523,0.002678,0.000431,0.132337
18072000,0.0324,0.013523,0.002678,0.000431,0.166537
18073000,0.0324,0.013523,0.002678,0.000431,0.068401
18074000,0.0324,0.013523,0.002678,0.000431,0.061467
18075000,0.0324,0.013523,0.002678,0.000431,0.070987
18076000,0.0324,0.013523,0.002678,0.000431,0.119526
18077000,0.0324,0.013523,0.002678,0.000431,0.102837
18078000,0.0324,0.013523,0.002678,0.000431,0.291705
18079000,0.0324,0.013523,0.002678,0.000431,0.109066
18080000,0.0324,0.013523,0.002678,0.000431,0.128458
18081000,0.0324,0.013523,0.002678,0.000431,0.178760
18082000,0.0324,0.013523,0.002678,0.000431,0.121877
18083000,0.0324,0.013523,0.002678,0.000431,0.173942
18084000,0.0324,0.013523,0.002678,0.000431,0.154079
18085000,0.0324,0.013523,0.002678,0.000431,0.153727
18086000,0.0324,0.013523,0.002678,0.000431,0.052770
18087000,0.0324,0.013523,0.002678,0.000431,0.153962
18088000,0.0324,0.013523,0.002678,0.000431,0.079332
18089000,0.0324,0.013523,0.002678,0.000431,0.216957
18090000,0.0324,0.013523,0.002678,0.000431,0.104600
18091000,0.0324,0.013523,0.002678,0.000431,0.239757
18092000,0.0324,0.013523,0.002678,0.000431,0.060057
18093000,0.0324,0.013523,0.002678,0.000431,0.120819
18094000,0.0324,0.013523,0.002678,0.000431,0.159603
18095000,0.0324,0.013523,0.002678,0.000431,0.140329
18096000,0.0324,0.013523,0.002678,0.000431,0.138918
18097000,0.0324,0.013523,0.002678,0.000431,0.150789
18098000,0.0324,0.013523,0.002678,0.000431,0.176527
18099000,0.0324,0.013523,0.002678,0.000431,0.046189
18100000,0.0324,0.013523,0.002678,0.000431,0.125403
18101000,0.0324,0.013523,0.002678,0.000431,0.277131
18102000,0.0324,0.013523,0.002678,0.000431,0.109771
18103000,0.0324,0.013523,0.002678,0.000431,0.075218
18104000,0.0324,0.013523,0.002678,0.000431,0.096373
18105000,0.0324,0.013523,0.002678,0.000431,0.056884
18106000,0.0324,0.013523,0.002678,0.000431,0.100016
18107000,0.0324,0.013523,0.002678,0.000431,0.072280
18108000,0.0324,0.013523,0.002678,0.000431,0.066168
18109000,0.0324,0.013523,0.002678,0.000431,0.208730
18110000,0.0324,0.013523,0.002678,0.000431,0.251158
18111000,0.0324,0.013523,0.002678,0.000431,0.182521
18112000,0.0324,0.013523,0.002678,0.000431,0.068166
18113000,0.0324,0.013523,0.002678,0.000431,0.087794
18114000,0.0324,0.013523,0.002678,0.000431,0.125050
18115000,0.0324,0.013523,0.002678,0.000431,0.147145
18116000,0.0324,0.013523,0.002678,0.000431,0.080742
18117000,0.0324,0.013523,0.002678,0.000431,0.167948
18118000,0.0324,0.013523,0.002678,0.000431,0.086853
18119000,0.0324,0.013523,0.002678,0.000431,0.125873
18120000,0.0324,0.013523,0.002678,0.000431,0.053240
18121000,0.0324,0.013523,0.002678,0.000431,0.072515
18122000,0.0324,0.013523,0.002678,0.000431,0.145030
18123000,0.0324,0.013523,0.002678,0.000431,0.208377
18124000,0.0324,0.013523,0.002678,0.000431,0.132102
18125000,0.0324,0.013523,0.002678,0.000431,0.050067
18126000,0.0324,0.013523,0.002678,0.000431,0.118233
18127000,0.0324,0.013523,0.002678,0.000431,0.155255
18128000,0.0324,0.013523,0.002678,0.000431,0.331194
18129000,0.0324,0.013523,0.002678,0.000431,0.133747
18130000,0.0324,0.013523,0.002678,0.000431,0.184872
18131000,0.0324,0.013523,0.002678,0.000431,0.061467
18132000,0.0324,0.013523,0.002678,0.000431,0.057706
18133000,0.0324,0.013523,0.002678,0.000431,0.183579
18134000,0.0324,0.013523,0.002678,0.000431,0.171826
18135000,0.0324,0.013523,0.002678,0.000431,0.161719
18136000,0.0324,0.013523,0.002678,0.000431,0.149143
18137000,0.0324,0.013523,0.002678,0.000431,0.133042
18138000,0.0324,0.013523,0.002678,0.000431,0.107186
18139000,0.0324,0.013523,0.002678,0.000431,0.115178
18140000,0.0324,0.013523,0.002678,0.000431,0.148556
18141000,0.0324,0.013523,0.002678,0.000431,0.228240
18142000,0.0324,0.013523,0.002678,0.000431,0.144090
18143000,0.0324,0.013523,0.002678,0.000431,0.173589
18144000,0.0324,0.013523,0.002678,0.000431,0.081682
18145000,0.0324,0.013523,0.002678,0.000431,0.139271
18146000,0.0324,0.013523,0.002678,0.000431,0.150083
18147000,0.0324,0.013523,0.002678,0.000431,0.136098
18148000,0.0324,0.013523,0.002678,0.000431,0.127283
18149000,0.0324,0.013523,0.002678,0.000431,0.097431
18150000,0.0324,0.013523,0.002678,0.000431,0.067344
18151000,0.0324,0.013523,0.002678,0.000431,0.075101
18152000,0.0324,0.013523,0.002678,0.000431,0.173589
18153000,0.0324,0.013523,0.002678,0.000431,0.072162
18154000,0.0324,0.013523,0.002678,0.000431,0.227064
18155000,0.0324,0.013523,0.002678,0.000431,0.166420
18156000,0.0324,0.013523,0.002678,0.000431,0.173589
18157000,0.0324,0.013523,0.002678,0.000431,0.122112
18158000,0.0324,0.013523,0.002678,0.000431,0.094610
18159000,0.0324,0.013523,0.002678,0.000431,0.084620
18160000,0.0324,0.013523,0.002678,0.000431,0.135745
18161000,0.0324,0.013523,0.002678,0.000431,0.192864
18162000,0.0324,0.013523,0.002678,0.000431,0.137743
18163000,0.0324,0.013523,0.002678,0.000431,0.152434
18164000,0.0324,0.013523,0.002678,0.000431,0.109301
18165000,0.0324,0.013523,0.002678,0.000431,0.182051
18166000,0.0324,0.013523,0.002678,0.000431,0.053358
18167000,0.0324,0.013523,0.002678,0.000431,0.132454
18168000,0.0324,0.013523,0.002678,0.000431,0.118351
18169000,0.0324,0.013523,0.002678,0.000431,0.143737
18170000,0.0324,0.013523,0.002678,0.000431,0.065933
18171000,0.0324,0.013523,0.002678,0.000431,0.085796
18172000,0.0324,0.013523,0.002678,0.000431,0.183932
18173000,0.0324,0.013523,0.002678,0.000431,0.099781
18174000,0.0324,0.013523,0.002678,0.000431,0.121289
18175000,0.0324,0.013523,0.002678,0.000431,0.151846
18176000,0.0324,0.013523,0.002678,0.000431,0.151494
18177000,0.0324,0.013523,0.002678,0.000431,0.082740
18178000,0.0324,0.013523,0.002678,0.000431,0.175587
18179000,0.0324,0.013523,0.002678,0.000431,0.151611
18180000,0.0324,0.013523,0.002678,0.000431,0.157488
18181000,0.0324,0.013523,0.002678,0.000431,0.072162
18182000,0.0324,0.013523,0.002678,0.000431,0.134805
18183000,0.0324,0.013523,0.002678,0.000431,0.042780
18184000,0.0324,0.013523,0.002678,0.000431,0.100487
18185000,0.0324,0.013523,0.002678,0.000431,0.120701
18186000,0.0324,0.013523,0.002678,0.000431,0.083327
18187000,0.0324,0.013523,0.002678,0.000431,0.121877
18188000,0.0324,0.013523,0.002678,0.000431,0.147615
18189000,0.0324,0.013523,0.002678,0.000431,0.148086
18190000,0.0324,0.013523,0.002678,0.000431,0.042663
18191000,0.0324,0.013523,0.002678,0.000431,0.167125
18192000,0.0324,0.013523,0.002678,0.000431,0.061232
18193000,0.0324,0.013523,0.002678,0.000431,0.177820
18194000,0.0324,0.013523,0.002678,0.000431,0.260678
18195000,0.0324,0.013523,0.002678,0.000431,0.125403
18196000,0.0324,0.013523,0.002678,0.000431,0.177938
18197000,0.0324,0.013523,0.002678,0.000431,0.051712
18198000,0.0324,0.013523,0.002678,0.000431,0.153844
18199000,0.0324,0.013523,0.002678,0.000431,0.079449
18200000,0.0324,0.013523,0.002678,0.000431,0.095550
18201000,0.0324,0.013523,0.002678,0.000431,0.062407
18202000,0.0324,0.013523,0.002678,0.000431,0.105423
18203000,0.0324,0.013523,0.002678,0.000431,0.080389
18204000,0.0324,0.013523,0.002678,0.000431,0.223304
18205000,0.0324,0.013523,0.002678,0.000431,0.094963
18206000,0.0324,0.013523,0.002678,0.000431,0.160073
18207000,0.0324,0.013523,0.002678,0.000431,0.155372
18208000,0.0324,0.013523,0.002678,0.000431,0.109419
18209000,0.0324,0.013523,0.002678,0.000431,0.069224
18210000,0.0324,0.013523,0.002678,0.000431,0.119996
18211000,0.0324,0.013523,0.002678,0.000431,0.189103
18212000,0.0324,0.013523,0.002678,0.000431,0.202971
18213000,0.0324,0.013523,0.002678,0.000431,0.266907
18214000,0.0324,0.013523,0.002678,0.000431,0.089321
18215000,0.0324,0.013523,0.002678,0.000431,0.132572
18216000,0.0324,0.013523,0.002678,0.000431,0.079919
18217000,0.0324,0.013523,0.002678,0.000431,0.230708
18218000,0.0324,0.013523,0.002678,0.000431,0.100487
18219000,0.0324,0.013523,0.002678,0.000431,0.222481
18220000,0.0324,0.013523,0.002678,0.000431,0.090732
18221000,0.0324,0.013523,0.002678,0.000431,0.122112
18222000,0.0324,0.013523,0.002678,0.000431,0.053593
18223000,0.0324,0.013523,0.002678,0.000431,0.126930
18224000,0.0324,0.013523,0.002678,0.000431,0.116823
18225000,0.0324,0.013523,0.002678,0.000431,0.069694
18226000,0.0324,0.013523,0.002678,0.000431,0.145852
18227000,0.0324,0.013523,0.002678,0.000431,0.159721
18228000,0.0324,0.013523,0.002678,0.000431,0.225184
18229000,0.0324,0.013523,0.002678,0.000431,0.062878
18230000,0.0324,0.013523,0.002678,0.000431,0.147968
18231000,0.0324,0.013523,0.002678,0.000431,0.111417
18232000,0.0324,0.013523,0.002678,0.000431,0.169358
18233000,0.0324,0.013523,0.002678,0.000431,0.117881
18234000,0.0324,0.013523,0.002678,0.000431,0.136450
18235000,0.0324,0.013523,0.002678,0.000431,0.039019
18236000,0.0324,0.013523,0.002678,0.000431,0.068872
18237000,0.0324,0.013523,0.002678,0.000431,0.106481
18238000,0.0324,0.013523,0.002678,0.000431,0.230708
18239000,0.0324,0.013523,0.002678,0.000431,0.132689
18240000,0.0324,0.013523,0.002678,0.000431,0.256682
18241000,0.0324,0.013523,0.002678,0.000431,0.114472
18242000,0.0324,0.013523,0.002678,0.000431,0.079096
18243000,0.0324,0.013523,0.002678,0.000431,0.141504
18244000,0.0324,0.013523,0.002678,0.000431,0.126108
18245000,0.0324,0.013523,0.002678,0.000431,0.267729
18246000,0.0324,0.013523,0.002678,0.000431,0.136803
18247000,0.0324,0.013523,0.002678,0.000431,0.099076
18248000,0.0324,0.013523,0.002678,0.000431,0.034906
18249000,0.0324,0.013523,0.002678,0.000431,0.298757
18250000,0.0324,0.013523,0.002678,0.000431,0.186870
18251000,0.0324,0.013523,0.002678,0.000431,0.161719
18252000,0.0324,0.013523,0.002678,0.000431,0.072515
18253000,0.0324,0.013523,0.002678,0.000431,0.237407
18254000,0.0324,0.013523,0.002678,0.000431,0.152552
18255000,0.0324,0.013523,0.002678,0.000431,0.091437
18256000,0.0324,0.013523,0.002678,0.000431,0.147733
18257000,0.0324,0.013523,0.002678,0.000431,0.084973
18258000,0.0324,0.013523,0.002678,0.000431,0.156900
18259000,0.0324,0.013523,0.002678,0.000431,0.193922
18260000,0.0324,0.013523,0.002678,0.000431,0.095315
18261000,0.0324,0.013523,0.002678,0.000431,0.069929
18262000,0.0324,0.013523,0.002678,0.000431,0.173119
18263000,0.0324,0.013523,0.002678,0.000431,0.139036
18264000,0.0324,0.013523,0.002678,0.000431,0.161954
18265000,0.0324,0.013523,0.002678,0.000431,0.176527
18266000,0.0324,0.013523,0.002678,0.000431,0.163247
18267000,0.0324,0.013523,0.002678,0.000431,0.144090
18268000,0.0324,0.013523,0.002678,0.000431,0.092377
18269000,0.0324,0.013523,0.002678,0.000431,0.233528
18270000,0.0324,0.013523,0.002678,0.000431,0.080859
18271000,0.0324,0.013523,0.002678,0.000431,0.094728
18272000,0.0324,0.013523,0.002678,0.000431,0.080859
18273000,0.0324,0.013523,0.002678,0.000431,0.099664
18274000,0.0324,0.013523,0.002678,0.000431,0.102602
18275000,0.0324,0.013523,0.002678,0.000431,0.099546
18276000,0.0324,0.013523,0.002678,0.000431,0.164657
18277000,0.0324,0.013523,0.002678,0.000431,0.257504
18278000,0.0324,0.013523,0.002678,0.000431,0.130221
18279000,0.0324,0.013523,0.002678,0.000431,0.216604
18280000,0.0324,0.013523,0.002678,0.000431,0.148673
18281000,0.0324,0.013523,0.002678,0.000431,0.103660
18282000,0.0324,0.013523,0.002678,0.000431,0.222951
18283000,0.0324,0.013523,0.002678,0.000431,0.162777
18284000,0.0324,0.013523,0.002678,0.000431,0.188633
18285000,0.0324,0.013523,0.002678,0.000431,0.114590
18286000,0.0324,0.013523,0.002678,0.000431,0.140564
18287000,0.0324,0.013523,0.002678,0.000431,0.057706
18288000,0.0324,0.013523,0.002678,0.000431,0.159016
18289000,0.0324,0.013523,0.002678,0.000431,0.089792
18290000,0.0324,0.013523,0.002678,0.000431,0.367628
18291000,0.0324,0.013523,0.002678,0.000431,0.084033
18292000,0.0324,0.013523,0.002678,0.000431,0.220953
18293000,0.0324,0.013523,0.002678,0.000431,0.063818
18294000,0.0324,0.013523,0.002678,0.000431,0.242813
18295000,0.0324,0.013523,0.002678,0.000431,0.264086
18296000,0.0324,0.013523,0.002678,0.000431,0.119879
18297000,0.0324,0.013523,0.002678,0.000431,0.108596
18298000,0.0324,0.013523,0.002678,0.000431,0.175587
18299000,0.0324,0.013523,0.002678,0.000431,0.105070
18300000,0.0324,0.013523,0.002678,0.000431,0.079449
18301000,0.0324,0.013523,0.002678,0.000431,0.242226
18302000,0.0324,0.013523,0.002678,0.000431,0.069577
18303000,0.0324,0.013523,0.002678,0.000431,0.091554
18304000,0.0324,0.013523,0.002678,0.000431,0.097431
18305000,0.0324,0.013523,0.002678,0.000431,0.210963
18306000,0.0324,0.013523,0.002678,0.000431,0.063700
18307000,0.0324,0.013523,0.002678,0.000431,0.166067
18308000,0.0324,0.013523,0.002678,0.000431,0.150436
18309000,0.0324,0.013523,0.002678,0.000431,0.153257
18310000,0.0324,0.013523,0.002678,0.000431,0.227064
18311000,0.0324,0.013523,0.002678,0.000431,0.106481
18312000,0.0324,0.013523,0.002678,0.000431,0.151494
18313000,0.0324,0.013523,0.002678,0.000431,0.101192
18314000,0.0324,0.013523,0.002678,0.000431,0.223539
18315000,0.0324,0.013523,0.002678,0.000431,0.186870
18316000,0.0324,0.013523,0.002678,0.000431,0.215547
18317000,0.0324,0.013523,0.002678,0.000431,0.121407
18318000,0.0324,0.013523,0.002678,0.000431,0.163247
18319000,0.0324,0.013523,0.002678,0.000431,0.038784
18320000,0.0324,0.013523,0.002678,0.000431,0.159251
18321000,0.0324,0.013523,0.002678,0.000431,0.121524
18322000,0.0324,0.013523,0.002678,0.000431,0.219895
18323000,0.0324,0.013523,0.002678,0.000431,0.143384
18324000,0.0324,0.013523,0.002678,0.000431,0.144207
18325000,0.0324,0.013523,0.002678,0.000431,0.121877
18326000,0.0324,0.013523,0.002678,0.000431,0.044426
18327000,0.0324,0.013523,0.002678,0.000431,0.223891
18328000,0.0324,0.013523,0.002678,0.000431,0.228945
18329000,0.0324,0.013523,0.002678,0.000431,0.137743
18330000,0.0324,0.013523,0.002678,0.000431,0.210258
18331000,0.0324,0.013523,0.002678,0.000431,0.313213
18332000,0.0324,0.013523,0.002678,0.000431,0.049949
18333000,0.0324,0.013523,0.002678,0.000431,0.190278
18334000,0.0324,0.013523,0.002678,0.000431,0.165950
18335000,0.0324,0.013523,0.002678,0.000431,0.200621
18336000,0.0324,0.013523,0.002678,0.000431,0.081094
18337000,0.0324,0.013523,0.002678,0.000431,0.156783
18338000,0.0324,0.013523,0.002678,0.000431,0.101074
18339000,0.0324,0.013523,0.002678,0.000431,0.143149
18340000,0.0324,0.013523,0.002678,0.000431,0.245399
18341000,0.0324,0.013523,0.002678,0.000431,0.165245
18342000,0.0324,0.013523,0.002678,0.000431,0.099194
18343000,0.0324,0.013523,0.002678,0.000431,0.119761
18344000,0.0324,0.013523,0.002678,0.000431,0.138331
18345000,0.0324,0.013523,0.002678,0.000431,0.036199
18346000,0.0324,0.013523,0.002678,0.000431,0.157840
18347000,0.0324,0.013523,0.002678,0.000431,0.193569
18348000,0.0324,0.013523,0.002678,0.000431,0.207085
18349000,0.0324,0.013523,0.002678,0.000431,0.126813
18350000,0.0324,0.013523,0.002678,0.000431,0.134217
18351000,0.0324,0.013523,0.002678,0.000431,0.074043
18352000,0.0324,0.013523,0.002678,0.000431,0.174059
18353000,0.0324,0.013523,0.002678,0.000431,0.316856
18354000,0.0324,0.013523,0.002678,0.000431,0.108714
18355000,0.0324,0.013523,0.002678,0.000431,0.197447
18356000,0.0324,0.013523,0.002678,0.000431,0.160191
18357000,0.0324,0.013523,0.002678,0.000431,0.140329
18358000,0.0324,0.013523,0.002678,0.000431,0.039019
18359000,0.0324,0.013523,0.002678,0.000431,0.203794
18360000,0.0324,0.013523,0.002678,0.000431,0.154315
18361000,0.0324,0.013523,0.002678,0.000431,0.269492
18362000,0.0324,0.013523,0.002678,0.000431,0.140211
18363000,0.0324,0.013523,0.002678,0.000431,0.087676
18364000,0.0324,0.013523,0.002678,0.000431,0.072162
18365000,0.0324,0.013523,0.002678,0.000431,0.090027
18366000,0.0324,0.013523,0.002678,0.000431,0.153374
18367000,0.0324,0.013523,0.002678,0.000431,0.161014
18368000,0.0324,0.013523,0.002678,0.000431,0.120114
18369000,0.0324,0.013523,0.002678,0.000431,0.230590
18370000,0.0324,0.013523,0.002678,0.000431,0.153022
18371000,0.0324,0.013523,0.002678,0.000431,0.061702
18372000,0.0324,0.013523,0.002678,0.000431,0.189455
18373000,0.0324,0.013523,0.002678,0.000431,0.126578
18374000,0.0324,0.013523,0.002678,0.000431,0.103660
18375000,0.0324,0.013523,0.002678,0.000431,0.106481
18376000,0.0324,0.013523,0.002678,0.000431,0.272195
18377000,0.0324,0.013523,0.002678,0.000431,0.057706
18378000,0.0324,0.013523,0.002678,0.000431,0.121642
18379000,0.0324,0.013523,0.002678,0.000431,0.128576
18380000,0.0324,0.013523,0.002678,0.000431,0.196272
18381000,0.0324,0.013523,0.002678,0.000431,0.133394
18382000,0.0324,0.013523,0.002678,0.000431,0.192864
18383000,0.0324,0.013523,0.002678,0.000431,0.241638
18384000,0.0324,0.013523,0.002678,0.000431,0.136568
18385000,0.0324,0.013523,0.002678,0.000431,0.257269
18386000,0.0324,0.013523,0.002678,0.000431,0.161954
18387000,0.0324,0.013523,0.002678,0.000431,0.205557
18388000,0.0324,0.013523,0.002678,0.000431,0.170298
18389000,0.0324,0.013523,0.002678,0.000431,0.246339
18390000,0.0324,0.013523,0.002678,0.000431,0.135040
18391000,0.0324,0.013523,0.002678,0.000431,0.135745
18392000,0.0324,0.013523,0.002678,0.000431,0.139036
18393000,0.0324,0.013523,0.002678,0.000431,0.247749
18394000,0.0324,0.013523,0.002678,0.000431,0.097313
18395000,0.0324,0.013523,0.002678,0.000431,0.162659
18396000,0.0324,0.013523,0.002678,0.000431,0.150906
18397000,0.0324,0.013523,0.002678,0.000431,0.140094
18398000,0.0324,0.013523,0.002678,0.000431,0.145265
18399000,0.0324,0.013523,0.002678,0.000431,0.124345
18400000,0.0324,0.013523,0.002678,0.000431,0.145735
18401000,0.0324,0.013523,0.002678,0.000431,0.271255
18402000,0.0324,0.013523,0.002678,0.000431,0.269845
18403000,0.0324,0.013523,0.002678,0.000431,0.044073
18404000,0.0324,0.013523,0.002678,0.000431,0.165950
18405000,0.0324,0.013523,0.002678,0.000431,0.122464
18406000,0.0324,0.013523,0.002678,0.000431,0.177585
18407000,0.0324,0.013523,0.002678,0.000431,0.054063
18408000,0.0324,0.013523,0.002678,0.000431,0.205674
18409000,0.0324,0.013523,0.002678,0.000431,0.161484
18410000,0.0324,0.013523,0.002678,0.000431,0.051360
18411000,0.0324,0.013523,0.002678,0.000431,0.154550
18412000,0.0324,0.013523,0.002678,0.000431,0.116588
18413000,0.0324,0.013523,0.002678,0.000431,0.191101
18414000,0.0324,0.013523,0.002678,0.000431,0.222833
18415000,0.0324,0.013523,0.002678,0.000431,0.191571
18416000,0.0324,0.013523,0.002678,0.000431,0.160896
18417000,0.0324,0.013523,0.002678,0.000431,0.196037
18418000,0.0324,0.013523,0.002678,0.000431,0.239522
18419000,0.0324,0.013523,0.002678,0.000431,0.208260
18420000,0.0324,0.013523,0.002678,0.000431,0.055238
18421000,0.0324,0.013523,0.002678,0.000431,0.220835
18422000,0.0324,0.013523,0.002678,0.000431,0.081094
18423000,0.0324,0.013523,0.002678,0.000431,0.064405
18424000,0.0324,0.013523,0.002678,0.000431,0.243636
18425000,0.0324,0.013523,0.002678,0.000431,0.232118
18426000,0.0324,0.013523,0.002678,0.000431,0.110006
18427000,0.0324,0.013523,0.002678,0.000431,0.242461
18428000,0.0324,0.013523,0.002678,0.000431,0.182991
18429000,0.0324,0.013523,0.002678,0.000431,0.050302
18430000,0.0324,0.013523,0.002678,0.000431,0.175470
18431000,0.0324,0.013523,0.002678,0.000431,0.320852
18432000,0.0324,0.013523,0.002678,0.000431,0.379499
18433000,0.0324,0.013523,0.002678,0.000431,0.215782
18434000,0.0324,0.013523,0.002678,0.000431,0.284301
18435000,0.0324,0.013523,0.002678,0.000431,0.150554
18436000,0.0324,0.013523,0.002678,0.000431,0.170181
18437000,0.0324,0.013523,0.002678,0.000431,0.178173
18438000,0.0324,0.013523,0.002678,0.000431,0.176645
18439000,0.0324,0.013523,0.002678,0.000431,0.189338
18440000,0.0324,0.013523,0.002678,0.000431,0.148556
18441000,0.0324,0.013523,0.002678,0.000431,0.069342
18442000,0.0324,0.013523,0.002678,0.000431,0.064993
18443000,0.0324,0.013523,0.002678,0.000431,0.117881
18444000,0.0324,0.013523,0.002678,0.000431,0.055356
18445000,0.0324,0.013523,0.002678,0.000431,0.308276
18446000,0.0324,0.013523,0.002678,0.000431,0.163129
18447000,0.0324,0.013523,0.002678,0.000431,0.128576
18448000,0.0324,0.013523,0.002678,0.000431,0.093082
18449000,0.0324,0.013523,0.002678,0.000431,0.111887
18450000,0.0324,0.013523,0.002678,0.000431,0.089674
18451000,0.0324,0.013523,0.002678,0.000431,0.326258
18452000,0.0324,0.013523,0.002678,0.000431,0.193216
18453000,0.0324,0.013523,0.002678,0.000431,0.191101
18454000,0.0324,0.013523,0.002678,0.000431,0.132337
18455000,0.0324,0.013523,0.002678,0.000431,0.116941
18456000,0.0324,0.013523,0.002678,0.000431,0.218367
18457000,0.0324,0.013523,0.002678,0.000431,0.149143
18458000,0.0324,0.013523,0.002678,0.000431,0.104483
18459000,0.0324,0.013523,0.002678,0.000431,0.207672
18460000,0.0324,0.013523,0.002678,0.000431,0.205439
18461000,0.0324,0.013523,0.002678,0.000431,0.035141
18462000,0.0324,0.013523,0.002678,0.000431,0.201091
18463000,0.0324,0.013523,0.002678,0.000431,0.102602
18464000,0.0324,0.013523,0.002678,0.000431,0.174177
18465000,0.0324,0.013523,0.002678,0.000431,0.168418
18466000,0.0324,0.013523,0.002678,0.000431,0.133630
18467000,0.0324,0.013523,0.002678,0.000431,0.214489
18468000,0.0324,0.013523,0.002678,0.000431,0.109889
18469000,0.0324,0.013523,0.002678,0.000431,0.235644
18470000,0.0324,0.013523,0.002678,0.000431,0.176645
18471000,0.0324,0.013523,0.002678,0.000431,0.185224
18472000,0.0324,0.013523,0.002678,0.000431,0.141857
18473000,0.0324,0.013523,0.002678,0.000431,0.182404
18474000,0.0324,0.013523,0.002678,0.000431,0.098254
18475000,0.0324,0.013523,0.002678,0.000431,0.261500
18476000,0.0324,0.013523,0.002678,0.000431,0.141386
18477000,0.0324,0.013523,0.002678,0.000431,0.188515
18478000,0.0324,0.013523,0.002678,0.000431,0.170768
18479000,0.0324,0.013523,0.002678,0.000431,0.130221
18480000,0.0324,0.013523,0.002678,0.000431,0.207907
18481000,0.0324,0.013523,0.002678,0.000431,0.094845
18482000,0.0324,0.013523,0.002678,0.000431,0.155607
18483000,0.0324,0.013523,0.002678,0.000431,0.128693
18484000,0.0324,0.013523,0.002678,0.000431,0.110594
18485000,0.0324,0.013523,0.002678,0.000431,0.201796
18486000,0.0324,0.013523,0.002678,0.000431,0.128458
18487000,0.0324,0.013523,0.002678,0.000431,0.113062
18488000,0.0324,0.013523,0.002678,0.000431,0.214019
18489000,0.0324,0.013523,0.002678,0.000431,0.205909
18490000,0.0324,0.013523,0.002678,0.000431,0.112122
18491000,0.0324,0.013523,0.002678,0.000431,0.270432
18492000,0.0324,0.013523,0.002678,0.000431,0.225066
18493000,0.0324,0.013523,0.002678,0.000431,0.061467
18494000,0.0324,0.013523,0.002678,0.000431,0.149261
18495000,0.0324,0.013523,0.002678,0.000431,0.072162
18496000,0.0324,0.013523,0.002678,0.000431,0.195332
18497000,0.0324,0.013523,0.002678,0.000431,0.100252
18498000,0.0324,0.013523,0.002678,0.000431,0.204029
18499000,0.0324,0.013523,0.002678,0.000431,0.165832
18500000,0.0324,0.013523,0.002678,0.000431,0.095080
18501000,0.0324,0.013523,0.002678,0.000431,0.142444
18502000,0.0324,0.013523,0.002678,0.000431,0.090849
18503000,0.0324,0.013523,0.002678,0.000431,0.147968
18504000,0.0324,0.013523,0.002678,0.000431,0.116118
18505000,0.0324,0.013523,0.002678,0.000431,0.145617
18506000,0.0324,0.013523,0.002678,0.000431,0.125285
18507000,0.0324,0.013523,0.002678,0.000431,0.252568
18508000,0.0324,0.013523,0.002678,0.000431,0.220365
18509000,0.0324,0.013523,0.002678,0.000431,0.195097
18510000,0.0324,0.013523,0.002678,0.000431,0.193099
18511000,0.0324,0.013523,0.002678,0.000431,0.276191
18512000,0.0324,0.013523,0.002678,0.000431,0.134217
18513000,0.0324,0.013523,0.002678,0.000431,0.131749
18514000,0.0324,0.013523,0.002678,0.000431,0.149496
18515000,0.0324,0.013523,0.002678,0.000431,0.092025
18516000,0.0324,0.013523,0.002678,0.000431,0.156195
18517000,0.0324,0.013523,0.002678,0.000431,0.142797
18518000,0.0324,0.013523,0.002678,0.000431,0.072632
18519000,0.0324,0.013523,0.002678,0.000431,0.072750
18520000,0.0324,0.013523,0.002678,0.000431,0.175705
18521000,0.0324,0.013523,0.002678,0.000431,0.298051
18522000,0.0324,0.013523,0.002678,0.000431,0.149143
18523000,0.0324,0.013523,0.002678,0.000431,0.161719
18524000,0.0324,0.013523,0.002678,0.000431,0.245751
18525000,0.0324,0.013523,0.002678,0.000431,0.111299
18526000,0.0324,0.013523,0.002678,0.000431,0.170181
18527000,0.0324,0.013523,0.002678,0.000431,0.180641
18528000,0.0324,0.013523,0.002678,0.000431,0.180641
18529000,0.0324,0.013523,0.002678,0.000431,0.112474
18530000,0.0324,0.013523,0.002678,0.000431,0.171356
18531000,0.0324,0.013523,0.002678,0.000431,0.155020
18532000,0.0324,0.013523,0.002678,0.000431,0.060057
18533000,0.0324,0.013523,0.002678,0.000431,0.253743
18534000,0.0324,0.013523,0.002678,0.000431,0.230473
18535000,0.0324,0.013523,0.002678,0.000431,0.141386
18536000,0.0324,0.013523,0.002678,0.000431,0.235409
18537000,0.0324,0.013523,0.002678,0.000431,0.391016
18538000,0.0324,0.013523,0.002678,0.000431,0.092377
18539000,0.0324,0.013523,0.002678,0.000431,0.125755
18540000,0.0324,0.013523,0.002678,0.000431,0.101897
18541000,0.0324,0.013523,0.002678,0.000431,0.376560
18542000,0.0324,0.013523,0.002678,0.000431,0.207437
18543000,0.0324,0.013523,0.002678,0.000431,0.149848
18544000,0.0324,0.013523,0.002678,0.000431,0.121172
18545000,0.0324,0.013523,0.002678,0.000431,0.035258
18546000,0.0324,0.013523,0.002678,0.000431,0.195567
18547000,0.0324,0.013523,0.002678,0.000431,0.091554
18548000,0.0324,0.013523,0.002678,0.000431,0.314623
18549000,0.0324,0.013523,0.002678,0.000431,0.124462
18550000,0.0324,0.013523,0.002678,0.000431,0.193569
18551000,0.0324,0.013523,0.002678,0.000431,0.065346
18552000,0.0324,0.013523,0.002678,0.000431,0.158075
18553000,0.0324,0.013523,0.002678,0.000431,0.175587
18554000,0.0324,0.013523,0.002678,0.000431,0.259855
18555000,0.0324,0.013523,0.002678,0.000431,0.125990
18556000,0.0324,0.013523,0.002678,0.000431,0.194274
18557000,0.0324,0.013523,0.002678,0.000431,0.049832
18558000,0.0324,0.013523,0.002678,0.000431,0.045718
18559000,0.0324,0.013523,0.002678,0.000431,0.287709
18560000,0.0324,0.013523,0.002678,0.000431,0.129751
18561000,0.0324,0.013523,0.002678,0.000431,0.199210
18562000,0.0324,0.013523,0.002678,0.000431,0.116823
18563000,0.0324,0.013523,0.002678,0.000431,0.250923
18564000,0.0324,0.013523,0.002678,0.000431,0.050302
18565000,0.0324,0.013523,0.002678,0.000431,0.162777
18566000,0.0324,0.013523,0.002678,0.000431,0.170768
18567000,0.0324,0.013523,0.002678,0.000431,0.112004
18568000,0.0324,0.013523,0.002678,0.000431,0.153727
18569000,0.0324,0.013523,0.002678,0.000431,0.181111
18570000,0.0324,0.013523,0.002678,0.000431,0.085561
18571000,0.0324,0.013523,0.002678,0.000431,0.068754
18572000,0.0324,0.013523,0.002678,0.000431,0.114120
18573000,0.0324,0.013523,0.002678,0.000431,0.125285
18574000,0.0324,0.013523,0.002678,0.000431,0.166890
18575000,0.0324,0.013523,0.002678,0.000431,0.189573
18576000,0.0324,0.013523,0.002678,0.000431,0.170533
18577000,0.0324,0.013523,0.002678,0.000431,0.080507
18578000,0.0324,0.013523,0.002678,0.000431,0.234704
18579000,0.0324,0.013523,0.002678,0.000431,0.172884
18580000,0.0324,0.013523,0.002678,0.000431,0.133512
18581000,0.0324,0.013523,0.002678,0.000431,0.081447
18582000,0.0324,0.013523,0.002678,0.000431,0.516066
18583000,0.0324,0.013523,0.002678,0.000431,0.236467
18584000,0.0324,0.013523,0.002678,0.000431,0.178995
18585000,0.0324,0.013523,0.002678,0.000431,0.144560
18586000,0.0324,0.013523,0.002678,0.000431,0.155490
18587000,0.0324,0.013523,0.002678,0.000431,0.098371
18588000,0.0324,0.013523,0.002678,0.000431,0.190278
18589000,0.0324,0.013523,0.002678,0.000431,0.165832
18590000,0.0324,0.013523,0.002678,0.000431,0.054416
18591000,0.0324,0.013523,0.002678,0.000431,0.169828
18592000,0.0324,0.013523,0.002678,0.000431,0.171239
18593000,0.0324,0.013523,0.002678,0.000431,0.106598
18594000,0.0324,0.013523,0.002678,0.000431,0.155020
18595000,0.0324,0.013523,0.002678,0.000431,0.196037
18596000,0.0324,0.013523,0.002678,0.000431,0.216369
18597000,0.0324,0.013523,0.002678,0.000431,0.129281
18598000,0.0324,0.013523,0.002678,0.000431,0.064405
18599000,0.0324,0.013523,0.002678,0.000431,0.077098
18600000,0.0324,0.013523,0.002678,0.000431,0.210846
18601000,0.0324,0.013523,0.002678,0.000431,0.124227
18602000,0.0324,0.013523,0.002678,0.000431,0.198623
18603000,0.0324,0.013523,0.002678,0.000431,0.124697
18604000,0.0324,0.013523,0.002678,0.000431,0.268552
18605000,0.0324,0.013523,0.002678,0.000431,0.085561
18606000,0.0324,0.013523,0.002678,0.000431,0.147263
18607000,0.0324,0.013523,0.002678,0.000431,0.130809
18608000,0.0324,0.013523,0.002678,0.000431,0.141386
18609000,0.0324,0.013523,0.002678,0.000431,0.164539
18610000,0.0324,0.013523,0.002678,0.000431,0.141034
18611000,0.0324,0.013523,0.002678,0.000431,0.085561
18612000,0.0324,0.013523,0.002678,0.000431,0.063818
18613000,0.0324,0.013523,0.002678,0.000431,0.148791
18614000,0.0324,0.013523,0.002678,0.000431,0.275369
18615000,0.0324,0.013523,0.002678,0.000431,0.151024
18616000,0.0324,0.013523,0.002678,0.000431,0.202971
18617000,0.0324,0.013523,0.002678,0.000431,0.153022
18618000,0.0324,0.013523,0.002678,0.000431,0.164539
18619000,0.0324,0.013523,0.002678,0.000431,0.095550
18620000,0.0324,0.013523,0.002678,0.000431,0.080272
18621000,0.0324,0.013523,0.002678,0.000431,0.162894
18622000,0.0324,0.013523,0.002678,0.000431,0.221306
18623000,0.0324,0.013523,0.002678,0.000431,0.087794
18624000,0.0324,0.013523,0.002678,0.000431,0.143149
18625000,0.0324,0.013523,0.002678,0.000431,0.137743
18626000,0.0324,0.013523,0.002678,0.000431,0.080154
18627000,0.0324,0.013523,0.002678,0.000431,0.118468
18628000,0.0324,0.013523,0.002678,0.000431,0.217662
18629000,0.0324,0.013523,0.002678,0.000431,0.181816
18630000,0.0324,0.013523,0.002678,0.000431,0.145147
18631000,0.0324,0.013523,0.002678,0.000431,0.137978
18632000,0.0324,0.013523,0.002678,0.000431,0.125520
18633000,0.0324,0.013523,0.002678,0.000431,0.064876
18634000,0.0324,0.013523,0.002678,0.000431,0.190631
18635000,0.0324,0.013523,0.002678,0.000431,0.059469
18636000,0.0324,0.013523,0.002678,0.000431,0.174177
18637000,0.0324,0.013523,0.002678,0.000431,0.241991
18638000,0.0324,0.013523,0.002678,0.000431,0.219425
18639000,0.0324,0.013523,0.002678,0.000431,0.053828
18640000,0.0324,0.013523,0.002678,0.000431,0.136803
18641000,0.0324,0.013523,0.002678,0.000431,0.054063
18642000,0.0324,0.013523,0.002678,0.000431,0.069459
18643000,0.0324,0.013523,0.002678,0.000431,0.073220
18644000,0.0324,0.013523,0.002678,0.000431,0.404062
18645000,0.0324,0.013523,0.002678,0.000431,0.106481
18646000,0.0324,0.013523,0.002678,0.000431,0.065111
18647000,0.0324,0.013523,0.002678,0.000431,0.216017
18648000,0.0324,0.013523,0.002678,0.000431,0.050302
18649000,0.0324,0.013523,0.002678,0.000431,0.074630
18650000,0.0324,0.013523,0.002678,0.000431,0.204734
18651000,0.0324,0.013523,0.002678,0.000431,0.377618
18652000,0.0324,0.013523,0.002678,0.000431,0.035258
18653000,0.0324,0.013523,0.002678,0.000431,0.190866
18654000,0.0324,0.013523,0.002678,0.000431,0.239875
18655000,0.0324,0.013523,0.002678,0.000431,0.087911
18656000,0.0324,0.013523,0.002678,0.000431,0.196037
18657000,0.0324,0.013523,0.002678,0.000431,0.222481
18658000,0.0324,0.013523,0.002678,0.000431,0.192511
18659000,0.0324,0.013523,0.002678,0.000431,0.057824
18660000,0.0324,0.013523,0.002678,0.000431,0.139506
18661000,0.0324,0.013523,0.002678,0.000431,0.104953
18662000,0.0324,0.013523,0.002678,0.000431,0.168065
18663000,0.0324,0.013523,0.002678,0.000431,0.072397
18664000,0.0324,0.013523,0.002678,0.000431,0.199563
18665000,0.0324,0.013523,0.002678,0.000431,0.114943
18666000,0.0324,0.013523,0.002678,0.000431,0.224949
18667000,0.0324,0.013523,0.002678,0.000431,0.216722
18668000,0.0324,0.013523,0.002678,0.000431,0.289002
18669000,0.0324,0.013523,0.002678,0.000431,0.179466
18670000,0.0324,0.013523,0.002678,0.000431,0.256917
18671000,0.0324,0.013523,0.002678,0.000431,0.179466
18672000,0.0324,0.013523,0.002678,0.000431,0.104600
18673000,0.0324,0.013523,0.002678,0.000431,0.173237
18674000,0.0324,0.013523,0.002678,0.000431,0.182991
18675000,0.0324,0.013523,0.002678,0.000431,0.080507
18676000,0.0324,0.013523,0.002678,0.000431,0.151259
18677000,0.0324,0.013523,0.002678,0.000431,0.095433
18678000,0.0324,0.013523,0.002678,0.000431,0.134922
18679000,0.0324,0.013523,0.002678,0.000431,0.156665
18680000,0.0324,0.013523,0.002678,0.000431,0.107538
18681000,0.0324,0.013523,0.002678,0.000431,0.140564
18682000,0.0324,0.013523,0.002678,0.000431,0.090967
18683000,0.0324,0.013523,0.002678,0.000431,0.176057
18684000,0.0324,0.013523,0.002678,0.000431,0.192041
18685000,0.0324,0.013523,0.002678,0.000431,0.129751
18686000,0.0324,0.013523,0.002678,0.000431,0.103895
18687000,0.0324,0.013523,0.002678,0.000431,0.062407
18688000,0.0324,0.013523,0.002678,0.000431,0.128223
18689000,0.0324,0.013523,0.002678,0.000431,0.065346
18690000,0.0324,0.013523,0.002678,0.000431,0.095315
18691000,0.0324,0.013523,0.002678,0.000431,0.170533
18692000,0.0324,0.013523,0.002678,0.000431,0.148086
18693000,0.0324,0.013523,0.002678,0.000431,0.058059
18694000,0.0324,0.013523,0.002678,0.000431,0.095080
18695000,0.0324,0.013523,0.002678,0.000431,0.087676
18696000,0.0324,0.013523,0.002678,0.000431,0.247514
18697000,0.0324,0.013523,0.002678,0.000431,0.176410
18698000,0.0324,0.013523,0.002678,0.000431,0.050772
18699000,0.0324,0.013523,0.002678,0.000431,0.147615
18700000,0.0324,0.013523,0.002678,0.000431,0.157018
18701000,0.0324,0.013523,0.002678,0.000431,0.143619
18702000,0.0324,0.013523,0.002678,0.000431,0.096373
18703000,0.0324,0.013523,0.002678,0.000431,0.132454
18704000,0.0324,0.013523,0.002678,0.000431,0.106598
18705000,0.0324,0.013523,0.002678,0.000431,0.186165
18706000,0.0324,0.013523,0.002678,0.000431,0.152552
18707000,0.0324,0.013523,0.002678,0.000431,0.196272
18708000,0.0324,0.013523,0.002678,0.000431,0.037962
18709000,0.0324,0.013523,0.002678,0.000431,0.231531
18710000,0.0324,0.013523,0.002678,0.000431,0.084855
18711000,0.0324,0.013523,0.002678,0.000431,0.162659
18712000,0.0324,0.013523,0.002678,0.000431,0.219660
18713000,0.0324,0.013523,0.002678,0.000431,0.237054
18714000,0.0324,0.013523,0.002678,0.000431,0.125168
18715000,0.0324,0.013523,0.002678,0.000431,0.193804
18716000,0.0324,0.013523,0.002678,0.000431,0.144795
18717000,0.0324,0.013523,0.002678,0.000431,0.218955
18718000,0.0324,0.013523,0.002678,0.000431,0.195449
18719000,0.0324,0.013523,0.002678,0.000431,0.146910
18720000,0.0324,0.013523,0.002678,0.000431,0.092260
18721000,0.0324,0.013523,0.002678,0.000431,0.065463
18722000,0.0324,0.013523,0.002678,0.000431,0.128341
18723000,0.0324,0.013523,0.002678,0.000431,0.091437
18724000,0.0324,0.013523,0.002678,0.000431,0.263146
18725000,0.0324,0.013523,0.002678,0.000431,0.207907
18726000,0.0324,0.013523,0.002678,0.000431,0.126225
18727000,0.0324,0.013523,0.002678,0.000431,0.047599
18728000,0.0324,0.013523,0.002678,0.000431,0.084973
18729000,0.0324,0.013523,0.002678,0.000431,0.143737
18730000,0.0324,0.013523,0.002678,0.000431,0.112710
18731000,0.0324,0.013523,0.002678,0.000431,0.160073
18732000,0.0324,0.013523,0.002678,0.000431,0.092730
18733000,0.0324,0.013523,0.002678,0.000431,0.227770
18734000,0.0324,0.013523,0.002678,0.000431,0.067931
18735000,0.0324,0.013523,0.002678,0.000431,0.152904
18736000,0.0324,0.013523,0.002678,0.000431,0.184637
18737000,0.0324,0.013523,0.002678,0.000431,0.092612
18738000,0.0324,0.013523,0.002678,0.000431,0.184519
18739000,0.0324,0.013523,0.002678,0.000431,0.180053
18740000,0.0324,0.013523,0.002678,0.000431,0.115060
18741000,0.0324,0.013523,0.002678,0.000431,0.159603
18742000,0.0324,0.013523,0.002678,0.000431,0.203441
18743000,0.0324,0.013523,0.002678,0.000431,0.203324
18744000,0.0324,0.013523,0.002678,0.000431,0.172766
18745000,0.0324,0.013523,0.002678,0.000431,0.101309
18746000,0.0324,0.013523,0.002678,0.000431,0.136098
18747000,0.0324,0.013523,0.002678,0.000431,0.158310
18748000,0.0324,0.013523,0.002678,0.000431,0.138566
18749000,0.0324,0.013523,0.002678,0.000431,0.072867
18750000,0.0324,0.013523,0.002678,0.000431,0.115413
18751000,0.0324,0.013523,0.002678,0.000431,0.142797
18752000,0.0324,0.013523,0.002678,0.000431,0.079214
18753000,0.0324,0.013523,0.002678,0.000431,0.118821
18754000,0.0324,0.013523,0.002678,0.000431,0.178173
18755000,0.0324,0.013523,0.002678,0.000431,0.110476
18756000,0.0324,0.013523,0.002678,0.000431,0.088264
18757000,0.0324,0.013523,0.002678,0.000431,0.144090
18758000,0.0324,0.013523,0.002678,0.000431,0.138801
18759000,0.0324,0.013523,0.002678,0.000431,0.161719
18760000,0.0324,0.013523,0.002678,0.000431,0.128576
18761000,0.0324,0.013523,0.002678,0.000431,0.176175
18762000,0.0324,0.013523,0.002678,0.000431,0.156077
18763000,0.0324,0.013523,0.002678,0.000431,0.152787
18764000,0.0324,0.013523,0.002678,0.000431,0.127165
18765000,0.0324,0.013523,0.002678,0.000431,0.182991
18766000,0.0324,0.013523,0.002678,0.000431,0.113062
18767000,0.0324,0.013523,0.002678,0.000431,0.220013
18768000,0.0324,0.013523,0.002678,0.000431,0.095198
18769000,0.0324,0.013523,0.002678,0.000431,0.124697
18770000,0.0324,0.013523,0.002678,0.000431,0.126578
18771000,0.0324,0.013523,0.002678,0.000431,0.043720
18772000,0.0324,0.013523,0.002678,0.000431,0.148321
18773000,0.0324,0.013523,0.002678,0.000431,0.259502
18774000,0.0324,0.013523,0.002678,0.000431,0.117998
18775000,0.0324,0.013523,0.002678,0.000431,0.082857
18776000,0.0324,0.013523,0.002678,0.000431,0.159956
18777000,0.0324,0.013523,0.002678,0.000431,0.086383
18778000,0.0324,0.013523,0.002678,0.000431,0.142092
18779000,0.0324,0.013523,0.002678,0.000431,0.120349
18780000,0.0324,0.013523,0.002678,0.000431,0.102837
18781000,0.0324,0.013523,0.002678,0.000431,0.076511
18782000,0.0324,0.013523,0.002678,0.000431,0.087911
18783000,0.0324,0.013523,0.002678,0.000431,0.098724
18784000,0.0324,0.013523,0.002678,0.000431,0.169358
18785000,0.0324,0.013523,0.002678,0.000431,0.088734
18786000,0.0324,0.013523,0.002678,0.000431,0.211903
18787000,0.0324,0.013523,0.002678,0.000431,0.096961
18788000,0.0324,0.013523,0.002678,0.000431,0.091319
18789000,0.0324,0.013523,0.002678,0.000431,0.372917
18790000,0.0324,0.013523,0.002678,0.000431,0.058529
18791000,0.0324,0.013523,0.002678,0.000431,0.123052
18792000,0.0324,0.013523,0.002678,0.000431,0.097783
18793000,0.0324,0.013523,0.002678,0.000431,0.062878
18794000,0.0324,0.013523,0.002678,0.000431,0.173119
18795000,0.0324,0.013523,0.002678,0.000431,0.188868
18796000,0.0324,0.013523,0.002678,0.000431,0.151846
18797000,0.0324,0.013523,0.002678,0.000431,0.050302
18798000,0.0324,0.013523,0.002678,0.000431,0.095433
18799000,0.0324,0.013523,0.002678,0.000431,0.087441
18800000,0.0324,0.013523,0.002678,0.000431,0.094610
18801000,0.0324,0.013523,0.002678,0.000431,0.229650
18802000,0.0324,0.013523,0.002678,0.000431,0.233999
18803000,0.0324,0.013523,0.002678,0.000431,0.064876
18804000,0.0324,0.013523,0.002678,0.000431,0.042545
18805000,0.0324,0.013523,0.002678,0.000431,0.133042
18806000,0.0324,0.013523,0.002678,0.000431,0.076393
18807000,0.0324,0.013523,0.002678,0.000431,0.191688
18808000,0.0324,0.013523,0.002678,0.000431,0.132924
18809000,0.0324,0.013523,0.002678,0.000431,0.125285
18810000,0.0324,0.013523,0.002678,0.000431,0.082387
18811000,0.0324,0.013523,0.002678,0.000431,0.094845
18812000,0.0324,0.013523,0.002678,0.000431,0.125755
18813000,0.0324,0.013523,0.002678,0.000431,0.053005
18814000,0.0324,0.013523,0.002678,0.000431,0.250100
18815000,0.0324,0.013523,0.002678,0.000431,0.202971
18816000,0.0324,0.013523,0.002678,0.000431,0.097901
18817000,0.0324,0.013523,0.002678,0.000431,0.088969
18818000,0.0324,0.013523,0.002678,0.000431,0.095433
18819000,0.0324,0.013523,0.002678,0.000431,0.088734
18820000,0.0324,0.013523,0.002678,0.000431,0.086736
18821000,0.0324,0.013523,0.002678,0.000431,0.093787
18822000,0.0324,0.013523,0.002678,0.000431,0.127988
18823000,0.0324,0.013523,0.002678,0.000431,0.174412
18824000,0.0324,0.013523,0.002678,0.000431,0.070987
18825000,0.0324,0.013523,0.002678,0.000431,0.125755
18826000,0.0324,0.013523,0.002678,0.000431,0.103072
18827000,0.0324,0.013523,0.002678,0.000431,0.268904
18828000,0.0324,0.013523,0.002678,0.000431,0.106716
18829000,0.0324,0.013523,0.002678,0.000431,0.146675
18830000,0.0324,0.013523,0.002678,0.000431,0.086853
18831000,0.0324,0.013523,0.002678,0.000431,0.120584
18832000,0.0324,0.013523,0.002678,0.000431,0.108479
18833000,0.0324,0.013523,0.002678,0.000431,0.120584
18834000,0.0324,0.013523,0.002678,0.000431,0.153257
18835000,0.0324,0.013523,0.002678,0.000431,0.163717
18836000,0.0324,0.013523,0.002678,0.000431,0.102014
18837000,0.0324,0.013523,0.002678,0.000431,0.090967
18838000,0.0324,0.013523,0.002678,0.000431,0.171004
18839000,0.0324,0.013523,0.002678,0.000431,0.187693
18840000,0.0324,0.013523,0.002678,0.000431,0.197917
18841000,0.0324,0.013523,0.002678,0.000431,0.115648
18842000,0.0324,0.013523,0.002678,0.000431,0.239287
18843000,0.0324,0.013523,0.002678,0.000431,0.035023
18844000,0.0324,0.013523,0.002678,0.000431,0.096961
18845000,0.0324,0.013523,0.002678,0.000431,0.085913
18846000,0.0324,0.013523,0.002678,0.000431,0.057471
18847000,0.0324,0.013523,0.002678,0.000431,0.177938
18848000,0.0324,0.013523,0.002678,0.000431,0.125990
18849000,0.0324,0.013523,0.002678,0.000431,0.079332
18850000,0.0324,0.013523,0.002678,0.000431,0.184167
18851000,0.0324,0.013523,0.002678,0.000431,0.134452
18852000,0.0324,0.013523,0.002678,0.000431,0.093082
18853000,0.0324,0.013523,0.002678,0.000431,0.104718
18854000,0.0324,0.013523,0.002678,0.000431,0.204499
18855000,0.0324,0.013523,0.002678,0.000431,0.143384
18856000,0.0324,0.013523,0.002678,0.000431,0.193451
18857000,0.0324,0.013523,0.002678,0.000431,0.228592
18858000,0.0324,0.013523,0.002678,0.000431,0.065463
18859000,0.0324,0.013523,0.002678,0.000431,0.072867
18860000,0.0324,0.013523,0.002678,0.000431,0.152787
18861000,0.0324,0.013523,0.002678,0.000431,0.106716
18862000,0.0324,0.013523,0.002678,0.000431,0.257034
18863000,0.0324,0.013523,0.002678,0.000431,0.078391
18864000,0.0324,0.013523,0.002678,0.000431,0.182874
18865000,0.0324,0.013523,0.002678,0.000431,0.095198
18866000,0.0324,0.013523,0.002678,0.000431,0.073455
18867000,0.0324,0.013523,0.002678,0.000431,0.158898
18868000,0.0324,0.013523,0.002678,0.000431,0.092730
18869000,0.0324,0.013523,0.002678,0.000431,0.117058
18870000,0.0324,0.013523,0.002678,0.000431,0.106833
18871000,0.0324,0.013523,0.002678,0.000431,0.154315
18872000,0.0324,0.013523,0.002678,0.000431,0.131279
18873000,0.0324,0.013523,0.002678,0.000431,0.067579
18874000,0.0324,0.013523,0.002678,0.000431,0.110712
18875000,0.0324,0.013523,0.002678,0.000431,0.079684
18876000,0.0324,0.013523,0.002678,0.000431,0.176880
18877000,0.0324,0.013523,0.002678,0.000431,0.242696
18878000,0.0324,0.013523,0.002678,0.000431,0.058059
18879000,0.0324,0.013523,0.002678,0.000431,0.080154
18880000,0.0324,0.013523,0.002678,0.000431,0.058999
18881000,0.0324,0.013523,0.002678,0.000431,0.240345
18882000,0.0324,0.013523,0.002678,0.000431,0.084385
18883000,0.0324,0.013523,0.002678,0.000431,0.260560
18884000,0.0324,0.013523,0.002678,0.000431,0.173942
18885000,0.0324,0.013523,0.002678,0.000431,0.057824
18886000,0.0324,0.013523,0.002678,0.000431,0.046189
18887000,0.0324,0.013523,0.002678,0.000431,0.202971
18888000,0.0324,0.013523,0.002678,0.000431,0.139859
18889000,0.0324,0.013523,0.002678,0.000431,0.136803
18890000,0.0324,0.013523,0.002678,0.000431,0.136568
18891000,0.0324,0.013523,0.002678,0.000431,0.194862
18892000,0.0324,0.013523,0.002678,0.000431,0.140329
18893000,0.0324,0.013523,0.002678,0.000431,0.087441
18894000,0.0324,0.013523,0.002678,0.000431,0.403592
18895000,0.0324,0.013523,0.002678,0.000431,0.144560
18896000,0.0324,0.013523,0.002678,0.000431,0.221423
18897000,0.0324,0.013523,0.002678,0.000431,0.205909
18898000,0.0324,0.013523,0.002678,0.000431,0.083445
18899000,0.0324,0.013523,0.002678,0.000431,0.105305
18900000,0.0324,0.013523,0.002678,0.000431,0.148203
18901000,0.0324,0.013523,0.002678,0.000431,0.150554
18902000,0.0324,0.013523,0.002678,0.000431,0.187340
18903000,0.0324,0.013523,0.002678,0.000431,0.117763
18904000,0.0324,0.013523,0.002678,0.000431,0.110006
18905000,0.0324,0.013523,0.002678,0.000431,0.234939
18906000,0.0324,0.013523,0.002678,0.000431,0.068284
18907000,0.0324,0.013523,0.002678,0.000431,0.057471
18908000,0.0324,0.013523,0.002678,0.000431,0.176410
18909000,0.0324,0.013523,0.002678,0.000431,0.139271
18910000,0.0324,0.013523,0.002678,0.000431,0.133747
18911000,0.0324,0.013523,0.002678,0.000431,0.172884
18912000,0.0324,0.013523,0.002678,0.000431,0.087441
18913000,0.0324,0.013523,0.002678,0.000431,0.043133
18914000,0.0324,0.013523,0.002678,0.000431,0.172061
18915000,0.0324,0.013523,0.002678,0.000431,0.200033
18916000,0.0324,0.013523,0.002678,0.000431,0.115883
18917000,0.0324,0.013523,0.002678,0.000431,0.127988
18918000,0.0324,0.013523,0.002678,0.000431,0.099311
18919000,0.0324,0.013523,0.002678,0.000431,0.118821
18920000,0.0324,0.013523,0.002678,0.000431,0.130339
18921000,0.0324,0.013523,0.002678,0.000431,0.196625
18922000,0.0324,0.013523,0.002678,0.000431,0.110829
18923000,0.0324,0.013523,0.002678,0.000431,0.070869
18924000,0.0324,0.013523,0.002678,0.000431,0.175587
18925000,0.0324,0.013523,0.002678,0.000431,0.118233
18926000,0.0324,0.013523,0.002678,0.000431,0.046306
18927000,0.0324,0.013523,0.002678,0.000431,0.116000
18928000,0.0324,0.013523,0.002678,0.000431,0.206732
18929000,0.0324,0.013523,0.002678,0.000431,0.067461
18930000,0.0324,0.013523,0.002678,0.000431,0.164422
18931000,0.0324,0.013523,0.002678,0.000431,0.099194
18932000,0.0324,0.013523,0.002678,0.000431,0.059352
18933000,0.0324,0.013523,0.002678,0.000431,0.077686
18934000,0.0324,0.013523,0.002678,0.000431,0.128928
18935000,0.0324,0.013523,0.002678,0.000431,0.089321
18936000,0.0324,0.013523,0.002678,0.000431,0.177938
18937000,0.0324,0.013523,0.002678,0.000431,0.121994
18938000,0.0324,0.013523,0.002678,0.000431,0.085208
18939000,0.0324,0.013523,0.002678,0.000431,0.177938
18940000,0.0324,0.013523,0.002678,0.000431,0.199915
18941000,0.0324,0.013523,0.002678,0.000431,0.098019
18942000,0.0324,0.013523,0.002678,0.000431,0.095785
18943000,0.0324,0.013523,0.002678,0.000431,0.072750
18944000,0.0324,0.013523,0.002678,0.000431,0.117881
18945000,0.0324,0.013523,0.002678,0.000431,0.099546
18946000,0.0324,0.013523,0.002678,0.000431,0.129516
18947000,0.0324,0.013523,0.002678,0.000431,0.228592
18948000,0.0324,0.013523,0.002678,0.000431,0.181111
18949000,0.0324,0.013523,0.002678,0.000431,0.080389
18950000,0.0324,0.013523,0.002678,0.000431,0.082035
18951000,0.0324,0.013523,0.002678,0.000431,0.109184
18952000,0.0324,0.013523,0.002678,0.000431,0.102837
18953000,0.0324,0.013523,0.002678,0.000431,0.083680
18954000,0.0324,0.013523,0.002678,0.000431,0.217545
18955000,0.0324,0.013523,0.002678,0.000431,0.134570
18956000,0.0324,0.013523,0.002678,0.000431,0.097431
18957000,0.0324,0.013523,0.002678,0.000431,0.155255
18958000,0.0324,0.013523,0.002678,0.000431,0.054063
18959000,0.0324,0.013523,0.002678,0.000431,0.179701
18960000,0.0324,0.013523,0.002678,0.000431,0.130809
18961000,0.0324,0.013523,0.002678,0.000431,0.335190
18962000,0.0324,0.013523,0.002678,0.000431,0.185577
18963000,0.0324,0.013523,0.002678,0.000431,0.163012
18964000,0.0324,0.013523,0.002678,0.000431,0.090262
18965000,0.0324,0.013523,0.002678,0.000431,0.064288
18966000,0.0324,0.013523,0.002678,0.000431,0.127636
18967000,0.0324,0.013523,0.002678,0.000431,0.160308
18968000,0.0324,0.013523,0.002678,0.000431,0.107186
18969000,0.0324,0.013523,0.002678,0.000431,0.252333
18970000,0.0324,0.013523,0.002678,0.000431,0.120349
18971000,0.0324,0.013523,0.002678,0.000431,0.072397
18972000,0.0324,0.013523,0.002678,0.000431,0.035023
18973000,0.0324,0.013523,0.002678,0.000431,0.230943
18974000,0.0324,0.013523,0.002678,0.000431,0.205439
18975000,0.0324,0.013523,0.002678,0.000431,0.226712
18976000,0.0324,0.013523,0.002678,0.000431,0.091672
18977000,0.0324,0.013523,0.002678,0.000431,0.141269
18978000,0.0324,0.013523,0.002678,0.000431,0.123522
18979000,0.0324,0.013523,0.002678,0.000431,0.147850
18980000,0.0324,0.013523,0.002678,0.000431,0.147968
18981000,0.0324,0.013523,0.002678,0.000431,0.158075
18982000,0.0324,0.013523,0.002678,0.000431,0.172296
18983000,0.0324,0.013523,0.002678,0.000431,0.152199
18984000,0.0324,0.013523,0.002678,0.000431,0.168770
18985000,0.0324,0.013523,0.002678,0.000431,0.108714
18986000,0.0324,0.013523,0.002678,0.000431,0.114002
18987000,0.0324,0.013523,0.002678,0.000431,0.223774
18988000,0.0324,0.013523,0.002678,0.000431,0.216604
18989000,0.0324,0.013523,0.002678,0.000431,0.166890
18990000,0.0324,0.013523,0.002678,0.000431,0.247162
18991000,0.0324,0.013523,0.002678,0.000431,0.108714
18992000,0.0324,0.013523,0.002678,0.000431,0.088381
18993000,0.0324,0.013523,0.002678,0.000431,0.122464
18994000,0.0324,0.013523,0.002678,0.000431,0.102602
18995000,0.0324,0.013523,0.002678,0.000431,0.081447
18996000,0.0324,0.013523,0.002678,0.000431,0.250923
18997000,0.0324,0.013523,0.002678,0.000431,0.227770
18998000,0.0324,0.013523,0.002678,0.000431,0.144090
18999000,0.0324,0.013523,0.002678,0.000431,0.146323
