Cycle,Area(mm^2),PeakDynamic(W),SubthresholdLeakage(W),GateLeakage(W),RunTimeDynamic(W)
11000000,0.0324,0.013523,0.002678,0.000431,0.008462
11001000,0.0324,0.013523,0.002678,0.000431,0.027149
11002000,0.0324,0.013523,0.002678,0.000431,0.019862
11003000,0.0324,0.013523,0.002678,0.000431,0.004701
11004000,0.0324,0.013523,0.002678,0.000431,0.004466
11005000,0.0324,0.013523,0.002678,0.000431,0.076158
11006000,0.0324,0.013523,0.002678,0.000431,0.053593
11007000,0.0324,0.013523,0.002678,0.000431,0.004584
11008000,0.0324,0.013523,0.002678,0.000431,0.019627
11009000,0.0324,0.013523,0.002678,0.000431,0.004701
11010000,0.0324,0.013523,0.002678,0.000431,0.007052
11011000,0.0324,0.013523,0.002678,0.000431,0.004701
11012000,0.0324,0.013523,0.002678,0.000431,0.042075
11013000,0.0324,0.013523,0.002678,0.000431,0.004701
11014000,0.0324,0.013523,0.002678,0.000431,0.004936
11015000,0.0324,0.013523,0.002678,0.000431,0.004701
11016000,0.0324,0.013523,0.002678,0.000431,0.007757
11017000,0.0324,0.013523,0.002678,0.000431,0.009167
11018000,0.0324,0.013523,0.002678,0.000431,0.004701
11019000,0.0324,0.013523,0.002678,0.000431,0.050302
11020000,0.0324,0.013523,0.002678,0.000431,0.057354
11021000,0.0324,0.013523,0.002678,0.000431,0.004701
11022000,0.0324,0.013523,0.002678,0.000431,0.004701
11023000,0.0324,0.013523,0.002678,0.000431,0.027267
11024000,0.0324,0.013523,0.002678,0.000431,0.019745
11025000,0.0324,0.013523,0.002678,0.000431,0.019745
11026000,0.0324,0.013523,0.002678,0.000431,0.084503
11027000,0.0324,0.013523,0.002678,0.000431,0.022683
11028000,0.0324,0.013523,0.002678,0.000431,0.004584
11029000,0.0324,0.013523,0.002678,0.000431,0.004584
11030000,0.0324,0.013523,0.002678,0.000431,0.019745
11031000,0.0324,0.013523,0.002678,0.000431,0.004701
11032000,0.0324,0.013523,0.002678,0.000431,0.042310
11033000,0.0324,0.013523,0.002678,0.000431,0.004701
11034000,0.0324,0.013523,0.002678,0.000431,0.125285
11035000,0.0324,0.013523,0.002678,0.000431,0.004701
11036000,0.0324,0.013523,0.002678,0.000431,0.019745
11037000,0.0324,0.013523,0.002678,0.000431,0.012223
11038000,0.0324,0.013523,0.002678,0.000431,0.005289
11039000,0.0324,0.013523,0.002678,0.000431,0.011635
11040000,0.0324,0.013523,0.002678,0.000431,0.004701
11041000,0.0324,0.013523,0.002678,0.000431,0.004701
11042000,0.0324,0.013523,0.002678,0.000431,0.027502
11043000,0.0324,0.013523,0.002678,0.000431,0.011988
11044000,0.0324,0.013523,0.002678,0.000431,0.004466
11045000,0.0324,0.013523,0.002678,0.000431,0.012223
11046000,0.0324,0.013523,0.002678,0.000431,0.004466
11047000,0.0324,0.013523,0.002678,0.000431,0.004701
11048000,0.0324,0.013523,0.002678,0.000431,0.027267
11049000,0.0324,0.013523,0.002678,0.000431,0.055238
11050000,0.0324,0.013523,0.002678,0.000431,0.014573
11051000,0.0324,0.013523,0.002678,0.000431,0.004701
11052000,0.0324,0.013523,0.002678,0.000431,0.004701
11053000,0.0324,0.013523,0.002678,0.000431,0.004701
11054000,0.0324,0.013523,0.002678,0.000431,0.011753
11055000,0.0324,0.013523,0.002678,0.000431,0.005171
11056000,0.0324,0.013523,0.002678,0.000431,0.012223
11057000,0.0324,0.013523,0.002678,0.000431,0.004701
11058000,0.0324,0.013523,0.002678,0.000431,0.042310
11059000,0.0324,0.013523,0.002678,0.000431,0.004701
11060000,0.0324,0.013523,0.002678,0.000431,0.007874
11061000,0.0324,0.013523,0.002678,0.000431,0.087794
11062000,0.0324,0.013523,0.002678,0.000431,0.046071
11063000,0.0324,0.013523,0.002678,0.000431,0.004701
11064000,0.0324,0.013523,0.002678,0.000431,0.094610
11065000,0.0324,0.013523,0.002678,0.000431,0.027619
11066000,0.0324,0.013523,0.002678,0.000431,0.004701
11067000,0.0324,0.013523,0.002678,0.000431,0.074160
11068000,0.0324,0.013523,0.002678,0.000431,0.042193
11069000,0.0324,0.013523,0.002678,0.000431,0.017629
11070000,0.0324,0.013523,0.002678,0.000431,0.004701
11071000,0.0324,0.013523,0.002678,0.000431,0.049832
11072000,0.0324,0.013523,0.002678,0.000431,0.004584
11073000,0.0324,0.013523,0.002678,0.000431,0.004584
11074000,0.0324,0.013523,0.002678,0.000431,0.057354
11075000,0.0324,0.013523,0.002678,0.000431,0.042310
11076000,0.0324,0.013523,0.002678,0.000431,0.004701
11077000,0.0324,0.013523,0.002678,0.000431,0.004701
11078000,0.0324,0.013523,0.002678,0.000431,0.004701
11079000,0.0324,0.013523,0.002678,0.000431,0.004701
11080000,0.0324,0.013523,0.002678,0.000431,0.050772
11081000,0.0324,0.013523,0.002678,0.000431,0.033848
11082000,0.0324,0.013523,0.002678,0.000431,0.004701
11083000,0.0324,0.013523,0.002678,0.000431,0.004701
11084000,0.0324,0.013523,0.002678,0.000431,0.004701
11085000,0.0324,0.013523,0.002678,0.000431,0.004701
11086000,0.0324,0.013523,0.002678,0.000431,0.016571
11087000,0.0324,0.013523,0.002678,0.000431,0.083092
11088000,0.0324,0.013523,0.002678,0.000431,0.012223
11089000,0.0324,0.013523,0.002678,0.000431,0.004701
11090000,0.0324,0.013523,0.002678,0.000431,0.012223
11091000,0.0324,0.013523,0.002678,0.000431,0.004701
11092000,0.0324,0.013523,0.002678,0.000431,0.004701
11093000,0.0324,0.013523,0.002678,0.000431,0.027267
11094000,0.0324,0.013523,0.002678,0.000431,0.045366
11095000,0.0324,0.013523,0.002678,0.000431,0.024211
11096000,0.0324,0.013523,0.002678,0.000431,0.008462
11097000,0.0324,0.013523,0.002678,0.000431,0.038549
11098000,0.0324,0.013523,0.002678,0.000431,0.019745
11099000,0.0324,0.013523,0.002678,0.000431,0.004701
11100000,0.0324,0.013523,0.002678,0.000431,0.042310
11101000,0.0324,0.013523,0.002678,0.000431,0.117528
11102000,0.0324,0.013523,0.002678,0.000431,0.004701
11103000,0.0324,0.013523,0.002678,0.000431,0.004701
11104000,0.0324,0.013523,0.002678,0.000431,0.004701
11105000,0.0324,0.013523,0.002678,0.000431,0.004701
11106000,0.0324,0.013523,0.002678,0.000431,0.057354
11107000,0.0324,0.013523,0.002678,0.000431,0.004701
11108000,0.0324,0.013523,0.002678,0.000431,0.008580
11109000,0.0324,0.013523,0.002678,0.000431,0.008580
11110000,0.0324,0.013523,0.002678,0.000431,0.006817
11111000,0.0324,0.013523,0.002678,0.000431,0.010107
11112000,0.0324,0.013523,0.002678,0.000431,0.031027
11113000,0.0324,0.013523,0.002678,0.000431,0.008227
11114000,0.0324,0.013523,0.002678,0.000431,0.004936
11115000,0.0324,0.013523,0.002678,0.000431,0.004701
11116000,0.0324,0.013523,0.002678,0.000431,0.027384
11117000,0.0324,0.013523,0.002678,0.000431,0.019862
11118000,0.0324,0.013523,0.002678,0.000431,0.004819
11119000,0.0324,0.013523,0.002678,0.000431,0.027384
11120000,0.0324,0.013523,0.002678,0.000431,0.019745
11121000,0.0324,0.013523,0.002678,0.000431,0.004466
11122000,0.0324,0.013523,0.002678,0.000431,0.012458
11123000,0.0324,0.013523,0.002678,0.000431,0.004701
11124000,0.0324,0.013523,0.002678,0.000431,0.004701
11125000,0.0324,0.013523,0.002678,0.000431,0.034788
11126000,0.0324,0.013523,0.002678,0.000431,0.012223
11127000,0.0324,0.013523,0.002678,0.000431,0.012223
11128000,0.0324,0.013523,0.002678,0.000431,0.004584
11129000,0.0324,0.013523,0.002678,0.000431,0.012105
11130000,0.0324,0.013523,0.002678,0.000431,0.004701
11131000,0.0324,0.013523,0.002678,0.000431,0.004701
11132000,0.0324,0.013523,0.002678,0.000431,0.004701
11133000,0.0324,0.013523,0.002678,0.000431,0.004701
11134000,0.0324,0.013523,0.002678,0.000431,0.004701
11135000,0.0324,0.013523,0.002678,0.000431,0.049832
11136000,0.0324,0.013523,0.002678,0.000431,0.004701
11137000,0.0324,0.013523,0.002678,0.000431,0.004701
11138000,0.0324,0.013523,0.002678,0.000431,0.057354
11139000,0.0324,0.013523,0.002678,0.000431,0.020332
11140000,0.0324,0.013523,0.002678,0.000431,0.019040
11141000,0.0324,0.013523,0.002678,0.000431,0.004584
11142000,0.0324,0.013523,0.002678,0.000431,0.004701
11143000,0.0324,0.013523,0.002678,0.000431,0.004701
11144000,0.0324,0.013523,0.002678,0.000431,0.012223
11145000,0.0324,0.013523,0.002678,0.000431,0.004701
11146000,0.0324,0.013523,0.002678,0.000431,0.049832
11147000,0.0324,0.013523,0.002678,0.000431,0.004701
11148000,0.0324,0.013523,0.002678,0.000431,0.049832
11149000,0.0324,0.013523,0.002678,0.000431,0.004701
11150000,0.0324,0.013523,0.002678,0.000431,0.004701
11151000,0.0324,0.013523,0.002678,0.000431,0.110241
11152000,0.0324,0.013523,0.002678,0.000431,0.035611
11153000,0.0324,0.013523,0.002678,0.000431,0.011400
11154000,0.0324,0.013523,0.002678,0.000431,0.008580
11155000,0.0324,0.013523,0.002678,0.000431,0.008345
11156000,0.0324,0.013523,0.002678,0.000431,0.004701
11157000,0.0324,0.013523,0.002678,0.000431,0.012458
11158000,0.0324,0.013523,0.002678,0.000431,0.004701
11159000,0.0324,0.013523,0.002678,0.000431,0.012811
11160000,0.0324,0.013523,0.002678,0.000431,0.057001
11161000,0.0324,0.013523,0.002678,0.000431,0.011988
11162000,0.0324,0.013523,0.002678,0.000431,0.004701
11163000,0.0324,0.013523,0.002678,0.000431,0.022800
11164000,0.0324,0.013523,0.002678,0.000431,0.016924
11165000,0.0324,0.013523,0.002678,0.000431,0.004701
11166000,0.0324,0.013523,0.002678,0.000431,0.042545
11167000,0.0324,0.013523,0.002678,0.000431,0.004466
11168000,0.0324,0.013523,0.002678,0.000431,0.004584
11169000,0.0324,0.013523,0.002678,0.000431,0.004584
11170000,0.0324,0.013523,0.002678,0.000431,0.004701
11171000,0.0324,0.013523,0.002678,0.000431,0.004701
11172000,0.0324,0.013523,0.002678,0.000431,0.016924
11173000,0.0324,0.013523,0.002678,0.000431,0.026679
11174000,0.0324,0.013523,0.002678,0.000431,0.045718
11175000,0.0324,0.013523,0.002678,0.000431,0.004701
11176000,0.0324,0.013523,0.002678,0.000431,0.023153
11177000,0.0324,0.013523,0.002678,0.000431,0.039372
11178000,0.0324,0.013523,0.002678,0.000431,0.004701
11179000,0.0324,0.013523,0.002678,0.000431,0.004819
11180000,0.0324,0.013523,0.002678,0.000431,0.004701
11181000,0.0324,0.013523,0.002678,0.000431,0.004584
11182000,0.0324,0.013523,0.002678,0.000431,0.004701
11183000,0.0324,0.013523,0.002678,0.000431,0.042310
11184000,0.0324,0.013523,0.002678,0.000431,0.004701
11185000,0.0324,0.013523,0.002678,0.000431,0.043720
11186000,0.0324,0.013523,0.002678,0.000431,0.014573
11187000,0.0324,0.013523,0.002678,0.000431,0.008462
11188000,0.0324,0.013523,0.002678,0.000431,0.004701
11189000,0.0324,0.013523,0.002678,0.000431,0.012458
11190000,0.0324,0.013523,0.002678,0.000431,0.004701
11191000,0.0324,0.013523,0.002678,0.000431,0.004701
11192000,0.0324,0.013523,0.002678,0.000431,0.034788
11193000,0.0324,0.013523,0.002678,0.000431,0.004701
11194000,0.0324,0.013523,0.002678,0.000431,0.004701
11195000,0.0324,0.013523,0.002678,0.000431,0.033966
11196000,0.0324,0.013523,0.002678,0.000431,0.028089
11197000,0.0324,0.013523,0.002678,0.000431,0.004701
11198000,0.0324,0.013523,0.002678,0.000431,0.004701
11199000,0.0324,0.013523,0.002678,0.000431,0.024681
11200000,0.0324,0.013523,0.002678,0.000431,0.022565
11201000,0.0324,0.013523,0.002678,0.000431,0.004466
11202000,0.0324,0.013523,0.002678,0.000431,0.034788
11203000,0.0324,0.013523,0.002678,0.000431,0.004701
11204000,0.0324,0.013523,0.002678,0.000431,0.019745
11205000,0.0324,0.013523,0.002678,0.000431,0.004701
11206000,0.0324,0.013523,0.002678,0.000431,0.004701
11207000,0.0324,0.013523,0.002678,0.000431,0.004466
11208000,0.0324,0.013523,0.002678,0.000431,0.027502
11209000,0.0324,0.013523,0.002678,0.000431,0.004466
11210000,0.0324,0.013523,0.002678,0.000431,0.012223
11211000,0.0324,0.013523,0.002678,0.000431,0.012223
11212000,0.0324,0.013523,0.002678,0.000431,0.042310
11213000,0.0324,0.013523,0.002678,0.000431,0.012223
11214000,0.0324,0.013523,0.002678,0.000431,0.004701
11215000,0.0324,0.013523,0.002678,0.000431,0.100016
11216000,0.0324,0.013523,0.002678,0.000431,0.031733
11217000,0.0324,0.013523,0.002678,0.000431,0.025504
11218000,0.0324,0.013523,0.002678,0.000431,0.004701
11219000,0.0324,0.013523,0.002678,0.000431,0.035023
11220000,0.0324,0.013523,0.002678,0.000431,0.004584
11221000,0.0324,0.013523,0.002678,0.000431,0.004584
11222000,0.0324,0.013523,0.002678,0.000431,0.004701
11223000,0.0324,0.013523,0.002678,0.000431,0.004701
11224000,0.0324,0.013523,0.002678,0.000431,0.004701
11225000,0.0324,0.013523,0.002678,0.000431,0.004701
11226000,0.0324,0.013523,0.002678,0.000431,0.004701
11227000,0.0324,0.013523,0.002678,0.000431,0.004701
11228000,0.0324,0.013523,0.002678,0.000431,0.004701
11229000,0.0324,0.013523,0.002678,0.000431,0.004701
11230000,0.0324,0.013523,0.002678,0.000431,0.004701
11231000,0.0324,0.013523,0.002678,0.000431,0.004701
11232000,0.0324,0.013523,0.002678,0.000431,0.010342
11233000,0.0324,0.013523,0.002678,0.000431,0.036669
11234000,0.0324,0.013523,0.002678,0.000431,0.049832
11235000,0.0324,0.013523,0.002678,0.000431,0.004701
11236000,0.0324,0.013523,0.002678,0.000431,0.019745
11237000,0.0324,0.013523,0.002678,0.000431,0.004701
11238000,0.0324,0.013523,0.002678,0.000431,0.004701
11239000,0.0324,0.013523,0.002678,0.000431,0.012223
11240000,0.0324,0.013523,0.002678,0.000431,0.027502
11241000,0.0324,0.013523,0.002678,0.000431,0.034318
11242000,0.0324,0.013523,0.002678,0.000431,0.064876
11243000,0.0324,0.013523,0.002678,0.000431,0.004701
11244000,0.0324,0.013523,0.002678,0.000431,0.004701
11245000,0.0324,0.013523,0.002678,0.000431,0.004701
11246000,0.0324,0.013523,0.002678,0.000431,0.004701
11247000,0.0324,0.013523,0.002678,0.000431,0.004466
11248000,0.0324,0.013523,0.002678,0.000431,0.087676
11249000,0.0324,0.013523,0.002678,0.000431,0.045366
11250000,0.0324,0.013523,0.002678,0.000431,0.009167
11251000,0.0324,0.013523,0.002678,0.000431,0.004701
11252000,0.0324,0.013523,0.002678,0.000431,0.027267
11253000,0.0324,0.013523,0.002678,0.000431,0.019745
11254000,0.0324,0.013523,0.002678,0.000431,0.004701
11255000,0.0324,0.013523,0.002678,0.000431,0.004701
11256000,0.0324,0.013523,0.002678,0.000431,0.034788
11257000,0.0324,0.013523,0.002678,0.000431,0.004701
11258000,0.0324,0.013523,0.002678,0.000431,0.049832
11259000,0.0324,0.013523,0.002678,0.000431,0.004701
11260000,0.0324,0.013523,0.002678,0.000431,0.034788
11261000,0.0324,0.013523,0.002678,0.000431,0.004466
11262000,0.0324,0.013523,0.002678,0.000431,0.019745
11263000,0.0324,0.013523,0.002678,0.000431,0.004701
11264000,0.0324,0.013523,0.002678,0.000431,0.014456
11265000,0.0324,0.013523,0.002678,0.000431,0.070399
11266000,0.0324,0.013523,0.002678,0.000431,0.004701
11267000,0.0324,0.013523,0.002678,0.000431,0.054063
11268000,0.0324,0.013523,0.002678,0.000431,0.017982
11269000,0.0324,0.013523,0.002678,0.000431,0.024798
11270000,0.0324,0.013523,0.002678,0.000431,0.004701
11271000,0.0324,0.013523,0.002678,0.000431,0.004701
11272000,0.0324,0.013523,0.002678,0.000431,0.034788
11273000,0.0324,0.013523,0.002678,0.000431,0.027031
11274000,0.0324,0.013523,0.002678,0.000431,0.035023
11275000,0.0324,0.013523,0.002678,0.000431,0.012223
11276000,0.0324,0.013523,0.002678,0.000431,0.004701
11277000,0.0324,0.013523,0.002678,0.000431,0.004701
11278000,0.0324,0.013523,0.002678,0.000431,0.004701
11279000,0.0324,0.013523,0.002678,0.000431,0.102485
11280000,0.0324,0.013523,0.002678,0.000431,0.012223
11281000,0.0324,0.013523,0.002678,0.000431,0.015866
11282000,0.0324,0.013523,0.002678,0.000431,0.015866
11283000,0.0324,0.013523,0.002678,0.000431,0.004701
11284000,0.0324,0.013523,0.002678,0.000431,0.004701
11285000,0.0324,0.013523,0.002678,0.000431,0.004701
11286000,0.0324,0.013523,0.002678,0.000431,0.012223
11287000,0.0324,0.013523,0.002678,0.000431,0.057236
11288000,0.0324,0.013523,0.002678,0.000431,0.012105
11289000,0.0324,0.013523,0.002678,0.000431,0.004701
11290000,0.0324,0.013523,0.002678,0.000431,0.004701
11291000,0.0324,0.013523,0.002678,0.000431,0.027502
11292000,0.0324,0.013523,0.002678,0.000431,0.012223
11293000,0.0324,0.013523,0.002678,0.000431,0.049832
11294000,0.0324,0.013523,0.002678,0.000431,0.004701
11295000,0.0324,0.013523,0.002678,0.000431,0.004701
11296000,0.0324,0.013523,0.002678,0.000431,0.004701
11297000,0.0324,0.013523,0.002678,0.000431,0.004701
11298000,0.0324,0.013523,0.002678,0.000431,0.004701
11299000,0.0324,0.013523,0.002678,0.000431,0.012223
11300000,0.0324,0.013523,0.002678,0.000431,0.008462
11301000,0.0324,0.013523,0.002678,0.000431,0.023271
11302000,0.0324,0.013523,0.002678,0.000431,0.004701
11303000,0.0324,0.013523,0.002678,0.000431,0.034788
11304000,0.0324,0.013523,0.002678,0.000431,0.004701
11305000,0.0324,0.013523,0.002678,0.000431,0.004701
11306000,0.0324,0.013523,0.002678,0.000431,0.004701
11307000,0.0324,0.013523,0.002678,0.000431,0.053593
11308000,0.0324,0.013523,0.002678,0.000431,0.008462
11309000,0.0324,0.013523,0.002678,0.000431,0.011635
11310000,0.0324,0.013523,0.002678,0.000431,0.057941
11311000,0.0324,0.013523,0.002678,0.000431,0.066756
11312000,0.0324,0.013523,0.002678,0.000431,0.010342
11313000,0.0324,0.013523,0.002678,0.000431,0.004701
11314000,0.0324,0.013523,0.002678,0.000431,0.027267
11315000,0.0324,0.013523,0.002678,0.000431,0.004701
11316000,0.0324,0.013523,0.002678,0.000431,0.010578
11317000,0.0324,0.013523,0.002678,0.000431,0.028912
11318000,0.0324,0.013523,0.002678,0.000431,0.004701
11319000,0.0324,0.013523,0.002678,0.000431,0.004701
11320000,0.0324,0.013523,0.002678,0.000431,0.004701
11321000,0.0324,0.013523,0.002678,0.000431,0.004584
11322000,0.0324,0.013523,0.002678,0.000431,0.034906
11323000,0.0324,0.013523,0.002678,0.000431,0.019745
11324000,0.0324,0.013523,0.002678,0.000431,0.004701
11325000,0.0324,0.013523,0.002678,0.000431,0.004701
11326000,0.0324,0.013523,0.002678,0.000431,0.019745
11327000,0.0324,0.013523,0.002678,0.000431,0.004466
11328000,0.0324,0.013523,0.002678,0.000431,0.072632
11329000,0.0324,0.013523,0.002678,0.000431,0.016101
11330000,0.0324,0.013523,0.002678,0.000431,0.016101
11331000,0.0324,0.013523,0.002678,0.000431,0.004701
11332000,0.0324,0.013523,0.002678,0.000431,0.043485
11333000,0.0324,0.013523,0.002678,0.000431,0.011048
11334000,0.0324,0.013523,0.002678,0.000431,0.004701
11335000,0.0324,0.013523,0.002678,0.000431,0.004701
11336000,0.0324,0.013523,0.002678,0.000431,0.004701
11337000,0.0324,0.013523,0.002678,0.000431,0.065111
11338000,0.0324,0.013523,0.002678,0.000431,0.009520
11339000,0.0324,0.013523,0.002678,0.000431,0.120466
11340000,0.0324,0.013523,0.002678,0.000431,0.004701
11341000,0.0324,0.013523,0.002678,0.000431,0.004701
11342000,0.0324,0.013523,0.002678,0.000431,0.004701
11343000,0.0324,0.013523,0.002678,0.000431,0.056766
11344000,0.0324,0.013523,0.002678,0.000431,0.005054
11345000,0.0324,0.013523,0.002678,0.000431,0.049832
11346000,0.0324,0.013523,0.002678,0.000431,0.004701
11347000,0.0324,0.013523,0.002678,0.000431,0.004466
11348000,0.0324,0.013523,0.002678,0.000431,0.004701
11349000,0.0324,0.013523,0.002678,0.000431,0.007757
11350000,0.0324,0.013523,0.002678,0.000431,0.016924
11351000,0.0324,0.013523,0.002678,0.000431,0.072397
11352000,0.0324,0.013523,0.002678,0.000431,0.004701
11353000,0.0324,0.013523,0.002678,0.000431,0.004701
11354000,0.0324,0.013523,0.002678,0.000431,0.012223
11355000,0.0324,0.013523,0.002678,0.000431,0.004466
11356000,0.0324,0.013523,0.002678,0.000431,0.004701
11357000,0.0324,0.013523,0.002678,0.000431,0.049832
11358000,0.0324,0.013523,0.002678,0.000431,0.004701
11359000,0.0324,0.013523,0.002678,0.000431,0.004701
11360000,0.0324,0.013523,0.002678,0.000431,0.004701
11361000,0.0324,0.013523,0.002678,0.000431,0.004701
11362000,0.0324,0.013523,0.002678,0.000431,0.004701
11363000,0.0324,0.013523,0.002678,0.000431,0.008462
11364000,0.0324,0.013523,0.002678,0.000431,0.055473
11365000,0.0324,0.013523,0.002678,0.000431,0.032908
11366000,0.0324,0.013523,0.002678,0.000431,0.004701
11367000,0.0324,0.013523,0.002678,0.000431,0.004701
11368000,0.0324,0.013523,0.002678,0.000431,0.004466
11369000,0.0324,0.013523,0.002678,0.000431,0.011988
11370000,0.0324,0.013523,0.002678,0.000431,0.064876
11371000,0.0324,0.013523,0.002678,0.000431,0.049832
11372000,0.0324,0.013523,0.002678,0.000431,0.014809
11373000,0.0324,0.013523,0.002678,0.000431,0.009637
11374000,0.0324,0.013523,0.002678,0.000431,0.004701
11375000,0.0324,0.013523,0.002678,0.000431,0.019980
11376000,0.0324,0.013523,0.002678,0.000431,0.004701
11377000,0.0324,0.013523,0.002678,0.000431,0.019980
11378000,0.0324,0.013523,0.002678,0.000431,0.004701
11379000,0.0324,0.013523,0.002678,0.000431,0.012223
11380000,0.0324,0.013523,0.002678,0.000431,0.004701
11381000,0.0324,0.013523,0.002678,0.000431,0.004701
11382000,0.0324,0.013523,0.002678,0.000431,0.004701
11383000,0.0324,0.013523,0.002678,0.000431,0.019627
11384000,0.0324,0.013523,0.002678,0.000431,0.027149
11385000,0.0324,0.013523,0.002678,0.000431,0.019745
11386000,0.0324,0.013523,0.002678,0.000431,0.004701
11387000,0.0324,0.013523,0.002678,0.000431,0.004701
11388000,0.0324,0.013523,0.002678,0.000431,0.042310
11389000,0.0324,0.013523,0.002678,0.000431,0.004701
11390000,0.0324,0.013523,0.002678,0.000431,0.045954
11391000,0.0324,0.013523,0.002678,0.000431,0.016336
11392000,0.0324,0.013523,0.002678,0.000431,0.004701
11393000,0.0324,0.013523,0.002678,0.000431,0.004701
11394000,0.0324,0.013523,0.002678,0.000431,0.004819
11395000,0.0324,0.013523,0.002678,0.000431,0.057001
11396000,0.0324,0.013523,0.002678,0.000431,0.004701
11397000,0.0324,0.013523,0.002678,0.000431,0.057589
11398000,0.0324,0.013523,0.002678,0.000431,0.072397
11399000,0.0324,0.013523,0.002678,0.000431,0.004936
11400000,0.0324,0.013523,0.002678,0.000431,0.004701
11401000,0.0324,0.013523,0.002678,0.000431,0.004701
11402000,0.0324,0.013523,0.002678,0.000431,0.019745
11403000,0.0324,0.013523,0.002678,0.000431,0.004701
11404000,0.0324,0.013523,0.002678,0.000431,0.004701
11405000,0.0324,0.013523,0.002678,0.000431,0.004701
11406000,0.0324,0.013523,0.002678,0.000431,0.004701
11407000,0.0324,0.013523,0.002678,0.000431,0.004701
11408000,0.0324,0.013523,0.002678,0.000431,0.027031
11409000,0.0324,0.013523,0.002678,0.000431,0.004466
11410000,0.0324,0.013523,0.002678,0.000431,0.004701
11411000,0.0324,0.013523,0.002678,0.000431,0.095668
11412000,0.0324,0.013523,0.002678,0.000431,0.033848
11413000,0.0324,0.013523,0.002678,0.000431,0.004701
11414000,0.0324,0.013523,0.002678,0.000431,0.004701
11415000,0.0324,0.013523,0.002678,0.000431,0.034788
11416000,0.0324,0.013523,0.002678,0.000431,0.042310
11417000,0.0324,0.013523,0.002678,0.000431,0.004819
11418000,0.0324,0.013523,0.002678,0.000431,0.004819
11419000,0.0324,0.013523,0.002678,0.000431,0.004701
11420000,0.0324,0.013523,0.002678,0.000431,0.009167
11421000,0.0324,0.013523,0.002678,0.000431,0.034788
11422000,0.0324,0.013523,0.002678,0.000431,0.045366
11423000,0.0324,0.013523,0.002678,0.000431,0.012223
11424000,0.0324,0.013523,0.002678,0.000431,0.004701
11425000,0.0324,0.013523,0.002678,0.000431,0.004701
11426000,0.0324,0.013523,0.002678,0.000431,0.004701
11427000,0.0324,0.013523,0.002678,0.000431,0.020332
11428000,0.0324,0.013523,0.002678,0.000431,0.148438
11429000,0.0324,0.013523,0.002678,0.000431,0.044661
11430000,0.0324,0.013523,0.002678,0.000431,0.008697
11431000,0.0324,0.013523,0.002678,0.000431,0.049832
11432000,0.0324,0.013523,0.002678,0.000431,0.004584
11433000,0.0324,0.013523,0.002678,0.000431,0.004584
11434000,0.0324,0.013523,0.002678,0.000431,0.004701
11435000,0.0324,0.013523,0.002678,0.000431,0.046071
11436000,0.0324,0.013523,0.002678,0.000431,0.038549
11437000,0.0324,0.013523,0.002678,0.000431,0.004701
11438000,0.0324,0.013523,0.002678,0.000431,0.012223
11439000,0.0324,0.013523,0.002678,0.000431,0.004701
11440000,0.0324,0.013523,0.002678,0.000431,0.012223
11441000,0.0324,0.013523,0.002678,0.000431,0.019980
11442000,0.0324,0.013523,0.002678,0.000431,0.012223
11443000,0.0324,0.013523,0.002678,0.000431,0.004701
11444000,0.0324,0.013523,0.002678,0.000431,0.004701
11445000,0.0324,0.013523,0.002678,0.000431,0.004701
11446000,0.0324,0.013523,0.002678,0.000431,0.027267
11447000,0.0324,0.013523,0.002678,0.000431,0.010578
11448000,0.0324,0.013523,0.002678,0.000431,0.021155
11449000,0.0324,0.013523,0.002678,0.000431,0.027267
11450000,0.0324,0.013523,0.002678,0.000431,0.004701
11451000,0.0324,0.013523,0.002678,0.000431,0.004701
11452000,0.0324,0.013523,0.002678,0.000431,0.004701
11453000,0.0324,0.013523,0.002678,0.000431,0.034788
11454000,0.0324,0.013523,0.002678,0.000431,0.004701
11455000,0.0324,0.013523,0.002678,0.000431,0.004701
11456000,0.0324,0.013523,0.002678,0.000431,0.027267
11457000,0.0324,0.013523,0.002678,0.000431,0.027267
11458000,0.0324,0.013523,0.002678,0.000431,0.004466
11459000,0.0324,0.013523,0.002678,0.000431,0.012223
11460000,0.0324,0.013523,0.002678,0.000431,0.019745
11461000,0.0324,0.013523,0.002678,0.000431,0.019745
11462000,0.0324,0.013523,0.002678,0.000431,0.004701
11463000,0.0324,0.013523,0.002678,0.000431,0.009872
11464000,0.0324,0.013523,0.002678,0.000431,0.059939
11465000,0.0324,0.013523,0.002678,0.000431,0.004701
11466000,0.0324,0.013523,0.002678,0.000431,0.004701
11467000,0.0324,0.013523,0.002678,0.000431,0.038432
11468000,0.0324,0.013523,0.002678,0.000431,0.015866
11469000,0.0324,0.013523,0.002678,0.000431,0.004701
11470000,0.0324,0.013523,0.002678,0.000431,0.034788
11471000,0.0324,0.013523,0.002678,0.000431,0.004701
11472000,0.0324,0.013523,0.002678,0.000431,0.012223
11473000,0.0324,0.013523,0.002678,0.000431,0.023506
11474000,0.0324,0.013523,0.002678,0.000431,0.015984
11475000,0.0324,0.013523,0.002678,0.000431,0.004584
11476000,0.0324,0.013523,0.002678,0.000431,0.004584
11477000,0.0324,0.013523,0.002678,0.000431,0.004701
11478000,0.0324,0.013523,0.002678,0.000431,0.023506
11479000,0.0324,0.013523,0.002678,0.000431,0.023506
11480000,0.0324,0.013523,0.002678,0.000431,0.013281
11481000,0.0324,0.013523,0.002678,0.000431,0.018922
11482000,0.0324,0.013523,0.002678,0.000431,0.004701
11483000,0.0324,0.013523,0.002678,0.000431,0.004701
11484000,0.0324,0.013523,0.002678,0.000431,0.004701
11485000,0.0324,0.013523,0.002678,0.000431,0.019745
11486000,0.0324,0.013523,0.002678,0.000431,0.109771
11487000,0.0324,0.013523,0.002678,0.000431,0.004701
11488000,0.0324,0.013523,0.002678,0.000431,0.004701
11489000,0.0324,0.013523,0.002678,0.000431,0.030087
11490000,0.0324,0.013523,0.002678,0.000431,0.009402
11491000,0.0324,0.013523,0.002678,0.000431,0.030087
11492000,0.0324,0.013523,0.002678,0.000431,0.011870
11493000,0.0324,0.013523,0.002678,0.000431,0.025034
11494000,0.0324,0.013523,0.002678,0.000431,0.004701
11495000,0.0324,0.013523,0.002678,0.000431,0.004701
11496000,0.0324,0.013523,0.002678,0.000431,0.004584
11497000,0.0324,0.013523,0.002678,0.000431,0.004584
11498000,0.0324,0.013523,0.002678,0.000431,0.004466
11499000,0.0324,0.013523,0.002678,0.000431,0.027737
11500000,0.0324,0.013523,0.002678,0.000431,0.042310
11501000,0.0324,0.013523,0.002678,0.000431,0.004701
11502000,0.0324,0.013523,0.002678,0.000431,0.004701
11503000,0.0324,0.013523,0.002678,0.000431,0.004701
11504000,0.0324,0.013523,0.002678,0.000431,0.075688
11505000,0.0324,0.013523,0.002678,0.000431,0.080154
11506000,0.0324,0.013523,0.002678,0.000431,0.026444
11507000,0.0324,0.013523,0.002678,0.000431,0.062172
11508000,0.0324,0.013523,0.002678,0.000431,0.004466
11509000,0.0324,0.013523,0.002678,0.000431,0.012458
11510000,0.0324,0.013523,0.002678,0.000431,0.004701
11511000,0.0324,0.013523,0.002678,0.000431,0.019745
11512000,0.0324,0.013523,0.002678,0.000431,0.004701
11513000,0.0324,0.013523,0.002678,0.000431,0.057354
11514000,0.0324,0.013523,0.002678,0.000431,0.004701
11515000,0.0324,0.013523,0.002678,0.000431,0.042310
11516000,0.0324,0.013523,0.002678,0.000431,0.004701
11517000,0.0324,0.013523,0.002678,0.000431,0.042310
11518000,0.0324,0.013523,0.002678,0.000431,0.019745
11519000,0.0324,0.013523,0.002678,0.000431,0.019510
11520000,0.0324,0.013523,0.002678,0.000431,0.019745
11521000,0.0324,0.013523,0.002678,0.000431,0.004701
11522000,0.0324,0.013523,0.002678,0.000431,0.004701
11523000,0.0324,0.013523,0.002678,0.000431,0.008462
11524000,0.0324,0.013523,0.002678,0.000431,0.046071
11525000,0.0324,0.013523,0.002678,0.000431,0.004701
11526000,0.0324,0.013523,0.002678,0.000431,0.004701
11527000,0.0324,0.013523,0.002678,0.000431,0.004701
11528000,0.0324,0.013523,0.002678,0.000431,0.072397
11529000,0.0324,0.013523,0.002678,0.000431,0.027502
11530000,0.0324,0.013523,0.002678,0.000431,0.012223
11531000,0.0324,0.013523,0.002678,0.000431,0.004701
11532000,0.0324,0.013523,0.002678,0.000431,0.004701
11533000,0.0324,0.013523,0.002678,0.000431,0.004701
11534000,0.0324,0.013523,0.002678,0.000431,0.004701
11535000,0.0324,0.013523,0.002678,0.000431,0.019510
11536000,0.0324,0.013523,0.002678,0.000431,0.028794
11537000,0.0324,0.013523,0.002678,0.000431,0.048774
11538000,0.0324,0.013523,0.002678,0.000431,0.004701
11539000,0.0324,0.013523,0.002678,0.000431,0.049832
11540000,0.0324,0.013523,0.002678,0.000431,0.004701
11541000,0.0324,0.013523,0.002678,0.000431,0.004701
11542000,0.0324,0.013523,0.002678,0.000431,0.012223
11543000,0.0324,0.013523,0.002678,0.000431,0.049832
11544000,0.0324,0.013523,0.002678,0.000431,0.004701
11545000,0.0324,0.013523,0.002678,0.000431,0.004701
11546000,0.0324,0.013523,0.002678,0.000431,0.004701
11547000,0.0324,0.013523,0.002678,0.000431,0.004701
11548000,0.0324,0.013523,0.002678,0.000431,0.057706
11549000,0.0324,0.013523,0.002678,0.000431,0.019157
11550000,0.0324,0.013523,0.002678,0.000431,0.012223
11551000,0.0324,0.013523,0.002678,0.000431,0.004701
11552000,0.0324,0.013523,0.002678,0.000431,0.004466
11553000,0.0324,0.013523,0.002678,0.000431,0.004701
11554000,0.0324,0.013523,0.002678,0.000431,0.004701
11555000,0.0324,0.013523,0.002678,0.000431,0.072397
11556000,0.0324,0.013523,0.002678,0.000431,0.012223
11557000,0.0324,0.013523,0.002678,0.000431,0.027502
11558000,0.0324,0.013523,0.002678,0.000431,0.004701
11559000,0.0324,0.013523,0.002678,0.000431,0.004466
11560000,0.0324,0.013523,0.002678,0.000431,0.004701
11561000,0.0324,0.013523,0.002678,0.000431,0.059234
11562000,0.0324,0.013523,0.002678,0.000431,0.010578
11563000,0.0324,0.013523,0.002678,0.000431,0.077334
11564000,0.0324,0.013523,0.002678,0.000431,0.037256
11565000,0.0324,0.013523,0.002678,0.000431,0.004584
11566000,0.0324,0.013523,0.002678,0.000431,0.004701
11567000,0.0324,0.013523,0.002678,0.000431,0.004701
11568000,0.0324,0.013523,0.002678,0.000431,0.004701
11569000,0.0324,0.013523,0.002678,0.000431,0.044308
11570000,0.0324,0.013523,0.002678,0.000431,0.047834
11571000,0.0324,0.013523,0.002678,0.000431,0.004701
11572000,0.0324,0.013523,0.002678,0.000431,0.004701
11573000,0.0324,0.013523,0.002678,0.000431,0.004701
11574000,0.0324,0.013523,0.002678,0.000431,0.004701
11575000,0.0324,0.013523,0.002678,0.000431,0.004701
11576000,0.0324,0.013523,0.002678,0.000431,0.067109
11577000,0.0324,0.013523,0.002678,0.000431,0.025034
11578000,0.0324,0.013523,0.002678,0.000431,0.004701
11579000,0.0324,0.013523,0.002678,0.000431,0.004701
11580000,0.0324,0.013523,0.002678,0.000431,0.004701
11581000,0.0324,0.013523,0.002678,0.000431,0.004466
11582000,0.0324,0.013523,0.002678,0.000431,0.042310
11583000,0.0324,0.013523,0.002678,0.000431,0.027031
11584000,0.0324,0.013523,0.002678,0.000431,0.004701
11585000,0.0324,0.013523,0.002678,0.000431,0.004701
11586000,0.0324,0.013523,0.002678,0.000431,0.027267
11587000,0.0324,0.013523,0.002678,0.000431,0.004701
11588000,0.0324,0.013523,0.002678,0.000431,0.004701
11589000,0.0324,0.013523,0.002678,0.000431,0.042310
11590000,0.0324,0.013523,0.002678,0.000431,0.004701
11591000,0.0324,0.013523,0.002678,0.000431,0.004701
11592000,0.0324,0.013523,0.002678,0.000431,0.051830
11593000,0.0324,0.013523,0.002678,0.000431,0.047599
11594000,0.0324,0.013523,0.002678,0.000431,0.004701
11595000,0.0324,0.013523,0.002678,0.000431,0.017394
11596000,0.0324,0.013523,0.002678,0.000431,0.082270
11597000,0.0324,0.013523,0.002678,0.000431,0.004701
11598000,0.0324,0.013523,0.002678,0.000431,0.004701
11599000,0.0324,0.013523,0.002678,0.000431,0.004701
11600000,0.0324,0.013523,0.002678,0.000431,0.004701
11601000,0.0324,0.013523,0.002678,0.000431,0.004701
11602000,0.0324,0.013523,0.002678,0.000431,0.026679
11603000,0.0324,0.013523,0.002678,0.000431,0.140446
11604000,0.0324,0.013523,0.002678,0.000431,0.004701
11605000,0.0324,0.013523,0.002678,0.000431,0.027267
11606000,0.0324,0.013523,0.002678,0.000431,0.004701
11607000,0.0324,0.013523,0.002678,0.000431,0.004701
11608000,0.0324,0.013523,0.002678,0.000431,0.011870
11609000,0.0324,0.013523,0.002678,0.000431,0.174764
11610000,0.0324,0.013523,0.002678,0.000431,0.023153
11611000,0.0324,0.013523,0.002678,0.000431,0.004466
11612000,0.0324,0.013523,0.002678,0.000431,0.004584
11613000,0.0324,0.013523,0.002678,0.000431,0.004701
11614000,0.0324,0.013523,0.002678,0.000431,0.012223
11615000,0.0324,0.013523,0.002678,0.000431,0.018687
11616000,0.0324,0.013523,0.002678,0.000431,0.118586
11617000,0.0324,0.013523,0.002678,0.000431,0.042310
11618000,0.0324,0.013523,0.002678,0.000431,0.004701
11619000,0.0324,0.013523,0.002678,0.000431,0.004701
11620000,0.0324,0.013523,0.002678,0.000431,0.012223
11621000,0.0324,0.013523,0.002678,0.000431,0.027267
11622000,0.0324,0.013523,0.002678,0.000431,0.027149
11623000,0.0324,0.013523,0.002678,0.000431,0.012105
11624000,0.0324,0.013523,0.002678,0.000431,0.012223
11625000,0.0324,0.013523,0.002678,0.000431,0.004701
11626000,0.0324,0.013523,0.002678,0.000431,0.004701
11627000,0.0324,0.013523,0.002678,0.000431,0.012223
11628000,0.0324,0.013523,0.002678,0.000431,0.004701
11629000,0.0324,0.013523,0.002678,0.000431,0.019745
11630000,0.0324,0.013523,0.002678,0.000431,0.046071
11631000,0.0324,0.013523,0.002678,0.000431,0.008462
11632000,0.0324,0.013523,0.002678,0.000431,0.004701
11633000,0.0324,0.013523,0.002678,0.000431,0.008697
11634000,0.0324,0.013523,0.002678,0.000431,0.007992
11635000,0.0324,0.013523,0.002678,0.000431,0.027267
11636000,0.0324,0.013523,0.002678,0.000431,0.004701
11637000,0.0324,0.013523,0.002678,0.000431,0.004701
11638000,0.0324,0.013523,0.002678,0.000431,0.004701
11639000,0.0324,0.013523,0.002678,0.000431,0.004701
11640000,0.0324,0.013523,0.002678,0.000431,0.042310
11641000,0.0324,0.013523,0.002678,0.000431,0.005994
11642000,0.0324,0.013523,0.002678,0.000431,0.025974
11643000,0.0324,0.013523,0.002678,0.000431,0.004701
11644000,0.0324,0.013523,0.002678,0.000431,0.004701
11645000,0.0324,0.013523,0.002678,0.000431,0.004701
11646000,0.0324,0.013523,0.002678,0.000431,0.004701
11647000,0.0324,0.013523,0.002678,0.000431,0.004701
11648000,0.0324,0.013523,0.002678,0.000431,0.004701
11649000,0.0324,0.013523,0.002678,0.000431,0.019745
11650000,0.0324,0.013523,0.002678,0.000431,0.019745
11651000,0.0324,0.013523,0.002678,0.000431,0.004349
11652000,0.0324,0.013523,0.002678,0.000431,0.004584
11653000,0.0324,0.013523,0.002678,0.000431,0.027267
11654000,0.0324,0.013523,0.002678,0.000431,0.046894
11655000,0.0324,0.013523,0.002678,0.000431,0.121172
11656000,0.0324,0.013523,0.002678,0.000431,0.072632
11657000,0.0324,0.013523,0.002678,0.000431,0.004701
11658000,0.0324,0.013523,0.002678,0.000431,0.004701
11659000,0.0324,0.013523,0.002678,0.000431,0.004701
11660000,0.0324,0.013523,0.002678,0.000431,0.004701
11661000,0.0324,0.013523,0.002678,0.000431,0.019745
11662000,0.0324,0.013523,0.002678,0.000431,0.004584
11663000,0.0324,0.013523,0.002678,0.000431,0.004584
11664000,0.0324,0.013523,0.002678,0.000431,0.004701
11665000,0.0324,0.013523,0.002678,0.000431,0.008462
11666000,0.0324,0.013523,0.002678,0.000431,0.015749
11667000,0.0324,0.013523,0.002678,0.000431,0.019745
11668000,0.0324,0.013523,0.002678,0.000431,0.049832
11669000,0.0324,0.013523,0.002678,0.000431,0.034553
11670000,0.0324,0.013523,0.002678,0.000431,0.004701
11671000,0.0324,0.013523,0.002678,0.000431,0.004701
11672000,0.0324,0.013523,0.002678,0.000431,0.004701
11673000,0.0324,0.013523,0.002678,0.000431,0.004701
11674000,0.0324,0.013523,0.002678,0.000431,0.034553
11675000,0.0324,0.013523,0.002678,0.000431,0.019745
11676000,0.0324,0.013523,0.002678,0.000431,0.004701
11677000,0.0324,0.013523,0.002678,0.000431,0.004701
11678000,0.0324,0.013523,0.002678,0.000431,0.025269
11679000,0.0324,0.013523,0.002678,0.000431,0.059352
11680000,0.0324,0.013523,0.002678,0.000431,0.064993
11681000,0.0324,0.013523,0.002678,0.000431,0.025621
11682000,0.0324,0.013523,0.002678,0.000431,0.058882
11683000,0.0324,0.013523,0.002678,0.000431,0.004701
11684000,0.0324,0.013523,0.002678,0.000431,0.004701
11685000,0.0324,0.013523,0.002678,0.000431,0.096961
11686000,0.0324,0.013523,0.002678,0.000431,0.015631
11687000,0.0324,0.013523,0.002678,0.000431,0.096843
11688000,0.0324,0.013523,0.002678,0.000431,0.060527
11689000,0.0324,0.013523,0.002678,0.000431,0.016571
11690000,0.0324,0.013523,0.002678,0.000431,0.004701
11691000,0.0324,0.013523,0.002678,0.000431,0.010460
11692000,0.0324,0.013523,0.002678,0.000431,0.021508
11693000,0.0324,0.013523,0.002678,0.000431,0.004701
11694000,0.0324,0.013523,0.002678,0.000431,0.012340
11695000,0.0324,0.013523,0.002678,0.000431,0.012340
11696000,0.0324,0.013523,0.002678,0.000431,0.004701
11697000,0.0324,0.013523,0.002678,0.000431,0.004701
11698000,0.0324,0.013523,0.002678,0.000431,0.004701
11699000,0.0324,0.013523,0.002678,0.000431,0.014338
11700000,0.0324,0.013523,0.002678,0.000431,0.010342
11701000,0.0324,0.013523,0.002678,0.000431,0.049832
11702000,0.0324,0.013523,0.002678,0.000431,0.004466
11703000,0.0324,0.013523,0.002678,0.000431,0.004466
11704000,0.0324,0.013523,0.002678,0.000431,0.008462
11705000,0.0324,0.013523,0.002678,0.000431,0.008462
11706000,0.0324,0.013523,0.002678,0.000431,0.049714
11707000,0.0324,0.013523,0.002678,0.000431,0.004584
11708000,0.0324,0.013523,0.002678,0.000431,0.004701
11709000,0.0324,0.013523,0.002678,0.000431,0.004701
11710000,0.0324,0.013523,0.002678,0.000431,0.004701
11711000,0.0324,0.013523,0.002678,0.000431,0.042310
11712000,0.0324,0.013523,0.002678,0.000431,0.019745
11713000,0.0324,0.013523,0.002678,0.000431,0.034788
11714000,0.0324,0.013523,0.002678,0.000431,0.057354
11715000,0.0324,0.013523,0.002678,0.000431,0.004701
11716000,0.0324,0.013523,0.002678,0.000431,0.004701
11717000,0.0324,0.013523,0.002678,0.000431,0.052888
11718000,0.0324,0.013523,0.002678,0.000431,0.039489
11719000,0.0324,0.013523,0.002678,0.000431,0.094845
11720000,0.0324,0.013523,0.002678,0.000431,0.004584
11721000,0.0324,0.013523,0.002678,0.000431,0.004701
11722000,0.0324,0.013523,0.002678,0.000431,0.004701
11723000,0.0324,0.013523,0.002678,0.000431,0.004701
11724000,0.0324,0.013523,0.002678,0.000431,0.004701
11725000,0.0324,0.013523,0.002678,0.000431,0.039372
11726000,0.0324,0.013523,0.002678,0.000431,0.007639
11727000,0.0324,0.013523,0.002678,0.000431,0.019745
11728000,0.0324,0.013523,0.002678,0.000431,0.004701
11729000,0.0324,0.013523,0.002678,0.000431,0.004701
11730000,0.0324,0.013523,0.002678,0.000431,0.027502
11731000,0.0324,0.013523,0.002678,0.000431,0.026209
11732000,0.0324,0.013523,0.002678,0.000431,0.110829
11733000,0.0324,0.013523,0.002678,0.000431,0.004466
11734000,0.0324,0.013523,0.002678,0.000431,0.004701
11735000,0.0324,0.013523,0.002678,0.000431,0.004701
11736000,0.0324,0.013523,0.002678,0.000431,0.004466
11737000,0.0324,0.013523,0.002678,0.000431,0.004701
11738000,0.0324,0.013523,0.002678,0.000431,0.047129
11739000,0.0324,0.013523,0.002678,0.000431,0.063818
11740000,0.0324,0.013523,0.002678,0.000431,0.008462
11741000,0.0324,0.013523,0.002678,0.000431,0.004701
11742000,0.0324,0.013523,0.002678,0.000431,0.004701
11743000,0.0324,0.013523,0.002678,0.000431,0.027267
11744000,0.0324,0.013523,0.002678,0.000431,0.004701
11745000,0.0324,0.013523,0.002678,0.000431,0.019745
11746000,0.0324,0.013523,0.002678,0.000431,0.019627
11747000,0.0324,0.013523,0.002678,0.000431,0.004584
11748000,0.0324,0.013523,0.002678,0.000431,0.004701
11749000,0.0324,0.013523,0.002678,0.000431,0.019745
11750000,0.0324,0.013523,0.002678,0.000431,0.019745
11751000,0.0324,0.013523,0.002678,0.000431,0.078039
11752000,0.0324,0.013523,0.002678,0.000431,0.032908
11753000,0.0324,0.013523,0.002678,0.000431,0.023506
11754000,0.0324,0.013523,0.002678,0.000431,0.004584
11755000,0.0324,0.013523,0.002678,0.000431,0.004584
11756000,0.0324,0.013523,0.002678,0.000431,0.004701
11757000,0.0324,0.013523,0.002678,0.000431,0.004701
11758000,0.0324,0.013523,0.002678,0.000431,0.049832
11759000,0.0324,0.013523,0.002678,0.000431,0.012105
11760000,0.0324,0.013523,0.002678,0.000431,0.004584
11761000,0.0324,0.013523,0.002678,0.000431,0.004701
11762000,0.0324,0.013523,0.002678,0.000431,0.004701
11763000,0.0324,0.013523,0.002678,0.000431,0.004701
11764000,0.0324,0.013523,0.002678,0.000431,0.042310
11765000,0.0324,0.013523,0.002678,0.000431,0.089909
11766000,0.0324,0.013523,0.002678,0.000431,0.024798
11767000,0.0324,0.013523,0.002678,0.000431,0.004701
11768000,0.0324,0.013523,0.002678,0.000431,0.004701
11769000,0.0324,0.013523,0.002678,0.000431,0.027267
11770000,0.0324,0.013523,0.002678,0.000431,0.004701
11771000,0.0324,0.013523,0.002678,0.000431,0.007169
11772000,0.0324,0.013523,0.002678,0.000431,0.025034
11773000,0.0324,0.013523,0.002678,0.000431,0.004701
11774000,0.0324,0.013523,0.002678,0.000431,0.004701
11775000,0.0324,0.013523,0.002678,0.000431,0.004701
11776000,0.0324,0.013523,0.002678,0.000431,0.004349
11777000,0.0324,0.013523,0.002678,0.000431,0.019627
11778000,0.0324,0.013523,0.002678,0.000431,0.065111
11779000,0.0324,0.013523,0.002678,0.000431,0.004701
11780000,0.0324,0.013523,0.002678,0.000431,0.004701
11781000,0.0324,0.013523,0.002678,0.000431,0.004701
11782000,0.0324,0.013523,0.002678,0.000431,0.027267
11783000,0.0324,0.013523,0.002678,0.000431,0.010930
11784000,0.0324,0.013523,0.002678,0.000431,0.054886
11785000,0.0324,0.013523,0.002678,0.000431,0.038549
11786000,0.0324,0.013523,0.002678,0.000431,0.004701
11787000,0.0324,0.013523,0.002678,0.000431,0.004701
11788000,0.0324,0.013523,0.002678,0.000431,0.064876
11789000,0.0324,0.013523,0.002678,0.000431,0.004701
11790000,0.0324,0.013523,0.002678,0.000431,0.004701
11791000,0.0324,0.013523,0.002678,0.000431,0.004701
11792000,0.0324,0.013523,0.002678,0.000431,0.004701
11793000,0.0324,0.013523,0.002678,0.000431,0.004701
11794000,0.0324,0.013523,0.002678,0.000431,0.009755
11795000,0.0324,0.013523,0.002678,0.000431,0.037021
11796000,0.0324,0.013523,0.002678,0.000431,0.026796
11797000,0.0324,0.013523,0.002678,0.000431,0.106363
11798000,0.0324,0.013523,0.002678,0.000431,0.046424
11799000,0.0324,0.013523,0.002678,0.000431,0.004701
11800000,0.0324,0.013523,0.002678,0.000431,0.004701
11801000,0.0324,0.013523,0.002678,0.000431,0.012458
11802000,0.0324,0.013523,0.002678,0.000431,0.004701
11803000,0.0324,0.013523,0.002678,0.000431,0.004349
11804000,0.0324,0.013523,0.002678,0.000431,0.019627
11805000,0.0324,0.013523,0.002678,0.000431,0.004701
11806000,0.0324,0.013523,0.002678,0.000431,0.004701
11807000,0.0324,0.013523,0.002678,0.000431,0.004701
11808000,0.0324,0.013523,0.002678,0.000431,0.004701
11809000,0.0324,0.013523,0.002678,0.000431,0.004701
11810000,0.0324,0.013523,0.002678,0.000431,0.036081
11811000,0.0324,0.013523,0.002678,0.000431,0.041017
11812000,0.0324,0.013523,0.002678,0.000431,0.004701
11813000,0.0324,0.013523,0.002678,0.000431,0.004701
11814000,0.0324,0.013523,0.002678,0.000431,0.004701
11815000,0.0324,0.013523,0.002678,0.000431,0.004701
11816000,0.0324,0.013523,0.002678,0.000431,0.004584
11817000,0.0324,0.013523,0.002678,0.000431,0.087088
11818000,0.0324,0.013523,0.002678,0.000431,0.004701
11819000,0.0324,0.013523,0.002678,0.000431,0.004701
11820000,0.0324,0.013523,0.002678,0.000431,0.012458
11821000,0.0324,0.013523,0.002678,0.000431,0.004701
11822000,0.0324,0.013523,0.002678,0.000431,0.024446
11823000,0.0324,0.013523,0.002678,0.000431,0.011283
11824000,0.0324,0.013523,0.002678,0.000431,0.008462
11825000,0.0324,0.013523,0.002678,0.000431,0.004701
11826000,0.0324,0.013523,0.002678,0.000431,0.004701
11827000,0.0324,0.013523,0.002678,0.000431,0.050067
11828000,0.0324,0.013523,0.002678,0.000431,0.004701
11829000,0.0324,0.013523,0.002678,0.000431,0.020332
11830000,0.0324,0.013523,0.002678,0.000431,0.071810
11831000,0.0324,0.013523,0.002678,0.000431,0.004701
11832000,0.0324,0.013523,0.002678,0.000431,0.004701
11833000,0.0324,0.013523,0.002678,0.000431,0.004701
11834000,0.0324,0.013523,0.002678,0.000431,0.004701
11835000,0.0324,0.013523,0.002678,0.000431,0.004701
11836000,0.0324,0.013523,0.002678,0.000431,0.057354
11837000,0.0324,0.013523,0.002678,0.000431,0.004701
11838000,0.0324,0.013523,0.002678,0.000431,0.004701
11839000,0.0324,0.013523,0.002678,0.000431,0.004701
11840000,0.0324,0.013523,0.002678,0.000431,0.019745
11841000,0.0324,0.013523,0.002678,0.000431,0.004701
11842000,0.0324,0.013523,0.002678,0.000431,0.036434
11843000,0.0324,0.013523,0.002678,0.000431,0.070517
11844000,0.0324,0.013523,0.002678,0.000431,0.004466
11845000,0.0324,0.013523,0.002678,0.000431,0.004701
11846000,0.0324,0.013523,0.002678,0.000431,0.034788
11847000,0.0324,0.013523,0.002678,0.000431,0.004701
11848000,0.0324,0.013523,0.002678,0.000431,0.004701
11849000,0.0324,0.013523,0.002678,0.000431,0.064993
11850000,0.0324,0.013523,0.002678,0.000431,0.004584
11851000,0.0324,0.013523,0.002678,0.000431,0.004584
11852000,0.0324,0.013523,0.002678,0.000431,0.022565
11853000,0.0324,0.013523,0.002678,0.000431,0.076981
11854000,0.0324,0.013523,0.002678,0.000431,0.004701
11855000,0.0324,0.013523,0.002678,0.000431,0.080037
11856000,0.0324,0.013523,0.002678,0.000431,0.147968
11857000,0.0324,0.013523,0.002678,0.000431,0.004701
11858000,0.0324,0.013523,0.002678,0.000431,0.004701
11859000,0.0324,0.013523,0.002678,0.000431,0.102250
11860000,0.0324,0.013523,0.002678,0.000431,0.004701
11861000,0.0324,0.013523,0.002678,0.000431,0.004701
11862000,0.0324,0.013523,0.002678,0.000431,0.064876
11863000,0.0324,0.013523,0.002678,0.000431,0.004701
11864000,0.0324,0.013523,0.002678,0.000431,0.004584
11865000,0.0324,0.013523,0.002678,0.000431,0.008345
11866000,0.0324,0.013523,0.002678,0.000431,0.008462
11867000,0.0324,0.013523,0.002678,0.000431,0.004701
11868000,0.0324,0.013523,0.002678,0.000431,0.032790
11869000,0.0324,0.013523,0.002678,0.000431,0.052065
11870000,0.0324,0.013523,0.002678,0.000431,0.004701
11871000,0.0324,0.013523,0.002678,0.000431,0.004701
11872000,0.0324,0.013523,0.002678,0.000431,0.004701
11873000,0.0324,0.013523,0.002678,0.000431,0.004701
11874000,0.0324,0.013523,0.002678,0.000431,0.014456
11875000,0.0324,0.013523,0.002678,0.000431,0.115295
11876000,0.0324,0.013523,0.002678,0.000431,0.004701
11877000,0.0324,0.013523,0.002678,0.000431,0.004701
11878000,0.0324,0.013523,0.002678,0.000431,0.004701
11879000,0.0324,0.013523,0.002678,0.000431,0.004701
11880000,0.0324,0.013523,0.002678,0.000431,0.004701
11881000,0.0324,0.013523,0.002678,0.000431,0.035494
11882000,0.0324,0.013523,0.002678,0.000431,0.019040
11883000,0.0324,0.013523,0.002678,0.000431,0.004701
11884000,0.0324,0.013523,0.002678,0.000431,0.004701
11885000,0.0324,0.013523,0.002678,0.000431,0.027267
11886000,0.0324,0.013523,0.002678,0.000431,0.004466
11887000,0.0324,0.013523,0.002678,0.000431,0.012340
11888000,0.0324,0.013523,0.002678,0.000431,0.042428
11889000,0.0324,0.013523,0.002678,0.000431,0.004701
11890000,0.0324,0.013523,0.002678,0.000431,0.004701
11891000,0.0324,0.013523,0.002678,0.000431,0.054063
11892000,0.0324,0.013523,0.002678,0.000431,0.015044
11893000,0.0324,0.013523,0.002678,0.000431,0.004701
11894000,0.0324,0.013523,0.002678,0.000431,0.017629
11895000,0.0324,0.013523,0.002678,0.000431,0.021860
11896000,0.0324,0.013523,0.002678,0.000431,0.004701
11897000,0.0324,0.013523,0.002678,0.000431,0.004701
11898000,0.0324,0.013523,0.002678,0.000431,0.042310
11899000,0.0324,0.013523,0.002678,0.000431,0.004701
11900000,0.0324,0.013523,0.002678,0.000431,0.004701
11901000,0.0324,0.013523,0.002678,0.000431,0.019745
11902000,0.0324,0.013523,0.002678,0.000431,0.004701
11903000,0.0324,0.013523,0.002678,0.000431,0.004701
11904000,0.0324,0.013523,0.002678,0.000431,0.004466
11905000,0.0324,0.013523,0.002678,0.000431,0.004701
11906000,0.0324,0.013523,0.002678,0.000431,0.004701
11907000,0.0324,0.013523,0.002678,0.000431,0.059587
11908000,0.0324,0.013523,0.002678,0.000431,0.009990
11909000,0.0324,0.013523,0.002678,0.000431,0.004701
11910000,0.0324,0.013523,0.002678,0.000431,0.008462
11911000,0.0324,0.013523,0.002678,0.000431,0.008462
11912000,0.0324,0.013523,0.002678,0.000431,0.004701
11913000,0.0324,0.013523,0.002678,0.000431,0.027267
11914000,0.0324,0.013523,0.002678,0.000431,0.012223
11915000,0.0324,0.013523,0.002678,0.000431,0.004701
11916000,0.0324,0.013523,0.002678,0.000431,0.004701
11917000,0.0324,0.013523,0.002678,0.000431,0.004701
11918000,0.0324,0.013523,0.002678,0.000431,0.004701
11919000,0.0324,0.013523,0.002678,0.000431,0.004701
11920000,0.0324,0.013523,0.002678,0.000431,0.072397
11921000,0.0324,0.013523,0.002678,0.000431,0.004701
11922000,0.0324,0.013523,0.002678,0.000431,0.004701
11923000,0.0324,0.013523,0.002678,0.000431,0.004701
11924000,0.0324,0.013523,0.002678,0.000431,0.004701
11925000,0.0324,0.013523,0.002678,0.000431,0.004701
11926000,0.0324,0.013523,0.002678,0.000431,0.015749
11927000,0.0324,0.013523,0.002678,0.000431,0.008462
11928000,0.0324,0.013523,0.002678,0.000431,0.004701
11929000,0.0324,0.013523,0.002678,0.000431,0.004701
11930000,0.0324,0.013523,0.002678,0.000431,0.019745
11931000,0.0324,0.013523,0.002678,0.000431,0.004701
11932000,0.0324,0.013523,0.002678,0.000431,0.007992
11933000,0.0324,0.013523,0.002678,0.000431,0.046071
11934000,0.0324,0.013523,0.002678,0.000431,0.004701
11935000,0.0324,0.013523,0.002678,0.000431,0.004701
11936000,0.0324,0.013523,0.002678,0.000431,0.004701
11937000,0.0324,0.013523,0.002678,0.000431,0.004701
11938000,0.0324,0.013523,0.002678,0.000431,0.004701
11939000,0.0324,0.013523,0.002678,0.000431,0.159251
11940000,0.0324,0.013523,0.002678,0.000431,0.030205
11941000,0.0324,0.013523,0.002678,0.000431,0.004701
11942000,0.0324,0.013523,0.002678,0.000431,0.004701
11943000,0.0324,0.013523,0.002678,0.000431,0.004701
11944000,0.0324,0.013523,0.002678,0.000431,0.004466
11945000,0.0324,0.013523,0.002678,0.000431,0.017864
11946000,0.0324,0.013523,0.002678,0.000431,0.164304
11947000,0.0324,0.013523,0.002678,0.000431,0.004701
11948000,0.0324,0.013523,0.002678,0.000431,0.004701
11949000,0.0324,0.013523,0.002678,0.000431,0.034788
11950000,0.0324,0.013523,0.002678,0.000431,0.004701
11951000,0.0324,0.013523,0.002678,0.000431,0.004701
11952000,0.0324,0.013523,0.002678,0.000431,0.072867
11953000,0.0324,0.013523,0.002678,0.000431,0.004701
11954000,0.0324,0.013523,0.002678,0.000431,0.004701
11955000,0.0324,0.013523,0.002678,0.000431,0.014221
11956000,0.0324,0.013523,0.002678,0.000431,0.092495
11957000,0.0324,0.013523,0.002678,0.000431,0.004701
11958000,0.0324,0.013523,0.002678,0.000431,0.019745
11959000,0.0324,0.013523,0.002678,0.000431,0.072632
11960000,0.0324,0.013523,0.002678,0.000431,0.004466
11961000,0.0324,0.013523,0.002678,0.000431,0.004701
11962000,0.0324,0.013523,0.002678,0.000431,0.034788
11963000,0.0324,0.013523,0.002678,0.000431,0.004701
11964000,0.0324,0.013523,0.002678,0.000431,0.004701
11965000,0.0324,0.013523,0.002678,0.000431,0.034788
11966000,0.0324,0.013523,0.002678,0.000431,0.004701
11967000,0.0324,0.013523,0.002678,0.000431,0.004584
11968000,0.0324,0.013523,0.002678,0.000431,0.004584
11969000,0.0324,0.013523,0.002678,0.000431,0.012223
11970000,0.0324,0.013523,0.002678,0.000431,0.004701
11971000,0.0324,0.013523,0.002678,0.000431,0.015749
11972000,0.0324,0.013523,0.002678,0.000431,0.023741
11973000,0.0324,0.013523,0.002678,0.000431,0.004701
11974000,0.0324,0.013523,0.002678,0.000431,0.004701
11975000,0.0324,0.013523,0.002678,0.000431,0.004701
11976000,0.0324,0.013523,0.002678,0.000431,0.004701
11977000,0.0324,0.013523,0.002678,0.000431,0.004701
11978000,0.0324,0.013523,0.002678,0.000431,0.072397
11979000,0.0324,0.013523,0.002678,0.000431,0.004701
11980000,0.0324,0.013523,0.002678,0.000431,0.004701
11981000,0.0324,0.013523,0.002678,0.000431,0.012223
11982000,0.0324,0.013523,0.002678,0.000431,0.012223
11983000,0.0324,0.013523,0.002678,0.000431,0.004701
11984000,0.0324,0.013523,0.002678,0.000431,0.099429
11985000,0.0324,0.013523,0.002678,0.000431,0.037609
11986000,0.0324,0.013523,0.002678,0.000431,0.004701
11987000,0.0324,0.013523,0.002678,0.000431,0.004701
11988000,0.0324,0.013523,0.002678,0.000431,0.004701
11989000,0.0324,0.013523,0.002678,0.000431,0.004701
11990000,0.0324,0.013523,0.002678,0.000431,0.004701
11991000,0.0324,0.013523,0.002678,0.000431,0.080154
11992000,0.0324,0.013523,0.002678,0.000431,0.004701
11993000,0.0324,0.013523,0.002678,0.000431,0.004701
11994000,0.0324,0.013523,0.002678,0.000431,0.023741
11995000,0.0324,0.013523,0.002678,0.000431,0.053358
11996000,0.0324,0.013523,0.002678,0.000431,0.004701
11997000,0.0324,0.013523,0.002678,0.000431,0.034788
11998000,0.0324,0.013523,0.002678,0.000431,0.012223
11999000,0.0324,0.013523,0.002678,0.000431,0.004701
