Cycle,Area(mm^2),PeakDynamic(W),SubthresholdLeakage(W),GateLeakage(W),RunTimeDynamic(W)
4000000,0.0324,0.013523,0.002678,0.000431,0.042663
4001000,0.0324,0.013523,0.002678,0.000431,0.042663
4002000,0.0324,0.013523,0.002678,0.000431,0.080389
4003000,0.0324,0.013523,0.002678,0.000431,0.235526
4004000,0.0324,0.013523,0.002678,0.000431,0.218955
4005000,0.0324,0.013523,0.002678,0.000431,0.233881
4006000,0.0324,0.013523,0.002678,0.000431,0.101074
4007000,0.0324,0.013523,0.002678,0.000431,0.127165
4008000,0.0324,0.013523,0.002678,0.000431,0.101544
4009000,0.0324,0.013523,0.002678,0.000431,0.143854
4010000,0.0324,0.013523,0.002678,0.000431,0.309922
4011000,0.0324,0.013523,0.002678,0.000431,0.250100
4012000,0.0324,0.013523,0.002678,0.000431,0.112357
4013000,0.0324,0.013523,0.002678,0.000431,0.055708
4014000,0.0324,0.013523,0.002678,0.000431,0.053475
4015000,0.0324,0.013523,0.002678,0.000431,0.200738
4016000,0.0324,0.013523,0.002678,0.000431,0.319559
4017000,0.0324,0.013523,0.002678,0.000431,0.302753
4018000,0.0324,0.013523,0.002678,0.000431,0.228710
4019000,0.0324,0.013523,0.002678,0.000431,0.058059
4020000,0.0324,0.013523,0.002678,0.000431,0.061115
4021000,0.0324,0.013523,0.002678,0.000431,0.115060
4022000,0.0324,0.013523,0.002678,0.000431,0.185459
4023000,0.0324,0.013523,0.002678,0.000431,0.315798
4024000,0.0324,0.013523,0.002678,0.000431,0.334368
4025000,0.0324,0.013523,0.002678,0.000431,0.137508
4026000,0.0324,0.013523,0.002678,0.000431,0.088969
4027000,0.0324,0.013523,0.002678,0.000431,0.057824
4028000,0.0324,0.013523,0.002678,0.000431,0.132689
4029000,0.0324,0.013523,0.002678,0.000431,0.198740
4030000,0.0324,0.013523,0.002678,0.000431,0.145852
4031000,0.0324,0.013523,0.002678,0.000431,0.232941
4032000,0.0324,0.013523,0.002678,0.000431,0.044073
4033000,0.0324,0.013523,0.002678,0.000431,0.126813
4034000,0.0324,0.013523,0.002678,0.000431,0.151024
4035000,0.0324,0.013523,0.002678,0.000431,0.239993
4036000,0.0324,0.013523,0.002678,0.000431,0.199210
4037000,0.0324,0.013523,0.002678,0.000431,0.221306
4038000,0.0324,0.013523,0.002678,0.000431,0.212138
4039000,0.0324,0.013523,0.002678,0.000431,0.102720
4040000,0.0324,0.013523,0.002678,0.000431,0.102837
4041000,0.0324,0.013523,0.002678,0.000431,0.067579
4042000,0.0324,0.013523,0.002678,0.000431,0.298051
4043000,0.0324,0.013523,0.002678,0.000431,0.221306
4044000,0.0324,0.013523,0.002678,0.000431,0.160073
4045000,0.0324,0.013523,0.002678,0.000431,0.131749
4046000,0.0324,0.013523,0.002678,0.000431,0.043368
4047000,0.0324,0.013523,0.002678,0.000431,0.052418
4048000,0.0324,0.013523,0.002678,0.000431,0.110241
4049000,0.0324,0.013523,0.002678,0.000431,0.204146
4050000,0.0324,0.013523,0.002678,0.000431,0.110947
4051000,0.0324,0.013523,0.002678,0.000431,0.248337
4052000,0.0324,0.013523,0.002678,0.000431,0.042780
4053000,0.0324,0.013523,0.002678,0.000431,0.087676
4054000,0.0324,0.013523,0.002678,0.000431,0.110594
4055000,0.0324,0.013523,0.002678,0.000431,0.316738
4056000,0.0324,0.013523,0.002678,0.000431,0.188398
4057000,0.0324,0.013523,0.002678,0.000431,0.104483
4058000,0.0324,0.013523,0.002678,0.000431,0.155607
4059000,0.0324,0.013523,0.002678,0.000431,0.116000
4060000,0.0324,0.013523,0.002678,0.000431,0.076746
4061000,0.0324,0.013523,0.002678,0.000431,0.174764
4062000,0.0324,0.013523,0.002678,0.000431,0.129281
4063000,0.0324,0.013523,0.002678,0.000431,0.141974
4064000,0.0324,0.013523,0.002678,0.000431,0.177232
4065000,0.0324,0.013523,0.002678,0.000431,0.047599
4066000,0.0324,0.013523,0.002678,0.000431,0.082505
4067000,0.0324,0.013523,0.002678,0.000431,0.110359
4068000,0.0324,0.013523,0.002678,0.000431,0.140211
4069000,0.0324,0.013523,0.002678,0.000431,0.117411
4070000,0.0324,0.013523,0.002678,0.000431,0.091554
4071000,0.0324,0.013523,0.002678,0.000431,0.097548
4072000,0.0324,0.013523,0.002678,0.000431,0.133747
4073000,0.0324,0.013523,0.002678,0.000431,0.169476
4074000,0.0324,0.013523,0.002678,0.000431,0.316621
4075000,0.0324,0.013523,0.002678,0.000431,0.272665
4076000,0.0324,0.013523,0.002678,0.000431,0.151846
4077000,0.0324,0.013523,0.002678,0.000431,0.076628
4078000,0.0324,0.013523,0.002678,0.000431,0.114002
4079000,0.0324,0.013523,0.002678,0.000431,0.096961
4080000,0.0324,0.013523,0.002678,0.000431,0.213784
4081000,0.0324,0.013523,0.002678,0.000431,0.180641
4082000,0.0324,0.013523,0.002678,0.000431,0.311450
4083000,0.0324,0.013523,0.002678,0.000431,0.231531
4084000,0.0324,0.013523,0.002678,0.000431,0.083092
4085000,0.0324,0.013523,0.002678,0.000431,0.087911
4086000,0.0324,0.013523,0.002678,0.000431,0.105423
4087000,0.0324,0.013523,0.002678,0.000431,0.103072
4088000,0.0324,0.013523,0.002678,0.000431,0.193099
4089000,0.0324,0.013523,0.002678,0.000431,0.191571
4090000,0.0324,0.013523,0.002678,0.000431,0.107656
4091000,0.0324,0.013523,0.002678,0.000431,0.035141
4092000,0.0324,0.013523,0.002678,0.000431,0.114355
4093000,0.0324,0.013523,0.002678,0.000431,0.189220
4094000,0.0324,0.013523,0.002678,0.000431,0.253273
4095000,0.0324,0.013523,0.002678,0.000431,0.255859
4096000,0.0324,0.013523,0.002678,0.000431,0.096021
4097000,0.0324,0.013523,0.002678,0.000431,0.046541
4098000,0.0324,0.013523,0.002678,0.000431,0.072867
4099000,0.0324,0.013523,0.002678,0.000431,0.127636
4100000,0.0324,0.013523,0.002678,0.000431,0.228827
4101000,0.0324,0.013523,0.002678,0.000431,0.140799
4102000,0.0324,0.013523,0.002678,0.000431,0.210023
4103000,0.0324,0.013523,0.002678,0.000431,0.062525
4104000,0.0324,0.013523,0.002678,0.000431,0.058059
4105000,0.0324,0.013523,0.002678,0.000431,0.098371
4106000,0.0324,0.013523,0.002678,0.000431,0.129751
4107000,0.0324,0.013523,0.002678,0.000431,0.330019
4108000,0.0324,0.013523,0.002678,0.000431,0.147733
4109000,0.0324,0.013523,0.002678,0.000431,0.167713
4110000,0.0324,0.013523,0.002678,0.000431,0.092377
4111000,0.0324,0.013523,0.002678,0.000431,0.070047
4112000,0.0324,0.013523,0.002678,0.000431,0.260090
4113000,0.0324,0.013523,0.002678,0.000431,0.170063
4114000,0.0324,0.013523,0.002678,0.000431,0.095080
4115000,0.0324,0.013523,0.002678,0.000431,0.102602
4116000,0.0324,0.013523,0.002678,0.000431,0.140681
4117000,0.0324,0.013523,0.002678,0.000431,0.136333
4118000,0.0324,0.013523,0.002678,0.000431,0.137038
4119000,0.0324,0.013523,0.002678,0.000431,0.115178
4120000,0.0324,0.013523,0.002678,0.000431,0.422984
4121000,0.0324,0.013523,0.002678,0.000431,0.090144
4122000,0.0324,0.013523,0.002678,0.000431,0.233764
4123000,0.0324,0.013523,0.002678,0.000431,0.076511
4124000,0.0324,0.013523,0.002678,0.000431,0.211198
4125000,0.0324,0.013523,0.002678,0.000431,0.181699
4126000,0.0324,0.013523,0.002678,0.000431,0.181111
4127000,0.0324,0.013523,0.002678,0.000431,0.081330
4128000,0.0324,0.013523,0.002678,0.000431,0.183226
4129000,0.0324,0.013523,0.002678,0.000431,0.233293
4130000,0.0324,0.013523,0.002678,0.000431,0.088264
4131000,0.0324,0.013523,0.002678,0.000431,0.087441
4132000,0.0324,0.013523,0.002678,0.000431,0.225302
4133000,0.0324,0.013523,0.002678,0.000431,0.366100
4134000,0.0324,0.013523,0.002678,0.000431,0.257974
4135000,0.0324,0.013523,0.002678,0.000431,0.177820
4136000,0.0324,0.013523,0.002678,0.000431,0.057706
4137000,0.0324,0.013523,0.002678,0.000431,0.086031
4138000,0.0324,0.013523,0.002678,0.000431,0.191101
4139000,0.0324,0.013523,0.002678,0.000431,0.168770
4140000,0.0324,0.013523,0.002678,0.000431,0.248455
4141000,0.0324,0.013523,0.002678,0.000431,0.087441
4142000,0.0324,0.013523,0.002678,0.000431,0.072515
4143000,0.0324,0.013523,0.002678,0.000431,0.127048
4144000,0.0324,0.013523,0.002678,0.000431,0.086501
4145000,0.0324,0.013523,0.002678,0.000431,0.244694
4146000,0.0324,0.013523,0.002678,0.000431,0.272665
4147000,0.0324,0.013523,0.002678,0.000431,0.111652
4148000,0.0324,0.013523,0.002678,0.000431,0.240463
4149000,0.0324,0.013523,0.002678,0.000431,0.036199
4150000,0.0324,0.013523,0.002678,0.000431,0.086618
4151000,0.0324,0.013523,0.002678,0.000431,0.110476
4152000,0.0324,0.013523,0.002678,0.000431,0.299814
4153000,0.0324,0.013523,0.002678,0.000431,0.169476
4154000,0.0324,0.013523,0.002678,0.000431,0.057589
4155000,0.0324,0.013523,0.002678,0.000431,0.057354
4156000,0.0324,0.013523,0.002678,0.000431,0.050420
4157000,0.0324,0.013523,0.002678,0.000431,0.187340
4158000,0.0324,0.013523,0.002678,0.000431,0.145970
4159000,0.0324,0.013523,0.002678,0.000431,0.190278
4160000,0.0324,0.013523,0.002678,0.000431,0.226007
4161000,0.0324,0.013523,0.002678,0.000431,0.072515
4162000,0.0324,0.013523,0.002678,0.000431,0.035494
4163000,0.0324,0.013523,0.002678,0.000431,0.107538
4164000,0.0324,0.013523,0.002678,0.000431,0.299697
4165000,0.0324,0.013523,0.002678,0.000431,0.170181
4166000,0.0324,0.013523,0.002678,0.000431,0.127048
4167000,0.0324,0.013523,0.002678,0.000431,0.162306
4168000,0.0324,0.013523,0.002678,0.000431,0.070517
4169000,0.0324,0.013523,0.002678,0.000431,0.052535
4170000,0.0324,0.013523,0.002678,0.000431,0.057824
4171000,0.0324,0.013523,0.002678,0.000431,0.080977
4172000,0.0324,0.013523,0.002678,0.000431,0.119056
4173000,0.0324,0.013523,0.002678,0.000431,0.195097
4174000,0.0324,0.013523,0.002678,0.000431,0.094493
4175000,0.0324,0.013523,0.002678,0.000431,0.072867
4176000,0.0324,0.013523,0.002678,0.000431,0.068636
4177000,0.0324,0.013523,0.002678,0.000431,0.177938
4178000,0.0324,0.013523,0.002678,0.000431,0.242813
4179000,0.0324,0.013523,0.002678,0.000431,0.193569
4180000,0.0324,0.013523,0.002678,0.000431,0.088029
4181000,0.0324,0.013523,0.002678,0.000431,0.057589
4182000,0.0324,0.013523,0.002678,0.000431,0.057824
4183000,0.0324,0.013523,0.002678,0.000431,0.197212
4184000,0.0324,0.013523,0.002678,0.000431,0.098254
4185000,0.0324,0.013523,0.002678,0.000431,0.180288
4186000,0.0324,0.013523,0.002678,0.000431,0.290647
4187000,0.0324,0.013523,0.002678,0.000431,0.142797
4188000,0.0324,0.013523,0.002678,0.000431,0.121524
4189000,0.0324,0.013523,0.002678,0.000431,0.248337
4190000,0.0324,0.013523,0.002678,0.000431,0.126695
4191000,0.0324,0.013523,0.002678,0.000431,0.198505
4192000,0.0324,0.013523,0.002678,0.000431,0.107538
4193000,0.0324,0.013523,0.002678,0.000431,0.127518
4194000,0.0324,0.013523,0.002678,0.000431,0.065581
4195000,0.0324,0.013523,0.002678,0.000431,0.061115
4196000,0.0324,0.013523,0.002678,0.000431,0.210258
4197000,0.0324,0.013523,0.002678,0.000431,0.161366
4198000,0.0324,0.013523,0.002678,0.000431,0.123640
4199000,0.0324,0.013523,0.002678,0.000431,0.106363
4200000,0.0324,0.013523,0.002678,0.000431,0.082857
4201000,0.0324,0.013523,0.002678,0.000431,0.057589
4202000,0.0324,0.013523,0.002678,0.000431,0.122699
4203000,0.0324,0.013523,0.002678,0.000431,0.113415
4204000,0.0324,0.013523,0.002678,0.000431,0.178525
4205000,0.0324,0.013523,0.002678,0.000431,0.131044
4206000,0.0324,0.013523,0.002678,0.000431,0.240345
4207000,0.0324,0.013523,0.002678,0.000431,0.064405
4208000,0.0324,0.013523,0.002678,0.000431,0.174999
4209000,0.0324,0.013523,0.002678,0.000431,0.316386
4210000,0.0324,0.013523,0.002678,0.000431,0.187575
4211000,0.0324,0.013523,0.002678,0.000431,0.127871
4212000,0.0324,0.013523,0.002678,0.000431,0.153022
4213000,0.0324,0.013523,0.002678,0.000431,0.063818
4214000,0.0324,0.013523,0.002678,0.000431,0.035023
4215000,0.0324,0.013523,0.002678,0.000431,0.037962
4216000,0.0324,0.013523,0.002678,0.000431,0.205204
4217000,0.0324,0.013523,0.002678,0.000431,0.166772
4218000,0.0324,0.013523,0.002678,0.000431,0.114472
4219000,0.0324,0.013523,0.002678,0.000431,0.057824
4220000,0.0324,0.013523,0.002678,0.000431,0.061585
4221000,0.0324,0.013523,0.002678,0.000431,0.121289
4222000,0.0324,0.013523,0.002678,0.000431,0.183932
4223000,0.0324,0.013523,0.002678,0.000431,0.336248
4224000,0.0324,0.013523,0.002678,0.000431,0.346826
4225000,0.0324,0.013523,0.002678,0.000431,0.104247
4226000,0.0324,0.013523,0.002678,0.000431,0.081917
4227000,0.0324,0.013523,0.002678,0.000431,0.067579
4228000,0.0324,0.013523,0.002678,0.000431,0.212138
4229000,0.0324,0.013523,0.002678,0.000431,0.237995
4230000,0.0324,0.013523,0.002678,0.000431,0.269727
4231000,0.0324,0.013523,0.002678,0.000431,0.142562
4232000,0.0324,0.013523,0.002678,0.000431,0.081682
4233000,0.0324,0.013523,0.002678,0.000431,0.142797
4234000,0.0324,0.013523,0.002678,0.000431,0.087558
4235000,0.0324,0.013523,0.002678,0.000431,0.131984
4236000,0.0324,0.013523,0.002678,0.000431,0.085678
4237000,0.0324,0.013523,0.002678,0.000431,0.174647
4238000,0.0324,0.013523,0.002678,0.000431,0.098606
4239000,0.0324,0.013523,0.002678,0.000431,0.042898
4240000,0.0324,0.013523,0.002678,0.000431,0.080389
4241000,0.0324,0.013523,0.002678,0.000431,0.116353
4242000,0.0324,0.013523,0.002678,0.000431,0.183579
4243000,0.0324,0.013523,0.002678,0.000431,0.119879
4244000,0.0324,0.013523,0.002678,0.000431,0.091672
4245000,0.0324,0.013523,0.002678,0.000431,0.141151
4246000,0.0324,0.013523,0.002678,0.000431,0.039019
4247000,0.0324,0.013523,0.002678,0.000431,0.118939
4248000,0.0324,0.013523,0.002678,0.000431,0.124697
4249000,0.0324,0.013523,0.002678,0.000431,0.113650
4250000,0.0324,0.013523,0.002678,0.000431,0.186282
4251000,0.0324,0.013523,0.002678,0.000431,0.135863
4252000,0.0324,0.013523,0.002678,0.000431,0.034788
4253000,0.0324,0.013523,0.002678,0.000431,0.113767
4254000,0.0324,0.013523,0.002678,0.000431,0.160426
4255000,0.0324,0.013523,0.002678,0.000431,0.125285
4256000,0.0324,0.013523,0.002678,0.000431,0.167008
4257000,0.0324,0.013523,0.002678,0.000431,0.200621
4258000,0.0324,0.013523,0.002678,0.000431,0.078744
4259000,0.0324,0.013523,0.002678,0.000431,0.042545
4260000,0.0324,0.013523,0.002678,0.000431,0.157018
4261000,0.0324,0.013523,0.002678,0.000431,0.197917
4262000,0.0324,0.013523,0.002678,0.000431,0.213901
4263000,0.0324,0.013523,0.002678,0.000431,0.095433
4264000,0.0324,0.013523,0.002678,0.000431,0.155137
4265000,0.0324,0.013523,0.002678,0.000431,0.034436
4266000,0.0324,0.013523,0.002678,0.000431,0.055003
4267000,0.0324,0.013523,0.002678,0.000431,0.127988
4268000,0.0324,0.013523,0.002678,0.000431,0.132807
4269000,0.0324,0.013523,0.002678,0.000431,0.182404
4270000,0.0324,0.013523,0.002678,0.000431,0.140916
4271000,0.0324,0.013523,0.002678,0.000431,0.038902
4272000,0.0324,0.013523,0.002678,0.000431,0.042780
4273000,0.0324,0.013523,0.002678,0.000431,0.107068
4274000,0.0324,0.013523,0.002678,0.000431,0.094023
4275000,0.0324,0.013523,0.002678,0.000431,0.149143
4276000,0.0324,0.013523,0.002678,0.000431,0.105893
4277000,0.0324,0.013523,0.002678,0.000431,0.102602
4278000,0.0324,0.013523,0.002678,0.000431,0.035023
4279000,0.0324,0.013523,0.002678,0.000431,0.092377
4280000,0.0324,0.013523,0.002678,0.000431,0.221893
4281000,0.0324,0.013523,0.002678,0.000431,0.208260
4282000,0.0324,0.013523,0.002678,0.000431,0.163364
4283000,0.0324,0.013523,0.002678,0.000431,0.149378
4284000,0.0324,0.013523,0.002678,0.000431,0.060057
4285000,0.0324,0.013523,0.002678,0.000431,0.095080
4286000,0.0324,0.013523,0.002678,0.000431,0.129516
4287000,0.0324,0.013523,0.002678,0.000431,0.272783
4288000,0.0324,0.013523,0.002678,0.000431,0.170651
4289000,0.0324,0.013523,0.002678,0.000431,0.208142
4290000,0.0324,0.013523,0.002678,0.000431,0.042898
4291000,0.0324,0.013523,0.002678,0.000431,0.057824
4292000,0.0324,0.013523,0.002678,0.000431,0.117881
4293000,0.0324,0.013523,0.002678,0.000431,0.147498
4294000,0.0324,0.013523,0.002678,0.000431,0.144442
4295000,0.0324,0.013523,0.002678,0.000431,0.190278
4296000,0.0324,0.013523,0.002678,0.000431,0.133277
4297000,0.0324,0.013523,0.002678,0.000431,0.035258
4298000,0.0324,0.013523,0.002678,0.000431,0.095315
4299000,0.0324,0.013523,0.002678,0.000431,0.248572
4300000,0.0324,0.013523,0.002678,0.000431,0.213901
4301000,0.0324,0.013523,0.002678,0.000431,0.177468
4302000,0.0324,0.013523,0.002678,0.000431,0.136215
4303000,0.0324,0.013523,0.002678,0.000431,0.092260
4304000,0.0324,0.013523,0.002678,0.000431,0.061350
4305000,0.0324,0.013523,0.002678,0.000431,0.105658
4306000,0.0324,0.013523,0.002678,0.000431,0.156430
4307000,0.0324,0.013523,0.002678,0.000431,0.186047
4308000,0.0324,0.013523,0.002678,0.000431,0.121172
4309000,0.0324,0.013523,0.002678,0.000431,0.100134
4310000,0.0324,0.013523,0.002678,0.000431,0.108479
4311000,0.0324,0.013523,0.002678,0.000431,0.095550
4312000,0.0324,0.013523,0.002678,0.000431,0.121877
4313000,0.0324,0.013523,0.002678,0.000431,0.157018
4314000,0.0324,0.013523,0.002678,0.000431,0.121054
4315000,0.0324,0.013523,0.002678,0.000431,0.212726
4316000,0.0324,0.013523,0.002678,0.000431,0.087441
4317000,0.0324,0.013523,0.002678,0.000431,0.083445
4318000,0.0324,0.013523,0.002678,0.000431,0.172884
4319000,0.0324,0.013523,0.002678,0.000431,0.058999
4320000,0.0324,0.013523,0.002678,0.000431,0.192864
4321000,0.0324,0.013523,0.002678,0.000431,0.218955
4322000,0.0324,0.013523,0.002678,0.000431,0.117998
4323000,0.0324,0.013523,0.002678,0.000431,0.087676
4324000,0.0324,0.013523,0.002678,0.000431,0.067461
4325000,0.0324,0.013523,0.002678,0.000431,0.186987
4326000,0.0324,0.013523,0.002678,0.000431,0.178408
4327000,0.0324,0.013523,0.002678,0.000431,0.121407
4328000,0.0324,0.013523,0.002678,0.000431,0.102955
4329000,0.0324,0.013523,0.002678,0.000431,0.072750
4330000,0.0324,0.013523,0.002678,0.000431,0.091437
4331000,0.0324,0.013523,0.002678,0.000431,0.102837
4332000,0.0324,0.013523,0.002678,0.000431,0.175470
4333000,0.0324,0.013523,0.002678,0.000431,0.217780
4334000,0.0324,0.013523,0.002678,0.000431,0.207790
4335000,0.0324,0.013523,0.002678,0.000431,0.098724
4336000,0.0324,0.013523,0.002678,0.000431,0.035258
4337000,0.0324,0.013523,0.002678,0.000431,0.130339
4338000,0.0324,0.013523,0.002678,0.000431,0.113062
4339000,0.0324,0.013523,0.002678,0.000431,0.201091
4340000,0.0324,0.013523,0.002678,0.000431,0.165832
4341000,0.0324,0.013523,0.002678,0.000431,0.165362
4342000,0.0324,0.013523,0.002678,0.000431,0.059939
4343000,0.0324,0.013523,0.002678,0.000431,0.079096
4344000,0.0324,0.013523,0.002678,0.000431,0.081212
4345000,0.0324,0.013523,0.002678,0.000431,0.164892
4346000,0.0324,0.013523,0.002678,0.000431,0.115765
4347000,0.0324,0.013523,0.002678,0.000431,0.181581
4348000,0.0324,0.013523,0.002678,0.000431,0.046424
4349000,0.0324,0.013523,0.002678,0.000431,0.045601
4350000,0.0324,0.013523,0.002678,0.000431,0.139859
4351000,0.0324,0.013523,0.002678,0.000431,0.092847
4352000,0.0324,0.013523,0.002678,0.000431,0.125520
4353000,0.0324,0.013523,0.002678,0.000431,0.216369
4354000,0.0324,0.013523,0.002678,0.000431,0.095315
4355000,0.0324,0.013523,0.002678,0.000431,0.057589
4356000,0.0324,0.013523,0.002678,0.000431,0.221658
4357000,0.0324,0.013523,0.002678,0.000431,0.193451
4358000,0.0324,0.013523,0.002678,0.000431,0.268787
4359000,0.0324,0.013523,0.002678,0.000431,0.132924
4360000,0.0324,0.013523,0.002678,0.000431,0.114002
4361000,0.0324,0.013523,0.002678,0.000431,0.076158
4362000,0.0324,0.013523,0.002678,0.000431,0.057824
4363000,0.0324,0.013523,0.002678,0.000431,0.131397
4364000,0.0324,0.013523,0.002678,0.000431,0.141034
4365000,0.0324,0.013523,0.002678,0.000431,0.216252
4366000,0.0324,0.013523,0.002678,0.000431,0.162541
4367000,0.0324,0.013523,0.002678,0.000431,0.065698
4368000,0.0324,0.013523,0.002678,0.000431,0.054063
4369000,0.0324,0.013523,0.002678,0.000431,0.163482
4370000,0.0324,0.013523,0.002678,0.000431,0.191806
4371000,0.0324,0.013523,0.002678,0.000431,0.200973
4372000,0.0324,0.013523,0.002678,0.000431,0.133042
4373000,0.0324,0.013523,0.002678,0.000431,0.188633
4374000,0.0324,0.013523,0.002678,0.000431,0.100369
4375000,0.0324,0.013523,0.002678,0.000431,0.062643
4376000,0.0324,0.013523,0.002678,0.000431,0.184989
4377000,0.0324,0.013523,0.002678,0.000431,0.092612
4378000,0.0324,0.013523,0.002678,0.000431,0.067579
4379000,0.0324,0.013523,0.002678,0.000431,0.174412
4380000,0.0324,0.013523,0.002678,0.000431,0.106716
4381000,0.0324,0.013523,0.002678,0.000431,0.129869
4382000,0.0324,0.013523,0.002678,0.000431,0.086853
4383000,0.0324,0.013523,0.002678,0.000431,0.133042
4384000,0.0324,0.013523,0.002678,0.000431,0.174177
4385000,0.0324,0.013523,0.002678,0.000431,0.246809
4386000,0.0324,0.013523,0.002678,0.000431,0.145382
4387000,0.0324,0.013523,0.002678,0.000431,0.044073
4388000,0.0324,0.013523,0.002678,0.000431,0.050302
4389000,0.0324,0.013523,0.002678,0.000431,0.072867
4390000,0.0324,0.013523,0.002678,0.000431,0.095433
4391000,0.0324,0.013523,0.002678,0.000431,0.124697
4392000,0.0324,0.013523,0.002678,0.000431,0.213549
4393000,0.0324,0.013523,0.002678,0.000431,0.165832
4394000,0.0324,0.013523,0.002678,0.000431,0.068989
4395000,0.0324,0.013523,0.002678,0.000431,0.140916
4396000,0.0324,0.013523,0.002678,0.000431,0.164304
4397000,0.0324,0.013523,0.002678,0.000431,0.133630
4398000,0.0324,0.013523,0.002678,0.000431,0.167125
4399000,0.0324,0.013523,0.002678,0.000431,0.114472
4400000,0.0324,0.013523,0.002678,0.000431,0.042663
4401000,0.0324,0.013523,0.002678,0.000431,0.042428
4402000,0.0324,0.013523,0.002678,0.000431,0.223774
4403000,0.0324,0.013523,0.002678,0.000431,0.206144
4404000,0.0324,0.013523,0.002678,0.000431,0.098136
4405000,0.0324,0.013523,0.002678,0.000431,0.155960
4406000,0.0324,0.013523,0.002678,0.000431,0.061585
4407000,0.0324,0.013523,0.002678,0.000431,0.093787
4408000,0.0324,0.013523,0.002678,0.000431,0.188750
4409000,0.0324,0.013523,0.002678,0.000431,0.088029
4410000,0.0324,0.013523,0.002678,0.000431,0.183579
4411000,0.0324,0.013523,0.002678,0.000431,0.153727
4412000,0.0324,0.013523,0.002678,0.000431,0.128693
4413000,0.0324,0.013523,0.002678,0.000431,0.034906
4414000,0.0324,0.013523,0.002678,0.000431,0.084150
4415000,0.0324,0.013523,0.002678,0.000431,0.082387
4416000,0.0324,0.013523,0.002678,0.000431,0.263733
4417000,0.0324,0.013523,0.002678,0.000431,0.180993
4418000,0.0324,0.013523,0.002678,0.000431,0.238935
4419000,0.0324,0.013523,0.002678,0.000431,0.048774
4420000,0.0324,0.013523,0.002678,0.000431,0.056296
4421000,0.0324,0.013523,0.002678,0.000431,0.170298
4422000,0.0324,0.013523,0.002678,0.000431,0.125755
4423000,0.0324,0.013523,0.002678,0.000431,0.210611
4424000,0.0324,0.013523,0.002678,0.000431,0.147968
4425000,0.0324,0.013523,0.002678,0.000431,0.112239
4426000,0.0324,0.013523,0.002678,0.000431,0.062643
4427000,0.0324,0.013523,0.002678,0.000431,0.176292
4428000,0.0324,0.013523,0.002678,0.000431,0.144442
4429000,0.0324,0.013523,0.002678,0.000431,0.200621
4430000,0.0324,0.013523,0.002678,0.000431,0.122582
4431000,0.0324,0.013523,0.002678,0.000431,0.223421
4432000,0.0324,0.013523,0.002678,0.000431,0.104953
4433000,0.0324,0.013523,0.002678,0.000431,0.042780
4434000,0.0324,0.013523,0.002678,0.000431,0.136803
4435000,0.0324,0.013523,0.002678,0.000431,0.139623
4436000,0.0324,0.013523,0.002678,0.000431,0.133982
4437000,0.0324,0.013523,0.002678,0.000431,0.070164
4438000,0.0324,0.013523,0.002678,0.000431,0.139036
4439000,0.0324,0.013523,0.002678,0.000431,0.102955
4440000,0.0324,0.013523,0.002678,0.000431,0.135980
4441000,0.0324,0.013523,0.002678,0.000431,0.186517
4442000,0.0324,0.013523,0.002678,0.000431,0.252803
4443000,0.0324,0.013523,0.002678,0.000431,0.156900
4444000,0.0324,0.013523,0.002678,0.000431,0.112592
4445000,0.0324,0.013523,0.002678,0.000431,0.129634
4446000,0.0324,0.013523,0.002678,0.000431,0.099076
4447000,0.0324,0.013523,0.002678,0.000431,0.305808
4448000,0.0324,0.013523,0.002678,0.000431,0.125873
4449000,0.0324,0.013523,0.002678,0.000431,0.188280
4450000,0.0324,0.013523,0.002678,0.000431,0.130574
4451000,0.0324,0.013523,0.002678,0.000431,0.147615
4452000,0.0324,0.013523,0.002678,0.000431,0.042898
4453000,0.0324,0.013523,0.002678,0.000431,0.137038
4454000,0.0324,0.013523,0.002678,0.000431,0.186282
4455000,0.0324,0.013523,0.002678,0.000431,0.198975
4456000,0.0324,0.013523,0.002678,0.000431,0.299109
4457000,0.0324,0.013523,0.002678,0.000431,0.178173
4458000,0.0324,0.013523,0.002678,0.000431,0.070869
4459000,0.0324,0.013523,0.002678,0.000431,0.116000
4460000,0.0324,0.013523,0.002678,0.000431,0.196977
4461000,0.0324,0.013523,0.002678,0.000431,0.190866
4462000,0.0324,0.013523,0.002678,0.000431,0.188633
4463000,0.0324,0.013523,0.002678,0.000431,0.174764
4464000,0.0324,0.013523,0.002678,0.000431,0.075453
4465000,0.0324,0.013523,0.002678,0.000431,0.038197
4466000,0.0324,0.013523,0.002678,0.000431,0.092495
4467000,0.0324,0.013523,0.002678,0.000431,0.107186
4468000,0.0324,0.013523,0.002678,0.000431,0.232823
4469000,0.0324,0.013523,0.002678,0.000431,0.223421
4470000,0.0324,0.013523,0.002678,0.000431,0.144795
4471000,0.0324,0.013523,0.002678,0.000431,0.063700
4472000,0.0324,0.013523,0.002678,0.000431,0.047716
4473000,0.0324,0.013523,0.002678,0.000431,0.259385
4474000,0.0324,0.013523,0.002678,0.000431,0.156783
4475000,0.0324,0.013523,0.002678,0.000431,0.121524
4476000,0.0324,0.013523,0.002678,0.000431,0.095198
4477000,0.0324,0.013523,0.002678,0.000431,0.046424
4478000,0.0324,0.013523,0.002678,0.000431,0.175117
4479000,0.0324,0.013523,0.002678,0.000431,0.105775
4480000,0.0324,0.013523,0.002678,0.000431,0.071105
4481000,0.0324,0.013523,0.002678,0.000431,0.150671
4482000,0.0324,0.013523,0.002678,0.000431,0.144912
4483000,0.0324,0.013523,0.002678,0.000431,0.205439
4484000,0.0324,0.013523,0.002678,0.000431,0.035023
4485000,0.0324,0.013523,0.002678,0.000431,0.073103
4486000,0.0324,0.013523,0.002678,0.000431,0.143972
4487000,0.0324,0.013523,0.002678,0.000431,0.127165
4488000,0.0324,0.013523,0.002678,0.000431,0.097548
4489000,0.0324,0.013523,0.002678,0.000431,0.175705
4490000,0.0324,0.013523,0.002678,0.000431,0.127165
4491000,0.0324,0.013523,0.002678,0.000431,0.049832
4492000,0.0324,0.013523,0.002678,0.000431,0.102014
4493000,0.0324,0.013523,0.002678,0.000431,0.130691
4494000,0.0324,0.013523,0.002678,0.000431,0.106245
4495000,0.0324,0.013523,0.002678,0.000431,0.068049
4496000,0.0324,0.013523,0.002678,0.000431,0.235174
4497000,0.0324,0.013523,0.002678,0.000431,0.054886
4498000,0.0324,0.013523,0.002678,0.000431,0.190631
4499000,0.0324,0.013523,0.002678,0.000431,0.228592
4500000,0.0324,0.013523,0.002678,0.000431,0.110124
4501000,0.0324,0.013523,0.002678,0.000431,0.182639
4502000,0.0324,0.013523,0.002678,0.000431,0.119644
4503000,0.0324,0.013523,0.002678,0.000431,0.155020
4504000,0.0324,0.013523,0.002678,0.000431,0.060880
4505000,0.0324,0.013523,0.002678,0.000431,0.178878
4506000,0.0324,0.013523,0.002678,0.000431,0.164892
4507000,0.0324,0.013523,0.002678,0.000431,0.113767
4508000,0.0324,0.013523,0.002678,0.000431,0.096491
4509000,0.0324,0.013523,0.002678,0.000431,0.097548
4510000,0.0324,0.013523,0.002678,0.000431,0.095433
4511000,0.0324,0.013523,0.002678,0.000431,0.197447
4512000,0.0324,0.013523,0.002678,0.000431,0.123757
4513000,0.0324,0.013523,0.002678,0.000431,0.259737
4514000,0.0324,0.013523,0.002678,0.000431,0.255624
4515000,0.0324,0.013523,0.002678,0.000431,0.163364
4516000,0.0324,0.013523,0.002678,0.000431,0.050302
4517000,0.0324,0.013523,0.002678,0.000431,0.053828
4518000,0.0324,0.013523,0.002678,0.000431,0.159016
4519000,0.0324,0.013523,0.002678,0.000431,0.148203
4520000,0.0324,0.013523,0.002678,0.000431,0.230238
4521000,0.0324,0.013523,0.002678,0.000431,0.169123
4522000,0.0324,0.013523,0.002678,0.000431,0.089556
4523000,0.0324,0.013523,0.002678,0.000431,0.078626
4524000,0.0324,0.013523,0.002678,0.000431,0.130456
4525000,0.0324,0.013523,0.002678,0.000431,0.097313
4526000,0.0324,0.013523,0.002678,0.000431,0.186752
4527000,0.0324,0.013523,0.002678,0.000431,0.178525
4528000,0.0324,0.013523,0.002678,0.000431,0.110829
4529000,0.0324,0.013523,0.002678,0.000431,0.064053
4530000,0.0324,0.013523,0.002678,0.000431,0.058999
4531000,0.0324,0.013523,0.002678,0.000431,0.168653
4532000,0.0324,0.013523,0.002678,0.000431,0.213314
4533000,0.0324,0.013523,0.002678,0.000431,0.083680
4534000,0.0324,0.013523,0.002678,0.000431,0.120936
4535000,0.0324,0.013523,0.002678,0.000431,0.060645
4536000,0.0324,0.013523,0.002678,0.000431,0.126695
4537000,0.0324,0.013523,0.002678,0.000431,0.107068
4538000,0.0324,0.013523,0.002678,0.000431,0.127988
4539000,0.0324,0.013523,0.002678,0.000431,0.107773
4540000,0.0324,0.013523,0.002678,0.000431,0.173589
4541000,0.0324,0.013523,0.002678,0.000431,0.140211
4542000,0.0324,0.013523,0.002678,0.000431,0.080507
4543000,0.0324,0.013523,0.002678,0.000431,0.073220
4544000,0.0324,0.013523,0.002678,0.000431,0.197330
4545000,0.0324,0.013523,0.002678,0.000431,0.226124
4546000,0.0324,0.013523,0.002678,0.000431,0.125520
4547000,0.0324,0.013523,0.002678,0.000431,0.229297
4548000,0.0324,0.013523,0.002678,0.000431,0.150436
4549000,0.0324,0.013523,0.002678,0.000431,0.063818
4550000,0.0324,0.013523,0.002678,0.000431,0.117998
4551000,0.0324,0.013523,0.002678,0.000431,0.136215
4552000,0.0324,0.013523,0.002678,0.000431,0.077216
4553000,0.0324,0.013523,0.002678,0.000431,0.176057
4554000,0.0324,0.013523,0.002678,0.000431,0.059939
4555000,0.0324,0.013523,0.002678,0.000431,0.057824
4556000,0.0324,0.013523,0.002678,0.000431,0.175117
4557000,0.0324,0.013523,0.002678,0.000431,0.131632
4558000,0.0324,0.013523,0.002678,0.000431,0.235174
4559000,0.0324,0.013523,0.002678,0.000431,0.068872
4560000,0.0324,0.013523,0.002678,0.000431,0.136920
4561000,0.0324,0.013523,0.002678,0.000431,0.057471
4562000,0.0324,0.013523,0.002678,0.000431,0.119056
4563000,0.0324,0.013523,0.002678,0.000431,0.108831
4564000,0.0324,0.013523,0.002678,0.000431,0.162541
4565000,0.0324,0.013523,0.002678,0.000431,0.170886
4566000,0.0324,0.013523,0.002678,0.000431,0.149026
4567000,0.0324,0.013523,0.002678,0.000431,0.138918
4568000,0.0324,0.013523,0.002678,0.000431,0.043720
4569000,0.0324,0.013523,0.002678,0.000431,0.256329
4570000,0.0324,0.013523,0.002678,0.000431,0.069459
4571000,0.0324,0.013523,0.002678,0.000431,0.147850
4572000,0.0324,0.013523,0.002678,0.000431,0.227417
4573000,0.0324,0.013523,0.002678,0.000431,0.137626
4574000,0.0324,0.013523,0.002678,0.000431,0.078626
4575000,0.0324,0.013523,0.002678,0.000431,0.102720
4576000,0.0324,0.013523,0.002678,0.000431,0.106598
4577000,0.0324,0.013523,0.002678,0.000431,0.231648
4578000,0.0324,0.013523,0.002678,0.000431,0.108361
4579000,0.0324,0.013523,0.002678,0.000431,0.114943
4580000,0.0324,0.013523,0.002678,0.000431,0.069224
4581000,0.0324,0.013523,0.002678,0.000431,0.102367
4582000,0.0324,0.013523,0.002678,0.000431,0.176410
4583000,0.0324,0.013523,0.002678,0.000431,0.291705
4584000,0.0324,0.013523,0.002678,0.000431,0.245399
4585000,0.0324,0.013523,0.002678,0.000431,0.133865
4586000,0.0324,0.013523,0.002678,0.000431,0.071105
4587000,0.0324,0.013523,0.002678,0.000431,0.166772
4588000,0.0324,0.013523,0.002678,0.000431,0.167125
4589000,0.0324,0.013523,0.002678,0.000431,0.184049
4590000,0.0324,0.013523,0.002678,0.000431,0.171239
4591000,0.0324,0.013523,0.002678,0.000431,0.280540
4592000,0.0324,0.013523,0.002678,0.000431,0.251275
4593000,0.0324,0.013523,0.002678,0.000431,0.083680
4594000,0.0324,0.013523,0.002678,0.000431,0.109301
4595000,0.0324,0.013523,0.002678,0.000431,0.187575
4596000,0.0324,0.013523,0.002678,0.000431,0.068284
4597000,0.0324,0.013523,0.002678,0.000431,0.129281
4598000,0.0324,0.013523,0.002678,0.000431,0.141386
4599000,0.0324,0.013523,0.002678,0.000431,0.110476
4600000,0.0324,0.013523,0.002678,0.000431,0.094610
4601000,0.0324,0.013523,0.002678,0.000431,0.174412
4602000,0.0324,0.013523,0.002678,0.000431,0.175470
4603000,0.0324,0.013523,0.002678,0.000431,0.086736
4604000,0.0324,0.013523,0.002678,0.000431,0.159721
4605000,0.0324,0.013523,0.002678,0.000431,0.149848
4606000,0.0324,0.013523,0.002678,0.000431,0.126813
4607000,0.0324,0.013523,0.002678,0.000431,0.094610
4608000,0.0324,0.013523,0.002678,0.000431,0.156312
4609000,0.0324,0.013523,0.002678,0.000431,0.117058
4610000,0.0324,0.013523,0.002678,0.000431,0.181699
4611000,0.0324,0.013523,0.002678,0.000431,0.251275
4612000,0.0324,0.013523,0.002678,0.000431,0.063230
4613000,0.0324,0.013523,0.002678,0.000431,0.057824
4614000,0.0324,0.013523,0.002678,0.000431,0.110947
4615000,0.0324,0.013523,0.002678,0.000431,0.158075
4616000,0.0324,0.013523,0.002678,0.000431,0.122229
4617000,0.0324,0.013523,0.002678,0.000431,0.190983
4618000,0.0324,0.013523,0.002678,0.000431,0.160543
4619000,0.0324,0.013523,0.002678,0.000431,0.174764
4620000,0.0324,0.013523,0.002678,0.000431,0.126578
4621000,0.0324,0.013523,0.002678,0.000431,0.153962
4622000,0.0324,0.013523,0.002678,0.000431,0.081330
4623000,0.0324,0.013523,0.002678,0.000431,0.198858
4624000,0.0324,0.013523,0.002678,0.000431,0.171826
4625000,0.0324,0.013523,0.002678,0.000431,0.171591
4626000,0.0324,0.013523,0.002678,0.000431,0.146205
4627000,0.0324,0.013523,0.002678,0.000431,0.098724
4628000,0.0324,0.013523,0.002678,0.000431,0.076276
4629000,0.0324,0.013523,0.002678,0.000431,0.235526
4630000,0.0324,0.013523,0.002678,0.000431,0.173589
4631000,0.0324,0.013523,0.002678,0.000431,0.125403
4632000,0.0324,0.013523,0.002678,0.000431,0.065581
4633000,0.0324,0.013523,0.002678,0.000431,0.063113
4634000,0.0324,0.013523,0.002678,0.000431,0.086736
4635000,0.0324,0.013523,0.002678,0.000431,0.142444
4636000,0.0324,0.013523,0.002678,0.000431,0.142327
4637000,0.0324,0.013523,0.002678,0.000431,0.200621
4638000,0.0324,0.013523,0.002678,0.000431,0.072867
4639000,0.0324,0.013523,0.002678,0.000431,0.224009
4640000,0.0324,0.013523,0.002678,0.000431,0.293233
4641000,0.0324,0.013523,0.002678,0.000431,0.118939
4642000,0.0324,0.013523,0.002678,0.000431,0.202619
4643000,0.0324,0.013523,0.002678,0.000431,0.114355
4644000,0.0324,0.013523,0.002678,0.000431,0.086853
4645000,0.0324,0.013523,0.002678,0.000431,0.093082
4646000,0.0324,0.013523,0.002678,0.000431,0.145617
4647000,0.0324,0.013523,0.002678,0.000431,0.266554
4648000,0.0324,0.013523,0.002678,0.000431,0.187810
4649000,0.0324,0.013523,0.002678,0.000431,0.194509
4650000,0.0324,0.013523,0.002678,0.000431,0.224244
4651000,0.0324,0.013523,0.002678,0.000431,0.205087
4652000,0.0324,0.013523,0.002678,0.000431,0.217310
4653000,0.0324,0.013523,0.002678,0.000431,0.185930
4654000,0.0324,0.013523,0.002678,0.000431,0.149143
4655000,0.0324,0.013523,0.002678,0.000431,0.161836
4656000,0.0324,0.013523,0.002678,0.000431,0.366100
4657000,0.0324,0.013523,0.002678,0.000431,0.187575
4658000,0.0324,0.013523,0.002678,0.000431,0.126930
4659000,0.0324,0.013523,0.002678,0.000431,0.162189
4660000,0.0324,0.013523,0.002678,0.000431,0.180758
4661000,0.0324,0.013523,0.002678,0.000431,0.216839
4662000,0.0324,0.013523,0.002678,0.000431,0.213549
4663000,0.0324,0.013523,0.002678,0.000431,0.337188
4664000,0.0324,0.013523,0.002678,0.000431,0.300755
4665000,0.0324,0.013523,0.002678,0.000431,0.086383
4666000,0.0324,0.013523,0.002678,0.000431,0.278189
4667000,0.0324,0.013523,0.002678,0.000431,0.178290
4668000,0.0324,0.013523,0.002678,0.000431,0.066756
4669000,0.0324,0.013523,0.002678,0.000431,0.128458
4670000,0.0324,0.013523,0.002678,0.000431,0.170768
4671000,0.0324,0.013523,0.002678,0.000431,0.114472
4672000,0.0324,0.013523,0.002678,0.000431,0.159721
4673000,0.0324,0.013523,0.002678,0.000431,0.180171
4674000,0.0324,0.013523,0.002678,0.000431,0.100134
4675000,0.0324,0.013523,0.002678,0.000431,0.198740
4676000,0.0324,0.013523,0.002678,0.000431,0.090144
4677000,0.0324,0.013523,0.002678,0.000431,0.137626
4678000,0.0324,0.013523,0.002678,0.000431,0.074160
4679000,0.0324,0.013523,0.002678,0.000431,0.193334
4680000,0.0324,0.013523,0.002678,0.000431,0.132924
4681000,0.0324,0.013523,0.002678,0.000431,0.184167
4682000,0.0324,0.013523,0.002678,0.000431,0.188280
4683000,0.0324,0.013523,0.002678,0.000431,0.090497
4684000,0.0324,0.013523,0.002678,0.000431,0.143502
4685000,0.0324,0.013523,0.002678,0.000431,0.216487
4686000,0.0324,0.013523,0.002678,0.000431,0.205087
4687000,0.0324,0.013523,0.002678,0.000431,0.115883
4688000,0.0324,0.013523,0.002678,0.000431,0.153727
4689000,0.0324,0.013523,0.002678,0.000431,0.186165
4690000,0.0324,0.013523,0.002678,0.000431,0.108949
4691000,0.0324,0.013523,0.002678,0.000431,0.117763
4692000,0.0324,0.013523,0.002678,0.000431,0.194862
4693000,0.0324,0.013523,0.002678,0.000431,0.140446
4694000,0.0324,0.013523,0.002678,0.000431,0.114002
4695000,0.0324,0.013523,0.002678,0.000431,0.193686
4696000,0.0324,0.013523,0.002678,0.000431,0.141621
4697000,0.0324,0.013523,0.002678,0.000431,0.180288
4698000,0.0324,0.013523,0.002678,0.000431,0.143972
4699000,0.0324,0.013523,0.002678,0.000431,0.174177
4700000,0.0324,0.013523,0.002678,0.000431,0.060645
4701000,0.0324,0.013523,0.002678,0.000431,0.225302
4702000,0.0324,0.013523,0.002678,0.000431,0.184637
4703000,0.0324,0.013523,0.002678,0.000431,0.159956
4704000,0.0324,0.013523,0.002678,0.000431,0.072045
4705000,0.0324,0.013523,0.002678,0.000431,0.132219
4706000,0.0324,0.013523,0.002678,0.000431,0.103660
4707000,0.0324,0.013523,0.002678,0.000431,0.114120
4708000,0.0324,0.013523,0.002678,0.000431,0.131514
4709000,0.0324,0.013523,0.002678,0.000431,0.131984
4710000,0.0324,0.013523,0.002678,0.000431,0.155020
4711000,0.0324,0.013523,0.002678,0.000431,0.096726
4712000,0.0324,0.013523,0.002678,0.000431,0.130104
4713000,0.0324,0.013523,0.002678,0.000431,0.132924
4714000,0.0324,0.013523,0.002678,0.000431,0.147028
4715000,0.0324,0.013523,0.002678,0.000431,0.126108
4716000,0.0324,0.013523,0.002678,0.000431,0.050302
4717000,0.0324,0.013523,0.002678,0.000431,0.057824
4718000,0.0324,0.013523,0.002678,0.000431,0.363162
4719000,0.0324,0.013523,0.002678,0.000431,0.294761
4720000,0.0324,0.013523,0.002678,0.000431,0.091437
4721000,0.0324,0.013523,0.002678,0.000431,0.222951
4722000,0.0324,0.013523,0.002678,0.000431,0.072750
4723000,0.0324,0.013523,0.002678,0.000431,0.194744
4724000,0.0324,0.013523,0.002678,0.000431,0.311920
4725000,0.0324,0.013523,0.002678,0.000431,0.350822
4726000,0.0324,0.013523,0.002678,0.000431,0.143619
4727000,0.0324,0.013523,0.002678,0.000431,0.088146
4728000,0.0324,0.013523,0.002678,0.000431,0.172061
4729000,0.0324,0.013523,0.002678,0.000431,0.225772
4730000,0.0324,0.013523,0.002678,0.000431,0.092612
4731000,0.0324,0.013523,0.002678,0.000431,0.209788
4732000,0.0324,0.013523,0.002678,0.000431,0.132102
4733000,0.0324,0.013523,0.002678,0.000431,0.064876
4734000,0.0324,0.013523,0.002678,0.000431,0.200738
4735000,0.0324,0.013523,0.002678,0.000431,0.249042
4736000,0.0324,0.013523,0.002678,0.000431,0.137390
4737000,0.0324,0.013523,0.002678,0.000431,0.154550
4738000,0.0324,0.013523,0.002678,0.000431,0.110594
4739000,0.0324,0.013523,0.002678,0.000431,0.159603
4740000,0.0324,0.013523,0.002678,0.000431,0.259620
4741000,0.0324,0.013523,0.002678,0.000431,0.115060
4742000,0.0324,0.013523,0.002678,0.000431,0.087911
4743000,0.0324,0.013523,0.002678,0.000431,0.102955
4744000,0.0324,0.013523,0.002678,0.000431,0.295113
4745000,0.0324,0.013523,0.002678,0.000431,0.300755
4746000,0.0324,0.013523,0.002678,0.000431,0.040665
4747000,0.0324,0.013523,0.002678,0.000431,0.136450
4748000,0.0324,0.013523,0.002678,0.000431,0.128341
4749000,0.0324,0.013523,0.002678,0.000431,0.156430
4750000,0.0324,0.013523,0.002678,0.000431,0.185577
4751000,0.0324,0.013523,0.002678,0.000431,0.128576
4752000,0.0324,0.013523,0.002678,0.000431,0.193334
4753000,0.0324,0.013523,0.002678,0.000431,0.114943
4754000,0.0324,0.013523,0.002678,0.000431,0.142679
4755000,0.0324,0.013523,0.002678,0.000431,0.072867
4756000,0.0324,0.013523,0.002678,0.000431,0.172884
4757000,0.0324,0.013523,0.002678,0.000431,0.185695
4758000,0.0324,0.013523,0.002678,0.000431,0.261383
4759000,0.0324,0.013523,0.002678,0.000431,0.103072
4760000,0.0324,0.013523,0.002678,0.000431,0.156430
4761000,0.0324,0.013523,0.002678,0.000431,0.090027
4762000,0.0324,0.013523,0.002678,0.000431,0.088734
4763000,0.0324,0.013523,0.002678,0.000431,0.244929
4764000,0.0324,0.013523,0.002678,0.000431,0.169358
4765000,0.0324,0.013523,0.002678,0.000431,0.149143
4766000,0.0324,0.013523,0.002678,0.000431,0.143972
4767000,0.0324,0.013523,0.002678,0.000431,0.269375
4768000,0.0324,0.013523,0.002678,0.000431,0.066521
4769000,0.0324,0.013523,0.002678,0.000431,0.218720
4770000,0.0324,0.013523,0.002678,0.000431,0.109771
4771000,0.0324,0.013523,0.002678,0.000431,0.120936
4772000,0.0324,0.013523,0.002678,0.000431,0.129751
4773000,0.0324,0.013523,0.002678,0.000431,0.139153
4774000,0.0324,0.013523,0.002678,0.000431,0.053710
4775000,0.0324,0.013523,0.002678,0.000431,0.120466
4776000,0.0324,0.013523,0.002678,0.000431,0.100252
4777000,0.0324,0.013523,0.002678,0.000431,0.293820
4778000,0.0324,0.013523,0.002678,0.000431,0.239052
4779000,0.0324,0.013523,0.002678,0.000431,0.144090
4780000,0.0324,0.013523,0.002678,0.000431,0.209670
4781000,0.0324,0.013523,0.002678,0.000431,0.094023
4782000,0.0324,0.013523,0.002678,0.000431,0.241403
4783000,0.0324,0.013523,0.002678,0.000431,0.073573
4784000,0.0324,0.013523,0.002678,0.000431,0.180053
4785000,0.0324,0.013523,0.002678,0.000431,0.166537
4786000,0.0324,0.013523,0.002678,0.000431,0.215194
4787000,0.0324,0.013523,0.002678,0.000431,0.068636
4788000,0.0324,0.013523,0.002678,0.000431,0.122347
4789000,0.0324,0.013523,0.002678,0.000431,0.150436
4790000,0.0324,0.013523,0.002678,0.000431,0.311685
4791000,0.0324,0.013523,0.002678,0.000431,0.173589
4792000,0.0324,0.013523,0.002678,0.000431,0.142914
4793000,0.0324,0.013523,0.002678,0.000431,0.099546
4794000,0.0324,0.013523,0.002678,0.000431,0.114002
4795000,0.0324,0.013523,0.002678,0.000431,0.461298
4796000,0.0324,0.013523,0.002678,0.000431,0.099664
4797000,0.0324,0.013523,0.002678,0.000431,0.137390
4798000,0.0324,0.013523,0.002678,0.000431,0.161131
4799000,0.0324,0.013523,0.002678,0.000431,0.125990
4800000,0.0324,0.013523,0.002678,0.000431,0.065228
4801000,0.0324,0.013523,0.002678,0.000431,0.077921
4802000,0.0324,0.013523,0.002678,0.000431,0.202266
4803000,0.0324,0.013523,0.002678,0.000431,0.127753
4804000,0.0324,0.013523,0.002678,0.000431,0.144560
4805000,0.0324,0.013523,0.002678,0.000431,0.149143
4806000,0.0324,0.013523,0.002678,0.000431,0.070869
4807000,0.0324,0.013523,0.002678,0.000431,0.149731
4808000,0.0324,0.013523,0.002678,0.000431,0.186870
4809000,0.0324,0.013523,0.002678,0.000431,0.101544
4810000,0.0324,0.013523,0.002678,0.000431,0.087911
4811000,0.0324,0.013523,0.002678,0.000431,0.198035
4812000,0.0324,0.013523,0.002678,0.000431,0.172296
4813000,0.0324,0.013523,0.002678,0.000431,0.104247
4814000,0.0324,0.013523,0.002678,0.000431,0.161836
4815000,0.0324,0.013523,0.002678,0.000431,0.172179
4816000,0.0324,0.013523,0.002678,0.000431,0.101662
4817000,0.0324,0.013523,0.002678,0.000431,0.181464
4818000,0.0324,0.013523,0.002678,0.000431,0.107656
4819000,0.0324,0.013523,0.002678,0.000431,0.095198
4820000,0.0324,0.013523,0.002678,0.000431,0.057706
4821000,0.0324,0.013523,0.002678,0.000431,0.245634
4822000,0.0324,0.013523,0.002678,0.000431,0.070517
4823000,0.0324,0.013523,0.002678,0.000431,0.194274
4824000,0.0324,0.013523,0.002678,0.000431,0.093200
4825000,0.0324,0.013523,0.002678,0.000431,0.143972
4826000,0.0324,0.013523,0.002678,0.000431,0.040547
4827000,0.0324,0.013523,0.002678,0.000431,0.225654
4828000,0.0324,0.013523,0.002678,0.000431,0.072397
4829000,0.0324,0.013523,0.002678,0.000431,0.169123
4830000,0.0324,0.013523,0.002678,0.000431,0.176175
4831000,0.0324,0.013523,0.002678,0.000431,0.086501
4832000,0.0324,0.013523,0.002678,0.000431,0.039019
4833000,0.0324,0.013523,0.002678,0.000431,0.119174
4834000,0.0324,0.013523,0.002678,0.000431,0.277131
4835000,0.0324,0.013523,0.002678,0.000431,0.138683
4836000,0.0324,0.013523,0.002678,0.000431,0.112592
4837000,0.0324,0.013523,0.002678,0.000431,0.392897
4838000,0.0324,0.013523,0.002678,0.000431,0.230473
4839000,0.0324,0.013523,0.002678,0.000431,0.065111
4840000,0.0324,0.013523,0.002678,0.000431,0.458125
4841000,0.0324,0.013523,0.002678,0.000431,0.123052
4842000,0.0324,0.013523,0.002678,0.000431,0.128928
4843000,0.0324,0.013523,0.002678,0.000431,0.239522
4844000,0.0324,0.013523,0.002678,0.000431,0.145852
4845000,0.0324,0.013523,0.002678,0.000431,0.055943
4846000,0.0324,0.013523,0.002678,0.000431,0.112474
4847000,0.0324,0.013523,0.002678,0.000431,0.263851
4848000,0.0324,0.013523,0.002678,0.000431,0.176762
4849000,0.0324,0.013523,0.002678,0.000431,0.286886
4850000,0.0324,0.013523,0.002678,0.000431,0.117763
4851000,0.0324,0.013523,0.002678,0.000431,0.087911
4852000,0.0324,0.013523,0.002678,0.000431,0.056531
4853000,0.0324,0.013523,0.002678,0.000431,0.333545
4854000,0.0324,0.013523,0.002678,0.000431,0.122934
4855000,0.0324,0.013523,0.002678,0.000431,0.277367
4856000,0.0324,0.013523,0.002678,0.000431,0.168535
4857000,0.0324,0.013523,0.002678,0.000431,0.146440
4858000,0.0324,0.013523,0.002678,0.000431,0.064993
4859000,0.0324,0.013523,0.002678,0.000431,0.165127
4860000,0.0324,0.013523,0.002678,0.000431,0.175470
4861000,0.0324,0.013523,0.002678,0.000431,0.147733
4862000,0.0324,0.013523,0.002678,0.000431,0.269845
4863000,0.0324,0.013523,0.002678,0.000431,0.192159
4864000,0.0324,0.013523,0.002678,0.000431,0.117763
4865000,0.0324,0.013523,0.002678,0.000431,0.038667
4866000,0.0324,0.013523,0.002678,0.000431,0.197917
4867000,0.0324,0.013523,0.002678,0.000431,0.200973
4868000,0.0324,0.013523,0.002678,0.000431,0.351292
4869000,0.0324,0.013523,0.002678,0.000431,0.243636
4870000,0.0324,0.013523,0.002678,0.000431,0.428273
4871000,0.0324,0.013523,0.002678,0.000431,0.169711
4872000,0.0324,0.013523,0.002678,0.000431,0.350822
4873000,0.0324,0.013523,0.002678,0.000431,0.193686
4874000,0.0324,0.013523,0.002678,0.000431,0.035258
4875000,0.0324,0.013523,0.002678,0.000431,0.170533
4876000,0.0324,0.013523,0.002678,0.000431,0.132102
4877000,0.0324,0.013523,0.002678,0.000431,0.138918
4878000,0.0324,0.013523,0.002678,0.000431,0.083563
4879000,0.0324,0.013523,0.002678,0.000431,0.305338
4880000,0.0324,0.013523,0.002678,0.000431,0.202148
4881000,0.0324,0.013523,0.002678,0.000431,0.206615
4882000,0.0324,0.013523,0.002678,0.000431,0.210140
4883000,0.0324,0.013523,0.002678,0.000431,0.080154
4884000,0.0324,0.013523,0.002678,0.000431,0.047834
4885000,0.0324,0.013523,0.002678,0.000431,0.150789
4886000,0.0324,0.013523,0.002678,0.000431,0.163482
4887000,0.0324,0.013523,0.002678,0.000431,0.132102
4888000,0.0324,0.013523,0.002678,0.000431,0.224009
4889000,0.0324,0.013523,0.002678,0.000431,0.179113
4890000,0.0324,0.013523,0.002678,0.000431,0.131749
4891000,0.0324,0.013523,0.002678,0.000431,0.090144
4892000,0.0324,0.013523,0.002678,0.000431,0.164539
4893000,0.0324,0.013523,0.002678,0.000431,0.046894
4894000,0.0324,0.013523,0.002678,0.000431,0.165480
4895000,0.0324,0.013523,0.002678,0.000431,0.062407
4896000,0.0324,0.013523,0.002678,0.000431,0.181581
4897000,0.0324,0.013523,0.002678,0.000431,0.124815
4898000,0.0324,0.013523,0.002678,0.000431,0.149731
4899000,0.0324,0.013523,0.002678,0.000431,0.084150
4900000,0.0324,0.013523,0.002678,0.000431,0.283596
4901000,0.0324,0.013523,0.002678,0.000431,0.252803
4902000,0.0324,0.013523,0.002678,0.000431,0.043015
4903000,0.0324,0.013523,0.002678,0.000431,0.154197
4904000,0.0324,0.013523,0.002678,0.000431,0.091907
4905000,0.0324,0.013523,0.002678,0.000431,0.235997
4906000,0.0324,0.013523,0.002678,0.000431,0.059939
4907000,0.0324,0.013523,0.002678,0.000431,0.250453
4908000,0.0324,0.013523,0.002678,0.000431,0.241285
4909000,0.0324,0.013523,0.002678,0.000431,0.068636
4910000,0.0324,0.013523,0.002678,0.000431,0.065111
4911000,0.0324,0.013523,0.002678,0.000431,0.214371
4912000,0.0324,0.013523,0.002678,0.000431,0.069107
4913000,0.0324,0.013523,0.002678,0.000431,0.115178
4914000,0.0324,0.013523,0.002678,0.000431,0.282655
4915000,0.0324,0.013523,0.002678,0.000431,0.099664
4916000,0.0324,0.013523,0.002678,0.000431,0.170533
4917000,0.0324,0.013523,0.002678,0.000431,0.072867
4918000,0.0324,0.013523,0.002678,0.000431,0.130809
4919000,0.0324,0.013523,0.002678,0.000431,0.207202
4920000,0.0324,0.013523,0.002678,0.000431,0.265496
4921000,0.0324,0.013523,0.002678,0.000431,0.162541
4922000,0.0324,0.013523,0.002678,0.000431,0.117293
4923000,0.0324,0.013523,0.002678,0.000431,0.054063
4924000,0.0324,0.013523,0.002678,0.000431,0.167713
4925000,0.0324,0.013523,0.002678,0.000431,0.068989
4926000,0.0324,0.013523,0.002678,0.000431,0.245046
4927000,0.0324,0.013523,0.002678,0.000431,0.137038
4928000,0.0324,0.013523,0.002678,0.000431,0.108479
4929000,0.0324,0.013523,0.002678,0.000431,0.074513
4930000,0.0324,0.013523,0.002678,0.000431,0.120349
4931000,0.0324,0.013523,0.002678,0.000431,0.070517
4932000,0.0324,0.013523,0.002678,0.000431,0.079684
4933000,0.0324,0.013523,0.002678,0.000431,0.163952
4934000,0.0324,0.013523,0.002678,0.000431,0.135510
4935000,0.0324,0.013523,0.002678,0.000431,0.205204
4936000,0.0324,0.013523,0.002678,0.000431,0.035258
4937000,0.0324,0.013523,0.002678,0.000431,0.089556
4938000,0.0324,0.013523,0.002678,0.000431,0.071222
4939000,0.0324,0.013523,0.002678,0.000431,0.328609
4940000,0.0324,0.013523,0.002678,0.000431,0.126813
4941000,0.0324,0.013523,0.002678,0.000431,0.164069
4942000,0.0324,0.013523,0.002678,0.000431,0.205322
4943000,0.0324,0.013523,0.002678,0.000431,0.324378
4944000,0.0324,0.013523,0.002678,0.000431,0.257504
4945000,0.0324,0.013523,0.002678,0.000431,0.070517
4946000,0.0324,0.013523,0.002678,0.000431,0.136333
4947000,0.0324,0.013523,0.002678,0.000431,0.180406
4948000,0.0324,0.013523,0.002678,0.000431,0.169711
4949000,0.0324,0.013523,0.002678,0.000431,0.099076
4950000,0.0324,0.013523,0.002678,0.000431,0.188750
4951000,0.0324,0.013523,0.002678,0.000431,0.133630
4952000,0.0324,0.013523,0.002678,0.000431,0.212021
4953000,0.0324,0.013523,0.002678,0.000431,0.084033
4954000,0.0324,0.013523,0.002678,0.000431,0.306513
4955000,0.0324,0.013523,0.002678,0.000431,0.103072
4956000,0.0324,0.013523,0.002678,0.000431,0.133042
4957000,0.0324,0.013523,0.002678,0.000431,0.235056
4958000,0.0324,0.013523,0.002678,0.000431,0.114943
4959000,0.0324,0.013523,0.002678,0.000431,0.165832
4960000,0.0324,0.013523,0.002678,0.000431,0.093552
4961000,0.0324,0.013523,0.002678,0.000431,0.175705
4962000,0.0324,0.013523,0.002678,0.000431,0.096726
4963000,0.0324,0.013523,0.002678,0.000431,0.149966
4964000,0.0324,0.013523,0.002678,0.000431,0.103072
4965000,0.0324,0.013523,0.002678,0.000431,0.166890
4966000,0.0324,0.013523,0.002678,0.000431,0.154785
4967000,0.0324,0.013523,0.002678,0.000431,0.107068
4968000,0.0324,0.013523,0.002678,0.000431,0.080389
4969000,0.0324,0.013523,0.002678,0.000431,0.108243
4970000,0.0324,0.013523,0.002678,0.000431,0.150319
4971000,0.0324,0.013523,0.002678,0.000431,0.194744
4972000,0.0324,0.013523,0.002678,0.000431,0.189926
4973000,0.0324,0.013523,0.002678,0.000431,0.119409
4974000,0.0324,0.013523,0.002678,0.000431,0.125520
4975000,0.0324,0.013523,0.002678,0.000431,0.133982
4976000,0.0324,0.013523,0.002678,0.000431,0.086971
4977000,0.0324,0.013523,0.002678,0.000431,0.167478
4978000,0.0324,0.013523,0.002678,0.000431,0.210846
4979000,0.0324,0.013523,0.002678,0.000431,0.095903
4980000,0.0324,0.013523,0.002678,0.000431,0.156312
4981000,0.0324,0.013523,0.002678,0.000431,0.064641
4982000,0.0324,0.013523,0.002678,0.000431,0.065346
4983000,0.0324,0.013523,0.002678,0.000431,0.119879
4984000,0.0324,0.013523,0.002678,0.000431,0.172296
4985000,0.0324,0.013523,0.002678,0.000431,0.227417
4986000,0.0324,0.013523,0.002678,0.000431,0.070399
4987000,0.0324,0.013523,0.002678,0.000431,0.185224
4988000,0.0324,0.013523,0.002678,0.000431,0.211081
4989000,0.0324,0.013523,0.002678,0.000431,0.130809
4990000,0.0324,0.013523,0.002678,0.000431,0.259385
4991000,0.0324,0.013523,0.002678,0.000431,0.221893
4992000,0.0324,0.013523,0.002678,0.000431,0.078509
4993000,0.0324,0.013523,0.002678,0.000431,0.234704
4994000,0.0324,0.013523,0.002678,0.000431,0.053828
4995000,0.0324,0.013523,0.002678,0.000431,0.118116
4996000,0.0324,0.013523,0.002678,0.000431,0.051007
4997000,0.0324,0.013523,0.002678,0.000431,0.112004
4998000,0.0324,0.013523,0.002678,0.000431,0.181346
4999000,0.0324,0.013523,0.002678,0.000431,0.129516
