Cycle,Area(mm^2),PeakDynamic(W),SubthresholdLeakage(W),GateLeakage(W),RunTimeDynamic(W)
1000000,0.0324,0.013523,0.002678,0.000431,0.110359
1001000,0.0324,0.013523,0.002678,0.000431,0.197212
1002000,0.0324,0.013523,0.002678,0.000431,0.113532
1003000,0.0324,0.013523,0.002678,0.000431,0.131984
1004000,0.0324,0.013523,0.002678,0.000431,0.169241
1005000,0.0324,0.013523,0.002678,0.000431,0.156900
1006000,0.0324,0.013523,0.002678,0.000431,0.078861
1007000,0.0324,0.013523,0.002678,0.000431,0.119056
1008000,0.0324,0.013523,0.002678,0.000431,0.167008
1009000,0.0324,0.013523,0.002678,0.000431,0.113767
1010000,0.0324,0.013523,0.002678,0.000431,0.110006
1011000,0.0324,0.013523,0.002678,0.000431,0.129516
1012000,0.0324,0.013523,0.002678,0.000431,0.136803
1013000,0.0324,0.013523,0.002678,0.000431,0.057824
1014000,0.0324,0.013523,0.002678,0.000431,0.111769
1015000,0.0324,0.013523,0.002678,0.000431,0.153844
1016000,0.0324,0.013523,0.002678,0.000431,0.071457
1017000,0.0324,0.013523,0.002678,0.000431,0.212961
1018000,0.0324,0.013523,0.002678,0.000431,0.117058
1019000,0.0324,0.013523,0.002678,0.000431,0.152552
1020000,0.0324,0.013523,0.002678,0.000431,0.302518
1021000,0.0324,0.013523,0.002678,0.000431,0.144207
1022000,0.0324,0.013523,0.002678,0.000431,0.049714
1023000,0.0324,0.013523,0.002678,0.000431,0.068636
1024000,0.0324,0.013523,0.002678,0.000431,0.099076
1025000,0.0324,0.013523,0.002678,0.000431,0.108479
1026000,0.0324,0.013523,0.002678,0.000431,0.068049
1027000,0.0324,0.013523,0.002678,0.000431,0.205674
1028000,0.0324,0.013523,0.002678,0.000431,0.110006
1029000,0.0324,0.013523,0.002678,0.000431,0.085443
1030000,0.0324,0.013523,0.002678,0.000431,0.105540
1031000,0.0324,0.013523,0.002678,0.000431,0.116353
1032000,0.0324,0.013523,0.002678,0.000431,0.235291
1033000,0.0324,0.013523,0.002678,0.000431,0.188985
1034000,0.0324,0.013523,0.002678,0.000431,0.110476
1035000,0.0324,0.013523,0.002678,0.000431,0.078744
1036000,0.0324,0.013523,0.002678,0.000431,0.126578
1037000,0.0324,0.013523,0.002678,0.000431,0.084033
1038000,0.0324,0.013523,0.002678,0.000431,0.151846
1039000,0.0324,0.013523,0.002678,0.000431,0.215782
1040000,0.0324,0.013523,0.002678,0.000431,0.104718
1041000,0.0324,0.013523,0.002678,0.000431,0.134100
1042000,0.0324,0.013523,0.002678,0.000431,0.229650
1043000,0.0324,0.013523,0.002678,0.000431,0.117763
1044000,0.0324,0.013523,0.002678,0.000431,0.215077
1045000,0.0324,0.013523,0.002678,0.000431,0.153962
1046000,0.0324,0.013523,0.002678,0.000431,0.193922
1047000,0.0324,0.013523,0.002678,0.000431,0.080154
1048000,0.0324,0.013523,0.002678,0.000431,0.088734
1049000,0.0324,0.013523,0.002678,0.000431,0.094023
1050000,0.0324,0.013523,0.002678,0.000431,0.123640
1051000,0.0324,0.013523,0.002678,0.000431,0.078861
1052000,0.0324,0.013523,0.002678,0.000431,0.257152
1053000,0.0324,0.013523,0.002678,0.000431,0.164187
1054000,0.0324,0.013523,0.002678,0.000431,0.161484
1055000,0.0324,0.013523,0.002678,0.000431,0.164657
1056000,0.0324,0.013523,0.002678,0.000431,0.171356
1057000,0.0324,0.013523,0.002678,0.000431,0.166537
1058000,0.0324,0.013523,0.002678,0.000431,0.098841
1059000,0.0324,0.013523,0.002678,0.000431,0.155607
1060000,0.0324,0.013523,0.002678,0.000431,0.137038
1061000,0.0324,0.013523,0.002678,0.000431,0.131161
1062000,0.0324,0.013523,0.002678,0.000431,0.097548
1063000,0.0324,0.013523,0.002678,0.000431,0.210375
1064000,0.0324,0.013523,0.002678,0.000431,0.154902
1065000,0.0324,0.013523,0.002678,0.000431,0.167125
1066000,0.0324,0.013523,0.002678,0.000431,0.127165
1067000,0.0324,0.013523,0.002678,0.000431,0.162894
1068000,0.0324,0.013523,0.002678,0.000431,0.110124
1069000,0.0324,0.013523,0.002678,0.000431,0.109301
1070000,0.0324,0.013523,0.002678,0.000431,0.137038
1071000,0.0324,0.013523,0.002678,0.000431,0.091907
1072000,0.0324,0.013523,0.002678,0.000431,0.151494
1073000,0.0324,0.013523,0.002678,0.000431,0.078861
1074000,0.0324,0.013523,0.002678,0.000431,0.145617
1075000,0.0324,0.013523,0.002678,0.000431,0.061232
1076000,0.0324,0.013523,0.002678,0.000431,0.091319
1077000,0.0324,0.013523,0.002678,0.000431,0.125285
1078000,0.0324,0.013523,0.002678,0.000431,0.135745
1079000,0.0324,0.013523,0.002678,0.000431,0.332722
1080000,0.0324,0.013523,0.002678,0.000431,0.272430
1081000,0.0324,0.013523,0.002678,0.000431,0.181581
1082000,0.0324,0.013523,0.002678,0.000431,0.084033
1083000,0.0324,0.013523,0.002678,0.000431,0.106598
1084000,0.0324,0.013523,0.002678,0.000431,0.339069
1085000,0.0324,0.013523,0.002678,0.000431,0.279952
1086000,0.0324,0.013523,0.002678,0.000431,0.231883
1087000,0.0324,0.013523,0.002678,0.000431,0.095198
1088000,0.0324,0.013523,0.002678,0.000431,0.089086
1089000,0.0324,0.013523,0.002678,0.000431,0.119996
1090000,0.0324,0.013523,0.002678,0.000431,0.106716
1091000,0.0324,0.013523,0.002678,0.000431,0.091672
1092000,0.0324,0.013523,0.002678,0.000431,0.167830
1093000,0.0324,0.013523,0.002678,0.000431,0.205322
1094000,0.0324,0.013523,0.002678,0.000431,0.081682
1095000,0.0324,0.013523,0.002678,0.000431,0.076628
1096000,0.0324,0.013523,0.002678,0.000431,0.199915
1097000,0.0324,0.013523,0.002678,0.000431,0.117528
1098000,0.0324,0.013523,0.002678,0.000431,0.113650
1099000,0.0324,0.013523,0.002678,0.000431,0.179230
1100000,0.0324,0.013523,0.002678,0.000431,0.237054
1101000,0.0324,0.013523,0.002678,0.000431,0.119291
1102000,0.0324,0.013523,0.002678,0.000431,0.100487
1103000,0.0324,0.013523,0.002678,0.000431,0.102014
1104000,0.0324,0.013523,0.002678,0.000431,0.124697
1105000,0.0324,0.013523,0.002678,0.000431,0.130926
1106000,0.0324,0.013523,0.002678,0.000431,0.169711
1107000,0.0324,0.013523,0.002678,0.000431,0.157605
1108000,0.0324,0.013523,0.002678,0.000431,0.248337
1109000,0.0324,0.013523,0.002678,0.000431,0.073690
1110000,0.0324,0.013523,0.002678,0.000431,0.177938
1111000,0.0324,0.013523,0.002678,0.000431,0.060762
1112000,0.0324,0.013523,0.002678,0.000431,0.145382
1113000,0.0324,0.013523,0.002678,0.000431,0.192746
1114000,0.0324,0.013523,0.002678,0.000431,0.092495
1115000,0.0324,0.013523,0.002678,0.000431,0.159016
1116000,0.0324,0.013523,0.002678,0.000431,0.056296
1117000,0.0324,0.013523,0.002678,0.000431,0.137155
1118000,0.0324,0.013523,0.002678,0.000431,0.073573
1119000,0.0324,0.013523,0.002678,0.000431,0.142679
1120000,0.0324,0.013523,0.002678,0.000431,0.163364
1121000,0.0324,0.013523,0.002678,0.000431,0.169593
1122000,0.0324,0.013523,0.002678,0.000431,0.210728
1123000,0.0324,0.013523,0.002678,0.000431,0.090144
1124000,0.0324,0.013523,0.002678,0.000431,0.151494
1125000,0.0324,0.013523,0.002678,0.000431,0.179348
1126000,0.0324,0.013523,0.002678,0.000431,0.167008
1127000,0.0324,0.013523,0.002678,0.000431,0.114120
1128000,0.0324,0.013523,0.002678,0.000431,0.042780
1129000,0.0324,0.013523,0.002678,0.000431,0.087911
1130000,0.0324,0.013523,0.002678,0.000431,0.134452
1131000,0.0324,0.013523,0.002678,0.000431,0.163482
1132000,0.0324,0.013523,0.002678,0.000431,0.070282
1133000,0.0324,0.013523,0.002678,0.000431,0.178995
1134000,0.0324,0.013523,0.002678,0.000431,0.140564
1135000,0.0324,0.013523,0.002678,0.000431,0.102720
1136000,0.0324,0.013523,0.002678,0.000431,0.136685
1137000,0.0324,0.013523,0.002678,0.000431,0.142797
1138000,0.0324,0.013523,0.002678,0.000431,0.195214
1139000,0.0324,0.013523,0.002678,0.000431,0.114002
1140000,0.0324,0.013523,0.002678,0.000431,0.218367
1141000,0.0324,0.013523,0.002678,0.000431,0.139506
1142000,0.0324,0.013523,0.002678,0.000431,0.068989
1143000,0.0324,0.013523,0.002678,0.000431,0.116705
1144000,0.0324,0.013523,0.002678,0.000431,0.109301
1145000,0.0324,0.013523,0.002678,0.000431,0.222363
1146000,0.0324,0.013523,0.002678,0.000431,0.300049
1147000,0.0324,0.013523,0.002678,0.000431,0.161836
1148000,0.0324,0.013523,0.002678,0.000431,0.086736
1149000,0.0324,0.013523,0.002678,0.000431,0.207672
1150000,0.0324,0.013523,0.002678,0.000431,0.188868
1151000,0.0324,0.013523,0.002678,0.000431,0.236702
1152000,0.0324,0.013523,0.002678,0.000431,0.166302
1153000,0.0324,0.013523,0.002678,0.000431,0.236467
1154000,0.0324,0.013523,0.002678,0.000431,0.095550
1155000,0.0324,0.013523,0.002678,0.000431,0.063465
1156000,0.0324,0.013523,0.002678,0.000431,0.090614
1157000,0.0324,0.013523,0.002678,0.000431,0.153962
1158000,0.0324,0.013523,0.002678,0.000431,0.230943
1159000,0.0324,0.013523,0.002678,0.000431,0.089321
1160000,0.0324,0.013523,0.002678,0.000431,0.116353
1161000,0.0324,0.013523,0.002678,0.000431,0.051125
1162000,0.0324,0.013523,0.002678,0.000431,0.105070
1163000,0.0324,0.013523,0.002678,0.000431,0.094610
1164000,0.0324,0.013523,0.002678,0.000431,0.169946
1165000,0.0324,0.013523,0.002678,0.000431,0.173237
1166000,0.0324,0.013523,0.002678,0.000431,0.208730
1167000,0.0324,0.013523,0.002678,0.000431,0.095315
1168000,0.0324,0.013523,0.002678,0.000431,0.099429
1169000,0.0324,0.013523,0.002678,0.000431,0.102014
1170000,0.0324,0.013523,0.002678,0.000431,0.095668
1171000,0.0324,0.013523,0.002678,0.000431,0.136450
1172000,0.0324,0.013523,0.002678,0.000431,0.152317
1173000,0.0324,0.013523,0.002678,0.000431,0.128341
1174000,0.0324,0.013523,0.002678,0.000431,0.263733
1175000,0.0324,0.013523,0.002678,0.000431,0.145735
1176000,0.0324,0.013523,0.002678,0.000431,0.129869
1177000,0.0324,0.013523,0.002678,0.000431,0.243518
1178000,0.0324,0.013523,0.002678,0.000431,0.224244
1179000,0.0324,0.013523,0.002678,0.000431,0.218250
1180000,0.0324,0.013523,0.002678,0.000431,0.041840
1181000,0.0324,0.013523,0.002678,0.000431,0.065463
1182000,0.0324,0.013523,0.002678,0.000431,0.039489
1183000,0.0324,0.013523,0.002678,0.000431,0.224361
1184000,0.0324,0.013523,0.002678,0.000431,0.230120
1185000,0.0324,0.013523,0.002678,0.000431,0.262793
1186000,0.0324,0.013523,0.002678,0.000431,0.106481
1187000,0.0324,0.013523,0.002678,0.000431,0.100722
1188000,0.0324,0.013523,0.002678,0.000431,0.072750
1189000,0.0324,0.013523,0.002678,0.000431,0.094728
1190000,0.0324,0.013523,0.002678,0.000431,0.105775
1191000,0.0324,0.013523,0.002678,0.000431,0.271020
1192000,0.0324,0.013523,0.002678,0.000431,0.156900
1193000,0.0324,0.013523,0.002678,0.000431,0.154315
1194000,0.0324,0.013523,0.002678,0.000431,0.080272
1195000,0.0324,0.013523,0.002678,0.000431,0.065346
1196000,0.0324,0.013523,0.002678,0.000431,0.130456
1197000,0.0324,0.013523,0.002678,0.000431,0.123170
1198000,0.0324,0.013523,0.002678,0.000431,0.266907
1199000,0.0324,0.013523,0.002678,0.000431,0.145852
1200000,0.0324,0.013523,0.002678,0.000431,0.113650
1201000,0.0324,0.013523,0.002678,0.000431,0.049714
1202000,0.0324,0.013523,0.002678,0.000431,0.065581
1203000,0.0324,0.013523,0.002678,0.000431,0.174412
1204000,0.0324,0.013523,0.002678,0.000431,0.165597
1205000,0.0324,0.013523,0.002678,0.000431,0.056766
1206000,0.0324,0.013523,0.002678,0.000431,0.097431
1207000,0.0324,0.013523,0.002678,0.000431,0.080624
1208000,0.0324,0.013523,0.002678,0.000431,0.058647
1209000,0.0324,0.013523,0.002678,0.000431,0.103777
1210000,0.0324,0.013523,0.002678,0.000431,0.185224
1211000,0.0324,0.013523,0.002678,0.000431,0.072867
1212000,0.0324,0.013523,0.002678,0.000431,0.132689
1213000,0.0324,0.013523,0.002678,0.000431,0.079332
1214000,0.0324,0.013523,0.002678,0.000431,0.044426
1215000,0.0324,0.013523,0.002678,0.000431,0.138918
1216000,0.0324,0.013523,0.002678,0.000431,0.089439
1217000,0.0324,0.013523,0.002678,0.000431,0.150671
1218000,0.0324,0.013523,0.002678,0.000431,0.202266
1219000,0.0324,0.013523,0.002678,0.000431,0.224479
1220000,0.0324,0.013523,0.002678,0.000431,0.068401
1221000,0.0324,0.013523,0.002678,0.000431,0.055473
1222000,0.0324,0.013523,0.002678,0.000431,0.118233
1223000,0.0324,0.013523,0.002678,0.000431,0.159368
1224000,0.0324,0.013523,0.002678,0.000431,0.134100
1225000,0.0324,0.013523,0.002678,0.000431,0.139506
1226000,0.0324,0.013523,0.002678,0.000431,0.176880
1227000,0.0324,0.013523,0.002678,0.000431,0.109771
1228000,0.0324,0.013523,0.002678,0.000431,0.112239
1229000,0.0324,0.013523,0.002678,0.000431,0.194509
1230000,0.0324,0.013523,0.002678,0.000431,0.145852
1231000,0.0324,0.013523,0.002678,0.000431,0.187928
1232000,0.0324,0.013523,0.002678,0.000431,0.105070
1233000,0.0324,0.013523,0.002678,0.000431,0.101662
1234000,0.0324,0.013523,0.002678,0.000431,0.087911
1235000,0.0324,0.013523,0.002678,0.000431,0.038314
1236000,0.0324,0.013523,0.002678,0.000431,0.130104
1237000,0.0324,0.013523,0.002678,0.000431,0.259855
1238000,0.0324,0.013523,0.002678,0.000431,0.153844
1239000,0.0324,0.013523,0.002678,0.000431,0.196625
1240000,0.0324,0.013523,0.002678,0.000431,0.057824
1241000,0.0324,0.013523,0.002678,0.000431,0.058059
1242000,0.0324,0.013523,0.002678,0.000431,0.088734
1243000,0.0324,0.013523,0.002678,0.000431,0.055473
1244000,0.0324,0.013523,0.002678,0.000431,0.123052
1245000,0.0324,0.013523,0.002678,0.000431,0.262440
1246000,0.0324,0.013523,0.002678,0.000431,0.136568
1247000,0.0324,0.013523,0.002678,0.000431,0.072045
1248000,0.0324,0.013523,0.002678,0.000431,0.058999
1249000,0.0324,0.013523,0.002678,0.000431,0.248925
1250000,0.0324,0.013523,0.002678,0.000431,0.126343
1251000,0.0324,0.013523,0.002678,0.000431,0.097196
1252000,0.0324,0.013523,0.002678,0.000431,0.142797
1253000,0.0324,0.013523,0.002678,0.000431,0.073808
1254000,0.0324,0.013523,0.002678,0.000431,0.084268
1255000,0.0324,0.013523,0.002678,0.000431,0.190161
1256000,0.0324,0.013523,0.002678,0.000431,0.135157
1257000,0.0324,0.013523,0.002678,0.000431,0.126578
1258000,0.0324,0.013523,0.002678,0.000431,0.157253
1259000,0.0324,0.013523,0.002678,0.000431,0.090732
1260000,0.0324,0.013523,0.002678,0.000431,0.123640
1261000,0.0324,0.013523,0.002678,0.000431,0.054298
1262000,0.0324,0.013523,0.002678,0.000431,0.164187
1263000,0.0324,0.013523,0.002678,0.000431,0.078391
1264000,0.0324,0.013523,0.002678,0.000431,0.208965
1265000,0.0324,0.013523,0.002678,0.000431,0.073220
1266000,0.0324,0.013523,0.002678,0.000431,0.154902
1267000,0.0324,0.013523,0.002678,0.000431,0.140094
1268000,0.0324,0.013523,0.002678,0.000431,0.088616
1269000,0.0324,0.013523,0.002678,0.000431,0.086148
1270000,0.0324,0.013523,0.002678,0.000431,0.111534
1271000,0.0324,0.013523,0.002678,0.000431,0.120231
1272000,0.0324,0.013523,0.002678,0.000431,0.192394
1273000,0.0324,0.013523,0.002678,0.000431,0.046541
1274000,0.0324,0.013523,0.002678,0.000431,0.045954
1275000,0.0324,0.013523,0.002678,0.000431,0.072045
1276000,0.0324,0.013523,0.002678,0.000431,0.119996
1277000,0.0324,0.013523,0.002678,0.000431,0.235291
1278000,0.0324,0.013523,0.002678,0.000431,0.053828
1279000,0.0324,0.013523,0.002678,0.000431,0.174529
1280000,0.0324,0.013523,0.002678,0.000431,0.205087
1281000,0.0324,0.013523,0.002678,0.000431,0.085208
1282000,0.0324,0.013523,0.002678,0.000431,0.169358
1283000,0.0324,0.013523,0.002678,0.000431,0.097431
1284000,0.0324,0.013523,0.002678,0.000431,0.089321
1285000,0.0324,0.013523,0.002678,0.000431,0.087206
1286000,0.0324,0.013523,0.002678,0.000431,0.091672
1287000,0.0324,0.013523,0.002678,0.000431,0.057354
1288000,0.0324,0.013523,0.002678,0.000431,0.055591
1289000,0.0324,0.013523,0.002678,0.000431,0.156430
1290000,0.0324,0.013523,0.002678,0.000431,0.091437
1291000,0.0324,0.013523,0.002678,0.000431,0.053828
1292000,0.0324,0.013523,0.002678,0.000431,0.114002
1293000,0.0324,0.013523,0.002678,0.000431,0.123992
1294000,0.0324,0.013523,0.002678,0.000431,0.102602
1295000,0.0324,0.013523,0.002678,0.000431,0.137273
1296000,0.0324,0.013523,0.002678,0.000431,0.087441
1297000,0.0324,0.013523,0.002678,0.000431,0.102720
1298000,0.0324,0.013523,0.002678,0.000431,0.078979
1299000,0.0324,0.013523,0.002678,0.000431,0.064405
1300000,0.0324,0.013523,0.002678,0.000431,0.055826
1301000,0.0324,0.013523,0.002678,0.000431,0.089556
1302000,0.0324,0.013523,0.002678,0.000431,0.123170
1303000,0.0324,0.013523,0.002678,0.000431,0.053945
1304000,0.0324,0.013523,0.002678,0.000431,0.133042
1305000,0.0324,0.013523,0.002678,0.000431,0.080389
1306000,0.0324,0.013523,0.002678,0.000431,0.183226
1307000,0.0324,0.013523,0.002678,0.000431,0.124227
1308000,0.0324,0.013523,0.002678,0.000431,0.248455
1309000,0.0324,0.013523,0.002678,0.000431,0.068872
1310000,0.0324,0.013523,0.002678,0.000431,0.102720
1311000,0.0324,0.013523,0.002678,0.000431,0.093670
1312000,0.0324,0.013523,0.002678,0.000431,0.040547
1313000,0.0324,0.013523,0.002678,0.000431,0.069107
1314000,0.0324,0.013523,0.002678,0.000431,0.154550
1315000,0.0324,0.013523,0.002678,0.000431,0.066521
1316000,0.0324,0.013523,0.002678,0.000431,0.112357
1317000,0.0324,0.013523,0.002678,0.000431,0.127753
1318000,0.0324,0.013523,0.002678,0.000431,0.073103
1319000,0.0324,0.013523,0.002678,0.000431,0.039019
1320000,0.0324,0.013523,0.002678,0.000431,0.057824
1321000,0.0324,0.013523,0.002678,0.000431,0.151141
1322000,0.0324,0.013523,0.002678,0.000431,0.156900
1323000,0.0324,0.013523,0.002678,0.000431,0.178173
1324000,0.0324,0.013523,0.002678,0.000431,0.069459
1325000,0.0324,0.013523,0.002678,0.000431,0.142679
1326000,0.0324,0.013523,0.002678,0.000431,0.076746
1327000,0.0324,0.013523,0.002678,0.000431,0.101192
1328000,0.0324,0.013523,0.002678,0.000431,0.053358
1329000,0.0324,0.013523,0.002678,0.000431,0.170063
1330000,0.0324,0.013523,0.002678,0.000431,0.141386
1331000,0.0324,0.013523,0.002678,0.000431,0.079332
1332000,0.0324,0.013523,0.002678,0.000431,0.065463
1333000,0.0324,0.013523,0.002678,0.000431,0.123405
1334000,0.0324,0.013523,0.002678,0.000431,0.192629
1335000,0.0324,0.013523,0.002678,0.000431,0.061467
1336000,0.0324,0.013523,0.002678,0.000431,0.211198
1337000,0.0324,0.013523,0.002678,0.000431,0.153139
1338000,0.0324,0.013523,0.002678,0.000431,0.148086
1339000,0.0324,0.013523,0.002678,0.000431,0.072632
1340000,0.0324,0.013523,0.002678,0.000431,0.234469
1341000,0.0324,0.013523,0.002678,0.000431,0.112945
1342000,0.0324,0.013523,0.002678,0.000431,0.229297
1343000,0.0324,0.013523,0.002678,0.000431,0.157370
1344000,0.0324,0.013523,0.002678,0.000431,0.127636
1345000,0.0324,0.013523,0.002678,0.000431,0.128458
1346000,0.0324,0.013523,0.002678,0.000431,0.141621
1347000,0.0324,0.013523,0.002678,0.000431,0.251745
1348000,0.0324,0.013523,0.002678,0.000431,0.057824
1349000,0.0324,0.013523,0.002678,0.000431,0.112945
1350000,0.0324,0.013523,0.002678,0.000431,0.117528
1351000,0.0324,0.013523,0.002678,0.000431,0.110359
1352000,0.0324,0.013523,0.002678,0.000431,0.110712
1353000,0.0324,0.013523,0.002678,0.000431,0.094375
1354000,0.0324,0.013523,0.002678,0.000431,0.168065
1355000,0.0324,0.013523,0.002678,0.000431,0.109419
1356000,0.0324,0.013523,0.002678,0.000431,0.199798
1357000,0.0324,0.013523,0.002678,0.000431,0.097783
1358000,0.0324,0.013523,0.002678,0.000431,0.158663
1359000,0.0324,0.013523,0.002678,0.000431,0.184989
1360000,0.0324,0.013523,0.002678,0.000431,0.184519
1361000,0.0324,0.013523,0.002678,0.000431,0.087676
1362000,0.0324,0.013523,0.002678,0.000431,0.121877
1363000,0.0324,0.013523,0.002678,0.000431,0.080037
1364000,0.0324,0.013523,0.002678,0.000431,0.132807
1365000,0.0324,0.013523,0.002678,0.000431,0.234821
1366000,0.0324,0.013523,0.002678,0.000431,0.202148
1367000,0.0324,0.013523,0.002678,0.000431,0.071340
1368000,0.0324,0.013523,0.002678,0.000431,0.215547
1369000,0.0324,0.013523,0.002678,0.000431,0.092965
1370000,0.0324,0.013523,0.002678,0.000431,0.145382
1371000,0.0324,0.013523,0.002678,0.000431,0.060409
1372000,0.0324,0.013523,0.002678,0.000431,0.219425
1373000,0.0324,0.013523,0.002678,0.000431,0.142562
1374000,0.0324,0.013523,0.002678,0.000431,0.171474
1375000,0.0324,0.013523,0.002678,0.000431,0.153139
1376000,0.0324,0.013523,0.002678,0.000431,0.045718
1377000,0.0324,0.013523,0.002678,0.000431,0.064876
1378000,0.0324,0.013523,0.002678,0.000431,0.102602
1379000,0.0324,0.013523,0.002678,0.000431,0.179583
1380000,0.0324,0.013523,0.002678,0.000431,0.145382
1381000,0.0324,0.013523,0.002678,0.000431,0.179818
1382000,0.0324,0.013523,0.002678,0.000431,0.124580
1383000,0.0324,0.013523,0.002678,0.000431,0.064758
1384000,0.0324,0.013523,0.002678,0.000431,0.153609
1385000,0.0324,0.013523,0.002678,0.000431,0.141504
1386000,0.0324,0.013523,0.002678,0.000431,0.188280
1387000,0.0324,0.013523,0.002678,0.000431,0.116823
1388000,0.0324,0.013523,0.002678,0.000431,0.236467
1389000,0.0324,0.013523,0.002678,0.000431,0.058647
1390000,0.0324,0.013523,0.002678,0.000431,0.083915
1391000,0.0324,0.013523,0.002678,0.000431,0.162659
1392000,0.0324,0.013523,0.002678,0.000431,0.201443
1393000,0.0324,0.013523,0.002678,0.000431,0.107421
1394000,0.0324,0.013523,0.002678,0.000431,0.069459
1395000,0.0324,0.013523,0.002678,0.000431,0.175352
1396000,0.0324,0.013523,0.002678,0.000431,0.111652
1397000,0.0324,0.013523,0.002678,0.000431,0.125403
1398000,0.0324,0.013523,0.002678,0.000431,0.193686
1399000,0.0324,0.013523,0.002678,0.000431,0.154432
1400000,0.0324,0.013523,0.002678,0.000431,0.208848
1401000,0.0324,0.013523,0.002678,0.000431,0.148321
1402000,0.0324,0.013523,0.002678,0.000431,0.057706
1403000,0.0324,0.013523,0.002678,0.000431,0.089321
1404000,0.0324,0.013523,0.002678,0.000431,0.179936
1405000,0.0324,0.013523,0.002678,0.000431,0.186987
1406000,0.0324,0.013523,0.002678,0.000431,0.197565
1407000,0.0324,0.013523,0.002678,0.000431,0.079919
1408000,0.0324,0.013523,0.002678,0.000431,0.057824
1409000,0.0324,0.013523,0.002678,0.000431,0.072632
1410000,0.0324,0.013523,0.002678,0.000431,0.108479
1411000,0.0324,0.013523,0.002678,0.000431,0.157605
1412000,0.0324,0.013523,0.002678,0.000431,0.144325
1413000,0.0324,0.013523,0.002678,0.000431,0.114002
1414000,0.0324,0.013523,0.002678,0.000431,0.133865
1415000,0.0324,0.013523,0.002678,0.000431,0.111534
1416000,0.0324,0.013523,0.002678,0.000431,0.123287
1417000,0.0324,0.013523,0.002678,0.000431,0.099194
1418000,0.0324,0.013523,0.002678,0.000431,0.266201
1419000,0.0324,0.013523,0.002678,0.000431,0.150906
1420000,0.0324,0.013523,0.002678,0.000431,0.240933
1421000,0.0324,0.013523,0.002678,0.000431,0.202148
1422000,0.0324,0.013523,0.002678,0.000431,0.233646
1423000,0.0324,0.013523,0.002678,0.000431,0.084503
1424000,0.0324,0.013523,0.002678,0.000431,0.139976
1425000,0.0324,0.013523,0.002678,0.000431,0.155372
1426000,0.0324,0.013523,0.002678,0.000431,0.115295
1427000,0.0324,0.013523,0.002678,0.000431,0.158428
1428000,0.0324,0.013523,0.002678,0.000431,0.087206
1429000,0.0324,0.013523,0.002678,0.000431,0.072045
1430000,0.0324,0.013523,0.002678,0.000431,0.093317
1431000,0.0324,0.013523,0.002678,0.000431,0.155020
1432000,0.0324,0.013523,0.002678,0.000431,0.110829
1433000,0.0324,0.013523,0.002678,0.000431,0.226829
1434000,0.0324,0.013523,0.002678,0.000431,0.157253
1435000,0.0324,0.013523,0.002678,0.000431,0.123052
1436000,0.0324,0.013523,0.002678,0.000431,0.142092
1437000,0.0324,0.013523,0.002678,0.000431,0.128458
1438000,0.0324,0.013523,0.002678,0.000431,0.255036
1439000,0.0324,0.013523,0.002678,0.000431,0.188163
1440000,0.0324,0.013523,0.002678,0.000431,0.161601
1441000,0.0324,0.013523,0.002678,0.000431,0.121054
1442000,0.0324,0.013523,0.002678,0.000431,0.176175
1443000,0.0324,0.013523,0.002678,0.000431,0.179348
1444000,0.0324,0.013523,0.002678,0.000431,0.236232
1445000,0.0324,0.013523,0.002678,0.000431,0.056649
1446000,0.0324,0.013523,0.002678,0.000431,0.217427
1447000,0.0324,0.013523,0.002678,0.000431,0.127048
1448000,0.0324,0.013523,0.002678,0.000431,0.057706
1449000,0.0324,0.013523,0.002678,0.000431,0.110241
1450000,0.0324,0.013523,0.002678,0.000431,0.087911
1451000,0.0324,0.013523,0.002678,0.000431,0.117998
1452000,0.0324,0.013523,0.002678,0.000431,0.078509
1453000,0.0324,0.013523,0.002678,0.000431,0.202619
1454000,0.0324,0.013523,0.002678,0.000431,0.061115
1455000,0.0324,0.013523,0.002678,0.000431,0.091907
1456000,0.0324,0.013523,0.002678,0.000431,0.161836
1457000,0.0324,0.013523,0.002678,0.000431,0.131044
1458000,0.0324,0.013523,0.002678,0.000431,0.092025
1459000,0.0324,0.013523,0.002678,0.000431,0.183109
1460000,0.0324,0.013523,0.002678,0.000431,0.096491
1461000,0.0324,0.013523,0.002678,0.000431,0.079449
1462000,0.0324,0.013523,0.002678,0.000431,0.050067
1463000,0.0324,0.013523,0.002678,0.000431,0.252333
1464000,0.0324,0.013523,0.002678,0.000431,0.182404
1465000,0.0324,0.013523,0.002678,0.000431,0.161954
1466000,0.0324,0.013523,0.002678,0.000431,0.464589
1467000,0.0324,0.013523,0.002678,0.000431,0.159603
1468000,0.0324,0.013523,0.002678,0.000431,0.133042
1469000,0.0324,0.013523,0.002678,0.000431,0.181699
1470000,0.0324,0.013523,0.002678,0.000431,0.505254
1471000,0.0324,0.013523,0.002678,0.000431,0.085325
1472000,0.0324,0.013523,0.002678,0.000431,0.178290
1473000,0.0324,0.013523,0.002678,0.000431,0.214489
1474000,0.0324,0.013523,0.002678,0.000431,0.203206
1475000,0.0324,0.013523,0.002678,0.000431,0.080037
1476000,0.0324,0.013523,0.002678,0.000431,0.113650
1477000,0.0324,0.013523,0.002678,0.000431,0.190631
1478000,0.0324,0.013523,0.002678,0.000431,0.135863
1479000,0.0324,0.013523,0.002678,0.000431,0.165832
1480000,0.0324,0.013523,0.002678,0.000431,0.183932
1481000,0.0324,0.013523,0.002678,0.000431,0.131397
1482000,0.0324,0.013523,0.002678,0.000431,0.172649
1483000,0.0324,0.013523,0.002678,0.000431,0.392897
1484000,0.0324,0.013523,0.002678,0.000431,0.261970
1485000,0.0324,0.013523,0.002678,0.000431,0.118351
1486000,0.0324,0.013523,0.002678,0.000431,0.086971
1487000,0.0324,0.013523,0.002678,0.000431,0.110947
1488000,0.0324,0.013523,0.002678,0.000431,0.184754
1489000,0.0324,0.013523,0.002678,0.000431,0.069107
1490000,0.0324,0.013523,0.002678,0.000431,0.162894
1491000,0.0324,0.013523,0.002678,0.000431,0.096021
1492000,0.0324,0.013523,0.002678,0.000431,0.111534
1493000,0.0324,0.013523,0.002678,0.000431,0.255271
1494000,0.0324,0.013523,0.002678,0.000431,0.076746
1495000,0.0324,0.013523,0.002678,0.000431,0.297346
1496000,0.0324,0.013523,0.002678,0.000431,0.113885
1497000,0.0324,0.013523,0.002678,0.000431,0.087911
1498000,0.0324,0.013523,0.002678,0.000431,0.061585
1499000,0.0324,0.013523,0.002678,0.000431,0.177820
1500000,0.0324,0.013523,0.002678,0.000431,0.103072
1501000,0.0324,0.013523,0.002678,0.000431,0.091672
1502000,0.0324,0.013523,0.002678,0.000431,0.080154
1503000,0.0324,0.013523,0.002678,0.000431,0.230590
1504000,0.0324,0.013523,0.002678,0.000431,0.119409
1505000,0.0324,0.013523,0.002678,0.000431,0.133865
1506000,0.0324,0.013523,0.002678,0.000431,0.130456
1507000,0.0324,0.013523,0.002678,0.000431,0.098724
1508000,0.0324,0.013523,0.002678,0.000431,0.166067
1509000,0.0324,0.013523,0.002678,0.000431,0.083915
1510000,0.0324,0.013523,0.002678,0.000431,0.057236
1511000,0.0324,0.013523,0.002678,0.000431,0.165010
1512000,0.0324,0.013523,0.002678,0.000431,0.074043
1513000,0.0324,0.013523,0.002678,0.000431,0.141151
1514000,0.0324,0.013523,0.002678,0.000431,0.158428
1515000,0.0324,0.013523,0.002678,0.000431,0.095903
1516000,0.0324,0.013523,0.002678,0.000431,0.135392
1517000,0.0324,0.013523,0.002678,0.000431,0.065111
1518000,0.0324,0.013523,0.002678,0.000431,0.102014
1519000,0.0324,0.013523,0.002678,0.000431,0.145265
1520000,0.0324,0.013523,0.002678,0.000431,0.148556
1521000,0.0324,0.013523,0.002678,0.000431,0.139859
1522000,0.0324,0.013523,0.002678,0.000431,0.166302
1523000,0.0324,0.013523,0.002678,0.000431,0.302400
1524000,0.0324,0.013523,0.002678,0.000431,0.050302
1525000,0.0324,0.013523,0.002678,0.000431,0.173589
1526000,0.0324,0.013523,0.002678,0.000431,0.212021
1527000,0.0324,0.013523,0.002678,0.000431,0.134805
1528000,0.0324,0.013523,0.002678,0.000431,0.142444
1529000,0.0324,0.013523,0.002678,0.000431,0.147968
1530000,0.0324,0.013523,0.002678,0.000431,0.039137
1531000,0.0324,0.013523,0.002678,0.000431,0.115883
1532000,0.0324,0.013523,0.002678,0.000431,0.183814
1533000,0.0324,0.013523,0.002678,0.000431,0.059704
1534000,0.0324,0.013523,0.002678,0.000431,0.217897
1535000,0.0324,0.013523,0.002678,0.000431,0.195449
1536000,0.0324,0.013523,0.002678,0.000431,0.240580
1537000,0.0324,0.013523,0.002678,0.000431,0.076746
1538000,0.0324,0.013523,0.002678,0.000431,0.250923
1539000,0.0324,0.013523,0.002678,0.000431,0.274781
1540000,0.0324,0.013523,0.002678,0.000431,0.245516
1541000,0.0324,0.013523,0.002678,0.000431,0.361987
1542000,0.0324,0.013523,0.002678,0.000431,0.139271
1543000,0.0324,0.013523,0.002678,0.000431,0.139388
1544000,0.0324,0.013523,0.002678,0.000431,0.209553
1545000,0.0324,0.013523,0.002678,0.000431,0.169711
1546000,0.0324,0.013523,0.002678,0.000431,0.057471
1547000,0.0324,0.013523,0.002678,0.000431,0.178408
1548000,0.0324,0.013523,0.002678,0.000431,0.068989
1549000,0.0324,0.013523,0.002678,0.000431,0.085325
1550000,0.0324,0.013523,0.002678,0.000431,0.215077
1551000,0.0324,0.013523,0.002678,0.000431,0.351174
1552000,0.0324,0.013523,0.002678,0.000431,0.162541
1553000,0.0324,0.013523,0.002678,0.000431,0.088969
1554000,0.0324,0.013523,0.002678,0.000431,0.186635
1555000,0.0324,0.013523,0.002678,0.000431,0.167595
1556000,0.0324,0.013523,0.002678,0.000431,0.076041
1557000,0.0324,0.013523,0.002678,0.000431,0.324613
1558000,0.0324,0.013523,0.002678,0.000431,0.389371
1559000,0.0324,0.013523,0.002678,0.000431,0.163129
1560000,0.0324,0.013523,0.002678,0.000431,0.091554
1561000,0.0324,0.013523,0.002678,0.000431,0.195449
1562000,0.0324,0.013523,0.002678,0.000431,0.051595
1563000,0.0324,0.013523,0.002678,0.000431,0.185577
1564000,0.0324,0.013523,0.002678,0.000431,0.249042
1565000,0.0324,0.013523,0.002678,0.000431,0.283478
1566000,0.0324,0.013523,0.002678,0.000431,0.069107
1567000,0.0324,0.013523,0.002678,0.000431,0.263851
1568000,0.0324,0.013523,0.002678,0.000431,0.179936
1569000,0.0324,0.013523,0.002678,0.000431,0.037374
1570000,0.0324,0.013523,0.002678,0.000431,0.189455
1571000,0.0324,0.013523,0.002678,0.000431,0.113180
1572000,0.0324,0.013523,0.002678,0.000431,0.382554
1573000,0.0324,0.013523,0.002678,0.000431,0.432386
1574000,0.0324,0.013523,0.002678,0.000431,0.142327
1575000,0.0324,0.013523,0.002678,0.000431,0.042428
1576000,0.0324,0.013523,0.002678,0.000431,0.064758
1577000,0.0324,0.013523,0.002678,0.000431,0.163247
1578000,0.0324,0.013523,0.002678,0.000431,0.233058
1579000,0.0324,0.013523,0.002678,0.000431,0.398068
1580000,0.0324,0.013523,0.002678,0.000431,0.091907
1581000,0.0324,0.013523,0.002678,0.000431,0.273723
1582000,0.0324,0.013523,0.002678,0.000431,0.044426
1583000,0.0324,0.013523,0.002678,0.000431,0.200503
1584000,0.0324,0.013523,0.002678,0.000431,0.263028
1585000,0.0324,0.013523,0.002678,0.000431,0.200033
1586000,0.0324,0.013523,0.002678,0.000431,0.105423
1587000,0.0324,0.013523,0.002678,0.000431,0.045483
1588000,0.0324,0.013523,0.002678,0.000431,0.035258
1589000,0.0324,0.013523,0.002678,0.000431,0.074043
1590000,0.0324,0.013523,0.002678,0.000431,0.297229
1591000,0.0324,0.013523,0.002678,0.000431,0.223656
1592000,0.0324,0.013523,0.002678,0.000431,0.362809
1593000,0.0324,0.013523,0.002678,0.000431,0.236937
1594000,0.0324,0.013523,0.002678,0.000431,0.082505
1595000,0.0324,0.013523,0.002678,0.000431,0.053828
1596000,0.0324,0.013523,0.002678,0.000431,0.319677
1597000,0.0324,0.013523,0.002678,0.000431,0.324378
1598000,0.0324,0.013523,0.002678,0.000431,0.245164
1599000,0.0324,0.013523,0.002678,0.000431,0.177350
1600000,0.0324,0.013523,0.002678,0.000431,0.136450
1601000,0.0324,0.013523,0.002678,0.000431,0.106128
1602000,0.0324,0.013523,0.002678,0.000431,0.102837
1603000,0.0324,0.013523,0.002678,0.000431,0.243518
1604000,0.0324,0.013523,0.002678,0.000431,0.198270
1605000,0.0324,0.013523,0.002678,0.000431,0.269845
1606000,0.0324,0.013523,0.002678,0.000431,0.180288
1607000,0.0324,0.013523,0.002678,0.000431,0.097313
1608000,0.0324,0.013523,0.002678,0.000431,0.143149
1609000,0.0324,0.013523,0.002678,0.000431,0.157958
1610000,0.0324,0.013523,0.002678,0.000431,0.158075
1611000,0.0324,0.013523,0.002678,0.000431,0.401476
1612000,0.0324,0.013523,0.002678,0.000431,0.416872
1613000,0.0324,0.013523,0.002678,0.000431,0.277367
1614000,0.0324,0.013523,0.002678,0.000431,0.076746
1615000,0.0324,0.013523,0.002678,0.000431,0.057706
1616000,0.0324,0.013523,0.002678,0.000431,0.168183
1617000,0.0324,0.013523,0.002678,0.000431,0.110006
1618000,0.0324,0.013523,0.002678,0.000431,0.322497
1619000,0.0324,0.013523,0.002678,0.000431,0.269022
1620000,0.0324,0.013523,0.002678,0.000431,0.164892
1621000,0.0324,0.013523,0.002678,0.000431,0.107068
1622000,0.0324,0.013523,0.002678,0.000431,0.174999
1623000,0.0324,0.013523,0.002678,0.000431,0.126695
1624000,0.0324,0.013523,0.002678,0.000431,0.088264
1625000,0.0324,0.013523,0.002678,0.000431,0.119174
1626000,0.0324,0.013523,0.002678,0.000431,0.394425
1627000,0.0324,0.013523,0.002678,0.000431,0.072985
1628000,0.0324,0.013523,0.002678,0.000431,0.168888
1629000,0.0324,0.013523,0.002678,0.000431,0.290060
1630000,0.0324,0.013523,0.002678,0.000431,0.101897
1631000,0.0324,0.013523,0.002678,0.000431,0.144325
1632000,0.0324,0.013523,0.002678,0.000431,0.211433
1633000,0.0324,0.013523,0.002678,0.000431,0.137273
1634000,0.0324,0.013523,0.002678,0.000431,0.048892
1635000,0.0324,0.013523,0.002678,0.000431,0.157253
1636000,0.0324,0.013523,0.002678,0.000431,0.230238
1637000,0.0324,0.013523,0.002678,0.000431,0.116588
1638000,0.0324,0.013523,0.002678,0.000431,0.213079
1639000,0.0324,0.013523,0.002678,0.000431,0.114002
1640000,0.0324,0.013523,0.002678,0.000431,0.095903
1641000,0.0324,0.013523,0.002678,0.000431,0.223539
1642000,0.0324,0.013523,0.002678,0.000431,0.164892
1643000,0.0324,0.013523,0.002678,0.000431,0.214489
1644000,0.0324,0.013523,0.002678,0.000431,0.187457
1645000,0.0324,0.013523,0.002678,0.000431,0.308747
1646000,0.0324,0.013523,0.002678,0.000431,0.327081
1647000,0.0324,0.013523,0.002678,0.000431,0.142209
1648000,0.0324,0.013523,0.002678,0.000431,0.320147
1649000,0.0324,0.013523,0.002678,0.000431,0.410526
1650000,0.0324,0.013523,0.002678,0.000431,0.306396
1651000,0.0324,0.013523,0.002678,0.000431,0.146323
1652000,0.0324,0.013523,0.002678,0.000431,0.146205
1653000,0.0324,0.013523,0.002678,0.000431,0.086971
1654000,0.0324,0.013523,0.002678,0.000431,0.113415
1655000,0.0324,0.013523,0.002678,0.000431,0.169006
1656000,0.0324,0.013523,0.002678,0.000431,0.194509
1657000,0.0324,0.013523,0.002678,0.000431,0.156312
1658000,0.0324,0.013523,0.002678,0.000431,0.310274
1659000,0.0324,0.013523,0.002678,0.000431,0.228710
1660000,0.0324,0.013523,0.002678,0.000431,0.191924
1661000,0.0324,0.013523,0.002678,0.000431,0.245634
1662000,0.0324,0.013523,0.002678,0.000431,0.172296
1663000,0.0324,0.013523,0.002678,0.000431,0.176292
1664000,0.0324,0.013523,0.002678,0.000431,0.151494
1665000,0.0324,0.013523,0.002678,0.000431,0.147850
1666000,0.0324,0.013523,0.002678,0.000431,0.110947
1667000,0.0324,0.013523,0.002678,0.000431,0.133159
1668000,0.0324,0.013523,0.002678,0.000431,0.073690
1669000,0.0324,0.013523,0.002678,0.000431,0.290647
1670000,0.0324,0.013523,0.002678,0.000431,0.257504
1671000,0.0324,0.013523,0.002678,0.000431,0.141857
1672000,0.0324,0.013523,0.002678,0.000431,0.147028
1673000,0.0324,0.013523,0.002678,0.000431,0.168535
1674000,0.0324,0.013523,0.002678,0.000431,0.243636
1675000,0.0324,0.013523,0.002678,0.000431,0.110829
1676000,0.0324,0.013523,0.002678,0.000431,0.197447
1677000,0.0324,0.013523,0.002678,0.000431,0.239170
1678000,0.0324,0.013523,0.002678,0.000431,0.150083
1679000,0.0324,0.013523,0.002678,0.000431,0.092847
1680000,0.0324,0.013523,0.002678,0.000431,0.153257
1681000,0.0324,0.013523,0.002678,0.000431,0.263851
1682000,0.0324,0.013523,0.002678,0.000431,0.295818
1683000,0.0324,0.013523,0.002678,0.000431,0.146088
1684000,0.0324,0.013523,0.002678,0.000431,0.106598
1685000,0.0324,0.013523,0.002678,0.000431,0.161954
1686000,0.0324,0.013523,0.002678,0.000431,0.154785
1687000,0.0324,0.013523,0.002678,0.000431,0.212726
1688000,0.0324,0.013523,0.002678,0.000431,0.088381
1689000,0.0324,0.013523,0.002678,0.000431,0.152199
1690000,0.0324,0.013523,0.002678,0.000431,0.170886
1691000,0.0324,0.013523,0.002678,0.000431,0.097313
1692000,0.0324,0.013523,0.002678,0.000431,0.116470
1693000,0.0324,0.013523,0.002678,0.000431,0.057471
1694000,0.0324,0.013523,0.002678,0.000431,0.126578
1695000,0.0324,0.013523,0.002678,0.000431,0.243048
1696000,0.0324,0.013523,0.002678,0.000431,0.456597
1697000,0.0324,0.013523,0.002678,0.000431,0.175705
1698000,0.0324,0.013523,0.002678,0.000431,0.195567
1699000,0.0324,0.013523,0.002678,0.000431,0.150083
1700000,0.0324,0.013523,0.002678,0.000431,0.106716
1701000,0.0324,0.013523,0.002678,0.000431,0.254213
1702000,0.0324,0.013523,0.002678,0.000431,0.177115
1703000,0.0324,0.013523,0.002678,0.000431,0.196272
1704000,0.0324,0.013523,0.002678,0.000431,0.106128
1705000,0.0324,0.013523,0.002678,0.000431,0.273606
1706000,0.0324,0.013523,0.002678,0.000431,0.139623
1707000,0.0324,0.013523,0.002678,0.000431,0.091554
1708000,0.0324,0.013523,0.002678,0.000431,0.091554
1709000,0.0324,0.013523,0.002678,0.000431,0.078744
1710000,0.0324,0.013523,0.002678,0.000431,0.199093
1711000,0.0324,0.013523,0.002678,0.000431,0.138918
1712000,0.0324,0.013523,0.002678,0.000431,0.114825
1713000,0.0324,0.013523,0.002678,0.000431,0.148203
1714000,0.0324,0.013523,0.002678,0.000431,0.087323
1715000,0.0324,0.013523,0.002678,0.000431,0.087911
1716000,0.0324,0.013523,0.002678,0.000431,0.225066
1717000,0.0324,0.013523,0.002678,0.000431,0.146440
1718000,0.0324,0.013523,0.002678,0.000431,0.066051
1719000,0.0324,0.013523,0.002678,0.000431,0.155255
1720000,0.0324,0.013523,0.002678,0.000431,0.109771
1721000,0.0324,0.013523,0.002678,0.000431,0.102955
1722000,0.0324,0.013523,0.002678,0.000431,0.157488
1723000,0.0324,0.013523,0.002678,0.000431,0.312272
1724000,0.0324,0.013523,0.002678,0.000431,0.195567
1725000,0.0324,0.013523,0.002678,0.000431,0.198035
1726000,0.0324,0.013523,0.002678,0.000431,0.246457
1727000,0.0324,0.013523,0.002678,0.000431,0.230943
1728000,0.0324,0.013523,0.002678,0.000431,0.078979
1729000,0.0324,0.013523,0.002678,0.000431,0.292410
1730000,0.0324,0.013523,0.002678,0.000431,0.126813
1731000,0.0324,0.013523,0.002678,0.000431,0.205792
1732000,0.0324,0.013523,0.002678,0.000431,0.204852
1733000,0.0324,0.013523,0.002678,0.000431,0.175705
1734000,0.0324,0.013523,0.002678,0.000431,0.314740
1735000,0.0324,0.013523,0.002678,0.000431,0.130339
1736000,0.0324,0.013523,0.002678,0.000431,0.176645
1737000,0.0324,0.013523,0.002678,0.000431,0.227652
1738000,0.0324,0.013523,0.002678,0.000431,0.151259
1739000,0.0324,0.013523,0.002678,0.000431,0.095198
1740000,0.0324,0.013523,0.002678,0.000431,0.086148
1741000,0.0324,0.013523,0.002678,0.000431,0.074630
1742000,0.0324,0.013523,0.002678,0.000431,0.176997
1743000,0.0324,0.013523,0.002678,0.000431,0.073690
1744000,0.0324,0.013523,0.002678,0.000431,0.208495
1745000,0.0324,0.013523,0.002678,0.000431,0.215664
1746000,0.0324,0.013523,0.002678,0.000431,0.124815
1747000,0.0324,0.013523,0.002678,0.000431,0.042780
1748000,0.0324,0.013523,0.002678,0.000431,0.314153
1749000,0.0324,0.013523,0.002678,0.000431,0.237995
1750000,0.0324,0.013523,0.002678,0.000431,0.251863
1751000,0.0324,0.013523,0.002678,0.000431,0.149378
1752000,0.0324,0.013523,0.002678,0.000431,0.251275
1753000,0.0324,0.013523,0.002678,0.000431,0.141621
1754000,0.0324,0.013523,0.002678,0.000431,0.049714
1755000,0.0324,0.013523,0.002678,0.000431,0.047481
1756000,0.0324,0.013523,0.002678,0.000431,0.073338
1757000,0.0324,0.013523,0.002678,0.000431,0.164539
1758000,0.0324,0.013523,0.002678,0.000431,0.205557
1759000,0.0324,0.013523,0.002678,0.000431,0.137626
1760000,0.0324,0.013523,0.002678,0.000431,0.116470
1761000,0.0324,0.013523,0.002678,0.000431,0.110947
1762000,0.0324,0.013523,0.002678,0.000431,0.121172
1763000,0.0324,0.013523,0.002678,0.000431,0.139506
1764000,0.0324,0.013523,0.002678,0.000431,0.148438
1765000,0.0324,0.013523,0.002678,0.000431,0.136568
1766000,0.0324,0.013523,0.002678,0.000431,0.173824
1767000,0.0324,0.013523,0.002678,0.000431,0.091790
1768000,0.0324,0.013523,0.002678,0.000431,0.179583
1769000,0.0324,0.013523,0.002678,0.000431,0.084620
1770000,0.0324,0.013523,0.002678,0.000431,0.099546
1771000,0.0324,0.013523,0.002678,0.000431,0.099899
1772000,0.0324,0.013523,0.002678,0.000431,0.061820
1773000,0.0324,0.013523,0.002678,0.000431,0.072985
1774000,0.0324,0.013523,0.002678,0.000431,0.163012
1775000,0.0324,0.013523,0.002678,0.000431,0.210963
1776000,0.0324,0.013523,0.002678,0.000431,0.084150
1777000,0.0324,0.013523,0.002678,0.000431,0.239522
1778000,0.0324,0.013523,0.002678,0.000431,0.158193
1779000,0.0324,0.013523,0.002678,0.000431,0.072750
1780000,0.0324,0.013523,0.002678,0.000431,0.105540
1781000,0.0324,0.013523,0.002678,0.000431,0.233764
1782000,0.0324,0.013523,0.002678,0.000431,0.150083
1783000,0.0324,0.013523,0.002678,0.000431,0.272195
1784000,0.0324,0.013523,0.002678,0.000431,0.173354
1785000,0.0324,0.013523,0.002678,0.000431,0.091554
1786000,0.0324,0.013523,0.002678,0.000431,0.123170
1787000,0.0324,0.013523,0.002678,0.000431,0.147028
1788000,0.0324,0.013523,0.002678,0.000431,0.128693
1789000,0.0324,0.013523,0.002678,0.000431,0.069459
1790000,0.0324,0.013523,0.002678,0.000431,0.325671
1791000,0.0324,0.013523,0.002678,0.000431,0.101779
1792000,0.0324,0.013523,0.002678,0.000431,0.063465
1793000,0.0324,0.013523,0.002678,0.000431,0.108361
1794000,0.0324,0.013523,0.002678,0.000431,0.123052
1795000,0.0324,0.013523,0.002678,0.000431,0.173237
1796000,0.0324,0.013523,0.002678,0.000431,0.310157
1797000,0.0324,0.013523,0.002678,0.000431,0.269727
1798000,0.0324,0.013523,0.002678,0.000431,0.186635
1799000,0.0324,0.013523,0.002678,0.000431,0.099076
1800000,0.0324,0.013523,0.002678,0.000431,0.091319
1801000,0.0324,0.013523,0.002678,0.000431,0.200268
1802000,0.0324,0.013523,0.002678,0.000431,0.057706
1803000,0.0324,0.013523,0.002678,0.000431,0.163952
1804000,0.0324,0.013523,0.002678,0.000431,0.188750
1805000,0.0324,0.013523,0.002678,0.000431,0.060645
1806000,0.0324,0.013523,0.002678,0.000431,0.140799
1807000,0.0324,0.013523,0.002678,0.000431,0.065346
1808000,0.0324,0.013523,0.002678,0.000431,0.061350
1809000,0.0324,0.013523,0.002678,0.000431,0.151846
1810000,0.0324,0.013523,0.002678,0.000431,0.243166
1811000,0.0324,0.013523,0.002678,0.000431,0.165597
1812000,0.0324,0.013523,0.002678,0.000431,0.160426
1813000,0.0324,0.013523,0.002678,0.000431,0.072045
1814000,0.0324,0.013523,0.002678,0.000431,0.097666
1815000,0.0324,0.013523,0.002678,0.000431,0.125403
1816000,0.0324,0.013523,0.002678,0.000431,0.292293
1817000,0.0324,0.013523,0.002678,0.000431,0.161601
1818000,0.0324,0.013523,0.002678,0.000431,0.044661
1819000,0.0324,0.013523,0.002678,0.000431,0.132337
1820000,0.0324,0.013523,0.002678,0.000431,0.086736
1821000,0.0324,0.013523,0.002678,0.000431,0.088146
1822000,0.0324,0.013523,0.002678,0.000431,0.310509
1823000,0.0324,0.013523,0.002678,0.000431,0.201561
1824000,0.0324,0.013523,0.002678,0.000431,0.088029
1825000,0.0324,0.013523,0.002678,0.000431,0.078274
1826000,0.0324,0.013523,0.002678,0.000431,0.053828
1827000,0.0324,0.013523,0.002678,0.000431,0.065111
1828000,0.0324,0.013523,0.002678,0.000431,0.197095
1829000,0.0324,0.013523,0.002678,0.000431,0.127636
1830000,0.0324,0.013523,0.002678,0.000431,0.196272
1831000,0.0324,0.013523,0.002678,0.000431,0.115648
1832000,0.0324,0.013523,0.002678,0.000431,0.156077
1833000,0.0324,0.013523,0.002678,0.000431,0.183461
1834000,0.0324,0.013523,0.002678,0.000431,0.116941
1835000,0.0324,0.013523,0.002678,0.000431,0.165245
1836000,0.0324,0.013523,0.002678,0.000431,0.120819
1837000,0.0324,0.013523,0.002678,0.000431,0.157253
1838000,0.0324,0.013523,0.002678,0.000431,0.233764
1839000,0.0324,0.013523,0.002678,0.000431,0.064758
1840000,0.0324,0.013523,0.002678,0.000431,0.072750
1841000,0.0324,0.013523,0.002678,0.000431,0.147850
1842000,0.0324,0.013523,0.002678,0.000431,0.102837
1843000,0.0324,0.013523,0.002678,0.000431,0.102485
1844000,0.0324,0.013523,0.002678,0.000431,0.172061
1845000,0.0324,0.013523,0.002678,0.000431,0.178995
1846000,0.0324,0.013523,0.002678,0.000431,0.144795
1847000,0.0324,0.013523,0.002678,0.000431,0.159133
1848000,0.0324,0.013523,0.002678,0.000431,0.114708
1849000,0.0324,0.013523,0.002678,0.000431,0.060880
1850000,0.0324,0.013523,0.002678,0.000431,0.163012
1851000,0.0324,0.013523,0.002678,0.000431,0.239170
1852000,0.0324,0.013523,0.002678,0.000431,0.139506
1853000,0.0324,0.013523,0.002678,0.000431,0.133159
1854000,0.0324,0.013523,0.002678,0.000431,0.113297
1855000,0.0324,0.013523,0.002678,0.000431,0.141269
1856000,0.0324,0.013523,0.002678,0.000431,0.125520
1857000,0.0324,0.013523,0.002678,0.000431,0.128223
1858000,0.0324,0.013523,0.002678,0.000431,0.168065
1859000,0.0324,0.013523,0.002678,0.000431,0.125285
1860000,0.0324,0.013523,0.002678,0.000431,0.193334
1861000,0.0324,0.013523,0.002678,0.000431,0.288884
1862000,0.0324,0.013523,0.002678,0.000431,0.116353
1863000,0.0324,0.013523,0.002678,0.000431,0.108008
1864000,0.0324,0.013523,0.002678,0.000431,0.101074
1865000,0.0324,0.013523,0.002678,0.000431,0.095433
1866000,0.0324,0.013523,0.002678,0.000431,0.151964
1867000,0.0324,0.013523,0.002678,0.000431,0.080977
1868000,0.0324,0.013523,0.002678,0.000431,0.203324
1869000,0.0324,0.013523,0.002678,0.000431,0.095315
1870000,0.0324,0.013523,0.002678,0.000431,0.192511
1871000,0.0324,0.013523,0.002678,0.000431,0.053593
1872000,0.0324,0.013523,0.002678,0.000431,0.072867
1873000,0.0324,0.013523,0.002678,0.000431,0.121289
1874000,0.0324,0.013523,0.002678,0.000431,0.117881
1875000,0.0324,0.013523,0.002678,0.000431,0.098959
1876000,0.0324,0.013523,0.002678,0.000431,0.061467
1877000,0.0324,0.013523,0.002678,0.000431,0.082622
1878000,0.0324,0.013523,0.002678,0.000431,0.186870
1879000,0.0324,0.013523,0.002678,0.000431,0.091319
1880000,0.0324,0.013523,0.002678,0.000431,0.080507
1881000,0.0324,0.013523,0.002678,0.000431,0.189808
1882000,0.0324,0.013523,0.002678,0.000431,0.105423
1883000,0.0324,0.013523,0.002678,0.000431,0.095903
1884000,0.0324,0.013523,0.002678,0.000431,0.169946
1885000,0.0324,0.013523,0.002678,0.000431,0.086501
1886000,0.0324,0.013523,0.002678,0.000431,0.148908
1887000,0.0324,0.013523,0.002678,0.000431,0.174999
1888000,0.0324,0.013523,0.002678,0.000431,0.144090
1889000,0.0324,0.013523,0.002678,0.000431,0.154197
1890000,0.0324,0.013523,0.002678,0.000431,0.149143
1891000,0.0324,0.013523,0.002678,0.000431,0.106716
1892000,0.0324,0.013523,0.002678,0.000431,0.136568
1893000,0.0324,0.013523,0.002678,0.000431,0.140916
1894000,0.0324,0.013523,0.002678,0.000431,0.140681
1895000,0.0324,0.013523,0.002678,0.000431,0.105775
1896000,0.0324,0.013523,0.002678,0.000431,0.152552
1897000,0.0324,0.013523,0.002678,0.000431,0.103190
1898000,0.0324,0.013523,0.002678,0.000431,0.082857
1899000,0.0324,0.013523,0.002678,0.000431,0.167713
1900000,0.0324,0.013523,0.002678,0.000431,0.095433
1901000,0.0324,0.013523,0.002678,0.000431,0.151846
1902000,0.0324,0.013523,0.002678,0.000431,0.064405
1903000,0.0324,0.013523,0.002678,0.000431,0.076863
1904000,0.0324,0.013523,0.002678,0.000431,0.046659
1905000,0.0324,0.013523,0.002678,0.000431,0.106245
1906000,0.0324,0.013523,0.002678,0.000431,0.141739
1907000,0.0324,0.013523,0.002678,0.000431,0.109419
1908000,0.0324,0.013523,0.002678,0.000431,0.155490
1909000,0.0324,0.013523,0.002678,0.000431,0.103307
1910000,0.0324,0.013523,0.002678,0.000431,0.080389
1911000,0.0324,0.013523,0.002678,0.000431,0.064876
1912000,0.0324,0.013523,0.002678,0.000431,0.058294
1913000,0.0324,0.013523,0.002678,0.000431,0.112239
1914000,0.0324,0.013523,0.002678,0.000431,0.093670
1915000,0.0324,0.013523,0.002678,0.000431,0.106598
1916000,0.0324,0.013523,0.002678,0.000431,0.080272
1917000,0.0324,0.013523,0.002678,0.000431,0.046541
1918000,0.0324,0.013523,0.002678,0.000431,0.102132
1919000,0.0324,0.013523,0.002678,0.000431,0.136920
1920000,0.0324,0.013523,0.002678,0.000431,0.166537
1921000,0.0324,0.013523,0.002678,0.000431,0.188633
1922000,0.0324,0.013523,0.002678,0.000431,0.096491
1923000,0.0324,0.013523,0.002678,0.000431,0.060292
1924000,0.0324,0.013523,0.002678,0.000431,0.137273
1925000,0.0324,0.013523,0.002678,0.000431,0.181228
1926000,0.0324,0.013523,0.002678,0.000431,0.125520
1927000,0.0324,0.013523,0.002678,0.000431,0.110476
1928000,0.0324,0.013523,0.002678,0.000431,0.163012
1929000,0.0324,0.013523,0.002678,0.000431,0.082505
1930000,0.0324,0.013523,0.002678,0.000431,0.159016
1931000,0.0324,0.013523,0.002678,0.000431,0.260795
1932000,0.0324,0.013523,0.002678,0.000431,0.082387
1933000,0.0324,0.013523,0.002678,0.000431,0.114237
1934000,0.0324,0.013523,0.002678,0.000431,0.114237
1935000,0.0324,0.013523,0.002678,0.000431,0.140446
1936000,0.0324,0.013523,0.002678,0.000431,0.065228
1937000,0.0324,0.013523,0.002678,0.000431,0.056884
1938000,0.0324,0.013523,0.002678,0.000431,0.188985
1939000,0.0324,0.013523,0.002678,0.000431,0.100957
1940000,0.0324,0.013523,0.002678,0.000431,0.110712
1941000,0.0324,0.013523,0.002678,0.000431,0.201091
1942000,0.0324,0.013523,0.002678,0.000431,0.169358
1943000,0.0324,0.013523,0.002678,0.000431,0.054651
1944000,0.0324,0.013523,0.002678,0.000431,0.127518
1945000,0.0324,0.013523,0.002678,0.000431,0.227182
1946000,0.0324,0.013523,0.002678,0.000431,0.061820
1947000,0.0324,0.013523,0.002678,0.000431,0.131632
1948000,0.0324,0.013523,0.002678,0.000431,0.344123
1949000,0.0324,0.013523,0.002678,0.000431,0.057824
1950000,0.0324,0.013523,0.002678,0.000431,0.057824
1951000,0.0324,0.013523,0.002678,0.000431,0.068636
1952000,0.0324,0.013523,0.002678,0.000431,0.122229
1953000,0.0324,0.013523,0.002678,0.000431,0.133159
1954000,0.0324,0.013523,0.002678,0.000431,0.058176
1955000,0.0324,0.013523,0.002678,0.000431,0.072985
1956000,0.0324,0.013523,0.002678,0.000431,0.035964
1957000,0.0324,0.013523,0.002678,0.000431,0.098136
1958000,0.0324,0.013523,0.002678,0.000431,0.147850
1959000,0.0324,0.013523,0.002678,0.000431,0.073808
1960000,0.0324,0.013523,0.002678,0.000431,0.261853
1961000,0.0324,0.013523,0.002678,0.000431,0.158310
1962000,0.0324,0.013523,0.002678,0.000431,0.041017
1963000,0.0324,0.013523,0.002678,0.000431,0.065228
1964000,0.0324,0.013523,0.002678,0.000431,0.099781
1965000,0.0324,0.013523,0.002678,0.000431,0.104600
1966000,0.0324,0.013523,0.002678,0.000431,0.116353
1967000,0.0324,0.013523,0.002678,0.000431,0.104835
1968000,0.0324,0.013523,0.002678,0.000431,0.061467
1969000,0.0324,0.013523,0.002678,0.000431,0.039019
1970000,0.0324,0.013523,0.002678,0.000431,0.051477
1971000,0.0324,0.013523,0.002678,0.000431,0.124462
1972000,0.0324,0.013523,0.002678,0.000431,0.147850
1973000,0.0324,0.013523,0.002678,0.000431,0.124462
1974000,0.0324,0.013523,0.002678,0.000431,0.104012
1975000,0.0324,0.013523,0.002678,0.000431,0.057589
1976000,0.0324,0.013523,0.002678,0.000431,0.054063
1977000,0.0324,0.013523,0.002678,0.000431,0.141269
1978000,0.0324,0.013523,0.002678,0.000431,0.083210
1979000,0.0324,0.013523,0.002678,0.000431,0.125403
1980000,0.0324,0.013523,0.002678,0.000431,0.176762
1981000,0.0324,0.013523,0.002678,0.000431,0.088969
1982000,0.0324,0.013523,0.002678,0.000431,0.034671
1983000,0.0324,0.013523,0.002678,0.000431,0.079802
1984000,0.0324,0.013523,0.002678,0.000431,0.261735
1985000,0.0324,0.013523,0.002678,0.000431,0.181464
1986000,0.0324,0.013523,0.002678,0.000431,0.173472
1987000,0.0324,0.013523,0.002678,0.000431,0.127636
1988000,0.0324,0.013523,0.002678,0.000431,0.115530
1989000,0.0324,0.013523,0.002678,0.000431,0.042780
1990000,0.0324,0.013523,0.002678,0.000431,0.200738
1991000,0.0324,0.013523,0.002678,0.000431,0.061585
1992000,0.0324,0.013523,0.002678,0.000431,0.144560
1993000,0.0324,0.013523,0.002678,0.000431,0.098136
1994000,0.0324,0.013523,0.002678,0.000431,0.120819
1995000,0.0324,0.013523,0.002678,0.000431,0.052065
1996000,0.0324,0.013523,0.002678,0.000431,0.103190
1997000,0.0324,0.013523,0.002678,0.000431,0.277367
1998000,0.0324,0.013523,0.002678,0.000431,0.175117
1999000,0.0324,0.013523,0.002678,0.000431,0.122699
