Cycle,Area(mm^2),PeakDynamic(W),SubthresholdLeakage(W),GateLeakage(W),RunTimeDynamic(W)
6000000,0.0324,0.013523,0.002678,0.000431,0.407940
6001000,0.0324,0.013523,0.002678,0.000431,0.080154
6002000,0.0324,0.013523,0.002678,0.000431,0.172179
6003000,0.0324,0.013523,0.002678,0.000431,0.390781
6004000,0.0324,0.013523,0.002678,0.000431,0.234821
6005000,0.0324,0.013523,0.002678,0.000431,0.085208
6006000,0.0324,0.013523,0.002678,0.000431,0.073925
6007000,0.0324,0.013523,0.002678,0.000431,0.168418
6008000,0.0324,0.013523,0.002678,0.000431,0.126930
6009000,0.0324,0.013523,0.002678,0.000431,0.248455
6010000,0.0324,0.013523,0.002678,0.000431,0.090497
6011000,0.0324,0.013523,0.002678,0.000431,0.083680
6012000,0.0324,0.013523,0.002678,0.000431,0.071927
6013000,0.0324,0.013523,0.002678,0.000431,0.085561
6014000,0.0324,0.013523,0.002678,0.000431,0.069107
6015000,0.0324,0.013523,0.002678,0.000431,0.105305
6016000,0.0324,0.013523,0.002678,0.000431,0.108126
6017000,0.0324,0.013523,0.002678,0.000431,0.161131
6018000,0.0324,0.013523,0.002678,0.000431,0.146205
6019000,0.0324,0.013523,0.002678,0.000431,0.196860
6020000,0.0324,0.013523,0.002678,0.000431,0.087911
6021000,0.0324,0.013523,0.002678,0.000431,0.208730
6022000,0.0324,0.013523,0.002678,0.000431,0.198740
6023000,0.0324,0.013523,0.002678,0.000431,0.066874
6024000,0.0324,0.013523,0.002678,0.000431,0.169711
6025000,0.0324,0.013523,0.002678,0.000431,0.137743
6026000,0.0324,0.013523,0.002678,0.000431,0.073103
6027000,0.0324,0.013523,0.002678,0.000431,0.098489
6028000,0.0324,0.013523,0.002678,0.000431,0.072162
6029000,0.0324,0.013523,0.002678,0.000431,0.174177
6030000,0.0324,0.013523,0.002678,0.000431,0.050067
6031000,0.0324,0.013523,0.002678,0.000431,0.042310
6032000,0.0324,0.013523,0.002678,0.000431,0.188515
6033000,0.0324,0.013523,0.002678,0.000431,0.208848
6034000,0.0324,0.013523,0.002678,0.000431,0.288297
6035000,0.0324,0.013523,0.002678,0.000431,0.180406
6036000,0.0324,0.013523,0.002678,0.000431,0.070869
6037000,0.0324,0.013523,0.002678,0.000431,0.176645
6038000,0.0324,0.013523,0.002678,0.000431,0.155725
6039000,0.0324,0.013523,0.002678,0.000431,0.065228
6040000,0.0324,0.013523,0.002678,0.000431,0.151494
6041000,0.0324,0.013523,0.002678,0.000431,0.072867
6042000,0.0324,0.013523,0.002678,0.000431,0.128223
6043000,0.0324,0.013523,0.002678,0.000431,0.062407
6044000,0.0324,0.013523,0.002678,0.000431,0.098136
6045000,0.0324,0.013523,0.002678,0.000431,0.118703
6046000,0.0324,0.013523,0.002678,0.000431,0.055473
6047000,0.0324,0.013523,0.002678,0.000431,0.228827
6048000,0.0324,0.013523,0.002678,0.000431,0.132337
6049000,0.0324,0.013523,0.002678,0.000431,0.169828
6050000,0.0324,0.013523,0.002678,0.000431,0.038902
6051000,0.0324,0.013523,0.002678,0.000431,0.143149
6052000,0.0324,0.013523,0.002678,0.000431,0.287121
6053000,0.0324,0.013523,0.002678,0.000431,0.057471
6054000,0.0324,0.013523,0.002678,0.000431,0.106598
6055000,0.0324,0.013523,0.002678,0.000431,0.125403
6056000,0.0324,0.013523,0.002678,0.000431,0.147850
6057000,0.0324,0.013523,0.002678,0.000431,0.048892
6058000,0.0324,0.013523,0.002678,0.000431,0.167008
6059000,0.0324,0.013523,0.002678,0.000431,0.159133
6060000,0.0324,0.013523,0.002678,0.000431,0.124932
6061000,0.0324,0.013523,0.002678,0.000431,0.215429
6062000,0.0324,0.013523,0.002678,0.000431,0.105893
6063000,0.0324,0.013523,0.002678,0.000431,0.065111
6064000,0.0324,0.013523,0.002678,0.000431,0.066874
6065000,0.0324,0.013523,0.002678,0.000431,0.093552
6066000,0.0324,0.013523,0.002678,0.000431,0.254684
6067000,0.0324,0.013523,0.002678,0.000431,0.197682
6068000,0.0324,0.013523,0.002678,0.000431,0.240228
6069000,0.0324,0.013523,0.002678,0.000431,0.220248
6070000,0.0324,0.013523,0.002678,0.000431,0.042428
6071000,0.0324,0.013523,0.002678,0.000431,0.061467
6072000,0.0324,0.013523,0.002678,0.000431,0.175705
6073000,0.0324,0.013523,0.002678,0.000431,0.117763
6074000,0.0324,0.013523,0.002678,0.000431,0.139741
6075000,0.0324,0.013523,0.002678,0.000431,0.153609
6076000,0.0324,0.013523,0.002678,0.000431,0.272548
6077000,0.0324,0.013523,0.002678,0.000431,0.098489
6078000,0.0324,0.013523,0.002678,0.000431,0.080859
6079000,0.0324,0.013523,0.002678,0.000431,0.202148
6080000,0.0324,0.013523,0.002678,0.000431,0.366923
6081000,0.0324,0.013523,0.002678,0.000431,0.179230
6082000,0.0324,0.013523,0.002678,0.000431,0.303105
6083000,0.0324,0.013523,0.002678,0.000431,0.269022
6084000,0.0324,0.013523,0.002678,0.000431,0.285241
6085000,0.0324,0.013523,0.002678,0.000431,0.363397
6086000,0.0324,0.013523,0.002678,0.000431,0.316621
6087000,0.0324,0.013523,0.002678,0.000431,0.136333
6088000,0.0324,0.013523,0.002678,0.000431,0.050185
6089000,0.0324,0.013523,0.002678,0.000431,0.164657
6090000,0.0324,0.013523,0.002678,0.000431,0.285829
6091000,0.0324,0.013523,0.002678,0.000431,0.105893
6092000,0.0324,0.013523,0.002678,0.000431,0.152552
6093000,0.0324,0.013523,0.002678,0.000431,0.236702
6094000,0.0324,0.013523,0.002678,0.000431,0.061467
6095000,0.0324,0.013523,0.002678,0.000431,0.053828
6096000,0.0324,0.013523,0.002678,0.000431,0.098959
6097000,0.0324,0.013523,0.002678,0.000431,0.236467
6098000,0.0324,0.013523,0.002678,0.000431,0.400536
6099000,0.0324,0.013523,0.002678,0.000431,0.133630
6100000,0.0324,0.013523,0.002678,0.000431,0.186047
6101000,0.0324,0.013523,0.002678,0.000431,0.046776
6102000,0.0324,0.013523,0.002678,0.000431,0.053945
6103000,0.0324,0.013523,0.002678,0.000431,0.118586
6104000,0.0324,0.013523,0.002678,0.000431,0.060997
6105000,0.0324,0.013523,0.002678,0.000431,0.185342
6106000,0.0324,0.013523,0.002678,0.000431,0.285829
6107000,0.0324,0.013523,0.002678,0.000431,0.367746
6108000,0.0324,0.013523,0.002678,0.000431,0.109771
6109000,0.0324,0.013523,0.002678,0.000431,0.061467
6110000,0.0324,0.013523,0.002678,0.000431,0.198623
6111000,0.0324,0.013523,0.002678,0.000431,0.094258
6112000,0.0324,0.013523,0.002678,0.000431,0.078626
6113000,0.0324,0.013523,0.002678,0.000431,0.156783
6114000,0.0324,0.013523,0.002678,0.000431,0.274311
6115000,0.0324,0.013523,0.002678,0.000431,0.316503
6116000,0.0324,0.013523,0.002678,0.000431,0.163364
6117000,0.0324,0.013523,0.002678,0.000431,0.108361
6118000,0.0324,0.013523,0.002678,0.000431,0.112004
6119000,0.0324,0.013523,0.002678,0.000431,0.132807
6120000,0.0324,0.013523,0.002678,0.000431,0.074748
6121000,0.0324,0.013523,0.002678,0.000431,0.111769
6122000,0.0324,0.013523,0.002678,0.000431,0.251510
6123000,0.0324,0.013523,0.002678,0.000431,0.189455
6124000,0.0324,0.013523,0.002678,0.000431,0.088029
6125000,0.0324,0.013523,0.002678,0.000431,0.102367
6126000,0.0324,0.013523,0.002678,0.000431,0.101662
6127000,0.0324,0.013523,0.002678,0.000431,0.209435
6128000,0.0324,0.013523,0.002678,0.000431,0.131984
6129000,0.0324,0.013523,0.002678,0.000431,0.110124
6130000,0.0324,0.013523,0.002678,0.000431,0.125168
6131000,0.0324,0.013523,0.002678,0.000431,0.099664
6132000,0.0324,0.013523,0.002678,0.000431,0.079684
6133000,0.0324,0.013523,0.002678,0.000431,0.068989
6134000,0.0324,0.013523,0.002678,0.000431,0.065933
6135000,0.0324,0.013523,0.002678,0.000431,0.094375
6136000,0.0324,0.013523,0.002678,0.000431,0.117998
6137000,0.0324,0.013523,0.002678,0.000431,0.050302
6138000,0.0324,0.013523,0.002678,0.000431,0.188398
6139000,0.0324,0.013523,0.002678,0.000431,0.230355
6140000,0.0324,0.013523,0.002678,0.000431,0.270315
6141000,0.0324,0.013523,0.002678,0.000431,0.158663
6142000,0.0324,0.013523,0.002678,0.000431,0.166420
6143000,0.0324,0.013523,0.002678,0.000431,0.197682
6144000,0.0324,0.013523,0.002678,0.000431,0.103895
6145000,0.0324,0.013523,0.002678,0.000431,0.157253
6146000,0.0324,0.013523,0.002678,0.000431,0.192746
6147000,0.0324,0.013523,0.002678,0.000431,0.129516
6148000,0.0324,0.013523,0.002678,0.000431,0.120231
6149000,0.0324,0.013523,0.002678,0.000431,0.216369
6150000,0.0324,0.013523,0.002678,0.000431,0.140329
6151000,0.0324,0.013523,0.002678,0.000431,0.101074
6152000,0.0324,0.013523,0.002678,0.000431,0.205674
6153000,0.0324,0.013523,0.002678,0.000431,0.186400
6154000,0.0324,0.013523,0.002678,0.000431,0.075688
6155000,0.0324,0.013523,0.002678,0.000431,0.133277
6156000,0.0324,0.013523,0.002678,0.000431,0.086148
6157000,0.0324,0.013523,0.002678,0.000431,0.066638
6158000,0.0324,0.013523,0.002678,0.000431,0.075923
6159000,0.0324,0.013523,0.002678,0.000431,0.093082
6160000,0.0324,0.013523,0.002678,0.000431,0.198740
6161000,0.0324,0.013523,0.002678,0.000431,0.145617
6162000,0.0324,0.013523,0.002678,0.000431,0.271725
6163000,0.0324,0.013523,0.002678,0.000431,0.137743
6164000,0.0324,0.013523,0.002678,0.000431,0.251980
6165000,0.0324,0.013523,0.002678,0.000431,0.239405
6166000,0.0324,0.013523,0.002678,0.000431,0.065228
6167000,0.0324,0.013523,0.002678,0.000431,0.042663
6168000,0.0324,0.013523,0.002678,0.000431,0.083915
6169000,0.0324,0.013523,0.002678,0.000431,0.099076
6170000,0.0324,0.013523,0.002678,0.000431,0.228827
6171000,0.0324,0.013523,0.002678,0.000431,0.075101
6172000,0.0324,0.013523,0.002678,0.000431,0.192629
6173000,0.0324,0.013523,0.002678,0.000431,0.239052
6174000,0.0324,0.013523,0.002678,0.000431,0.087911
6175000,0.0324,0.013523,0.002678,0.000431,0.152199
6176000,0.0324,0.013523,0.002678,0.000431,0.094963
6177000,0.0324,0.013523,0.002678,0.000431,0.190396
6178000,0.0324,0.013523,0.002678,0.000431,0.052065
6179000,0.0324,0.013523,0.002678,0.000431,0.174529
6180000,0.0324,0.013523,0.002678,0.000431,0.069107
6181000,0.0324,0.013523,0.002678,0.000431,0.194274
6182000,0.0324,0.013523,0.002678,0.000431,0.343887
6183000,0.0324,0.013523,0.002678,0.000431,0.126578
6184000,0.0324,0.013523,0.002678,0.000431,0.170416
6185000,0.0324,0.013523,0.002678,0.000431,0.098606
6186000,0.0324,0.013523,0.002678,0.000431,0.095198
6187000,0.0324,0.013523,0.002678,0.000431,0.050420
6188000,0.0324,0.013523,0.002678,0.000431,0.323203
6189000,0.0324,0.013523,0.002678,0.000431,0.358108
6190000,0.0324,0.013523,0.002678,0.000431,0.284066
6191000,0.0324,0.013523,0.002678,0.000431,0.054063
6192000,0.0324,0.013523,0.002678,0.000431,0.147850
6193000,0.0324,0.013523,0.002678,0.000431,0.241520
6194000,0.0324,0.013523,0.002678,0.000431,0.077216
6195000,0.0324,0.013523,0.002678,0.000431,0.355875
6196000,0.0324,0.013523,0.002678,0.000431,0.221541
6197000,0.0324,0.013523,0.002678,0.000431,0.240580
6198000,0.0324,0.013523,0.002678,0.000431,0.263263
6199000,0.0324,0.013523,0.002678,0.000431,0.123992
6200000,0.0324,0.013523,0.002678,0.000431,0.153609
6201000,0.0324,0.013523,0.002678,0.000431,0.169358
6202000,0.0324,0.013523,0.002678,0.000431,0.330607
6203000,0.0324,0.013523,0.002678,0.000431,0.093317
6204000,0.0324,0.013523,0.002678,0.000431,0.205439
6205000,0.0324,0.013523,0.002678,0.000431,0.188045
6206000,0.0324,0.013523,0.002678,0.000431,0.214724
6207000,0.0324,0.013523,0.002678,0.000431,0.061467
6208000,0.0324,0.013523,0.002678,0.000431,0.151846
6209000,0.0324,0.013523,0.002678,0.000431,0.072280
6210000,0.0324,0.013523,0.002678,0.000431,0.073220
6211000,0.0324,0.013523,0.002678,0.000431,0.159956
6212000,0.0324,0.013523,0.002678,0.000431,0.179466
6213000,0.0324,0.013523,0.002678,0.000431,0.157958
6214000,0.0324,0.013523,0.002678,0.000431,0.164069
6215000,0.0324,0.013523,0.002678,0.000431,0.245751
6216000,0.0324,0.013523,0.002678,0.000431,0.056884
6217000,0.0324,0.013523,0.002678,0.000431,0.105188
6218000,0.0324,0.013523,0.002678,0.000431,0.115295
6219000,0.0324,0.013523,0.002678,0.000431,0.133630
6220000,0.0324,0.013523,0.002678,0.000431,0.181581
6221000,0.0324,0.013523,0.002678,0.000431,0.368921
6222000,0.0324,0.013523,0.002678,0.000431,0.181464
6223000,0.0324,0.013523,0.002678,0.000431,0.035258
6224000,0.0324,0.013523,0.002678,0.000431,0.087911
6225000,0.0324,0.013523,0.002678,0.000431,0.159956
6226000,0.0324,0.013523,0.002678,0.000431,0.176880
6227000,0.0324,0.013523,0.002678,0.000431,0.061585
6228000,0.0324,0.013523,0.002678,0.000431,0.175117
6229000,0.0324,0.013523,0.002678,0.000431,0.120231
6230000,0.0324,0.013523,0.002678,0.000431,0.057706
6231000,0.0324,0.013523,0.002678,0.000431,0.057824
6232000,0.0324,0.013523,0.002678,0.000431,0.122699
6233000,0.0324,0.013523,0.002678,0.000431,0.142444
6234000,0.0324,0.013523,0.002678,0.000431,0.088734
6235000,0.0324,0.013523,0.002678,0.000431,0.230003
6236000,0.0324,0.013523,0.002678,0.000431,0.195097
6237000,0.0324,0.013523,0.002678,0.000431,0.080154
6238000,0.0324,0.013523,0.002678,0.000431,0.211551
6239000,0.0324,0.013523,0.002678,0.000431,0.204146
6240000,0.0324,0.013523,0.002678,0.000431,0.055473
6241000,0.0324,0.013523,0.002678,0.000431,0.056766
6242000,0.0324,0.013523,0.002678,0.000431,0.042780
6243000,0.0324,0.013523,0.002678,0.000431,0.087088
6244000,0.0324,0.013523,0.002678,0.000431,0.174059
6245000,0.0324,0.013523,0.002678,0.000431,0.173942
6246000,0.0324,0.013523,0.002678,0.000431,0.072632
6247000,0.0324,0.013523,0.002678,0.000431,0.065111
6248000,0.0324,0.013523,0.002678,0.000431,0.210963
6249000,0.0324,0.013523,0.002678,0.000431,0.060762
6250000,0.0324,0.013523,0.002678,0.000431,0.129163
6251000,0.0324,0.013523,0.002678,0.000431,0.111182
6252000,0.0324,0.013523,0.002678,0.000431,0.197565
6253000,0.0324,0.013523,0.002678,0.000431,0.192511
6254000,0.0324,0.013523,0.002678,0.000431,0.046776
6255000,0.0324,0.013523,0.002678,0.000431,0.072515
6256000,0.0324,0.013523,0.002678,0.000431,0.072985
6257000,0.0324,0.013523,0.002678,0.000431,0.053593
6258000,0.0324,0.013523,0.002678,0.000431,0.244459
6259000,0.0324,0.013523,0.002678,0.000431,0.110476
6260000,0.0324,0.013523,0.002678,0.000431,0.238112
6261000,0.0324,0.013523,0.002678,0.000431,0.083680
6262000,0.0324,0.013523,0.002678,0.000431,0.072867
6263000,0.0324,0.013523,0.002678,0.000431,0.085090
6264000,0.0324,0.013523,0.002678,0.000431,0.128341
6265000,0.0324,0.013523,0.002678,0.000431,0.057824
6266000,0.0324,0.013523,0.002678,0.000431,0.081212
6267000,0.0324,0.013523,0.002678,0.000431,0.103190
6268000,0.0324,0.013523,0.002678,0.000431,0.070164
6269000,0.0324,0.013523,0.002678,0.000431,0.098254
6270000,0.0324,0.013523,0.002678,0.000431,0.098136
6271000,0.0324,0.013523,0.002678,0.000431,0.175235
6272000,0.0324,0.013523,0.002678,0.000431,0.112710
6273000,0.0324,0.013523,0.002678,0.000431,0.091554
6274000,0.0324,0.013523,0.002678,0.000431,0.117646
6275000,0.0324,0.013523,0.002678,0.000431,0.057471
6276000,0.0324,0.013523,0.002678,0.000431,0.043015
6277000,0.0324,0.013523,0.002678,0.000431,0.183461
6278000,0.0324,0.013523,0.002678,0.000431,0.096843
6279000,0.0324,0.013523,0.002678,0.000431,0.070047
6280000,0.0324,0.013523,0.002678,0.000431,0.135040
6281000,0.0324,0.013523,0.002678,0.000431,0.053475
6282000,0.0324,0.013523,0.002678,0.000431,0.145147
6283000,0.0324,0.013523,0.002678,0.000431,0.119761
6284000,0.0324,0.013523,0.002678,0.000431,0.183461
6285000,0.0324,0.013523,0.002678,0.000431,0.072632
6286000,0.0324,0.013523,0.002678,0.000431,0.122347
6287000,0.0324,0.013523,0.002678,0.000431,0.206615
6288000,0.0324,0.013523,0.002678,0.000431,0.102367
6289000,0.0324,0.013523,0.002678,0.000431,0.136098
6290000,0.0324,0.013523,0.002678,0.000431,0.065346
6291000,0.0324,0.013523,0.002678,0.000431,0.170181
6292000,0.0324,0.013523,0.002678,0.000431,0.070987
6293000,0.0324,0.013523,0.002678,0.000431,0.231883
6294000,0.0324,0.013523,0.002678,0.000431,0.068401
6295000,0.0324,0.013523,0.002678,0.000431,0.068754
6296000,0.0324,0.013523,0.002678,0.000431,0.192746
6297000,0.0324,0.013523,0.002678,0.000431,0.050302
6298000,0.0324,0.013523,0.002678,0.000431,0.068872
6299000,0.0324,0.013523,0.002678,0.000431,0.105305
6300000,0.0324,0.013523,0.002678,0.000431,0.077921
6301000,0.0324,0.013523,0.002678,0.000431,0.103072
6302000,0.0324,0.013523,0.002678,0.000431,0.089204
6303000,0.0324,0.013523,0.002678,0.000431,0.209788
6304000,0.0324,0.013523,0.002678,0.000431,0.126813
6305000,0.0324,0.013523,0.002678,0.000431,0.049479
6306000,0.0324,0.013523,0.002678,0.000431,0.163952
6307000,0.0324,0.013523,0.002678,0.000431,0.094258
6308000,0.0324,0.013523,0.002678,0.000431,0.060527
6309000,0.0324,0.013523,0.002678,0.000431,0.208495
6310000,0.0324,0.013523,0.002678,0.000431,0.194509
6311000,0.0324,0.013523,0.002678,0.000431,0.193216
6312000,0.0324,0.013523,0.002678,0.000431,0.117176
6313000,0.0324,0.013523,0.002678,0.000431,0.128106
6314000,0.0324,0.013523,0.002678,0.000431,0.054533
6315000,0.0324,0.013523,0.002678,0.000431,0.128811
6316000,0.0324,0.013523,0.002678,0.000431,0.057236
6317000,0.0324,0.013523,0.002678,0.000431,0.088381
6318000,0.0324,0.013523,0.002678,0.000431,0.080154
6319000,0.0324,0.013523,0.002678,0.000431,0.067814
6320000,0.0324,0.013523,0.002678,0.000431,0.081917
6321000,0.0324,0.013523,0.002678,0.000431,0.117881
6322000,0.0324,0.013523,0.002678,0.000431,0.076393
6323000,0.0324,0.013523,0.002678,0.000431,0.082152
6324000,0.0324,0.013523,0.002678,0.000431,0.061820
6325000,0.0324,0.013523,0.002678,0.000431,0.104718
6326000,0.0324,0.013523,0.002678,0.000431,0.146205
6327000,0.0324,0.013523,0.002678,0.000431,0.197447
6328000,0.0324,0.013523,0.002678,0.000431,0.096138
6329000,0.0324,0.013523,0.002678,0.000431,0.128106
6330000,0.0324,0.013523,0.002678,0.000431,0.035141
6331000,0.0324,0.013523,0.002678,0.000431,0.109536
6332000,0.0324,0.013523,0.002678,0.000431,0.152552
6333000,0.0324,0.013523,0.002678,0.000431,0.076041
6334000,0.0324,0.013523,0.002678,0.000431,0.068519
6335000,0.0324,0.013523,0.002678,0.000431,0.169123
6336000,0.0324,0.013523,0.002678,0.000431,0.085561
6337000,0.0324,0.013523,0.002678,0.000431,0.190866
6338000,0.0324,0.013523,0.002678,0.000431,0.142679
6339000,0.0324,0.013523,0.002678,0.000431,0.120466
6340000,0.0324,0.013523,0.002678,0.000431,0.282773
6341000,0.0324,0.013523,0.002678,0.000431,0.175705
6342000,0.0324,0.013523,0.002678,0.000431,0.050185
6343000,0.0324,0.013523,0.002678,0.000431,0.126108
6344000,0.0324,0.013523,0.002678,0.000431,0.097901
6345000,0.0324,0.013523,0.002678,0.000431,0.058412
6346000,0.0324,0.013523,0.002678,0.000431,0.106481
6347000,0.0324,0.013523,0.002678,0.000431,0.136568
6348000,0.0324,0.013523,0.002678,0.000431,0.046071
6349000,0.0324,0.013523,0.002678,0.000431,0.050302
6350000,0.0324,0.013523,0.002678,0.000431,0.098959
6351000,0.0324,0.013523,0.002678,0.000431,0.131514
6352000,0.0324,0.013523,0.002678,0.000431,0.173589
6353000,0.0324,0.013523,0.002678,0.000431,0.097313
6354000,0.0324,0.013523,0.002678,0.000431,0.037256
6355000,0.0324,0.013523,0.002678,0.000431,0.063113
6356000,0.0324,0.013523,0.002678,0.000431,0.087088
6357000,0.0324,0.013523,0.002678,0.000431,0.126343
6358000,0.0324,0.013523,0.002678,0.000431,0.140446
6359000,0.0324,0.013523,0.002678,0.000431,0.080037
6360000,0.0324,0.013523,0.002678,0.000431,0.065228
6361000,0.0324,0.013523,0.002678,0.000431,0.140799
6362000,0.0324,0.013523,0.002678,0.000431,0.076628
6363000,0.0324,0.013523,0.002678,0.000431,0.054063
6364000,0.0324,0.013523,0.002678,0.000431,0.072515
6365000,0.0324,0.013523,0.002678,0.000431,0.098841
6366000,0.0324,0.013523,0.002678,0.000431,0.138683
6367000,0.0324,0.013523,0.002678,0.000431,0.098019
6368000,0.0324,0.013523,0.002678,0.000431,0.125285
6369000,0.0324,0.013523,0.002678,0.000431,0.040547
6370000,0.0324,0.013523,0.002678,0.000431,0.058999
6371000,0.0324,0.013523,0.002678,0.000431,0.205204
6372000,0.0324,0.013523,0.002678,0.000431,0.058529
6373000,0.0324,0.013523,0.002678,0.000431,0.041723
6374000,0.0324,0.013523,0.002678,0.000431,0.123522
6375000,0.0324,0.013523,0.002678,0.000431,0.168065
6376000,0.0324,0.013523,0.002678,0.000431,0.121994
6377000,0.0324,0.013523,0.002678,0.000431,0.066403
6378000,0.0324,0.013523,0.002678,0.000431,0.112474
6379000,0.0324,0.013523,0.002678,0.000431,0.152081
6380000,0.0324,0.013523,0.002678,0.000431,0.125285
6381000,0.0324,0.013523,0.002678,0.000431,0.072867
6382000,0.0324,0.013523,0.002678,0.000431,0.091554
6383000,0.0324,0.013523,0.002678,0.000431,0.209435
6384000,0.0324,0.013523,0.002678,0.000431,0.097666
6385000,0.0324,0.013523,0.002678,0.000431,0.110476
6386000,0.0324,0.013523,0.002678,0.000431,0.178290
6387000,0.0324,0.013523,0.002678,0.000431,0.075453
6388000,0.0324,0.013523,0.002678,0.000431,0.099546
6389000,0.0324,0.013523,0.002678,0.000431,0.072867
6390000,0.0324,0.013523,0.002678,0.000431,0.332135
6391000,0.0324,0.013523,0.002678,0.000431,0.061585
6392000,0.0324,0.013523,0.002678,0.000431,0.151259
6393000,0.0324,0.013523,0.002678,0.000431,0.114120
6394000,0.0324,0.013523,0.002678,0.000431,0.080272
6395000,0.0324,0.013523,0.002678,0.000431,0.057706
6396000,0.0324,0.013523,0.002678,0.000431,0.081917
6397000,0.0324,0.013523,0.002678,0.000431,0.174294
6398000,0.0324,0.013523,0.002678,0.000431,0.218015
6399000,0.0324,0.013523,0.002678,0.000431,0.276191
6400000,0.0324,0.013523,0.002678,0.000431,0.159251
6401000,0.0324,0.013523,0.002678,0.000431,0.113532
6402000,0.0324,0.013523,0.002678,0.000431,0.080624
6403000,0.0324,0.013523,0.002678,0.000431,0.072867
6404000,0.0324,0.013523,0.002678,0.000431,0.144442
6405000,0.0324,0.013523,0.002678,0.000431,0.069224
6406000,0.0324,0.013523,0.002678,0.000431,0.070869
6407000,0.0324,0.013523,0.002678,0.000431,0.112122
6408000,0.0324,0.013523,0.002678,0.000431,0.123405
6409000,0.0324,0.013523,0.002678,0.000431,0.132689
6410000,0.0324,0.013523,0.002678,0.000431,0.099076
6411000,0.0324,0.013523,0.002678,0.000431,0.092847
6412000,0.0324,0.013523,0.002678,0.000431,0.118821
6413000,0.0324,0.013523,0.002678,0.000431,0.201443
6414000,0.0324,0.013523,0.002678,0.000431,0.143384
6415000,0.0324,0.013523,0.002678,0.000431,0.121524
6416000,0.0324,0.013523,0.002678,0.000431,0.112004
6417000,0.0324,0.013523,0.002678,0.000431,0.116705
6418000,0.0324,0.013523,0.002678,0.000431,0.125285
6419000,0.0324,0.013523,0.002678,0.000431,0.053945
6420000,0.0324,0.013523,0.002678,0.000431,0.133630
6421000,0.0324,0.013523,0.002678,0.000431,0.128106
6422000,0.0324,0.013523,0.002678,0.000431,0.143149
6423000,0.0324,0.013523,0.002678,0.000431,0.086266
6424000,0.0324,0.013523,0.002678,0.000431,0.080624
6425000,0.0324,0.013523,0.002678,0.000431,0.077569
6426000,0.0324,0.013523,0.002678,0.000431,0.131984
6427000,0.0324,0.013523,0.002678,0.000431,0.090027
6428000,0.0324,0.013523,0.002678,0.000431,0.093082
6429000,0.0324,0.013523,0.002678,0.000431,0.210728
6430000,0.0324,0.013523,0.002678,0.000431,0.150201
6431000,0.0324,0.013523,0.002678,0.000431,0.117058
6432000,0.0324,0.013523,0.002678,0.000431,0.168065
6433000,0.0324,0.013523,0.002678,0.000431,0.112827
6434000,0.0324,0.013523,0.002678,0.000431,0.064170
6435000,0.0324,0.013523,0.002678,0.000431,0.139741
6436000,0.0324,0.013523,0.002678,0.000431,0.130339
6437000,0.0324,0.013523,0.002678,0.000431,0.150671
6438000,0.0324,0.013523,0.002678,0.000431,0.074278
6439000,0.0324,0.013523,0.002678,0.000431,0.247749
6440000,0.0324,0.013523,0.002678,0.000431,0.112122
6441000,0.0324,0.013523,0.002678,0.000431,0.143737
6442000,0.0324,0.013523,0.002678,0.000431,0.220013
6443000,0.0324,0.013523,0.002678,0.000431,0.126813
6444000,0.0324,0.013523,0.002678,0.000431,0.222363
6445000,0.0324,0.013523,0.002678,0.000431,0.248807
6446000,0.0324,0.013523,0.002678,0.000431,0.223539
6447000,0.0324,0.013523,0.002678,0.000431,0.124815
6448000,0.0324,0.013523,0.002678,0.000431,0.088264
6449000,0.0324,0.013523,0.002678,0.000431,0.123640
6450000,0.0324,0.013523,0.002678,0.000431,0.193804
6451000,0.0324,0.013523,0.002678,0.000431,0.081094
6452000,0.0324,0.013523,0.002678,0.000431,0.131279
6453000,0.0324,0.013523,0.002678,0.000431,0.297111
6454000,0.0324,0.013523,0.002678,0.000431,0.123287
6455000,0.0324,0.013523,0.002678,0.000431,0.135628
6456000,0.0324,0.013523,0.002678,0.000431,0.150319
6457000,0.0324,0.013523,0.002678,0.000431,0.185930
6458000,0.0324,0.013523,0.002678,0.000431,0.077334
6459000,0.0324,0.013523,0.002678,0.000431,0.401476
6460000,0.0324,0.013523,0.002678,0.000431,0.228005
6461000,0.0324,0.013523,0.002678,0.000431,0.130926
6462000,0.0324,0.013523,0.002678,0.000431,0.121407
6463000,0.0324,0.013523,0.002678,0.000431,0.178760
6464000,0.0324,0.013523,0.002678,0.000431,0.086266
6465000,0.0324,0.013523,0.002678,0.000431,0.069342
6466000,0.0324,0.013523,0.002678,0.000431,0.270550
6467000,0.0324,0.013523,0.002678,0.000431,0.277131
6468000,0.0324,0.013523,0.002678,0.000431,0.114120
6469000,0.0324,0.013523,0.002678,0.000431,0.178408
6470000,0.0324,0.013523,0.002678,0.000431,0.195097
6471000,0.0324,0.013523,0.002678,0.000431,0.081917
6472000,0.0324,0.013523,0.002678,0.000431,0.103777
6473000,0.0324,0.013523,0.002678,0.000431,0.118586
6474000,0.0324,0.013523,0.002678,0.000431,0.354583
6475000,0.0324,0.013523,0.002678,0.000431,0.242931
6476000,0.0324,0.013523,0.002678,0.000431,0.172179
6477000,0.0324,0.013523,0.002678,0.000431,0.123170
6478000,0.0324,0.013523,0.002678,0.000431,0.097783
6479000,0.0324,0.013523,0.002678,0.000431,0.125638
6480000,0.0324,0.013523,0.002678,0.000431,0.164539
6481000,0.0324,0.013523,0.002678,0.000431,0.319912
6482000,0.0324,0.013523,0.002678,0.000431,0.220013
6483000,0.0324,0.013523,0.002678,0.000431,0.235291
6484000,0.0324,0.013523,0.002678,0.000431,0.212961
6485000,0.0324,0.013523,0.002678,0.000431,0.277131
6486000,0.0324,0.013523,0.002678,0.000431,0.063935
6487000,0.0324,0.013523,0.002678,0.000431,0.305926
6488000,0.0324,0.013523,0.002678,0.000431,0.242813
6489000,0.0324,0.013523,0.002678,0.000431,0.190866
6490000,0.0324,0.013523,0.002678,0.000431,0.113885
6491000,0.0324,0.013523,0.002678,0.000431,0.301695
6492000,0.0324,0.013523,0.002678,0.000431,0.337658
6493000,0.0324,0.013523,0.002678,0.000431,0.217192
6494000,0.0324,0.013523,0.002678,0.000431,0.195802
6495000,0.0324,0.013523,0.002678,0.000431,0.214724
6496000,0.0324,0.013523,0.002678,0.000431,0.081682
6497000,0.0324,0.013523,0.002678,0.000431,0.072867
6498000,0.0324,0.013523,0.002678,0.000431,0.105775
6499000,0.0324,0.013523,0.002678,0.000431,0.107891
6500000,0.0324,0.013523,0.002678,0.000431,0.201208
6501000,0.0324,0.013523,0.002678,0.000431,0.066638
6502000,0.0324,0.013523,0.002678,0.000431,0.111064
6503000,0.0324,0.013523,0.002678,0.000431,0.161484
6504000,0.0324,0.013523,0.002678,0.000431,0.117763
6505000,0.0324,0.013523,0.002678,0.000431,0.120466
6506000,0.0324,0.013523,0.002678,0.000431,0.221658
6507000,0.0324,0.013523,0.002678,0.000431,0.139741
6508000,0.0324,0.013523,0.002678,0.000431,0.084738
6509000,0.0324,0.013523,0.002678,0.000431,0.269140
6510000,0.0324,0.013523,0.002678,0.000431,0.227417
6511000,0.0324,0.013523,0.002678,0.000431,0.104835
6512000,0.0324,0.013523,0.002678,0.000431,0.105070
6513000,0.0324,0.013523,0.002678,0.000431,0.081800
6514000,0.0324,0.013523,0.002678,0.000431,0.073220
6515000,0.0324,0.013523,0.002678,0.000431,0.252333
6516000,0.0324,0.013523,0.002678,0.000431,0.198153
6517000,0.0324,0.013523,0.002678,0.000431,0.173589
6518000,0.0324,0.013523,0.002678,0.000431,0.079802
6519000,0.0324,0.013523,0.002678,0.000431,0.184284
6520000,0.0324,0.013523,0.002678,0.000431,0.097196
6521000,0.0324,0.013523,0.002678,0.000431,0.046189
6522000,0.0324,0.013523,0.002678,0.000431,0.076276
6523000,0.0324,0.013523,0.002678,0.000431,0.098254
6524000,0.0324,0.013523,0.002678,0.000431,0.159956
6525000,0.0324,0.013523,0.002678,0.000431,0.047129
6526000,0.0324,0.013523,0.002678,0.000431,0.114472
6527000,0.0324,0.013523,0.002678,0.000431,0.045836
6528000,0.0324,0.013523,0.002678,0.000431,0.043368
6529000,0.0324,0.013523,0.002678,0.000431,0.314388
6530000,0.0324,0.013523,0.002678,0.000431,0.474461
6531000,0.0324,0.013523,0.002678,0.000431,0.206732
6532000,0.0324,0.013523,0.002678,0.000431,0.050420
6533000,0.0324,0.013523,0.002678,0.000431,0.091554
6534000,0.0324,0.013523,0.002678,0.000431,0.103542
6535000,0.0324,0.013523,0.002678,0.000431,0.177468
6536000,0.0324,0.013523,0.002678,0.000431,0.236937
6537000,0.0324,0.013523,0.002678,0.000431,0.139741
6538000,0.0324,0.013523,0.002678,0.000431,0.092847
6539000,0.0324,0.013523,0.002678,0.000431,0.134217
6540000,0.0324,0.013523,0.002678,0.000431,0.057941
6541000,0.0324,0.013523,0.002678,0.000431,0.103895
6542000,0.0324,0.013523,0.002678,0.000431,0.272783
6543000,0.0324,0.013523,0.002678,0.000431,0.278777
6544000,0.0324,0.013523,0.002678,0.000431,0.418635
6545000,0.0324,0.013523,0.002678,0.000431,0.094610
6546000,0.0324,0.013523,0.002678,0.000431,0.125285
6547000,0.0324,0.013523,0.002678,0.000431,0.118116
6548000,0.0324,0.013523,0.002678,0.000431,0.235644
6549000,0.0324,0.013523,0.002678,0.000431,0.322615
6550000,0.0324,0.013523,0.002678,0.000431,0.226477
6551000,0.0324,0.013523,0.002678,0.000431,0.093552
6552000,0.0324,0.013523,0.002678,0.000431,0.170768
6553000,0.0324,0.013523,0.002678,0.000431,0.132572
6554000,0.0324,0.013523,0.002678,0.000431,0.110124
6555000,0.0324,0.013523,0.002678,0.000431,0.283008
6556000,0.0324,0.013523,0.002678,0.000431,0.196860
6557000,0.0324,0.013523,0.002678,0.000431,0.263498
6558000,0.0324,0.013523,0.002678,0.000431,0.188398
6559000,0.0324,0.013523,0.002678,0.000431,0.370684
6560000,0.0324,0.013523,0.002678,0.000431,0.202266
6561000,0.0324,0.013523,0.002678,0.000431,0.209083
6562000,0.0324,0.013523,0.002678,0.000431,0.322262
6563000,0.0324,0.013523,0.002678,0.000431,0.131514
6564000,0.0324,0.013523,0.002678,0.000431,0.115765
6565000,0.0324,0.013523,0.002678,0.000431,0.232588
6566000,0.0324,0.013523,0.002678,0.000431,0.052535
6567000,0.0324,0.013523,0.002678,0.000431,0.185695
6568000,0.0324,0.013523,0.002678,0.000431,0.249982
6569000,0.0324,0.013523,0.002678,0.000431,0.210375
6570000,0.0324,0.013523,0.002678,0.000431,0.157605
6571000,0.0324,0.013523,0.002678,0.000431,0.136098
6572000,0.0324,0.013523,0.002678,0.000431,0.120584
6573000,0.0324,0.013523,0.002678,0.000431,0.104600
6574000,0.0324,0.013523,0.002678,0.000431,0.182521
6575000,0.0324,0.013523,0.002678,0.000431,0.106716
6576000,0.0324,0.013523,0.002678,0.000431,0.102955
6577000,0.0324,0.013523,0.002678,0.000431,0.200386
6578000,0.0324,0.013523,0.002678,0.000431,0.079332
6579000,0.0324,0.013523,0.002678,0.000431,0.164892
6580000,0.0324,0.013523,0.002678,0.000431,0.418048
6581000,0.0324,0.013523,0.002678,0.000431,0.253156
6582000,0.0324,0.013523,0.002678,0.000431,0.065698
6583000,0.0324,0.013523,0.002678,0.000431,0.203089
6584000,0.0324,0.013523,0.002678,0.000431,0.420163
6585000,0.0324,0.013523,0.002678,0.000431,0.181581
6586000,0.0324,0.013523,0.002678,0.000431,0.072632
6587000,0.0324,0.013523,0.002678,0.000431,0.336953
6588000,0.0324,0.013523,0.002678,0.000431,0.094375
6589000,0.0324,0.013523,0.002678,0.000431,0.081447
6590000,0.0324,0.013523,0.002678,0.000431,0.258797
6591000,0.0324,0.013523,0.002678,0.000431,0.126813
6592000,0.0324,0.013523,0.002678,0.000431,0.080624
6593000,0.0324,0.013523,0.002678,0.000431,0.220718
6594000,0.0324,0.013523,0.002678,0.000431,0.253038
6595000,0.0324,0.013523,0.002678,0.000431,0.087794
6596000,0.0324,0.013523,0.002678,0.000431,0.272665
6597000,0.0324,0.013523,0.002678,0.000431,0.287356
6598000,0.0324,0.013523,0.002678,0.000431,0.185459
6599000,0.0324,0.013523,0.002678,0.000431,0.287356
6600000,0.0324,0.013523,0.002678,0.000431,0.132807
6601000,0.0324,0.013523,0.002678,0.000431,0.057706
6602000,0.0324,0.013523,0.002678,0.000431,0.076981
6603000,0.0324,0.013523,0.002678,0.000431,0.120466
6604000,0.0324,0.013523,0.002678,0.000431,0.101192
6605000,0.0324,0.013523,0.002678,0.000431,0.071340
6606000,0.0324,0.013523,0.002678,0.000431,0.195214
6607000,0.0324,0.013523,0.002678,0.000431,0.210963
6608000,0.0324,0.013523,0.002678,0.000431,0.058294
6609000,0.0324,0.013523,0.002678,0.000431,0.115413
6610000,0.0324,0.013523,0.002678,0.000431,0.275839
6611000,0.0324,0.013523,0.002678,0.000431,0.231060
6612000,0.0324,0.013523,0.002678,0.000431,0.157370
6613000,0.0324,0.013523,0.002678,0.000431,0.375973
6614000,0.0324,0.013523,0.002678,0.000431,0.128223
6615000,0.0324,0.013523,0.002678,0.000431,0.084268
6616000,0.0324,0.013523,0.002678,0.000431,0.196155
6617000,0.0324,0.013523,0.002678,0.000431,0.226829
6618000,0.0324,0.013523,0.002678,0.000431,0.145852
6619000,0.0324,0.013523,0.002678,0.000431,0.116823
6620000,0.0324,0.013523,0.002678,0.000431,0.094610
6621000,0.0324,0.013523,0.002678,0.000431,0.223774
6622000,0.0324,0.013523,0.002678,0.000431,0.193569
6623000,0.0324,0.013523,0.002678,0.000431,0.228827
6624000,0.0324,0.013523,0.002678,0.000431,0.103895
6625000,0.0324,0.013523,0.002678,0.000431,0.133159
6626000,0.0324,0.013523,0.002678,0.000431,0.155372
6627000,0.0324,0.013523,0.002678,0.000431,0.129281
6628000,0.0324,0.013523,0.002678,0.000431,0.182991
6629000,0.0324,0.013523,0.002678,0.000431,0.139741
6630000,0.0324,0.013523,0.002678,0.000431,0.112122
6631000,0.0324,0.013523,0.002678,0.000431,0.102955
6632000,0.0324,0.013523,0.002678,0.000431,0.108126
6633000,0.0324,0.013523,0.002678,0.000431,0.165245
6634000,0.0324,0.013523,0.002678,0.000431,0.098606
6635000,0.0324,0.013523,0.002678,0.000431,0.099311
6636000,0.0324,0.013523,0.002678,0.000431,0.255859
6637000,0.0324,0.013523,0.002678,0.000431,0.090497
6638000,0.0324,0.013523,0.002678,0.000431,0.116470
6639000,0.0324,0.013523,0.002678,0.000431,0.088616
6640000,0.0324,0.013523,0.002678,0.000431,0.038079
6641000,0.0324,0.013523,0.002678,0.000431,0.057824
6642000,0.0324,0.013523,0.002678,0.000431,0.226712
6643000,0.0324,0.013523,0.002678,0.000431,0.256799
6644000,0.0324,0.013523,0.002678,0.000431,0.289354
6645000,0.0324,0.013523,0.002678,0.000431,0.134805
6646000,0.0324,0.013523,0.002678,0.000431,0.147263
6647000,0.0324,0.013523,0.002678,0.000431,0.156312
6648000,0.0324,0.013523,0.002678,0.000431,0.162306
6649000,0.0324,0.013523,0.002678,0.000431,0.558729
6650000,0.0324,0.013523,0.002678,0.000431,0.171826
6651000,0.0324,0.013523,0.002678,0.000431,0.088029
6652000,0.0324,0.013523,0.002678,0.000431,0.118468
6653000,0.0324,0.013523,0.002678,0.000431,0.134100
6654000,0.0324,0.013523,0.002678,0.000431,0.094023
6655000,0.0324,0.013523,0.002678,0.000431,0.220835
6656000,0.0324,0.013523,0.002678,0.000431,0.157723
6657000,0.0324,0.013523,0.002678,0.000431,0.125050
6658000,0.0324,0.013523,0.002678,0.000431,0.133042
6659000,0.0324,0.013523,0.002678,0.000431,0.095433
6660000,0.0324,0.013523,0.002678,0.000431,0.038667
6661000,0.0324,0.013523,0.002678,0.000431,0.072515
6662000,0.0324,0.013523,0.002678,0.000431,0.151024
6663000,0.0324,0.013523,0.002678,0.000431,0.130104
6664000,0.0324,0.013523,0.002678,0.000431,0.124462
6665000,0.0324,0.013523,0.002678,0.000431,0.180288
6666000,0.0324,0.013523,0.002678,0.000431,0.120231
6667000,0.0324,0.013523,0.002678,0.000431,0.259385
6668000,0.0324,0.013523,0.002678,0.000431,0.352114
6669000,0.0324,0.013523,0.002678,0.000431,0.403827
6670000,0.0324,0.013523,0.002678,0.000431,0.166420
6671000,0.0324,0.013523,0.002678,0.000431,0.084268
6672000,0.0324,0.013523,0.002678,0.000431,0.088146
6673000,0.0324,0.013523,0.002678,0.000431,0.193922
6674000,0.0324,0.013523,0.002678,0.000431,0.105658
6675000,0.0324,0.013523,0.002678,0.000431,0.272195
6676000,0.0324,0.013523,0.002678,0.000431,0.141739
6677000,0.0324,0.013523,0.002678,0.000431,0.266436
6678000,0.0324,0.013523,0.002678,0.000431,0.097196
6679000,0.0324,0.013523,0.002678,0.000431,0.138918
6680000,0.0324,0.013523,0.002678,0.000431,0.061585
6681000,0.0324,0.013523,0.002678,0.000431,0.317561
6682000,0.0324,0.013523,0.002678,0.000431,0.117411
6683000,0.0324,0.013523,0.002678,0.000431,0.165715
6684000,0.0324,0.013523,0.002678,0.000431,0.160779
6685000,0.0324,0.013523,0.002678,0.000431,0.085678
6686000,0.0324,0.013523,0.002678,0.000431,0.219425
6687000,0.0324,0.013523,0.002678,0.000431,0.258327
6688000,0.0324,0.013523,0.002678,0.000431,0.433561
6689000,0.0324,0.013523,0.002678,0.000431,0.159956
6690000,0.0324,0.013523,0.002678,0.000431,0.109536
6691000,0.0324,0.013523,0.002678,0.000431,0.050302
6692000,0.0324,0.013523,0.002678,0.000431,0.202971
6693000,0.0324,0.013523,0.002678,0.000431,0.164657
6694000,0.0324,0.013523,0.002678,0.000431,0.169946
6695000,0.0324,0.013523,0.002678,0.000431,0.132807
6696000,0.0324,0.013523,0.002678,0.000431,0.102955
6697000,0.0324,0.013523,0.002678,0.000431,0.065463
6698000,0.0324,0.013523,0.002678,0.000431,0.205557
6699000,0.0324,0.013523,0.002678,0.000431,0.155725
6700000,0.0324,0.013523,0.002678,0.000431,0.169593
6701000,0.0324,0.013523,0.002678,0.000431,0.188163
6702000,0.0324,0.013523,0.002678,0.000431,0.058059
6703000,0.0324,0.013523,0.002678,0.000431,0.095550
6704000,0.0324,0.013523,0.002678,0.000431,0.035258
6705000,0.0324,0.013523,0.002678,0.000431,0.146323
6706000,0.0324,0.013523,0.002678,0.000431,0.385492
6707000,0.0324,0.013523,0.002678,0.000431,0.320029
6708000,0.0324,0.013523,0.002678,0.000431,0.095433
6709000,0.0324,0.013523,0.002678,0.000431,0.150789
6710000,0.0324,0.013523,0.002678,0.000431,0.107303
6711000,0.0324,0.013523,0.002678,0.000431,0.065581
6712000,0.0324,0.013523,0.002678,0.000431,0.187222
6713000,0.0324,0.013523,0.002678,0.000431,0.258092
6714000,0.0324,0.013523,0.002678,0.000431,0.136568
6715000,0.0324,0.013523,0.002678,0.000431,0.052535
6716000,0.0324,0.013523,0.002678,0.000431,0.168770
6717000,0.0324,0.013523,0.002678,0.000431,0.054651
6718000,0.0324,0.013523,0.002678,0.000431,0.119409
6719000,0.0324,0.013523,0.002678,0.000431,0.417460
6720000,0.0324,0.013523,0.002678,0.000431,0.176292
6721000,0.0324,0.013523,0.002678,0.000431,0.083798
6722000,0.0324,0.013523,0.002678,0.000431,0.134335
6723000,0.0324,0.013523,0.002678,0.000431,0.142797
6724000,0.0324,0.013523,0.002678,0.000431,0.091672
6725000,0.0324,0.013523,0.002678,0.000431,0.083915
6726000,0.0324,0.013523,0.002678,0.000431,0.323438
6727000,0.0324,0.013523,0.002678,0.000431,0.194862
6728000,0.0324,0.013523,0.002678,0.000431,0.076158
6729000,0.0324,0.013523,0.002678,0.000431,0.050655
6730000,0.0324,0.013523,0.002678,0.000431,0.075571
6731000,0.0324,0.013523,0.002678,0.000431,0.119996
6732000,0.0324,0.013523,0.002678,0.000431,0.164187
6733000,0.0324,0.013523,0.002678,0.000431,0.132689
6734000,0.0324,0.013523,0.002678,0.000431,0.093435
6735000,0.0324,0.013523,0.002678,0.000431,0.091672
6736000,0.0324,0.013523,0.002678,0.000431,0.035141
6737000,0.0324,0.013523,0.002678,0.000431,0.220718
6738000,0.0324,0.013523,0.002678,0.000431,0.172531
6739000,0.0324,0.013523,0.002678,0.000431,0.290765
6740000,0.0324,0.013523,0.002678,0.000431,0.185930
6741000,0.0324,0.013523,0.002678,0.000431,0.039137
6742000,0.0324,0.013523,0.002678,0.000431,0.151141
6743000,0.0324,0.013523,0.002678,0.000431,0.052770
6744000,0.0324,0.013523,0.002678,0.000431,0.289237
6745000,0.0324,0.013523,0.002678,0.000431,0.151141
6746000,0.0324,0.013523,0.002678,0.000431,0.377265
6747000,0.0324,0.013523,0.002678,0.000431,0.080859
6748000,0.0324,0.013523,0.002678,0.000431,0.072045
6749000,0.0324,0.013523,0.002678,0.000431,0.050185
6750000,0.0324,0.013523,0.002678,0.000431,0.168888
6751000,0.0324,0.013523,0.002678,0.000431,0.307336
6752000,0.0324,0.013523,0.002678,0.000431,0.336601
6753000,0.0324,0.013523,0.002678,0.000431,0.141269
6754000,0.0324,0.013523,0.002678,0.000431,0.108126
6755000,0.0324,0.013523,0.002678,0.000431,0.035258
6756000,0.0324,0.013523,0.002678,0.000431,0.183814
6757000,0.0324,0.013523,0.002678,0.000431,0.192394
6758000,0.0324,0.013523,0.002678,0.000431,0.150789
6759000,0.0324,0.013523,0.002678,0.000431,0.286769
6760000,0.0324,0.013523,0.002678,0.000431,0.095668
6761000,0.0324,0.013523,0.002678,0.000431,0.136098
6762000,0.0324,0.013523,0.002678,0.000431,0.047834
6763000,0.0324,0.013523,0.002678,0.000431,0.365865
6764000,0.0324,0.013523,0.002678,0.000431,0.235174
6765000,0.0324,0.013523,0.002678,0.000431,0.186752
6766000,0.0324,0.013523,0.002678,0.000431,0.175587
6767000,0.0324,0.013523,0.002678,0.000431,0.130691
6768000,0.0324,0.013523,0.002678,0.000431,0.059704
6769000,0.0324,0.013523,0.002678,0.000431,0.137273
6770000,0.0324,0.013523,0.002678,0.000431,0.331900
6771000,0.0324,0.013523,0.002678,0.000431,0.104247
6772000,0.0324,0.013523,0.002678,0.000431,0.128458
6773000,0.0324,0.013523,0.002678,0.000431,0.106716
6774000,0.0324,0.013523,0.002678,0.000431,0.125050
6775000,0.0324,0.013523,0.002678,0.000431,0.119174
6776000,0.0324,0.013523,0.002678,0.000431,0.179583
6777000,0.0324,0.013523,0.002678,0.000431,0.152081
6778000,0.0324,0.013523,0.002678,0.000431,0.103895
6779000,0.0324,0.013523,0.002678,0.000431,0.101662
6780000,0.0324,0.013523,0.002678,0.000431,0.113767
6781000,0.0324,0.013523,0.002678,0.000431,0.098959
6782000,0.0324,0.013523,0.002678,0.000431,0.110124
6783000,0.0324,0.013523,0.002678,0.000431,0.464471
6784000,0.0324,0.013523,0.002678,0.000431,0.350822
6785000,0.0324,0.013523,0.002678,0.000431,0.273135
6786000,0.0324,0.013523,0.002678,0.000431,0.231766
6787000,0.0324,0.013523,0.002678,0.000431,0.178525
6788000,0.0324,0.013523,0.002678,0.000431,0.108126
6789000,0.0324,0.013523,0.002678,0.000431,0.075101
6790000,0.0324,0.013523,0.002678,0.000431,0.080272
6791000,0.0324,0.013523,0.002678,0.000431,0.275839
6792000,0.0324,0.013523,0.002678,0.000431,0.042428
6793000,0.0324,0.013523,0.002678,0.000431,0.042545
6794000,0.0324,0.013523,0.002678,0.000431,0.065346
6795000,0.0324,0.013523,0.002678,0.000431,0.119174
6796000,0.0324,0.013523,0.002678,0.000431,0.220718
6797000,0.0324,0.013523,0.002678,0.000431,0.186517
6798000,0.0324,0.013523,0.002678,0.000431,0.277602
6799000,0.0324,0.013523,0.002678,0.000431,0.121407
6800000,0.0324,0.013523,0.002678,0.000431,0.040547
6801000,0.0324,0.013523,0.002678,0.000431,0.086618
6802000,0.0324,0.013523,0.002678,0.000431,0.091319
6803000,0.0324,0.013523,0.002678,0.000431,0.160191
6804000,0.0324,0.013523,0.002678,0.000431,0.200973
6805000,0.0324,0.013523,0.002678,0.000431,0.121994
6806000,0.0324,0.013523,0.002678,0.000431,0.105540
6807000,0.0324,0.013523,0.002678,0.000431,0.057001
6808000,0.0324,0.013523,0.002678,0.000431,0.111534
6809000,0.0324,0.013523,0.002678,0.000431,0.125990
6810000,0.0324,0.013523,0.002678,0.000431,0.232823
6811000,0.0324,0.013523,0.002678,0.000431,0.122817
6812000,0.0324,0.013523,0.002678,0.000431,0.081682
6813000,0.0324,0.013523,0.002678,0.000431,0.067344
6814000,0.0324,0.013523,0.002678,0.000431,0.076511
6815000,0.0324,0.013523,0.002678,0.000431,0.126578
6816000,0.0324,0.013523,0.002678,0.000431,0.178643
6817000,0.0324,0.013523,0.002678,0.000431,0.276896
6818000,0.0324,0.013523,0.002678,0.000431,0.130221
6819000,0.0324,0.013523,0.002678,0.000431,0.064993
6820000,0.0324,0.013523,0.002678,0.000431,0.042428
6821000,0.0324,0.013523,0.002678,0.000431,0.068989
6822000,0.0324,0.013523,0.002678,0.000431,0.211668
6823000,0.0324,0.013523,0.002678,0.000431,0.168770
6824000,0.0324,0.013523,0.002678,0.000431,0.096021
6825000,0.0324,0.013523,0.002678,0.000431,0.127518
6826000,0.0324,0.013523,0.002678,0.000431,0.089086
6827000,0.0324,0.013523,0.002678,0.000431,0.106833
6828000,0.0324,0.013523,0.002678,0.000431,0.172766
6829000,0.0324,0.013523,0.002678,0.000431,0.262675
6830000,0.0324,0.013523,0.002678,0.000431,0.236232
6831000,0.0324,0.013523,0.002678,0.000431,0.232118
6832000,0.0324,0.013523,0.002678,0.000431,0.288297
6833000,0.0324,0.013523,0.002678,0.000431,0.127283
6834000,0.0324,0.013523,0.002678,0.000431,0.145030
6835000,0.0324,0.013523,0.002678,0.000431,0.176175
6836000,0.0324,0.013523,0.002678,0.000431,0.163012
6837000,0.0324,0.013523,0.002678,0.000431,0.102955
6838000,0.0324,0.013523,0.002678,0.000431,0.090144
6839000,0.0324,0.013523,0.002678,0.000431,0.046306
6840000,0.0324,0.013523,0.002678,0.000431,0.106363
6841000,0.0324,0.013523,0.002678,0.000431,0.202031
6842000,0.0324,0.013523,0.002678,0.000431,0.264203
6843000,0.0324,0.013523,0.002678,0.000431,0.127636
6844000,0.0324,0.013523,0.002678,0.000431,0.065581
6845000,0.0324,0.013523,0.002678,0.000431,0.122699
6846000,0.0324,0.013523,0.002678,0.000431,0.230473
6847000,0.0324,0.013523,0.002678,0.000431,0.225066
6848000,0.0324,0.013523,0.002678,0.000431,0.177938
6849000,0.0324,0.013523,0.002678,0.000431,0.176410
6850000,0.0324,0.013523,0.002678,0.000431,0.219895
6851000,0.0324,0.013523,0.002678,0.000431,0.125873
6852000,0.0324,0.013523,0.002678,0.000431,0.166067
6853000,0.0324,0.013523,0.002678,0.000431,0.185930
6854000,0.0324,0.013523,0.002678,0.000431,0.174294
6855000,0.0324,0.013523,0.002678,0.000431,0.214371
6856000,0.0324,0.013523,0.002678,0.000431,0.122934
6857000,0.0324,0.013523,0.002678,0.000431,0.133747
6858000,0.0324,0.013523,0.002678,0.000431,0.159486
6859000,0.0324,0.013523,0.002678,0.000431,0.135157
6860000,0.0324,0.013523,0.002678,0.000431,0.492678
6861000,0.0324,0.013523,0.002678,0.000431,0.402534
6862000,0.0324,0.013523,0.002678,0.000431,0.279717
6863000,0.0324,0.013523,0.002678,0.000431,0.057706
6864000,0.0324,0.013523,0.002678,0.000431,0.110476
6865000,0.0324,0.013523,0.002678,0.000431,0.068872
6866000,0.0324,0.013523,0.002678,0.000431,0.159133
6867000,0.0324,0.013523,0.002678,0.000431,0.106716
6868000,0.0324,0.013523,0.002678,0.000431,0.230825
6869000,0.0324,0.013523,0.002678,0.000431,0.068049
6870000,0.0324,0.013523,0.002678,0.000431,0.216369
6871000,0.0324,0.013523,0.002678,0.000431,0.151611
6872000,0.0324,0.013523,0.002678,0.000431,0.237289
6873000,0.0324,0.013523,0.002678,0.000431,0.189103
6874000,0.0324,0.013523,0.002678,0.000431,0.118703
6875000,0.0324,0.013523,0.002678,0.000431,0.208025
6876000,0.0324,0.013523,0.002678,0.000431,0.055591
6877000,0.0324,0.013523,0.002678,0.000431,0.165362
6878000,0.0324,0.013523,0.002678,0.000431,0.089204
6879000,0.0324,0.013523,0.002678,0.000431,0.274076
6880000,0.0324,0.013523,0.002678,0.000431,0.246457
6881000,0.0324,0.013523,0.002678,0.000431,0.222951
6882000,0.0324,0.013523,0.002678,0.000431,0.187222
6883000,0.0324,0.013523,0.002678,0.000431,0.136450
6884000,0.0324,0.013523,0.002678,0.000431,0.120114
6885000,0.0324,0.013523,0.002678,0.000431,0.049949
6886000,0.0324,0.013523,0.002678,0.000431,0.093787
6887000,0.0324,0.013523,0.002678,0.000431,0.222598
6888000,0.0324,0.013523,0.002678,0.000431,0.232001
6889000,0.0324,0.013523,0.002678,0.000431,0.201796
6890000,0.0324,0.013523,0.002678,0.000431,0.155490
6891000,0.0324,0.013523,0.002678,0.000431,0.058176
6892000,0.0324,0.013523,0.002678,0.000431,0.140799
6893000,0.0324,0.013523,0.002678,0.000431,0.222128
6894000,0.0324,0.013523,0.002678,0.000431,0.189573
6895000,0.0324,0.013523,0.002678,0.000431,0.114237
6896000,0.0324,0.013523,0.002678,0.000431,0.372329
6897000,0.0324,0.013523,0.002678,0.000431,0.182404
6898000,0.0324,0.013523,0.002678,0.000431,0.285241
6899000,0.0324,0.013523,0.002678,0.000431,0.142444
6900000,0.0324,0.013523,0.002678,0.000431,0.154902
6901000,0.0324,0.013523,0.002678,0.000431,0.222481
6902000,0.0324,0.013523,0.002678,0.000431,0.091907
6903000,0.0324,0.013523,0.002678,0.000431,0.054063
6904000,0.0324,0.013523,0.002678,0.000431,0.087794
6905000,0.0324,0.013523,0.002678,0.000431,0.114825
6906000,0.0324,0.013523,0.002678,0.000431,0.202384
6907000,0.0324,0.013523,0.002678,0.000431,0.112945
6908000,0.0324,0.013523,0.002678,0.000431,0.049949
6909000,0.0324,0.013523,0.002678,0.000431,0.139506
6910000,0.0324,0.013523,0.002678,0.000431,0.050067
6911000,0.0324,0.013523,0.002678,0.000431,0.174999
6912000,0.0324,0.013523,0.002678,0.000431,0.090732
6913000,0.0324,0.013523,0.002678,0.000431,0.266554
6914000,0.0324,0.013523,0.002678,0.000431,0.158663
6915000,0.0324,0.013523,0.002678,0.000431,0.087558
6916000,0.0324,0.013523,0.002678,0.000431,0.080272
6917000,0.0324,0.013523,0.002678,0.000431,0.061585
6918000,0.0324,0.013523,0.002678,0.000431,0.099076
6919000,0.0324,0.013523,0.002678,0.000431,0.147968
6920000,0.0324,0.013523,0.002678,0.000431,0.113062
6921000,0.0324,0.013523,0.002678,0.000431,0.141386
6922000,0.0324,0.013523,0.002678,0.000431,0.152904
6923000,0.0324,0.013523,0.002678,0.000431,0.090614
6924000,0.0324,0.013523,0.002678,0.000431,0.152081
6925000,0.0324,0.013523,0.002678,0.000431,0.124227
6926000,0.0324,0.013523,0.002678,0.000431,0.230355
6927000,0.0324,0.013523,0.002678,0.000431,0.179583
6928000,0.0324,0.013523,0.002678,0.000431,0.054063
6929000,0.0324,0.013523,0.002678,0.000431,0.046541
6930000,0.0324,0.013523,0.002678,0.000431,0.042780
6931000,0.0324,0.013523,0.002678,0.000431,0.140329
6932000,0.0324,0.013523,0.002678,0.000431,0.125755
6933000,0.0324,0.013523,0.002678,0.000431,0.133159
6934000,0.0324,0.013523,0.002678,0.000431,0.125403
6935000,0.0324,0.013523,0.002678,0.000431,0.080272
6936000,0.0324,0.013523,0.002678,0.000431,0.065463
6937000,0.0324,0.013523,0.002678,0.000431,0.353525
6938000,0.0324,0.013523,0.002678,0.000431,0.363985
6939000,0.0324,0.013523,0.002678,0.000431,0.101779
6940000,0.0324,0.013523,0.002678,0.000431,0.149261
6941000,0.0324,0.013523,0.002678,0.000431,0.259385
6942000,0.0324,0.013523,0.002678,0.000431,0.217545
6943000,0.0324,0.013523,0.002678,0.000431,0.154315
6944000,0.0324,0.013523,0.002678,0.000431,0.082035
6945000,0.0324,0.013523,0.002678,0.000431,0.322850
6946000,0.0324,0.013523,0.002678,0.000431,0.129634
6947000,0.0324,0.013523,0.002678,0.000431,0.115765
6948000,0.0324,0.013523,0.002678,0.000431,0.120819
6949000,0.0324,0.013523,0.002678,0.000431,0.131397
6950000,0.0324,0.013523,0.002678,0.000431,0.223656
6951000,0.0324,0.013523,0.002678,0.000431,0.277131
6952000,0.0324,0.013523,0.002678,0.000431,0.223421
6953000,0.0324,0.013523,0.002678,0.000431,0.158546
6954000,0.0324,0.013523,0.002678,0.000431,0.061820
6955000,0.0324,0.013523,0.002678,0.000431,0.053593
6956000,0.0324,0.013523,0.002678,0.000431,0.084855
6957000,0.0324,0.013523,0.002678,0.000431,0.129281
6958000,0.0324,0.013523,0.002678,0.000431,0.152787
6959000,0.0324,0.013523,0.002678,0.000431,0.183109
6960000,0.0324,0.013523,0.002678,0.000431,0.068049
6961000,0.0324,0.013523,0.002678,0.000431,0.201443
6962000,0.0324,0.013523,0.002678,0.000431,0.158663
6963000,0.0324,0.013523,0.002678,0.000431,0.154667
6964000,0.0324,0.013523,0.002678,0.000431,0.114825
6965000,0.0324,0.013523,0.002678,0.000431,0.089674
6966000,0.0324,0.013523,0.002678,0.000431,0.063348
6967000,0.0324,0.013523,0.002678,0.000431,0.140681
6968000,0.0324,0.013523,0.002678,0.000431,0.087323
6969000,0.0324,0.013523,0.002678,0.000431,0.115765
6970000,0.0324,0.013523,0.002678,0.000431,0.082622
6971000,0.0324,0.013523,0.002678,0.000431,0.088381
6972000,0.0324,0.013523,0.002678,0.000431,0.125755
6973000,0.0324,0.013523,0.002678,0.000431,0.068049
6974000,0.0324,0.013523,0.002678,0.000431,0.299462
6975000,0.0324,0.013523,0.002678,0.000431,0.172531
6976000,0.0324,0.013523,0.002678,0.000431,0.283713
6977000,0.0324,0.013523,0.002678,0.000431,0.279717
6978000,0.0324,0.013523,0.002678,0.000431,0.159486
6979000,0.0324,0.013523,0.002678,0.000431,0.042545
6980000,0.0324,0.013523,0.002678,0.000431,0.229062
6981000,0.0324,0.013523,0.002678,0.000431,0.257739
6982000,0.0324,0.013523,0.002678,0.000431,0.252921
6983000,0.0324,0.013523,0.002678,0.000431,0.184519
6984000,0.0324,0.013523,0.002678,0.000431,0.149143
6985000,0.0324,0.013523,0.002678,0.000431,0.114590
6986000,0.0324,0.013523,0.002678,0.000431,0.061467
6987000,0.0324,0.013523,0.002678,0.000431,0.144325
6988000,0.0324,0.013523,0.002678,0.000431,0.057354
6989000,0.0324,0.013523,0.002678,0.000431,0.187693
6990000,0.0324,0.013523,0.002678,0.000431,0.145030
6991000,0.0324,0.013523,0.002678,0.000431,0.200386
6992000,0.0324,0.013523,0.002678,0.000431,0.035141
6993000,0.0324,0.013523,0.002678,0.000431,0.094140
6994000,0.0324,0.013523,0.002678,0.000431,0.106363
6995000,0.0324,0.013523,0.002678,0.000431,0.192276
6996000,0.0324,0.013523,0.002678,0.000431,0.102955
6997000,0.0324,0.013523,0.002678,0.000431,0.152904
6998000,0.0324,0.013523,0.002678,0.000431,0.060762
6999000,0.0324,0.013523,0.002678,0.000431,0.038432
