Cycle,Area(mm^2),PeakDynamic(W),SubthresholdLeakage(W),GateLeakage(W),RunTimeDynamic(W)
24000000,0.0324,0.013523,0.002678,0.000431,0.068754
24001000,0.0324,0.013523,0.002678,0.000431,0.055473
24002000,0.0324,0.013523,0.002678,0.000431,0.126343
24003000,0.0324,0.013523,0.002678,0.000431,0.078744
24004000,0.0324,0.013523,0.002678,0.000431,0.124815
24005000,0.0324,0.013523,0.002678,0.000431,0.207672
24006000,0.0324,0.013523,0.002678,0.000431,0.108008
24007000,0.0324,0.013523,0.002678,0.000431,0.051712
24008000,0.0324,0.013523,0.002678,0.000431,0.090849
24009000,0.0324,0.013523,0.002678,0.000431,0.076393
24010000,0.0324,0.013523,0.002678,0.000431,0.052418
24011000,0.0324,0.013523,0.002678,0.000431,0.133630
24012000,0.0324,0.013523,0.002678,0.000431,0.088616
24013000,0.0324,0.013523,0.002678,0.000431,0.094845
24014000,0.0324,0.013523,0.002678,0.000431,0.101427
24015000,0.0324,0.013523,0.002678,0.000431,0.106481
24016000,0.0324,0.013523,0.002678,0.000431,0.099781
24017000,0.0324,0.013523,0.002678,0.000431,0.070869
24018000,0.0324,0.013523,0.002678,0.000431,0.076276
24019000,0.0324,0.013523,0.002678,0.000431,0.055121
24020000,0.0324,0.013523,0.002678,0.000431,0.083563
24021000,0.0324,0.013523,0.002678,0.000431,0.063113
24022000,0.0324,0.013523,0.002678,0.000431,0.113297
24023000,0.0324,0.013523,0.002678,0.000431,0.091437
24024000,0.0324,0.013523,0.002678,0.000431,0.072515
24025000,0.0324,0.013523,0.002678,0.000431,0.053005
24026000,0.0324,0.013523,0.002678,0.000431,0.066521
24027000,0.0324,0.013523,0.002678,0.000431,0.058176
24028000,0.0324,0.013523,0.002678,0.000431,0.086501
24029000,0.0324,0.013523,0.002678,0.000431,0.096608
24030000,0.0324,0.013523,0.002678,0.000431,0.051125
24031000,0.0324,0.013523,0.002678,0.000431,0.047481
24032000,0.0324,0.013523,0.002678,0.000431,0.116823
24033000,0.0324,0.013523,0.002678,0.000431,0.121994
24034000,0.0324,0.013523,0.002678,0.000431,0.088969
24035000,0.0324,0.013523,0.002678,0.000431,0.110241
24036000,0.0324,0.013523,0.002678,0.000431,0.038549
24037000,0.0324,0.013523,0.002678,0.000431,0.049244
24038000,0.0324,0.013523,0.002678,0.000431,0.079332
24039000,0.0324,0.013523,0.002678,0.000431,0.055591
24040000,0.0324,0.013523,0.002678,0.000431,0.074395
24041000,0.0324,0.013523,0.002678,0.000431,0.070399
24042000,0.0324,0.013523,0.002678,0.000431,0.111769
24043000,0.0324,0.013523,0.002678,0.000431,0.068401
24044000,0.0324,0.013523,0.002678,0.000431,0.044661
24045000,0.0324,0.013523,0.002678,0.000431,0.062172
24046000,0.0324,0.013523,0.002678,0.000431,0.054180
24047000,0.0324,0.013523,0.002678,0.000431,0.176762
24048000,0.0324,0.013523,0.002678,0.000431,0.128693
24049000,0.0324,0.013523,0.002678,0.000431,0.041370
24050000,0.0324,0.013523,0.002678,0.000431,0.086148
24051000,0.0324,0.013523,0.002678,0.000431,0.075101
24052000,0.0324,0.013523,0.002678,0.000431,0.046541
24053000,0.0324,0.013523,0.002678,0.000431,0.068872
24054000,0.0324,0.013523,0.002678,0.000431,0.127518
24055000,0.0324,0.013523,0.002678,0.000431,0.099194
24056000,0.0324,0.013523,0.002678,0.000431,0.067696
24057000,0.0324,0.013523,0.002678,0.000431,0.087441
24058000,0.0324,0.013523,0.002678,0.000431,0.038432
24059000,0.0324,0.013523,0.002678,0.000431,0.059352
24060000,0.0324,0.013523,0.002678,0.000431,0.045483
24061000,0.0324,0.013523,0.002678,0.000431,0.102132
24062000,0.0324,0.013523,0.002678,0.000431,0.056884
24063000,0.0324,0.013523,0.002678,0.000431,0.166420
24064000,0.0324,0.013523,0.002678,0.000431,0.081330
24065000,0.0324,0.013523,0.002678,0.000431,0.045601
24066000,0.0324,0.013523,0.002678,0.000431,0.115295
24067000,0.0324,0.013523,0.002678,0.000431,0.093787
24068000,0.0324,0.013523,0.002678,0.000431,0.077216
24069000,0.0324,0.013523,0.002678,0.000431,0.061115
24070000,0.0324,0.013523,0.002678,0.000431,0.091084
24071000,0.0324,0.013523,0.002678,0.000431,0.061350
24072000,0.0324,0.013523,0.002678,0.000431,0.090497
24073000,0.0324,0.013523,0.002678,0.000431,0.058176
24074000,0.0324,0.013523,0.002678,0.000431,0.168183
24075000,0.0324,0.013523,0.002678,0.000431,0.098136
24076000,0.0324,0.013523,0.002678,0.000431,0.048539
24077000,0.0324,0.013523,0.002678,0.000431,0.040195
24078000,0.0324,0.013523,0.002678,0.000431,0.066521
24079000,0.0324,0.013523,0.002678,0.000431,0.088969
24080000,0.0324,0.013523,0.002678,0.000431,0.073103
24081000,0.0324,0.013523,0.002678,0.000431,0.143032
24082000,0.0324,0.013523,0.002678,0.000431,0.082035
24083000,0.0324,0.013523,0.002678,0.000431,0.082035
24084000,0.0324,0.013523,0.002678,0.000431,0.066286
24085000,0.0324,0.013523,0.002678,0.000431,0.114825
24086000,0.0324,0.013523,0.002678,0.000431,0.105305
24087000,0.0324,0.013523,0.002678,0.000431,0.114472
24088000,0.0324,0.013523,0.002678,0.000431,0.049949
24089000,0.0324,0.013523,0.002678,0.000431,0.084385
24090000,0.0324,0.013523,0.002678,0.000431,0.051830
24091000,0.0324,0.013523,0.002678,0.000431,0.039137
24092000,0.0324,0.013523,0.002678,0.000431,0.092377
24093000,0.0324,0.013523,0.002678,0.000431,0.102602
24094000,0.0324,0.013523,0.002678,0.000431,0.098019
24095000,0.0324,0.013523,0.002678,0.000431,0.059822
24096000,0.0324,0.013523,0.002678,0.000431,0.069929
24097000,0.0324,0.013523,0.002678,0.000431,0.058294
24098000,0.0324,0.013523,0.002678,0.000431,0.080272
24099000,0.0324,0.013523,0.002678,0.000431,0.065816
24100000,0.0324,0.013523,0.002678,0.000431,0.112357
24101000,0.0324,0.013523,0.002678,0.000431,0.092377
24102000,0.0324,0.013523,0.002678,0.000431,0.153257
24103000,0.0324,0.013523,0.002678,0.000431,0.070282
24104000,0.0324,0.013523,0.002678,0.000431,0.092965
24105000,0.0324,0.013523,0.002678,0.000431,0.144795
24106000,0.0324,0.013523,0.002678,0.000431,0.068401
24107000,0.0324,0.013523,0.002678,0.000431,0.066756
24108000,0.0324,0.013523,0.002678,0.000431,0.068166
24109000,0.0324,0.013523,0.002678,0.000431,0.050302
24110000,0.0324,0.013523,0.002678,0.000431,0.036081
24111000,0.0324,0.013523,0.002678,0.000431,0.046189
24112000,0.0324,0.013523,0.002678,0.000431,0.068166
24113000,0.0324,0.013523,0.002678,0.000431,0.137626
24114000,0.0324,0.013523,0.002678,0.000431,0.075806
24115000,0.0324,0.013523,0.002678,0.000431,0.083327
24116000,0.0324,0.013523,0.002678,0.000431,0.039842
24117000,0.0324,0.013523,0.002678,0.000431,0.054886
24118000,0.0324,0.013523,0.002678,0.000431,0.060292
24119000,0.0324,0.013523,0.002678,0.000431,0.055591
24120000,0.0324,0.013523,0.002678,0.000431,0.080507
24121000,0.0324,0.013523,0.002678,0.000431,0.038667
24122000,0.0324,0.013523,0.002678,0.000431,0.053358
24123000,0.0324,0.013523,0.002678,0.000431,0.038432
24124000,0.0324,0.013523,0.002678,0.000431,0.045718
24125000,0.0324,0.013523,0.002678,0.000431,0.074278
24126000,0.0324,0.013523,0.002678,0.000431,0.070634
24127000,0.0324,0.013523,0.002678,0.000431,0.044778
24128000,0.0324,0.013523,0.002678,0.000431,0.049597
24129000,0.0324,0.013523,0.002678,0.000431,0.051830
24130000,0.0324,0.013523,0.002678,0.000431,0.076276
24131000,0.0324,0.013523,0.002678,0.000431,0.083563
24132000,0.0324,0.013523,0.002678,0.000431,0.067814
24133000,0.0324,0.013523,0.002678,0.000431,0.089909
24134000,0.0324,0.013523,0.002678,0.000431,0.058764
24135000,0.0324,0.013523,0.002678,0.000431,0.045131
24136000,0.0324,0.013523,0.002678,0.000431,0.045954
24137000,0.0324,0.013523,0.002678,0.000431,0.094963
24138000,0.0324,0.013523,0.002678,0.000431,0.079332
24139000,0.0324,0.013523,0.002678,0.000431,0.055591
24140000,0.0324,0.013523,0.002678,0.000431,0.067109
24141000,0.0324,0.013523,0.002678,0.000431,0.057119
24142000,0.0324,0.013523,0.002678,0.000431,0.049949
24143000,0.0324,0.013523,0.002678,0.000431,0.162777
24144000,0.0324,0.013523,0.002678,0.000431,0.050185
24145000,0.0324,0.013523,0.002678,0.000431,0.081682
24146000,0.0324,0.013523,0.002678,0.000431,0.075218
24147000,0.0324,0.013523,0.002678,0.000431,0.131514
24148000,0.0324,0.013523,0.002678,0.000431,0.042193
24149000,0.0324,0.013523,0.002678,0.000431,0.090732
24150000,0.0324,0.013523,0.002678,0.000431,0.046306
24151000,0.0324,0.013523,0.002678,0.000431,0.071575
24152000,0.0324,0.013523,0.002678,0.000431,0.051007
24153000,0.0324,0.013523,0.002678,0.000431,0.059117
24154000,0.0324,0.013523,0.002678,0.000431,0.044073
24155000,0.0324,0.013523,0.002678,0.000431,0.092377
24156000,0.0324,0.013523,0.002678,0.000431,0.111299
24157000,0.0324,0.013523,0.002678,0.000431,0.095080
24158000,0.0324,0.013523,0.002678,0.000431,0.060174
24159000,0.0324,0.013523,0.002678,0.000431,0.061232
24160000,0.0324,0.013523,0.002678,0.000431,0.054651
24161000,0.0324,0.013523,0.002678,0.000431,0.045836
24162000,0.0324,0.013523,0.002678,0.000431,0.090732
24163000,0.0324,0.013523,0.002678,0.000431,0.052535
24164000,0.0324,0.013523,0.002678,0.000431,0.119409
24165000,0.0324,0.013523,0.002678,0.000431,0.103190
24166000,0.0324,0.013523,0.002678,0.000431,0.090732
24167000,0.0324,0.013523,0.002678,0.000431,0.066286
24168000,0.0324,0.013523,0.002678,0.000431,0.057236
24169000,0.0324,0.013523,0.002678,0.000431,0.104012
24170000,0.0324,0.013523,0.002678,0.000431,0.063583
24171000,0.0324,0.013523,0.002678,0.000431,0.056649
24172000,0.0324,0.013523,0.002678,0.000431,0.057824
24173000,0.0324,0.013523,0.002678,0.000431,0.072632
24174000,0.0324,0.013523,0.002678,0.000431,0.068519
24175000,0.0324,0.013523,0.002678,0.000431,0.102367
24176000,0.0324,0.013523,0.002678,0.000431,0.094493
24177000,0.0324,0.013523,0.002678,0.000431,0.103895
24178000,0.0324,0.013523,0.002678,0.000431,0.037256
24179000,0.0324,0.013523,0.002678,0.000431,0.045601
24180000,0.0324,0.013523,0.002678,0.000431,0.065463
24181000,0.0324,0.013523,0.002678,0.000431,0.076393
24182000,0.0324,0.013523,0.002678,0.000431,0.062878
24183000,0.0324,0.013523,0.002678,0.000431,0.068049
24184000,0.0324,0.013523,0.002678,0.000431,0.063583
24185000,0.0324,0.013523,0.002678,0.000431,0.082152
24186000,0.0324,0.013523,0.002678,0.000431,0.082740
24187000,0.0324,0.013523,0.002678,0.000431,0.063818
24188000,0.0324,0.013523,0.002678,0.000431,0.051830
24189000,0.0324,0.013523,0.002678,0.000431,0.092377
24190000,0.0324,0.013523,0.002678,0.000431,0.082035
24191000,0.0324,0.013523,0.002678,0.000431,0.038079
24192000,0.0324,0.013523,0.002678,0.000431,0.064758
24193000,0.0324,0.013523,0.002678,0.000431,0.067109
24194000,0.0324,0.013523,0.002678,0.000431,0.087794
24195000,0.0324,0.013523,0.002678,0.000431,0.077216
24196000,0.0324,0.013523,0.002678,0.000431,0.047716
24197000,0.0324,0.013523,0.002678,0.000431,0.051947
24198000,0.0324,0.013523,0.002678,0.000431,0.046541
24199000,0.0324,0.013523,0.002678,0.000431,0.066756
24200000,0.0324,0.013523,0.002678,0.000431,0.070164
24201000,0.0324,0.013523,0.002678,0.000431,0.064053
24202000,0.0324,0.013523,0.002678,0.000431,0.039489
24203000,0.0324,0.013523,0.002678,0.000431,0.061585
24204000,0.0324,0.013523,0.002678,0.000431,0.047129
24205000,0.0324,0.013523,0.002678,0.000431,0.044073
24206000,0.0324,0.013523,0.002678,0.000431,0.066756
24207000,0.0324,0.013523,0.002678,0.000431,0.047129
24208000,0.0324,0.013523,0.002678,0.000431,0.083445
24209000,0.0324,0.013523,0.002678,0.000431,0.079096
24210000,0.0324,0.013523,0.002678,0.000431,0.036551
24211000,0.0324,0.013523,0.002678,0.000431,0.037491
24212000,0.0324,0.013523,0.002678,0.000431,0.075923
24213000,0.0324,0.013523,0.002678,0.000431,0.061115
24214000,0.0324,0.013523,0.002678,0.000431,0.099194
24215000,0.0324,0.013523,0.002678,0.000431,0.055356
24216000,0.0324,0.013523,0.002678,0.000431,0.054416
24217000,0.0324,0.013523,0.002678,0.000431,0.039725
24218000,0.0324,0.013523,0.002678,0.000431,0.086618
24219000,0.0324,0.013523,0.002678,0.000431,0.080272
24220000,0.0324,0.013523,0.002678,0.000431,0.079096
24221000,0.0324,0.013523,0.002678,0.000431,0.188750
24222000,0.0324,0.013523,0.002678,0.000431,0.115648
24223000,0.0324,0.013523,0.002678,0.000431,0.041017
24224000,0.0324,0.013523,0.002678,0.000431,0.038549
24225000,0.0324,0.013523,0.002678,0.000431,0.094375
24226000,0.0324,0.013523,0.002678,0.000431,0.092612
24227000,0.0324,0.013523,0.002678,0.000431,0.076276
24228000,0.0324,0.013523,0.002678,0.000431,0.052888
24229000,0.0324,0.013523,0.002678,0.000431,0.093670
24230000,0.0324,0.013523,0.002678,0.000431,0.039607
24231000,0.0324,0.013523,0.002678,0.000431,0.075806
24232000,0.0324,0.013523,0.002678,0.000431,0.104835
24233000,0.0324,0.013523,0.002678,0.000431,0.052535
24234000,0.0324,0.013523,0.002678,0.000431,0.082740
24235000,0.0324,0.013523,0.002678,0.000431,0.053945
24236000,0.0324,0.013523,0.002678,0.000431,0.052418
24237000,0.0324,0.013523,0.002678,0.000431,0.072162
24238000,0.0324,0.013523,0.002678,0.000431,0.062995
24239000,0.0324,0.013523,0.002678,0.000431,0.099781
24240000,0.0324,0.013523,0.002678,0.000431,0.095198
24241000,0.0324,0.013523,0.002678,0.000431,0.064993
24242000,0.0324,0.013523,0.002678,0.000431,0.047246
24243000,0.0324,0.013523,0.002678,0.000431,0.035023
24244000,0.0324,0.013523,0.002678,0.000431,0.090967
24245000,0.0324,0.013523,0.002678,0.000431,0.124697
24246000,0.0324,0.013523,0.002678,0.000431,0.063818
24247000,0.0324,0.013523,0.002678,0.000431,0.067579
24248000,0.0324,0.013523,0.002678,0.000431,0.100016
24249000,0.0324,0.013523,0.002678,0.000431,0.041135
24250000,0.0324,0.013523,0.002678,0.000431,0.048774
24251000,0.0324,0.013523,0.002678,0.000431,0.049597
24252000,0.0324,0.013523,0.002678,0.000431,0.081330
24253000,0.0324,0.013523,0.002678,0.000431,0.066638
24254000,0.0324,0.013523,0.002678,0.000431,0.032790
24255000,0.0324,0.013523,0.002678,0.000431,0.043603
24256000,0.0324,0.013523,0.002678,0.000431,0.036669
24257000,0.0324,0.013523,0.002678,0.000431,0.040195
24258000,0.0324,0.013523,0.002678,0.000431,0.075806
24259000,0.0324,0.013523,0.002678,0.000431,0.101897
24260000,0.0324,0.013523,0.002678,0.000431,0.048657
24261000,0.0324,0.013523,0.002678,0.000431,0.040195
24262000,0.0324,0.013523,0.002678,0.000431,0.044543
24263000,0.0324,0.013523,0.002678,0.000431,0.031733
24264000,0.0324,0.013523,0.002678,0.000431,0.039137
24265000,0.0324,0.013523,0.002678,0.000431,0.070517
24266000,0.0324,0.013523,0.002678,0.000431,0.040312
24267000,0.0324,0.013523,0.002678,0.000431,0.041605
24268000,0.0324,0.013523,0.002678,0.000431,0.074043
24269000,0.0324,0.013523,0.002678,0.000431,0.043015
24270000,0.0324,0.013523,0.002678,0.000431,0.058764
24271000,0.0324,0.013523,0.002678,0.000431,0.083915
24272000,0.0324,0.013523,0.002678,0.000431,0.054416
24273000,0.0324,0.013523,0.002678,0.000431,0.051830
24274000,0.0324,0.013523,0.002678,0.000431,0.051712
24275000,0.0324,0.013523,0.002678,0.000431,0.028794
24276000,0.0324,0.013523,0.002678,0.000431,0.028912
24277000,0.0324,0.013523,0.002678,0.000431,0.075453
24278000,0.0324,0.013523,0.002678,0.000431,0.044426
24279000,0.0324,0.013523,0.002678,0.000431,0.039137
24280000,0.0324,0.013523,0.002678,0.000431,0.040195
24281000,0.0324,0.013523,0.002678,0.000431,0.040665
24282000,0.0324,0.013523,0.002678,0.000431,0.029382
24283000,0.0324,0.013523,0.002678,0.000431,0.029382
24284000,0.0324,0.013523,0.002678,0.000431,0.037256
24285000,0.0324,0.013523,0.002678,0.000431,0.050772
24286000,0.0324,0.013523,0.002678,0.000431,0.027854
24287000,0.0324,0.013523,0.002678,0.000431,0.042075
24288000,0.0324,0.013523,0.002678,0.000431,0.052653
24289000,0.0324,0.013523,0.002678,0.000431,0.037374
24290000,0.0324,0.013523,0.002678,0.000431,0.049127
24291000,0.0324,0.013523,0.002678,0.000431,0.039960
24292000,0.0324,0.013523,0.002678,0.000431,0.027384
24293000,0.0324,0.013523,0.002678,0.000431,0.028207
24294000,0.0324,0.013523,0.002678,0.000431,0.058059
24295000,0.0324,0.013523,0.002678,0.000431,0.029029
24296000,0.0324,0.013523,0.002678,0.000431,0.058176
24297000,0.0324,0.013523,0.002678,0.000431,0.059822
24298000,0.0324,0.013523,0.002678,0.000431,0.069929
24299000,0.0324,0.013523,0.002678,0.000431,0.032320
24300000,0.0324,0.013523,0.002678,0.000431,0.033496
24301000,0.0324,0.013523,0.002678,0.000431,0.025386
24302000,0.0324,0.013523,0.002678,0.000431,0.059587
24303000,0.0324,0.013523,0.002678,0.000431,0.107186
24304000,0.0324,0.013523,0.002678,0.000431,0.058059
24305000,0.0324,0.013523,0.002678,0.000431,0.041958
24306000,0.0324,0.013523,0.002678,0.000431,0.023506
24307000,0.0324,0.013523,0.002678,0.000431,0.031027
24308000,0.0324,0.013523,0.002678,0.000431,0.023036
24309000,0.0324,0.013523,0.002678,0.000431,0.190161
24310000,0.0324,0.013523,0.002678,0.000431,0.143149
24311000,0.0324,0.013523,0.002678,0.000431,0.063583
24312000,0.0324,0.013523,0.002678,0.000431,0.019275
24313000,0.0324,0.013523,0.002678,0.000431,0.027502
24314000,0.0324,0.013523,0.002678,0.000431,0.019745
24315000,0.0324,0.013523,0.002678,0.000431,0.019862
24316000,0.0324,0.013523,0.002678,0.000431,0.065581
24317000,0.0324,0.013523,0.002678,0.000431,0.021155
24318000,0.0324,0.013523,0.002678,0.000431,0.054651
24319000,0.0324,0.013523,0.002678,0.000431,0.035141
24320000,0.0324,0.013523,0.002678,0.000431,0.030675
24321000,0.0324,0.013523,0.002678,0.000431,0.035023
24322000,0.0324,0.013523,0.002678,0.000431,0.035611
24323000,0.0324,0.013523,0.002678,0.000431,0.260325
24324000,0.0324,0.013523,0.002678,0.000431,0.217075
24325000,0.0324,0.013523,0.002678,0.000431,0.037374
24326000,0.0324,0.013523,0.002678,0.000431,0.088381
24327000,0.0324,0.013523,0.002678,0.000431,0.021155
24328000,0.0324,0.013523,0.002678,0.000431,0.020685
24329000,0.0324,0.013523,0.002678,0.000431,0.084503
24330000,0.0324,0.013523,0.002678,0.000431,0.090967
24331000,0.0324,0.013523,0.002678,0.000431,0.031615
24332000,0.0324,0.013523,0.002678,0.000431,0.058882
24333000,0.0324,0.013523,0.002678,0.000431,0.221306
24334000,0.0324,0.013523,0.002678,0.000431,0.127048
24335000,0.0324,0.013523,0.002678,0.000431,0.054886
24336000,0.0324,0.013523,0.002678,0.000431,0.046071
24337000,0.0324,0.013523,0.002678,0.000431,0.240698
24338000,0.0324,0.013523,0.002678,0.000431,0.102602
24339000,0.0324,0.013523,0.002678,0.000431,0.017629
24340000,0.0324,0.013523,0.002678,0.000431,0.017629
24341000,0.0324,0.013523,0.002678,0.000431,0.032673
24342000,0.0324,0.013523,0.002678,0.000431,0.091790
24343000,0.0324,0.013523,0.002678,0.000431,0.020215
24344000,0.0324,0.013523,0.002678,0.000431,0.026679
24345000,0.0324,0.013523,0.002678,0.000431,0.022800
24346000,0.0324,0.013523,0.002678,0.000431,0.090027
24347000,0.0324,0.013523,0.002678,0.000431,0.015279
24348000,0.0324,0.013523,0.002678,0.000431,0.017277
24349000,0.0324,0.013523,0.002678,0.000431,0.042310
24350000,0.0324,0.013523,0.002678,0.000431,0.037139
24351000,0.0324,0.013523,0.002678,0.000431,0.022683
24352000,0.0324,0.013523,0.002678,0.000431,0.022565
24353000,0.0324,0.013523,0.002678,0.000431,0.015044
24354000,0.0324,0.013523,0.002678,0.000431,0.022213
24355000,0.0324,0.013523,0.002678,0.000431,0.021390
24356000,0.0324,0.013523,0.002678,0.000431,0.013633
24357000,0.0324,0.013523,0.002678,0.000431,0.029147
24358000,0.0324,0.013523,0.002678,0.000431,0.017864
24359000,0.0324,0.013523,0.002678,0.000431,0.025151
24360000,0.0324,0.013523,0.002678,0.000431,0.014103
24361000,0.0324,0.013523,0.002678,0.000431,0.055121
24362000,0.0324,0.013523,0.002678,0.000431,0.024211
24363000,0.0324,0.013523,0.002678,0.000431,0.027502
24364000,0.0324,0.013523,0.002678,0.000431,0.020450
24365000,0.0324,0.013523,0.002678,0.000431,0.023976
24366000,0.0324,0.013523,0.002678,0.000431,0.016689
24367000,0.0324,0.013523,0.002678,0.000431,0.016689
24368000,0.0324,0.013523,0.002678,0.000431,0.023623
24369000,0.0324,0.013523,0.002678,0.000431,0.015396
24370000,0.0324,0.013523,0.002678,0.000431,0.036904
24371000,0.0324,0.013523,0.002678,0.000431,0.014103
24372000,0.0324,0.013523,0.002678,0.000431,0.013046
24373000,0.0324,0.013523,0.002678,0.000431,0.009402
24374000,0.0324,0.013523,0.002678,0.000431,0.047011
24375000,0.0324,0.013523,0.002678,0.000431,0.009285
24376000,0.0324,0.013523,0.002678,0.000431,0.016219
24377000,0.0324,0.013523,0.002678,0.000431,0.045836
24378000,0.0324,0.013523,0.002678,0.000431,0.015749
24379000,0.0324,0.013523,0.002678,0.000431,0.008227
24380000,0.0324,0.013523,0.002678,0.000431,0.026326
24381000,0.0324,0.013523,0.002678,0.000431,0.036551
24382000,0.0324,0.013523,0.002678,0.000431,0.009402
24383000,0.0324,0.013523,0.002678,0.000431,0.035729
24384000,0.0324,0.013523,0.002678,0.000431,0.020685
24385000,0.0324,0.013523,0.002678,0.000431,0.016689
24386000,0.0324,0.013523,0.002678,0.000431,0.009755
24387000,0.0324,0.013523,0.002678,0.000431,0.009990
24388000,0.0324,0.013523,0.002678,0.000431,0.009402
24389000,0.0324,0.013523,0.002678,0.000431,0.028442
24390000,0.0324,0.013523,0.002678,0.000431,0.020450
24391000,0.0324,0.013523,0.002678,0.000431,0.009402
24392000,0.0324,0.013523,0.002678,0.000431,0.012811
24393000,0.0324,0.013523,0.002678,0.000431,0.047481
24394000,0.0324,0.013523,0.002678,0.000431,0.047246
24395000,0.0324,0.013523,0.002678,0.000431,0.008227
24396000,0.0324,0.013523,0.002678,0.000431,0.056884
24397000,0.0324,0.013523,0.002678,0.000431,0.022565
24398000,0.0324,0.013523,0.002678,0.000431,0.027737
24399000,0.0324,0.013523,0.002678,0.000431,0.034083
24400000,0.0324,0.013523,0.002678,0.000431,0.064405
24401000,0.0324,0.013523,0.002678,0.000431,0.008227
24402000,0.0324,0.013523,0.002678,0.000431,0.021743
24403000,0.0324,0.013523,0.002678,0.000431,0.059352
24404000,0.0324,0.013523,0.002678,0.000431,0.038314
24405000,0.0324,0.013523,0.002678,0.000431,0.008227
24406000,0.0324,0.013523,0.002678,0.000431,0.031850
24407000,0.0324,0.013523,0.002678,0.000431,0.013163
24408000,0.0324,0.013523,0.002678,0.000431,0.007052
24409000,0.0324,0.013523,0.002678,0.000431,0.070282
24410000,0.0324,0.013523,0.002678,0.000431,0.052183
24411000,0.0324,0.013523,0.002678,0.000431,0.026561
24412000,0.0324,0.013523,0.002678,0.000431,0.007052
24413000,0.0324,0.013523,0.002678,0.000431,0.007052
24414000,0.0324,0.013523,0.002678,0.000431,0.007052
24415000,0.0324,0.013523,0.002678,0.000431,0.010107
24416000,0.0324,0.013523,0.002678,0.000431,0.021860
24417000,0.0324,0.013523,0.002678,0.000431,0.029617
24418000,0.0324,0.013523,0.002678,0.000431,0.006817
24419000,0.0324,0.013523,0.002678,0.000431,0.010107
24420000,0.0324,0.013523,0.002678,0.000431,0.007052
24421000,0.0324,0.013523,0.002678,0.000431,0.007052
24422000,0.0324,0.013523,0.002678,0.000431,0.007052
24423000,0.0324,0.013523,0.002678,0.000431,0.040900
24424000,0.0324,0.013523,0.002678,0.000431,0.018334
24425000,0.0324,0.013523,0.002678,0.000431,0.007052
24426000,0.0324,0.013523,0.002678,0.000431,0.029617
24427000,0.0324,0.013523,0.002678,0.000431,0.007052
24428000,0.0324,0.013523,0.002678,0.000431,0.007052
24429000,0.0324,0.013523,0.002678,0.000431,0.120466
24430000,0.0324,0.013523,0.002678,0.000431,0.057706
24431000,0.0324,0.013523,0.002678,0.000431,0.007052
24432000,0.0324,0.013523,0.002678,0.000431,0.014103
24433000,0.0324,0.013523,0.002678,0.000431,0.006934
24434000,0.0324,0.013523,0.002678,0.000431,0.006817
24435000,0.0324,0.013523,0.002678,0.000431,0.006934
24436000,0.0324,0.013523,0.002678,0.000431,0.021978
24437000,0.0324,0.013523,0.002678,0.000431,0.006934
24438000,0.0324,0.013523,0.002678,0.000431,0.017982
24439000,0.0324,0.013523,0.002678,0.000431,0.036199
24440000,0.0324,0.013523,0.002678,0.000431,0.013398
24441000,0.0324,0.013523,0.002678,0.000431,0.005876
24442000,0.0324,0.013523,0.002678,0.000431,0.056296
24443000,0.0324,0.013523,0.002678,0.000431,0.032085
24444000,0.0324,0.013523,0.002678,0.000431,0.005876
24445000,0.0324,0.013523,0.002678,0.000431,0.029970
24446000,0.0324,0.013523,0.002678,0.000431,0.014691
24447000,0.0324,0.013523,0.002678,0.000431,0.005876
24448000,0.0324,0.013523,0.002678,0.000431,0.005876
24449000,0.0324,0.013523,0.002678,0.000431,0.066051
24450000,0.0324,0.013523,0.002678,0.000431,0.005876
24451000,0.0324,0.013523,0.002678,0.000431,0.005876
24452000,0.0324,0.013523,0.002678,0.000431,0.010107
24453000,0.0324,0.013523,0.002678,0.000431,0.005876
24454000,0.0324,0.013523,0.002678,0.000431,0.005876
24455000,0.0324,0.013523,0.002678,0.000431,0.005876
24456000,0.0324,0.013523,0.002678,0.000431,0.020685
24457000,0.0324,0.013523,0.002678,0.000431,0.005876
24458000,0.0324,0.013523,0.002678,0.000431,0.020920
24459000,0.0324,0.013523,0.002678,0.000431,0.005876
24460000,0.0324,0.013523,0.002678,0.000431,0.005876
24461000,0.0324,0.013523,0.002678,0.000431,0.005876
24462000,0.0324,0.013523,0.002678,0.000431,0.128811
24463000,0.0324,0.013523,0.002678,0.000431,0.005876
24464000,0.0324,0.013523,0.002678,0.000431,0.005759
24465000,0.0324,0.013523,0.002678,0.000431,0.009990
24466000,0.0324,0.013523,0.002678,0.000431,0.005876
24467000,0.0324,0.013523,0.002678,0.000431,0.005876
24468000,0.0324,0.013523,0.002678,0.000431,0.034788
24469000,0.0324,0.013523,0.002678,0.000431,0.106010
24470000,0.0324,0.013523,0.002678,0.000431,0.005876
24471000,0.0324,0.013523,0.002678,0.000431,0.012811
24472000,0.0324,0.013523,0.002678,0.000431,0.004701
24473000,0.0324,0.013523,0.002678,0.000431,0.004584
24474000,0.0324,0.013523,0.002678,0.000431,0.023388
24475000,0.0324,0.013523,0.002678,0.000431,0.019040
24476000,0.0324,0.013523,0.002678,0.000431,0.004584
24477000,0.0324,0.013523,0.002678,0.000431,0.004584
24478000,0.0324,0.013523,0.002678,0.000431,0.064876
24479000,0.0324,0.013523,0.002678,0.000431,0.079684
24480000,0.0324,0.013523,0.002678,0.000431,0.004701
24481000,0.0324,0.013523,0.002678,0.000431,0.008815
24482000,0.0324,0.013523,0.002678,0.000431,0.063583
24483000,0.0324,0.013523,0.002678,0.000431,0.004701
24484000,0.0324,0.013523,0.002678,0.000431,0.004701
24485000,0.0324,0.013523,0.002678,0.000431,0.027267
24486000,0.0324,0.013523,0.002678,0.000431,0.004701
24487000,0.0324,0.013523,0.002678,0.000431,0.004701
24488000,0.0324,0.013523,0.002678,0.000431,0.012223
24489000,0.0324,0.013523,0.002678,0.000431,0.004701
24490000,0.0324,0.013523,0.002678,0.000431,0.004701
24491000,0.0324,0.013523,0.002678,0.000431,0.007757
24492000,0.0324,0.013523,0.002678,0.000431,0.027267
24493000,0.0324,0.013523,0.002678,0.000431,0.004701
24494000,0.0324,0.013523,0.002678,0.000431,0.012223
24495000,0.0324,0.013523,0.002678,0.000431,0.019745
24496000,0.0324,0.013523,0.002678,0.000431,0.004701
24497000,0.0324,0.013523,0.002678,0.000431,0.004701
24498000,0.0324,0.013523,0.002678,0.000431,0.060409
24499000,0.0324,0.013523,0.002678,0.000431,0.004701
24500000,0.0324,0.013523,0.002678,0.000431,0.004701
24501000,0.0324,0.013523,0.002678,0.000431,0.013046
24502000,0.0324,0.013523,0.002678,0.000431,0.101662
24503000,0.0324,0.013523,0.002678,0.000431,0.004701
24504000,0.0324,0.013523,0.002678,0.000431,0.012693
24505000,0.0324,0.013523,0.002678,0.000431,0.114002
24506000,0.0324,0.013523,0.002678,0.000431,0.004701
24507000,0.0324,0.013523,0.002678,0.000431,0.004701
24508000,0.0324,0.013523,0.002678,0.000431,0.084268
24509000,0.0324,0.013523,0.002678,0.000431,0.074983
24510000,0.0324,0.013523,0.002678,0.000431,0.009050
24511000,0.0324,0.013523,0.002678,0.000431,0.148673
24512000,0.0324,0.013523,0.002678,0.000431,0.103777
24513000,0.0324,0.013523,0.002678,0.000431,0.004701
24514000,0.0324,0.013523,0.002678,0.000431,0.004701
24515000,0.0324,0.013523,0.002678,0.000431,0.049832
24516000,0.0324,0.013523,0.002678,0.000431,0.027031
24517000,0.0324,0.013523,0.002678,0.000431,0.015514
24518000,0.0324,0.013523,0.002678,0.000431,0.039019
24519000,0.0324,0.013523,0.002678,0.000431,0.004701
24520000,0.0324,0.013523,0.002678,0.000431,0.004701
24521000,0.0324,0.013523,0.002678,0.000431,0.004701
24522000,0.0324,0.013523,0.002678,0.000431,0.102720
24523000,0.0324,0.013523,0.002678,0.000431,0.041958
24524000,0.0324,0.013523,0.002678,0.000431,0.019627
24525000,0.0324,0.013523,0.002678,0.000431,0.004701
24526000,0.0324,0.013523,0.002678,0.000431,0.004701
24527000,0.0324,0.013523,0.002678,0.000431,0.054298
24528000,0.0324,0.013523,0.002678,0.000431,0.008462
24529000,0.0324,0.013523,0.002678,0.000431,0.091202
24530000,0.0324,0.013523,0.002678,0.000431,0.004701
24531000,0.0324,0.013523,0.002678,0.000431,0.004701
24532000,0.0324,0.013523,0.002678,0.000431,0.004701
24533000,0.0324,0.013523,0.002678,0.000431,0.012223
24534000,0.0324,0.013523,0.002678,0.000431,0.004701
24535000,0.0324,0.013523,0.002678,0.000431,0.023741
24536000,0.0324,0.013523,0.002678,0.000431,0.068401
24537000,0.0324,0.013523,0.002678,0.000431,0.004701
24538000,0.0324,0.013523,0.002678,0.000431,0.004701
24539000,0.0324,0.013523,0.002678,0.000431,0.008462
24540000,0.0324,0.013523,0.002678,0.000431,0.008462
24541000,0.0324,0.013523,0.002678,0.000431,0.004701
24542000,0.0324,0.013523,0.002678,0.000431,0.066286
24543000,0.0324,0.013523,0.002678,0.000431,0.010578
24544000,0.0324,0.013523,0.002678,0.000431,0.004701
24545000,0.0324,0.013523,0.002678,0.000431,0.004701
24546000,0.0324,0.013523,0.002678,0.000431,0.049832
24547000,0.0324,0.013523,0.002678,0.000431,0.004701
24548000,0.0324,0.013523,0.002678,0.000431,0.034553
24549000,0.0324,0.013523,0.002678,0.000431,0.027267
24550000,0.0324,0.013523,0.002678,0.000431,0.004701
24551000,0.0324,0.013523,0.002678,0.000431,0.004701
24552000,0.0324,0.013523,0.002678,0.000431,0.017042
24553000,0.0324,0.013523,0.002678,0.000431,0.007404
24554000,0.0324,0.013523,0.002678,0.000431,0.004701
24555000,0.0324,0.013523,0.002678,0.000431,0.072280
24556000,0.0324,0.013523,0.002678,0.000431,0.004584
24557000,0.0324,0.013523,0.002678,0.000431,0.004701
24558000,0.0324,0.013523,0.002678,0.000431,0.004701
24559000,0.0324,0.013523,0.002678,0.000431,0.057119
24560000,0.0324,0.013523,0.002678,0.000431,0.004701
24561000,0.0324,0.013523,0.002678,0.000431,0.022213
24562000,0.0324,0.013523,0.002678,0.000431,0.129869
24563000,0.0324,0.013523,0.002678,0.000431,0.004701
24564000,0.0324,0.013523,0.002678,0.000431,0.004701
24565000,0.0324,0.013523,0.002678,0.000431,0.032908
24566000,0.0324,0.013523,0.002678,0.000431,0.006582
24567000,0.0324,0.013523,0.002678,0.000431,0.012223
24568000,0.0324,0.013523,0.002678,0.000431,0.019745
24569000,0.0324,0.013523,0.002678,0.000431,0.004701
24570000,0.0324,0.013523,0.002678,0.000431,0.004701
24571000,0.0324,0.013523,0.002678,0.000431,0.004701
24572000,0.0324,0.013523,0.002678,0.000431,0.042310
24573000,0.0324,0.013523,0.002678,0.000431,0.004701
24574000,0.0324,0.013523,0.002678,0.000431,0.027267
24575000,0.0324,0.013523,0.002678,0.000431,0.087206
24576000,0.0324,0.013523,0.002678,0.000431,0.004701
24577000,0.0324,0.013523,0.002678,0.000431,0.004701
24578000,0.0324,0.013523,0.002678,0.000431,0.012458
24579000,0.0324,0.013523,0.002678,0.000431,0.004701
24580000,0.0324,0.013523,0.002678,0.000431,0.004701
24581000,0.0324,0.013523,0.002678,0.000431,0.030557
24582000,0.0324,0.013523,0.002678,0.000431,0.004701
24583000,0.0324,0.013523,0.002678,0.000431,0.004701
24584000,0.0324,0.013523,0.002678,0.000431,0.008462
24585000,0.0324,0.013523,0.002678,0.000431,0.008462
24586000,0.0324,0.013523,0.002678,0.000431,0.004701
24587000,0.0324,0.013523,0.002678,0.000431,0.004701
24588000,0.0324,0.013523,0.002678,0.000431,0.012105
24589000,0.0324,0.013523,0.002678,0.000431,0.004584
24590000,0.0324,0.013523,0.002678,0.000431,0.004701
24591000,0.0324,0.013523,0.002678,0.000431,0.042428
24592000,0.0324,0.013523,0.002678,0.000431,0.022683
24593000,0.0324,0.013523,0.002678,0.000431,0.004701
24594000,0.0324,0.013523,0.002678,0.000431,0.019745
24595000,0.0324,0.013523,0.002678,0.000431,0.011870
24596000,0.0324,0.013523,0.002678,0.000431,0.004584
24597000,0.0324,0.013523,0.002678,0.000431,0.023506
24598000,0.0324,0.013523,0.002678,0.000431,0.057589
24599000,0.0324,0.013523,0.002678,0.000431,0.004701
24600000,0.0324,0.013523,0.002678,0.000431,0.042310
24601000,0.0324,0.013523,0.002678,0.000431,0.042310
24602000,0.0324,0.013523,0.002678,0.000431,0.004701
24603000,0.0324,0.013523,0.002678,0.000431,0.004701
24604000,0.0324,0.013523,0.002678,0.000431,0.068636
24605000,0.0324,0.013523,0.002678,0.000431,0.015984
24606000,0.0324,0.013523,0.002678,0.000431,0.004701
24607000,0.0324,0.013523,0.002678,0.000431,0.127753
24608000,0.0324,0.013523,0.002678,0.000431,0.144912
24609000,0.0324,0.013523,0.002678,0.000431,0.004701
24610000,0.0324,0.013523,0.002678,0.000431,0.046071
24611000,0.0324,0.013523,0.002678,0.000431,0.183932
24612000,0.0324,0.013523,0.002678,0.000431,0.008815
24613000,0.0324,0.013523,0.002678,0.000431,0.004701
24614000,0.0324,0.013523,0.002678,0.000431,0.032085
24615000,0.0324,0.013523,0.002678,0.000431,0.014926
24616000,0.0324,0.013523,0.002678,0.000431,0.004466
24617000,0.0324,0.013523,0.002678,0.000431,0.117293
24618000,0.0324,0.013523,0.002678,0.000431,0.012223
24619000,0.0324,0.013523,0.002678,0.000431,0.004701
24620000,0.0324,0.013523,0.002678,0.000431,0.061585
24621000,0.0324,0.013523,0.002678,0.000431,0.144207
24622000,0.0324,0.013523,0.002678,0.000431,0.007169
24623000,0.0324,0.013523,0.002678,0.000431,0.004701
24624000,0.0324,0.013523,0.002678,0.000431,0.068989
24625000,0.0324,0.013523,0.002678,0.000431,0.008345
24626000,0.0324,0.013523,0.002678,0.000431,0.004701
24627000,0.0324,0.013523,0.002678,0.000431,0.004701
24628000,0.0324,0.013523,0.002678,0.000431,0.027267
24629000,0.0324,0.013523,0.002678,0.000431,0.004701
24630000,0.0324,0.013523,0.002678,0.000431,0.019862
24631000,0.0324,0.013523,0.002678,0.000431,0.019627
24632000,0.0324,0.013523,0.002678,0.000431,0.004701
24633000,0.0324,0.013523,0.002678,0.000431,0.029382
24634000,0.0324,0.013523,0.002678,0.000431,0.036904
24635000,0.0324,0.013523,0.002678,0.000431,0.004701
24636000,0.0324,0.013523,0.002678,0.000431,0.004701
24637000,0.0324,0.013523,0.002678,0.000431,0.034788
24638000,0.0324,0.013523,0.002678,0.000431,0.004701
24639000,0.0324,0.013523,0.002678,0.000431,0.004701
24640000,0.0324,0.013523,0.002678,0.000431,0.034788
24641000,0.0324,0.013523,0.002678,0.000431,0.027267
24642000,0.0324,0.013523,0.002678,0.000431,0.004701
24643000,0.0324,0.013523,0.002678,0.000431,0.030675
24644000,0.0324,0.013523,0.002678,0.000431,0.011635
24645000,0.0324,0.013523,0.002678,0.000431,0.004701
24646000,0.0324,0.013523,0.002678,0.000431,0.019040
24647000,0.0324,0.013523,0.002678,0.000431,0.080624
24648000,0.0324,0.013523,0.002678,0.000431,0.004701
24649000,0.0324,0.013523,0.002678,0.000431,0.004701
24650000,0.0324,0.013523,0.002678,0.000431,0.019392
24651000,0.0324,0.013523,0.002678,0.000431,0.004584
24652000,0.0324,0.013523,0.002678,0.000431,0.004701
24653000,0.0324,0.013523,0.002678,0.000431,0.064876
24654000,0.0324,0.013523,0.002678,0.000431,0.004819
24655000,0.0324,0.013523,0.002678,0.000431,0.004584
24656000,0.0324,0.013523,0.002678,0.000431,0.020215
24657000,0.0324,0.013523,0.002678,0.000431,0.004466
24658000,0.0324,0.013523,0.002678,0.000431,0.004701
24659000,0.0324,0.013523,0.002678,0.000431,0.019745
24660000,0.0324,0.013523,0.002678,0.000431,0.008462
24661000,0.0324,0.013523,0.002678,0.000431,0.008462
24662000,0.0324,0.013523,0.002678,0.000431,0.036081
24663000,0.0324,0.013523,0.002678,0.000431,0.161366
24664000,0.0324,0.013523,0.002678,0.000431,0.004701
24665000,0.0324,0.013523,0.002678,0.000431,0.015514
24666000,0.0324,0.013523,0.002678,0.000431,0.095668
24667000,0.0324,0.013523,0.002678,0.000431,0.004701
24668000,0.0324,0.013523,0.002678,0.000431,0.004701
24669000,0.0324,0.013523,0.002678,0.000431,0.150319
24670000,0.0324,0.013523,0.002678,0.000431,0.043603
24671000,0.0324,0.013523,0.002678,0.000431,0.004701
24672000,0.0324,0.013523,0.002678,0.000431,0.068401
24673000,0.0324,0.013523,0.002678,0.000431,0.080624
24674000,0.0324,0.013523,0.002678,0.000431,0.004701
24675000,0.0324,0.013523,0.002678,0.000431,0.004701
24676000,0.0324,0.013523,0.002678,0.000431,0.012223
24677000,0.0324,0.013523,0.002678,0.000431,0.004701
24678000,0.0324,0.013523,0.002678,0.000431,0.049832
24679000,0.0324,0.013523,0.002678,0.000431,0.027502
24680000,0.0324,0.013523,0.002678,0.000431,0.004701
24681000,0.0324,0.013523,0.002678,0.000431,0.004466
24682000,0.0324,0.013523,0.002678,0.000431,0.056178
24683000,0.0324,0.013523,0.002678,0.000431,0.057589
24684000,0.0324,0.013523,0.002678,0.000431,0.025504
24685000,0.0324,0.013523,0.002678,0.000431,0.044073
24686000,0.0324,0.013523,0.002678,0.000431,0.060409
24687000,0.0324,0.013523,0.002678,0.000431,0.091672
24688000,0.0324,0.013523,0.002678,0.000431,0.004701
24689000,0.0324,0.013523,0.002678,0.000431,0.004701
24690000,0.0324,0.013523,0.002678,0.000431,0.004701
24691000,0.0324,0.013523,0.002678,0.000431,0.052653
24692000,0.0324,0.013523,0.002678,0.000431,0.108479
24693000,0.0324,0.013523,0.002678,0.000431,0.097196
24694000,0.0324,0.013523,0.002678,0.000431,0.030792
24695000,0.0324,0.013523,0.002678,0.000431,0.004701
24696000,0.0324,0.013523,0.002678,0.000431,0.004701
24697000,0.0324,0.013523,0.002678,0.000431,0.004701
24698000,0.0324,0.013523,0.002678,0.000431,0.070517
24699000,0.0324,0.013523,0.002678,0.000431,0.058999
24700000,0.0324,0.013523,0.002678,0.000431,0.099311
24701000,0.0324,0.013523,0.002678,0.000431,0.007639
24702000,0.0324,0.013523,0.002678,0.000431,0.004701
24703000,0.0324,0.013523,0.002678,0.000431,0.004701
24704000,0.0324,0.013523,0.002678,0.000431,0.004701
24705000,0.0324,0.013523,0.002678,0.000431,0.019745
24706000,0.0324,0.013523,0.002678,0.000431,0.027267
24707000,0.0324,0.013523,0.002678,0.000431,0.004701
24708000,0.0324,0.013523,0.002678,0.000431,0.008580
24709000,0.0324,0.013523,0.002678,0.000431,0.008462
24710000,0.0324,0.013523,0.002678,0.000431,0.019627
24711000,0.0324,0.013523,0.002678,0.000431,0.012223
24712000,0.0324,0.013523,0.002678,0.000431,0.004701
24713000,0.0324,0.013523,0.002678,0.000431,0.019745
24714000,0.0324,0.013523,0.002678,0.000431,0.004701
24715000,0.0324,0.013523,0.002678,0.000431,0.004701
24716000,0.0324,0.013523,0.002678,0.000431,0.008462
24717000,0.0324,0.013523,0.002678,0.000431,0.015984
24718000,0.0324,0.013523,0.002678,0.000431,0.013398
24719000,0.0324,0.013523,0.002678,0.000431,0.026091
24720000,0.0324,0.013523,0.002678,0.000431,0.004701
24721000,0.0324,0.013523,0.002678,0.000431,0.004466
24722000,0.0324,0.013523,0.002678,0.000431,0.004701
24723000,0.0324,0.013523,0.002678,0.000431,0.004701
24724000,0.0324,0.013523,0.002678,0.000431,0.004701
24725000,0.0324,0.013523,0.002678,0.000431,0.012223
24726000,0.0324,0.013523,0.002678,0.000431,0.042310
24727000,0.0324,0.013523,0.002678,0.000431,0.004701
24728000,0.0324,0.013523,0.002678,0.000431,0.004701
24729000,0.0324,0.013523,0.002678,0.000431,0.011400
24730000,0.0324,0.013523,0.002678,0.000431,0.005524
24731000,0.0324,0.013523,0.002678,0.000431,0.004701
24732000,0.0324,0.013523,0.002678,0.000431,0.049832
24733000,0.0324,0.013523,0.002678,0.000431,0.019745
24734000,0.0324,0.013523,0.002678,0.000431,0.004584
24735000,0.0324,0.013523,0.002678,0.000431,0.004349
24736000,0.0324,0.013523,0.002678,0.000431,0.004701
24737000,0.0324,0.013523,0.002678,0.000431,0.004701
24738000,0.0324,0.013523,0.002678,0.000431,0.004701
24739000,0.0324,0.013523,0.002678,0.000431,0.012223
24740000,0.0324,0.013523,0.002678,0.000431,0.012223
24741000,0.0324,0.013523,0.002678,0.000431,0.004701
24742000,0.0324,0.013523,0.002678,0.000431,0.037962
24743000,0.0324,0.013523,0.002678,0.000431,0.004819
24744000,0.0324,0.013523,0.002678,0.000431,0.004701
24745000,0.0324,0.013523,0.002678,0.000431,0.004701
24746000,0.0324,0.013523,0.002678,0.000431,0.110006
24747000,0.0324,0.013523,0.002678,0.000431,0.004701
24748000,0.0324,0.013523,0.002678,0.000431,0.004584
24749000,0.0324,0.013523,0.002678,0.000431,0.004466
24750000,0.0324,0.013523,0.002678,0.000431,0.012105
24751000,0.0324,0.013523,0.002678,0.000431,0.009990
24752000,0.0324,0.013523,0.002678,0.000431,0.063348
24753000,0.0324,0.013523,0.002678,0.000431,0.023506
24754000,0.0324,0.013523,0.002678,0.000431,0.004701
24755000,0.0324,0.013523,0.002678,0.000431,0.004701
24756000,0.0324,0.013523,0.002678,0.000431,0.034788
24757000,0.0324,0.013523,0.002678,0.000431,0.004701
24758000,0.0324,0.013523,0.002678,0.000431,0.004701
24759000,0.0324,0.013523,0.002678,0.000431,0.027267
24760000,0.0324,0.013523,0.002678,0.000431,0.004701
24761000,0.0324,0.013523,0.002678,0.000431,0.004466
24762000,0.0324,0.013523,0.002678,0.000431,0.004701
24763000,0.0324,0.013523,0.002678,0.000431,0.012223
24764000,0.0324,0.013523,0.002678,0.000431,0.004701
24765000,0.0324,0.013523,0.002678,0.000431,0.008462
24766000,0.0324,0.013523,0.002678,0.000431,0.023506
24767000,0.0324,0.013523,0.002678,0.000431,0.004701
24768000,0.0324,0.013523,0.002678,0.000431,0.004701
24769000,0.0324,0.013523,0.002678,0.000431,0.076746
24770000,0.0324,0.013523,0.002678,0.000431,0.007639
24771000,0.0324,0.013523,0.002678,0.000431,0.012223
24772000,0.0324,0.013523,0.002678,0.000431,0.049832
24773000,0.0324,0.013523,0.002678,0.000431,0.004701
24774000,0.0324,0.013523,0.002678,0.000431,0.004701
24775000,0.0324,0.013523,0.002678,0.000431,0.004584
24776000,0.0324,0.013523,0.002678,0.000431,0.027149
24777000,0.0324,0.013523,0.002678,0.000431,0.025856
24778000,0.0324,0.013523,0.002678,0.000431,0.028677
24779000,0.0324,0.013523,0.002678,0.000431,0.034788
24780000,0.0324,0.013523,0.002678,0.000431,0.004701
24781000,0.0324,0.013523,0.002678,0.000431,0.004701
24782000,0.0324,0.013523,0.002678,0.000431,0.004701
24783000,0.0324,0.013523,0.002678,0.000431,0.004701
24784000,0.0324,0.013523,0.002678,0.000431,0.056531
24785000,0.0324,0.013523,0.002678,0.000431,0.042898
24786000,0.0324,0.013523,0.002678,0.000431,0.004701
24787000,0.0324,0.013523,0.002678,0.000431,0.004701
24788000,0.0324,0.013523,0.002678,0.000431,0.004584
24789000,0.0324,0.013523,0.002678,0.000431,0.004584
24790000,0.0324,0.013523,0.002678,0.000431,0.004701
24791000,0.0324,0.013523,0.002678,0.000431,0.042310
24792000,0.0324,0.013523,0.002678,0.000431,0.004701
24793000,0.0324,0.013523,0.002678,0.000431,0.004701
24794000,0.0324,0.013523,0.002678,0.000431,0.004701
24795000,0.0324,0.013523,0.002678,0.000431,0.012223
24796000,0.0324,0.013523,0.002678,0.000431,0.004701
24797000,0.0324,0.013523,0.002678,0.000431,0.008462
24798000,0.0324,0.013523,0.002678,0.000431,0.008462
24799000,0.0324,0.013523,0.002678,0.000431,0.004701
24800000,0.0324,0.013523,0.002678,0.000431,0.004701
24801000,0.0324,0.013523,0.002678,0.000431,0.004701
24802000,0.0324,0.013523,0.002678,0.000431,0.004701
24803000,0.0324,0.013523,0.002678,0.000431,0.004701
24804000,0.0324,0.013523,0.002678,0.000431,0.106128
24805000,0.0324,0.013523,0.002678,0.000431,0.008345
24806000,0.0324,0.013523,0.002678,0.000431,0.004701
24807000,0.0324,0.013523,0.002678,0.000431,0.004701
24808000,0.0324,0.013523,0.002678,0.000431,0.057354
24809000,0.0324,0.013523,0.002678,0.000431,0.004701
24810000,0.0324,0.013523,0.002678,0.000431,0.023506
24811000,0.0324,0.013523,0.002678,0.000431,0.029382
24812000,0.0324,0.013523,0.002678,0.000431,0.006347
24813000,0.0324,0.013523,0.002678,0.000431,0.004701
24814000,0.0324,0.013523,0.002678,0.000431,0.019745
24815000,0.0324,0.013523,0.002678,0.000431,0.004584
24816000,0.0324,0.013523,0.002678,0.000431,0.004584
24817000,0.0324,0.013523,0.002678,0.000431,0.057354
24818000,0.0324,0.013523,0.002678,0.000431,0.117528
24819000,0.0324,0.013523,0.002678,0.000431,0.004701
24820000,0.0324,0.013523,0.002678,0.000431,0.004701
24821000,0.0324,0.013523,0.002678,0.000431,0.019745
24822000,0.0324,0.013523,0.002678,0.000431,0.004584
24823000,0.0324,0.013523,0.002678,0.000431,0.004584
24824000,0.0324,0.013523,0.002678,0.000431,0.004701
24825000,0.0324,0.013523,0.002678,0.000431,0.004701
24826000,0.0324,0.013523,0.002678,0.000431,0.004701
24827000,0.0324,0.013523,0.002678,0.000431,0.056766
24828000,0.0324,0.013523,0.002678,0.000431,0.005289
24829000,0.0324,0.013523,0.002678,0.000431,0.004466
24830000,0.0324,0.013523,0.002678,0.000431,0.042310
24831000,0.0324,0.013523,0.002678,0.000431,0.004701
24832000,0.0324,0.013523,0.002678,0.000431,0.004701
24833000,0.0324,0.013523,0.002678,0.000431,0.007169
24834000,0.0324,0.013523,0.002678,0.000431,0.009755
24835000,0.0324,0.013523,0.002678,0.000431,0.004701
24836000,0.0324,0.013523,0.002678,0.000431,0.042310
24837000,0.0324,0.013523,0.002678,0.000431,0.019627
24838000,0.0324,0.013523,0.002678,0.000431,0.004349
24839000,0.0324,0.013523,0.002678,0.000431,0.004701
24840000,0.0324,0.013523,0.002678,0.000431,0.004701
24841000,0.0324,0.013523,0.002678,0.000431,0.004701
24842000,0.0324,0.013523,0.002678,0.000431,0.016336
24843000,0.0324,0.013523,0.002678,0.000431,0.023153
24844000,0.0324,0.013523,0.002678,0.000431,0.019745
24845000,0.0324,0.013523,0.002678,0.000431,0.019745
24846000,0.0324,0.013523,0.002678,0.000431,0.022918
24847000,0.0324,0.013523,0.002678,0.000431,0.054180
24848000,0.0324,0.013523,0.002678,0.000431,0.004701
24849000,0.0324,0.013523,0.002678,0.000431,0.004701
24850000,0.0324,0.013523,0.002678,0.000431,0.004701
24851000,0.0324,0.013523,0.002678,0.000431,0.004701
24852000,0.0324,0.013523,0.002678,0.000431,0.004701
24853000,0.0324,0.013523,0.002678,0.000431,0.072397
24854000,0.0324,0.013523,0.002678,0.000431,0.004701
24855000,0.0324,0.013523,0.002678,0.000431,0.042898
24856000,0.0324,0.013523,0.002678,0.000431,0.056414
24857000,0.0324,0.013523,0.002678,0.000431,0.016101
24858000,0.0324,0.013523,0.002678,0.000431,0.061115
24859000,0.0324,0.013523,0.002678,0.000431,0.011048
24860000,0.0324,0.013523,0.002678,0.000431,0.004701
24861000,0.0324,0.013523,0.002678,0.000431,0.004701
24862000,0.0324,0.013523,0.002678,0.000431,0.004584
24863000,0.0324,0.013523,0.002678,0.000431,0.064758
24864000,0.0324,0.013523,0.002678,0.000431,0.053593
24865000,0.0324,0.013523,0.002678,0.000431,0.015984
24866000,0.0324,0.013523,0.002678,0.000431,0.004701
24867000,0.0324,0.013523,0.002678,0.000431,0.057354
24868000,0.0324,0.013523,0.002678,0.000431,0.024681
24869000,0.0324,0.013523,0.002678,0.000431,0.014809
24870000,0.0324,0.013523,0.002678,0.000431,0.008462
24871000,0.0324,0.013523,0.002678,0.000431,0.015984
24872000,0.0324,0.013523,0.002678,0.000431,0.004584
24873000,0.0324,0.013523,0.002678,0.000431,0.019627
24874000,0.0324,0.013523,0.002678,0.000431,0.004701
24875000,0.0324,0.013523,0.002678,0.000431,0.004701
24876000,0.0324,0.013523,0.002678,0.000431,0.027149
24877000,0.0324,0.013523,0.002678,0.000431,0.004466
24878000,0.0324,0.013523,0.002678,0.000431,0.004584
24879000,0.0324,0.013523,0.002678,0.000431,0.004701
24880000,0.0324,0.013523,0.002678,0.000431,0.057354
24881000,0.0324,0.013523,0.002678,0.000431,0.004701
24882000,0.0324,0.013523,0.002678,0.000431,0.004701
24883000,0.0324,0.013523,0.002678,0.000431,0.049832
24884000,0.0324,0.013523,0.002678,0.000431,0.049832
24885000,0.0324,0.013523,0.002678,0.000431,0.004701
24886000,0.0324,0.013523,0.002678,0.000431,0.026091
24887000,0.0324,0.013523,0.002678,0.000431,0.004701
24888000,0.0324,0.013523,0.002678,0.000431,0.004701
24889000,0.0324,0.013523,0.002678,0.000431,0.021038
24890000,0.0324,0.013523,0.002678,0.000431,0.086148
24891000,0.0324,0.013523,0.002678,0.000431,0.004701
24892000,0.0324,0.013523,0.002678,0.000431,0.004701
24893000,0.0324,0.013523,0.002678,0.000431,0.010225
24894000,0.0324,0.013523,0.002678,0.000431,0.015396
24895000,0.0324,0.013523,0.002678,0.000431,0.004701
24896000,0.0324,0.013523,0.002678,0.000431,0.149143
24897000,0.0324,0.013523,0.002678,0.000431,0.071575
24898000,0.0324,0.013523,0.002678,0.000431,0.032908
24899000,0.0324,0.013523,0.002678,0.000431,0.004701
24900000,0.0324,0.013523,0.002678,0.000431,0.027267
24901000,0.0324,0.013523,0.002678,0.000431,0.004701
24902000,0.0324,0.013523,0.002678,0.000431,0.004701
24903000,0.0324,0.013523,0.002678,0.000431,0.004466
24904000,0.0324,0.013523,0.002678,0.000431,0.033613
24905000,0.0324,0.013523,0.002678,0.000431,0.049832
24906000,0.0324,0.013523,0.002678,0.000431,0.042310
24907000,0.0324,0.013523,0.002678,0.000431,0.004584
24908000,0.0324,0.013523,0.002678,0.000431,0.004584
24909000,0.0324,0.013523,0.002678,0.000431,0.004466
24910000,0.0324,0.013523,0.002678,0.000431,0.004701
24911000,0.0324,0.013523,0.002678,0.000431,0.029970
24912000,0.0324,0.013523,0.002678,0.000431,0.041135
24913000,0.0324,0.013523,0.002678,0.000431,0.069929
24914000,0.0324,0.013523,0.002678,0.000431,0.004701
24915000,0.0324,0.013523,0.002678,0.000431,0.004701
24916000,0.0324,0.013523,0.002678,0.000431,0.004701
24917000,0.0324,0.013523,0.002678,0.000431,0.011988
24918000,0.0324,0.013523,0.002678,0.000431,0.021508
24919000,0.0324,0.013523,0.002678,0.000431,0.033966
24920000,0.0324,0.013523,0.002678,0.000431,0.004701
24921000,0.0324,0.013523,0.002678,0.000431,0.004701
24922000,0.0324,0.013523,0.002678,0.000431,0.004701
24923000,0.0324,0.013523,0.002678,0.000431,0.004701
24924000,0.0324,0.013523,0.002678,0.000431,0.027267
24925000,0.0324,0.013523,0.002678,0.000431,0.045483
24926000,0.0324,0.013523,0.002678,0.000431,0.045483
24927000,0.0324,0.013523,0.002678,0.000431,0.004701
24928000,0.0324,0.013523,0.002678,0.000431,0.004701
24929000,0.0324,0.013523,0.002678,0.000431,0.004701
24930000,0.0324,0.013523,0.002678,0.000431,0.019275
24931000,0.0324,0.013523,0.002678,0.000431,0.043603
24932000,0.0324,0.013523,0.002678,0.000431,0.026444
24933000,0.0324,0.013523,0.002678,0.000431,0.072397
24934000,0.0324,0.013523,0.002678,0.000431,0.004701
24935000,0.0324,0.013523,0.002678,0.000431,0.004701
24936000,0.0324,0.013523,0.002678,0.000431,0.004701
24937000,0.0324,0.013523,0.002678,0.000431,0.012223
24938000,0.0324,0.013523,0.002678,0.000431,0.004701
24939000,0.0324,0.013523,0.002678,0.000431,0.035023
24940000,0.0324,0.013523,0.002678,0.000431,0.004701
24941000,0.0324,0.013523,0.002678,0.000431,0.004701
24942000,0.0324,0.013523,0.002678,0.000431,0.004466
24943000,0.0324,0.013523,0.002678,0.000431,0.004466
24944000,0.0324,0.013523,0.002678,0.000431,0.047246
24945000,0.0324,0.013523,0.002678,0.000431,0.014809
24946000,0.0324,0.013523,0.002678,0.000431,0.028442
24947000,0.0324,0.013523,0.002678,0.000431,0.004701
24948000,0.0324,0.013523,0.002678,0.000431,0.004701
24949000,0.0324,0.013523,0.002678,0.000431,0.004701
24950000,0.0324,0.013523,0.002678,0.000431,0.004701
24951000,0.0324,0.013523,0.002678,0.000431,0.027267
24952000,0.0324,0.013523,0.002678,0.000431,0.004701
24953000,0.0324,0.013523,0.002678,0.000431,0.004701
24954000,0.0324,0.013523,0.002678,0.000431,0.004701
24955000,0.0324,0.013523,0.002678,0.000431,0.004701
24956000,0.0324,0.013523,0.002678,0.000431,0.004701
24957000,0.0324,0.013523,0.002678,0.000431,0.057119
24958000,0.0324,0.013523,0.002678,0.000431,0.004701
24959000,0.0324,0.013523,0.002678,0.000431,0.004701
24960000,0.0324,0.013523,0.002678,0.000431,0.004701
24961000,0.0324,0.013523,0.002678,0.000431,0.004701
24962000,0.0324,0.013523,0.002678,0.000431,0.004701
24963000,0.0324,0.013523,0.002678,0.000431,0.031027
24964000,0.0324,0.013523,0.002678,0.000431,0.031262
24965000,0.0324,0.013523,0.002678,0.000431,0.033613
24966000,0.0324,0.013523,0.002678,0.000431,0.004701
24967000,0.0324,0.013523,0.002678,0.000431,0.004701
24968000,0.0324,0.013523,0.002678,0.000431,0.004701
24969000,0.0324,0.013523,0.002678,0.000431,0.004701
24970000,0.0324,0.013523,0.002678,0.000431,0.072632
24971000,0.0324,0.013523,0.002678,0.000431,0.004701
24972000,0.0324,0.013523,0.002678,0.000431,0.011048
24973000,0.0324,0.013523,0.002678,0.000431,0.031027
24974000,0.0324,0.013523,0.002678,0.000431,0.008462
24975000,0.0324,0.013523,0.002678,0.000431,0.009050
24976000,0.0324,0.013523,0.002678,0.000431,0.027737
24977000,0.0324,0.013523,0.002678,0.000431,0.008815
24978000,0.0324,0.013523,0.002678,0.000431,0.004701
24979000,0.0324,0.013523,0.002678,0.000431,0.004701
24980000,0.0324,0.013523,0.002678,0.000431,0.004701
24981000,0.0324,0.013523,0.002678,0.000431,0.004701
24982000,0.0324,0.013523,0.002678,0.000431,0.012576
24983000,0.0324,0.013523,0.002678,0.000431,0.027384
24984000,0.0324,0.013523,0.002678,0.000431,0.004701
24985000,0.0324,0.013523,0.002678,0.000431,0.005641
24986000,0.0324,0.013523,0.002678,0.000431,0.004701
24987000,0.0324,0.013523,0.002678,0.000431,0.004701
24988000,0.0324,0.013523,0.002678,0.000431,0.020920
24989000,0.0324,0.013523,0.002678,0.000431,0.046659
24990000,0.0324,0.013523,0.002678,0.000431,0.007874
24991000,0.0324,0.013523,0.002678,0.000431,0.004701
24992000,0.0324,0.013523,0.002678,0.000431,0.034788
24993000,0.0324,0.013523,0.002678,0.000431,0.004701
24994000,0.0324,0.013523,0.002678,0.000431,0.004701
24995000,0.0324,0.013523,0.002678,0.000431,0.034788
24996000,0.0324,0.013523,0.002678,0.000431,0.004701
24997000,0.0324,0.013523,0.002678,0.000431,0.004584
24998000,0.0324,0.013523,0.002678,0.000431,0.004584
24999000,0.0324,0.013523,0.002678,0.000431,0.004701
