Cycle,Area(mm^2),PeakDynamic(W),SubthresholdLeakage(W),GateLeakage(W),RunTimeDynamic(W)
2000000,0.0324,0.013523,0.002678,0.000431,0.091554
2001000,0.0324,0.013523,0.002678,0.000431,0.049832
2002000,0.0324,0.013523,0.002678,0.000431,0.040547
2003000,0.0324,0.013523,0.002678,0.000431,0.241873
2004000,0.0324,0.013523,0.002678,0.000431,0.104600
2005000,0.0324,0.013523,0.002678,0.000431,0.076041
2006000,0.0324,0.013523,0.002678,0.000431,0.087794
2007000,0.0324,0.013523,0.002678,0.000431,0.046894
2008000,0.0324,0.013523,0.002678,0.000431,0.068519
2009000,0.0324,0.013523,0.002678,0.000431,0.140799
2010000,0.0324,0.013523,0.002678,0.000431,0.200738
2011000,0.0324,0.013523,0.002678,0.000431,0.104600
2012000,0.0324,0.013523,0.002678,0.000431,0.165245
2013000,0.0324,0.013523,0.002678,0.000431,0.106481
2014000,0.0324,0.013523,0.002678,0.000431,0.050537
2015000,0.0324,0.013523,0.002678,0.000431,0.034788
2016000,0.0324,0.013523,0.002678,0.000431,0.095433
2017000,0.0324,0.013523,0.002678,0.000431,0.070752
2018000,0.0324,0.013523,0.002678,0.000431,0.161249
2019000,0.0324,0.013523,0.002678,0.000431,0.181699
2020000,0.0324,0.013523,0.002678,0.000431,0.119996
2021000,0.0324,0.013523,0.002678,0.000431,0.116000
2022000,0.0324,0.013523,0.002678,0.000431,0.057354
2023000,0.0324,0.013523,0.002678,0.000431,0.144912
2024000,0.0324,0.013523,0.002678,0.000431,0.139976
2025000,0.0324,0.013523,0.002678,0.000431,0.139741
2026000,0.0324,0.013523,0.002678,0.000431,0.192864
2027000,0.0324,0.013523,0.002678,0.000431,0.083915
2028000,0.0324,0.013523,0.002678,0.000431,0.039019
2029000,0.0324,0.013523,0.002678,0.000431,0.139271
2030000,0.0324,0.013523,0.002678,0.000431,0.067579
2031000,0.0324,0.013523,0.002678,0.000431,0.142562
2032000,0.0324,0.013523,0.002678,0.000431,0.074513
2033000,0.0324,0.013523,0.002678,0.000431,0.082857
2034000,0.0324,0.013523,0.002678,0.000431,0.091437
2035000,0.0324,0.013523,0.002678,0.000431,0.097313
2036000,0.0324,0.013523,0.002678,0.000431,0.191101
2037000,0.0324,0.013523,0.002678,0.000431,0.090967
2038000,0.0324,0.013523,0.002678,0.000431,0.272783
2039000,0.0324,0.013523,0.002678,0.000431,0.155490
2040000,0.0324,0.013523,0.002678,0.000431,0.035258
2041000,0.0324,0.013523,0.002678,0.000431,0.049949
2042000,0.0324,0.013523,0.002678,0.000431,0.288649
2043000,0.0324,0.013523,0.002678,0.000431,0.158428
2044000,0.0324,0.013523,0.002678,0.000431,0.172766
2045000,0.0324,0.013523,0.002678,0.000431,0.168770
2046000,0.0324,0.013523,0.002678,0.000431,0.062878
2047000,0.0324,0.013523,0.002678,0.000431,0.065111
2048000,0.0324,0.013523,0.002678,0.000431,0.140799
2049000,0.0324,0.013523,0.002678,0.000431,0.106363
2050000,0.0324,0.013523,0.002678,0.000431,0.141857
2051000,0.0324,0.013523,0.002678,0.000431,0.247867
2052000,0.0324,0.013523,0.002678,0.000431,0.084385
2053000,0.0324,0.013523,0.002678,0.000431,0.061232
2054000,0.0324,0.013523,0.002678,0.000431,0.057119
2055000,0.0324,0.013523,0.002678,0.000431,0.215782
2056000,0.0324,0.013523,0.002678,0.000431,0.072867
2057000,0.0324,0.013523,0.002678,0.000431,0.110476
2058000,0.0324,0.013523,0.002678,0.000431,0.117998
2059000,0.0324,0.013523,0.002678,0.000431,0.042545
2060000,0.0324,0.013523,0.002678,0.000431,0.057824
2061000,0.0324,0.013523,0.002678,0.000431,0.072045
2062000,0.0324,0.013523,0.002678,0.000431,0.217310
2063000,0.0324,0.013523,0.002678,0.000431,0.086383
2064000,0.0324,0.013523,0.002678,0.000431,0.169006
2065000,0.0324,0.013523,0.002678,0.000431,0.285006
2066000,0.0324,0.013523,0.002678,0.000431,0.057706
2067000,0.0324,0.013523,0.002678,0.000431,0.071692
2068000,0.0324,0.013523,0.002678,0.000431,0.180171
2069000,0.0324,0.013523,0.002678,0.000431,0.190866
2070000,0.0324,0.013523,0.002678,0.000431,0.139036
2071000,0.0324,0.013523,0.002678,0.000431,0.237995
2072000,0.0324,0.013523,0.002678,0.000431,0.060762
2073000,0.0324,0.013523,0.002678,0.000431,0.049949
2074000,0.0324,0.013523,0.002678,0.000431,0.131514
2075000,0.0324,0.013523,0.002678,0.000431,0.144912
2076000,0.0324,0.013523,0.002678,0.000431,0.246927
2077000,0.0324,0.013523,0.002678,0.000431,0.264086
2078000,0.0324,0.013523,0.002678,0.000431,0.170886
2079000,0.0324,0.013523,0.002678,0.000431,0.087441
2080000,0.0324,0.013523,0.002678,0.000431,0.106128
2081000,0.0324,0.013523,0.002678,0.000431,0.216487
2082000,0.0324,0.013523,0.002678,0.000431,0.075806
2083000,0.0324,0.013523,0.002678,0.000431,0.076393
2084000,0.0324,0.013523,0.002678,0.000431,0.106128
2085000,0.0324,0.013523,0.002678,0.000431,0.087911
2086000,0.0324,0.013523,0.002678,0.000431,0.117176
2087000,0.0324,0.013523,0.002678,0.000431,0.199798
2088000,0.0324,0.013523,0.002678,0.000431,0.226124
2089000,0.0324,0.013523,0.002678,0.000431,0.129634
2090000,0.0324,0.013523,0.002678,0.000431,0.093200
2091000,0.0324,0.013523,0.002678,0.000431,0.061585
2092000,0.0324,0.013523,0.002678,0.000431,0.065346
2093000,0.0324,0.013523,0.002678,0.000431,0.072397
2094000,0.0324,0.013523,0.002678,0.000431,0.159368
2095000,0.0324,0.013523,0.002678,0.000431,0.257504
2096000,0.0324,0.013523,0.002678,0.000431,0.200268
2097000,0.0324,0.013523,0.002678,0.000431,0.197447
2098000,0.0324,0.013523,0.002678,0.000431,0.068519
2099000,0.0324,0.013523,0.002678,0.000431,0.057824
2100000,0.0324,0.013523,0.002678,0.000431,0.109419
2101000,0.0324,0.013523,0.002678,0.000431,0.111652
2102000,0.0324,0.013523,0.002678,0.000431,0.161484
2103000,0.0324,0.013523,0.002678,0.000431,0.198975
2104000,0.0324,0.013523,0.002678,0.000431,0.097783
2105000,0.0324,0.013523,0.002678,0.000431,0.065111
2106000,0.0324,0.013523,0.002678,0.000431,0.140094
2107000,0.0324,0.013523,0.002678,0.000431,0.189455
2108000,0.0324,0.013523,0.002678,0.000431,0.214136
2109000,0.0324,0.013523,0.002678,0.000431,0.083680
2110000,0.0324,0.013523,0.002678,0.000431,0.225889
2111000,0.0324,0.013523,0.002678,0.000431,0.050302
2112000,0.0324,0.013523,0.002678,0.000431,0.070164
2113000,0.0324,0.013523,0.002678,0.000431,0.086971
2114000,0.0324,0.013523,0.002678,0.000431,0.083563
2115000,0.0324,0.013523,0.002678,0.000431,0.177232
2116000,0.0324,0.013523,0.002678,0.000431,0.182521
2117000,0.0324,0.013523,0.002678,0.000431,0.106363
2118000,0.0324,0.013523,0.002678,0.000431,0.070282
2119000,0.0324,0.013523,0.002678,0.000431,0.129046
2120000,0.0324,0.013523,0.002678,0.000431,0.195332
2121000,0.0324,0.013523,0.002678,0.000431,0.114002
2122000,0.0324,0.013523,0.002678,0.000431,0.118939
2123000,0.0324,0.013523,0.002678,0.000431,0.267612
2124000,0.0324,0.013523,0.002678,0.000431,0.120114
2125000,0.0324,0.013523,0.002678,0.000431,0.099664
2126000,0.0324,0.013523,0.002678,0.000431,0.190748
2127000,0.0324,0.013523,0.002678,0.000431,0.172179
2128000,0.0324,0.013523,0.002678,0.000431,0.241991
2129000,0.0324,0.013523,0.002678,0.000431,0.106598
2130000,0.0324,0.013523,0.002678,0.000431,0.080272
2131000,0.0324,0.013523,0.002678,0.000431,0.057824
2132000,0.0324,0.013523,0.002678,0.000431,0.095433
2133000,0.0324,0.013523,0.002678,0.000431,0.141974
2134000,0.0324,0.013523,0.002678,0.000431,0.091790
2135000,0.0324,0.013523,0.002678,0.000431,0.221306
2136000,0.0324,0.013523,0.002678,0.000431,0.177703
2137000,0.0324,0.013523,0.002678,0.000431,0.061350
2138000,0.0324,0.013523,0.002678,0.000431,0.046424
2139000,0.0324,0.013523,0.002678,0.000431,0.123640
2140000,0.0324,0.013523,0.002678,0.000431,0.105423
2141000,0.0324,0.013523,0.002678,0.000431,0.186047
2142000,0.0324,0.013523,0.002678,0.000431,0.210023
2143000,0.0324,0.013523,0.002678,0.000431,0.042428
2144000,0.0324,0.013523,0.002678,0.000431,0.076511
2145000,0.0324,0.013523,0.002678,0.000431,0.108831
2146000,0.0324,0.013523,0.002678,0.000431,0.147615
2147000,0.0324,0.013523,0.002678,0.000431,0.134452
2148000,0.0324,0.013523,0.002678,0.000431,0.156430
2149000,0.0324,0.013523,0.002678,0.000431,0.105893
2150000,0.0324,0.013523,0.002678,0.000431,0.036434
2151000,0.0324,0.013523,0.002678,0.000431,0.077921
2152000,0.0324,0.013523,0.002678,0.000431,0.130456
2153000,0.0324,0.013523,0.002678,0.000431,0.174177
2154000,0.0324,0.013523,0.002678,0.000431,0.126108
2155000,0.0324,0.013523,0.002678,0.000431,0.117293
2156000,0.0324,0.013523,0.002678,0.000431,0.035141
2157000,0.0324,0.013523,0.002678,0.000431,0.106363
2158000,0.0324,0.013523,0.002678,0.000431,0.102720
2159000,0.0324,0.013523,0.002678,0.000431,0.168300
2160000,0.0324,0.013523,0.002678,0.000431,0.228945
2161000,0.0324,0.013523,0.002678,0.000431,0.125520
2162000,0.0324,0.013523,0.002678,0.000431,0.091319
2163000,0.0324,0.013523,0.002678,0.000431,0.053828
2164000,0.0324,0.013523,0.002678,0.000431,0.102485
2165000,0.0324,0.013523,0.002678,0.000431,0.155960
2166000,0.0324,0.013523,0.002678,0.000431,0.106010
2167000,0.0324,0.013523,0.002678,0.000431,0.173237
2168000,0.0324,0.013523,0.002678,0.000431,0.199680
2169000,0.0324,0.013523,0.002678,0.000431,0.093670
2170000,0.0324,0.013523,0.002678,0.000431,0.102602
2171000,0.0324,0.013523,0.002678,0.000431,0.110124
2172000,0.0324,0.013523,0.002678,0.000431,0.142679
2173000,0.0324,0.013523,0.002678,0.000431,0.143737
2174000,0.0324,0.013523,0.002678,0.000431,0.102720
2175000,0.0324,0.013523,0.002678,0.000431,0.153844
2176000,0.0324,0.013523,0.002678,0.000431,0.112474
2177000,0.0324,0.013523,0.002678,0.000431,0.063113
2178000,0.0324,0.013523,0.002678,0.000431,0.149966
2179000,0.0324,0.013523,0.002678,0.000431,0.213784
2180000,0.0324,0.013523,0.002678,0.000431,0.132924
2181000,0.0324,0.013523,0.002678,0.000431,0.129046
2182000,0.0324,0.013523,0.002678,0.000431,0.046189
2183000,0.0324,0.013523,0.002678,0.000431,0.042428
2184000,0.0324,0.013523,0.002678,0.000431,0.072162
2185000,0.0324,0.013523,0.002678,0.000431,0.244459
2186000,0.0324,0.013523,0.002678,0.000431,0.142209
2187000,0.0324,0.013523,0.002678,0.000431,0.080389
2188000,0.0324,0.013523,0.002678,0.000431,0.072632
2189000,0.0324,0.013523,0.002678,0.000431,0.126695
2190000,0.0324,0.013523,0.002678,0.000431,0.169241
2191000,0.0324,0.013523,0.002678,0.000431,0.127988
2192000,0.0324,0.013523,0.002678,0.000431,0.142209
2193000,0.0324,0.013523,0.002678,0.000431,0.190513
2194000,0.0324,0.013523,0.002678,0.000431,0.144795
2195000,0.0324,0.013523,0.002678,0.000431,0.070282
2196000,0.0324,0.013523,0.002678,0.000431,0.080389
2197000,0.0324,0.013523,0.002678,0.000431,0.179583
2198000,0.0324,0.013523,0.002678,0.000431,0.221188
2199000,0.0324,0.013523,0.002678,0.000431,0.143149
2200000,0.0324,0.013523,0.002678,0.000431,0.173001
2201000,0.0324,0.013523,0.002678,0.000431,0.138918
2202000,0.0324,0.013523,0.002678,0.000431,0.073808
2203000,0.0324,0.013523,0.002678,0.000431,0.064170
2204000,0.0324,0.013523,0.002678,0.000431,0.125520
2205000,0.0324,0.013523,0.002678,0.000431,0.112122
2206000,0.0324,0.013523,0.002678,0.000431,0.131044
2207000,0.0324,0.013523,0.002678,0.000431,0.294878
2208000,0.0324,0.013523,0.002678,0.000431,0.053710
2209000,0.0324,0.013523,0.002678,0.000431,0.117881
2210000,0.0324,0.013523,0.002678,0.000431,0.106481
2211000,0.0324,0.013523,0.002678,0.000431,0.127988
2212000,0.0324,0.013523,0.002678,0.000431,0.232118
2213000,0.0324,0.013523,0.002678,0.000431,0.155607
2214000,0.0324,0.013523,0.002678,0.000431,0.117998
2215000,0.0324,0.013523,0.002678,0.000431,0.052653
2216000,0.0324,0.013523,0.002678,0.000431,0.092377
2217000,0.0324,0.013523,0.002678,0.000431,0.278189
2218000,0.0324,0.013523,0.002678,0.000431,0.261265
2219000,0.0324,0.013523,0.002678,0.000431,0.149261
2220000,0.0324,0.013523,0.002678,0.000431,0.166067
2221000,0.0324,0.013523,0.002678,0.000431,0.073220
2222000,0.0324,0.013523,0.002678,0.000431,0.222951
2223000,0.0324,0.013523,0.002678,0.000431,0.196155
2224000,0.0324,0.013523,0.002678,0.000431,0.128458
2225000,0.0324,0.013523,0.002678,0.000431,0.127048
2226000,0.0324,0.013523,0.002678,0.000431,0.170298
2227000,0.0324,0.013523,0.002678,0.000431,0.127283
2228000,0.0324,0.013523,0.002678,0.000431,0.105658
2229000,0.0324,0.013523,0.002678,0.000431,0.116353
2230000,0.0324,0.013523,0.002678,0.000431,0.197565
2231000,0.0324,0.013523,0.002678,0.000431,0.110476
2232000,0.0324,0.013523,0.002678,0.000431,0.056531
2233000,0.0324,0.013523,0.002678,0.000431,0.160073
2234000,0.0324,0.013523,0.002678,0.000431,0.061232
2235000,0.0324,0.013523,0.002678,0.000431,0.072867
2236000,0.0324,0.013523,0.002678,0.000431,0.237407
2237000,0.0324,0.013523,0.002678,0.000431,0.105305
2238000,0.0324,0.013523,0.002678,0.000431,0.186752
2239000,0.0324,0.013523,0.002678,0.000431,0.158663
2240000,0.0324,0.013523,0.002678,0.000431,0.104365
2241000,0.0324,0.013523,0.002678,0.000431,0.058059
2242000,0.0324,0.013523,0.002678,0.000431,0.088616
2243000,0.0324,0.013523,0.002678,0.000431,0.294056
2244000,0.0324,0.013523,0.002678,0.000431,0.151964
2245000,0.0324,0.013523,0.002678,0.000431,0.173354
2246000,0.0324,0.013523,0.002678,0.000431,0.129634
2247000,0.0324,0.013523,0.002678,0.000431,0.039489
2248000,0.0324,0.013523,0.002678,0.000431,0.113650
2249000,0.0324,0.013523,0.002678,0.000431,0.076393
2250000,0.0324,0.013523,0.002678,0.000431,0.115060
2251000,0.0324,0.013523,0.002678,0.000431,0.220130
2252000,0.0324,0.013523,0.002678,0.000431,0.202266
2253000,0.0324,0.013523,0.002678,0.000431,0.102485
2254000,0.0324,0.013523,0.002678,0.000431,0.151964
2255000,0.0324,0.013523,0.002678,0.000431,0.057706
2256000,0.0324,0.013523,0.002678,0.000431,0.295348
2257000,0.0324,0.013523,0.002678,0.000431,0.161836
2258000,0.0324,0.013523,0.002678,0.000431,0.092377
2259000,0.0324,0.013523,0.002678,0.000431,0.180758
2260000,0.0324,0.013523,0.002678,0.000431,0.038667
2261000,0.0324,0.013523,0.002678,0.000431,0.134452
2262000,0.0324,0.013523,0.002678,0.000431,0.300049
2263000,0.0324,0.013523,0.002678,0.000431,0.210375
2264000,0.0324,0.013523,0.002678,0.000431,0.168770
2265000,0.0324,0.013523,0.002678,0.000431,0.208260
2266000,0.0324,0.013523,0.002678,0.000431,0.035141
2267000,0.0324,0.013523,0.002678,0.000431,0.102837
2268000,0.0324,0.013523,0.002678,0.000431,0.112004
2269000,0.0324,0.013523,0.002678,0.000431,0.195214
2270000,0.0324,0.013523,0.002678,0.000431,0.264673
2271000,0.0324,0.013523,0.002678,0.000431,0.107186
2272000,0.0324,0.013523,0.002678,0.000431,0.173942
2273000,0.0324,0.013523,0.002678,0.000431,0.062760
2274000,0.0324,0.013523,0.002678,0.000431,0.164775
2275000,0.0324,0.013523,0.002678,0.000431,0.281127
2276000,0.0324,0.013523,0.002678,0.000431,0.240228
2277000,0.0324,0.013523,0.002678,0.000431,0.118468
2278000,0.0324,0.013523,0.002678,0.000431,0.193099
2279000,0.0324,0.013523,0.002678,0.000431,0.057236
2280000,0.0324,0.013523,0.002678,0.000431,0.076981
2281000,0.0324,0.013523,0.002678,0.000431,0.107186
2282000,0.0324,0.013523,0.002678,0.000431,0.169593
2283000,0.0324,0.013523,0.002678,0.000431,0.042428
2284000,0.0324,0.013523,0.002678,0.000431,0.082857
2285000,0.0324,0.013523,0.002678,0.000431,0.062172
2286000,0.0324,0.013523,0.002678,0.000431,0.084033
2287000,0.0324,0.013523,0.002678,0.000431,0.069107
2288000,0.0324,0.013523,0.002678,0.000431,0.174294
2289000,0.0324,0.013523,0.002678,0.000431,0.191453
2290000,0.0324,0.013523,0.002678,0.000431,0.106128
2291000,0.0324,0.013523,0.002678,0.000431,0.367276
2292000,0.0324,0.013523,0.002678,0.000431,0.147850
2293000,0.0324,0.013523,0.002678,0.000431,0.144795
2294000,0.0324,0.013523,0.002678,0.000431,0.244341
2295000,0.0324,0.013523,0.002678,0.000431,0.180641
2296000,0.0324,0.013523,0.002678,0.000431,0.292998
2297000,0.0324,0.013523,0.002678,0.000431,0.129986
2298000,0.0324,0.013523,0.002678,0.000431,0.089909
2299000,0.0324,0.013523,0.002678,0.000431,0.072867
2300000,0.0324,0.013523,0.002678,0.000431,0.038902
2301000,0.0324,0.013523,0.002678,0.000431,0.173119
2302000,0.0324,0.013523,0.002678,0.000431,0.143619
2303000,0.0324,0.013523,0.002678,0.000431,0.093317
2304000,0.0324,0.013523,0.002678,0.000431,0.183461
2305000,0.0324,0.013523,0.002678,0.000431,0.050890
2306000,0.0324,0.013523,0.002678,0.000431,0.222951
2307000,0.0324,0.013523,0.002678,0.000431,0.282420
2308000,0.0324,0.013523,0.002678,0.000431,0.111769
2309000,0.0324,0.013523,0.002678,0.000431,0.211903
2310000,0.0324,0.013523,0.002678,0.000431,0.228475
2311000,0.0324,0.013523,0.002678,0.000431,0.222011
2312000,0.0324,0.013523,0.002678,0.000431,0.082622
2313000,0.0324,0.013523,0.002678,0.000431,0.079919
2314000,0.0324,0.013523,0.002678,0.000431,0.226712
2315000,0.0324,0.013523,0.002678,0.000431,0.375855
2316000,0.0324,0.013523,0.002678,0.000431,0.096373
2317000,0.0324,0.013523,0.002678,0.000431,0.260913
2318000,0.0324,0.013523,0.002678,0.000431,0.068754
2319000,0.0324,0.013523,0.002678,0.000431,0.237760
2320000,0.0324,0.013523,0.002678,0.000431,0.428743
2321000,0.0324,0.013523,0.002678,0.000431,0.111652
2322000,0.0324,0.013523,0.002678,0.000431,0.163012
2323000,0.0324,0.013523,0.002678,0.000431,0.082035
2324000,0.0324,0.013523,0.002678,0.000431,0.101074
2325000,0.0324,0.013523,0.002678,0.000431,0.042545
2326000,0.0324,0.013523,0.002678,0.000431,0.132807
2327000,0.0324,0.013523,0.002678,0.000431,0.204382
2328000,0.0324,0.013523,0.002678,0.000431,0.239757
2329000,0.0324,0.013523,0.002678,0.000431,0.052535
2330000,0.0324,0.013523,0.002678,0.000431,0.290765
2331000,0.0324,0.013523,0.002678,0.000431,0.117058
2332000,0.0324,0.013523,0.002678,0.000431,0.058529
2333000,0.0324,0.013523,0.002678,0.000431,0.102955
2334000,0.0324,0.013523,0.002678,0.000431,0.102250
2335000,0.0324,0.013523,0.002678,0.000431,0.273606
2336000,0.0324,0.013523,0.002678,0.000431,0.131632
2337000,0.0324,0.013523,0.002678,0.000431,0.054063
2338000,0.0324,0.013523,0.002678,0.000431,0.098606
2339000,0.0324,0.013523,0.002678,0.000431,0.121994
2340000,0.0324,0.013523,0.002678,0.000431,0.192746
2341000,0.0324,0.013523,0.002678,0.000431,0.344475
2342000,0.0324,0.013523,0.002678,0.000431,0.157723
2343000,0.0324,0.013523,0.002678,0.000431,0.167948
2344000,0.0324,0.013523,0.002678,0.000431,0.035376
2345000,0.0324,0.013523,0.002678,0.000431,0.074630
2346000,0.0324,0.013523,0.002678,0.000431,0.220483
2347000,0.0324,0.013523,0.002678,0.000431,0.153727
2348000,0.0324,0.013523,0.002678,0.000431,0.202619
2349000,0.0324,0.013523,0.002678,0.000431,0.193451
2350000,0.0324,0.013523,0.002678,0.000431,0.123405
2351000,0.0324,0.013523,0.002678,0.000431,0.112004
2352000,0.0324,0.013523,0.002678,0.000431,0.068636
2353000,0.0324,0.013523,0.002678,0.000431,0.054298
2354000,0.0324,0.013523,0.002678,0.000431,0.276544
2355000,0.0324,0.013523,0.002678,0.000431,0.076511
2356000,0.0324,0.013523,0.002678,0.000431,0.132337
2357000,0.0324,0.013523,0.002678,0.000431,0.038902
2358000,0.0324,0.013523,0.002678,0.000431,0.104130
2359000,0.0324,0.013523,0.002678,0.000431,0.274428
2360000,0.0324,0.013523,0.002678,0.000431,0.127871
2361000,0.0324,0.013523,0.002678,0.000431,0.071105
2362000,0.0324,0.013523,0.002678,0.000431,0.132102
2363000,0.0324,0.013523,0.002678,0.000431,0.082387
2364000,0.0324,0.013523,0.002678,0.000431,0.099194
2365000,0.0324,0.013523,0.002678,0.000431,0.206732
2366000,0.0324,0.013523,0.002678,0.000431,0.070164
2367000,0.0324,0.013523,0.002678,0.000431,0.262323
2368000,0.0324,0.013523,0.002678,0.000431,0.282185
2369000,0.0324,0.013523,0.002678,0.000431,0.303693
2370000,0.0324,0.013523,0.002678,0.000431,0.054768
2371000,0.0324,0.013523,0.002678,0.000431,0.141974
2372000,0.0324,0.013523,0.002678,0.000431,0.275839
2373000,0.0324,0.013523,0.002678,0.000431,0.086031
2374000,0.0324,0.013523,0.002678,0.000431,0.083798
2375000,0.0324,0.013523,0.002678,0.000431,0.162894
2376000,0.0324,0.013523,0.002678,0.000431,0.038902
2377000,0.0324,0.013523,0.002678,0.000431,0.099194
2378000,0.0324,0.013523,0.002678,0.000431,0.243166
2379000,0.0324,0.013523,0.002678,0.000431,0.100369
2380000,0.0324,0.013523,0.002678,0.000431,0.354818
2381000,0.0324,0.013523,0.002678,0.000431,0.120466
2382000,0.0324,0.013523,0.002678,0.000431,0.127518
2383000,0.0324,0.013523,0.002678,0.000431,0.249277
2384000,0.0324,0.013523,0.002678,0.000431,0.163012
2385000,0.0324,0.013523,0.002678,0.000431,0.431328
2386000,0.0324,0.013523,0.002678,0.000431,0.259032
2387000,0.0324,0.013523,0.002678,0.000431,0.241873
2388000,0.0324,0.013523,0.002678,0.000431,0.222716
2389000,0.0324,0.013523,0.002678,0.000431,0.042663
2390000,0.0324,0.013523,0.002678,0.000431,0.147733
2391000,0.0324,0.013523,0.002678,0.000431,0.255624
2392000,0.0324,0.013523,0.002678,0.000431,0.206144
2393000,0.0324,0.013523,0.002678,0.000431,0.147615
2394000,0.0324,0.013523,0.002678,0.000431,0.072867
2395000,0.0324,0.013523,0.002678,0.000431,0.072515
2396000,0.0324,0.013523,0.002678,0.000431,0.087794
2397000,0.0324,0.013523,0.002678,0.000431,0.087323
2398000,0.0324,0.013523,0.002678,0.000431,0.381849
2399000,0.0324,0.013523,0.002678,0.000431,0.265261
2400000,0.0324,0.013523,0.002678,0.000431,0.068989
2401000,0.0324,0.013523,0.002678,0.000431,0.237760
2402000,0.0324,0.013523,0.002678,0.000431,0.053945
2403000,0.0324,0.013523,0.002678,0.000431,0.113885
2404000,0.0324,0.013523,0.002678,0.000431,0.110359
2405000,0.0324,0.013523,0.002678,0.000431,0.096726
2406000,0.0324,0.013523,0.002678,0.000431,0.255389
2407000,0.0324,0.013523,0.002678,0.000431,0.221893
2408000,0.0324,0.013523,0.002678,0.000431,0.123522
2409000,0.0324,0.013523,0.002678,0.000431,0.197447
2410000,0.0324,0.013523,0.002678,0.000431,0.104835
2411000,0.0324,0.013523,0.002678,0.000431,0.338951
2412000,0.0324,0.013523,0.002678,0.000431,0.329079
2413000,0.0324,0.013523,0.002678,0.000431,0.133865
2414000,0.0324,0.013523,0.002678,0.000431,0.240815
2415000,0.0324,0.013523,0.002678,0.000431,0.133277
2416000,0.0324,0.013523,0.002678,0.000431,0.145970
2417000,0.0324,0.013523,0.002678,0.000431,0.206144
2418000,0.0324,0.013523,0.002678,0.000431,0.106481
2419000,0.0324,0.013523,0.002678,0.000431,0.080507
2420000,0.0324,0.013523,0.002678,0.000431,0.144912
2421000,0.0324,0.013523,0.002678,0.000431,0.112474
2422000,0.0324,0.013523,0.002678,0.000431,0.128928
2423000,0.0324,0.013523,0.002678,0.000431,0.238582
2424000,0.0324,0.013523,0.002678,0.000431,0.092025
2425000,0.0324,0.013523,0.002678,0.000431,0.213901
2426000,0.0324,0.013523,0.002678,0.000431,0.073925
2427000,0.0324,0.013523,0.002678,0.000431,0.114120
2428000,0.0324,0.013523,0.002678,0.000431,0.087794
2429000,0.0324,0.013523,0.002678,0.000431,0.087794
2430000,0.0324,0.013523,0.002678,0.000431,0.305456
2431000,0.0324,0.013523,0.002678,0.000431,0.108831
2432000,0.0324,0.013523,0.002678,0.000431,0.116118
2433000,0.0324,0.013523,0.002678,0.000431,0.182521
2434000,0.0324,0.013523,0.002678,0.000431,0.068166
2435000,0.0324,0.013523,0.002678,0.000431,0.128693
2436000,0.0324,0.013523,0.002678,0.000431,0.121407
2437000,0.0324,0.013523,0.002678,0.000431,0.114002
2438000,0.0324,0.013523,0.002678,0.000431,0.242578
2439000,0.0324,0.013523,0.002678,0.000431,0.220483
2440000,0.0324,0.013523,0.002678,0.000431,0.174294
2441000,0.0324,0.013523,0.002678,0.000431,0.150671
2442000,0.0324,0.013523,0.002678,0.000431,0.139506
2443000,0.0324,0.013523,0.002678,0.000431,0.194157
2444000,0.0324,0.013523,0.002678,0.000431,0.299932
2445000,0.0324,0.013523,0.002678,0.000431,0.194627
2446000,0.0324,0.013523,0.002678,0.000431,0.477164
2447000,0.0324,0.013523,0.002678,0.000431,0.223774
2448000,0.0324,0.013523,0.002678,0.000431,0.135392
2449000,0.0324,0.013523,0.002678,0.000431,0.219073
2450000,0.0324,0.013523,0.002678,0.000431,0.143737
2451000,0.0324,0.013523,0.002678,0.000431,0.147733
2452000,0.0324,0.013523,0.002678,0.000431,0.136568
2453000,0.0324,0.013523,0.002678,0.000431,0.197447
2454000,0.0324,0.013523,0.002678,0.000431,0.092495
2455000,0.0324,0.013523,0.002678,0.000431,0.078979
2456000,0.0324,0.013523,0.002678,0.000431,0.219190
2457000,0.0324,0.013523,0.002678,0.000431,0.125403
2458000,0.0324,0.013523,0.002678,0.000431,0.048069
2459000,0.0324,0.013523,0.002678,0.000431,0.153962
2460000,0.0324,0.013523,0.002678,0.000431,0.098959
2461000,0.0324,0.013523,0.002678,0.000431,0.058412
2462000,0.0324,0.013523,0.002678,0.000431,0.286534
2463000,0.0324,0.013523,0.002678,0.000431,0.121642
2464000,0.0324,0.013523,0.002678,0.000431,0.128811
2465000,0.0324,0.013523,0.002678,0.000431,0.252686
2466000,0.0324,0.013523,0.002678,0.000431,0.136685
2467000,0.0324,0.013523,0.002678,0.000431,0.148438
2468000,0.0324,0.013523,0.002678,0.000431,0.128106
2469000,0.0324,0.013523,0.002678,0.000431,0.156548
2470000,0.0324,0.013523,0.002678,0.000431,0.151376
2471000,0.0324,0.013523,0.002678,0.000431,0.170181
2472000,0.0324,0.013523,0.002678,0.000431,0.200738
2473000,0.0324,0.013523,0.002678,0.000431,0.196507
2474000,0.0324,0.013523,0.002678,0.000431,0.076981
2475000,0.0324,0.013523,0.002678,0.000431,0.262558
2476000,0.0324,0.013523,0.002678,0.000431,0.165010
2477000,0.0324,0.013523,0.002678,0.000431,0.103425
2478000,0.0324,0.013523,0.002678,0.000431,0.168418
2479000,0.0324,0.013523,0.002678,0.000431,0.183461
2480000,0.0324,0.013523,0.002678,0.000431,0.100722
2481000,0.0324,0.013523,0.002678,0.000431,0.273723
2482000,0.0324,0.013523,0.002678,0.000431,0.241755
2483000,0.0324,0.013523,0.002678,0.000431,0.196742
2484000,0.0324,0.013523,0.002678,0.000431,0.076981
2485000,0.0324,0.013523,0.002678,0.000431,0.147498
2486000,0.0324,0.013523,0.002678,0.000431,0.108596
2487000,0.0324,0.013523,0.002678,0.000431,0.083210
2488000,0.0324,0.013523,0.002678,0.000431,0.145030
2489000,0.0324,0.013523,0.002678,0.000431,0.109301
2490000,0.0324,0.013523,0.002678,0.000431,0.237054
2491000,0.0324,0.013523,0.002678,0.000431,0.160661
2492000,0.0324,0.013523,0.002678,0.000431,0.080389
2493000,0.0324,0.013523,0.002678,0.000431,0.057471
2494000,0.0324,0.013523,0.002678,0.000431,0.095315
2495000,0.0324,0.013523,0.002678,0.000431,0.115765
2496000,0.0324,0.013523,0.002678,0.000431,0.232823
2497000,0.0324,0.013523,0.002678,0.000431,0.232471
2498000,0.0324,0.013523,0.002678,0.000431,0.072162
2499000,0.0324,0.013523,0.002678,0.000431,0.142562
2500000,0.0324,0.013523,0.002678,0.000431,0.214489
2501000,0.0324,0.013523,0.002678,0.000431,0.256094
2502000,0.0324,0.013523,0.002678,0.000431,0.158193
2503000,0.0324,0.013523,0.002678,0.000431,0.110594
2504000,0.0324,0.013523,0.002678,0.000431,0.275721
2505000,0.0324,0.013523,0.002678,0.000431,0.060645
2506000,0.0324,0.013523,0.002678,0.000431,0.139976
2507000,0.0324,0.013523,0.002678,0.000431,0.185930
2508000,0.0324,0.013523,0.002678,0.000431,0.146323
2509000,0.0324,0.013523,0.002678,0.000431,0.171826
2510000,0.0324,0.013523,0.002678,0.000431,0.274193
2511000,0.0324,0.013523,0.002678,0.000431,0.157840
2512000,0.0324,0.013523,0.002678,0.000431,0.179583
2513000,0.0324,0.013523,0.002678,0.000431,0.076981
2514000,0.0324,0.013523,0.002678,0.000431,0.266201
2515000,0.0324,0.013523,0.002678,0.000431,0.121407
2516000,0.0324,0.013523,0.002678,0.000431,0.219778
2517000,0.0324,0.013523,0.002678,0.000431,0.372682
2518000,0.0324,0.013523,0.002678,0.000431,0.050302
2519000,0.0324,0.013523,0.002678,0.000431,0.046541
2520000,0.0324,0.013523,0.002678,0.000431,0.105188
2521000,0.0324,0.013523,0.002678,0.000431,0.292998
2522000,0.0324,0.013523,0.002678,0.000431,0.098841
2523000,0.0324,0.013523,0.002678,0.000431,0.176057
2524000,0.0324,0.013523,0.002678,0.000431,0.138566
2525000,0.0324,0.013523,0.002678,0.000431,0.155607
2526000,0.0324,0.013523,0.002678,0.000431,0.080507
2527000,0.0324,0.013523,0.002678,0.000431,0.157370
2528000,0.0324,0.013523,0.002678,0.000431,0.078156
2529000,0.0324,0.013523,0.002678,0.000431,0.129163
2530000,0.0324,0.013523,0.002678,0.000431,0.170181
2531000,0.0324,0.013523,0.002678,0.000431,0.153257
2532000,0.0324,0.013523,0.002678,0.000431,0.091202
2533000,0.0324,0.013523,0.002678,0.000431,0.165127
2534000,0.0324,0.013523,0.002678,0.000431,0.125168
2535000,0.0324,0.013523,0.002678,0.000431,0.088851
2536000,0.0324,0.013523,0.002678,0.000431,0.276896
2537000,0.0324,0.013523,0.002678,0.000431,0.209553
2538000,0.0324,0.013523,0.002678,0.000431,0.144207
2539000,0.0324,0.013523,0.002678,0.000431,0.185107
2540000,0.0324,0.013523,0.002678,0.000431,0.165010
2541000,0.0324,0.013523,0.002678,0.000431,0.112710
2542000,0.0324,0.013523,0.002678,0.000431,0.145265
2543000,0.0324,0.013523,0.002678,0.000431,0.118351
2544000,0.0324,0.013523,0.002678,0.000431,0.155960
2545000,0.0324,0.013523,0.002678,0.000431,0.076158
2546000,0.0324,0.013523,0.002678,0.000431,0.168183
2547000,0.0324,0.013523,0.002678,0.000431,0.174764
2548000,0.0324,0.013523,0.002678,0.000431,0.192276
2549000,0.0324,0.013523,0.002678,0.000431,0.171944
2550000,0.0324,0.013523,0.002678,0.000431,0.142209
2551000,0.0324,0.013523,0.002678,0.000431,0.111417
2552000,0.0324,0.013523,0.002678,0.000431,0.182874
2553000,0.0324,0.013523,0.002678,0.000431,0.283360
2554000,0.0324,0.013523,0.002678,0.000431,0.070752
2555000,0.0324,0.013523,0.002678,0.000431,0.095433
2556000,0.0324,0.013523,0.002678,0.000431,0.132337
2557000,0.0324,0.013523,0.002678,0.000431,0.050655
2558000,0.0324,0.013523,0.002678,0.000431,0.143972
2559000,0.0324,0.013523,0.002678,0.000431,0.144090
2560000,0.0324,0.013523,0.002678,0.000431,0.133394
2561000,0.0324,0.013523,0.002678,0.000431,0.193099
2562000,0.0324,0.013523,0.002678,0.000431,0.125403
2563000,0.0324,0.013523,0.002678,0.000431,0.265496
2564000,0.0324,0.013523,0.002678,0.000431,0.158781
2565000,0.0324,0.013523,0.002678,0.000431,0.101074
2566000,0.0324,0.013523,0.002678,0.000431,0.123052
2567000,0.0324,0.013523,0.002678,0.000431,0.211316
2568000,0.0324,0.013523,0.002678,0.000431,0.126930
2569000,0.0324,0.013523,0.002678,0.000431,0.086266
2570000,0.0324,0.013523,0.002678,0.000431,0.133042
2571000,0.0324,0.013523,0.002678,0.000431,0.220130
2572000,0.0324,0.013523,0.002678,0.000431,0.143384
2573000,0.0324,0.013523,0.002678,0.000431,0.251863
2574000,0.0324,0.013523,0.002678,0.000431,0.118586
2575000,0.0324,0.013523,0.002678,0.000431,0.361399
2576000,0.0324,0.013523,0.002678,0.000431,0.214019
2577000,0.0324,0.013523,0.002678,0.000431,0.106363
2578000,0.0324,0.013523,0.002678,0.000431,0.050067
2579000,0.0324,0.013523,0.002678,0.000431,0.100369
2580000,0.0324,0.013523,0.002678,0.000431,0.152787
2581000,0.0324,0.013523,0.002678,0.000431,0.078274
2582000,0.0324,0.013523,0.002678,0.000431,0.146440
2583000,0.0324,0.013523,0.002678,0.000431,0.187575
2584000,0.0324,0.013523,0.002678,0.000431,0.096021
2585000,0.0324,0.013523,0.002678,0.000431,0.072280
2586000,0.0324,0.013523,0.002678,0.000431,0.328374
2587000,0.0324,0.013523,0.002678,0.000431,0.237995
2588000,0.0324,0.013523,0.002678,0.000431,0.099664
2589000,0.0324,0.013523,0.002678,0.000431,0.294526
2590000,0.0324,0.013523,0.002678,0.000431,0.056884
2591000,0.0324,0.013523,0.002678,0.000431,0.129399
2592000,0.0324,0.013523,0.002678,0.000431,0.160779
2593000,0.0324,0.013523,0.002678,0.000431,0.213196
2594000,0.0324,0.013523,0.002678,0.000431,0.140211
2595000,0.0324,0.013523,0.002678,0.000431,0.061937
2596000,0.0324,0.013523,0.002678,0.000431,0.129516
2597000,0.0324,0.013523,0.002678,0.000431,0.072515
2598000,0.0324,0.013523,0.002678,0.000431,0.129046
2599000,0.0324,0.013523,0.002678,0.000431,0.155372
2600000,0.0324,0.013523,0.002678,0.000431,0.252215
2601000,0.0324,0.013523,0.002678,0.000431,0.183344
2602000,0.0324,0.013523,0.002678,0.000431,0.169006
2603000,0.0324,0.013523,0.002678,0.000431,0.176175
2604000,0.0324,0.013523,0.002678,0.000431,0.128576
2605000,0.0324,0.013523,0.002678,0.000431,0.163129
2606000,0.0324,0.013523,0.002678,0.000431,0.137508
2607000,0.0324,0.013523,0.002678,0.000431,0.077921
2608000,0.0324,0.013523,0.002678,0.000431,0.170886
2609000,0.0324,0.013523,0.002678,0.000431,0.280422
2610000,0.0324,0.013523,0.002678,0.000431,0.170768
2611000,0.0324,0.013523,0.002678,0.000431,0.096021
2612000,0.0324,0.013523,0.002678,0.000431,0.075336
2613000,0.0324,0.013523,0.002678,0.000431,0.078274
2614000,0.0324,0.013523,0.002678,0.000431,0.192629
2615000,0.0324,0.013523,0.002678,0.000431,0.163012
2616000,0.0324,0.013523,0.002678,0.000431,0.050302
2617000,0.0324,0.013523,0.002678,0.000431,0.062055
2618000,0.0324,0.013523,0.002678,0.000431,0.253626
2619000,0.0324,0.013523,0.002678,0.000431,0.168770
2620000,0.0324,0.013523,0.002678,0.000431,0.108361
2621000,0.0324,0.013523,0.002678,0.000431,0.118586
2622000,0.0324,0.013523,0.002678,0.000431,0.072280
2623000,0.0324,0.013523,0.002678,0.000431,0.149731
2624000,0.0324,0.013523,0.002678,0.000431,0.087441
2625000,0.0324,0.013523,0.002678,0.000431,0.056296
2626000,0.0324,0.013523,0.002678,0.000431,0.152317
2627000,0.0324,0.013523,0.002678,0.000431,0.146440
2628000,0.0324,0.013523,0.002678,0.000431,0.202384
2629000,0.0324,0.013523,0.002678,0.000431,0.082387
2630000,0.0324,0.013523,0.002678,0.000431,0.117998
2631000,0.0324,0.013523,0.002678,0.000431,0.181111
2632000,0.0324,0.013523,0.002678,0.000431,0.099664
2633000,0.0324,0.013523,0.002678,0.000431,0.109419
2634000,0.0324,0.013523,0.002678,0.000431,0.184167
2635000,0.0324,0.013523,0.002678,0.000431,0.110829
2636000,0.0324,0.013523,0.002678,0.000431,0.351997
2637000,0.0324,0.013523,0.002678,0.000431,0.097783
2638000,0.0324,0.013523,0.002678,0.000431,0.233764
2639000,0.0324,0.013523,0.002678,0.000431,0.102955
2640000,0.0324,0.013523,0.002678,0.000431,0.137273
2641000,0.0324,0.013523,0.002678,0.000431,0.241168
2642000,0.0324,0.013523,0.002678,0.000431,0.084150
2643000,0.0324,0.013523,0.002678,0.000431,0.190278
2644000,0.0324,0.013523,0.002678,0.000431,0.220013
2645000,0.0324,0.013523,0.002678,0.000431,0.271960
2646000,0.0324,0.013523,0.002678,0.000431,0.125285
2647000,0.0324,0.013523,0.002678,0.000431,0.232823
2648000,0.0324,0.013523,0.002678,0.000431,0.100839
2649000,0.0324,0.013523,0.002678,0.000431,0.110359
2650000,0.0324,0.013523,0.002678,0.000431,0.224596
2651000,0.0324,0.013523,0.002678,0.000431,0.176292
2652000,0.0324,0.013523,0.002678,0.000431,0.069107
2653000,0.0324,0.013523,0.002678,0.000431,0.171121
2654000,0.0324,0.013523,0.002678,0.000431,0.208613
2655000,0.0324,0.013523,0.002678,0.000431,0.100839
2656000,0.0324,0.013523,0.002678,0.000431,0.149613
2657000,0.0324,0.013523,0.002678,0.000431,0.184519
2658000,0.0324,0.013523,0.002678,0.000431,0.324848
2659000,0.0324,0.013523,0.002678,0.000431,0.102955
2660000,0.0324,0.013523,0.002678,0.000431,0.247279
2661000,0.0324,0.013523,0.002678,0.000431,0.179348
2662000,0.0324,0.013523,0.002678,0.000431,0.106951
2663000,0.0324,0.013523,0.002678,0.000431,0.116000
2664000,0.0324,0.013523,0.002678,0.000431,0.128223
2665000,0.0324,0.013523,0.002678,0.000431,0.136098
2666000,0.0324,0.013523,0.002678,0.000431,0.257387
2667000,0.0324,0.013523,0.002678,0.000431,0.143384
2668000,0.0324,0.013523,0.002678,0.000431,0.278777
2669000,0.0324,0.013523,0.002678,0.000431,0.185459
2670000,0.0324,0.013523,0.002678,0.000431,0.073455
2671000,0.0324,0.013523,0.002678,0.000431,0.075806
2672000,0.0324,0.013523,0.002678,0.000431,0.155372
2673000,0.0324,0.013523,0.002678,0.000431,0.072867
2674000,0.0324,0.013523,0.002678,0.000431,0.228240
2675000,0.0324,0.013523,0.002678,0.000431,0.255976
2676000,0.0324,0.013523,0.002678,0.000431,0.172766
2677000,0.0324,0.013523,0.002678,0.000431,0.075688
2678000,0.0324,0.013523,0.002678,0.000431,0.156430
2679000,0.0324,0.013523,0.002678,0.000431,0.096491
2680000,0.0324,0.013523,0.002678,0.000431,0.111652
2681000,0.0324,0.013523,0.002678,0.000431,0.107656
2682000,0.0324,0.013523,0.002678,0.000431,0.034906
2683000,0.0324,0.013523,0.002678,0.000431,0.065111
2684000,0.0324,0.013523,0.002678,0.000431,0.206732
2685000,0.0324,0.013523,0.002678,0.000431,0.144090
2686000,0.0324,0.013523,0.002678,0.000431,0.220130
2687000,0.0324,0.013523,0.002678,0.000431,0.098841
2688000,0.0324,0.013523,0.002678,0.000431,0.103190
2689000,0.0324,0.013523,0.002678,0.000431,0.091319
2690000,0.0324,0.013523,0.002678,0.000431,0.202031
2691000,0.0324,0.013523,0.002678,0.000431,0.074983
2692000,0.0324,0.013523,0.002678,0.000431,0.162541
2693000,0.0324,0.013523,0.002678,0.000431,0.138566
2694000,0.0324,0.013523,0.002678,0.000431,0.220365
2695000,0.0324,0.013523,0.002678,0.000431,0.181699
2696000,0.0324,0.013523,0.002678,0.000431,0.124580
2697000,0.0324,0.013523,0.002678,0.000431,0.134335
2698000,0.0324,0.013523,0.002678,0.000431,0.052535
2699000,0.0324,0.013523,0.002678,0.000431,0.254566
2700000,0.0324,0.013523,0.002678,0.000431,0.141621
2701000,0.0324,0.013523,0.002678,0.000431,0.120584
2702000,0.0324,0.013523,0.002678,0.000431,0.065463
2703000,0.0324,0.013523,0.002678,0.000431,0.102367
2704000,0.0324,0.013523,0.002678,0.000431,0.117763
2705000,0.0324,0.013523,0.002678,0.000431,0.114120
2706000,0.0324,0.013523,0.002678,0.000431,0.114472
2707000,0.0324,0.013523,0.002678,0.000431,0.118586
2708000,0.0324,0.013523,0.002678,0.000431,0.131749
2709000,0.0324,0.013523,0.002678,0.000431,0.218015
2710000,0.0324,0.013523,0.002678,0.000431,0.112122
2711000,0.0324,0.013523,0.002678,0.000431,0.106833
2712000,0.0324,0.013523,0.002678,0.000431,0.178643
2713000,0.0324,0.013523,0.002678,0.000431,0.201091
2714000,0.0324,0.013523,0.002678,0.000431,0.332487
2715000,0.0324,0.013523,0.002678,0.000431,0.075571
2716000,0.0324,0.013523,0.002678,0.000431,0.080389
2717000,0.0324,0.013523,0.002678,0.000431,0.049949
2718000,0.0324,0.013523,0.002678,0.000431,0.158428
2719000,0.0324,0.013523,0.002678,0.000431,0.156783
2720000,0.0324,0.013523,0.002678,0.000431,0.143972
2721000,0.0324,0.013523,0.002678,0.000431,0.096256
2722000,0.0324,0.013523,0.002678,0.000431,0.046894
2723000,0.0324,0.013523,0.002678,0.000431,0.187928
2724000,0.0324,0.013523,0.002678,0.000431,0.133159
2725000,0.0324,0.013523,0.002678,0.000431,0.098019
2726000,0.0324,0.013523,0.002678,0.000431,0.304516
2727000,0.0324,0.013523,0.002678,0.000431,0.123052
2728000,0.0324,0.013523,0.002678,0.000431,0.061115
2729000,0.0324,0.013523,0.002678,0.000431,0.072985
2730000,0.0324,0.013523,0.002678,0.000431,0.122817
2731000,0.0324,0.013523,0.002678,0.000431,0.111652
2732000,0.0324,0.013523,0.002678,0.000431,0.140446
2733000,0.0324,0.013523,0.002678,0.000431,0.076511
2734000,0.0324,0.013523,0.002678,0.000431,0.053828
2735000,0.0324,0.013523,0.002678,0.000431,0.176410
2736000,0.0324,0.013523,0.002678,0.000431,0.184989
2737000,0.0324,0.013523,0.002678,0.000431,0.145970
2738000,0.0324,0.013523,0.002678,0.000431,0.218132
2739000,0.0324,0.013523,0.002678,0.000431,0.221776
2740000,0.0324,0.013523,0.002678,0.000431,0.064758
2741000,0.0324,0.013523,0.002678,0.000431,0.067579
2742000,0.0324,0.013523,0.002678,0.000431,0.176292
2743000,0.0324,0.013523,0.002678,0.000431,0.077334
2744000,0.0324,0.013523,0.002678,0.000431,0.177703
2745000,0.0324,0.013523,0.002678,0.000431,0.199093
2746000,0.0324,0.013523,0.002678,0.000431,0.067931
2747000,0.0324,0.013523,0.002678,0.000431,0.106716
2748000,0.0324,0.013523,0.002678,0.000431,0.094493
2749000,0.0324,0.013523,0.002678,0.000431,0.066286
2750000,0.0324,0.013523,0.002678,0.000431,0.295936
2751000,0.0324,0.013523,0.002678,0.000431,0.165832
2752000,0.0324,0.013523,0.002678,0.000431,0.132689
2753000,0.0324,0.013523,0.002678,0.000431,0.035258
2754000,0.0324,0.013523,0.002678,0.000431,0.130574
2755000,0.0324,0.013523,0.002678,0.000431,0.179113
2756000,0.0324,0.013523,0.002678,0.000431,0.080742
2757000,0.0324,0.013523,0.002678,0.000431,0.142797
2758000,0.0324,0.013523,0.002678,0.000431,0.135628
2759000,0.0324,0.013523,0.002678,0.000431,0.086148
2760000,0.0324,0.013523,0.002678,0.000431,0.091437
2761000,0.0324,0.013523,0.002678,0.000431,0.199680
2762000,0.0324,0.013523,0.002678,0.000431,0.112239
2763000,0.0324,0.013523,0.002678,0.000431,0.076158
2764000,0.0324,0.013523,0.002678,0.000431,0.106716
2765000,0.0324,0.013523,0.002678,0.000431,0.042428
2766000,0.0324,0.013523,0.002678,0.000431,0.042310
2767000,0.0324,0.013523,0.002678,0.000431,0.126343
2768000,0.0324,0.013523,0.002678,0.000431,0.124697
2769000,0.0324,0.013523,0.002678,0.000431,0.099311
2770000,0.0324,0.013523,0.002678,0.000431,0.145265
2771000,0.0324,0.013523,0.002678,0.000431,0.135628
2772000,0.0324,0.013523,0.002678,0.000431,0.042780
2773000,0.0324,0.013523,0.002678,0.000431,0.046424
2774000,0.0324,0.013523,0.002678,0.000431,0.143972
2775000,0.0324,0.013523,0.002678,0.000431,0.115883
2776000,0.0324,0.013523,0.002678,0.000431,0.277602
2777000,0.0324,0.013523,0.002678,0.000431,0.165245
2778000,0.0324,0.013523,0.002678,0.000431,0.171826
2779000,0.0324,0.013523,0.002678,0.000431,0.101192
2780000,0.0324,0.013523,0.002678,0.000431,0.171826
2781000,0.0324,0.013523,0.002678,0.000431,0.136685
2782000,0.0324,0.013523,0.002678,0.000431,0.236467
2783000,0.0324,0.013523,0.002678,0.000431,0.196742
2784000,0.0324,0.013523,0.002678,0.000431,0.090144
2785000,0.0324,0.013523,0.002678,0.000431,0.103777
2786000,0.0324,0.013523,0.002678,0.000431,0.080154
2787000,0.0324,0.013523,0.002678,0.000431,0.168535
2788000,0.0324,0.013523,0.002678,0.000431,0.211551
2789000,0.0324,0.013523,0.002678,0.000431,0.129046
2790000,0.0324,0.013523,0.002678,0.000431,0.140329
2791000,0.0324,0.013523,0.002678,0.000431,0.072632
2792000,0.0324,0.013523,0.002678,0.000431,0.095433
2793000,0.0324,0.013523,0.002678,0.000431,0.129751
2794000,0.0324,0.013523,0.002678,0.000431,0.181581
2795000,0.0324,0.013523,0.002678,0.000431,0.215429
2796000,0.0324,0.013523,0.002678,0.000431,0.098019
2797000,0.0324,0.013523,0.002678,0.000431,0.072162
2798000,0.0324,0.013523,0.002678,0.000431,0.112357
2799000,0.0324,0.013523,0.002678,0.000431,0.133747
2800000,0.0324,0.013523,0.002678,0.000431,0.189455
2801000,0.0324,0.013523,0.002678,0.000431,0.136450
2802000,0.0324,0.013523,0.002678,0.000431,0.123522
2803000,0.0324,0.013523,0.002678,0.000431,0.066521
2804000,0.0324,0.013523,0.002678,0.000431,0.069107
2805000,0.0324,0.013523,0.002678,0.000431,0.114237
2806000,0.0324,0.013523,0.002678,0.000431,0.160543
2807000,0.0324,0.013523,0.002678,0.000431,0.094963
2808000,0.0324,0.013523,0.002678,0.000431,0.134687
2809000,0.0324,0.013523,0.002678,0.000431,0.123875
2810000,0.0324,0.013523,0.002678,0.000431,0.035023
2811000,0.0324,0.013523,0.002678,0.000431,0.035258
2812000,0.0324,0.013523,0.002678,0.000431,0.084150
2813000,0.0324,0.013523,0.002678,0.000431,0.186635
2814000,0.0324,0.013523,0.002678,0.000431,0.221071
2815000,0.0324,0.013523,0.002678,0.000431,0.172061
2816000,0.0324,0.013523,0.002678,0.000431,0.080977
2817000,0.0324,0.013523,0.002678,0.000431,0.124697
2818000,0.0324,0.013523,0.002678,0.000431,0.052183
2819000,0.0324,0.013523,0.002678,0.000431,0.095080
2820000,0.0324,0.013523,0.002678,0.000431,0.098841
2821000,0.0324,0.013523,0.002678,0.000431,0.243636
2822000,0.0324,0.013523,0.002678,0.000431,0.177350
2823000,0.0324,0.013523,0.002678,0.000431,0.088734
2824000,0.0324,0.013523,0.002678,0.000431,0.087794
2825000,0.0324,0.013523,0.002678,0.000431,0.084268
2826000,0.0324,0.013523,0.002678,0.000431,0.125050
2827000,0.0324,0.013523,0.002678,0.000431,0.223304
2828000,0.0324,0.013523,0.002678,0.000431,0.046894
2829000,0.0324,0.013523,0.002678,0.000431,0.087441
2830000,0.0324,0.013523,0.002678,0.000431,0.080507
2831000,0.0324,0.013523,0.002678,0.000431,0.160308
2832000,0.0324,0.013523,0.002678,0.000431,0.133277
2833000,0.0324,0.013523,0.002678,0.000431,0.165010
2834000,0.0324,0.013523,0.002678,0.000431,0.153727
2835000,0.0324,0.013523,0.002678,0.000431,0.125520
2836000,0.0324,0.013523,0.002678,0.000431,0.076276
2837000,0.0324,0.013523,0.002678,0.000431,0.103542
2838000,0.0324,0.013523,0.002678,0.000431,0.085913
2839000,0.0324,0.013523,0.002678,0.000431,0.113415
2840000,0.0324,0.013523,0.002678,0.000431,0.163129
2841000,0.0324,0.013523,0.002678,0.000431,0.087558
2842000,0.0324,0.013523,0.002678,0.000431,0.074395
2843000,0.0324,0.013523,0.002678,0.000431,0.221423
2844000,0.0324,0.013523,0.002678,0.000431,0.077098
2845000,0.0324,0.013523,0.002678,0.000431,0.097783
2846000,0.0324,0.013523,0.002678,0.000431,0.150083
2847000,0.0324,0.013523,0.002678,0.000431,0.220248
2848000,0.0324,0.013523,0.002678,0.000431,0.050185
2849000,0.0324,0.013523,0.002678,0.000431,0.196625
2850000,0.0324,0.013523,0.002678,0.000431,0.241168
2851000,0.0324,0.013523,0.002678,0.000431,0.086266
2852000,0.0324,0.013523,0.002678,0.000431,0.162541
2853000,0.0324,0.013523,0.002678,0.000431,0.237877
2854000,0.0324,0.013523,0.002678,0.000431,0.204029
2855000,0.0324,0.013523,0.002678,0.000431,0.090262
2856000,0.0324,0.013523,0.002678,0.000431,0.275016
2857000,0.0324,0.013523,0.002678,0.000431,0.114708
2858000,0.0324,0.013523,0.002678,0.000431,0.035023
2859000,0.0324,0.013523,0.002678,0.000431,0.145382
2860000,0.0324,0.013523,0.002678,0.000431,0.114708
2861000,0.0324,0.013523,0.002678,0.000431,0.125755
2862000,0.0324,0.013523,0.002678,0.000431,0.212373
2863000,0.0324,0.013523,0.002678,0.000431,0.081094
2864000,0.0324,0.013523,0.002678,0.000431,0.265966
2865000,0.0324,0.013523,0.002678,0.000431,0.145617
2866000,0.0324,0.013523,0.002678,0.000431,0.101309
2867000,0.0324,0.013523,0.002678,0.000431,0.135392
2868000,0.0324,0.013523,0.002678,0.000431,0.098606
2869000,0.0324,0.013523,0.002678,0.000431,0.177468
2870000,0.0324,0.013523,0.002678,0.000431,0.230825
2871000,0.0324,0.013523,0.002678,0.000431,0.180053
2872000,0.0324,0.013523,0.002678,0.000431,0.153727
2873000,0.0324,0.013523,0.002678,0.000431,0.103307
2874000,0.0324,0.013523,0.002678,0.000431,0.218367
2875000,0.0324,0.013523,0.002678,0.000431,0.167360
2876000,0.0324,0.013523,0.002678,0.000431,0.132454
2877000,0.0324,0.013523,0.002678,0.000431,0.239170
2878000,0.0324,0.013523,0.002678,0.000431,0.125403
2879000,0.0324,0.013523,0.002678,0.000431,0.128458
2880000,0.0324,0.013523,0.002678,0.000431,0.153727
2881000,0.0324,0.013523,0.002678,0.000431,0.068872
2882000,0.0324,0.013523,0.002678,0.000431,0.153257
2883000,0.0324,0.013523,0.002678,0.000431,0.286534
2884000,0.0324,0.013523,0.002678,0.000431,0.121642
2885000,0.0324,0.013523,0.002678,0.000431,0.110241
2886000,0.0324,0.013523,0.002678,0.000431,0.065228
2887000,0.0324,0.013523,0.002678,0.000431,0.095433
2888000,0.0324,0.013523,0.002678,0.000431,0.190161
2889000,0.0324,0.013523,0.002678,0.000431,0.230238
2890000,0.0324,0.013523,0.002678,0.000431,0.096021
2891000,0.0324,0.013523,0.002678,0.000431,0.147850
2892000,0.0324,0.013523,0.002678,0.000431,0.065346
2893000,0.0324,0.013523,0.002678,0.000431,0.240345
2894000,0.0324,0.013523,0.002678,0.000431,0.213784
2895000,0.0324,0.013523,0.002678,0.000431,0.160191
2896000,0.0324,0.013523,0.002678,0.000431,0.100839
2897000,0.0324,0.013523,0.002678,0.000431,0.140094
2898000,0.0324,0.013523,0.002678,0.000431,0.124110
2899000,0.0324,0.013523,0.002678,0.000431,0.106363
2900000,0.0324,0.013523,0.002678,0.000431,0.060527
2901000,0.0324,0.013523,0.002678,0.000431,0.181228
2902000,0.0324,0.013523,0.002678,0.000431,0.074513
2903000,0.0324,0.013523,0.002678,0.000431,0.088616
2904000,0.0324,0.013523,0.002678,0.000431,0.235291
2905000,0.0324,0.013523,0.002678,0.000431,0.283125
2906000,0.0324,0.013523,0.002678,0.000431,0.138918
2907000,0.0324,0.013523,0.002678,0.000431,0.124110
2908000,0.0324,0.013523,0.002678,0.000431,0.121524
2909000,0.0324,0.013523,0.002678,0.000431,0.080624
2910000,0.0324,0.013523,0.002678,0.000431,0.177938
2911000,0.0324,0.013523,0.002678,0.000431,0.126108
2912000,0.0324,0.013523,0.002678,0.000431,0.176292
2913000,0.0324,0.013523,0.002678,0.000431,0.237407
2914000,0.0324,0.013523,0.002678,0.000431,0.204499
2915000,0.0324,0.013523,0.002678,0.000431,0.078391
2916000,0.0324,0.013523,0.002678,0.000431,0.049009
2917000,0.0324,0.013523,0.002678,0.000431,0.071810
2918000,0.0324,0.013523,0.002678,0.000431,0.057471
2919000,0.0324,0.013523,0.002678,0.000431,0.184637
2920000,0.0324,0.013523,0.002678,0.000431,0.138918
2921000,0.0324,0.013523,0.002678,0.000431,0.281480
2922000,0.0324,0.013523,0.002678,0.000431,0.069929
2923000,0.0324,0.013523,0.002678,0.000431,0.118233
2924000,0.0324,0.013523,0.002678,0.000431,0.070517
2925000,0.0324,0.013523,0.002678,0.000431,0.154902
2926000,0.0324,0.013523,0.002678,0.000431,0.057589
2927000,0.0324,0.013523,0.002678,0.000431,0.242931
2928000,0.0324,0.013523,0.002678,0.000431,0.065463
2929000,0.0324,0.013523,0.002678,0.000431,0.181346
2930000,0.0324,0.013523,0.002678,0.000431,0.241050
2931000,0.0324,0.013523,0.002678,0.000431,0.074278
2932000,0.0324,0.013523,0.002678,0.000431,0.098841
2933000,0.0324,0.013523,0.002678,0.000431,0.180523
2934000,0.0324,0.013523,0.002678,0.000431,0.215547
2935000,0.0324,0.013523,0.002678,0.000431,0.228710
2936000,0.0324,0.013523,0.002678,0.000431,0.201796
2937000,0.0324,0.013523,0.002678,0.000431,0.231178
2938000,0.0324,0.013523,0.002678,0.000431,0.036786
2939000,0.0324,0.013523,0.002678,0.000431,0.080742
2940000,0.0324,0.013523,0.002678,0.000431,0.177350
2941000,0.0324,0.013523,0.002678,0.000431,0.070869
2942000,0.0324,0.013523,0.002678,0.000431,0.264673
2943000,0.0324,0.013523,0.002678,0.000431,0.093435
2944000,0.0324,0.013523,0.002678,0.000431,0.070987
2945000,0.0324,0.013523,0.002678,0.000431,0.102837
2946000,0.0324,0.013523,0.002678,0.000431,0.103190
2947000,0.0324,0.013523,0.002678,0.000431,0.174764
2948000,0.0324,0.013523,0.002678,0.000431,0.137038
2949000,0.0324,0.013523,0.002678,0.000431,0.085561
2950000,0.0324,0.013523,0.002678,0.000431,0.155490
2951000,0.0324,0.013523,0.002678,0.000431,0.067579
2952000,0.0324,0.013523,0.002678,0.000431,0.082740
2953000,0.0324,0.013523,0.002678,0.000431,0.122464
2954000,0.0324,0.013523,0.002678,0.000431,0.217192
2955000,0.0324,0.013523,0.002678,0.000431,0.268552
2956000,0.0324,0.013523,0.002678,0.000431,0.097783
2957000,0.0324,0.013523,0.002678,0.000431,0.093905
2958000,0.0324,0.013523,0.002678,0.000431,0.072985
2959000,0.0324,0.013523,0.002678,0.000431,0.163482
2960000,0.0324,0.013523,0.002678,0.000431,0.293233
2961000,0.0324,0.013523,0.002678,0.000431,0.104247
2962000,0.0324,0.013523,0.002678,0.000431,0.091554
2963000,0.0324,0.013523,0.002678,0.000431,0.240815
2964000,0.0324,0.013523,0.002678,0.000431,0.136450
2965000,0.0324,0.013523,0.002678,0.000431,0.114237
2966000,0.0324,0.013523,0.002678,0.000431,0.211433
2967000,0.0324,0.013523,0.002678,0.000431,0.115295
2968000,0.0324,0.013523,0.002678,0.000431,0.248220
2969000,0.0324,0.013523,0.002678,0.000431,0.088616
2970000,0.0324,0.013523,0.002678,0.000431,0.071575
2971000,0.0324,0.013523,0.002678,0.000431,0.154315
2972000,0.0324,0.013523,0.002678,0.000431,0.302165
2973000,0.0324,0.013523,0.002678,0.000431,0.161014
2974000,0.0324,0.013523,0.002678,0.000431,0.076511
2975000,0.0324,0.013523,0.002678,0.000431,0.158781
2976000,0.0324,0.013523,0.002678,0.000431,0.117763
2977000,0.0324,0.013523,0.002678,0.000431,0.053123
2978000,0.0324,0.013523,0.002678,0.000431,0.153022
2979000,0.0324,0.013523,0.002678,0.000431,0.222246
2980000,0.0324,0.013523,0.002678,0.000431,0.114825
2981000,0.0324,0.013523,0.002678,0.000431,0.113767
2982000,0.0324,0.013523,0.002678,0.000431,0.049009
2983000,0.0324,0.013523,0.002678,0.000431,0.156783
2984000,0.0324,0.013523,0.002678,0.000431,0.149143
2985000,0.0324,0.013523,0.002678,0.000431,0.155842
2986000,0.0324,0.013523,0.002678,0.000431,0.052300
2987000,0.0324,0.013523,0.002678,0.000431,0.215664
2988000,0.0324,0.013523,0.002678,0.000431,0.086736
2989000,0.0324,0.013523,0.002678,0.000431,0.174647
2990000,0.0324,0.013523,0.002678,0.000431,0.132454
2991000,0.0324,0.013523,0.002678,0.000431,0.311332
2992000,0.0324,0.013523,0.002678,0.000431,0.130691
2993000,0.0324,0.013523,0.002678,0.000431,0.151611
2994000,0.0324,0.013523,0.002678,0.000431,0.068401
2995000,0.0324,0.013523,0.002678,0.000431,0.060409
2996000,0.0324,0.013523,0.002678,0.000431,0.151494
2997000,0.0324,0.013523,0.002678,0.000431,0.308864
2998000,0.0324,0.013523,0.002678,0.000431,0.193922
2999000,0.0324,0.013523,0.002678,0.000431,0.090144
