Cycle,Area(mm^2),PeakDynamic(W),SubthresholdLeakage(W),GateLeakage(W),RunTimeDynamic(W)
30000000,0.0324,0.013523,0.002678,0.000431,0.004701
30001000,0.0324,0.013523,0.002678,0.000431,0.019627
30002000,0.0324,0.013523,0.002678,0.000431,0.004584
30003000,0.0324,0.013523,0.002678,0.000431,0.004701
30004000,0.0324,0.013523,0.002678,0.000431,0.004466
30005000,0.0324,0.013523,0.002678,0.000431,0.124110
30006000,0.0324,0.013523,0.002678,0.000431,0.004701
30007000,0.0324,0.013523,0.002678,0.000431,0.004701
30008000,0.0324,0.013523,0.002678,0.000431,0.004701
30009000,0.0324,0.013523,0.002678,0.000431,0.004701
30010000,0.0324,0.013523,0.002678,0.000431,0.004701
30011000,0.0324,0.013523,0.002678,0.000431,0.004701
30012000,0.0324,0.013523,0.002678,0.000431,0.087911
30013000,0.0324,0.013523,0.002678,0.000431,0.034553
30014000,0.0324,0.013523,0.002678,0.000431,0.004701
30015000,0.0324,0.013523,0.002678,0.000431,0.004701
30016000,0.0324,0.013523,0.002678,0.000431,0.004701
30017000,0.0324,0.013523,0.002678,0.000431,0.004701
30018000,0.0324,0.013523,0.002678,0.000431,0.004701
30019000,0.0324,0.013523,0.002678,0.000431,0.004701
30020000,0.0324,0.013523,0.002678,0.000431,0.012223
30021000,0.0324,0.013523,0.002678,0.000431,0.012223
30022000,0.0324,0.013523,0.002678,0.000431,0.012223
30023000,0.0324,0.013523,0.002678,0.000431,0.004701
30024000,0.0324,0.013523,0.002678,0.000431,0.004701
30025000,0.0324,0.013523,0.002678,0.000431,0.004701
30026000,0.0324,0.013523,0.002678,0.000431,0.007522
30027000,0.0324,0.013523,0.002678,0.000431,0.024446
30028000,0.0324,0.013523,0.002678,0.000431,0.004701
30029000,0.0324,0.013523,0.002678,0.000431,0.042545
30030000,0.0324,0.013523,0.002678,0.000431,0.027267
30031000,0.0324,0.013523,0.002678,0.000431,0.019510
30032000,0.0324,0.013523,0.002678,0.000431,0.004466
30033000,0.0324,0.013523,0.002678,0.000431,0.012223
30034000,0.0324,0.013523,0.002678,0.000431,0.094728
30035000,0.0324,0.013523,0.002678,0.000431,0.004701
30036000,0.0324,0.013523,0.002678,0.000431,0.057354
30037000,0.0324,0.013523,0.002678,0.000431,0.004701
30038000,0.0324,0.013523,0.002678,0.000431,0.004701
30039000,0.0324,0.013523,0.002678,0.000431,0.004701
30040000,0.0324,0.013523,0.002678,0.000431,0.018452
30041000,0.0324,0.013523,0.002678,0.000431,0.006111
30042000,0.0324,0.013523,0.002678,0.000431,0.004584
30043000,0.0324,0.013523,0.002678,0.000431,0.004701
30044000,0.0324,0.013523,0.002678,0.000431,0.004701
30045000,0.0324,0.013523,0.002678,0.000431,0.004701
30046000,0.0324,0.013523,0.002678,0.000431,0.004701
30047000,0.0324,0.013523,0.002678,0.000431,0.004701
30048000,0.0324,0.013523,0.002678,0.000431,0.004701
30049000,0.0324,0.013523,0.002678,0.000431,0.004701
30050000,0.0324,0.013523,0.002678,0.000431,0.012223
30051000,0.0324,0.013523,0.002678,0.000431,0.042075
30052000,0.0324,0.013523,0.002678,0.000431,0.027267
30053000,0.0324,0.013523,0.002678,0.000431,0.004701
30054000,0.0324,0.013523,0.002678,0.000431,0.004701
30055000,0.0324,0.013523,0.002678,0.000431,0.004701
30056000,0.0324,0.013523,0.002678,0.000431,0.004701
30057000,0.0324,0.013523,0.002678,0.000431,0.004701
30058000,0.0324,0.013523,0.002678,0.000431,0.004701
30059000,0.0324,0.013523,0.002678,0.000431,0.027267
30060000,0.0324,0.013523,0.002678,0.000431,0.004701
30061000,0.0324,0.013523,0.002678,0.000431,0.008462
30062000,0.0324,0.013523,0.002678,0.000431,0.008462
30063000,0.0324,0.013523,0.002678,0.000431,0.004701
30064000,0.0324,0.013523,0.002678,0.000431,0.004584
30065000,0.0324,0.013523,0.002678,0.000431,0.004819
30066000,0.0324,0.013523,0.002678,0.000431,0.004701
30067000,0.0324,0.013523,0.002678,0.000431,0.004701
30068000,0.0324,0.013523,0.002678,0.000431,0.004701
30069000,0.0324,0.013523,0.002678,0.000431,0.004701
30070000,0.0324,0.013523,0.002678,0.000431,0.008462
30071000,0.0324,0.013523,0.002678,0.000431,0.008580
30072000,0.0324,0.013523,0.002678,0.000431,0.011870
30073000,0.0324,0.013523,0.002678,0.000431,0.004701
30074000,0.0324,0.013523,0.002678,0.000431,0.004701
30075000,0.0324,0.013523,0.002678,0.000431,0.020215
30076000,0.0324,0.013523,0.002678,0.000431,0.012223
30077000,0.0324,0.013523,0.002678,0.000431,0.004701
30078000,0.0324,0.013523,0.002678,0.000431,0.012223
30079000,0.0324,0.013523,0.002678,0.000431,0.004701
30080000,0.0324,0.013523,0.002678,0.000431,0.004701
30081000,0.0324,0.013523,0.002678,0.000431,0.004701
30082000,0.0324,0.013523,0.002678,0.000431,0.034553
30083000,0.0324,0.013523,0.002678,0.000431,0.004701
30084000,0.0324,0.013523,0.002678,0.000431,0.023506
30085000,0.0324,0.013523,0.002678,0.000431,0.129986
30086000,0.0324,0.013523,0.002678,0.000431,0.011283
30087000,0.0324,0.013523,0.002678,0.000431,0.008462
30088000,0.0324,0.013523,0.002678,0.000431,0.008462
30089000,0.0324,0.013523,0.002678,0.000431,0.019862
30090000,0.0324,0.013523,0.002678,0.000431,0.004819
30091000,0.0324,0.013523,0.002678,0.000431,0.049597
30092000,0.0324,0.013523,0.002678,0.000431,0.004701
30093000,0.0324,0.013523,0.002678,0.000431,0.004701
30094000,0.0324,0.013523,0.002678,0.000431,0.004701
30095000,0.0324,0.013523,0.002678,0.000431,0.004936
30096000,0.0324,0.013523,0.002678,0.000431,0.004701
30097000,0.0324,0.013523,0.002678,0.000431,0.035964
30098000,0.0324,0.013523,0.002678,0.000431,0.018569
30099000,0.0324,0.013523,0.002678,0.000431,0.004701
30100000,0.0324,0.013523,0.002678,0.000431,0.048422
30101000,0.0324,0.013523,0.002678,0.000431,0.021155
30102000,0.0324,0.013523,0.002678,0.000431,0.004701
30103000,0.0324,0.013523,0.002678,0.000431,0.004701
30104000,0.0324,0.013523,0.002678,0.000431,0.012693
30105000,0.0324,0.013523,0.002678,0.000431,0.015396
30106000,0.0324,0.013523,0.002678,0.000431,0.008345
30107000,0.0324,0.013523,0.002678,0.000431,0.004701
30108000,0.0324,0.013523,0.002678,0.000431,0.004701
30109000,0.0324,0.013523,0.002678,0.000431,0.004466
30110000,0.0324,0.013523,0.002678,0.000431,0.004701
30111000,0.0324,0.013523,0.002678,0.000431,0.027267
30112000,0.0324,0.013523,0.002678,0.000431,0.004466
30113000,0.0324,0.013523,0.002678,0.000431,0.072045
30114000,0.0324,0.013523,0.002678,0.000431,0.095315
30115000,0.0324,0.013523,0.002678,0.000431,0.004701
30116000,0.0324,0.013523,0.002678,0.000431,0.004701
30117000,0.0324,0.013523,0.002678,0.000431,0.019745
30118000,0.0324,0.013523,0.002678,0.000431,0.019745
30119000,0.0324,0.013523,0.002678,0.000431,0.004701
30120000,0.0324,0.013523,0.002678,0.000431,0.014338
30121000,0.0324,0.013523,0.002678,0.000431,0.021390
30122000,0.0324,0.013523,0.002678,0.000431,0.038549
30123000,0.0324,0.013523,0.002678,0.000431,0.065111
30124000,0.0324,0.013523,0.002678,0.000431,0.004701
30125000,0.0324,0.013523,0.002678,0.000431,0.004701
30126000,0.0324,0.013523,0.002678,0.000431,0.008462
30127000,0.0324,0.013523,0.002678,0.000431,0.046541
30128000,0.0324,0.013523,0.002678,0.000431,0.049832
30129000,0.0324,0.013523,0.002678,0.000431,0.004701
30130000,0.0324,0.013523,0.002678,0.000431,0.004701
30131000,0.0324,0.013523,0.002678,0.000431,0.004466
30132000,0.0324,0.013523,0.002678,0.000431,0.012223
30133000,0.0324,0.013523,0.002678,0.000431,0.049832
30134000,0.0324,0.013523,0.002678,0.000431,0.004701
30135000,0.0324,0.013523,0.002678,0.000431,0.004701
30136000,0.0324,0.013523,0.002678,0.000431,0.004701
30137000,0.0324,0.013523,0.002678,0.000431,0.004466
30138000,0.0324,0.013523,0.002678,0.000431,0.004701
30139000,0.0324,0.013523,0.002678,0.000431,0.029147
30140000,0.0324,0.013523,0.002678,0.000431,0.032908
30141000,0.0324,0.013523,0.002678,0.000431,0.004701
30142000,0.0324,0.013523,0.002678,0.000431,0.019745
30143000,0.0324,0.013523,0.002678,0.000431,0.019745
30144000,0.0324,0.013523,0.002678,0.000431,0.004701
30145000,0.0324,0.013523,0.002678,0.000431,0.004701
30146000,0.0324,0.013523,0.002678,0.000431,0.034788
30147000,0.0324,0.013523,0.002678,0.000431,0.027267
30148000,0.0324,0.013523,0.002678,0.000431,0.012223
30149000,0.0324,0.013523,0.002678,0.000431,0.004466
30150000,0.0324,0.013523,0.002678,0.000431,0.004701
30151000,0.0324,0.013523,0.002678,0.000431,0.004701
30152000,0.0324,0.013523,0.002678,0.000431,0.044308
30153000,0.0324,0.013523,0.002678,0.000431,0.009990
30154000,0.0324,0.013523,0.002678,0.000431,0.004701
30155000,0.0324,0.013523,0.002678,0.000431,0.004701
30156000,0.0324,0.013523,0.002678,0.000431,0.004701
30157000,0.0324,0.013523,0.002678,0.000431,0.004701
30158000,0.0324,0.013523,0.002678,0.000431,0.012223
30159000,0.0324,0.013523,0.002678,0.000431,0.012223
30160000,0.0324,0.013523,0.002678,0.000431,0.004701
30161000,0.0324,0.013523,0.002678,0.000431,0.004701
30162000,0.0324,0.013523,0.002678,0.000431,0.034788
30163000,0.0324,0.013523,0.002678,0.000431,0.012223
30164000,0.0324,0.013523,0.002678,0.000431,0.004701
30165000,0.0324,0.013523,0.002678,0.000431,0.037962
30166000,0.0324,0.013523,0.002678,0.000431,0.009050
30167000,0.0324,0.013523,0.002678,0.000431,0.004701
30168000,0.0324,0.013523,0.002678,0.000431,0.077569
30169000,0.0324,0.013523,0.002678,0.000431,0.014338
30170000,0.0324,0.013523,0.002678,0.000431,0.012223
30171000,0.0324,0.013523,0.002678,0.000431,0.004701
30172000,0.0324,0.013523,0.002678,0.000431,0.004701
30173000,0.0324,0.013523,0.002678,0.000431,0.008580
30174000,0.0324,0.013523,0.002678,0.000431,0.023623
30175000,0.0324,0.013523,0.002678,0.000431,0.042310
30176000,0.0324,0.013523,0.002678,0.000431,0.004701
30177000,0.0324,0.013523,0.002678,0.000431,0.004466
30178000,0.0324,0.013523,0.002678,0.000431,0.030440
30179000,0.0324,0.013523,0.002678,0.000431,0.031615
30180000,0.0324,0.013523,0.002678,0.000431,0.012223
30181000,0.0324,0.013523,0.002678,0.000431,0.035258
30182000,0.0324,0.013523,0.002678,0.000431,0.004701
30183000,0.0324,0.013523,0.002678,0.000431,0.004701
30184000,0.0324,0.013523,0.002678,0.000431,0.012223
30185000,0.0324,0.013523,0.002678,0.000431,0.109771
30186000,0.0324,0.013523,0.002678,0.000431,0.004701
30187000,0.0324,0.013523,0.002678,0.000431,0.010342
30188000,0.0324,0.013523,0.002678,0.000431,0.014103
30189000,0.0324,0.013523,0.002678,0.000431,0.004466
30190000,0.0324,0.013523,0.002678,0.000431,0.008462
30191000,0.0324,0.013523,0.002678,0.000431,0.015984
30192000,0.0324,0.013523,0.002678,0.000431,0.004701
30193000,0.0324,0.013523,0.002678,0.000431,0.034788
30194000,0.0324,0.013523,0.002678,0.000431,0.042310
30195000,0.0324,0.013523,0.002678,0.000431,0.004701
30196000,0.0324,0.013523,0.002678,0.000431,0.004701
30197000,0.0324,0.013523,0.002678,0.000431,0.019745
30198000,0.0324,0.013523,0.002678,0.000431,0.012223
30199000,0.0324,0.013523,0.002678,0.000431,0.004701
30200000,0.0324,0.013523,0.002678,0.000431,0.031262
30201000,0.0324,0.013523,0.002678,0.000431,0.106010
30202000,0.0324,0.013523,0.002678,0.000431,0.004701
30203000,0.0324,0.013523,0.002678,0.000431,0.004701
30204000,0.0324,0.013523,0.002678,0.000431,0.004466
30205000,0.0324,0.013523,0.002678,0.000431,0.004701
30206000,0.0324,0.013523,0.002678,0.000431,0.004701
30207000,0.0324,0.013523,0.002678,0.000431,0.023506
30208000,0.0324,0.013523,0.002678,0.000431,0.016219
30209000,0.0324,0.013523,0.002678,0.000431,0.027502
30210000,0.0324,0.013523,0.002678,0.000431,0.057589
30211000,0.0324,0.013523,0.002678,0.000431,0.004701
30212000,0.0324,0.013523,0.002678,0.000431,0.004701
30213000,0.0324,0.013523,0.002678,0.000431,0.004701
30214000,0.0324,0.013523,0.002678,0.000431,0.020450
30215000,0.0324,0.013523,0.002678,0.000431,0.071692
30216000,0.0324,0.013523,0.002678,0.000431,0.031262
30217000,0.0324,0.013523,0.002678,0.000431,0.151376
30218000,0.0324,0.013523,0.002678,0.000431,0.004701
30219000,0.0324,0.013523,0.002678,0.000431,0.004701
30220000,0.0324,0.013523,0.002678,0.000431,0.004701
30221000,0.0324,0.013523,0.002678,0.000431,0.013163
30222000,0.0324,0.013523,0.002678,0.000431,0.019040
30223000,0.0324,0.013523,0.002678,0.000431,0.034671
30224000,0.0324,0.013523,0.002678,0.000431,0.004584
30225000,0.0324,0.013523,0.002678,0.000431,0.004701
30226000,0.0324,0.013523,0.002678,0.000431,0.004701
30227000,0.0324,0.013523,0.002678,0.000431,0.012223
30228000,0.0324,0.013523,0.002678,0.000431,0.004701
30229000,0.0324,0.013523,0.002678,0.000431,0.004466
30230000,0.0324,0.013523,0.002678,0.000431,0.173824
30231000,0.0324,0.013523,0.002678,0.000431,0.173354
30232000,0.0324,0.013523,0.002678,0.000431,0.004701
30233000,0.0324,0.013523,0.002678,0.000431,0.004701
30234000,0.0324,0.013523,0.002678,0.000431,0.016219
30235000,0.0324,0.013523,0.002678,0.000431,0.016219
30236000,0.0324,0.013523,0.002678,0.000431,0.004701
30237000,0.0324,0.013523,0.002678,0.000431,0.023741
30238000,0.0324,0.013523,0.002678,0.000431,0.008462
30239000,0.0324,0.013523,0.002678,0.000431,0.004701
30240000,0.0324,0.013523,0.002678,0.000431,0.004701
30241000,0.0324,0.013523,0.002678,0.000431,0.004701
30242000,0.0324,0.013523,0.002678,0.000431,0.004701
30243000,0.0324,0.013523,0.002678,0.000431,0.027267
30244000,0.0324,0.013523,0.002678,0.000431,0.035023
30245000,0.0324,0.013523,0.002678,0.000431,0.004701
30246000,0.0324,0.013523,0.002678,0.000431,0.046071
30247000,0.0324,0.013523,0.002678,0.000431,0.057001
30248000,0.0324,0.013523,0.002678,0.000431,0.069694
30249000,0.0324,0.013523,0.002678,0.000431,0.004701
30250000,0.0324,0.013523,0.002678,0.000431,0.004701
30251000,0.0324,0.013523,0.002678,0.000431,0.004701
30252000,0.0324,0.013523,0.002678,0.000431,0.004701
30253000,0.0324,0.013523,0.002678,0.000431,0.012223
30254000,0.0324,0.013523,0.002678,0.000431,0.009755
30255000,0.0324,0.013523,0.002678,0.000431,0.007169
30256000,0.0324,0.013523,0.002678,0.000431,0.004701
30257000,0.0324,0.013523,0.002678,0.000431,0.004466
30258000,0.0324,0.013523,0.002678,0.000431,0.023506
30259000,0.0324,0.013523,0.002678,0.000431,0.031027
30260000,0.0324,0.013523,0.002678,0.000431,0.004701
30261000,0.0324,0.013523,0.002678,0.000431,0.034788
30262000,0.0324,0.013523,0.002678,0.000431,0.027267
30263000,0.0324,0.013523,0.002678,0.000431,0.004349
30264000,0.0324,0.013523,0.002678,0.000431,0.004584
30265000,0.0324,0.013523,0.002678,0.000431,0.004701
30266000,0.0324,0.013523,0.002678,0.000431,0.004701
30267000,0.0324,0.013523,0.002678,0.000431,0.004701
30268000,0.0324,0.013523,0.002678,0.000431,0.016219
30269000,0.0324,0.013523,0.002678,0.000431,0.046306
30270000,0.0324,0.013523,0.002678,0.000431,0.004701
30271000,0.0324,0.013523,0.002678,0.000431,0.004701
30272000,0.0324,0.013523,0.002678,0.000431,0.027267
30273000,0.0324,0.013523,0.002678,0.000431,0.019745
30274000,0.0324,0.013523,0.002678,0.000431,0.057354
30275000,0.0324,0.013523,0.002678,0.000431,0.039607
30276000,0.0324,0.013523,0.002678,0.000431,0.007404
30277000,0.0324,0.013523,0.002678,0.000431,0.004701
30278000,0.0324,0.013523,0.002678,0.000431,0.032908
30279000,0.0324,0.013523,0.002678,0.000431,0.096843
30280000,0.0324,0.013523,0.002678,0.000431,0.004701
30281000,0.0324,0.013523,0.002678,0.000431,0.004701
30282000,0.0324,0.013523,0.002678,0.000431,0.004701
30283000,0.0324,0.013523,0.002678,0.000431,0.004701
30284000,0.0324,0.013523,0.002678,0.000431,0.004701
30285000,0.0324,0.013523,0.002678,0.000431,0.004936
30286000,0.0324,0.013523,0.002678,0.000431,0.004701
30287000,0.0324,0.013523,0.002678,0.000431,0.027267
30288000,0.0324,0.013523,0.002678,0.000431,0.084973
30289000,0.0324,0.013523,0.002678,0.000431,0.014691
30290000,0.0324,0.013523,0.002678,0.000431,0.004701
30291000,0.0324,0.013523,0.002678,0.000431,0.027267
30292000,0.0324,0.013523,0.002678,0.000431,0.042310
30293000,0.0324,0.013523,0.002678,0.000431,0.027267
30294000,0.0324,0.013523,0.002678,0.000431,0.004701
30295000,0.0324,0.013523,0.002678,0.000431,0.041370
30296000,0.0324,0.013523,0.002678,0.000431,0.021155
30297000,0.0324,0.013523,0.002678,0.000431,0.004466
30298000,0.0324,0.013523,0.002678,0.000431,0.136098
30299000,0.0324,0.013523,0.002678,0.000431,0.015984
30300000,0.0324,0.013523,0.002678,0.000431,0.004701
30301000,0.0324,0.013523,0.002678,0.000431,0.042545
30302000,0.0324,0.013523,0.002678,0.000431,0.049832
30303000,0.0324,0.013523,0.002678,0.000431,0.004349
30304000,0.0324,0.013523,0.002678,0.000431,0.004584
30305000,0.0324,0.013523,0.002678,0.000431,0.004701
30306000,0.0324,0.013523,0.002678,0.000431,0.004701
30307000,0.0324,0.013523,0.002678,0.000431,0.004701
30308000,0.0324,0.013523,0.002678,0.000431,0.057941
30309000,0.0324,0.013523,0.002678,0.000431,0.034201
30310000,0.0324,0.013523,0.002678,0.000431,0.004701
30311000,0.0324,0.013523,0.002678,0.000431,0.027267
30312000,0.0324,0.013523,0.002678,0.000431,0.004701
30313000,0.0324,0.013523,0.002678,0.000431,0.004701
30314000,0.0324,0.013523,0.002678,0.000431,0.004701
30315000,0.0324,0.013523,0.002678,0.000431,0.004701
30316000,0.0324,0.013523,0.002678,0.000431,0.004466
30317000,0.0324,0.013523,0.002678,0.000431,0.034788
30318000,0.0324,0.013523,0.002678,0.000431,0.034788
30319000,0.0324,0.013523,0.002678,0.000431,0.004701
30320000,0.0324,0.013523,0.002678,0.000431,0.004701
30321000,0.0324,0.013523,0.002678,0.000431,0.019745
30322000,0.0324,0.013523,0.002678,0.000431,0.004701
30323000,0.0324,0.013523,0.002678,0.000431,0.004701
30324000,0.0324,0.013523,0.002678,0.000431,0.027267
30325000,0.0324,0.013523,0.002678,0.000431,0.049832
30326000,0.0324,0.013523,0.002678,0.000431,0.004701
30327000,0.0324,0.013523,0.002678,0.000431,0.004819
30328000,0.0324,0.013523,0.002678,0.000431,0.004819
30329000,0.0324,0.013523,0.002678,0.000431,0.004701
30330000,0.0324,0.013523,0.002678,0.000431,0.043015
30331000,0.0324,0.013523,0.002678,0.000431,0.041017
30332000,0.0324,0.013523,0.002678,0.000431,0.020332
30333000,0.0324,0.013523,0.002678,0.000431,0.004701
30334000,0.0324,0.013523,0.002678,0.000431,0.004701
30335000,0.0324,0.013523,0.002678,0.000431,0.004701
30336000,0.0324,0.013523,0.002678,0.000431,0.023623
30337000,0.0324,0.013523,0.002678,0.000431,0.038432
30338000,0.0324,0.013523,0.002678,0.000431,0.004701
30339000,0.0324,0.013523,0.002678,0.000431,0.004701
30340000,0.0324,0.013523,0.002678,0.000431,0.031262
30341000,0.0324,0.013523,0.002678,0.000431,0.053123
30342000,0.0324,0.013523,0.002678,0.000431,0.004701
30343000,0.0324,0.013523,0.002678,0.000431,0.169711
30344000,0.0324,0.013523,0.002678,0.000431,0.012223
30345000,0.0324,0.013523,0.002678,0.000431,0.004701
30346000,0.0324,0.013523,0.002678,0.000431,0.004701
30347000,0.0324,0.013523,0.002678,0.000431,0.034788
30348000,0.0324,0.013523,0.002678,0.000431,0.004701
30349000,0.0324,0.013523,0.002678,0.000431,0.008462
30350000,0.0324,0.013523,0.002678,0.000431,0.015984
30351000,0.0324,0.013523,0.002678,0.000431,0.004701
30352000,0.0324,0.013523,0.002678,0.000431,0.004701
30353000,0.0324,0.013523,0.002678,0.000431,0.012223
30354000,0.0324,0.013523,0.002678,0.000431,0.004701
30355000,0.0324,0.013523,0.002678,0.000431,0.004701
30356000,0.0324,0.013523,0.002678,0.000431,0.049832
30357000,0.0324,0.013523,0.002678,0.000431,0.004701
30358000,0.0324,0.013523,0.002678,0.000431,0.049832
30359000,0.0324,0.013523,0.002678,0.000431,0.004701
30360000,0.0324,0.013523,0.002678,0.000431,0.004701
30361000,0.0324,0.013523,0.002678,0.000431,0.004701
30362000,0.0324,0.013523,0.002678,0.000431,0.016689
30363000,0.0324,0.013523,0.002678,0.000431,0.121172
30364000,0.0324,0.013523,0.002678,0.000431,0.006699
30365000,0.0324,0.013523,0.002678,0.000431,0.153609
30366000,0.0324,0.013523,0.002678,0.000431,0.056531
30367000,0.0324,0.013523,0.002678,0.000431,0.004701
30368000,0.0324,0.013523,0.002678,0.000431,0.004701
30369000,0.0324,0.013523,0.002678,0.000431,0.004701
30370000,0.0324,0.013523,0.002678,0.000431,0.004701
30371000,0.0324,0.013523,0.002678,0.000431,0.008932
30372000,0.0324,0.013523,0.002678,0.000431,0.015984
30373000,0.0324,0.013523,0.002678,0.000431,0.012223
30374000,0.0324,0.013523,0.002678,0.000431,0.004701
30375000,0.0324,0.013523,0.002678,0.000431,0.004349
30376000,0.0324,0.013523,0.002678,0.000431,0.004584
30377000,0.0324,0.013523,0.002678,0.000431,0.004701
30378000,0.0324,0.013523,0.002678,0.000431,0.079919
30379000,0.0324,0.013523,0.002678,0.000431,0.064876
30380000,0.0324,0.013523,0.002678,0.000431,0.004701
30381000,0.0324,0.013523,0.002678,0.000431,0.004701
30382000,0.0324,0.013523,0.002678,0.000431,0.012458
30383000,0.0324,0.013523,0.002678,0.000431,0.004701
30384000,0.0324,0.013523,0.002678,0.000431,0.004701
30385000,0.0324,0.013523,0.002678,0.000431,0.004701
30386000,0.0324,0.013523,0.002678,0.000431,0.057354
30387000,0.0324,0.013523,0.002678,0.000431,0.004701
30388000,0.0324,0.013523,0.002678,0.000431,0.004819
30389000,0.0324,0.013523,0.002678,0.000431,0.004819
30390000,0.0324,0.013523,0.002678,0.000431,0.004701
30391000,0.0324,0.013523,0.002678,0.000431,0.004701
30392000,0.0324,0.013523,0.002678,0.000431,0.091554
30393000,0.0324,0.013523,0.002678,0.000431,0.030440
30394000,0.0324,0.013523,0.002678,0.000431,0.004701
30395000,0.0324,0.013523,0.002678,0.000431,0.042310
30396000,0.0324,0.013523,0.002678,0.000431,0.004701
30397000,0.0324,0.013523,0.002678,0.000431,0.004701
30398000,0.0324,0.013523,0.002678,0.000431,0.038549
30399000,0.0324,0.013523,0.002678,0.000431,0.061350
30400000,0.0324,0.013523,0.002678,0.000431,0.004701
30401000,0.0324,0.013523,0.002678,0.000431,0.042898
30402000,0.0324,0.013523,0.002678,0.000431,0.056531
30403000,0.0324,0.013523,0.002678,0.000431,0.011635
30404000,0.0324,0.013523,0.002678,0.000431,0.005289
30405000,0.0324,0.013523,0.002678,0.000431,0.143854
30406000,0.0324,0.013523,0.002678,0.000431,0.008462
30407000,0.0324,0.013523,0.002678,0.000431,0.004701
30408000,0.0324,0.013523,0.002678,0.000431,0.004701
30409000,0.0324,0.013523,0.002678,0.000431,0.004701
30410000,0.0324,0.013523,0.002678,0.000431,0.019745
30411000,0.0324,0.013523,0.002678,0.000431,0.004701
30412000,0.0324,0.013523,0.002678,0.000431,0.019980
30413000,0.0324,0.013523,0.002678,0.000431,0.004701
30414000,0.0324,0.013523,0.002678,0.000431,0.004701
30415000,0.0324,0.013523,0.002678,0.000431,0.004466
30416000,0.0324,0.013523,0.002678,0.000431,0.004466
30417000,0.0324,0.013523,0.002678,0.000431,0.004701
30418000,0.0324,0.013523,0.002678,0.000431,0.123287
30419000,0.0324,0.013523,0.002678,0.000431,0.051830
30420000,0.0324,0.013523,0.002678,0.000431,0.004701
30421000,0.0324,0.013523,0.002678,0.000431,0.004584
30422000,0.0324,0.013523,0.002678,0.000431,0.004584
30423000,0.0324,0.013523,0.002678,0.000431,0.027267
30424000,0.0324,0.013523,0.002678,0.000431,0.008462
30425000,0.0324,0.013523,0.002678,0.000431,0.083680
30426000,0.0324,0.013523,0.002678,0.000431,0.004701
30427000,0.0324,0.013523,0.002678,0.000431,0.004584
30428000,0.0324,0.013523,0.002678,0.000431,0.004584
30429000,0.0324,0.013523,0.002678,0.000431,0.064876
30430000,0.0324,0.013523,0.002678,0.000431,0.011988
30431000,0.0324,0.013523,0.002678,0.000431,0.019745
30432000,0.0324,0.013523,0.002678,0.000431,0.027267
30433000,0.0324,0.013523,0.002678,0.000431,0.004701
30434000,0.0324,0.013523,0.002678,0.000431,0.004701
30435000,0.0324,0.013523,0.002678,0.000431,0.004701
30436000,0.0324,0.013523,0.002678,0.000431,0.011988
30437000,0.0324,0.013523,0.002678,0.000431,0.015984
30438000,0.0324,0.013523,0.002678,0.000431,0.015984
30439000,0.0324,0.013523,0.002678,0.000431,0.004701
30440000,0.0324,0.013523,0.002678,0.000431,0.004701
30441000,0.0324,0.013523,0.002678,0.000431,0.004701
30442000,0.0324,0.013523,0.002678,0.000431,0.004701
30443000,0.0324,0.013523,0.002678,0.000431,0.034788
30444000,0.0324,0.013523,0.002678,0.000431,0.019745
30445000,0.0324,0.013523,0.002678,0.000431,0.004701
30446000,0.0324,0.013523,0.002678,0.000431,0.004701
30447000,0.0324,0.013523,0.002678,0.000431,0.004701
30448000,0.0324,0.013523,0.002678,0.000431,0.019510
30449000,0.0324,0.013523,0.002678,0.000431,0.080154
30450000,0.0324,0.013523,0.002678,0.000431,0.021625
30451000,0.0324,0.013523,0.002678,0.000431,0.085561
30452000,0.0324,0.013523,0.002678,0.000431,0.004701
30453000,0.0324,0.013523,0.002678,0.000431,0.004701
30454000,0.0324,0.013523,0.002678,0.000431,0.004701
30455000,0.0324,0.013523,0.002678,0.000431,0.042075
30456000,0.0324,0.013523,0.002678,0.000431,0.004701
30457000,0.0324,0.013523,0.002678,0.000431,0.042310
30458000,0.0324,0.013523,0.002678,0.000431,0.004701
30459000,0.0324,0.013523,0.002678,0.000431,0.004701
30460000,0.0324,0.013523,0.002678,0.000431,0.004701
30461000,0.0324,0.013523,0.002678,0.000431,0.020332
30462000,0.0324,0.013523,0.002678,0.000431,0.049244
30463000,0.0324,0.013523,0.002678,0.000431,0.060409
30464000,0.0324,0.013523,0.002678,0.000431,0.023976
30465000,0.0324,0.013523,0.002678,0.000431,0.004701
30466000,0.0324,0.013523,0.002678,0.000431,0.004701
30467000,0.0324,0.013523,0.002678,0.000431,0.004584
30468000,0.0324,0.013523,0.002678,0.000431,0.004819
30469000,0.0324,0.013523,0.002678,0.000431,0.004701
30470000,0.0324,0.013523,0.002678,0.000431,0.004701
30471000,0.0324,0.013523,0.002678,0.000431,0.019745
30472000,0.0324,0.013523,0.002678,0.000431,0.004701
30473000,0.0324,0.013523,0.002678,0.000431,0.004701
30474000,0.0324,0.013523,0.002678,0.000431,0.004701
30475000,0.0324,0.013523,0.002678,0.000431,0.004701
30476000,0.0324,0.013523,0.002678,0.000431,0.071810
30477000,0.0324,0.013523,0.002678,0.000431,0.039137
30478000,0.0324,0.013523,0.002678,0.000431,0.008462
30479000,0.0324,0.013523,0.002678,0.000431,0.004701
30480000,0.0324,0.013523,0.002678,0.000431,0.004701
30481000,0.0324,0.013523,0.002678,0.000431,0.004701
30482000,0.0324,0.013523,0.002678,0.000431,0.014809
30483000,0.0324,0.013523,0.002678,0.000431,0.066051
30484000,0.0324,0.013523,0.002678,0.000431,0.008462
30485000,0.0324,0.013523,0.002678,0.000431,0.004701
30486000,0.0324,0.013523,0.002678,0.000431,0.004701
30487000,0.0324,0.013523,0.002678,0.000431,0.012223
30488000,0.0324,0.013523,0.002678,0.000431,0.004466
30489000,0.0324,0.013523,0.002678,0.000431,0.102367
30490000,0.0324,0.013523,0.002678,0.000431,0.057471
30491000,0.0324,0.013523,0.002678,0.000431,0.004701
30492000,0.0324,0.013523,0.002678,0.000431,0.004701
30493000,0.0324,0.013523,0.002678,0.000431,0.004701
30494000,0.0324,0.013523,0.002678,0.000431,0.004701
30495000,0.0324,0.013523,0.002678,0.000431,0.029852
30496000,0.0324,0.013523,0.002678,0.000431,0.024681
30497000,0.0324,0.013523,0.002678,0.000431,0.004701
30498000,0.0324,0.013523,0.002678,0.000431,0.004701
30499000,0.0324,0.013523,0.002678,0.000431,0.004701
30500000,0.0324,0.013523,0.002678,0.000431,0.012223
30501000,0.0324,0.013523,0.002678,0.000431,0.004701
30502000,0.0324,0.013523,0.002678,0.000431,0.094728
30503000,0.0324,0.013523,0.002678,0.000431,0.004701
30504000,0.0324,0.013523,0.002678,0.000431,0.004701
30505000,0.0324,0.013523,0.002678,0.000431,0.004701
30506000,0.0324,0.013523,0.002678,0.000431,0.004701
30507000,0.0324,0.013523,0.002678,0.000431,0.004701
30508000,0.0324,0.013523,0.002678,0.000431,0.094610
30509000,0.0324,0.013523,0.002678,0.000431,0.057706
30510000,0.0324,0.013523,0.002678,0.000431,0.004701
30511000,0.0324,0.013523,0.002678,0.000431,0.004701
30512000,0.0324,0.013523,0.002678,0.000431,0.004701
30513000,0.0324,0.013523,0.002678,0.000431,0.004701
30514000,0.0324,0.013523,0.002678,0.000431,0.004701
30515000,0.0324,0.013523,0.002678,0.000431,0.034788
30516000,0.0324,0.013523,0.002678,0.000431,0.004701
30517000,0.0324,0.013523,0.002678,0.000431,0.004701
30518000,0.0324,0.013523,0.002678,0.000431,0.004701
30519000,0.0324,0.013523,0.002678,0.000431,0.024093
30520000,0.0324,0.013523,0.002678,0.000431,0.007874
30521000,0.0324,0.013523,0.002678,0.000431,0.005054
30522000,0.0324,0.013523,0.002678,0.000431,0.019392
30523000,0.0324,0.013523,0.002678,0.000431,0.004466
30524000,0.0324,0.013523,0.002678,0.000431,0.004701
30525000,0.0324,0.013523,0.002678,0.000431,0.004701
30526000,0.0324,0.013523,0.002678,0.000431,0.064876
30527000,0.0324,0.013523,0.002678,0.000431,0.004701
30528000,0.0324,0.013523,0.002678,0.000431,0.128576
30529000,0.0324,0.013523,0.002678,0.000431,0.075923
30530000,0.0324,0.013523,0.002678,0.000431,0.004701
30531000,0.0324,0.013523,0.002678,0.000431,0.004701
30532000,0.0324,0.013523,0.002678,0.000431,0.012223
30533000,0.0324,0.013523,0.002678,0.000431,0.004701
30534000,0.0324,0.013523,0.002678,0.000431,0.012223
30535000,0.0324,0.013523,0.002678,0.000431,0.034788
30536000,0.0324,0.013523,0.002678,0.000431,0.004701
30537000,0.0324,0.013523,0.002678,0.000431,0.004701
30538000,0.0324,0.013523,0.002678,0.000431,0.004701
30539000,0.0324,0.013523,0.002678,0.000431,0.064876
30540000,0.0324,0.013523,0.002678,0.000431,0.035376
30541000,0.0324,0.013523,0.002678,0.000431,0.057001
30542000,0.0324,0.013523,0.002678,0.000431,0.004701
30543000,0.0324,0.013523,0.002678,0.000431,0.004701
30544000,0.0324,0.013523,0.002678,0.000431,0.004701
30545000,0.0324,0.013523,0.002678,0.000431,0.078626
30546000,0.0324,0.013523,0.002678,0.000431,0.033143
30547000,0.0324,0.013523,0.002678,0.000431,0.083327
30548000,0.0324,0.013523,0.002678,0.000431,0.019040
30549000,0.0324,0.013523,0.002678,0.000431,0.004701
30550000,0.0324,0.013523,0.002678,0.000431,0.004701
30551000,0.0324,0.013523,0.002678,0.000431,0.004701
30552000,0.0324,0.013523,0.002678,0.000431,0.004701
30553000,0.0324,0.013523,0.002678,0.000431,0.016571
30554000,0.0324,0.013523,0.002678,0.000431,0.030440
30555000,0.0324,0.013523,0.002678,0.000431,0.004701
30556000,0.0324,0.013523,0.002678,0.000431,0.004701
30557000,0.0324,0.013523,0.002678,0.000431,0.004701
30558000,0.0324,0.013523,0.002678,0.000431,0.073103
30559000,0.0324,0.013523,0.002678,0.000431,0.034083
30560000,0.0324,0.013523,0.002678,0.000431,0.053593
30561000,0.0324,0.013523,0.002678,0.000431,0.030910
30562000,0.0324,0.013523,0.002678,0.000431,0.004584
30563000,0.0324,0.013523,0.002678,0.000431,0.004701
30564000,0.0324,0.013523,0.002678,0.000431,0.004701
30565000,0.0324,0.013523,0.002678,0.000431,0.004936
30566000,0.0324,0.013523,0.002678,0.000431,0.004701
30567000,0.0324,0.013523,0.002678,0.000431,0.072397
30568000,0.0324,0.013523,0.002678,0.000431,0.004701
30569000,0.0324,0.013523,0.002678,0.000431,0.004701
30570000,0.0324,0.013523,0.002678,0.000431,0.004701
30571000,0.0324,0.013523,0.002678,0.000431,0.034788
30572000,0.0324,0.013523,0.002678,0.000431,0.004466
30573000,0.0324,0.013523,0.002678,0.000431,0.027502
30574000,0.0324,0.013523,0.002678,0.000431,0.042780
30575000,0.0324,0.013523,0.002678,0.000431,0.004701
30576000,0.0324,0.013523,0.002678,0.000431,0.004701
30577000,0.0324,0.013523,0.002678,0.000431,0.004701
30578000,0.0324,0.013523,0.002678,0.000431,0.012223
30579000,0.0324,0.013523,0.002678,0.000431,0.008462
30580000,0.0324,0.013523,0.002678,0.000431,0.023506
30581000,0.0324,0.013523,0.002678,0.000431,0.004701
30582000,0.0324,0.013523,0.002678,0.000431,0.004701
30583000,0.0324,0.013523,0.002678,0.000431,0.004701
30584000,0.0324,0.013523,0.002678,0.000431,0.004701
30585000,0.0324,0.013523,0.002678,0.000431,0.004701
30586000,0.0324,0.013523,0.002678,0.000431,0.019745
30587000,0.0324,0.013523,0.002678,0.000431,0.004701
30588000,0.0324,0.013523,0.002678,0.000431,0.004466
30589000,0.0324,0.013523,0.002678,0.000431,0.004701
30590000,0.0324,0.013523,0.002678,0.000431,0.011048
30591000,0.0324,0.013523,0.002678,0.000431,0.013398
30592000,0.0324,0.013523,0.002678,0.000431,0.064053
30593000,0.0324,0.013523,0.002678,0.000431,0.133159
30594000,0.0324,0.013523,0.002678,0.000431,0.004701
30595000,0.0324,0.013523,0.002678,0.000431,0.004701
30596000,0.0324,0.013523,0.002678,0.000431,0.004701
30597000,0.0324,0.013523,0.002678,0.000431,0.064641
30598000,0.0324,0.013523,0.002678,0.000431,0.015984
30599000,0.0324,0.013523,0.002678,0.000431,0.047246
30600000,0.0324,0.013523,0.002678,0.000431,0.041135
30601000,0.0324,0.013523,0.002678,0.000431,0.004584
30602000,0.0324,0.013523,0.002678,0.000431,0.004584
30603000,0.0324,0.013523,0.002678,0.000431,0.008462
30604000,0.0324,0.013523,0.002678,0.000431,0.008462
30605000,0.0324,0.013523,0.002678,0.000431,0.027267
30606000,0.0324,0.013523,0.002678,0.000431,0.027267
30607000,0.0324,0.013523,0.002678,0.000431,0.004701
30608000,0.0324,0.013523,0.002678,0.000431,0.004701
30609000,0.0324,0.013523,0.002678,0.000431,0.004701
30610000,0.0324,0.013523,0.002678,0.000431,0.012223
30611000,0.0324,0.013523,0.002678,0.000431,0.019745
30612000,0.0324,0.013523,0.002678,0.000431,0.027031
30613000,0.0324,0.013523,0.002678,0.000431,0.004701
30614000,0.0324,0.013523,0.002678,0.000431,0.004701
30615000,0.0324,0.013523,0.002678,0.000431,0.004701
30616000,0.0324,0.013523,0.002678,0.000431,0.035729
30617000,0.0324,0.013523,0.002678,0.000431,0.018805
30618000,0.0324,0.013523,0.002678,0.000431,0.088146
30619000,0.0324,0.013523,0.002678,0.000431,0.056649
30620000,0.0324,0.013523,0.002678,0.000431,0.004701
30621000,0.0324,0.013523,0.002678,0.000431,0.004701
30622000,0.0324,0.013523,0.002678,0.000431,0.004701
30623000,0.0324,0.013523,0.002678,0.000431,0.004701
30624000,0.0324,0.013523,0.002678,0.000431,0.004701
30625000,0.0324,0.013523,0.002678,0.000431,0.057354
30626000,0.0324,0.013523,0.002678,0.000431,0.004701
30627000,0.0324,0.013523,0.002678,0.000431,0.004701
30628000,0.0324,0.013523,0.002678,0.000431,0.004466
30629000,0.0324,0.013523,0.002678,0.000431,0.012223
30630000,0.0324,0.013523,0.002678,0.000431,0.004701
30631000,0.0324,0.013523,0.002678,0.000431,0.087206
30632000,0.0324,0.013523,0.002678,0.000431,0.035023
30633000,0.0324,0.013523,0.002678,0.000431,0.004584
30634000,0.0324,0.013523,0.002678,0.000431,0.004584
30635000,0.0324,0.013523,0.002678,0.000431,0.004701
30636000,0.0324,0.013523,0.002678,0.000431,0.004701
30637000,0.0324,0.013523,0.002678,0.000431,0.042310
30638000,0.0324,0.013523,0.002678,0.000431,0.019745
30639000,0.0324,0.013523,0.002678,0.000431,0.004701
30640000,0.0324,0.013523,0.002678,0.000431,0.004701
30641000,0.0324,0.013523,0.002678,0.000431,0.004584
30642000,0.0324,0.013523,0.002678,0.000431,0.042193
30643000,0.0324,0.013523,0.002678,0.000431,0.004701
30644000,0.0324,0.013523,0.002678,0.000431,0.046071
30645000,0.0324,0.013523,0.002678,0.000431,0.015984
30646000,0.0324,0.013523,0.002678,0.000431,0.004701
30647000,0.0324,0.013523,0.002678,0.000431,0.004701
30648000,0.0324,0.013523,0.002678,0.000431,0.023388
30649000,0.0324,0.013523,0.002678,0.000431,0.084033
30650000,0.0324,0.013523,0.002678,0.000431,0.027267
30651000,0.0324,0.013523,0.002678,0.000431,0.079919
30652000,0.0324,0.013523,0.002678,0.000431,0.004466
30653000,0.0324,0.013523,0.002678,0.000431,0.004701
30654000,0.0324,0.013523,0.002678,0.000431,0.004701
30655000,0.0324,0.013523,0.002678,0.000431,0.012105
30656000,0.0324,0.013523,0.002678,0.000431,0.030557
30657000,0.0324,0.013523,0.002678,0.000431,0.088381
30658000,0.0324,0.013523,0.002678,0.000431,0.023623
30659000,0.0324,0.013523,0.002678,0.000431,0.004466
30660000,0.0324,0.013523,0.002678,0.000431,0.004701
30661000,0.0324,0.013523,0.002678,0.000431,0.004701
30662000,0.0324,0.013523,0.002678,0.000431,0.004701
30663000,0.0324,0.013523,0.002678,0.000431,0.027267
30664000,0.0324,0.013523,0.002678,0.000431,0.164657
30665000,0.0324,0.013523,0.002678,0.000431,0.010460
30666000,0.0324,0.013523,0.002678,0.000431,0.004466
30667000,0.0324,0.013523,0.002678,0.000431,0.004701
30668000,0.0324,0.013523,0.002678,0.000431,0.012223
30669000,0.0324,0.013523,0.002678,0.000431,0.004701
30670000,0.0324,0.013523,0.002678,0.000431,0.012223
30671000,0.0324,0.013523,0.002678,0.000431,0.004701
30672000,0.0324,0.013523,0.002678,0.000431,0.004701
30673000,0.0324,0.013523,0.002678,0.000431,0.004701
30674000,0.0324,0.013523,0.002678,0.000431,0.004701
30675000,0.0324,0.013523,0.002678,0.000431,0.004701
30676000,0.0324,0.013523,0.002678,0.000431,0.012223
30677000,0.0324,0.013523,0.002678,0.000431,0.004701
30678000,0.0324,0.013523,0.002678,0.000431,0.004701
30679000,0.0324,0.013523,0.002678,0.000431,0.004701
30680000,0.0324,0.013523,0.002678,0.000431,0.004701
30681000,0.0324,0.013523,0.002678,0.000431,0.094728
30682000,0.0324,0.013523,0.002678,0.000431,0.095668
30683000,0.0324,0.013523,0.002678,0.000431,0.048657
30684000,0.0324,0.013523,0.002678,0.000431,0.004701
30685000,0.0324,0.013523,0.002678,0.000431,0.004701
30686000,0.0324,0.013523,0.002678,0.000431,0.004701
30687000,0.0324,0.013523,0.002678,0.000431,0.006229
30688000,0.0324,0.013523,0.002678,0.000431,0.010460
30689000,0.0324,0.013523,0.002678,0.000431,0.004701
30690000,0.0324,0.013523,0.002678,0.000431,0.012223
30691000,0.0324,0.013523,0.002678,0.000431,0.004701
30692000,0.0324,0.013523,0.002678,0.000431,0.004466
30693000,0.0324,0.013523,0.002678,0.000431,0.004701
30694000,0.0324,0.013523,0.002678,0.000431,0.004701
30695000,0.0324,0.013523,0.002678,0.000431,0.004701
30696000,0.0324,0.013523,0.002678,0.000431,0.113062
30697000,0.0324,0.013523,0.002678,0.000431,0.031262
30698000,0.0324,0.013523,0.002678,0.000431,0.004701
30699000,0.0324,0.013523,0.002678,0.000431,0.004701
30700000,0.0324,0.013523,0.002678,0.000431,0.012223
30701000,0.0324,0.013523,0.002678,0.000431,0.012223
30702000,0.0324,0.013523,0.002678,0.000431,0.033966
30703000,0.0324,0.013523,0.002678,0.000431,0.088264
30704000,0.0324,0.013523,0.002678,0.000431,0.004701
30705000,0.0324,0.013523,0.002678,0.000431,0.027267
30706000,0.0324,0.013523,0.002678,0.000431,0.004701
30707000,0.0324,0.013523,0.002678,0.000431,0.012223
30708000,0.0324,0.013523,0.002678,0.000431,0.034788
30709000,0.0324,0.013523,0.002678,0.000431,0.012223
30710000,0.0324,0.013523,0.002678,0.000431,0.004466
30711000,0.0324,0.013523,0.002678,0.000431,0.004701
30712000,0.0324,0.013523,0.002678,0.000431,0.004701
30713000,0.0324,0.013523,0.002678,0.000431,0.004701
30714000,0.0324,0.013523,0.002678,0.000431,0.004701
30715000,0.0324,0.013523,0.002678,0.000431,0.087676
30716000,0.0324,0.013523,0.002678,0.000431,0.012223
30717000,0.0324,0.013523,0.002678,0.000431,0.004701
30718000,0.0324,0.013523,0.002678,0.000431,0.004701
30719000,0.0324,0.013523,0.002678,0.000431,0.004701
30720000,0.0324,0.013523,0.002678,0.000431,0.004701
30721000,0.0324,0.013523,0.002678,0.000431,0.004701
30722000,0.0324,0.013523,0.002678,0.000431,0.034788
30723000,0.0324,0.013523,0.002678,0.000431,0.004701
30724000,0.0324,0.013523,0.002678,0.000431,0.004701
30725000,0.0324,0.013523,0.002678,0.000431,0.004701
30726000,0.0324,0.013523,0.002678,0.000431,0.004701
30727000,0.0324,0.013523,0.002678,0.000431,0.012223
30728000,0.0324,0.013523,0.002678,0.000431,0.004466
30729000,0.0324,0.013523,0.002678,0.000431,0.026796
30730000,0.0324,0.013523,0.002678,0.000431,0.004701
30731000,0.0324,0.013523,0.002678,0.000431,0.004701
30732000,0.0324,0.013523,0.002678,0.000431,0.004701
30733000,0.0324,0.013523,0.002678,0.000431,0.004701
30734000,0.0324,0.013523,0.002678,0.000431,0.004701
30735000,0.0324,0.013523,0.002678,0.000431,0.004701
30736000,0.0324,0.013523,0.002678,0.000431,0.004701
30737000,0.0324,0.013523,0.002678,0.000431,0.004466
30738000,0.0324,0.013523,0.002678,0.000431,0.004701
30739000,0.0324,0.013523,0.002678,0.000431,0.034788
30740000,0.0324,0.013523,0.002678,0.000431,0.004701
30741000,0.0324,0.013523,0.002678,0.000431,0.042075
30742000,0.0324,0.013523,0.002678,0.000431,0.027267
30743000,0.0324,0.013523,0.002678,0.000431,0.004701
30744000,0.0324,0.013523,0.002678,0.000431,0.004701
30745000,0.0324,0.013523,0.002678,0.000431,0.015984
30746000,0.0324,0.013523,0.002678,0.000431,0.015984
30747000,0.0324,0.013523,0.002678,0.000431,0.047246
30748000,0.0324,0.013523,0.002678,0.000431,0.060409
30749000,0.0324,0.013523,0.002678,0.000431,0.019980
30750000,0.0324,0.013523,0.002678,0.000431,0.004701
30751000,0.0324,0.013523,0.002678,0.000431,0.004701
30752000,0.0324,0.013523,0.002678,0.000431,0.004701
30753000,0.0324,0.013523,0.002678,0.000431,0.008462
30754000,0.0324,0.013523,0.002678,0.000431,0.031027
30755000,0.0324,0.013523,0.002678,0.000431,0.004701
30756000,0.0324,0.013523,0.002678,0.000431,0.004701
30757000,0.0324,0.013523,0.002678,0.000431,0.004701
30758000,0.0324,0.013523,0.002678,0.000431,0.004701
30759000,0.0324,0.013523,0.002678,0.000431,0.004701
30760000,0.0324,0.013523,0.002678,0.000431,0.004701
30761000,0.0324,0.013523,0.002678,0.000431,0.064876
30762000,0.0324,0.013523,0.002678,0.000431,0.004701
30763000,0.0324,0.013523,0.002678,0.000431,0.004701
30764000,0.0324,0.013523,0.002678,0.000431,0.004701
30765000,0.0324,0.013523,0.002678,0.000431,0.019745
30766000,0.0324,0.013523,0.002678,0.000431,0.015984
30767000,0.0324,0.013523,0.002678,0.000431,0.068401
30768000,0.0324,0.013523,0.002678,0.000431,0.027031
30769000,0.0324,0.013523,0.002678,0.000431,0.029265
30770000,0.0324,0.013523,0.002678,0.000431,0.047364
30771000,0.0324,0.013523,0.002678,0.000431,0.004701
30772000,0.0324,0.013523,0.002678,0.000431,0.004701
30773000,0.0324,0.013523,0.002678,0.000431,0.012223
30774000,0.0324,0.013523,0.002678,0.000431,0.019745
30775000,0.0324,0.013523,0.002678,0.000431,0.004701
30776000,0.0324,0.013523,0.002678,0.000431,0.004701
30777000,0.0324,0.013523,0.002678,0.000431,0.004466
30778000,0.0324,0.013523,0.002678,0.000431,0.027267
30779000,0.0324,0.013523,0.002678,0.000431,0.019980
30780000,0.0324,0.013523,0.002678,0.000431,0.032908
30781000,0.0324,0.013523,0.002678,0.000431,0.006817
30782000,0.0324,0.013523,0.002678,0.000431,0.004701
30783000,0.0324,0.013523,0.002678,0.000431,0.004701
30784000,0.0324,0.013523,0.002678,0.000431,0.034788
30785000,0.0324,0.013523,0.002678,0.000431,0.004701
30786000,0.0324,0.013523,0.002678,0.000431,0.004701
30787000,0.0324,0.013523,0.002678,0.000431,0.004701
30788000,0.0324,0.013523,0.002678,0.000431,0.004701
30789000,0.0324,0.013523,0.002678,0.000431,0.011635
30790000,0.0324,0.013523,0.002678,0.000431,0.031615
30791000,0.0324,0.013523,0.002678,0.000431,0.015984
30792000,0.0324,0.013523,0.002678,0.000431,0.053710
30793000,0.0324,0.013523,0.002678,0.000431,0.031145
30794000,0.0324,0.013523,0.002678,0.000431,0.004701
30795000,0.0324,0.013523,0.002678,0.000431,0.004701
30796000,0.0324,0.013523,0.002678,0.000431,0.004701
30797000,0.0324,0.013523,0.002678,0.000431,0.027267
30798000,0.0324,0.013523,0.002678,0.000431,0.027267
30799000,0.0324,0.013523,0.002678,0.000431,0.008815
30800000,0.0324,0.013523,0.002678,0.000431,0.053475
30801000,0.0324,0.013523,0.002678,0.000431,0.004466
30802000,0.0324,0.013523,0.002678,0.000431,0.004701
30803000,0.0324,0.013523,0.002678,0.000431,0.004701
30804000,0.0324,0.013523,0.002678,0.000431,0.004701
30805000,0.0324,0.013523,0.002678,0.000431,0.004701
30806000,0.0324,0.013523,0.002678,0.000431,0.004701
30807000,0.0324,0.013523,0.002678,0.000431,0.004701
30808000,0.0324,0.013523,0.002678,0.000431,0.004701
30809000,0.0324,0.013523,0.002678,0.000431,0.004466
30810000,0.0324,0.013523,0.002678,0.000431,0.004701
30811000,0.0324,0.013523,0.002678,0.000431,0.012223
30812000,0.0324,0.013523,0.002678,0.000431,0.012811
30813000,0.0324,0.013523,0.002678,0.000431,0.041723
30814000,0.0324,0.013523,0.002678,0.000431,0.004701
30815000,0.0324,0.013523,0.002678,0.000431,0.004701
30816000,0.0324,0.013523,0.002678,0.000431,0.004701
30817000,0.0324,0.013523,0.002678,0.000431,0.004584
30818000,0.0324,0.013523,0.002678,0.000431,0.036786
30819000,0.0324,0.013523,0.002678,0.000431,0.017629
30820000,0.0324,0.013523,0.002678,0.000431,0.004701
30821000,0.0324,0.013523,0.002678,0.000431,0.004701
30822000,0.0324,0.013523,0.002678,0.000431,0.004701
30823000,0.0324,0.013523,0.002678,0.000431,0.004701
30824000,0.0324,0.013523,0.002678,0.000431,0.004701
30825000,0.0324,0.013523,0.002678,0.000431,0.028442
30826000,0.0324,0.013523,0.002678,0.000431,0.072750
30827000,0.0324,0.013523,0.002678,0.000431,0.056061
30828000,0.0324,0.013523,0.002678,0.000431,0.004701
30829000,0.0324,0.013523,0.002678,0.000431,0.004701
30830000,0.0324,0.013523,0.002678,0.000431,0.049832
30831000,0.0324,0.013523,0.002678,0.000431,0.034788
30832000,0.0324,0.013523,0.002678,0.000431,0.004701
30833000,0.0324,0.013523,0.002678,0.000431,0.004701
30834000,0.0324,0.013523,0.002678,0.000431,0.004701
30835000,0.0324,0.013523,0.002678,0.000431,0.004701
30836000,0.0324,0.013523,0.002678,0.000431,0.015396
30837000,0.0324,0.013523,0.002678,0.000431,0.031615
30838000,0.0324,0.013523,0.002678,0.000431,0.023506
30839000,0.0324,0.013523,0.002678,0.000431,0.008462
30840000,0.0324,0.013523,0.002678,0.000431,0.004701
30841000,0.0324,0.013523,0.002678,0.000431,0.004466
30842000,0.0324,0.013523,0.002678,0.000431,0.004701
30843000,0.0324,0.013523,0.002678,0.000431,0.012223
30844000,0.0324,0.013523,0.002678,0.000431,0.019745
30845000,0.0324,0.013523,0.002678,0.000431,0.034788
30846000,0.0324,0.013523,0.002678,0.000431,0.004701
30847000,0.0324,0.013523,0.002678,0.000431,0.004701
30848000,0.0324,0.013523,0.002678,0.000431,0.004701
30849000,0.0324,0.013523,0.002678,0.000431,0.004466
30850000,0.0324,0.013523,0.002678,0.000431,0.004701
30851000,0.0324,0.013523,0.002678,0.000431,0.012223
30852000,0.0324,0.013523,0.002678,0.000431,0.004701
30853000,0.0324,0.013523,0.002678,0.000431,0.004701
30854000,0.0324,0.013523,0.002678,0.000431,0.004701
30855000,0.0324,0.013523,0.002678,0.000431,0.004701
30856000,0.0324,0.013523,0.002678,0.000431,0.012223
30857000,0.0324,0.013523,0.002678,0.000431,0.004466
30858000,0.0324,0.013523,0.002678,0.000431,0.034788
30859000,0.0324,0.013523,0.002678,0.000431,0.042310
30860000,0.0324,0.013523,0.002678,0.000431,0.004701
30861000,0.0324,0.013523,0.002678,0.000431,0.035023
30862000,0.0324,0.013523,0.002678,0.000431,0.004701
30863000,0.0324,0.013523,0.002678,0.000431,0.042545
30864000,0.0324,0.013523,0.002678,0.000431,0.004701
30865000,0.0324,0.013523,0.002678,0.000431,0.004701
30866000,0.0324,0.013523,0.002678,0.000431,0.004701
30867000,0.0324,0.013523,0.002678,0.000431,0.004466
30868000,0.0324,0.013523,0.002678,0.000431,0.057354
30869000,0.0324,0.013523,0.002678,0.000431,0.040900
30870000,0.0324,0.013523,0.002678,0.000431,0.058764
30871000,0.0324,0.013523,0.002678,0.000431,0.049832
30872000,0.0324,0.013523,0.002678,0.000431,0.012223
30873000,0.0324,0.013523,0.002678,0.000431,0.004701
30874000,0.0324,0.013523,0.002678,0.000431,0.035023
30875000,0.0324,0.013523,0.002678,0.000431,0.012223
30876000,0.0324,0.013523,0.002678,0.000431,0.004701
30877000,0.0324,0.013523,0.002678,0.000431,0.004701
30878000,0.0324,0.013523,0.002678,0.000431,0.019745
30879000,0.0324,0.013523,0.002678,0.000431,0.004701
30880000,0.0324,0.013523,0.002678,0.000431,0.004701
30881000,0.0324,0.013523,0.002678,0.000431,0.004584
30882000,0.0324,0.013523,0.002678,0.000431,0.029265
30883000,0.0324,0.013523,0.002678,0.000431,0.017864
30884000,0.0324,0.013523,0.002678,0.000431,0.004701
30885000,0.0324,0.013523,0.002678,0.000431,0.004701
30886000,0.0324,0.013523,0.002678,0.000431,0.004701
30887000,0.0324,0.013523,0.002678,0.000431,0.012223
30888000,0.0324,0.013523,0.002678,0.000431,0.004701
30889000,0.0324,0.013523,0.002678,0.000431,0.064876
30890000,0.0324,0.013523,0.002678,0.000431,0.032438
30891000,0.0324,0.013523,0.002678,0.000431,0.044661
30892000,0.0324,0.013523,0.002678,0.000431,0.004701
30893000,0.0324,0.013523,0.002678,0.000431,0.021978
30894000,0.0324,0.013523,0.002678,0.000431,0.032555
30895000,0.0324,0.013523,0.002678,0.000431,0.004701
30896000,0.0324,0.013523,0.002678,0.000431,0.034788
30897000,0.0324,0.013523,0.002678,0.000431,0.042663
30898000,0.0324,0.013523,0.002678,0.000431,0.004584
30899000,0.0324,0.013523,0.002678,0.000431,0.004701
30900000,0.0324,0.013523,0.002678,0.000431,0.004701
30901000,0.0324,0.013523,0.002678,0.000431,0.004701
30902000,0.0324,0.013523,0.002678,0.000431,0.018099
30903000,0.0324,0.013523,0.002678,0.000431,0.014103
30904000,0.0324,0.013523,0.002678,0.000431,0.004701
30905000,0.0324,0.013523,0.002678,0.000431,0.004701
30906000,0.0324,0.013523,0.002678,0.000431,0.019745
30907000,0.0324,0.013523,0.002678,0.000431,0.004466
30908000,0.0324,0.013523,0.002678,0.000431,0.004701
30909000,0.0324,0.013523,0.002678,0.000431,0.012223
30910000,0.0324,0.013523,0.002678,0.000431,0.012223
30911000,0.0324,0.013523,0.002678,0.000431,0.004701
30912000,0.0324,0.013523,0.002678,0.000431,0.004701
30913000,0.0324,0.013523,0.002678,0.000431,0.042310
30914000,0.0324,0.013523,0.002678,0.000431,0.004701
30915000,0.0324,0.013523,0.002678,0.000431,0.004701
30916000,0.0324,0.013523,0.002678,0.000431,0.102485
30917000,0.0324,0.013523,0.002678,0.000431,0.004701
30918000,0.0324,0.013523,0.002678,0.000431,0.004701
30919000,0.0324,0.013523,0.002678,0.000431,0.085678
30920000,0.0324,0.013523,0.002678,0.000431,0.036786
30921000,0.0324,0.013523,0.002678,0.000431,0.004584
30922000,0.0324,0.013523,0.002678,0.000431,0.057236
30923000,0.0324,0.013523,0.002678,0.000431,0.004701
30924000,0.0324,0.013523,0.002678,0.000431,0.004701
30925000,0.0324,0.013523,0.002678,0.000431,0.004701
30926000,0.0324,0.013523,0.002678,0.000431,0.019745
30927000,0.0324,0.013523,0.002678,0.000431,0.004701
30928000,0.0324,0.013523,0.002678,0.000431,0.004701
30929000,0.0324,0.013523,0.002678,0.000431,0.046071
30930000,0.0324,0.013523,0.002678,0.000431,0.008462
30931000,0.0324,0.013523,0.002678,0.000431,0.004701
30932000,0.0324,0.013523,0.002678,0.000431,0.019745
30933000,0.0324,0.013523,0.002678,0.000431,0.004466
30934000,0.0324,0.013523,0.002678,0.000431,0.004701
30935000,0.0324,0.013523,0.002678,0.000431,0.004701
30936000,0.0324,0.013523,0.002678,0.000431,0.004701
30937000,0.0324,0.013523,0.002678,0.000431,0.004701
30938000,0.0324,0.013523,0.002678,0.000431,0.005759
30939000,0.0324,0.013523,0.002678,0.000431,0.011165
30940000,0.0324,0.013523,0.002678,0.000431,0.004701
30941000,0.0324,0.013523,0.002678,0.000431,0.011048
30942000,0.0324,0.013523,0.002678,0.000431,0.083210
30943000,0.0324,0.013523,0.002678,0.000431,0.047716
30944000,0.0324,0.013523,0.002678,0.000431,0.004701
30945000,0.0324,0.013523,0.002678,0.000431,0.019745
30946000,0.0324,0.013523,0.002678,0.000431,0.004701
30947000,0.0324,0.013523,0.002678,0.000431,0.004466
30948000,0.0324,0.013523,0.002678,0.000431,0.012223
30949000,0.0324,0.013523,0.002678,0.000431,0.004701
30950000,0.0324,0.013523,0.002678,0.000431,0.004701
30951000,0.0324,0.013523,0.002678,0.000431,0.026561
30952000,0.0324,0.013523,0.002678,0.000431,0.020685
30953000,0.0324,0.013523,0.002678,0.000431,0.124697
30954000,0.0324,0.013523,0.002678,0.000431,0.042310
30955000,0.0324,0.013523,0.002678,0.000431,0.042193
30956000,0.0324,0.013523,0.002678,0.000431,0.004584
30957000,0.0324,0.013523,0.002678,0.000431,0.004584
30958000,0.0324,0.013523,0.002678,0.000431,0.027267
30959000,0.0324,0.013523,0.002678,0.000431,0.004466
30960000,0.0324,0.013523,0.002678,0.000431,0.004701
30961000,0.0324,0.013523,0.002678,0.000431,0.027031
30962000,0.0324,0.013523,0.002678,0.000431,0.035023
30963000,0.0324,0.013523,0.002678,0.000431,0.004701
30964000,0.0324,0.013523,0.002678,0.000431,0.034788
30965000,0.0324,0.013523,0.002678,0.000431,0.019745
30966000,0.0324,0.013523,0.002678,0.000431,0.012458
30967000,0.0324,0.013523,0.002678,0.000431,0.004701
30968000,0.0324,0.013523,0.002678,0.000431,0.004701
30969000,0.0324,0.013523,0.002678,0.000431,0.027267
30970000,0.0324,0.013523,0.002678,0.000431,0.004701
30971000,0.0324,0.013523,0.002678,0.000431,0.027267
30972000,0.0324,0.013523,0.002678,0.000431,0.004701
30973000,0.0324,0.013523,0.002678,0.000431,0.019510
30974000,0.0324,0.013523,0.002678,0.000431,0.004701
30975000,0.0324,0.013523,0.002678,0.000431,0.012223
30976000,0.0324,0.013523,0.002678,0.000431,0.004701
30977000,0.0324,0.013523,0.002678,0.000431,0.030675
30978000,0.0324,0.013523,0.002678,0.000431,0.016336
30979000,0.0324,0.013523,0.002678,0.000431,0.012458
30980000,0.0324,0.013523,0.002678,0.000431,0.004701
30981000,0.0324,0.013523,0.002678,0.000431,0.014338
30982000,0.0324,0.013523,0.002678,0.000431,0.055943
30983000,0.0324,0.013523,0.002678,0.000431,0.057354
30984000,0.0324,0.013523,0.002678,0.000431,0.004584
30985000,0.0324,0.013523,0.002678,0.000431,0.019627
30986000,0.0324,0.013523,0.002678,0.000431,0.004701
30987000,0.0324,0.013523,0.002678,0.000431,0.004701
30988000,0.0324,0.013523,0.002678,0.000431,0.078156
30989000,0.0324,0.013523,0.002678,0.000431,0.006699
30990000,0.0324,0.013523,0.002678,0.000431,0.012223
30991000,0.0324,0.013523,0.002678,0.000431,0.004701
30992000,0.0324,0.013523,0.002678,0.000431,0.019745
30993000,0.0324,0.013523,0.002678,0.000431,0.004701
30994000,0.0324,0.013523,0.002678,0.000431,0.004701
30995000,0.0324,0.013523,0.002678,0.000431,0.004701
30996000,0.0324,0.013523,0.002678,0.000431,0.020097
30997000,0.0324,0.013523,0.002678,0.000431,0.012105
30998000,0.0324,0.013523,0.002678,0.000431,0.062760
30999000,0.0324,0.013523,0.002678,0.000431,0.021860
