Cycle,Area(mm^2),PeakDynamic(W),SubthresholdLeakage(W),GateLeakage(W),RunTimeDynamic(W)
15000000,0.0324,0.013523,0.002678,0.000431,0.039960
15001000,0.0324,0.013523,0.002678,0.000431,0.031027
15002000,0.0324,0.013523,0.002678,0.000431,0.023506
15003000,0.0324,0.013523,0.002678,0.000431,0.011635
15004000,0.0324,0.013523,0.002678,0.000431,0.012576
15005000,0.0324,0.013523,0.002678,0.000431,0.004701
15006000,0.0324,0.013523,0.002678,0.000431,0.019980
15007000,0.0324,0.013523,0.002678,0.000431,0.004701
15008000,0.0324,0.013523,0.002678,0.000431,0.087441
15009000,0.0324,0.013523,0.002678,0.000431,0.004701
15010000,0.0324,0.013523,0.002678,0.000431,0.004701
15011000,0.0324,0.013523,0.002678,0.000431,0.019745
15012000,0.0324,0.013523,0.002678,0.000431,0.012223
15013000,0.0324,0.013523,0.002678,0.000431,0.012223
15014000,0.0324,0.013523,0.002678,0.000431,0.004584
15015000,0.0324,0.013523,0.002678,0.000431,0.027149
15016000,0.0324,0.013523,0.002678,0.000431,0.004701
15017000,0.0324,0.013523,0.002678,0.000431,0.031380
15018000,0.0324,0.013523,0.002678,0.000431,0.038197
15019000,0.0324,0.013523,0.002678,0.000431,0.097431
15020000,0.0324,0.013523,0.002678,0.000431,0.025504
15021000,0.0324,0.013523,0.002678,0.000431,0.012223
15022000,0.0324,0.013523,0.002678,0.000431,0.004466
15023000,0.0324,0.013523,0.002678,0.000431,0.004701
15024000,0.0324,0.013523,0.002678,0.000431,0.019745
15025000,0.0324,0.013523,0.002678,0.000431,0.004701
15026000,0.0324,0.013523,0.002678,0.000431,0.049832
15027000,0.0324,0.013523,0.002678,0.000431,0.004701
15028000,0.0324,0.013523,0.002678,0.000431,0.042545
15029000,0.0324,0.013523,0.002678,0.000431,0.012340
15030000,0.0324,0.013523,0.002678,0.000431,0.019862
15031000,0.0324,0.013523,0.002678,0.000431,0.004701
15032000,0.0324,0.013523,0.002678,0.000431,0.004701
15033000,0.0324,0.013523,0.002678,0.000431,0.004701
15034000,0.0324,0.013523,0.002678,0.000431,0.012223
15035000,0.0324,0.013523,0.002678,0.000431,0.004701
15036000,0.0324,0.013523,0.002678,0.000431,0.004701
15037000,0.0324,0.013523,0.002678,0.000431,0.050067
15038000,0.0324,0.013523,0.002678,0.000431,0.004936
15039000,0.0324,0.013523,0.002678,0.000431,0.004701
15040000,0.0324,0.013523,0.002678,0.000431,0.004701
15041000,0.0324,0.013523,0.002678,0.000431,0.004701
15042000,0.0324,0.013523,0.002678,0.000431,0.026914
15043000,0.0324,0.013523,0.002678,0.000431,0.012811
15044000,0.0324,0.013523,0.002678,0.000431,0.004466
15045000,0.0324,0.013523,0.002678,0.000431,0.064876
15046000,0.0324,0.013523,0.002678,0.000431,0.004701
15047000,0.0324,0.013523,0.002678,0.000431,0.004701
15048000,0.0324,0.013523,0.002678,0.000431,0.004701
15049000,0.0324,0.013523,0.002678,0.000431,0.087441
15050000,0.0324,0.013523,0.002678,0.000431,0.080154
15051000,0.0324,0.013523,0.002678,0.000431,0.053593
15052000,0.0324,0.013523,0.002678,0.000431,0.008462
15053000,0.0324,0.013523,0.002678,0.000431,0.004701
15054000,0.0324,0.013523,0.002678,0.000431,0.004701
15055000,0.0324,0.013523,0.002678,0.000431,0.004701
15056000,0.0324,0.013523,0.002678,0.000431,0.050067
15057000,0.0324,0.013523,0.002678,0.000431,0.019745
15058000,0.0324,0.013523,0.002678,0.000431,0.004701
15059000,0.0324,0.013523,0.002678,0.000431,0.004701
15060000,0.0324,0.013523,0.002678,0.000431,0.004701
15061000,0.0324,0.013523,0.002678,0.000431,0.004701
15062000,0.0324,0.013523,0.002678,0.000431,0.004701
15063000,0.0324,0.013523,0.002678,0.000431,0.072397
15064000,0.0324,0.013523,0.002678,0.000431,0.010578
15065000,0.0324,0.013523,0.002678,0.000431,0.059587
15066000,0.0324,0.013523,0.002678,0.000431,0.019157
15067000,0.0324,0.013523,0.002678,0.000431,0.004701
15068000,0.0324,0.013523,0.002678,0.000431,0.004701
15069000,0.0324,0.013523,0.002678,0.000431,0.103425
15070000,0.0324,0.013523,0.002678,0.000431,0.012928
15071000,0.0324,0.013523,0.002678,0.000431,0.123405
15072000,0.0324,0.013523,0.002678,0.000431,0.004701
15073000,0.0324,0.013523,0.002678,0.000431,0.012223
15074000,0.0324,0.013523,0.002678,0.000431,0.004701
15075000,0.0324,0.013523,0.002678,0.000431,0.004819
15076000,0.0324,0.013523,0.002678,0.000431,0.026914
15077000,0.0324,0.013523,0.002678,0.000431,0.008462
15078000,0.0324,0.013523,0.002678,0.000431,0.008462
15079000,0.0324,0.013523,0.002678,0.000431,0.004701
15080000,0.0324,0.013523,0.002678,0.000431,0.004701
15081000,0.0324,0.013523,0.002678,0.000431,0.004466
15082000,0.0324,0.013523,0.002678,0.000431,0.019745
15083000,0.0324,0.013523,0.002678,0.000431,0.004701
15084000,0.0324,0.013523,0.002678,0.000431,0.004936
15085000,0.0324,0.013523,0.002678,0.000431,0.004466
15086000,0.0324,0.013523,0.002678,0.000431,0.004701
15087000,0.0324,0.013523,0.002678,0.000431,0.004701
15088000,0.0324,0.013523,0.002678,0.000431,0.019745
15089000,0.0324,0.013523,0.002678,0.000431,0.004701
15090000,0.0324,0.013523,0.002678,0.000431,0.027267
15091000,0.0324,0.013523,0.002678,0.000431,0.094963
15092000,0.0324,0.013523,0.002678,0.000431,0.008462
15093000,0.0324,0.013523,0.002678,0.000431,0.008462
15094000,0.0324,0.013523,0.002678,0.000431,0.004701
15095000,0.0324,0.013523,0.002678,0.000431,0.004701
15096000,0.0324,0.013523,0.002678,0.000431,0.027267
15097000,0.0324,0.013523,0.002678,0.000431,0.004701
15098000,0.0324,0.013523,0.002678,0.000431,0.008580
15099000,0.0324,0.013523,0.002678,0.000431,0.008580
15100000,0.0324,0.013523,0.002678,0.000431,0.004466
15101000,0.0324,0.013523,0.002678,0.000431,0.117528
15102000,0.0324,0.013523,0.002678,0.000431,0.056884
15103000,0.0324,0.013523,0.002678,0.000431,0.004701
15104000,0.0324,0.013523,0.002678,0.000431,0.019745
15105000,0.0324,0.013523,0.002678,0.000431,0.064876
15106000,0.0324,0.013523,0.002678,0.000431,0.004701
15107000,0.0324,0.013523,0.002678,0.000431,0.004701
15108000,0.0324,0.013523,0.002678,0.000431,0.004701
15109000,0.0324,0.013523,0.002678,0.000431,0.004701
15110000,0.0324,0.013523,0.002678,0.000431,0.015984
15111000,0.0324,0.013523,0.002678,0.000431,0.106128
15112000,0.0324,0.013523,0.002678,0.000431,0.027384
15113000,0.0324,0.013523,0.002678,0.000431,0.004701
15114000,0.0324,0.013523,0.002678,0.000431,0.004701
15115000,0.0324,0.013523,0.002678,0.000431,0.004466
15116000,0.0324,0.013523,0.002678,0.000431,0.004584
15117000,0.0324,0.013523,0.002678,0.000431,0.004584
15118000,0.0324,0.013523,0.002678,0.000431,0.004701
15119000,0.0324,0.013523,0.002678,0.000431,0.016336
15120000,0.0324,0.013523,0.002678,0.000431,0.056178
15121000,0.0324,0.013523,0.002678,0.000431,0.016807
15122000,0.0324,0.013523,0.002678,0.000431,0.004701
15123000,0.0324,0.013523,0.002678,0.000431,0.004701
15124000,0.0324,0.013523,0.002678,0.000431,0.004701
15125000,0.0324,0.013523,0.002678,0.000431,0.004584
15126000,0.0324,0.013523,0.002678,0.000431,0.076158
15127000,0.0324,0.013523,0.002678,0.000431,0.016101
15128000,0.0324,0.013523,0.002678,0.000431,0.008462
15129000,0.0324,0.013523,0.002678,0.000431,0.012223
15130000,0.0324,0.013523,0.002678,0.000431,0.008462
15131000,0.0324,0.013523,0.002678,0.000431,0.004701
15132000,0.0324,0.013523,0.002678,0.000431,0.012223
15133000,0.0324,0.013523,0.002678,0.000431,0.133042
15134000,0.0324,0.013523,0.002678,0.000431,0.012223
15135000,0.0324,0.013523,0.002678,0.000431,0.065346
15136000,0.0324,0.013523,0.002678,0.000431,0.019745
15137000,0.0324,0.013523,0.002678,0.000431,0.004701
15138000,0.0324,0.013523,0.002678,0.000431,0.004701
15139000,0.0324,0.013523,0.002678,0.000431,0.023741
15140000,0.0324,0.013523,0.002678,0.000431,0.023036
15141000,0.0324,0.013523,0.002678,0.000431,0.016924
15142000,0.0324,0.013523,0.002678,0.000431,0.061702
15143000,0.0324,0.013523,0.002678,0.000431,0.048539
15144000,0.0324,0.013523,0.002678,0.000431,0.004701
15145000,0.0324,0.013523,0.002678,0.000431,0.019745
15146000,0.0324,0.013523,0.002678,0.000431,0.004701
15147000,0.0324,0.013523,0.002678,0.000431,0.004701
15148000,0.0324,0.013523,0.002678,0.000431,0.095198
15149000,0.0324,0.013523,0.002678,0.000431,0.072867
15150000,0.0324,0.013523,0.002678,0.000431,0.004701
15151000,0.0324,0.013523,0.002678,0.000431,0.010695
15152000,0.0324,0.013523,0.002678,0.000431,0.006229
15153000,0.0324,0.013523,0.002678,0.000431,0.004701
15154000,0.0324,0.013523,0.002678,0.000431,0.008462
15155000,0.0324,0.013523,0.002678,0.000431,0.021860
15156000,0.0324,0.013523,0.002678,0.000431,0.030792
15157000,0.0324,0.013523,0.002678,0.000431,0.033378
15158000,0.0324,0.013523,0.002678,0.000431,0.117293
15159000,0.0324,0.013523,0.002678,0.000431,0.004701
15160000,0.0324,0.013523,0.002678,0.000431,0.004701
15161000,0.0324,0.013523,0.002678,0.000431,0.004701
15162000,0.0324,0.013523,0.002678,0.000431,0.042545
15163000,0.0324,0.013523,0.002678,0.000431,0.040077
15164000,0.0324,0.013523,0.002678,0.000431,0.006934
15165000,0.0324,0.013523,0.002678,0.000431,0.004701
15166000,0.0324,0.013523,0.002678,0.000431,0.004701
15167000,0.0324,0.013523,0.002678,0.000431,0.004701
15168000,0.0324,0.013523,0.002678,0.000431,0.004701
15169000,0.0324,0.013523,0.002678,0.000431,0.004936
15170000,0.0324,0.013523,0.002678,0.000431,0.034788
15171000,0.0324,0.013523,0.002678,0.000431,0.004701
15172000,0.0324,0.013523,0.002678,0.000431,0.004701
15173000,0.0324,0.013523,0.002678,0.000431,0.004701
15174000,0.0324,0.013523,0.002678,0.000431,0.042075
15175000,0.0324,0.013523,0.002678,0.000431,0.012458
15176000,0.0324,0.013523,0.002678,0.000431,0.004701
15177000,0.0324,0.013523,0.002678,0.000431,0.004701
15178000,0.0324,0.013523,0.002678,0.000431,0.004701
15179000,0.0324,0.013523,0.002678,0.000431,0.004466
15180000,0.0324,0.013523,0.002678,0.000431,0.011988
15181000,0.0324,0.013523,0.002678,0.000431,0.035023
15182000,0.0324,0.013523,0.002678,0.000431,0.004701
15183000,0.0324,0.013523,0.002678,0.000431,0.042310
15184000,0.0324,0.013523,0.002678,0.000431,0.012223
15185000,0.0324,0.013523,0.002678,0.000431,0.004701
15186000,0.0324,0.013523,0.002678,0.000431,0.008932
15187000,0.0324,0.013523,0.002678,0.000431,0.120819
15188000,0.0324,0.013523,0.002678,0.000431,0.027267
15189000,0.0324,0.013523,0.002678,0.000431,0.004701
15190000,0.0324,0.013523,0.002678,0.000431,0.027267
15191000,0.0324,0.013523,0.002678,0.000431,0.004701
15192000,0.0324,0.013523,0.002678,0.000431,0.004701
15193000,0.0324,0.013523,0.002678,0.000431,0.004701
15194000,0.0324,0.013523,0.002678,0.000431,0.174764
15195000,0.0324,0.013523,0.002678,0.000431,0.052535
15196000,0.0324,0.013523,0.002678,0.000431,0.027267
15197000,0.0324,0.013523,0.002678,0.000431,0.004701
15198000,0.0324,0.013523,0.002678,0.000431,0.004584
15199000,0.0324,0.013523,0.002678,0.000431,0.012105
15200000,0.0324,0.013523,0.002678,0.000431,0.057589
15201000,0.0324,0.013523,0.002678,0.000431,0.004701
15202000,0.0324,0.013523,0.002678,0.000431,0.004701
15203000,0.0324,0.013523,0.002678,0.000431,0.004701
15204000,0.0324,0.013523,0.002678,0.000431,0.004701
15205000,0.0324,0.013523,0.002678,0.000431,0.004701
15206000,0.0324,0.013523,0.002678,0.000431,0.104365
15207000,0.0324,0.013523,0.002678,0.000431,0.085561
15208000,0.0324,0.013523,0.002678,0.000431,0.004701
15209000,0.0324,0.013523,0.002678,0.000431,0.004701
15210000,0.0324,0.013523,0.002678,0.000431,0.029735
15211000,0.0324,0.013523,0.002678,0.000431,0.114825
15212000,0.0324,0.013523,0.002678,0.000431,0.012223
15213000,0.0324,0.013523,0.002678,0.000431,0.012223
15214000,0.0324,0.013523,0.002678,0.000431,0.004701
15215000,0.0324,0.013523,0.002678,0.000431,0.004701
15216000,0.0324,0.013523,0.002678,0.000431,0.015984
15217000,0.0324,0.013523,0.002678,0.000431,0.071340
15218000,0.0324,0.013523,0.002678,0.000431,0.009990
15219000,0.0324,0.013523,0.002678,0.000431,0.004466
15220000,0.0324,0.013523,0.002678,0.000431,0.012223
15221000,0.0324,0.013523,0.002678,0.000431,0.004701
15222000,0.0324,0.013523,0.002678,0.000431,0.004701
15223000,0.0324,0.013523,0.002678,0.000431,0.061115
15224000,0.0324,0.013523,0.002678,0.000431,0.038549
15225000,0.0324,0.013523,0.002678,0.000431,0.004701
15226000,0.0324,0.013523,0.002678,0.000431,0.004701
15227000,0.0324,0.013523,0.002678,0.000431,0.004701
15228000,0.0324,0.013523,0.002678,0.000431,0.004466
15229000,0.0324,0.013523,0.002678,0.000431,0.004701
15230000,0.0324,0.013523,0.002678,0.000431,0.008462
15231000,0.0324,0.013523,0.002678,0.000431,0.008345
15232000,0.0324,0.013523,0.002678,0.000431,0.004584
15233000,0.0324,0.013523,0.002678,0.000431,0.004701
15234000,0.0324,0.013523,0.002678,0.000431,0.004701
15235000,0.0324,0.013523,0.002678,0.000431,0.004701
15236000,0.0324,0.013523,0.002678,0.000431,0.046306
15237000,0.0324,0.013523,0.002678,0.000431,0.046306
15238000,0.0324,0.013523,0.002678,0.000431,0.004701
15239000,0.0324,0.013523,0.002678,0.000431,0.004701
15240000,0.0324,0.013523,0.002678,0.000431,0.004701
15241000,0.0324,0.013523,0.002678,0.000431,0.004701
15242000,0.0324,0.013523,0.002678,0.000431,0.004701
15243000,0.0324,0.013523,0.002678,0.000431,0.083680
15244000,0.0324,0.013523,0.002678,0.000431,0.008462
15245000,0.0324,0.013523,0.002678,0.000431,0.004701
15246000,0.0324,0.013523,0.002678,0.000431,0.004701
15247000,0.0324,0.013523,0.002678,0.000431,0.004701
15248000,0.0324,0.013523,0.002678,0.000431,0.074395
15249000,0.0324,0.013523,0.002678,0.000431,0.033260
15250000,0.0324,0.013523,0.002678,0.000431,0.019157
15251000,0.0324,0.013523,0.002678,0.000431,0.004584
15252000,0.0324,0.013523,0.002678,0.000431,0.004701
15253000,0.0324,0.013523,0.002678,0.000431,0.004701
15254000,0.0324,0.013523,0.002678,0.000431,0.019745
15255000,0.0324,0.013523,0.002678,0.000431,0.027502
15256000,0.0324,0.013523,0.002678,0.000431,0.012458
15257000,0.0324,0.013523,0.002678,0.000431,0.004701
15258000,0.0324,0.013523,0.002678,0.000431,0.004701
15259000,0.0324,0.013523,0.002678,0.000431,0.124580
15260000,0.0324,0.013523,0.002678,0.000431,0.004701
15261000,0.0324,0.013523,0.002678,0.000431,0.145852
15262000,0.0324,0.013523,0.002678,0.000431,0.036316
15263000,0.0324,0.013523,0.002678,0.000431,0.017277
15264000,0.0324,0.013523,0.002678,0.000431,0.037256
15265000,0.0324,0.013523,0.002678,0.000431,0.004701
15266000,0.0324,0.013523,0.002678,0.000431,0.012223
15267000,0.0324,0.013523,0.002678,0.000431,0.004701
15268000,0.0324,0.013523,0.002678,0.000431,0.072632
15269000,0.0324,0.013523,0.002678,0.000431,0.009755
15270000,0.0324,0.013523,0.002678,0.000431,0.029735
15271000,0.0324,0.013523,0.002678,0.000431,0.004584
15272000,0.0324,0.013523,0.002678,0.000431,0.012105
15273000,0.0324,0.013523,0.002678,0.000431,0.027267
15274000,0.0324,0.013523,0.002678,0.000431,0.016101
15275000,0.0324,0.013523,0.002678,0.000431,0.084033
15276000,0.0324,0.013523,0.002678,0.000431,0.019745
15277000,0.0324,0.013523,0.002678,0.000431,0.004701
15278000,0.0324,0.013523,0.002678,0.000431,0.004701
15279000,0.0324,0.013523,0.002678,0.000431,0.004466
15280000,0.0324,0.013523,0.002678,0.000431,0.004701
15281000,0.0324,0.013523,0.002678,0.000431,0.059822
15282000,0.0324,0.013523,0.002678,0.000431,0.054886
15283000,0.0324,0.013523,0.002678,0.000431,0.027267
15284000,0.0324,0.013523,0.002678,0.000431,0.019745
15285000,0.0324,0.013523,0.002678,0.000431,0.004701
15286000,0.0324,0.013523,0.002678,0.000431,0.051125
15287000,0.0324,0.013523,0.002678,0.000431,0.018452
15288000,0.0324,0.013523,0.002678,0.000431,0.004701
15289000,0.0324,0.013523,0.002678,0.000431,0.004701
15290000,0.0324,0.013523,0.002678,0.000431,0.004701
15291000,0.0324,0.013523,0.002678,0.000431,0.004701
15292000,0.0324,0.013523,0.002678,0.000431,0.012223
15293000,0.0324,0.013523,0.002678,0.000431,0.028442
15294000,0.0324,0.013523,0.002678,0.000431,0.071222
15295000,0.0324,0.013523,0.002678,0.000431,0.004701
15296000,0.0324,0.013523,0.002678,0.000431,0.004701
15297000,0.0324,0.013523,0.002678,0.000431,0.038549
15298000,0.0324,0.013523,0.002678,0.000431,0.023271
15299000,0.0324,0.013523,0.002678,0.000431,0.004701
15300000,0.0324,0.013523,0.002678,0.000431,0.088851
15301000,0.0324,0.013523,0.002678,0.000431,0.010578
15302000,0.0324,0.013523,0.002678,0.000431,0.004466
15303000,0.0324,0.013523,0.002678,0.000431,0.008227
15304000,0.0324,0.013523,0.002678,0.000431,0.008462
15305000,0.0324,0.013523,0.002678,0.000431,0.042310
15306000,0.0324,0.013523,0.002678,0.000431,0.015984
15307000,0.0324,0.013523,0.002678,0.000431,0.015984
15308000,0.0324,0.013523,0.002678,0.000431,0.004701
15309000,0.0324,0.013523,0.002678,0.000431,0.004701
15310000,0.0324,0.013523,0.002678,0.000431,0.004701
15311000,0.0324,0.013523,0.002678,0.000431,0.027267
15312000,0.0324,0.013523,0.002678,0.000431,0.004701
15313000,0.0324,0.013523,0.002678,0.000431,0.012223
15314000,0.0324,0.013523,0.002678,0.000431,0.004701
15315000,0.0324,0.013523,0.002678,0.000431,0.004701
15316000,0.0324,0.013523,0.002678,0.000431,0.004584
15317000,0.0324,0.013523,0.002678,0.000431,0.004584
15318000,0.0324,0.013523,0.002678,0.000431,0.008815
15319000,0.0324,0.013523,0.002678,0.000431,0.065228
15320000,0.0324,0.013523,0.002678,0.000431,0.023506
15321000,0.0324,0.013523,0.002678,0.000431,0.004701
15322000,0.0324,0.013523,0.002678,0.000431,0.004701
15323000,0.0324,0.013523,0.002678,0.000431,0.004701
15324000,0.0324,0.013523,0.002678,0.000431,0.042545
15325000,0.0324,0.013523,0.002678,0.000431,0.004701
15326000,0.0324,0.013523,0.002678,0.000431,0.004701
15327000,0.0324,0.013523,0.002678,0.000431,0.004936
15328000,0.0324,0.013523,0.002678,0.000431,0.004701
15329000,0.0324,0.013523,0.002678,0.000431,0.004701
15330000,0.0324,0.013523,0.002678,0.000431,0.019745
15331000,0.0324,0.013523,0.002678,0.000431,0.079684
15332000,0.0324,0.013523,0.002678,0.000431,0.017747
15333000,0.0324,0.013523,0.002678,0.000431,0.006699
15334000,0.0324,0.013523,0.002678,0.000431,0.004701
15335000,0.0324,0.013523,0.002678,0.000431,0.004701
15336000,0.0324,0.013523,0.002678,0.000431,0.004466
15337000,0.0324,0.013523,0.002678,0.000431,0.012223
15338000,0.0324,0.013523,0.002678,0.000431,0.012223
15339000,0.0324,0.013523,0.002678,0.000431,0.087441
15340000,0.0324,0.013523,0.002678,0.000431,0.004701
15341000,0.0324,0.013523,0.002678,0.000431,0.004701
15342000,0.0324,0.013523,0.002678,0.000431,0.004466
15343000,0.0324,0.013523,0.002678,0.000431,0.015396
15344000,0.0324,0.013523,0.002678,0.000431,0.031615
15345000,0.0324,0.013523,0.002678,0.000431,0.004936
15346000,0.0324,0.013523,0.002678,0.000431,0.004701
15347000,0.0324,0.013523,0.002678,0.000431,0.004701
15348000,0.0324,0.013523,0.002678,0.000431,0.004701
15349000,0.0324,0.013523,0.002678,0.000431,0.072632
15350000,0.0324,0.013523,0.002678,0.000431,0.012223
15351000,0.0324,0.013523,0.002678,0.000431,0.104483
15352000,0.0324,0.013523,0.002678,0.000431,0.218602
15353000,0.0324,0.013523,0.002678,0.000431,0.013516
15354000,0.0324,0.013523,0.002678,0.000431,0.004701
15355000,0.0324,0.013523,0.002678,0.000431,0.004701
15356000,0.0324,0.013523,0.002678,0.000431,0.004701
15357000,0.0324,0.013523,0.002678,0.000431,0.019745
15358000,0.0324,0.013523,0.002678,0.000431,0.004701
15359000,0.0324,0.013523,0.002678,0.000431,0.004701
15360000,0.0324,0.013523,0.002678,0.000431,0.004701
15361000,0.0324,0.013523,0.002678,0.000431,0.004701
15362000,0.0324,0.013523,0.002678,0.000431,0.004701
15363000,0.0324,0.013523,0.002678,0.000431,0.004466
15364000,0.0324,0.013523,0.002678,0.000431,0.015984
15365000,0.0324,0.013523,0.002678,0.000431,0.015984
15366000,0.0324,0.013523,0.002678,0.000431,0.018922
15367000,0.0324,0.013523,0.002678,0.000431,0.103542
15368000,0.0324,0.013523,0.002678,0.000431,0.004701
15369000,0.0324,0.013523,0.002678,0.000431,0.038197
15370000,0.0324,0.013523,0.002678,0.000431,0.008815
15371000,0.0324,0.013523,0.002678,0.000431,0.019745
15372000,0.0324,0.013523,0.002678,0.000431,0.019980
15373000,0.0324,0.013523,0.002678,0.000431,0.027502
15374000,0.0324,0.013523,0.002678,0.000431,0.004701
15375000,0.0324,0.013523,0.002678,0.000431,0.004701
15376000,0.0324,0.013523,0.002678,0.000431,0.034671
15377000,0.0324,0.013523,0.002678,0.000431,0.004584
15378000,0.0324,0.013523,0.002678,0.000431,0.057236
15379000,0.0324,0.013523,0.002678,0.000431,0.019627
15380000,0.0324,0.013523,0.002678,0.000431,0.004701
15381000,0.0324,0.013523,0.002678,0.000431,0.004701
15382000,0.0324,0.013523,0.002678,0.000431,0.004701
15383000,0.0324,0.013523,0.002678,0.000431,0.004701
15384000,0.0324,0.013523,0.002678,0.000431,0.034788
15385000,0.0324,0.013523,0.002678,0.000431,0.012223
15386000,0.0324,0.013523,0.002678,0.000431,0.027267
15387000,0.0324,0.013523,0.002678,0.000431,0.004701
15388000,0.0324,0.013523,0.002678,0.000431,0.008462
15389000,0.0324,0.013523,0.002678,0.000431,0.008462
15390000,0.0324,0.013523,0.002678,0.000431,0.019745
15391000,0.0324,0.013523,0.002678,0.000431,0.042310
15392000,0.0324,0.013523,0.002678,0.000431,0.014338
15393000,0.0324,0.013523,0.002678,0.000431,0.025151
15394000,0.0324,0.013523,0.002678,0.000431,0.004701
15395000,0.0324,0.013523,0.002678,0.000431,0.042310
15396000,0.0324,0.013523,0.002678,0.000431,0.004701
15397000,0.0324,0.013523,0.002678,0.000431,0.049832
15398000,0.0324,0.013523,0.002678,0.000431,0.004701
15399000,0.0324,0.013523,0.002678,0.000431,0.057589
15400000,0.0324,0.013523,0.002678,0.000431,0.004701
15401000,0.0324,0.013523,0.002678,0.000431,0.012223
15402000,0.0324,0.013523,0.002678,0.000431,0.019745
15403000,0.0324,0.013523,0.002678,0.000431,0.027031
15404000,0.0324,0.013523,0.002678,0.000431,0.004701
15405000,0.0324,0.013523,0.002678,0.000431,0.009050
15406000,0.0324,0.013523,0.002678,0.000431,0.007757
15407000,0.0324,0.013523,0.002678,0.000431,0.004584
15408000,0.0324,0.013523,0.002678,0.000431,0.012223
15409000,0.0324,0.013523,0.002678,0.000431,0.007404
15410000,0.0324,0.013523,0.002678,0.000431,0.025034
15411000,0.0324,0.013523,0.002678,0.000431,0.004701
15412000,0.0324,0.013523,0.002678,0.000431,0.012458
15413000,0.0324,0.013523,0.002678,0.000431,0.004701
15414000,0.0324,0.013523,0.002678,0.000431,0.027149
15415000,0.0324,0.013523,0.002678,0.000431,0.004584
15416000,0.0324,0.013523,0.002678,0.000431,0.019980
15417000,0.0324,0.013523,0.002678,0.000431,0.049832
15418000,0.0324,0.013523,0.002678,0.000431,0.011988
15419000,0.0324,0.013523,0.002678,0.000431,0.004701
15420000,0.0324,0.013523,0.002678,0.000431,0.004701
15421000,0.0324,0.013523,0.002678,0.000431,0.042310
15422000,0.0324,0.013523,0.002678,0.000431,0.004701
15423000,0.0324,0.013523,0.002678,0.000431,0.027267
15424000,0.0324,0.013523,0.002678,0.000431,0.004701
15425000,0.0324,0.013523,0.002678,0.000431,0.004701
15426000,0.0324,0.013523,0.002678,0.000431,0.004701
15427000,0.0324,0.013523,0.002678,0.000431,0.076158
15428000,0.0324,0.013523,0.002678,0.000431,0.015984
15429000,0.0324,0.013523,0.002678,0.000431,0.015749
15430000,0.0324,0.013523,0.002678,0.000431,0.136333
15431000,0.0324,0.013523,0.002678,0.000431,0.004701
15432000,0.0324,0.013523,0.002678,0.000431,0.004701
15433000,0.0324,0.013523,0.002678,0.000431,0.004701
15434000,0.0324,0.013523,0.002678,0.000431,0.004701
15435000,0.0324,0.013523,0.002678,0.000431,0.004701
15436000,0.0324,0.013523,0.002678,0.000431,0.012458
15437000,0.0324,0.013523,0.002678,0.000431,0.004701
15438000,0.0324,0.013523,0.002678,0.000431,0.004701
15439000,0.0324,0.013523,0.002678,0.000431,0.004701
15440000,0.0324,0.013523,0.002678,0.000431,0.004701
15441000,0.0324,0.013523,0.002678,0.000431,0.012223
15442000,0.0324,0.013523,0.002678,0.000431,0.023741
15443000,0.0324,0.013523,0.002678,0.000431,0.015749
15444000,0.0324,0.013523,0.002678,0.000431,0.027267
15445000,0.0324,0.013523,0.002678,0.000431,0.004701
15446000,0.0324,0.013523,0.002678,0.000431,0.004466
15447000,0.0324,0.013523,0.002678,0.000431,0.004466
15448000,0.0324,0.013523,0.002678,0.000431,0.004701
15449000,0.0324,0.013523,0.002678,0.000431,0.011988
15450000,0.0324,0.013523,0.002678,0.000431,0.019745
15451000,0.0324,0.013523,0.002678,0.000431,0.057589
15452000,0.0324,0.013523,0.002678,0.000431,0.004701
15453000,0.0324,0.013523,0.002678,0.000431,0.004701
15454000,0.0324,0.013523,0.002678,0.000431,0.004701
15455000,0.0324,0.013523,0.002678,0.000431,0.027031
15456000,0.0324,0.013523,0.002678,0.000431,0.004701
15457000,0.0324,0.013523,0.002678,0.000431,0.004701
15458000,0.0324,0.013523,0.002678,0.000431,0.064993
15459000,0.0324,0.013523,0.002678,0.000431,0.034906
15460000,0.0324,0.013523,0.002678,0.000431,0.004701
15461000,0.0324,0.013523,0.002678,0.000431,0.004701
15462000,0.0324,0.013523,0.002678,0.000431,0.004701
15463000,0.0324,0.013523,0.002678,0.000431,0.004701
15464000,0.0324,0.013523,0.002678,0.000431,0.008462
15465000,0.0324,0.013523,0.002678,0.000431,0.042310
15466000,0.0324,0.013523,0.002678,0.000431,0.008462
15467000,0.0324,0.013523,0.002678,0.000431,0.004701
15468000,0.0324,0.013523,0.002678,0.000431,0.032320
15469000,0.0324,0.013523,0.002678,0.000431,0.022095
15470000,0.0324,0.013523,0.002678,0.000431,0.034906
15471000,0.0324,0.013523,0.002678,0.000431,0.004701
15472000,0.0324,0.013523,0.002678,0.000431,0.019745
15473000,0.0324,0.013523,0.002678,0.000431,0.004701
15474000,0.0324,0.013523,0.002678,0.000431,0.027267
15475000,0.0324,0.013523,0.002678,0.000431,0.057589
15476000,0.0324,0.013523,0.002678,0.000431,0.004701
15477000,0.0324,0.013523,0.002678,0.000431,0.004701
15478000,0.0324,0.013523,0.002678,0.000431,0.004701
15479000,0.0324,0.013523,0.002678,0.000431,0.027267
15480000,0.0324,0.013523,0.002678,0.000431,0.027384
15481000,0.0324,0.013523,0.002678,0.000431,0.053475
15482000,0.0324,0.013523,0.002678,0.000431,0.031027
15483000,0.0324,0.013523,0.002678,0.000431,0.004701
15484000,0.0324,0.013523,0.002678,0.000431,0.004701
15485000,0.0324,0.013523,0.002678,0.000431,0.076393
15486000,0.0324,0.013523,0.002678,0.000431,0.008109
15487000,0.0324,0.013523,0.002678,0.000431,0.012105
15488000,0.0324,0.013523,0.002678,0.000431,0.019510
15489000,0.0324,0.013523,0.002678,0.000431,0.012223
15490000,0.0324,0.013523,0.002678,0.000431,0.004701
15491000,0.0324,0.013523,0.002678,0.000431,0.004701
15492000,0.0324,0.013523,0.002678,0.000431,0.012223
15493000,0.0324,0.013523,0.002678,0.000431,0.004701
15494000,0.0324,0.013523,0.002678,0.000431,0.004701
15495000,0.0324,0.013523,0.002678,0.000431,0.019627
15496000,0.0324,0.013523,0.002678,0.000431,0.019862
15497000,0.0324,0.013523,0.002678,0.000431,0.004701
15498000,0.0324,0.013523,0.002678,0.000431,0.019745
15499000,0.0324,0.013523,0.002678,0.000431,0.004701
15500000,0.0324,0.013523,0.002678,0.000431,0.004701
15501000,0.0324,0.013523,0.002678,0.000431,0.042780
15502000,0.0324,0.013523,0.002678,0.000431,0.004701
15503000,0.0324,0.013523,0.002678,0.000431,0.004701
15504000,0.0324,0.013523,0.002678,0.000431,0.004701
15505000,0.0324,0.013523,0.002678,0.000431,0.012105
15506000,0.0324,0.013523,0.002678,0.000431,0.034671
15507000,0.0324,0.013523,0.002678,0.000431,0.012223
15508000,0.0324,0.013523,0.002678,0.000431,0.012223
15509000,0.0324,0.013523,0.002678,0.000431,0.004701
15510000,0.0324,0.013523,0.002678,0.000431,0.004701
15511000,0.0324,0.013523,0.002678,0.000431,0.004701
15512000,0.0324,0.013523,0.002678,0.000431,0.004701
15513000,0.0324,0.013523,0.002678,0.000431,0.004701
15514000,0.0324,0.013523,0.002678,0.000431,0.004701
15515000,0.0324,0.013523,0.002678,0.000431,0.035023
15516000,0.0324,0.013523,0.002678,0.000431,0.004701
15517000,0.0324,0.013523,0.002678,0.000431,0.014573
15518000,0.0324,0.013523,0.002678,0.000431,0.009872
15519000,0.0324,0.013523,0.002678,0.000431,0.004701
15520000,0.0324,0.013523,0.002678,0.000431,0.027267
15521000,0.0324,0.013523,0.002678,0.000431,0.019745
15522000,0.0324,0.013523,0.002678,0.000431,0.004701
15523000,0.0324,0.013523,0.002678,0.000431,0.004701
15524000,0.0324,0.013523,0.002678,0.000431,0.012223
15525000,0.0324,0.013523,0.002678,0.000431,0.014221
15526000,0.0324,0.013523,0.002678,0.000431,0.010225
15527000,0.0324,0.013523,0.002678,0.000431,0.004466
15528000,0.0324,0.013523,0.002678,0.000431,0.019510
15529000,0.0324,0.013523,0.002678,0.000431,0.004701
15530000,0.0324,0.013523,0.002678,0.000431,0.027267
15531000,0.0324,0.013523,0.002678,0.000431,0.019745
15532000,0.0324,0.013523,0.002678,0.000431,0.004701
15533000,0.0324,0.013523,0.002678,0.000431,0.004701
15534000,0.0324,0.013523,0.002678,0.000431,0.004701
15535000,0.0324,0.013523,0.002678,0.000431,0.011988
15536000,0.0324,0.013523,0.002678,0.000431,0.004701
15537000,0.0324,0.013523,0.002678,0.000431,0.004701
15538000,0.0324,0.013523,0.002678,0.000431,0.027267
15539000,0.0324,0.013523,0.002678,0.000431,0.004701
15540000,0.0324,0.013523,0.002678,0.000431,0.019040
15541000,0.0324,0.013523,0.002678,0.000431,0.027972
15542000,0.0324,0.013523,0.002678,0.000431,0.004701
15543000,0.0324,0.013523,0.002678,0.000431,0.004701
15544000,0.0324,0.013523,0.002678,0.000431,0.004701
15545000,0.0324,0.013523,0.002678,0.000431,0.012223
15546000,0.0324,0.013523,0.002678,0.000431,0.004466
15547000,0.0324,0.013523,0.002678,0.000431,0.012223
15548000,0.0324,0.013523,0.002678,0.000431,0.051712
15549000,0.0324,0.013523,0.002678,0.000431,0.033143
15550000,0.0324,0.013523,0.002678,0.000431,0.004701
15551000,0.0324,0.013523,0.002678,0.000431,0.019745
15552000,0.0324,0.013523,0.002678,0.000431,0.004701
15553000,0.0324,0.013523,0.002678,0.000431,0.004701
15554000,0.0324,0.013523,0.002678,0.000431,0.004701
15555000,0.0324,0.013523,0.002678,0.000431,0.004701
15556000,0.0324,0.013523,0.002678,0.000431,0.019745
15557000,0.0324,0.013523,0.002678,0.000431,0.004701
15558000,0.0324,0.013523,0.002678,0.000431,0.004701
15559000,0.0324,0.013523,0.002678,0.000431,0.004701
15560000,0.0324,0.013523,0.002678,0.000431,0.004701
15561000,0.0324,0.013523,0.002678,0.000431,0.008462
15562000,0.0324,0.013523,0.002678,0.000431,0.019510
15563000,0.0324,0.013523,0.002678,0.000431,0.008697
15564000,0.0324,0.013523,0.002678,0.000431,0.004701
15565000,0.0324,0.013523,0.002678,0.000431,0.004701
15566000,0.0324,0.013523,0.002678,0.000431,0.034553
15567000,0.0324,0.013523,0.002678,0.000431,0.004466
15568000,0.0324,0.013523,0.002678,0.000431,0.004584
15569000,0.0324,0.013523,0.002678,0.000431,0.072280
15570000,0.0324,0.013523,0.002678,0.000431,0.021625
15571000,0.0324,0.013523,0.002678,0.000431,0.025151
15572000,0.0324,0.013523,0.002678,0.000431,0.004701
15573000,0.0324,0.013523,0.002678,0.000431,0.019745
15574000,0.0324,0.013523,0.002678,0.000431,0.004701
15575000,0.0324,0.013523,0.002678,0.000431,0.004701
15576000,0.0324,0.013523,0.002678,0.000431,0.004701
15577000,0.0324,0.013523,0.002678,0.000431,0.019745
15578000,0.0324,0.013523,0.002678,0.000431,0.004701
15579000,0.0324,0.013523,0.002678,0.000431,0.004701
15580000,0.0324,0.013523,0.002678,0.000431,0.004701
15581000,0.0324,0.013523,0.002678,0.000431,0.027854
15582000,0.0324,0.013523,0.002678,0.000431,0.005876
15583000,0.0324,0.013523,0.002678,0.000431,0.005876
15584000,0.0324,0.013523,0.002678,0.000431,0.005876
15585000,0.0324,0.013523,0.002678,0.000431,0.017042
15586000,0.0324,0.013523,0.002678,0.000431,0.032085
15587000,0.0324,0.013523,0.002678,0.000431,0.005759
15588000,0.0324,0.013523,0.002678,0.000431,0.012223
15589000,0.0324,0.013523,0.002678,0.000431,0.004584
15590000,0.0324,0.013523,0.002678,0.000431,0.004584
15591000,0.0324,0.013523,0.002678,0.000431,0.004701
15592000,0.0324,0.013523,0.002678,0.000431,0.005289
15593000,0.0324,0.013523,0.002678,0.000431,0.007404
15594000,0.0324,0.013523,0.002678,0.000431,0.011870
15595000,0.0324,0.013523,0.002678,0.000431,0.013633
15596000,0.0324,0.013523,0.002678,0.000431,0.005876
15597000,0.0324,0.013523,0.002678,0.000431,0.005876
15598000,0.0324,0.013523,0.002678,0.000431,0.018452
15599000,0.0324,0.013523,0.002678,0.000431,0.014573
15600000,0.0324,0.013523,0.002678,0.000431,0.015984
15601000,0.0324,0.013523,0.002678,0.000431,0.016571
15602000,0.0324,0.013523,0.002678,0.000431,0.005876
15603000,0.0324,0.013523,0.002678,0.000431,0.005876
15604000,0.0324,0.013523,0.002678,0.000431,0.005876
15605000,0.0324,0.013523,0.002678,0.000431,0.020920
15606000,0.0324,0.013523,0.002678,0.000431,0.005876
15607000,0.0324,0.013523,0.002678,0.000431,0.065698
15608000,0.0324,0.013523,0.002678,0.000431,0.027267
15609000,0.0324,0.013523,0.002678,0.000431,0.004701
15610000,0.0324,0.013523,0.002678,0.000431,0.004701
15611000,0.0324,0.013523,0.002678,0.000431,0.019745
15612000,0.0324,0.013523,0.002678,0.000431,0.012223
15613000,0.0324,0.013523,0.002678,0.000431,0.004701
15614000,0.0324,0.013523,0.002678,0.000431,0.004701
15615000,0.0324,0.013523,0.002678,0.000431,0.027267
15616000,0.0324,0.013523,0.002678,0.000431,0.004701
15617000,0.0324,0.013523,0.002678,0.000431,0.004701
15618000,0.0324,0.013523,0.002678,0.000431,0.057589
15619000,0.0324,0.013523,0.002678,0.000431,0.012693
15620000,0.0324,0.013523,0.002678,0.000431,0.013046
15621000,0.0324,0.013523,0.002678,0.000431,0.005876
15622000,0.0324,0.013523,0.002678,0.000431,0.005759
15623000,0.0324,0.013523,0.002678,0.000431,0.015984
15624000,0.0324,0.013523,0.002678,0.000431,0.004701
15625000,0.0324,0.013523,0.002678,0.000431,0.004701
15626000,0.0324,0.013523,0.002678,0.000431,0.004701
15627000,0.0324,0.013523,0.002678,0.000431,0.004701
15628000,0.0324,0.013523,0.002678,0.000431,0.012223
15629000,0.0324,0.013523,0.002678,0.000431,0.008462
15630000,0.0324,0.013523,0.002678,0.000431,0.033025
15631000,0.0324,0.013523,0.002678,0.000431,0.025034
15632000,0.0324,0.013523,0.002678,0.000431,0.034788
15633000,0.0324,0.013523,0.002678,0.000431,0.004701
15634000,0.0324,0.013523,0.002678,0.000431,0.011870
15635000,0.0324,0.013523,0.002678,0.000431,0.004584
15636000,0.0324,0.013523,0.002678,0.000431,0.012223
15637000,0.0324,0.013523,0.002678,0.000431,0.005054
15638000,0.0324,0.013523,0.002678,0.000431,0.005876
15639000,0.0324,0.013523,0.002678,0.000431,0.005876
15640000,0.0324,0.013523,0.002678,0.000431,0.005876
15641000,0.0324,0.013523,0.002678,0.000431,0.005876
15642000,0.0324,0.013523,0.002678,0.000431,0.009637
15643000,0.0324,0.013523,0.002678,0.000431,0.013398
15644000,0.0324,0.013523,0.002678,0.000431,0.008580
15645000,0.0324,0.013523,0.002678,0.000431,0.012223
15646000,0.0324,0.013523,0.002678,0.000431,0.004701
15647000,0.0324,0.013523,0.002678,0.000431,0.034788
15648000,0.0324,0.013523,0.002678,0.000431,0.004701
15649000,0.0324,0.013523,0.002678,0.000431,0.004701
15650000,0.0324,0.013523,0.002678,0.000431,0.012223
15651000,0.0324,0.013523,0.002678,0.000431,0.004701
15652000,0.0324,0.013523,0.002678,0.000431,0.004701
15653000,0.0324,0.013523,0.002678,0.000431,0.004701
15654000,0.0324,0.013523,0.002678,0.000431,0.004701
15655000,0.0324,0.013523,0.002678,0.000431,0.004701
15656000,0.0324,0.013523,0.002678,0.000431,0.004701
15657000,0.0324,0.013523,0.002678,0.000431,0.004701
15658000,0.0324,0.013523,0.002678,0.000431,0.019510
15659000,0.0324,0.013523,0.002678,0.000431,0.004701
15660000,0.0324,0.013523,0.002678,0.000431,0.004701
15661000,0.0324,0.013523,0.002678,0.000431,0.004701
15662000,0.0324,0.013523,0.002678,0.000431,0.004701
15663000,0.0324,0.013523,0.002678,0.000431,0.004701
15664000,0.0324,0.013523,0.002678,0.000431,0.008580
15665000,0.0324,0.013523,0.002678,0.000431,0.008580
15666000,0.0324,0.013523,0.002678,0.000431,0.004701
15667000,0.0324,0.013523,0.002678,0.000431,0.004701
15668000,0.0324,0.013523,0.002678,0.000431,0.027149
15669000,0.0324,0.013523,0.002678,0.000431,0.012458
15670000,0.0324,0.013523,0.002678,0.000431,0.017512
15671000,0.0324,0.013523,0.002678,0.000431,0.025856
15672000,0.0324,0.013523,0.002678,0.000431,0.007052
15673000,0.0324,0.013523,0.002678,0.000431,0.007052
15674000,0.0324,0.013523,0.002678,0.000431,0.006934
15675000,0.0324,0.013523,0.002678,0.000431,0.067226
15676000,0.0324,0.013523,0.002678,0.000431,0.013516
15677000,0.0324,0.013523,0.002678,0.000431,0.012340
15678000,0.0324,0.013523,0.002678,0.000431,0.005876
15679000,0.0324,0.013523,0.002678,0.000431,0.005876
15680000,0.0324,0.013523,0.002678,0.000431,0.005876
15681000,0.0324,0.013523,0.002678,0.000431,0.043485
15682000,0.0324,0.013523,0.002678,0.000431,0.005876
15683000,0.0324,0.013523,0.002678,0.000431,0.005876
15684000,0.0324,0.013523,0.002678,0.000431,0.005054
15685000,0.0324,0.013523,0.002678,0.000431,0.004701
15686000,0.0324,0.013523,0.002678,0.000431,0.004701
15687000,0.0324,0.013523,0.002678,0.000431,0.017042
15688000,0.0324,0.013523,0.002678,0.000431,0.018805
15689000,0.0324,0.013523,0.002678,0.000431,0.035964
15690000,0.0324,0.013523,0.002678,0.000431,0.043368
15691000,0.0324,0.013523,0.002678,0.000431,0.005876
15692000,0.0324,0.013523,0.002678,0.000431,0.004701
15693000,0.0324,0.013523,0.002678,0.000431,0.004701
15694000,0.0324,0.013523,0.002678,0.000431,0.004701
15695000,0.0324,0.013523,0.002678,0.000431,0.004701
15696000,0.0324,0.013523,0.002678,0.000431,0.004701
15697000,0.0324,0.013523,0.002678,0.000431,0.004701
15698000,0.0324,0.013523,0.002678,0.000431,0.004701
15699000,0.0324,0.013523,0.002678,0.000431,0.004701
15700000,0.0324,0.013523,0.002678,0.000431,0.004701
15701000,0.0324,0.013523,0.002678,0.000431,0.004349
15702000,0.0324,0.013523,0.002678,0.000431,0.063700
15703000,0.0324,0.013523,0.002678,0.000431,0.021038
15704000,0.0324,0.013523,0.002678,0.000431,0.004701
15705000,0.0324,0.013523,0.002678,0.000431,0.004701
15706000,0.0324,0.013523,0.002678,0.000431,0.004701
15707000,0.0324,0.013523,0.002678,0.000431,0.004701
15708000,0.0324,0.013523,0.002678,0.000431,0.011988
15709000,0.0324,0.013523,0.002678,0.000431,0.034788
15710000,0.0324,0.013523,0.002678,0.000431,0.012223
15711000,0.0324,0.013523,0.002678,0.000431,0.004701
15712000,0.0324,0.013523,0.002678,0.000431,0.004701
15713000,0.0324,0.013523,0.002678,0.000431,0.004701
15714000,0.0324,0.013523,0.002678,0.000431,0.004701
15715000,0.0324,0.013523,0.002678,0.000431,0.004701
15716000,0.0324,0.013523,0.002678,0.000431,0.043133
15717000,0.0324,0.013523,0.002678,0.000431,0.005876
15718000,0.0324,0.013523,0.002678,0.000431,0.005876
15719000,0.0324,0.013523,0.002678,0.000431,0.005876
15720000,0.0324,0.013523,0.002678,0.000431,0.015396
15721000,0.0324,0.013523,0.002678,0.000431,0.027031
15722000,0.0324,0.013523,0.002678,0.000431,0.011635
15723000,0.0324,0.013523,0.002678,0.000431,0.044543
15724000,0.0324,0.013523,0.002678,0.000431,0.026091
15725000,0.0324,0.013523,0.002678,0.000431,0.004701
15726000,0.0324,0.013523,0.002678,0.000431,0.004701
15727000,0.0324,0.013523,0.002678,0.000431,0.004584
15728000,0.0324,0.013523,0.002678,0.000431,0.004349
15729000,0.0324,0.013523,0.002678,0.000431,0.004701
15730000,0.0324,0.013523,0.002678,0.000431,0.004701
15731000,0.0324,0.013523,0.002678,0.000431,0.004701
15732000,0.0324,0.013523,0.002678,0.000431,0.004701
15733000,0.0324,0.013523,0.002678,0.000431,0.008462
15734000,0.0324,0.013523,0.002678,0.000431,0.008462
15735000,0.0324,0.013523,0.002678,0.000431,0.004701
15736000,0.0324,0.013523,0.002678,0.000431,0.004701
15737000,0.0324,0.013523,0.002678,0.000431,0.004701
15738000,0.0324,0.013523,0.002678,0.000431,0.004701
15739000,0.0324,0.013523,0.002678,0.000431,0.012223
15740000,0.0324,0.013523,0.002678,0.000431,0.027854
15741000,0.0324,0.013523,0.002678,0.000431,0.005406
15742000,0.0324,0.013523,0.002678,0.000431,0.005876
15743000,0.0324,0.013523,0.002678,0.000431,0.005876
15744000,0.0324,0.013523,0.002678,0.000431,0.005876
15745000,0.0324,0.013523,0.002678,0.000431,0.005876
15746000,0.0324,0.013523,0.002678,0.000431,0.017159
15747000,0.0324,0.013523,0.002678,0.000431,0.023623
15748000,0.0324,0.013523,0.002678,0.000431,0.004466
15749000,0.0324,0.013523,0.002678,0.000431,0.004701
15750000,0.0324,0.013523,0.002678,0.000431,0.004701
15751000,0.0324,0.013523,0.002678,0.000431,0.004701
15752000,0.0324,0.013523,0.002678,0.000431,0.027267
15753000,0.0324,0.013523,0.002678,0.000431,0.004701
15754000,0.0324,0.013523,0.002678,0.000431,0.004701
15755000,0.0324,0.013523,0.002678,0.000431,0.004701
15756000,0.0324,0.013523,0.002678,0.000431,0.004701
15757000,0.0324,0.013523,0.002678,0.000431,0.004701
15758000,0.0324,0.013523,0.002678,0.000431,0.012223
15759000,0.0324,0.013523,0.002678,0.000431,0.004701
15760000,0.0324,0.013523,0.002678,0.000431,0.004701
15761000,0.0324,0.013523,0.002678,0.000431,0.005759
15762000,0.0324,0.013523,0.002678,0.000431,0.005641
15763000,0.0324,0.013523,0.002678,0.000431,0.005876
15764000,0.0324,0.013523,0.002678,0.000431,0.005876
15765000,0.0324,0.013523,0.002678,0.000431,0.007874
15766000,0.0324,0.013523,0.002678,0.000431,0.027267
15767000,0.0324,0.013523,0.002678,0.000431,0.004701
15768000,0.0324,0.013523,0.002678,0.000431,0.004466
15769000,0.0324,0.013523,0.002678,0.000431,0.004701
15770000,0.0324,0.013523,0.002678,0.000431,0.004701
15771000,0.0324,0.013523,0.002678,0.000431,0.004701
15772000,0.0324,0.013523,0.002678,0.000431,0.012223
15773000,0.0324,0.013523,0.002678,0.000431,0.004701
15774000,0.0324,0.013523,0.002678,0.000431,0.004701
15775000,0.0324,0.013523,0.002678,0.000431,0.004584
15776000,0.0324,0.013523,0.002678,0.000431,0.004584
15777000,0.0324,0.013523,0.002678,0.000431,0.004701
15778000,0.0324,0.013523,0.002678,0.000431,0.057354
15779000,0.0324,0.013523,0.002678,0.000431,0.004701
15780000,0.0324,0.013523,0.002678,0.000431,0.004701
15781000,0.0324,0.013523,0.002678,0.000431,0.004819
15782000,0.0324,0.013523,0.002678,0.000431,0.005641
15783000,0.0324,0.013523,0.002678,0.000431,0.005876
15784000,0.0324,0.013523,0.002678,0.000431,0.005994
15785000,0.0324,0.013523,0.002678,0.000431,0.006934
15786000,0.0324,0.013523,0.002678,0.000431,0.005876
15787000,0.0324,0.013523,0.002678,0.000431,0.005876
15788000,0.0324,0.013523,0.002678,0.000431,0.005876
15789000,0.0324,0.013523,0.002678,0.000431,0.005876
15790000,0.0324,0.013523,0.002678,0.000431,0.005876
15791000,0.0324,0.013523,0.002678,0.000431,0.023858
15792000,0.0324,0.013523,0.002678,0.000431,0.008462
15793000,0.0324,0.013523,0.002678,0.000431,0.004701
15794000,0.0324,0.013523,0.002678,0.000431,0.004701
15795000,0.0324,0.013523,0.002678,0.000431,0.004701
15796000,0.0324,0.013523,0.002678,0.000431,0.004701
15797000,0.0324,0.013523,0.002678,0.000431,0.005054
15798000,0.0324,0.013523,0.002678,0.000431,0.035964
15799000,0.0324,0.013523,0.002678,0.000431,0.005759
15800000,0.0324,0.013523,0.002678,0.000431,0.005524
15801000,0.0324,0.013523,0.002678,0.000431,0.006464
15802000,0.0324,0.013523,0.002678,0.000431,0.007052
15803000,0.0324,0.013523,0.002678,0.000431,0.018217
15804000,0.0324,0.013523,0.002678,0.000431,0.024681
15805000,0.0324,0.013523,0.002678,0.000431,0.005641
15806000,0.0324,0.013523,0.002678,0.000431,0.045013
15807000,0.0324,0.013523,0.002678,0.000431,0.004701
15808000,0.0324,0.013523,0.002678,0.000431,0.004701
15809000,0.0324,0.013523,0.002678,0.000431,0.004584
15810000,0.0324,0.013523,0.002678,0.000431,0.019627
15811000,0.0324,0.013523,0.002678,0.000431,0.012223
15812000,0.0324,0.013523,0.002678,0.000431,0.004466
15813000,0.0324,0.013523,0.002678,0.000431,0.004701
15814000,0.0324,0.013523,0.002678,0.000431,0.004701
15815000,0.0324,0.013523,0.002678,0.000431,0.004584
15816000,0.0324,0.013523,0.002678,0.000431,0.008345
15817000,0.0324,0.013523,0.002678,0.000431,0.023506
15818000,0.0324,0.013523,0.002678,0.000431,0.004701
15819000,0.0324,0.013523,0.002678,0.000431,0.004701
15820000,0.0324,0.013523,0.002678,0.000431,0.027267
15821000,0.0324,0.013523,0.002678,0.000431,0.004701
15822000,0.0324,0.013523,0.002678,0.000431,0.004701
15823000,0.0324,0.013523,0.002678,0.000431,0.031145
15824000,0.0324,0.013523,0.002678,0.000431,0.009637
15825000,0.0324,0.013523,0.002678,0.000431,0.005876
15826000,0.0324,0.013523,0.002678,0.000431,0.005876
15827000,0.0324,0.013523,0.002678,0.000431,0.005876
15828000,0.0324,0.013523,0.002678,0.000431,0.005876
15829000,0.0324,0.013523,0.002678,0.000431,0.006229
15830000,0.0324,0.013523,0.002678,0.000431,0.019745
15831000,0.0324,0.013523,0.002678,0.000431,0.004701
15832000,0.0324,0.013523,0.002678,0.000431,0.004701
15833000,0.0324,0.013523,0.002678,0.000431,0.004701
15834000,0.0324,0.013523,0.002678,0.000431,0.004701
15835000,0.0324,0.013523,0.002678,0.000431,0.004701
15836000,0.0324,0.013523,0.002678,0.000431,0.015984
15837000,0.0324,0.013523,0.002678,0.000431,0.008462
15838000,0.0324,0.013523,0.002678,0.000431,0.004701
15839000,0.0324,0.013523,0.002678,0.000431,0.004701
15840000,0.0324,0.013523,0.002678,0.000431,0.004819
15841000,0.0324,0.013523,0.002678,0.000431,0.005876
15842000,0.0324,0.013523,0.002678,0.000431,0.005876
15843000,0.0324,0.013523,0.002678,0.000431,0.064876
15844000,0.0324,0.013523,0.002678,0.000431,0.008815
15845000,0.0324,0.013523,0.002678,0.000431,0.053475
15846000,0.0324,0.013523,0.002678,0.000431,0.016571
15847000,0.0324,0.013523,0.002678,0.000431,0.004701
15848000,0.0324,0.013523,0.002678,0.000431,0.008697
15849000,0.0324,0.013523,0.002678,0.000431,0.007992
15850000,0.0324,0.013523,0.002678,0.000431,0.027267
15851000,0.0324,0.013523,0.002678,0.000431,0.004701
15852000,0.0324,0.013523,0.002678,0.000431,0.004701
15853000,0.0324,0.013523,0.002678,0.000431,0.004701
15854000,0.0324,0.013523,0.002678,0.000431,0.004701
15855000,0.0324,0.013523,0.002678,0.000431,0.004701
15856000,0.0324,0.013523,0.002678,0.000431,0.004701
15857000,0.0324,0.013523,0.002678,0.000431,0.004701
15858000,0.0324,0.013523,0.002678,0.000431,0.004701
15859000,0.0324,0.013523,0.002678,0.000431,0.027267
15860000,0.0324,0.013523,0.002678,0.000431,0.004701
15861000,0.0324,0.013523,0.002678,0.000431,0.005759
15862000,0.0324,0.013523,0.002678,0.000431,0.005876
15863000,0.0324,0.013523,0.002678,0.000431,0.005289
15864000,0.0324,0.013523,0.002678,0.000431,0.019745
15865000,0.0324,0.013523,0.002678,0.000431,0.012105
15866000,0.0324,0.013523,0.002678,0.000431,0.004584
15867000,0.0324,0.013523,0.002678,0.000431,0.004701
15868000,0.0324,0.013523,0.002678,0.000431,0.004701
15869000,0.0324,0.013523,0.002678,0.000431,0.004701
15870000,0.0324,0.013523,0.002678,0.000431,0.004701
15871000,0.0324,0.013523,0.002678,0.000431,0.012223
15872000,0.0324,0.013523,0.002678,0.000431,0.004701
15873000,0.0324,0.013523,0.002678,0.000431,0.004701
15874000,0.0324,0.013523,0.002678,0.000431,0.008462
15875000,0.0324,0.013523,0.002678,0.000431,0.008462
15876000,0.0324,0.013523,0.002678,0.000431,0.004701
15877000,0.0324,0.013523,0.002678,0.000431,0.031145
15878000,0.0324,0.013523,0.002678,0.000431,0.061232
15879000,0.0324,0.013523,0.002678,0.000431,0.004701
15880000,0.0324,0.013523,0.002678,0.000431,0.004584
15881000,0.0324,0.013523,0.002678,0.000431,0.005406
15882000,0.0324,0.013523,0.002678,0.000431,0.005876
15883000,0.0324,0.013523,0.002678,0.000431,0.005876
15884000,0.0324,0.013523,0.002678,0.000431,0.028442
15885000,0.0324,0.013523,0.002678,0.000431,0.005406
15886000,0.0324,0.013523,0.002678,0.000431,0.005876
15887000,0.0324,0.013523,0.002678,0.000431,0.005759
15888000,0.0324,0.013523,0.002678,0.000431,0.004701
15889000,0.0324,0.013523,0.002678,0.000431,0.004701
15890000,0.0324,0.013523,0.002678,0.000431,0.012223
15891000,0.0324,0.013523,0.002678,0.000431,0.004701
15892000,0.0324,0.013523,0.002678,0.000431,0.004584
15893000,0.0324,0.013523,0.002678,0.000431,0.012105
15894000,0.0324,0.013523,0.002678,0.000431,0.019745
15895000,0.0324,0.013523,0.002678,0.000431,0.004701
15896000,0.0324,0.013523,0.002678,0.000431,0.004701
15897000,0.0324,0.013523,0.002678,0.000431,0.004701
15898000,0.0324,0.013523,0.002678,0.000431,0.004701
15899000,0.0324,0.013523,0.002678,0.000431,0.004701
15900000,0.0324,0.013523,0.002678,0.000431,0.012223
15901000,0.0324,0.013523,0.002678,0.000431,0.004701
15902000,0.0324,0.013523,0.002678,0.000431,0.005759
15903000,0.0324,0.013523,0.002678,0.000431,0.005876
15904000,0.0324,0.013523,0.002678,0.000431,0.010225
15905000,0.0324,0.013523,0.002678,0.000431,0.004701
15906000,0.0324,0.013523,0.002678,0.000431,0.011988
15907000,0.0324,0.013523,0.002678,0.000431,0.012223
15908000,0.0324,0.013523,0.002678,0.000431,0.004701
15909000,0.0324,0.013523,0.002678,0.000431,0.004701
15910000,0.0324,0.013523,0.002678,0.000431,0.004701
15911000,0.0324,0.013523,0.002678,0.000431,0.004701
15912000,0.0324,0.013523,0.002678,0.000431,0.004701
15913000,0.0324,0.013523,0.002678,0.000431,0.019862
15914000,0.0324,0.013523,0.002678,0.000431,0.005759
15915000,0.0324,0.013523,0.002678,0.000431,0.005759
15916000,0.0324,0.013523,0.002678,0.000431,0.006229
15917000,0.0324,0.013523,0.002678,0.000431,0.029617
15918000,0.0324,0.013523,0.002678,0.000431,0.007052
15919000,0.0324,0.013523,0.002678,0.000431,0.010813
15920000,0.0324,0.013523,0.002678,0.000431,0.009755
15921000,0.0324,0.013523,0.002678,0.000431,0.005876
15922000,0.0324,0.013523,0.002678,0.000431,0.005994
15923000,0.0324,0.013523,0.002678,0.000431,0.012223
15924000,0.0324,0.013523,0.002678,0.000431,0.019745
15925000,0.0324,0.013523,0.002678,0.000431,0.004701
15926000,0.0324,0.013523,0.002678,0.000431,0.012223
15927000,0.0324,0.013523,0.002678,0.000431,0.004701
15928000,0.0324,0.013523,0.002678,0.000431,0.004701
15929000,0.0324,0.013523,0.002678,0.000431,0.004701
15930000,0.0324,0.013523,0.002678,0.000431,0.020332
15931000,0.0324,0.013523,0.002678,0.000431,0.005876
15932000,0.0324,0.013523,0.002678,0.000431,0.005876
15933000,0.0324,0.013523,0.002678,0.000431,0.005641
15934000,0.0324,0.013523,0.002678,0.000431,0.005876
15935000,0.0324,0.013523,0.002678,0.000431,0.005406
15936000,0.0324,0.013523,0.002678,0.000431,0.017159
15937000,0.0324,0.013523,0.002678,0.000431,0.016101
15938000,0.0324,0.013523,0.002678,0.000431,0.004701
15939000,0.0324,0.013523,0.002678,0.000431,0.004584
15940000,0.0324,0.013523,0.002678,0.000431,0.004584
15941000,0.0324,0.013523,0.002678,0.000431,0.004701
15942000,0.0324,0.013523,0.002678,0.000431,0.004701
15943000,0.0324,0.013523,0.002678,0.000431,0.027267
15944000,0.0324,0.013523,0.002678,0.000431,0.012458
15945000,0.0324,0.013523,0.002678,0.000431,0.004701
15946000,0.0324,0.013523,0.002678,0.000431,0.004584
15947000,0.0324,0.013523,0.002678,0.000431,0.004584
15948000,0.0324,0.013523,0.002678,0.000431,0.030440
15949000,0.0324,0.013523,0.002678,0.000431,0.015396
15950000,0.0324,0.013523,0.002678,0.000431,0.012223
15951000,0.0324,0.013523,0.002678,0.000431,0.008462
15952000,0.0324,0.013523,0.002678,0.000431,0.008462
15953000,0.0324,0.013523,0.002678,0.000431,0.004701
15954000,0.0324,0.013523,0.002678,0.000431,0.004584
15955000,0.0324,0.013523,0.002678,0.000431,0.004584
15956000,0.0324,0.013523,0.002678,0.000431,0.004701
15957000,0.0324,0.013523,0.002678,0.000431,0.004701
15958000,0.0324,0.013523,0.002678,0.000431,0.019745
15959000,0.0324,0.013523,0.002678,0.000431,0.004701
15960000,0.0324,0.013523,0.002678,0.000431,0.004701
15961000,0.0324,0.013523,0.002678,0.000431,0.004701
15962000,0.0324,0.013523,0.002678,0.000431,0.004466
15963000,0.0324,0.013523,0.002678,0.000431,0.004466
15964000,0.0324,0.013523,0.002678,0.000431,0.008462
15965000,0.0324,0.013523,0.002678,0.000431,0.015984
15966000,0.0324,0.013523,0.002678,0.000431,0.004701
15967000,0.0324,0.013523,0.002678,0.000431,0.004701
15968000,0.0324,0.013523,0.002678,0.000431,0.014456
15969000,0.0324,0.013523,0.002678,0.000431,0.008697
15970000,0.0324,0.013523,0.002678,0.000431,0.003526
15971000,0.0324,0.013523,0.002678,0.000431,0.003291
15972000,0.0324,0.013523,0.002678,0.000431,0.003526
15973000,0.0324,0.013523,0.002678,0.000431,0.003291
15974000,0.0324,0.013523,0.002678,0.000431,0.003526
15975000,0.0324,0.013523,0.002678,0.000431,0.033613
15976000,0.0324,0.013523,0.002678,0.000431,0.003878
15977000,0.0324,0.013523,0.002678,0.000431,0.004701
15978000,0.0324,0.013523,0.002678,0.000431,0.004701
15979000,0.0324,0.013523,0.002678,0.000431,0.004701
15980000,0.0324,0.013523,0.002678,0.000431,0.004701
15981000,0.0324,0.013523,0.002678,0.000431,0.011988
15982000,0.0324,0.013523,0.002678,0.000431,0.004584
15983000,0.0324,0.013523,0.002678,0.000431,0.003526
15984000,0.0324,0.013523,0.002678,0.000431,0.010695
15985000,0.0324,0.013523,0.002678,0.000431,0.002351
15986000,0.0324,0.013523,0.002678,0.000431,0.002351
15987000,0.0324,0.013523,0.002678,0.000431,0.002351
15988000,0.0324,0.013523,0.002678,0.000431,0.002116
15989000,0.0324,0.013523,0.002678,0.000431,0.002351
15990000,0.0324,0.013523,0.002678,0.000431,0.002351
15991000,0.0324,0.013523,0.002678,0.000431,0.002351
15992000,0.0324,0.013523,0.002678,0.000431,0.002351
15993000,0.0324,0.013523,0.002678,0.000431,0.002351
15994000,0.0324,0.013523,0.002678,0.000431,0.009285
15995000,0.0324,0.013523,0.002678,0.000431,0.002233
15996000,0.0324,0.013523,0.002678,0.000431,0.002351
15997000,0.0324,0.013523,0.002678,0.000431,0.002351
15998000,0.0324,0.013523,0.002678,0.000431,0.002351
15999000,0.0324,0.013523,0.002678,0.000431,0.002351
