Cycle,Area(mm^2),PeakDynamic(W),SubthresholdLeakage(W),GateLeakage(W),RunTimeDynamic(W)
5000000,0.0324,0.013523,0.002678,0.000431,0.102955
5001000,0.0324,0.013523,0.002678,0.000431,0.118233
5002000,0.0324,0.013523,0.002678,0.000431,0.165010
5003000,0.0324,0.013523,0.002678,0.000431,0.220953
5004000,0.0324,0.013523,0.002678,0.000431,0.151729
5005000,0.0324,0.013523,0.002678,0.000431,0.061232
5006000,0.0324,0.013523,0.002678,0.000431,0.072867
5007000,0.0324,0.013523,0.002678,0.000431,0.107773
5008000,0.0324,0.013523,0.002678,0.000431,0.116118
5009000,0.0324,0.013523,0.002678,0.000431,0.190748
5010000,0.0324,0.013523,0.002678,0.000431,0.124815
5011000,0.0324,0.013523,0.002678,0.000431,0.171356
5012000,0.0324,0.013523,0.002678,0.000431,0.118468
5013000,0.0324,0.013523,0.002678,0.000431,0.131984
5014000,0.0324,0.013523,0.002678,0.000431,0.172649
5015000,0.0324,0.013523,0.002678,0.000431,0.146675
5016000,0.0324,0.013523,0.002678,0.000431,0.209788
5017000,0.0324,0.013523,0.002678,0.000431,0.130456
5018000,0.0324,0.013523,0.002678,0.000431,0.109889
5019000,0.0324,0.013523,0.002678,0.000431,0.114943
5020000,0.0324,0.013523,0.002678,0.000431,0.114120
5021000,0.0324,0.013523,0.002678,0.000431,0.093787
5022000,0.0324,0.013523,0.002678,0.000431,0.068049
5023000,0.0324,0.013523,0.002678,0.000431,0.135863
5024000,0.0324,0.013523,0.002678,0.000431,0.144325
5025000,0.0324,0.013523,0.002678,0.000431,0.091672
5026000,0.0324,0.013523,0.002678,0.000431,0.038784
5027000,0.0324,0.013523,0.002678,0.000431,0.061115
5028000,0.0324,0.013523,0.002678,0.000431,0.237760
5029000,0.0324,0.013523,0.002678,0.000431,0.111652
5030000,0.0324,0.013523,0.002678,0.000431,0.198388
5031000,0.0324,0.013523,0.002678,0.000431,0.054063
5032000,0.0324,0.013523,0.002678,0.000431,0.085678
5033000,0.0324,0.013523,0.002678,0.000431,0.085090
5034000,0.0324,0.013523,0.002678,0.000431,0.121054
5035000,0.0324,0.013523,0.002678,0.000431,0.127518
5036000,0.0324,0.013523,0.002678,0.000431,0.283243
5037000,0.0324,0.013523,0.002678,0.000431,0.084973
5038000,0.0324,0.013523,0.002678,0.000431,0.147145
5039000,0.0324,0.013523,0.002678,0.000431,0.093200
5040000,0.0324,0.013523,0.002678,0.000431,0.085678
5041000,0.0324,0.013523,0.002678,0.000431,0.113180
5042000,0.0324,0.013523,0.002678,0.000431,0.209788
5043000,0.0324,0.013523,0.002678,0.000431,0.150319
5044000,0.0324,0.013523,0.002678,0.000431,0.124815
5045000,0.0324,0.013523,0.002678,0.000431,0.139623
5046000,0.0324,0.013523,0.002678,0.000431,0.097431
5047000,0.0324,0.013523,0.002678,0.000431,0.070869
5048000,0.0324,0.013523,0.002678,0.000431,0.063230
5049000,0.0324,0.013523,0.002678,0.000431,0.192864
5050000,0.0324,0.013523,0.002678,0.000431,0.130456
5051000,0.0324,0.013523,0.002678,0.000431,0.207320
5052000,0.0324,0.013523,0.002678,0.000431,0.155372
5053000,0.0324,0.013523,0.002678,0.000431,0.125638
5054000,0.0324,0.013523,0.002678,0.000431,0.042663
5055000,0.0324,0.013523,0.002678,0.000431,0.236232
5056000,0.0324,0.013523,0.002678,0.000431,0.228710
5057000,0.0324,0.013523,0.002678,0.000431,0.196390
5058000,0.0324,0.013523,0.002678,0.000431,0.258915
5059000,0.0324,0.013523,0.002678,0.000431,0.114355
5060000,0.0324,0.013523,0.002678,0.000431,0.170416
5061000,0.0324,0.013523,0.002678,0.000431,0.129986
5062000,0.0324,0.013523,0.002678,0.000431,0.240933
5063000,0.0324,0.013523,0.002678,0.000431,0.118586
5064000,0.0324,0.013523,0.002678,0.000431,0.066874
5065000,0.0324,0.013523,0.002678,0.000431,0.195332
5066000,0.0324,0.013523,0.002678,0.000431,0.122112
5067000,0.0324,0.013523,0.002678,0.000431,0.083327
5068000,0.0324,0.013523,0.002678,0.000431,0.117881
5069000,0.0324,0.013523,0.002678,0.000431,0.100604
5070000,0.0324,0.013523,0.002678,0.000431,0.100957
5071000,0.0324,0.013523,0.002678,0.000431,0.071105
5072000,0.0324,0.013523,0.002678,0.000431,0.124462
5073000,0.0324,0.013523,0.002678,0.000431,0.081800
5074000,0.0324,0.013523,0.002678,0.000431,0.178408
5075000,0.0324,0.013523,0.002678,0.000431,0.109889
5076000,0.0324,0.013523,0.002678,0.000431,0.109066
5077000,0.0324,0.013523,0.002678,0.000431,0.110947
5078000,0.0324,0.013523,0.002678,0.000431,0.174529
5079000,0.0324,0.013523,0.002678,0.000431,0.092025
5080000,0.0324,0.013523,0.002678,0.000431,0.133277
5081000,0.0324,0.013523,0.002678,0.000431,0.383847
5082000,0.0324,0.013523,0.002678,0.000431,0.131044
5083000,0.0324,0.013523,0.002678,0.000431,0.102720
5084000,0.0324,0.013523,0.002678,0.000431,0.074748
5085000,0.0324,0.013523,0.002678,0.000431,0.209318
5086000,0.0324,0.013523,0.002678,0.000431,0.160543
5087000,0.0324,0.013523,0.002678,0.000431,0.107303
5088000,0.0324,0.013523,0.002678,0.000431,0.091084
5089000,0.0324,0.013523,0.002678,0.000431,0.061702
5090000,0.0324,0.013523,0.002678,0.000431,0.091437
5091000,0.0324,0.013523,0.002678,0.000431,0.157488
5092000,0.0324,0.013523,0.002678,0.000431,0.139271
5093000,0.0324,0.013523,0.002678,0.000431,0.101544
5094000,0.0324,0.013523,0.002678,0.000431,0.234821
5095000,0.0324,0.013523,0.002678,0.000431,0.106833
5096000,0.0324,0.013523,0.002678,0.000431,0.132807
5097000,0.0324,0.013523,0.002678,0.000431,0.086383
5098000,0.0324,0.013523,0.002678,0.000431,0.267847
5099000,0.0324,0.013523,0.002678,0.000431,0.092025
5100000,0.0324,0.013523,0.002678,0.000431,0.196037
5101000,0.0324,0.013523,0.002678,0.000431,0.154785
5102000,0.0324,0.013523,0.002678,0.000431,0.148673
5103000,0.0324,0.013523,0.002678,0.000431,0.137038
5104000,0.0324,0.013523,0.002678,0.000431,0.057354
5105000,0.0324,0.013523,0.002678,0.000431,0.072397
5106000,0.0324,0.013523,0.002678,0.000431,0.183344
5107000,0.0324,0.013523,0.002678,0.000431,0.194862
5108000,0.0324,0.013523,0.002678,0.000431,0.168065
5109000,0.0324,0.013523,0.002678,0.000431,0.295583
5110000,0.0324,0.013523,0.002678,0.000431,0.034906
5111000,0.0324,0.013523,0.002678,0.000431,0.133042
5112000,0.0324,0.013523,0.002678,0.000431,0.042428
5113000,0.0324,0.013523,0.002678,0.000431,0.255859
5114000,0.0324,0.013523,0.002678,0.000431,0.083327
5115000,0.0324,0.013523,0.002678,0.000431,0.252686
5116000,0.0324,0.013523,0.002678,0.000431,0.046659
5117000,0.0324,0.013523,0.002678,0.000431,0.106010
5118000,0.0324,0.013523,0.002678,0.000431,0.168300
5119000,0.0324,0.013523,0.002678,0.000431,0.056178
5120000,0.0324,0.013523,0.002678,0.000431,0.115060
5121000,0.0324,0.013523,0.002678,0.000431,0.143267
5122000,0.0324,0.013523,0.002678,0.000431,0.201678
5123000,0.0324,0.013523,0.002678,0.000431,0.034318
5124000,0.0324,0.013523,0.002678,0.000431,0.117411
5125000,0.0324,0.013523,0.002678,0.000431,0.063700
5126000,0.0324,0.013523,0.002678,0.000431,0.257034
5127000,0.0324,0.013523,0.002678,0.000431,0.172414
5128000,0.0324,0.013523,0.002678,0.000431,0.167478
5129000,0.0324,0.013523,0.002678,0.000431,0.069107
5130000,0.0324,0.013523,0.002678,0.000431,0.180406
5131000,0.0324,0.013523,0.002678,0.000431,0.146323
5132000,0.0324,0.013523,0.002678,0.000431,0.283713
5133000,0.0324,0.013523,0.002678,0.000431,0.195449
5134000,0.0324,0.013523,0.002678,0.000431,0.115413
5135000,0.0324,0.013523,0.002678,0.000431,0.128811
5136000,0.0324,0.013523,0.002678,0.000431,0.046306
5137000,0.0324,0.013523,0.002678,0.000431,0.139741
5138000,0.0324,0.013523,0.002678,0.000431,0.126225
5139000,0.0324,0.013523,0.002678,0.000431,0.228240
5140000,0.0324,0.013523,0.002678,0.000431,0.198505
5141000,0.0324,0.013523,0.002678,0.000431,0.123992
5142000,0.0324,0.013523,0.002678,0.000431,0.087206
5143000,0.0324,0.013523,0.002678,0.000431,0.096961
5144000,0.0324,0.013523,0.002678,0.000431,0.154785
5145000,0.0324,0.013523,0.002678,0.000431,0.125168
5146000,0.0324,0.013523,0.002678,0.000431,0.166655
5147000,0.0324,0.013523,0.002678,0.000431,0.175235
5148000,0.0324,0.013523,0.002678,0.000431,0.136803
5149000,0.0324,0.013523,0.002678,0.000431,0.069107
5150000,0.0324,0.013523,0.002678,0.000431,0.133042
5151000,0.0324,0.013523,0.002678,0.000431,0.062525
5152000,0.0324,0.013523,0.002678,0.000431,0.089674
5153000,0.0324,0.013523,0.002678,0.000431,0.230943
5154000,0.0324,0.013523,0.002678,0.000431,0.107186
5155000,0.0324,0.013523,0.002678,0.000431,0.117998
5156000,0.0324,0.013523,0.002678,0.000431,0.125990
5157000,0.0324,0.013523,0.002678,0.000431,0.203559
5158000,0.0324,0.013523,0.002678,0.000431,0.187222
5159000,0.0324,0.013523,0.002678,0.000431,0.163717
5160000,0.0324,0.013523,0.002678,0.000431,0.176175
5161000,0.0324,0.013523,0.002678,0.000431,0.162071
5162000,0.0324,0.013523,0.002678,0.000431,0.070517
5163000,0.0324,0.013523,0.002678,0.000431,0.108479
5164000,0.0324,0.013523,0.002678,0.000431,0.109419
5165000,0.0324,0.013523,0.002678,0.000431,0.108479
5166000,0.0324,0.013523,0.002678,0.000431,0.147145
5167000,0.0324,0.013523,0.002678,0.000431,0.165832
5168000,0.0324,0.013523,0.002678,0.000431,0.086031
5169000,0.0324,0.013523,0.002678,0.000431,0.084385
5170000,0.0324,0.013523,0.002678,0.000431,0.105423
5171000,0.0324,0.013523,0.002678,0.000431,0.127518
5172000,0.0324,0.013523,0.002678,0.000431,0.098489
5173000,0.0324,0.013523,0.002678,0.000431,0.118233
5174000,0.0324,0.013523,0.002678,0.000431,0.151141
5175000,0.0324,0.013523,0.002678,0.000431,0.061702
5176000,0.0324,0.013523,0.002678,0.000431,0.137743
5177000,0.0324,0.013523,0.002678,0.000431,0.050185
5178000,0.0324,0.013523,0.002678,0.000431,0.137861
5179000,0.0324,0.013523,0.002678,0.000431,0.119526
5180000,0.0324,0.013523,0.002678,0.000431,0.109184
5181000,0.0324,0.013523,0.002678,0.000431,0.096373
5182000,0.0324,0.013523,0.002678,0.000431,0.060527
5183000,0.0324,0.013523,0.002678,0.000431,0.125168
5184000,0.0324,0.013523,0.002678,0.000431,0.096021
5185000,0.0324,0.013523,0.002678,0.000431,0.249395
5186000,0.0324,0.013523,0.002678,0.000431,0.091672
5187000,0.0324,0.013523,0.002678,0.000431,0.151141
5188000,0.0324,0.013523,0.002678,0.000431,0.156548
5189000,0.0324,0.013523,0.002678,0.000431,0.101779
5190000,0.0324,0.013523,0.002678,0.000431,0.141151
5191000,0.0324,0.013523,0.002678,0.000431,0.175352
5192000,0.0324,0.013523,0.002678,0.000431,0.250453
5193000,0.0324,0.013523,0.002678,0.000431,0.099194
5194000,0.0324,0.013523,0.002678,0.000431,0.065346
5195000,0.0324,0.013523,0.002678,0.000431,0.124697
5196000,0.0324,0.013523,0.002678,0.000431,0.117881
5197000,0.0324,0.013523,0.002678,0.000431,0.129634
5198000,0.0324,0.013523,0.002678,0.000431,0.090967
5199000,0.0324,0.013523,0.002678,0.000431,0.128576
5200000,0.0324,0.013523,0.002678,0.000431,0.099664
5201000,0.0324,0.013523,0.002678,0.000431,0.057119
5202000,0.0324,0.013523,0.002678,0.000431,0.129399
5203000,0.0324,0.013523,0.002678,0.000431,0.084150
5204000,0.0324,0.013523,0.002678,0.000431,0.249512
5205000,0.0324,0.013523,0.002678,0.000431,0.132924
5206000,0.0324,0.013523,0.002678,0.000431,0.085325
5207000,0.0324,0.013523,0.002678,0.000431,0.117998
5208000,0.0324,0.013523,0.002678,0.000431,0.065346
5209000,0.0324,0.013523,0.002678,0.000431,0.058882
5210000,0.0324,0.013523,0.002678,0.000431,0.124697
5211000,0.0324,0.013523,0.002678,0.000431,0.189338
5212000,0.0324,0.013523,0.002678,0.000431,0.170298
5213000,0.0324,0.013523,0.002678,0.000431,0.099546
5214000,0.0324,0.013523,0.002678,0.000431,0.130456
5215000,0.0324,0.013523,0.002678,0.000431,0.053945
5216000,0.0324,0.013523,0.002678,0.000431,0.110594
5217000,0.0324,0.013523,0.002678,0.000431,0.140211
5218000,0.0324,0.013523,0.002678,0.000431,0.144795
5219000,0.0324,0.013523,0.002678,0.000431,0.114472
5220000,0.0324,0.013523,0.002678,0.000431,0.054298
5221000,0.0324,0.013523,0.002678,0.000431,0.088146
5222000,0.0324,0.013523,0.002678,0.000431,0.050302
5223000,0.0324,0.013523,0.002678,0.000431,0.084385
5224000,0.0324,0.013523,0.002678,0.000431,0.071340
5225000,0.0324,0.013523,0.002678,0.000431,0.191336
5226000,0.0324,0.013523,0.002678,0.000431,0.086501
5227000,0.0324,0.013523,0.002678,0.000431,0.095668
5228000,0.0324,0.013523,0.002678,0.000431,0.073220
5229000,0.0324,0.013523,0.002678,0.000431,0.133512
5230000,0.0324,0.013523,0.002678,0.000431,0.084150
5231000,0.0324,0.013523,0.002678,0.000431,0.181934
5232000,0.0324,0.013523,0.002678,0.000431,0.080389
5233000,0.0324,0.013523,0.002678,0.000431,0.125638
5234000,0.0324,0.013523,0.002678,0.000431,0.122582
5235000,0.0324,0.013523,0.002678,0.000431,0.079332
5236000,0.0324,0.013523,0.002678,0.000431,0.122112
5237000,0.0324,0.013523,0.002678,0.000431,0.110241
5238000,0.0324,0.013523,0.002678,0.000431,0.151494
5239000,0.0324,0.013523,0.002678,0.000431,0.182051
5240000,0.0324,0.013523,0.002678,0.000431,0.157253
5241000,0.0324,0.013523,0.002678,0.000431,0.084150
5242000,0.0324,0.013523,0.002678,0.000431,0.102250
5243000,0.0324,0.013523,0.002678,0.000431,0.070282
5244000,0.0324,0.013523,0.002678,0.000431,0.102250
5245000,0.0324,0.013523,0.002678,0.000431,0.159368
5246000,0.0324,0.013523,0.002678,0.000431,0.068636
5247000,0.0324,0.013523,0.002678,0.000431,0.136803
5248000,0.0324,0.013523,0.002678,0.000431,0.083210
5249000,0.0324,0.013523,0.002678,0.000431,0.101897
5250000,0.0324,0.013523,0.002678,0.000431,0.120231
5251000,0.0324,0.013523,0.002678,0.000431,0.035023
5252000,0.0324,0.013523,0.002678,0.000431,0.103542
5253000,0.0324,0.013523,0.002678,0.000431,0.235291
5254000,0.0324,0.013523,0.002678,0.000431,0.131867
5255000,0.0324,0.013523,0.002678,0.000431,0.116470
5256000,0.0324,0.013523,0.002678,0.000431,0.160896
5257000,0.0324,0.013523,0.002678,0.000431,0.063818
5258000,0.0324,0.013523,0.002678,0.000431,0.138683
5259000,0.0324,0.013523,0.002678,0.000431,0.140916
5260000,0.0324,0.013523,0.002678,0.000431,0.093317
5261000,0.0324,0.013523,0.002678,0.000431,0.075453
5262000,0.0324,0.013523,0.002678,0.000431,0.106010
5263000,0.0324,0.013523,0.002678,0.000431,0.099899
5264000,0.0324,0.013523,0.002678,0.000431,0.057941
5265000,0.0324,0.013523,0.002678,0.000431,0.141269
5266000,0.0324,0.013523,0.002678,0.000431,0.086031
5267000,0.0324,0.013523,0.002678,0.000431,0.077804
5268000,0.0324,0.013523,0.002678,0.000431,0.159016
5269000,0.0324,0.013523,0.002678,0.000431,0.105188
5270000,0.0324,0.013523,0.002678,0.000431,0.085325
5271000,0.0324,0.013523,0.002678,0.000431,0.097078
5272000,0.0324,0.013523,0.002678,0.000431,0.060057
5273000,0.0324,0.013523,0.002678,0.000431,0.110476
5274000,0.0324,0.013523,0.002678,0.000431,0.176175
5275000,0.0324,0.013523,0.002678,0.000431,0.212373
5276000,0.0324,0.013523,0.002678,0.000431,0.220483
5277000,0.0324,0.013523,0.002678,0.000431,0.132924
5278000,0.0324,0.013523,0.002678,0.000431,0.102720
5279000,0.0324,0.013523,0.002678,0.000431,0.101779
5280000,0.0324,0.013523,0.002678,0.000431,0.185577
5281000,0.0324,0.013523,0.002678,0.000431,0.252098
5282000,0.0324,0.013523,0.002678,0.000431,0.052418
5283000,0.0324,0.013523,0.002678,0.000431,0.048304
5284000,0.0324,0.013523,0.002678,0.000431,0.108243
5285000,0.0324,0.013523,0.002678,0.000431,0.077334
5286000,0.0324,0.013523,0.002678,0.000431,0.145852
5287000,0.0324,0.013523,0.002678,0.000431,0.175352
5288000,0.0324,0.013523,0.002678,0.000431,0.094845
5289000,0.0324,0.013523,0.002678,0.000431,0.123640
5290000,0.0324,0.013523,0.002678,0.000431,0.066051
5291000,0.0324,0.013523,0.002678,0.000431,0.080154
5292000,0.0324,0.013523,0.002678,0.000431,0.099194
5293000,0.0324,0.013523,0.002678,0.000431,0.143267
5294000,0.0324,0.013523,0.002678,0.000431,0.089439
5295000,0.0324,0.013523,0.002678,0.000431,0.095080
5296000,0.0324,0.013523,0.002678,0.000431,0.072985
5297000,0.0324,0.013523,0.002678,0.000431,0.143149
5298000,0.0324,0.013523,0.002678,0.000431,0.126930
5299000,0.0324,0.013523,0.002678,0.000431,0.121759
5300000,0.0324,0.013523,0.002678,0.000431,0.173707
5301000,0.0324,0.013523,0.002678,0.000431,0.077334
5302000,0.0324,0.013523,0.002678,0.000431,0.171591
5303000,0.0324,0.013523,0.002678,0.000431,0.103777
5304000,0.0324,0.013523,0.002678,0.000431,0.125168
5305000,0.0324,0.013523,0.002678,0.000431,0.127165
5306000,0.0324,0.013523,0.002678,0.000431,0.144325
5307000,0.0324,0.013523,0.002678,0.000431,0.167008
5308000,0.0324,0.013523,0.002678,0.000431,0.049832
5309000,0.0324,0.013523,0.002678,0.000431,0.088734
5310000,0.0324,0.013523,0.002678,0.000431,0.115295
5311000,0.0324,0.013523,0.002678,0.000431,0.051947
5312000,0.0324,0.013523,0.002678,0.000431,0.088734
5313000,0.0324,0.013523,0.002678,0.000431,0.100016
5314000,0.0324,0.013523,0.002678,0.000431,0.182051
5315000,0.0324,0.013523,0.002678,0.000431,0.086266
5316000,0.0324,0.013523,0.002678,0.000431,0.084150
5317000,0.0324,0.013523,0.002678,0.000431,0.130691
5318000,0.0324,0.013523,0.002678,0.000431,0.109536
5319000,0.0324,0.013523,0.002678,0.000431,0.113062
5320000,0.0324,0.013523,0.002678,0.000431,0.175705
5321000,0.0324,0.013523,0.002678,0.000431,0.068989
5322000,0.0324,0.013523,0.002678,0.000431,0.059822
5323000,0.0324,0.013523,0.002678,0.000431,0.149731
5324000,0.0324,0.013523,0.002678,0.000431,0.198153
5325000,0.0324,0.013523,0.002678,0.000431,0.132807
5326000,0.0324,0.013523,0.002678,0.000431,0.067814
5327000,0.0324,0.013523,0.002678,0.000431,0.159251
5328000,0.0324,0.013523,0.002678,0.000431,0.050890
5329000,0.0324,0.013523,0.002678,0.000431,0.054180
5330000,0.0324,0.013523,0.002678,0.000431,0.122112
5331000,0.0324,0.013523,0.002678,0.000431,0.277954
5332000,0.0324,0.013523,0.002678,0.000431,0.078391
5333000,0.0324,0.013523,0.002678,0.000431,0.084620
5334000,0.0324,0.013523,0.002678,0.000431,0.069342
5335000,0.0324,0.013523,0.002678,0.000431,0.050067
5336000,0.0324,0.013523,0.002678,0.000431,0.145030
5337000,0.0324,0.013523,0.002678,0.000431,0.098489
5338000,0.0324,0.013523,0.002678,0.000431,0.110712
5339000,0.0324,0.013523,0.002678,0.000431,0.090144
5340000,0.0324,0.013523,0.002678,0.000431,0.138801
5341000,0.0324,0.013523,0.002678,0.000431,0.035141
5342000,0.0324,0.013523,0.002678,0.000431,0.110241
5343000,0.0324,0.013523,0.002678,0.000431,0.117881
5344000,0.0324,0.013523,0.002678,0.000431,0.098841
5345000,0.0324,0.013523,0.002678,0.000431,0.105188
5346000,0.0324,0.013523,0.002678,0.000431,0.112827
5347000,0.0324,0.013523,0.002678,0.000431,0.074865
5348000,0.0324,0.013523,0.002678,0.000431,0.136920
5349000,0.0324,0.013523,0.002678,0.000431,0.204146
5350000,0.0324,0.013523,0.002678,0.000431,0.104483
5351000,0.0324,0.013523,0.002678,0.000431,0.065816
5352000,0.0324,0.013523,0.002678,0.000431,0.079919
5353000,0.0324,0.013523,0.002678,0.000431,0.167360
5354000,0.0324,0.013523,0.002678,0.000431,0.066756
5355000,0.0324,0.013523,0.002678,0.000431,0.084620
5356000,0.0324,0.013523,0.002678,0.000431,0.134335
5357000,0.0324,0.013523,0.002678,0.000431,0.072750
5358000,0.0324,0.013523,0.002678,0.000431,0.091084
5359000,0.0324,0.013523,0.002678,0.000431,0.172531
5360000,0.0324,0.013523,0.002678,0.000431,0.253743
5361000,0.0324,0.013523,0.002678,0.000431,0.193686
5362000,0.0324,0.013523,0.002678,0.000431,0.400654
5363000,0.0324,0.013523,0.002678,0.000431,0.165480
5364000,0.0324,0.013523,0.002678,0.000431,0.111769
5365000,0.0324,0.013523,0.002678,0.000431,0.159133
5366000,0.0324,0.013523,0.002678,0.000431,0.206967
5367000,0.0324,0.013523,0.002678,0.000431,0.065228
5368000,0.0324,0.013523,0.002678,0.000431,0.152081
5369000,0.0324,0.013523,0.002678,0.000431,0.090379
5370000,0.0324,0.013523,0.002678,0.000431,0.115060
5371000,0.0324,0.013523,0.002678,0.000431,0.096491
5372000,0.0324,0.013523,0.002678,0.000431,0.132572
5373000,0.0324,0.013523,0.002678,0.000431,0.054180
5374000,0.0324,0.013523,0.002678,0.000431,0.065933
5375000,0.0324,0.013523,0.002678,0.000431,0.147850
5376000,0.0324,0.013523,0.002678,0.000431,0.148086
5377000,0.0324,0.013523,0.002678,0.000431,0.141857
5378000,0.0324,0.013523,0.002678,0.000431,0.076863
5379000,0.0324,0.013523,0.002678,0.000431,0.110594
5380000,0.0324,0.013523,0.002678,0.000431,0.080037
5381000,0.0324,0.013523,0.002678,0.000431,0.186987
5382000,0.0324,0.013523,0.002678,0.000431,0.137273
5383000,0.0324,0.013523,0.002678,0.000431,0.092260
5384000,0.0324,0.013523,0.002678,0.000431,0.076158
5385000,0.0324,0.013523,0.002678,0.000431,0.114825
5386000,0.0324,0.013523,0.002678,0.000431,0.109889
5387000,0.0324,0.013523,0.002678,0.000431,0.073808
5388000,0.0324,0.013523,0.002678,0.000431,0.107421
5389000,0.0324,0.013523,0.002678,0.000431,0.124110
5390000,0.0324,0.013523,0.002678,0.000431,0.147968
5391000,0.0324,0.013523,0.002678,0.000431,0.071222
5392000,0.0324,0.013523,0.002678,0.000431,0.175352
5393000,0.0324,0.013523,0.002678,0.000431,0.100957
5394000,0.0324,0.013523,0.002678,0.000431,0.138801
5395000,0.0324,0.013523,0.002678,0.000431,0.116705
5396000,0.0324,0.013523,0.002678,0.000431,0.074278
5397000,0.0324,0.013523,0.002678,0.000431,0.109771
5398000,0.0324,0.013523,0.002678,0.000431,0.100016
5399000,0.0324,0.013523,0.002678,0.000431,0.148086
5400000,0.0324,0.013523,0.002678,0.000431,0.111534
5401000,0.0324,0.013523,0.002678,0.000431,0.149966
5402000,0.0324,0.013523,0.002678,0.000431,0.117058
5403000,0.0324,0.013523,0.002678,0.000431,0.051477
5404000,0.0324,0.013523,0.002678,0.000431,0.130339
5405000,0.0324,0.013523,0.002678,0.000431,0.092965
5406000,0.0324,0.013523,0.002678,0.000431,0.062878
5407000,0.0324,0.013523,0.002678,0.000431,0.126343
5408000,0.0324,0.013523,0.002678,0.000431,0.188868
5409000,0.0324,0.013523,0.002678,0.000431,0.150201
5410000,0.0324,0.013523,0.002678,0.000431,0.070752
5411000,0.0324,0.013523,0.002678,0.000431,0.216839
5412000,0.0324,0.013523,0.002678,0.000431,0.117763
5413000,0.0324,0.013523,0.002678,0.000431,0.115413
5414000,0.0324,0.013523,0.002678,0.000431,0.140916
5415000,0.0324,0.013523,0.002678,0.000431,0.150554
5416000,0.0324,0.013523,0.002678,0.000431,0.089439
5417000,0.0324,0.013523,0.002678,0.000431,0.070047
5418000,0.0324,0.013523,0.002678,0.000431,0.107538
5419000,0.0324,0.013523,0.002678,0.000431,0.074513
5420000,0.0324,0.013523,0.002678,0.000431,0.113885
5421000,0.0324,0.013523,0.002678,0.000431,0.151259
5422000,0.0324,0.013523,0.002678,0.000431,0.091554
5423000,0.0324,0.013523,0.002678,0.000431,0.111652
5424000,0.0324,0.013523,0.002678,0.000431,0.087441
5425000,0.0324,0.013523,0.002678,0.000431,0.161484
5426000,0.0324,0.013523,0.002678,0.000431,0.096961
5427000,0.0324,0.013523,0.002678,0.000431,0.136215
5428000,0.0324,0.013523,0.002678,0.000431,0.146440
5429000,0.0324,0.013523,0.002678,0.000431,0.136568
5430000,0.0324,0.013523,0.002678,0.000431,0.085796
5431000,0.0324,0.013523,0.002678,0.000431,0.075101
5432000,0.0324,0.013523,0.002678,0.000431,0.109419
5433000,0.0324,0.013523,0.002678,0.000431,0.106363
5434000,0.0324,0.013523,0.002678,0.000431,0.063348
5435000,0.0324,0.013523,0.002678,0.000431,0.102602
5436000,0.0324,0.013523,0.002678,0.000431,0.136920
5437000,0.0324,0.013523,0.002678,0.000431,0.147968
5438000,0.0324,0.013523,0.002678,0.000431,0.113885
5439000,0.0324,0.013523,0.002678,0.000431,0.105305
5440000,0.0324,0.013523,0.002678,0.000431,0.097313
5441000,0.0324,0.013523,0.002678,0.000431,0.091319
5442000,0.0324,0.013523,0.002678,0.000431,0.100252
5443000,0.0324,0.013523,0.002678,0.000431,0.105188
5444000,0.0324,0.013523,0.002678,0.000431,0.096256
5445000,0.0324,0.013523,0.002678,0.000431,0.150671
5446000,0.0324,0.013523,0.002678,0.000431,0.112239
5447000,0.0324,0.013523,0.002678,0.000431,0.069224
5448000,0.0324,0.013523,0.002678,0.000431,0.139153
5449000,0.0324,0.013523,0.002678,0.000431,0.163012
5450000,0.0324,0.013523,0.002678,0.000431,0.211786
5451000,0.0324,0.013523,0.002678,0.000431,0.061467
5452000,0.0324,0.013523,0.002678,0.000431,0.084033
5453000,0.0324,0.013523,0.002678,0.000431,0.049832
5454000,0.0324,0.013523,0.002678,0.000431,0.108126
5455000,0.0324,0.013523,0.002678,0.000431,0.083915
5456000,0.0324,0.013523,0.002678,0.000431,0.119526
5457000,0.0324,0.013523,0.002678,0.000431,0.134100
5458000,0.0324,0.013523,0.002678,0.000431,0.093905
5459000,0.0324,0.013523,0.002678,0.000431,0.115413
5460000,0.0324,0.013523,0.002678,0.000431,0.073338
5461000,0.0324,0.013523,0.002678,0.000431,0.098606
5462000,0.0324,0.013523,0.002678,0.000431,0.163129
5463000,0.0324,0.013523,0.002678,0.000431,0.139976
5464000,0.0324,0.013523,0.002678,0.000431,0.129634
5465000,0.0324,0.013523,0.002678,0.000431,0.112710
5466000,0.0324,0.013523,0.002678,0.000431,0.129751
5467000,0.0324,0.013523,0.002678,0.000431,0.116235
5468000,0.0324,0.013523,0.002678,0.000431,0.061232
5469000,0.0324,0.013523,0.002678,0.000431,0.107186
5470000,0.0324,0.013523,0.002678,0.000431,0.106010
5471000,0.0324,0.013523,0.002678,0.000431,0.058882
5472000,0.0324,0.013523,0.002678,0.000431,0.120584
5473000,0.0324,0.013523,0.002678,0.000431,0.128693
5474000,0.0324,0.013523,0.002678,0.000431,0.137155
5475000,0.0324,0.013523,0.002678,0.000431,0.078274
5476000,0.0324,0.013523,0.002678,0.000431,0.146558
5477000,0.0324,0.013523,0.002678,0.000431,0.057119
5478000,0.0324,0.013523,0.002678,0.000431,0.079684
5479000,0.0324,0.013523,0.002678,0.000431,0.058059
5480000,0.0324,0.013523,0.002678,0.000431,0.079684
5481000,0.0324,0.013523,0.002678,0.000431,0.144677
5482000,0.0324,0.013523,0.002678,0.000431,0.129869
5483000,0.0324,0.013523,0.002678,0.000431,0.063113
5484000,0.0324,0.013523,0.002678,0.000431,0.089321
5485000,0.0324,0.013523,0.002678,0.000431,0.138448
5486000,0.0324,0.013523,0.002678,0.000431,0.074748
5487000,0.0324,0.013523,0.002678,0.000431,0.075101
5488000,0.0324,0.013523,0.002678,0.000431,0.075806
5489000,0.0324,0.013523,0.002678,0.000431,0.148321
5490000,0.0324,0.013523,0.002678,0.000431,0.080977
5491000,0.0324,0.013523,0.002678,0.000431,0.064405
5492000,0.0324,0.013523,0.002678,0.000431,0.062407
5493000,0.0324,0.013523,0.002678,0.000431,0.051947
5494000,0.0324,0.013523,0.002678,0.000431,0.087911
5495000,0.0324,0.013523,0.002678,0.000431,0.072867
5496000,0.0324,0.013523,0.002678,0.000431,0.053710
5497000,0.0324,0.013523,0.002678,0.000431,0.076628
5498000,0.0324,0.013523,0.002678,0.000431,0.057706
5499000,0.0324,0.013523,0.002678,0.000431,0.068989
5500000,0.0324,0.013523,0.002678,0.000431,0.042545
5501000,0.0324,0.013523,0.002678,0.000431,0.074748
5502000,0.0324,0.013523,0.002678,0.000431,0.129869
5503000,0.0324,0.013523,0.002678,0.000431,0.066168
5504000,0.0324,0.013523,0.002678,0.000431,0.084503
5505000,0.0324,0.013523,0.002678,0.000431,0.086971
5506000,0.0324,0.013523,0.002678,0.000431,0.111182
5507000,0.0324,0.013523,0.002678,0.000431,0.086383
5508000,0.0324,0.013523,0.002678,0.000431,0.127518
5509000,0.0324,0.013523,0.002678,0.000431,0.090614
5510000,0.0324,0.013523,0.002678,0.000431,0.096138
5511000,0.0324,0.013523,0.002678,0.000431,0.037962
5512000,0.0324,0.013523,0.002678,0.000431,0.046071
5513000,0.0324,0.013523,0.002678,0.000431,0.078979
5514000,0.0324,0.013523,0.002678,0.000431,0.145147
5515000,0.0324,0.013523,0.002678,0.000431,0.122464
5516000,0.0324,0.013523,0.002678,0.000431,0.076041
5517000,0.0324,0.013523,0.002678,0.000431,0.080859
5518000,0.0324,0.013523,0.002678,0.000431,0.035258
5519000,0.0324,0.013523,0.002678,0.000431,0.063700
5520000,0.0324,0.013523,0.002678,0.000431,0.131397
5521000,0.0324,0.013523,0.002678,0.000431,0.085208
5522000,0.0324,0.013523,0.002678,0.000431,0.120466
5523000,0.0324,0.013523,0.002678,0.000431,0.136215
5524000,0.0324,0.013523,0.002678,0.000431,0.240228
5525000,0.0324,0.013523,0.002678,0.000431,0.141739
5526000,0.0324,0.013523,0.002678,0.000431,0.054298
5527000,0.0324,0.013523,0.002678,0.000431,0.084620
5528000,0.0324,0.013523,0.002678,0.000431,0.065228
5529000,0.0324,0.013523,0.002678,0.000431,0.067344
5530000,0.0324,0.013523,0.002678,0.000431,0.088029
5531000,0.0324,0.013523,0.002678,0.000431,0.035258
5532000,0.0324,0.013523,0.002678,0.000431,0.090379
5533000,0.0324,0.013523,0.002678,0.000431,0.092142
5534000,0.0324,0.013523,0.002678,0.000431,0.152669
5535000,0.0324,0.013523,0.002678,0.000431,0.083798
5536000,0.0324,0.013523,0.002678,0.000431,0.122699
5537000,0.0324,0.013523,0.002678,0.000431,0.106363
5538000,0.0324,0.013523,0.002678,0.000431,0.061585
5539000,0.0324,0.013523,0.002678,0.000431,0.062525
5540000,0.0324,0.013523,0.002678,0.000431,0.111769
5541000,0.0324,0.013523,0.002678,0.000431,0.076628
5542000,0.0324,0.013523,0.002678,0.000431,0.049479
5543000,0.0324,0.013523,0.002678,0.000431,0.118703
5544000,0.0324,0.013523,0.002678,0.000431,0.100487
5545000,0.0324,0.013523,0.002678,0.000431,0.035141
5546000,0.0324,0.013523,0.002678,0.000431,0.076628
5547000,0.0324,0.013523,0.002678,0.000431,0.095433
5548000,0.0324,0.013523,0.002678,0.000431,0.218250
5549000,0.0324,0.013523,0.002678,0.000431,0.091084
5550000,0.0324,0.013523,0.002678,0.000431,0.060409
5551000,0.0324,0.013523,0.002678,0.000431,0.035258
5552000,0.0324,0.013523,0.002678,0.000431,0.113767
5553000,0.0324,0.013523,0.002678,0.000431,0.087558
5554000,0.0324,0.013523,0.002678,0.000431,0.119644
5555000,0.0324,0.013523,0.002678,0.000431,0.205557
5556000,0.0324,0.013523,0.002678,0.000431,0.594458
5557000,0.0324,0.013523,0.002678,0.000431,0.591402
5558000,0.0324,0.013523,0.002678,0.000431,0.135040
5559000,0.0324,0.013523,0.002678,0.000431,0.073103
5560000,0.0324,0.013523,0.002678,0.000431,0.042310
5561000,0.0324,0.013523,0.002678,0.000431,0.108126
5562000,0.0324,0.013523,0.002678,0.000431,0.083327
5563000,0.0324,0.013523,0.002678,0.000431,0.188750
5564000,0.0324,0.013523,0.002678,0.000431,0.229297
5565000,0.0324,0.013523,0.002678,0.000431,0.068284
5566000,0.0324,0.013523,0.002678,0.000431,0.045601
5567000,0.0324,0.013523,0.002678,0.000431,0.087558
5568000,0.0324,0.013523,0.002678,0.000431,0.046424
5569000,0.0324,0.013523,0.002678,0.000431,0.338246
5570000,0.0324,0.013523,0.002678,0.000431,0.304633
5571000,0.0324,0.013523,0.002678,0.000431,0.117293
5572000,0.0324,0.013523,0.002678,0.000431,0.066874
5573000,0.0324,0.013523,0.002678,0.000431,0.075453
5574000,0.0324,0.013523,0.002678,0.000431,0.225537
5575000,0.0324,0.013523,0.002678,0.000431,0.130691
5576000,0.0324,0.013523,0.002678,0.000431,0.062995
5577000,0.0324,0.013523,0.002678,0.000431,0.061115
5578000,0.0324,0.013523,0.002678,0.000431,0.092730
5579000,0.0324,0.013523,0.002678,0.000431,0.123875
5580000,0.0324,0.013523,0.002678,0.000431,0.076041
5581000,0.0324,0.013523,0.002678,0.000431,0.165832
5582000,0.0324,0.013523,0.002678,0.000431,0.049479
5583000,0.0324,0.013523,0.002678,0.000431,0.050537
5584000,0.0324,0.013523,0.002678,0.000431,0.257857
5585000,0.0324,0.013523,0.002678,0.000431,0.063348
5586000,0.0324,0.013523,0.002678,0.000431,0.195097
5587000,0.0324,0.013523,0.002678,0.000431,0.307101
5588000,0.0324,0.013523,0.002678,0.000431,0.123170
5589000,0.0324,0.013523,0.002678,0.000431,0.038667
5590000,0.0324,0.013523,0.002678,0.000431,0.098959
5591000,0.0324,0.013523,0.002678,0.000431,0.075336
5592000,0.0324,0.013523,0.002678,0.000431,0.067344
5593000,0.0324,0.013523,0.002678,0.000431,0.064758
5594000,0.0324,0.013523,0.002678,0.000431,0.076863
5595000,0.0324,0.013523,0.002678,0.000431,0.047716
5596000,0.0324,0.013523,0.002678,0.000431,0.055708
5597000,0.0324,0.013523,0.002678,0.000431,0.056414
5598000,0.0324,0.013523,0.002678,0.000431,0.088029
5599000,0.0324,0.013523,0.002678,0.000431,0.070634
5600000,0.0324,0.013523,0.002678,0.000431,0.064993
5601000,0.0324,0.013523,0.002678,0.000431,0.035023
5602000,0.0324,0.013523,0.002678,0.000431,0.049714
5603000,0.0324,0.013523,0.002678,0.000431,0.114943
5604000,0.0324,0.013523,0.002678,0.000431,0.113062
5605000,0.0324,0.013523,0.002678,0.000431,0.078626
5606000,0.0324,0.013523,0.002678,0.000431,0.226947
5607000,0.0324,0.013523,0.002678,0.000431,0.062760
5608000,0.0324,0.013523,0.002678,0.000431,0.077451
5609000,0.0324,0.013523,0.002678,0.000431,0.098606
5610000,0.0324,0.013523,0.002678,0.000431,0.074278
5611000,0.0324,0.013523,0.002678,0.000431,0.039372
5612000,0.0324,0.013523,0.002678,0.000431,0.061115
5613000,0.0324,0.013523,0.002678,0.000431,0.102132
5614000,0.0324,0.013523,0.002678,0.000431,0.112945
5615000,0.0324,0.013523,0.002678,0.000431,0.259150
5616000,0.0324,0.013523,0.002678,0.000431,0.126695
5617000,0.0324,0.013523,0.002678,0.000431,0.171826
5618000,0.0324,0.013523,0.002678,0.000431,0.143972
5619000,0.0324,0.013523,0.002678,0.000431,0.035023
5620000,0.0324,0.013523,0.002678,0.000431,0.104600
5621000,0.0324,0.013523,0.002678,0.000431,0.259502
5622000,0.0324,0.013523,0.002678,0.000431,0.087206
5623000,0.0324,0.013523,0.002678,0.000431,0.074278
5624000,0.0324,0.013523,0.002678,0.000431,0.098841
5625000,0.0324,0.013523,0.002678,0.000431,0.050185
5626000,0.0324,0.013523,0.002678,0.000431,0.068989
5627000,0.0324,0.013523,0.002678,0.000431,0.040547
5628000,0.0324,0.013523,0.002678,0.000431,0.240815
5629000,0.0324,0.013523,0.002678,0.000431,0.262558
5630000,0.0324,0.013523,0.002678,0.000431,0.053945
5631000,0.0324,0.013523,0.002678,0.000431,0.049949
5632000,0.0324,0.013523,0.002678,0.000431,0.150906
5633000,0.0324,0.013523,0.002678,0.000431,0.337658
5634000,0.0324,0.013523,0.002678,0.000431,0.230003
5635000,0.0324,0.013523,0.002678,0.000431,0.182874
5636000,0.0324,0.013523,0.002678,0.000431,0.109654
5637000,0.0324,0.013523,0.002678,0.000431,0.045601
5638000,0.0324,0.013523,0.002678,0.000431,0.038902
5639000,0.0324,0.013523,0.002678,0.000431,0.038667
5640000,0.0324,0.013523,0.002678,0.000431,0.058294
5641000,0.0324,0.013523,0.002678,0.000431,0.174059
5642000,0.0324,0.013523,0.002678,0.000431,0.269022
5643000,0.0324,0.013523,0.002678,0.000431,0.084150
5644000,0.0324,0.013523,0.002678,0.000431,0.046189
5645000,0.0324,0.013523,0.002678,0.000431,0.147850
5646000,0.0324,0.013523,0.002678,0.000431,0.035141
5647000,0.0324,0.013523,0.002678,0.000431,0.050185
5648000,0.0324,0.013523,0.002678,0.000431,0.087911
5649000,0.0324,0.013523,0.002678,0.000431,0.042780
5650000,0.0324,0.013523,0.002678,0.000431,0.065228
5651000,0.0324,0.013523,0.002678,0.000431,0.038314
5652000,0.0324,0.013523,0.002678,0.000431,0.219425
5653000,0.0324,0.013523,0.002678,0.000431,0.067696
5654000,0.0324,0.013523,0.002678,0.000431,0.122464
5655000,0.0324,0.013523,0.002678,0.000431,0.213314
5656000,0.0324,0.013523,0.002678,0.000431,0.085443
5657000,0.0324,0.013523,0.002678,0.000431,0.072867
5658000,0.0324,0.013523,0.002678,0.000431,0.208260
5659000,0.0324,0.013523,0.002678,0.000431,0.193922
5660000,0.0324,0.013523,0.002678,0.000431,0.193922
5661000,0.0324,0.013523,0.002678,0.000431,0.353760
5662000,0.0324,0.013523,0.002678,0.000431,0.460005
5663000,0.0324,0.013523,0.002678,0.000431,0.454364
5664000,0.0324,0.013523,0.002678,0.000431,0.209435
5665000,0.0324,0.013523,0.002678,0.000431,0.109066
5666000,0.0324,0.013523,0.002678,0.000431,0.230708
5667000,0.0324,0.013523,0.002678,0.000431,0.183344
5668000,0.0324,0.013523,0.002678,0.000431,0.313095
5669000,0.0324,0.013523,0.002678,0.000431,0.430036
5670000,0.0324,0.013523,0.002678,0.000431,0.289354
5671000,0.0324,0.013523,0.002678,0.000431,0.068636
5672000,0.0324,0.013523,0.002678,0.000431,0.058764
5673000,0.0324,0.013523,0.002678,0.000431,0.187105
5674000,0.0324,0.013523,0.002678,0.000431,0.202031
5675000,0.0324,0.013523,0.002678,0.000431,0.231178
5676000,0.0324,0.013523,0.002678,0.000431,0.235997
5677000,0.0324,0.013523,0.002678,0.000431,0.126460
5678000,0.0324,0.013523,0.002678,0.000431,0.252568
5679000,0.0324,0.013523,0.002678,0.000431,0.168418
5680000,0.0324,0.013523,0.002678,0.000431,0.121642
5681000,0.0324,0.013523,0.002678,0.000431,0.233058
5682000,0.0324,0.013523,0.002678,0.000431,0.110006
5683000,0.0324,0.013523,0.002678,0.000431,0.046424
5684000,0.0324,0.013523,0.002678,0.000431,0.084855
5685000,0.0324,0.013523,0.002678,0.000431,0.143032
5686000,0.0324,0.013523,0.002678,0.000431,0.079684
5687000,0.0324,0.013523,0.002678,0.000431,0.110476
5688000,0.0324,0.013523,0.002678,0.000431,0.035141
5689000,0.0324,0.013523,0.002678,0.000431,0.050185
5690000,0.0324,0.013523,0.002678,0.000431,0.233176
5691000,0.0324,0.013523,0.002678,0.000431,0.478340
5692000,0.0324,0.013523,0.002678,0.000431,0.371624
5693000,0.0324,0.013523,0.002678,0.000431,0.381261
5694000,0.0324,0.013523,0.002678,0.000431,0.210728
5695000,0.0324,0.013523,0.002678,0.000431,0.069929
5696000,0.0324,0.013523,0.002678,0.000431,0.050185
5697000,0.0324,0.013523,0.002678,0.000431,0.042663
5698000,0.0324,0.013523,0.002678,0.000431,0.089204
5699000,0.0324,0.013523,0.002678,0.000431,0.232471
5700000,0.0324,0.013523,0.002678,0.000431,0.146793
5701000,0.0324,0.013523,0.002678,0.000431,0.038784
5702000,0.0324,0.013523,0.002678,0.000431,0.035023
5703000,0.0324,0.013523,0.002678,0.000431,0.054063
5704000,0.0324,0.013523,0.002678,0.000431,0.050067
5705000,0.0324,0.013523,0.002678,0.000431,0.134922
5706000,0.0324,0.013523,0.002678,0.000431,0.296289
5707000,0.0324,0.013523,0.002678,0.000431,0.117763
5708000,0.0324,0.013523,0.002678,0.000431,0.053945
5709000,0.0324,0.013523,0.002678,0.000431,0.080154
5710000,0.0324,0.013523,0.002678,0.000431,0.035258
5711000,0.0324,0.013523,0.002678,0.000431,0.155490
5712000,0.0324,0.013523,0.002678,0.000431,0.288297
5713000,0.0324,0.013523,0.002678,0.000431,0.262088
5714000,0.0324,0.013523,0.002678,0.000431,0.143619
5715000,0.0324,0.013523,0.002678,0.000431,0.064993
5716000,0.0324,0.013523,0.002678,0.000431,0.082622
5717000,0.0324,0.013523,0.002678,0.000431,0.080507
5718000,0.0324,0.013523,0.002678,0.000431,0.067226
5719000,0.0324,0.013523,0.002678,0.000431,0.171944
5720000,0.0324,0.013523,0.002678,0.000431,0.123287
5721000,0.0324,0.013523,0.002678,0.000431,0.236232
5722000,0.0324,0.013523,0.002678,0.000431,0.323085
5723000,0.0324,0.013523,0.002678,0.000431,0.282655
5724000,0.0324,0.013523,0.002678,0.000431,0.129281
5725000,0.0324,0.013523,0.002678,0.000431,0.155255
5726000,0.0324,0.013523,0.002678,0.000431,0.288884
5727000,0.0324,0.013523,0.002678,0.000431,0.226947
5728000,0.0324,0.013523,0.002678,0.000431,0.136450
5729000,0.0324,0.013523,0.002678,0.000431,0.050772
5730000,0.0324,0.013523,0.002678,0.000431,0.076863
5731000,0.0324,0.013523,0.002678,0.000431,0.042780
5732000,0.0324,0.013523,0.002678,0.000431,0.087911
5733000,0.0324,0.013523,0.002678,0.000431,0.128576
5734000,0.0324,0.013523,0.002678,0.000431,0.128811
5735000,0.0324,0.013523,0.002678,0.000431,0.142562
5736000,0.0324,0.013523,0.002678,0.000431,0.066403
5737000,0.0324,0.013523,0.002678,0.000431,0.162659
5738000,0.0324,0.013523,0.002678,0.000431,0.231766
5739000,0.0324,0.013523,0.002678,0.000431,0.255506
5740000,0.0324,0.013523,0.002678,0.000431,0.395365
5741000,0.0324,0.013523,0.002678,0.000431,0.248925
5742000,0.0324,0.013523,0.002678,0.000431,0.142444
5743000,0.0324,0.013523,0.002678,0.000431,0.082270
5744000,0.0324,0.013523,0.002678,0.000431,0.035729
5745000,0.0324,0.013523,0.002678,0.000431,0.090144
5746000,0.0324,0.013523,0.002678,0.000431,0.053710
5747000,0.0324,0.013523,0.002678,0.000431,0.133747
5748000,0.0324,0.013523,0.002678,0.000431,0.293938
5749000,0.0324,0.013523,0.002678,0.000431,0.155607
5750000,0.0324,0.013523,0.002678,0.000431,0.111769
5751000,0.0324,0.013523,0.002678,0.000431,0.088381
5752000,0.0324,0.013523,0.002678,0.000431,0.151376
5753000,0.0324,0.013523,0.002678,0.000431,0.076393
5754000,0.0324,0.013523,0.002678,0.000431,0.080272
5755000,0.0324,0.013523,0.002678,0.000431,0.070517
5756000,0.0324,0.013523,0.002678,0.000431,0.094845
5757000,0.0324,0.013523,0.002678,0.000431,0.105423
5758000,0.0324,0.013523,0.002678,0.000431,0.140329
5759000,0.0324,0.013523,0.002678,0.000431,0.056531
5760000,0.0324,0.013523,0.002678,0.000431,0.180758
5761000,0.0324,0.013523,0.002678,0.000431,0.093200
5762000,0.0324,0.013523,0.002678,0.000431,0.160543
5763000,0.0324,0.013523,0.002678,0.000431,0.103307
5764000,0.0324,0.013523,0.002678,0.000431,0.214489
5765000,0.0324,0.013523,0.002678,0.000431,0.272900
5766000,0.0324,0.013523,0.002678,0.000431,0.094845
5767000,0.0324,0.013523,0.002678,0.000431,0.102485
5768000,0.0324,0.013523,0.002678,0.000431,0.187457
5769000,0.0324,0.013523,0.002678,0.000431,0.229297
5770000,0.0324,0.013523,0.002678,0.000431,0.257857
5771000,0.0324,0.013523,0.002678,0.000431,0.313918
5772000,0.0324,0.013523,0.002678,0.000431,0.276074
5773000,0.0324,0.013523,0.002678,0.000431,0.369744
5774000,0.0324,0.013523,0.002678,0.000431,0.492208
5775000,0.0324,0.013523,0.002678,0.000431,0.254801
5776000,0.0324,0.013523,0.002678,0.000431,0.146205
5777000,0.0324,0.013523,0.002678,0.000431,0.121054
5778000,0.0324,0.013523,0.002678,0.000431,0.052065
5779000,0.0324,0.013523,0.002678,0.000431,0.044778
5780000,0.0324,0.013523,0.002678,0.000431,0.161484
5781000,0.0324,0.013523,0.002678,0.000431,0.238347
5782000,0.0324,0.013523,0.002678,0.000431,0.069107
5783000,0.0324,0.013523,0.002678,0.000431,0.050302
5784000,0.0324,0.013523,0.002678,0.000431,0.144207
5785000,0.0324,0.013523,0.002678,0.000431,0.087676
5786000,0.0324,0.013523,0.002678,0.000431,0.118703
5787000,0.0324,0.013523,0.002678,0.000431,0.206615
5788000,0.0324,0.013523,0.002678,0.000431,0.344710
5789000,0.0324,0.013523,0.002678,0.000431,0.204029
5790000,0.0324,0.013523,0.002678,0.000431,0.177938
5791000,0.0324,0.013523,0.002678,0.000431,0.115413
5792000,0.0324,0.013523,0.002678,0.000431,0.127401
5793000,0.0324,0.013523,0.002678,0.000431,0.051947
5794000,0.0324,0.013523,0.002678,0.000431,0.106716
5795000,0.0324,0.013523,0.002678,0.000431,0.132102
5796000,0.0324,0.013523,0.002678,0.000431,0.233881
5797000,0.0324,0.013523,0.002678,0.000431,0.298874
5798000,0.0324,0.013523,0.002678,0.000431,0.205322
5799000,0.0324,0.013523,0.002678,0.000431,0.180993
5800000,0.0324,0.013523,0.002678,0.000431,0.109889
5801000,0.0324,0.013523,0.002678,0.000431,0.050537
5802000,0.0324,0.013523,0.002678,0.000431,0.073338
5803000,0.0324,0.013523,0.002678,0.000431,0.117176
5804000,0.0324,0.013523,0.002678,0.000431,0.187340
5805000,0.0324,0.013523,0.002678,0.000431,0.288179
5806000,0.0324,0.013523,0.002678,0.000431,0.144560
5807000,0.0324,0.013523,0.002678,0.000431,0.148203
5808000,0.0324,0.013523,0.002678,0.000431,0.090144
5809000,0.0324,0.013523,0.002678,0.000431,0.118939
5810000,0.0324,0.013523,0.002678,0.000431,0.109184
5811000,0.0324,0.013523,0.002678,0.000431,0.130456
5812000,0.0324,0.013523,0.002678,0.000431,0.299697
5813000,0.0324,0.013523,0.002678,0.000431,0.207672
5814000,0.0324,0.013523,0.002678,0.000431,0.093787
5815000,0.0324,0.013523,0.002678,0.000431,0.092260
5816000,0.0324,0.013523,0.002678,0.000431,0.069812
5817000,0.0324,0.013523,0.002678,0.000431,0.083915
5818000,0.0324,0.013523,0.002678,0.000431,0.075218
5819000,0.0324,0.013523,0.002678,0.000431,0.052535
5820000,0.0324,0.013523,0.002678,0.000431,0.130926
5821000,0.0324,0.013523,0.002678,0.000431,0.149731
5822000,0.0324,0.013523,0.002678,0.000431,0.189808
5823000,0.0324,0.013523,0.002678,0.000431,0.125285
5824000,0.0324,0.013523,0.002678,0.000431,0.145030
5825000,0.0324,0.013523,0.002678,0.000431,0.171004
5826000,0.0324,0.013523,0.002678,0.000431,0.163952
5827000,0.0324,0.013523,0.002678,0.000431,0.194744
5828000,0.0324,0.013523,0.002678,0.000431,0.256211
5829000,0.0324,0.013523,0.002678,0.000431,0.196037
5830000,0.0324,0.013523,0.002678,0.000431,0.125285
5831000,0.0324,0.013523,0.002678,0.000431,0.106598
5832000,0.0324,0.013523,0.002678,0.000431,0.280305
5833000,0.0324,0.013523,0.002678,0.000431,0.129751
5834000,0.0324,0.013523,0.002678,0.000431,0.081447
5835000,0.0324,0.013523,0.002678,0.000431,0.109419
5836000,0.0324,0.013523,0.002678,0.000431,0.043485
5837000,0.0324,0.013523,0.002678,0.000431,0.136685
5838000,0.0324,0.013523,0.002678,0.000431,0.106128
5839000,0.0324,0.013523,0.002678,0.000431,0.222598
5840000,0.0324,0.013523,0.002678,0.000431,0.080389
5841000,0.0324,0.013523,0.002678,0.000431,0.057589
5842000,0.0324,0.013523,0.002678,0.000431,0.065346
5843000,0.0324,0.013523,0.002678,0.000431,0.179466
5844000,0.0324,0.013523,0.002678,0.000431,0.272548
5845000,0.0324,0.013523,0.002678,0.000431,0.233176
5846000,0.0324,0.013523,0.002678,0.000431,0.168418
5847000,0.0324,0.013523,0.002678,0.000431,0.198270
5848000,0.0324,0.013523,0.002678,0.000431,0.094610
5849000,0.0324,0.013523,0.002678,0.000431,0.058647
5850000,0.0324,0.013523,0.002678,0.000431,0.057824
5851000,0.0324,0.013523,0.002678,0.000431,0.106951
5852000,0.0324,0.013523,0.002678,0.000431,0.214959
5853000,0.0324,0.013523,0.002678,0.000431,0.218250
5854000,0.0324,0.013523,0.002678,0.000431,0.112474
5855000,0.0324,0.013523,0.002678,0.000431,0.186400
5856000,0.0324,0.013523,0.002678,0.000431,0.090262
5857000,0.0324,0.013523,0.002678,0.000431,0.142797
5858000,0.0324,0.013523,0.002678,0.000431,0.203324
5859000,0.0324,0.013523,0.002678,0.000431,0.175352
5860000,0.0324,0.013523,0.002678,0.000431,0.115060
5861000,0.0324,0.013523,0.002678,0.000431,0.207672
5862000,0.0324,0.013523,0.002678,0.000431,0.158310
5863000,0.0324,0.013523,0.002678,0.000431,0.080037
5864000,0.0324,0.013523,0.002678,0.000431,0.045248
5865000,0.0324,0.013523,0.002678,0.000431,0.150201
5866000,0.0324,0.013523,0.002678,0.000431,0.220600
5867000,0.0324,0.013523,0.002678,0.000431,0.228945
5868000,0.0324,0.013523,0.002678,0.000431,0.191453
5869000,0.0324,0.013523,0.002678,0.000431,0.085325
5870000,0.0324,0.013523,0.002678,0.000431,0.215782
5871000,0.0324,0.013523,0.002678,0.000431,0.164657
5872000,0.0324,0.013523,0.002678,0.000431,0.132807
5873000,0.0324,0.013523,0.002678,0.000431,0.165245
5874000,0.0324,0.013523,0.002678,0.000431,0.228357
5875000,0.0324,0.013523,0.002678,0.000431,0.350234
5876000,0.0324,0.013523,0.002678,0.000431,0.137861
5877000,0.0324,0.013523,0.002678,0.000431,0.224596
5878000,0.0324,0.013523,0.002678,0.000431,0.149496
5879000,0.0324,0.013523,0.002678,0.000431,0.405942
5880000,0.0324,0.013523,0.002678,0.000431,0.278072
5881000,0.0324,0.013523,0.002678,0.000431,0.130574
5882000,0.0324,0.013523,0.002678,0.000431,0.158428
5883000,0.0324,0.013523,0.002678,0.000431,0.095668
5884000,0.0324,0.013523,0.002678,0.000431,0.196390
5885000,0.0324,0.013523,0.002678,0.000431,0.191688
5886000,0.0324,0.013523,0.002678,0.000431,0.259855
5887000,0.0324,0.013523,0.002678,0.000431,0.262205
5888000,0.0324,0.013523,0.002678,0.000431,0.072867
5889000,0.0324,0.013523,0.002678,0.000431,0.065346
5890000,0.0324,0.013523,0.002678,0.000431,0.120584
5891000,0.0324,0.013523,0.002678,0.000431,0.189690
5892000,0.0324,0.013523,0.002678,0.000431,0.137273
5893000,0.0324,0.013523,0.002678,0.000431,0.299932
5894000,0.0324,0.013523,0.002678,0.000431,0.234939
5895000,0.0324,0.013523,0.002678,0.000431,0.082740
5896000,0.0324,0.013523,0.002678,0.000431,0.262088
5897000,0.0324,0.013523,0.002678,0.000431,0.191453
5898000,0.0324,0.013523,0.002678,0.000431,0.177232
5899000,0.0324,0.013523,0.002678,0.000431,0.190631
5900000,0.0324,0.013523,0.002678,0.000431,0.094375
5901000,0.0324,0.013523,0.002678,0.000431,0.078861
5902000,0.0324,0.013523,0.002678,0.000431,0.199210
5903000,0.0324,0.013523,0.002678,0.000431,0.189926
5904000,0.0324,0.013523,0.002678,0.000431,0.177585
5905000,0.0324,0.013523,0.002678,0.000431,0.132454
5906000,0.0324,0.013523,0.002678,0.000431,0.300990
5907000,0.0324,0.013523,0.002678,0.000431,0.083798
5908000,0.0324,0.013523,0.002678,0.000431,0.069224
5909000,0.0324,0.013523,0.002678,0.000431,0.177820
5910000,0.0324,0.013523,0.002678,0.000431,0.140681
5911000,0.0324,0.013523,0.002678,0.000431,0.072867
5912000,0.0324,0.013523,0.002678,0.000431,0.139623
5913000,0.0324,0.013523,0.002678,0.000431,0.088381
5914000,0.0324,0.013523,0.002678,0.000431,0.073103
5915000,0.0324,0.013523,0.002678,0.000431,0.039842
5916000,0.0324,0.013523,0.002678,0.000431,0.218720
5917000,0.0324,0.013523,0.002678,0.000431,0.267729
5918000,0.0324,0.013523,0.002678,0.000431,0.160661
5919000,0.0324,0.013523,0.002678,0.000431,0.095785
5920000,0.0324,0.013523,0.002678,0.000431,0.035023
5921000,0.0324,0.013523,0.002678,0.000431,0.084385
5922000,0.0324,0.013523,0.002678,0.000431,0.099781
5923000,0.0324,0.013523,0.002678,0.000431,0.217780
5924000,0.0324,0.013523,0.002678,0.000431,0.245164
5925000,0.0324,0.013523,0.002678,0.000431,0.132102
5926000,0.0324,0.013523,0.002678,0.000431,0.084855
5927000,0.0324,0.013523,0.002678,0.000431,0.064993
5928000,0.0324,0.013523,0.002678,0.000431,0.169946
5929000,0.0324,0.013523,0.002678,0.000431,0.136920
5930000,0.0324,0.013523,0.002678,0.000431,0.151846
5931000,0.0324,0.013523,0.002678,0.000431,0.143854
5932000,0.0324,0.013523,0.002678,0.000431,0.127753
5933000,0.0324,0.013523,0.002678,0.000431,0.079449
5934000,0.0324,0.013523,0.002678,0.000431,0.163834
5935000,0.0324,0.013523,0.002678,0.000431,0.290295
5936000,0.0324,0.013523,0.002678,0.000431,0.181699
5937000,0.0324,0.013523,0.002678,0.000431,0.080272
5938000,0.0324,0.013523,0.002678,0.000431,0.139976
5939000,0.0324,0.013523,0.002678,0.000431,0.293585
5940000,0.0324,0.013523,0.002678,0.000431,0.114590
5941000,0.0324,0.013523,0.002678,0.000431,0.052888
5942000,0.0324,0.013523,0.002678,0.000431,0.247162
5943000,0.0324,0.013523,0.002678,0.000431,0.202384
5944000,0.0324,0.013523,0.002678,0.000431,0.138096
5945000,0.0324,0.013523,0.002678,0.000431,0.084150
5946000,0.0324,0.013523,0.002678,0.000431,0.106716
5947000,0.0324,0.013523,0.002678,0.000431,0.057589
5948000,0.0324,0.013523,0.002678,0.000431,0.071810
5949000,0.0324,0.013523,0.002678,0.000431,0.107186
5950000,0.0324,0.013523,0.002678,0.000431,0.252921
5951000,0.0324,0.013523,0.002678,0.000431,0.118468
5952000,0.0324,0.013523,0.002678,0.000431,0.083563
5953000,0.0324,0.013523,0.002678,0.000431,0.087558
5954000,0.0324,0.013523,0.002678,0.000431,0.076158
5955000,0.0324,0.013523,0.002678,0.000431,0.114590
5956000,0.0324,0.013523,0.002678,0.000431,0.091554
5957000,0.0324,0.013523,0.002678,0.000431,0.218485
5958000,0.0324,0.013523,0.002678,0.000431,0.155372
5959000,0.0324,0.013523,0.002678,0.000431,0.042780
5960000,0.0324,0.013523,0.002678,0.000431,0.066168
5961000,0.0324,0.013523,0.002678,0.000431,0.311097
5962000,0.0324,0.013523,0.002678,0.000431,0.065228
5963000,0.0324,0.013523,0.002678,0.000431,0.199798
5964000,0.0324,0.013523,0.002678,0.000431,0.232706
5965000,0.0324,0.013523,0.002678,0.000431,0.163952
5966000,0.0324,0.013523,0.002678,0.000431,0.039019
5967000,0.0324,0.013523,0.002678,0.000431,0.057706
5968000,0.0324,0.013523,0.002678,0.000431,0.064993
5969000,0.0324,0.013523,0.002678,0.000431,0.151141
5970000,0.0324,0.013523,0.002678,0.000431,0.259150
5971000,0.0324,0.013523,0.002678,0.000431,0.234939
5972000,0.0324,0.013523,0.002678,0.000431,0.133394
5973000,0.0324,0.013523,0.002678,0.000431,0.212138
5974000,0.0324,0.013523,0.002678,0.000431,0.242108
5975000,0.0324,0.013523,0.002678,0.000431,0.055238
5976000,0.0324,0.013523,0.002678,0.000431,0.194627
5977000,0.0324,0.013523,0.002678,0.000431,0.466822
5978000,0.0324,0.013523,0.002678,0.000431,0.323203
5979000,0.0324,0.013523,0.002678,0.000431,0.227417
5980000,0.0324,0.013523,0.002678,0.000431,0.186517
5981000,0.0324,0.013523,0.002678,0.000431,0.094375
5982000,0.0324,0.013523,0.002678,0.000431,0.352349
5983000,0.0324,0.013523,0.002678,0.000431,0.142327
5984000,0.0324,0.013523,0.002678,0.000431,0.418988
5985000,0.0324,0.013523,0.002678,0.000431,0.348236
5986000,0.0324,0.013523,0.002678,0.000431,0.100369
5987000,0.0324,0.013523,0.002678,0.000431,0.262558
5988000,0.0324,0.013523,0.002678,0.000431,0.065228
5989000,0.0324,0.013523,0.002678,0.000431,0.144207
5990000,0.0324,0.013523,0.002678,0.000431,0.159368
5991000,0.0324,0.013523,0.002678,0.000431,0.066756
5992000,0.0324,0.013523,0.002678,0.000431,0.198388
5993000,0.0324,0.013523,0.002678,0.000431,0.080507
5994000,0.0324,0.013523,0.002678,0.000431,0.211198
5995000,0.0324,0.013523,0.002678,0.000431,0.102485
5996000,0.0324,0.013523,0.002678,0.000431,0.138331
5997000,0.0324,0.013523,0.002678,0.000431,0.076511
5998000,0.0324,0.013523,0.002678,0.000431,0.059469
5999000,0.0324,0.013523,0.002678,0.000431,0.081800
