Cycle,Area(mm^2),PeakDynamic(W),SubthresholdLeakage(W),GateLeakage(W),RunTimeDynamic(W)
31000000,0.0324,0.013523,0.002678,0.000431,0.004701
31001000,0.0324,0.013523,0.002678,0.000431,0.004584
31002000,0.0324,0.013523,0.002678,0.000431,0.004584
31003000,0.0324,0.013523,0.002678,0.000431,0.027267
31004000,0.0324,0.013523,0.002678,0.000431,0.004701
31005000,0.0324,0.013523,0.002678,0.000431,0.004701
31006000,0.0324,0.013523,0.002678,0.000431,0.004701
31007000,0.0324,0.013523,0.002678,0.000431,0.004701
31008000,0.0324,0.013523,0.002678,0.000431,0.004701
31009000,0.0324,0.013523,0.002678,0.000431,0.019745
31010000,0.0324,0.013523,0.002678,0.000431,0.004701
31011000,0.0324,0.013523,0.002678,0.000431,0.052418
31012000,0.0324,0.013523,0.002678,0.000431,0.032438
31013000,0.0324,0.013523,0.002678,0.000431,0.004584
31014000,0.0324,0.013523,0.002678,0.000431,0.064641
31015000,0.0324,0.013523,0.002678,0.000431,0.012340
31016000,0.0324,0.013523,0.002678,0.000431,0.094728
31017000,0.0324,0.013523,0.002678,0.000431,0.004701
31018000,0.0324,0.013523,0.002678,0.000431,0.087911
31019000,0.0324,0.013523,0.002678,0.000431,0.004701
31020000,0.0324,0.013523,0.002678,0.000431,0.004701
31021000,0.0324,0.013523,0.002678,0.000431,0.004701
31022000,0.0324,0.013523,0.002678,0.000431,0.004701
31023000,0.0324,0.013523,0.002678,0.000431,0.004701
31024000,0.0324,0.013523,0.002678,0.000431,0.095550
31025000,0.0324,0.013523,0.002678,0.000431,0.004819
31026000,0.0324,0.013523,0.002678,0.000431,0.004701
31027000,0.0324,0.013523,0.002678,0.000431,0.004701
31028000,0.0324,0.013523,0.002678,0.000431,0.004701
31029000,0.0324,0.013523,0.002678,0.000431,0.027267
31030000,0.0324,0.013523,0.002678,0.000431,0.013163
31031000,0.0324,0.013523,0.002678,0.000431,0.011283
31032000,0.0324,0.013523,0.002678,0.000431,0.004466
31033000,0.0324,0.013523,0.002678,0.000431,0.004701
31034000,0.0324,0.013523,0.002678,0.000431,0.004701
31035000,0.0324,0.013523,0.002678,0.000431,0.053593
31036000,0.0324,0.013523,0.002678,0.000431,0.008462
31037000,0.0324,0.013523,0.002678,0.000431,0.027267
31038000,0.0324,0.013523,0.002678,0.000431,0.004701
31039000,0.0324,0.013523,0.002678,0.000431,0.004701
31040000,0.0324,0.013523,0.002678,0.000431,0.004701
31041000,0.0324,0.013523,0.002678,0.000431,0.004584
31042000,0.0324,0.013523,0.002678,0.000431,0.004584
31043000,0.0324,0.013523,0.002678,0.000431,0.059939
31044000,0.0324,0.013523,0.002678,0.000431,0.115178
31045000,0.0324,0.013523,0.002678,0.000431,0.010930
31046000,0.0324,0.013523,0.002678,0.000431,0.021038
31047000,0.0324,0.013523,0.002678,0.000431,0.004466
31048000,0.0324,0.013523,0.002678,0.000431,0.034788
31049000,0.0324,0.013523,0.002678,0.000431,0.004701
31050000,0.0324,0.013523,0.002678,0.000431,0.004466
31051000,0.0324,0.013523,0.002678,0.000431,0.004701
31052000,0.0324,0.013523,0.002678,0.000431,0.012223
31053000,0.0324,0.013523,0.002678,0.000431,0.004701
31054000,0.0324,0.013523,0.002678,0.000431,0.004701
31055000,0.0324,0.013523,0.002678,0.000431,0.004701
31056000,0.0324,0.013523,0.002678,0.000431,0.057354
31057000,0.0324,0.013523,0.002678,0.000431,0.012223
31058000,0.0324,0.013523,0.002678,0.000431,0.004701
31059000,0.0324,0.013523,0.002678,0.000431,0.057354
31060000,0.0324,0.013523,0.002678,0.000431,0.004701
31061000,0.0324,0.013523,0.002678,0.000431,0.004701
31062000,0.0324,0.013523,0.002678,0.000431,0.008462
31063000,0.0324,0.013523,0.002678,0.000431,0.015984
31064000,0.0324,0.013523,0.002678,0.000431,0.004701
31065000,0.0324,0.013523,0.002678,0.000431,0.012223
31066000,0.0324,0.013523,0.002678,0.000431,0.005759
31067000,0.0324,0.013523,0.002678,0.000431,0.072985
31068000,0.0324,0.013523,0.002678,0.000431,0.010813
31069000,0.0324,0.013523,0.002678,0.000431,0.014103
31070000,0.0324,0.013523,0.002678,0.000431,0.070517
31071000,0.0324,0.013523,0.002678,0.000431,0.025269
31072000,0.0324,0.013523,0.002678,0.000431,0.013986
31073000,0.0324,0.013523,0.002678,0.000431,0.027267
31074000,0.0324,0.013523,0.002678,0.000431,0.034788
31075000,0.0324,0.013523,0.002678,0.000431,0.004701
31076000,0.0324,0.013523,0.002678,0.000431,0.034788
31077000,0.0324,0.013523,0.002678,0.000431,0.019745
31078000,0.0324,0.013523,0.002678,0.000431,0.004466
31079000,0.0324,0.013523,0.002678,0.000431,0.004701
31080000,0.0324,0.013523,0.002678,0.000431,0.017629
31081000,0.0324,0.013523,0.002678,0.000431,0.014338
31082000,0.0324,0.013523,0.002678,0.000431,0.004701
31083000,0.0324,0.013523,0.002678,0.000431,0.023388
31084000,0.0324,0.013523,0.002678,0.000431,0.008345
31085000,0.0324,0.013523,0.002678,0.000431,0.004701
31086000,0.0324,0.013523,0.002678,0.000431,0.027267
31087000,0.0324,0.013523,0.002678,0.000431,0.057354
31088000,0.0324,0.013523,0.002678,0.000431,0.004701
31089000,0.0324,0.013523,0.002678,0.000431,0.016689
31090000,0.0324,0.013523,0.002678,0.000431,0.037609
31091000,0.0324,0.013523,0.002678,0.000431,0.004701
31092000,0.0324,0.013523,0.002678,0.000431,0.019745
31093000,0.0324,0.013523,0.002678,0.000431,0.035611
31094000,0.0324,0.013523,0.002678,0.000431,0.041723
31095000,0.0324,0.013523,0.002678,0.000431,0.042545
31096000,0.0324,0.013523,0.002678,0.000431,0.004701
31097000,0.0324,0.013523,0.002678,0.000431,0.004701
31098000,0.0324,0.013523,0.002678,0.000431,0.004701
31099000,0.0324,0.013523,0.002678,0.000431,0.004701
31100000,0.0324,0.013523,0.002678,0.000431,0.079919
31101000,0.0324,0.013523,0.002678,0.000431,0.004584
31102000,0.0324,0.013523,0.002678,0.000431,0.042193
31103000,0.0324,0.013523,0.002678,0.000431,0.004701
31104000,0.0324,0.013523,0.002678,0.000431,0.004701
31105000,0.0324,0.013523,0.002678,0.000431,0.004701
31106000,0.0324,0.013523,0.002678,0.000431,0.008462
31107000,0.0324,0.013523,0.002678,0.000431,0.008462
31108000,0.0324,0.013523,0.002678,0.000431,0.012223
31109000,0.0324,0.013523,0.002678,0.000431,0.004701
31110000,0.0324,0.013523,0.002678,0.000431,0.004701
31111000,0.0324,0.013523,0.002678,0.000431,0.004349
31112000,0.0324,0.013523,0.002678,0.000431,0.004584
31113000,0.0324,0.013523,0.002678,0.000431,0.012693
31114000,0.0324,0.013523,0.002678,0.000431,0.038549
31115000,0.0324,0.013523,0.002678,0.000431,0.053593
31116000,0.0324,0.013523,0.002678,0.000431,0.004701
31117000,0.0324,0.013523,0.002678,0.000431,0.004701
31118000,0.0324,0.013523,0.002678,0.000431,0.004701
31119000,0.0324,0.013523,0.002678,0.000431,0.004701
31120000,0.0324,0.013523,0.002678,0.000431,0.038549
31121000,0.0324,0.013523,0.002678,0.000431,0.158898
31122000,0.0324,0.013523,0.002678,0.000431,0.004701
31123000,0.0324,0.013523,0.002678,0.000431,0.004701
31124000,0.0324,0.013523,0.002678,0.000431,0.004701
31125000,0.0324,0.013523,0.002678,0.000431,0.079919
31126000,0.0324,0.013523,0.002678,0.000431,0.004701
31127000,0.0324,0.013523,0.002678,0.000431,0.009872
31128000,0.0324,0.013523,0.002678,0.000431,0.052065
31129000,0.0324,0.013523,0.002678,0.000431,0.023388
31130000,0.0324,0.013523,0.002678,0.000431,0.008227
31131000,0.0324,0.013523,0.002678,0.000431,0.004701
31132000,0.0324,0.013523,0.002678,0.000431,0.004701
31133000,0.0324,0.013523,0.002678,0.000431,0.047011
31134000,0.0324,0.013523,0.002678,0.000431,0.052653
31135000,0.0324,0.013523,0.002678,0.000431,0.015984
31136000,0.0324,0.013523,0.002678,0.000431,0.015984
31137000,0.0324,0.013523,0.002678,0.000431,0.004701
31138000,0.0324,0.013523,0.002678,0.000431,0.032203
31139000,0.0324,0.013523,0.002678,0.000431,0.022565
31140000,0.0324,0.013523,0.002678,0.000431,0.004701
31141000,0.0324,0.013523,0.002678,0.000431,0.004701
31142000,0.0324,0.013523,0.002678,0.000431,0.004466
31143000,0.0324,0.013523,0.002678,0.000431,0.023741
31144000,0.0324,0.013523,0.002678,0.000431,0.045013
31145000,0.0324,0.013523,0.002678,0.000431,0.084738
31146000,0.0324,0.013523,0.002678,0.000431,0.011165
31147000,0.0324,0.013523,0.002678,0.000431,0.009520
31148000,0.0324,0.013523,0.002678,0.000431,0.042310
31149000,0.0324,0.013523,0.002678,0.000431,0.004701
31150000,0.0324,0.013523,0.002678,0.000431,0.004701
31151000,0.0324,0.013523,0.002678,0.000431,0.034671
31152000,0.0324,0.013523,0.002678,0.000431,0.004584
31153000,0.0324,0.013523,0.002678,0.000431,0.004701
31154000,0.0324,0.013523,0.002678,0.000431,0.029970
31155000,0.0324,0.013523,0.002678,0.000431,0.009520
31156000,0.0324,0.013523,0.002678,0.000431,0.019745
31157000,0.0324,0.013523,0.002678,0.000431,0.066756
31158000,0.0324,0.013523,0.002678,0.000431,0.010107
31159000,0.0324,0.013523,0.002678,0.000431,0.012223
31160000,0.0324,0.013523,0.002678,0.000431,0.027267
31161000,0.0324,0.013523,0.002678,0.000431,0.004701
31162000,0.0324,0.013523,0.002678,0.000431,0.043133
31163000,0.0324,0.013523,0.002678,0.000431,0.041252
31164000,0.0324,0.013523,0.002678,0.000431,0.004701
31165000,0.0324,0.013523,0.002678,0.000431,0.023506
31166000,0.0324,0.013523,0.002678,0.000431,0.015984
31167000,0.0324,0.013523,0.002678,0.000431,0.004701
31168000,0.0324,0.013523,0.002678,0.000431,0.004701
31169000,0.0324,0.013523,0.002678,0.000431,0.034788
31170000,0.0324,0.013523,0.002678,0.000431,0.004701
31171000,0.0324,0.013523,0.002678,0.000431,0.045954
31172000,0.0324,0.013523,0.002678,0.000431,0.016101
31173000,0.0324,0.013523,0.002678,0.000431,0.004701
31174000,0.0324,0.013523,0.002678,0.000431,0.004701
31175000,0.0324,0.013523,0.002678,0.000431,0.029500
31176000,0.0324,0.013523,0.002678,0.000431,0.025739
31177000,0.0324,0.013523,0.002678,0.000431,0.034553
31178000,0.0324,0.013523,0.002678,0.000431,0.030792
31179000,0.0324,0.013523,0.002678,0.000431,0.015984
31180000,0.0324,0.013523,0.002678,0.000431,0.012223
31181000,0.0324,0.013523,0.002678,0.000431,0.012223
31182000,0.0324,0.013523,0.002678,0.000431,0.004701
31183000,0.0324,0.013523,0.002678,0.000431,0.004701
31184000,0.0324,0.013523,0.002678,0.000431,0.042193
31185000,0.0324,0.013523,0.002678,0.000431,0.004584
31186000,0.0324,0.013523,0.002678,0.000431,0.004701
31187000,0.0324,0.013523,0.002678,0.000431,0.004701
31188000,0.0324,0.013523,0.002678,0.000431,0.004701
31189000,0.0324,0.013523,0.002678,0.000431,0.004701
31190000,0.0324,0.013523,0.002678,0.000431,0.004701
31191000,0.0324,0.013523,0.002678,0.000431,0.084855
31192000,0.0324,0.013523,0.002678,0.000431,0.007052
31193000,0.0324,0.013523,0.002678,0.000431,0.012223
31194000,0.0324,0.013523,0.002678,0.000431,0.004701
31195000,0.0324,0.013523,0.002678,0.000431,0.004701
31196000,0.0324,0.013523,0.002678,0.000431,0.046306
31197000,0.0324,0.013523,0.002678,0.000431,0.030792
31198000,0.0324,0.013523,0.002678,0.000431,0.027267
31199000,0.0324,0.013523,0.002678,0.000431,0.015044
31200000,0.0324,0.013523,0.002678,0.000431,0.061820
31201000,0.0324,0.013523,0.002678,0.000431,0.004701
31202000,0.0324,0.013523,0.002678,0.000431,0.004701
31203000,0.0324,0.013523,0.002678,0.000431,0.052535
31204000,0.0324,0.013523,0.002678,0.000431,0.062172
31205000,0.0324,0.013523,0.002678,0.000431,0.022565
31206000,0.0324,0.013523,0.002678,0.000431,0.009402
31207000,0.0324,0.013523,0.002678,0.000431,0.013516
31208000,0.0324,0.013523,0.002678,0.000431,0.033731
31209000,0.0324,0.013523,0.002678,0.000431,0.004701
31210000,0.0324,0.013523,0.002678,0.000431,0.019745
31211000,0.0324,0.013523,0.002678,0.000431,0.004701
31212000,0.0324,0.013523,0.002678,0.000431,0.004701
31213000,0.0324,0.013523,0.002678,0.000431,0.004701
31214000,0.0324,0.013523,0.002678,0.000431,0.012223
31215000,0.0324,0.013523,0.002678,0.000431,0.004701
31216000,0.0324,0.013523,0.002678,0.000431,0.103190
31217000,0.0324,0.013523,0.002678,0.000431,0.101544
31218000,0.0324,0.013523,0.002678,0.000431,0.004701
31219000,0.0324,0.013523,0.002678,0.000431,0.004701
31220000,0.0324,0.013523,0.002678,0.000431,0.029147
31221000,0.0324,0.013523,0.002678,0.000431,0.040665
31222000,0.0324,0.013523,0.002678,0.000431,0.004701
31223000,0.0324,0.013523,0.002678,0.000431,0.174294
31224000,0.0324,0.013523,0.002678,0.000431,0.016336
31225000,0.0324,0.013523,0.002678,0.000431,0.008462
31226000,0.0324,0.013523,0.002678,0.000431,0.008462
31227000,0.0324,0.013523,0.002678,0.000431,0.046071
31228000,0.0324,0.013523,0.002678,0.000431,0.008462
31229000,0.0324,0.013523,0.002678,0.000431,0.034788
31230000,0.0324,0.013523,0.002678,0.000431,0.087676
31231000,0.0324,0.013523,0.002678,0.000431,0.014338
31232000,0.0324,0.013523,0.002678,0.000431,0.009872
31233000,0.0324,0.013523,0.002678,0.000431,0.004701
31234000,0.0324,0.013523,0.002678,0.000431,0.004701
31235000,0.0324,0.013523,0.002678,0.000431,0.004701
31236000,0.0324,0.013523,0.002678,0.000431,0.062290
31237000,0.0324,0.013523,0.002678,0.000431,0.081800
31238000,0.0324,0.013523,0.002678,0.000431,0.027267
31239000,0.0324,0.013523,0.002678,0.000431,0.019745
31240000,0.0324,0.013523,0.002678,0.000431,0.004701
31241000,0.0324,0.013523,0.002678,0.000431,0.004701
31242000,0.0324,0.013523,0.002678,0.000431,0.034788
31243000,0.0324,0.013523,0.002678,0.000431,0.019745
31244000,0.0324,0.013523,0.002678,0.000431,0.004701
31245000,0.0324,0.013523,0.002678,0.000431,0.049832
31246000,0.0324,0.013523,0.002678,0.000431,0.004701
31247000,0.0324,0.013523,0.002678,0.000431,0.004701
31248000,0.0324,0.013523,0.002678,0.000431,0.004466
31249000,0.0324,0.013523,0.002678,0.000431,0.004701
31250000,0.0324,0.013523,0.002678,0.000431,0.004701
31251000,0.0324,0.013523,0.002678,0.000431,0.027267
31252000,0.0324,0.013523,0.002678,0.000431,0.034788
31253000,0.0324,0.013523,0.002678,0.000431,0.004701
31254000,0.0324,0.013523,0.002678,0.000431,0.004701
31255000,0.0324,0.013523,0.002678,0.000431,0.019745
31256000,0.0324,0.013523,0.002678,0.000431,0.004701
31257000,0.0324,0.013523,0.002678,0.000431,0.012223
31258000,0.0324,0.013523,0.002678,0.000431,0.012223
31259000,0.0324,0.013523,0.002678,0.000431,0.004701
31260000,0.0324,0.013523,0.002678,0.000431,0.004701
31261000,0.0324,0.013523,0.002678,0.000431,0.004466
31262000,0.0324,0.013523,0.002678,0.000431,0.004701
31263000,0.0324,0.013523,0.002678,0.000431,0.042310
31264000,0.0324,0.013523,0.002678,0.000431,0.004701
31265000,0.0324,0.013523,0.002678,0.000431,0.004701
31266000,0.0324,0.013523,0.002678,0.000431,0.004701
31267000,0.0324,0.013523,0.002678,0.000431,0.011988
31268000,0.0324,0.013523,0.002678,0.000431,0.004701
31269000,0.0324,0.013523,0.002678,0.000431,0.004701
31270000,0.0324,0.013523,0.002678,0.000431,0.004701
31271000,0.0324,0.013523,0.002678,0.000431,0.004701
31272000,0.0324,0.013523,0.002678,0.000431,0.012223
31273000,0.0324,0.013523,0.002678,0.000431,0.004701
31274000,0.0324,0.013523,0.002678,0.000431,0.012223
31275000,0.0324,0.013523,0.002678,0.000431,0.004701
31276000,0.0324,0.013523,0.002678,0.000431,0.019745
31277000,0.0324,0.013523,0.002678,0.000431,0.012105
31278000,0.0324,0.013523,0.002678,0.000431,0.004584
31279000,0.0324,0.013523,0.002678,0.000431,0.012223
31280000,0.0324,0.013523,0.002678,0.000431,0.004701
31281000,0.0324,0.013523,0.002678,0.000431,0.004701
31282000,0.0324,0.013523,0.002678,0.000431,0.012223
31283000,0.0324,0.013523,0.002678,0.000431,0.051125
31284000,0.0324,0.013523,0.002678,0.000431,0.025974
31285000,0.0324,0.013523,0.002678,0.000431,0.064876
31286000,0.0324,0.013523,0.002678,0.000431,0.004701
31287000,0.0324,0.013523,0.002678,0.000431,0.004701
31288000,0.0324,0.013523,0.002678,0.000431,0.004466
31289000,0.0324,0.013523,0.002678,0.000431,0.067226
31290000,0.0324,0.013523,0.002678,0.000431,0.077804
31291000,0.0324,0.013523,0.002678,0.000431,0.015161
31292000,0.0324,0.013523,0.002678,0.000431,0.024328
31293000,0.0324,0.013523,0.002678,0.000431,0.021038
31294000,0.0324,0.013523,0.002678,0.000431,0.048422
31295000,0.0324,0.013523,0.002678,0.000431,0.004584
31296000,0.0324,0.013523,0.002678,0.000431,0.053593
31297000,0.0324,0.013523,0.002678,0.000431,0.015984
31298000,0.0324,0.013523,0.002678,0.000431,0.012223
31299000,0.0324,0.013523,0.002678,0.000431,0.004701
31300000,0.0324,0.013523,0.002678,0.000431,0.047011
31301000,0.0324,0.013523,0.002678,0.000431,0.026326
31302000,0.0324,0.013523,0.002678,0.000431,0.023506
31303000,0.0324,0.013523,0.002678,0.000431,0.049832
31304000,0.0324,0.013523,0.002678,0.000431,0.030322
31305000,0.0324,0.013523,0.002678,0.000431,0.110947
31306000,0.0324,0.013523,0.002678,0.000431,0.015984
31307000,0.0324,0.013523,0.002678,0.000431,0.022095
31308000,0.0324,0.013523,0.002678,0.000431,0.077569
31309000,0.0324,0.013523,0.002678,0.000431,0.004701
31310000,0.0324,0.013523,0.002678,0.000431,0.004701
31311000,0.0324,0.013523,0.002678,0.000431,0.042545
31312000,0.0324,0.013523,0.002678,0.000431,0.027031
31313000,0.0324,0.013523,0.002678,0.000431,0.095198
31314000,0.0324,0.013523,0.002678,0.000431,0.004819
31315000,0.0324,0.013523,0.002678,0.000431,0.004819
31316000,0.0324,0.013523,0.002678,0.000431,0.004701
31317000,0.0324,0.013523,0.002678,0.000431,0.019745
31318000,0.0324,0.013523,0.002678,0.000431,0.004701
31319000,0.0324,0.013523,0.002678,0.000431,0.035846
31320000,0.0324,0.013523,0.002678,0.000431,0.018687
31321000,0.0324,0.013523,0.002678,0.000431,0.034788
31322000,0.0324,0.013523,0.002678,0.000431,0.004701
31323000,0.0324,0.013523,0.002678,0.000431,0.004701
31324000,0.0324,0.013523,0.002678,0.000431,0.057354
31325000,0.0324,0.013523,0.002678,0.000431,0.042310
31326000,0.0324,0.013523,0.002678,0.000431,0.023506
31327000,0.0324,0.013523,0.002678,0.000431,0.046071
31328000,0.0324,0.013523,0.002678,0.000431,0.012223
31329000,0.0324,0.013523,0.002678,0.000431,0.004466
31330000,0.0324,0.013523,0.002678,0.000431,0.004701
31331000,0.0324,0.013523,0.002678,0.000431,0.038549
31332000,0.0324,0.013523,0.002678,0.000431,0.008462
31333000,0.0324,0.013523,0.002678,0.000431,0.019745
31334000,0.0324,0.013523,0.002678,0.000431,0.034671
31335000,0.0324,0.013523,0.002678,0.000431,0.004584
31336000,0.0324,0.013523,0.002678,0.000431,0.004701
31337000,0.0324,0.013523,0.002678,0.000431,0.004701
31338000,0.0324,0.013523,0.002678,0.000431,0.012458
31339000,0.0324,0.013523,0.002678,0.000431,0.019745
31340000,0.0324,0.013523,0.002678,0.000431,0.004701
31341000,0.0324,0.013523,0.002678,0.000431,0.004701
31342000,0.0324,0.013523,0.002678,0.000431,0.012458
31343000,0.0324,0.013523,0.002678,0.000431,0.027267
31344000,0.0324,0.013523,0.002678,0.000431,0.019745
31345000,0.0324,0.013523,0.002678,0.000431,0.019745
31346000,0.0324,0.013523,0.002678,0.000431,0.012223
31347000,0.0324,0.013523,0.002678,0.000431,0.004466
31348000,0.0324,0.013523,0.002678,0.000431,0.004701
31349000,0.0324,0.013523,0.002678,0.000431,0.004701
31350000,0.0324,0.013523,0.002678,0.000431,0.043485
31351000,0.0324,0.013523,0.002678,0.000431,0.018569
31352000,0.0324,0.013523,0.002678,0.000431,0.004584
31353000,0.0324,0.013523,0.002678,0.000431,0.004584
31354000,0.0324,0.013523,0.002678,0.000431,0.004701
31355000,0.0324,0.013523,0.002678,0.000431,0.094375
31356000,0.0324,0.013523,0.002678,0.000431,0.013281
31357000,0.0324,0.013523,0.002678,0.000431,0.004701
31358000,0.0324,0.013523,0.002678,0.000431,0.004701
31359000,0.0324,0.013523,0.002678,0.000431,0.004701
31360000,0.0324,0.013523,0.002678,0.000431,0.004701
31361000,0.0324,0.013523,0.002678,0.000431,0.004701
31362000,0.0324,0.013523,0.002678,0.000431,0.012223
31363000,0.0324,0.013523,0.002678,0.000431,0.038549
31364000,0.0324,0.013523,0.002678,0.000431,0.008462
31365000,0.0324,0.013523,0.002678,0.000431,0.004701
31366000,0.0324,0.013523,0.002678,0.000431,0.004701
31367000,0.0324,0.013523,0.002678,0.000431,0.004701
31368000,0.0324,0.013523,0.002678,0.000431,0.098606
31369000,0.0324,0.013523,0.002678,0.000431,0.049479
31370000,0.0324,0.013523,0.002678,0.000431,0.008462
31371000,0.0324,0.013523,0.002678,0.000431,0.012223
31372000,0.0324,0.013523,0.002678,0.000431,0.004701
31373000,0.0324,0.013523,0.002678,0.000431,0.004701
31374000,0.0324,0.013523,0.002678,0.000431,0.004701
31375000,0.0324,0.013523,0.002678,0.000431,0.053593
31376000,0.0324,0.013523,0.002678,0.000431,0.046071
31377000,0.0324,0.013523,0.002678,0.000431,0.018452
31378000,0.0324,0.013523,0.002678,0.000431,0.028559
31379000,0.0324,0.013523,0.002678,0.000431,0.004701
31380000,0.0324,0.013523,0.002678,0.000431,0.019745
31381000,0.0324,0.013523,0.002678,0.000431,0.004701
31382000,0.0324,0.013523,0.002678,0.000431,0.006464
31383000,0.0324,0.013523,0.002678,0.000431,0.010460
31384000,0.0324,0.013523,0.002678,0.000431,0.042310
31385000,0.0324,0.013523,0.002678,0.000431,0.004701
31386000,0.0324,0.013523,0.002678,0.000431,0.064641
31387000,0.0324,0.013523,0.002678,0.000431,0.004701
31388000,0.0324,0.013523,0.002678,0.000431,0.062525
31389000,0.0324,0.013523,0.002678,0.000431,0.014926
31390000,0.0324,0.013523,0.002678,0.000431,0.030557
31391000,0.0324,0.013523,0.002678,0.000431,0.016336
31392000,0.0324,0.013523,0.002678,0.000431,0.035964
31393000,0.0324,0.013523,0.002678,0.000431,0.018334
31394000,0.0324,0.013523,0.002678,0.000431,0.004701
31395000,0.0324,0.013523,0.002678,0.000431,0.004701
31396000,0.0324,0.013523,0.002678,0.000431,0.027267
31397000,0.0324,0.013523,0.002678,0.000431,0.102485
31398000,0.0324,0.013523,0.002678,0.000431,0.004701
31399000,0.0324,0.013523,0.002678,0.000431,0.034788
31400000,0.0324,0.013523,0.002678,0.000431,0.004701
31401000,0.0324,0.013523,0.002678,0.000431,0.004701
31402000,0.0324,0.013523,0.002678,0.000431,0.004701
31403000,0.0324,0.013523,0.002678,0.000431,0.004701
31404000,0.0324,0.013523,0.002678,0.000431,0.004701
31405000,0.0324,0.013523,0.002678,0.000431,0.006347
31406000,0.0324,0.013523,0.002678,0.000431,0.038079
31407000,0.0324,0.013523,0.002678,0.000431,0.037609
31408000,0.0324,0.013523,0.002678,0.000431,0.026209
31409000,0.0324,0.013523,0.002678,0.000431,0.005524
31410000,0.0324,0.013523,0.002678,0.000431,0.004936
31411000,0.0324,0.013523,0.002678,0.000431,0.004701
31412000,0.0324,0.013523,0.002678,0.000431,0.004701
31413000,0.0324,0.013523,0.002678,0.000431,0.004701
31414000,0.0324,0.013523,0.002678,0.000431,0.004701
31415000,0.0324,0.013523,0.002678,0.000431,0.072162
31416000,0.0324,0.013523,0.002678,0.000431,0.004701
31417000,0.0324,0.013523,0.002678,0.000431,0.004701
31418000,0.0324,0.013523,0.002678,0.000431,0.004701
31419000,0.0324,0.013523,0.002678,0.000431,0.004701
31420000,0.0324,0.013523,0.002678,0.000431,0.012223
31421000,0.0324,0.013523,0.002678,0.000431,0.019980
31422000,0.0324,0.013523,0.002678,0.000431,0.012223
31423000,0.0324,0.013523,0.002678,0.000431,0.012223
31424000,0.0324,0.013523,0.002678,0.000431,0.012223
31425000,0.0324,0.013523,0.002678,0.000431,0.012223
31426000,0.0324,0.013523,0.002678,0.000431,0.004701
31427000,0.0324,0.013523,0.002678,0.000431,0.004701
31428000,0.0324,0.013523,0.002678,0.000431,0.034788
31429000,0.0324,0.013523,0.002678,0.000431,0.087206
31430000,0.0324,0.013523,0.002678,0.000431,0.004466
31431000,0.0324,0.013523,0.002678,0.000431,0.087206
31432000,0.0324,0.013523,0.002678,0.000431,0.004466
31433000,0.0324,0.013523,0.002678,0.000431,0.012223
31434000,0.0324,0.013523,0.002678,0.000431,0.004701
31435000,0.0324,0.013523,0.002678,0.000431,0.015984
31436000,0.0324,0.013523,0.002678,0.000431,0.038549
31437000,0.0324,0.013523,0.002678,0.000431,0.012223
31438000,0.0324,0.013523,0.002678,0.000431,0.004701
31439000,0.0324,0.013523,0.002678,0.000431,0.004701
31440000,0.0324,0.013523,0.002678,0.000431,0.004701
31441000,0.0324,0.013523,0.002678,0.000431,0.004701
31442000,0.0324,0.013523,0.002678,0.000431,0.004701
31443000,0.0324,0.013523,0.002678,0.000431,0.049832
31444000,0.0324,0.013523,0.002678,0.000431,0.019745
31445000,0.0324,0.013523,0.002678,0.000431,0.004701
31446000,0.0324,0.013523,0.002678,0.000431,0.057354
31447000,0.0324,0.013523,0.002678,0.000431,0.004701
31448000,0.0324,0.013523,0.002678,0.000431,0.016101
31449000,0.0324,0.013523,0.002678,0.000431,0.008815
31450000,0.0324,0.013523,0.002678,0.000431,0.012223
31451000,0.0324,0.013523,0.002678,0.000431,0.004701
31452000,0.0324,0.013523,0.002678,0.000431,0.004701
31453000,0.0324,0.013523,0.002678,0.000431,0.004701
31454000,0.0324,0.013523,0.002678,0.000431,0.008697
31455000,0.0324,0.013523,0.002678,0.000431,0.023271
31456000,0.0324,0.013523,0.002678,0.000431,0.064641
31457000,0.0324,0.013523,0.002678,0.000431,0.027502
31458000,0.0324,0.013523,0.002678,0.000431,0.004701
31459000,0.0324,0.013523,0.002678,0.000431,0.004701
31460000,0.0324,0.013523,0.002678,0.000431,0.004701
31461000,0.0324,0.013523,0.002678,0.000431,0.004701
31462000,0.0324,0.013523,0.002678,0.000431,0.020685
31463000,0.0324,0.013523,0.002678,0.000431,0.037609
31464000,0.0324,0.013523,0.002678,0.000431,0.008462
31465000,0.0324,0.013523,0.002678,0.000431,0.004701
31466000,0.0324,0.013523,0.002678,0.000431,0.004701
31467000,0.0324,0.013523,0.002678,0.000431,0.004701
31468000,0.0324,0.013523,0.002678,0.000431,0.034553
31469000,0.0324,0.013523,0.002678,0.000431,0.012458
31470000,0.0324,0.013523,0.002678,0.000431,0.034436
31471000,0.0324,0.013523,0.002678,0.000431,0.004584
31472000,0.0324,0.013523,0.002678,0.000431,0.004701
31473000,0.0324,0.013523,0.002678,0.000431,0.004701
31474000,0.0324,0.013523,0.002678,0.000431,0.015984
31475000,0.0324,0.013523,0.002678,0.000431,0.129281
31476000,0.0324,0.013523,0.002678,0.000431,0.012223
31477000,0.0324,0.013523,0.002678,0.000431,0.019745
31478000,0.0324,0.013523,0.002678,0.000431,0.004701
31479000,0.0324,0.013523,0.002678,0.000431,0.004701
31480000,0.0324,0.013523,0.002678,0.000431,0.013751
31481000,0.0324,0.013523,0.002678,0.000431,0.025739
31482000,0.0324,0.013523,0.002678,0.000431,0.004701
31483000,0.0324,0.013523,0.002678,0.000431,0.042310
31484000,0.0324,0.013523,0.002678,0.000431,0.004701
31485000,0.0324,0.013523,0.002678,0.000431,0.004701
31486000,0.0324,0.013523,0.002678,0.000431,0.004701
31487000,0.0324,0.013523,0.002678,0.000431,0.042780
31488000,0.0324,0.013523,0.002678,0.000431,0.004701
31489000,0.0324,0.013523,0.002678,0.000431,0.004701
31490000,0.0324,0.013523,0.002678,0.000431,0.004701
31491000,0.0324,0.013523,0.002678,0.000431,0.004701
31492000,0.0324,0.013523,0.002678,0.000431,0.004701
31493000,0.0324,0.013523,0.002678,0.000431,0.012223
31494000,0.0324,0.013523,0.002678,0.000431,0.004701
31495000,0.0324,0.013523,0.002678,0.000431,0.004936
31496000,0.0324,0.013523,0.002678,0.000431,0.004466
31497000,0.0324,0.013523,0.002678,0.000431,0.004701
31498000,0.0324,0.013523,0.002678,0.000431,0.004701
31499000,0.0324,0.013523,0.002678,0.000431,0.004701
31500000,0.0324,0.013523,0.002678,0.000431,0.012223
31501000,0.0324,0.013523,0.002678,0.000431,0.012223
31502000,0.0324,0.013523,0.002678,0.000431,0.019745
31503000,0.0324,0.013523,0.002678,0.000431,0.004701
31504000,0.0324,0.013523,0.002678,0.000431,0.004701
31505000,0.0324,0.013523,0.002678,0.000431,0.004701
31506000,0.0324,0.013523,0.002678,0.000431,0.042075
31507000,0.0324,0.013523,0.002678,0.000431,0.012223
31508000,0.0324,0.013523,0.002678,0.000431,0.027031
31509000,0.0324,0.013523,0.002678,0.000431,0.011988
31510000,0.0324,0.013523,0.002678,0.000431,0.004349
31511000,0.0324,0.013523,0.002678,0.000431,0.004584
31512000,0.0324,0.013523,0.002678,0.000431,0.008462
31513000,0.0324,0.013523,0.002678,0.000431,0.008462
31514000,0.0324,0.013523,0.002678,0.000431,0.012223
31515000,0.0324,0.013523,0.002678,0.000431,0.110712
31516000,0.0324,0.013523,0.002678,0.000431,0.004701
31517000,0.0324,0.013523,0.002678,0.000431,0.004701
31518000,0.0324,0.013523,0.002678,0.000431,0.004701
31519000,0.0324,0.013523,0.002678,0.000431,0.004701
31520000,0.0324,0.013523,0.002678,0.000431,0.023506
31521000,0.0324,0.013523,0.002678,0.000431,0.016219
31522000,0.0324,0.013523,0.002678,0.000431,0.004701
31523000,0.0324,0.013523,0.002678,0.000431,0.004466
31524000,0.0324,0.013523,0.002678,0.000431,0.004701
31525000,0.0324,0.013523,0.002678,0.000431,0.007639
31526000,0.0324,0.013523,0.002678,0.000431,0.009285
31527000,0.0324,0.013523,0.002678,0.000431,0.034788
31528000,0.0324,0.013523,0.002678,0.000431,0.042310
31529000,0.0324,0.013523,0.002678,0.000431,0.004701
31530000,0.0324,0.013523,0.002678,0.000431,0.004701
31531000,0.0324,0.013523,0.002678,0.000431,0.004701
31532000,0.0324,0.013523,0.002678,0.000431,0.057354
31533000,0.0324,0.013523,0.002678,0.000431,0.004701
31534000,0.0324,0.013523,0.002678,0.000431,0.012458
31535000,0.0324,0.013523,0.002678,0.000431,0.004701
31536000,0.0324,0.013523,0.002678,0.000431,0.004466
31537000,0.0324,0.013523,0.002678,0.000431,0.004701
31538000,0.0324,0.013523,0.002678,0.000431,0.004701
31539000,0.0324,0.013523,0.002678,0.000431,0.012223
31540000,0.0324,0.013523,0.002678,0.000431,0.004701
31541000,0.0324,0.013523,0.002678,0.000431,0.004701
31542000,0.0324,0.013523,0.002678,0.000431,0.004701
31543000,0.0324,0.013523,0.002678,0.000431,0.004701
31544000,0.0324,0.013523,0.002678,0.000431,0.004584
31545000,0.0324,0.013523,0.002678,0.000431,0.027149
31546000,0.0324,0.013523,0.002678,0.000431,0.012458
31547000,0.0324,0.013523,0.002678,0.000431,0.034788
31548000,0.0324,0.013523,0.002678,0.000431,0.004701
31549000,0.0324,0.013523,0.002678,0.000431,0.004701
31550000,0.0324,0.013523,0.002678,0.000431,0.004466
31551000,0.0324,0.013523,0.002678,0.000431,0.004701
31552000,0.0324,0.013523,0.002678,0.000431,0.004701
31553000,0.0324,0.013523,0.002678,0.000431,0.004701
31554000,0.0324,0.013523,0.002678,0.000431,0.004701
31555000,0.0324,0.013523,0.002678,0.000431,0.004701
31556000,0.0324,0.013523,0.002678,0.000431,0.004701
31557000,0.0324,0.013523,0.002678,0.000431,0.004701
31558000,0.0324,0.013523,0.002678,0.000431,0.004701
31559000,0.0324,0.013523,0.002678,0.000431,0.019745
31560000,0.0324,0.013523,0.002678,0.000431,0.004701
31561000,0.0324,0.013523,0.002678,0.000431,0.004701
31562000,0.0324,0.013523,0.002678,0.000431,0.004701
31563000,0.0324,0.013523,0.002678,0.000431,0.005406
31564000,0.0324,0.013523,0.002678,0.000431,0.005759
31565000,0.0324,0.013523,0.002678,0.000431,0.014573
31566000,0.0324,0.013523,0.002678,0.000431,0.026209
31567000,0.0324,0.013523,0.002678,0.000431,0.004701
31568000,0.0324,0.013523,0.002678,0.000431,0.004701
31569000,0.0324,0.013523,0.002678,0.000431,0.004701
31570000,0.0324,0.013523,0.002678,0.000431,0.019862
31571000,0.0324,0.013523,0.002678,0.000431,0.005876
31572000,0.0324,0.013523,0.002678,0.000431,0.095903
31573000,0.0324,0.013523,0.002678,0.000431,0.005876
31574000,0.0324,0.013523,0.002678,0.000431,0.005641
31575000,0.0324,0.013523,0.002678,0.000431,0.005876
31576000,0.0324,0.013523,0.002678,0.000431,0.005876
31577000,0.0324,0.013523,0.002678,0.000431,0.005054
31578000,0.0324,0.013523,0.002678,0.000431,0.036434
31579000,0.0324,0.013523,0.002678,0.000431,0.011518
31580000,0.0324,0.013523,0.002678,0.000431,0.008462
31581000,0.0324,0.013523,0.002678,0.000431,0.012223
31582000,0.0324,0.013523,0.002678,0.000431,0.004701
31583000,0.0324,0.013523,0.002678,0.000431,0.004819
31584000,0.0324,0.013523,0.002678,0.000431,0.005406
31585000,0.0324,0.013523,0.002678,0.000431,0.035964
31586000,0.0324,0.013523,0.002678,0.000431,0.005876
31587000,0.0324,0.013523,0.002678,0.000431,0.013398
31588000,0.0324,0.013523,0.002678,0.000431,0.005876
31589000,0.0324,0.013523,0.002678,0.000431,0.005876
31590000,0.0324,0.013523,0.002678,0.000431,0.072750
31591000,0.0324,0.013523,0.002678,0.000431,0.012223
31592000,0.0324,0.013523,0.002678,0.000431,0.004701
31593000,0.0324,0.013523,0.002678,0.000431,0.005759
31594000,0.0324,0.013523,0.002678,0.000431,0.058764
31595000,0.0324,0.013523,0.002678,0.000431,0.005876
31596000,0.0324,0.013523,0.002678,0.000431,0.005876
31597000,0.0324,0.013523,0.002678,0.000431,0.005876
31598000,0.0324,0.013523,0.002678,0.000431,0.005406
31599000,0.0324,0.013523,0.002678,0.000431,0.028089
31600000,0.0324,0.013523,0.002678,0.000431,0.004701
31601000,0.0324,0.013523,0.002678,0.000431,0.004701
31602000,0.0324,0.013523,0.002678,0.000431,0.012223
31603000,0.0324,0.013523,0.002678,0.000431,0.028324
31604000,0.0324,0.013523,0.002678,0.000431,0.013398
31605000,0.0324,0.013523,0.002678,0.000431,0.005876
31606000,0.0324,0.013523,0.002678,0.000431,0.014573
31607000,0.0324,0.013523,0.002678,0.000431,0.019745
31608000,0.0324,0.013523,0.002678,0.000431,0.005876
31609000,0.0324,0.013523,0.002678,0.000431,0.096491
31610000,0.0324,0.013523,0.002678,0.000431,0.011165
31611000,0.0324,0.013523,0.002678,0.000431,0.005876
31612000,0.0324,0.013523,0.002678,0.000431,0.013516
31613000,0.0324,0.013523,0.002678,0.000431,0.064053
31614000,0.0324,0.013523,0.002678,0.000431,0.005876
31615000,0.0324,0.013523,0.002678,0.000431,0.013398
31616000,0.0324,0.013523,0.002678,0.000431,0.051007
31617000,0.0324,0.013523,0.002678,0.000431,0.005876
31618000,0.0324,0.013523,0.002678,0.000431,0.020685
31619000,0.0324,0.013523,0.002678,0.000431,0.004819
31620000,0.0324,0.013523,0.002678,0.000431,0.027737
31621000,0.0324,0.013523,0.002678,0.000431,0.004701
31622000,0.0324,0.013523,0.002678,0.000431,0.019745
31623000,0.0324,0.013523,0.002678,0.000431,0.004701
31624000,0.0324,0.013523,0.002678,0.000431,0.004466
31625000,0.0324,0.013523,0.002678,0.000431,0.019745
31626000,0.0324,0.013523,0.002678,0.000431,0.017277
31627000,0.0324,0.013523,0.002678,0.000431,0.007169
31628000,0.0324,0.013523,0.002678,0.000431,0.004701
31629000,0.0324,0.013523,0.002678,0.000431,0.004701
31630000,0.0324,0.013523,0.002678,0.000431,0.012223
31631000,0.0324,0.013523,0.002678,0.000431,0.049597
31632000,0.0324,0.013523,0.002678,0.000431,0.004701
31633000,0.0324,0.013523,0.002678,0.000431,0.004701
31634000,0.0324,0.013523,0.002678,0.000431,0.004701
31635000,0.0324,0.013523,0.002678,0.000431,0.004701
31636000,0.0324,0.013523,0.002678,0.000431,0.004701
31637000,0.0324,0.013523,0.002678,0.000431,0.004701
31638000,0.0324,0.013523,0.002678,0.000431,0.004701
31639000,0.0324,0.013523,0.002678,0.000431,0.019745
31640000,0.0324,0.013523,0.002678,0.000431,0.004701
31641000,0.0324,0.013523,0.002678,0.000431,0.023623
31642000,0.0324,0.013523,0.002678,0.000431,0.008345
31643000,0.0324,0.013523,0.002678,0.000431,0.004701
31644000,0.0324,0.013523,0.002678,0.000431,0.004701
31645000,0.0324,0.013523,0.002678,0.000431,0.027031
31646000,0.0324,0.013523,0.002678,0.000431,0.004936
31647000,0.0324,0.013523,0.002678,0.000431,0.004701
31648000,0.0324,0.013523,0.002678,0.000431,0.004466
31649000,0.0324,0.013523,0.002678,0.000431,0.004701
31650000,0.0324,0.013523,0.002678,0.000431,0.049832
31651000,0.0324,0.013523,0.002678,0.000431,0.004819
31652000,0.0324,0.013523,0.002678,0.000431,0.004819
31653000,0.0324,0.013523,0.002678,0.000431,0.004701
31654000,0.0324,0.013523,0.002678,0.000431,0.019745
31655000,0.0324,0.013523,0.002678,0.000431,0.004701
31656000,0.0324,0.013523,0.002678,0.000431,0.004701
31657000,0.0324,0.013523,0.002678,0.000431,0.004701
31658000,0.0324,0.013523,0.002678,0.000431,0.004701
31659000,0.0324,0.013523,0.002678,0.000431,0.004701
31660000,0.0324,0.013523,0.002678,0.000431,0.004701
31661000,0.0324,0.013523,0.002678,0.000431,0.012223
31662000,0.0324,0.013523,0.002678,0.000431,0.004701
31663000,0.0324,0.013523,0.002678,0.000431,0.049832
31664000,0.0324,0.013523,0.002678,0.000431,0.011988
31665000,0.0324,0.013523,0.002678,0.000431,0.027267
31666000,0.0324,0.013523,0.002678,0.000431,0.004701
31667000,0.0324,0.013523,0.002678,0.000431,0.012223
31668000,0.0324,0.013523,0.002678,0.000431,0.004701
31669000,0.0324,0.013523,0.002678,0.000431,0.004701
31670000,0.0324,0.013523,0.002678,0.000431,0.004701
31671000,0.0324,0.013523,0.002678,0.000431,0.012576
31672000,0.0324,0.013523,0.002678,0.000431,0.005876
31673000,0.0324,0.013523,0.002678,0.000431,0.009637
31674000,0.0324,0.013523,0.002678,0.000431,0.009637
31675000,0.0324,0.013523,0.002678,0.000431,0.005876
31676000,0.0324,0.013523,0.002678,0.000431,0.020920
31677000,0.0324,0.013523,0.002678,0.000431,0.013046
31678000,0.0324,0.013523,0.002678,0.000431,0.004701
31679000,0.0324,0.013523,0.002678,0.000431,0.004701
31680000,0.0324,0.013523,0.002678,0.000431,0.012223
31681000,0.0324,0.013523,0.002678,0.000431,0.004584
31682000,0.0324,0.013523,0.002678,0.000431,0.012105
31683000,0.0324,0.013523,0.002678,0.000431,0.004701
31684000,0.0324,0.013523,0.002678,0.000431,0.004701
31685000,0.0324,0.013523,0.002678,0.000431,0.004701
31686000,0.0324,0.013523,0.002678,0.000431,0.004701
31687000,0.0324,0.013523,0.002678,0.000431,0.004701
31688000,0.0324,0.013523,0.002678,0.000431,0.004701
31689000,0.0324,0.013523,0.002678,0.000431,0.004701
31690000,0.0324,0.013523,0.002678,0.000431,0.019745
31691000,0.0324,0.013523,0.002678,0.000431,0.004701
31692000,0.0324,0.013523,0.002678,0.000431,0.004701
31693000,0.0324,0.013523,0.002678,0.000431,0.027031
31694000,0.0324,0.013523,0.002678,0.000431,0.004936
31695000,0.0324,0.013523,0.002678,0.000431,0.012223
31696000,0.0324,0.013523,0.002678,0.000431,0.027267
31697000,0.0324,0.013523,0.002678,0.000431,0.004701
31698000,0.0324,0.013523,0.002678,0.000431,0.004466
31699000,0.0324,0.013523,0.002678,0.000431,0.004701
31700000,0.0324,0.013523,0.002678,0.000431,0.004701
31701000,0.0324,0.013523,0.002678,0.000431,0.004936
31702000,0.0324,0.013523,0.002678,0.000431,0.005994
31703000,0.0324,0.013523,0.002678,0.000431,0.018217
31704000,0.0324,0.013523,0.002678,0.000431,0.004701
31705000,0.0324,0.013523,0.002678,0.000431,0.004701
31706000,0.0324,0.013523,0.002678,0.000431,0.004701
31707000,0.0324,0.013523,0.002678,0.000431,0.008462
31708000,0.0324,0.013523,0.002678,0.000431,0.008462
31709000,0.0324,0.013523,0.002678,0.000431,0.012223
31710000,0.0324,0.013523,0.002678,0.000431,0.020802
31711000,0.0324,0.013523,0.002678,0.000431,0.005759
31712000,0.0324,0.013523,0.002678,0.000431,0.005759
31713000,0.0324,0.013523,0.002678,0.000431,0.005876
31714000,0.0324,0.013523,0.002678,0.000431,0.017159
31715000,0.0324,0.013523,0.002678,0.000431,0.009637
31716000,0.0324,0.013523,0.002678,0.000431,0.012576
31717000,0.0324,0.013523,0.002678,0.000431,0.004701
31718000,0.0324,0.013523,0.002678,0.000431,0.004701
31719000,0.0324,0.013523,0.002678,0.000431,0.004701
31720000,0.0324,0.013523,0.002678,0.000431,0.004701
31721000,0.0324,0.013523,0.002678,0.000431,0.004701
31722000,0.0324,0.013523,0.002678,0.000431,0.032790
31723000,0.0324,0.013523,0.002678,0.000431,0.029265
31724000,0.0324,0.013523,0.002678,0.000431,0.004701
31725000,0.0324,0.013523,0.002678,0.000431,0.004701
31726000,0.0324,0.013523,0.002678,0.000431,0.004701
31727000,0.0324,0.013523,0.002678,0.000431,0.005054
31728000,0.0324,0.013523,0.002678,0.000431,0.006229
31729000,0.0324,0.013523,0.002678,0.000431,0.029382
31730000,0.0324,0.013523,0.002678,0.000431,0.007052
31731000,0.0324,0.013523,0.002678,0.000431,0.008227
31732000,0.0324,0.013523,0.002678,0.000431,0.037256
31733000,0.0324,0.013523,0.002678,0.000431,0.005994
31734000,0.0324,0.013523,0.002678,0.000431,0.006111
31735000,0.0324,0.013523,0.002678,0.000431,0.004701
31736000,0.0324,0.013523,0.002678,0.000431,0.004701
31737000,0.0324,0.013523,0.002678,0.000431,0.004466
31738000,0.0324,0.013523,0.002678,0.000431,0.072867
31739000,0.0324,0.013523,0.002678,0.000431,0.004701
31740000,0.0324,0.013523,0.002678,0.000431,0.027267
31741000,0.0324,0.013523,0.002678,0.000431,0.004701
31742000,0.0324,0.013523,0.002678,0.000431,0.072397
31743000,0.0324,0.013523,0.002678,0.000431,0.004701
31744000,0.0324,0.013523,0.002678,0.000431,0.004701
31745000,0.0324,0.013523,0.002678,0.000431,0.004466
31746000,0.0324,0.013523,0.002678,0.000431,0.008462
31747000,0.0324,0.013523,0.002678,0.000431,0.008462
31748000,0.0324,0.013523,0.002678,0.000431,0.012105
31749000,0.0324,0.013523,0.002678,0.000431,0.012576
31750000,0.0324,0.013523,0.002678,0.000431,0.004701
31751000,0.0324,0.013523,0.002678,0.000431,0.012223
31752000,0.0324,0.013523,0.002678,0.000431,0.004701
31753000,0.0324,0.013523,0.002678,0.000431,0.004584
31754000,0.0324,0.013523,0.002678,0.000431,0.004466
31755000,0.0324,0.013523,0.002678,0.000431,0.004819
31756000,0.0324,0.013523,0.002678,0.000431,0.005759
31757000,0.0324,0.013523,0.002678,0.000431,0.036081
31758000,0.0324,0.013523,0.002678,0.000431,0.007052
31759000,0.0324,0.013523,0.002678,0.000431,0.025856
31760000,0.0324,0.013523,0.002678,0.000431,0.010813
31761000,0.0324,0.013523,0.002678,0.000431,0.044778
31762000,0.0324,0.013523,0.002678,0.000431,0.005876
31763000,0.0324,0.013523,0.002678,0.000431,0.005876
31764000,0.0324,0.013523,0.002678,0.000431,0.027619
31765000,0.0324,0.013523,0.002678,0.000431,0.004701
31766000,0.0324,0.013523,0.002678,0.000431,0.004701
31767000,0.0324,0.013523,0.002678,0.000431,0.004701
31768000,0.0324,0.013523,0.002678,0.000431,0.019745
31769000,0.0324,0.013523,0.002678,0.000431,0.004701
31770000,0.0324,0.013523,0.002678,0.000431,0.004701
31771000,0.0324,0.013523,0.002678,0.000431,0.004701
31772000,0.0324,0.013523,0.002678,0.000431,0.004819
31773000,0.0324,0.013523,0.002678,0.000431,0.005876
31774000,0.0324,0.013523,0.002678,0.000431,0.005876
31775000,0.0324,0.013523,0.002678,0.000431,0.005876
31776000,0.0324,0.013523,0.002678,0.000431,0.012105
31777000,0.0324,0.013523,0.002678,0.000431,0.022213
31778000,0.0324,0.013523,0.002678,0.000431,0.005876
31779000,0.0324,0.013523,0.002678,0.000431,0.012340
31780000,0.0324,0.013523,0.002678,0.000431,0.009990
31781000,0.0324,0.013523,0.002678,0.000431,0.006934
31782000,0.0324,0.013523,0.002678,0.000431,0.004701
31783000,0.0324,0.013523,0.002678,0.000431,0.004466
31784000,0.0324,0.013523,0.002678,0.000431,0.019745
31785000,0.0324,0.013523,0.002678,0.000431,0.004701
31786000,0.0324,0.013523,0.002678,0.000431,0.004701
31787000,0.0324,0.013523,0.002678,0.000431,0.012693
31788000,0.0324,0.013523,0.002678,0.000431,0.005759
31789000,0.0324,0.013523,0.002678,0.000431,0.005876
31790000,0.0324,0.013523,0.002678,0.000431,0.017159
31791000,0.0324,0.013523,0.002678,0.000431,0.031968
31792000,0.0324,0.013523,0.002678,0.000431,0.035964
31793000,0.0324,0.013523,0.002678,0.000431,0.028324
31794000,0.0324,0.013523,0.002678,0.000431,0.019745
31795000,0.0324,0.013523,0.002678,0.000431,0.004701
31796000,0.0324,0.013523,0.002678,0.000431,0.004701
31797000,0.0324,0.013523,0.002678,0.000431,0.027267
31798000,0.0324,0.013523,0.002678,0.000431,0.004701
31799000,0.0324,0.013523,0.002678,0.000431,0.004701
31800000,0.0324,0.013523,0.002678,0.000431,0.027267
31801000,0.0324,0.013523,0.002678,0.000431,0.004701
31802000,0.0324,0.013523,0.002678,0.000431,0.004701
31803000,0.0324,0.013523,0.002678,0.000431,0.004466
31804000,0.0324,0.013523,0.002678,0.000431,0.004701
31805000,0.0324,0.013523,0.002678,0.000431,0.004701
31806000,0.0324,0.013523,0.002678,0.000431,0.036786
31807000,0.0324,0.013523,0.002678,0.000431,0.026561
31808000,0.0324,0.013523,0.002678,0.000431,0.006699
31809000,0.0324,0.013523,0.002678,0.000431,0.007052
31810000,0.0324,0.013523,0.002678,0.000431,0.006699
31811000,0.0324,0.013523,0.002678,0.000431,0.005876
31812000,0.0324,0.013523,0.002678,0.000431,0.005876
31813000,0.0324,0.013523,0.002678,0.000431,0.102602
31814000,0.0324,0.013523,0.002678,0.000431,0.004701
31815000,0.0324,0.013523,0.002678,0.000431,0.004701
31816000,0.0324,0.013523,0.002678,0.000431,0.006464
31817000,0.0324,0.013523,0.002678,0.000431,0.012223
31818000,0.0324,0.013523,0.002678,0.000431,0.005876
31819000,0.0324,0.013523,0.002678,0.000431,0.043368
31820000,0.0324,0.013523,0.002678,0.000431,0.004936
31821000,0.0324,0.013523,0.002678,0.000431,0.004701
31822000,0.0324,0.013523,0.002678,0.000431,0.004701
31823000,0.0324,0.013523,0.002678,0.000431,0.004701
31824000,0.0324,0.013523,0.002678,0.000431,0.012223
31825000,0.0324,0.013523,0.002678,0.000431,0.004466
31826000,0.0324,0.013523,0.002678,0.000431,0.027267
31827000,0.0324,0.013523,0.002678,0.000431,0.023506
31828000,0.0324,0.013523,0.002678,0.000431,0.008697
31829000,0.0324,0.013523,0.002678,0.000431,0.004701
31830000,0.0324,0.013523,0.002678,0.000431,0.004701
31831000,0.0324,0.013523,0.002678,0.000431,0.004701
31832000,0.0324,0.013523,0.002678,0.000431,0.004701
31833000,0.0324,0.013523,0.002678,0.000431,0.004466
31834000,0.0324,0.013523,0.002678,0.000431,0.004701
31835000,0.0324,0.013523,0.002678,0.000431,0.004701
31836000,0.0324,0.013523,0.002678,0.000431,0.004701
31837000,0.0324,0.013523,0.002678,0.000431,0.004701
31838000,0.0324,0.013523,0.002678,0.000431,0.004701
31839000,0.0324,0.013523,0.002678,0.000431,0.004701
31840000,0.0324,0.013523,0.002678,0.000431,0.004466
31841000,0.0324,0.013523,0.002678,0.000431,0.004701
31842000,0.0324,0.013523,0.002678,0.000431,0.004819
31843000,0.0324,0.013523,0.002678,0.000431,0.028442
31844000,0.0324,0.013523,0.002678,0.000431,0.005876
31845000,0.0324,0.013523,0.002678,0.000431,0.009755
31846000,0.0324,0.013523,0.002678,0.000431,0.004584
31847000,0.0324,0.013523,0.002678,0.000431,0.004584
31848000,0.0324,0.013523,0.002678,0.000431,0.005524
31849000,0.0324,0.013523,0.002678,0.000431,0.005876
31850000,0.0324,0.013523,0.002678,0.000431,0.005876
31851000,0.0324,0.013523,0.002678,0.000431,0.005876
31852000,0.0324,0.013523,0.002678,0.000431,0.005876
31853000,0.0324,0.013523,0.002678,0.000431,0.005876
31854000,0.0324,0.013523,0.002678,0.000431,0.005524
31855000,0.0324,0.013523,0.002678,0.000431,0.004701
31856000,0.0324,0.013523,0.002678,0.000431,0.012223
31857000,0.0324,0.013523,0.002678,0.000431,0.004701
31858000,0.0324,0.013523,0.002678,0.000431,0.027267
31859000,0.0324,0.013523,0.002678,0.000431,0.004466
31860000,0.0324,0.013523,0.002678,0.000431,0.004701
31861000,0.0324,0.013523,0.002678,0.000431,0.004701
31862000,0.0324,0.013523,0.002678,0.000431,0.004701
31863000,0.0324,0.013523,0.002678,0.000431,0.004701
31864000,0.0324,0.013523,0.002678,0.000431,0.004701
31865000,0.0324,0.013523,0.002678,0.000431,0.004701
31866000,0.0324,0.013523,0.002678,0.000431,0.004701
31867000,0.0324,0.013523,0.002678,0.000431,0.004701
31868000,0.0324,0.013523,0.002678,0.000431,0.004701
31869000,0.0324,0.013523,0.002678,0.000431,0.013046
31870000,0.0324,0.013523,0.002678,0.000431,0.005876
31871000,0.0324,0.013523,0.002678,0.000431,0.013398
31872000,0.0324,0.013523,0.002678,0.000431,0.005876
31873000,0.0324,0.013523,0.002678,0.000431,0.005641
31874000,0.0324,0.013523,0.002678,0.000431,0.005641
31875000,0.0324,0.013523,0.002678,0.000431,0.013046
31876000,0.0324,0.013523,0.002678,0.000431,0.004701
31877000,0.0324,0.013523,0.002678,0.000431,0.012223
31878000,0.0324,0.013523,0.002678,0.000431,0.004701
31879000,0.0324,0.013523,0.002678,0.000431,0.004701
31880000,0.0324,0.013523,0.002678,0.000431,0.004584
31881000,0.0324,0.013523,0.002678,0.000431,0.004584
31882000,0.0324,0.013523,0.002678,0.000431,0.019745
31883000,0.0324,0.013523,0.002678,0.000431,0.004701
31884000,0.0324,0.013523,0.002678,0.000431,0.013281
31885000,0.0324,0.013523,0.002678,0.000431,0.005876
31886000,0.0324,0.013523,0.002678,0.000431,0.005876
31887000,0.0324,0.013523,0.002678,0.000431,0.005876
31888000,0.0324,0.013523,0.002678,0.000431,0.005876
31889000,0.0324,0.013523,0.002678,0.000431,0.005876
31890000,0.0324,0.013523,0.002678,0.000431,0.040195
31891000,0.0324,0.013523,0.002678,0.000431,0.016454
31892000,0.0324,0.013523,0.002678,0.000431,0.005876
31893000,0.0324,0.013523,0.002678,0.000431,0.017042
31894000,0.0324,0.013523,0.002678,0.000431,0.009050
31895000,0.0324,0.013523,0.002678,0.000431,0.009637
31896000,0.0324,0.013523,0.002678,0.000431,0.005876
31897000,0.0324,0.013523,0.002678,0.000431,0.014103
31898000,0.0324,0.013523,0.002678,0.000431,0.005876
31899000,0.0324,0.013523,0.002678,0.000431,0.005876
31900000,0.0324,0.013523,0.002678,0.000431,0.005876
31901000,0.0324,0.013523,0.002678,0.000431,0.013163
31902000,0.0324,0.013523,0.002678,0.000431,0.005876
31903000,0.0324,0.013523,0.002678,0.000431,0.012811
31904000,0.0324,0.013523,0.002678,0.000431,0.004701
31905000,0.0324,0.013523,0.002678,0.000431,0.004701
31906000,0.0324,0.013523,0.002678,0.000431,0.004701
31907000,0.0324,0.013523,0.002678,0.000431,0.015984
31908000,0.0324,0.013523,0.002678,0.000431,0.008227
31909000,0.0324,0.013523,0.002678,0.000431,0.014809
31910000,0.0324,0.013523,0.002678,0.000431,0.009402
31911000,0.0324,0.013523,0.002678,0.000431,0.004701
31912000,0.0324,0.013523,0.002678,0.000431,0.004819
31913000,0.0324,0.013523,0.002678,0.000431,0.005876
31914000,0.0324,0.013523,0.002678,0.000431,0.005876
31915000,0.0324,0.013523,0.002678,0.000431,0.013398
31916000,0.0324,0.013523,0.002678,0.000431,0.013398
31917000,0.0324,0.013523,0.002678,0.000431,0.028442
31918000,0.0324,0.013523,0.002678,0.000431,0.005876
31919000,0.0324,0.013523,0.002678,0.000431,0.012576
31920000,0.0324,0.013523,0.002678,0.000431,0.004466
31921000,0.0324,0.013523,0.002678,0.000431,0.004701
31922000,0.0324,0.013523,0.002678,0.000431,0.004701
31923000,0.0324,0.013523,0.002678,0.000431,0.004701
31924000,0.0324,0.013523,0.002678,0.000431,0.004701
31925000,0.0324,0.013523,0.002678,0.000431,0.009990
31926000,0.0324,0.013523,0.002678,0.000431,0.006699
31927000,0.0324,0.013523,0.002678,0.000431,0.004701
31928000,0.0324,0.013523,0.002678,0.000431,0.004701
31929000,0.0324,0.013523,0.002678,0.000431,0.012223
31930000,0.0324,0.013523,0.002678,0.000431,0.004701
31931000,0.0324,0.013523,0.002678,0.000431,0.004701
31932000,0.0324,0.013523,0.002678,0.000431,0.043838
31933000,0.0324,0.013523,0.002678,0.000431,0.039842
31934000,0.0324,0.013523,0.002678,0.000431,0.004701
31935000,0.0324,0.013523,0.002678,0.000431,0.027267
31936000,0.0324,0.013523,0.002678,0.000431,0.004701
31937000,0.0324,0.013523,0.002678,0.000431,0.004701
31938000,0.0324,0.013523,0.002678,0.000431,0.004701
31939000,0.0324,0.013523,0.002678,0.000431,0.004701
31940000,0.0324,0.013523,0.002678,0.000431,0.012223
31941000,0.0324,0.013523,0.002678,0.000431,0.011048
31942000,0.0324,0.013523,0.002678,0.000431,0.058882
31943000,0.0324,0.013523,0.002678,0.000431,0.005876
31944000,0.0324,0.013523,0.002678,0.000431,0.005876
31945000,0.0324,0.013523,0.002678,0.000431,0.009285
31946000,0.0324,0.013523,0.002678,0.000431,0.004701
31947000,0.0324,0.013523,0.002678,0.000431,0.004701
31948000,0.0324,0.013523,0.002678,0.000431,0.004701
31949000,0.0324,0.013523,0.002678,0.000431,0.004701
31950000,0.0324,0.013523,0.002678,0.000431,0.004701
31951000,0.0324,0.013523,0.002678,0.000431,0.020450
31952000,0.0324,0.013523,0.002678,0.000431,0.026561
31953000,0.0324,0.013523,0.002678,0.000431,0.027267
31954000,0.0324,0.013523,0.002678,0.000431,0.004701
31955000,0.0324,0.013523,0.002678,0.000431,0.019745
31956000,0.0324,0.013523,0.002678,0.000431,0.004701
31957000,0.0324,0.013523,0.002678,0.000431,0.004701
31958000,0.0324,0.013523,0.002678,0.000431,0.019745
31959000,0.0324,0.013523,0.002678,0.000431,0.019745
31960000,0.0324,0.013523,0.002678,0.000431,0.004466
31961000,0.0324,0.013523,0.002678,0.000431,0.004701
31962000,0.0324,0.013523,0.002678,0.000431,0.004701
31963000,0.0324,0.013523,0.002678,0.000431,0.004701
31964000,0.0324,0.013523,0.002678,0.000431,0.004701
31965000,0.0324,0.013523,0.002678,0.000431,0.006464
31966000,0.0324,0.013523,0.002678,0.000431,0.025151
31967000,0.0324,0.013523,0.002678,0.000431,0.004584
31968000,0.0324,0.013523,0.002678,0.000431,0.004701
31969000,0.0324,0.013523,0.002678,0.000431,0.004701
31970000,0.0324,0.013523,0.002678,0.000431,0.004466
31971000,0.0324,0.013523,0.002678,0.000431,0.019392
31972000,0.0324,0.013523,0.002678,0.000431,0.003526
31973000,0.0324,0.013523,0.002678,0.000431,0.003526
31974000,0.0324,0.013523,0.002678,0.000431,0.003526
31975000,0.0324,0.013523,0.002678,0.000431,0.003526
31976000,0.0324,0.013523,0.002678,0.000431,0.003526
31977000,0.0324,0.013523,0.002678,0.000431,0.003526
31978000,0.0324,0.013523,0.002678,0.000431,0.003526
31979000,0.0324,0.013523,0.002678,0.000431,0.004349
31980000,0.0324,0.013523,0.002678,0.000431,0.004701
31981000,0.0324,0.013523,0.002678,0.000431,0.004701
31982000,0.0324,0.013523,0.002678,0.000431,0.004701
31983000,0.0324,0.013523,0.002678,0.000431,0.004701
31984000,0.0324,0.013523,0.002678,0.000431,0.005289
31985000,0.0324,0.013523,0.002678,0.000431,0.003526
31986000,0.0324,0.013523,0.002678,0.000431,0.003526
31987000,0.0324,0.013523,0.002678,0.000431,0.011048
31988000,0.0324,0.013523,0.002678,0.000431,0.003526
31989000,0.0324,0.013523,0.002678,0.000431,0.003526
31990000,0.0324,0.013523,0.002678,0.000431,0.010695
31991000,0.0324,0.013523,0.002678,0.000431,0.017747
31992000,0.0324,0.013523,0.002678,0.000431,0.003526
31993000,0.0324,0.013523,0.002678,0.000431,0.003526
31994000,0.0324,0.013523,0.002678,0.000431,0.003526
31995000,0.0324,0.013523,0.002678,0.000431,0.003526
31996000,0.0324,0.013523,0.002678,0.000431,0.003526
31997000,0.0324,0.013523,0.002678,0.000431,0.003526
31998000,0.0324,0.013523,0.002678,0.000431,0.010813
31999000,0.0324,0.013523,0.002678,0.000431,0.003526
