Cycle,Area(mm^2),PeakDynamic(W),SubthresholdLeakage(W),GateLeakage(W),RunTimeDynamic(W)
25000000,0.0324,0.013523,0.002678,0.000431,0.004701
25001000,0.0324,0.013523,0.002678,0.000431,0.036551
25002000,0.0324,0.013523,0.002678,0.000431,0.011635
25003000,0.0324,0.013523,0.002678,0.000431,0.004466
25004000,0.0324,0.013523,0.002678,0.000431,0.004701
25005000,0.0324,0.013523,0.002678,0.000431,0.004701
25006000,0.0324,0.013523,0.002678,0.000431,0.004701
25007000,0.0324,0.013523,0.002678,0.000431,0.041840
25008000,0.0324,0.013523,0.002678,0.000431,0.050772
25009000,0.0324,0.013523,0.002678,0.000431,0.004701
25010000,0.0324,0.013523,0.002678,0.000431,0.004701
25011000,0.0324,0.013523,0.002678,0.000431,0.034788
25012000,0.0324,0.013523,0.002678,0.000431,0.004701
25013000,0.0324,0.013523,0.002678,0.000431,0.004701
25014000,0.0324,0.013523,0.002678,0.000431,0.012458
25015000,0.0324,0.013523,0.002678,0.000431,0.004701
25016000,0.0324,0.013523,0.002678,0.000431,0.004701
25017000,0.0324,0.013523,0.002678,0.000431,0.016219
25018000,0.0324,0.013523,0.002678,0.000431,0.053358
25019000,0.0324,0.013523,0.002678,0.000431,0.004701
25020000,0.0324,0.013523,0.002678,0.000431,0.004701
25021000,0.0324,0.013523,0.002678,0.000431,0.042545
25022000,0.0324,0.013523,0.002678,0.000431,0.004466
25023000,0.0324,0.013523,0.002678,0.000431,0.004466
25024000,0.0324,0.013523,0.002678,0.000431,0.034788
25025000,0.0324,0.013523,0.002678,0.000431,0.004701
25026000,0.0324,0.013523,0.002678,0.000431,0.027267
25027000,0.0324,0.013523,0.002678,0.000431,0.027267
25028000,0.0324,0.013523,0.002678,0.000431,0.004701
25029000,0.0324,0.013523,0.002678,0.000431,0.004701
25030000,0.0324,0.013523,0.002678,0.000431,0.004701
25031000,0.0324,0.013523,0.002678,0.000431,0.004701
25032000,0.0324,0.013523,0.002678,0.000431,0.004701
25033000,0.0324,0.013523,0.002678,0.000431,0.029265
25034000,0.0324,0.013523,0.002678,0.000431,0.010225
25035000,0.0324,0.013523,0.002678,0.000431,0.004701
25036000,0.0324,0.013523,0.002678,0.000431,0.004701
25037000,0.0324,0.013523,0.002678,0.000431,0.019627
25038000,0.0324,0.013523,0.002678,0.000431,0.004584
25039000,0.0324,0.013523,0.002678,0.000431,0.004701
25040000,0.0324,0.013523,0.002678,0.000431,0.017277
25041000,0.0324,0.013523,0.002678,0.000431,0.014691
25042000,0.0324,0.013523,0.002678,0.000431,0.004584
25043000,0.0324,0.013523,0.002678,0.000431,0.027149
25044000,0.0324,0.013523,0.002678,0.000431,0.004701
25045000,0.0324,0.013523,0.002678,0.000431,0.004701
25046000,0.0324,0.013523,0.002678,0.000431,0.049832
25047000,0.0324,0.013523,0.002678,0.000431,0.078744
25048000,0.0324,0.013523,0.002678,0.000431,0.004701
25049000,0.0324,0.013523,0.002678,0.000431,0.004701
25050000,0.0324,0.013523,0.002678,0.000431,0.004701
25051000,0.0324,0.013523,0.002678,0.000431,0.004701
25052000,0.0324,0.013523,0.002678,0.000431,0.008462
25053000,0.0324,0.013523,0.002678,0.000431,0.008462
25054000,0.0324,0.013523,0.002678,0.000431,0.004701
25055000,0.0324,0.013523,0.002678,0.000431,0.004701
25056000,0.0324,0.013523,0.002678,0.000431,0.004701
25057000,0.0324,0.013523,0.002678,0.000431,0.004701
25058000,0.0324,0.013523,0.002678,0.000431,0.004701
25059000,0.0324,0.013523,0.002678,0.000431,0.072397
25060000,0.0324,0.013523,0.002678,0.000431,0.012223
25061000,0.0324,0.013523,0.002678,0.000431,0.004701
25062000,0.0324,0.013523,0.002678,0.000431,0.011988
25063000,0.0324,0.013523,0.002678,0.000431,0.019510
25064000,0.0324,0.013523,0.002678,0.000431,0.004701
25065000,0.0324,0.013523,0.002678,0.000431,0.004701
25066000,0.0324,0.013523,0.002678,0.000431,0.012458
25067000,0.0324,0.013523,0.002678,0.000431,0.019745
25068000,0.0324,0.013523,0.002678,0.000431,0.012458
25069000,0.0324,0.013523,0.002678,0.000431,0.012223
25070000,0.0324,0.013523,0.002678,0.000431,0.004701
25071000,0.0324,0.013523,0.002678,0.000431,0.004701
25072000,0.0324,0.013523,0.002678,0.000431,0.063230
25073000,0.0324,0.013523,0.002678,0.000431,0.006347
25074000,0.0324,0.013523,0.002678,0.000431,0.004701
25075000,0.0324,0.013523,0.002678,0.000431,0.021625
25076000,0.0324,0.013523,0.002678,0.000431,0.032673
25077000,0.0324,0.013523,0.002678,0.000431,0.004701
25078000,0.0324,0.013523,0.002678,0.000431,0.004466
25079000,0.0324,0.013523,0.002678,0.000431,0.012223
25080000,0.0324,0.013523,0.002678,0.000431,0.004701
25081000,0.0324,0.013523,0.002678,0.000431,0.019745
25082000,0.0324,0.013523,0.002678,0.000431,0.049832
25083000,0.0324,0.013523,0.002678,0.000431,0.004701
25084000,0.0324,0.013523,0.002678,0.000431,0.004701
25085000,0.0324,0.013523,0.002678,0.000431,0.027267
25086000,0.0324,0.013523,0.002678,0.000431,0.004701
25087000,0.0324,0.013523,0.002678,0.000431,0.027267
25088000,0.0324,0.013523,0.002678,0.000431,0.027267
25089000,0.0324,0.013523,0.002678,0.000431,0.004701
25090000,0.0324,0.013523,0.002678,0.000431,0.004701
25091000,0.0324,0.013523,0.002678,0.000431,0.019745
25092000,0.0324,0.013523,0.002678,0.000431,0.012223
25093000,0.0324,0.013523,0.002678,0.000431,0.004701
25094000,0.0324,0.013523,0.002678,0.000431,0.019980
25095000,0.0324,0.013523,0.002678,0.000431,0.027267
25096000,0.0324,0.013523,0.002678,0.000431,0.004701
25097000,0.0324,0.013523,0.002678,0.000431,0.004701
25098000,0.0324,0.013523,0.002678,0.000431,0.072397
25099000,0.0324,0.013523,0.002678,0.000431,0.004701
25100000,0.0324,0.013523,0.002678,0.000431,0.023506
25101000,0.0324,0.013523,0.002678,0.000431,0.015984
25102000,0.0324,0.013523,0.002678,0.000431,0.004349
25103000,0.0324,0.013523,0.002678,0.000431,0.004584
25104000,0.0324,0.013523,0.002678,0.000431,0.031027
25105000,0.0324,0.013523,0.002678,0.000431,0.031027
25106000,0.0324,0.013523,0.002678,0.000431,0.004701
25107000,0.0324,0.013523,0.002678,0.000431,0.049832
25108000,0.0324,0.013523,0.002678,0.000431,0.012223
25109000,0.0324,0.013523,0.002678,0.000431,0.004701
25110000,0.0324,0.013523,0.002678,0.000431,0.004701
25111000,0.0324,0.013523,0.002678,0.000431,0.027267
25112000,0.0324,0.013523,0.002678,0.000431,0.004701
25113000,0.0324,0.013523,0.002678,0.000431,0.040195
25114000,0.0324,0.013523,0.002678,0.000431,0.014573
25115000,0.0324,0.013523,0.002678,0.000431,0.004701
25116000,0.0324,0.013523,0.002678,0.000431,0.004466
25117000,0.0324,0.013523,0.002678,0.000431,0.027267
25118000,0.0324,0.013523,0.002678,0.000431,0.169946
25119000,0.0324,0.013523,0.002678,0.000431,0.004701
25120000,0.0324,0.013523,0.002678,0.000431,0.019745
25121000,0.0324,0.013523,0.002678,0.000431,0.004701
25122000,0.0324,0.013523,0.002678,0.000431,0.004701
25123000,0.0324,0.013523,0.002678,0.000431,0.004701
25124000,0.0324,0.013523,0.002678,0.000431,0.008462
25125000,0.0324,0.013523,0.002678,0.000431,0.061115
25126000,0.0324,0.013523,0.002678,0.000431,0.019745
25127000,0.0324,0.013523,0.002678,0.000431,0.019745
25128000,0.0324,0.013523,0.002678,0.000431,0.004701
25129000,0.0324,0.013523,0.002678,0.000431,0.004701
25130000,0.0324,0.013523,0.002678,0.000431,0.004701
25131000,0.0324,0.013523,0.002678,0.000431,0.019745
25132000,0.0324,0.013523,0.002678,0.000431,0.004701
25133000,0.0324,0.013523,0.002678,0.000431,0.063818
25134000,0.0324,0.013523,0.002678,0.000431,0.028324
25135000,0.0324,0.013523,0.002678,0.000431,0.004701
25136000,0.0324,0.013523,0.002678,0.000431,0.004701
25137000,0.0324,0.013523,0.002678,0.000431,0.007287
25138000,0.0324,0.013523,0.002678,0.000431,0.017159
25139000,0.0324,0.013523,0.002678,0.000431,0.027267
25140000,0.0324,0.013523,0.002678,0.000431,0.004701
25141000,0.0324,0.013523,0.002678,0.000431,0.004701
25142000,0.0324,0.013523,0.002678,0.000431,0.004231
25143000,0.0324,0.013523,0.002678,0.000431,0.004701
25144000,0.0324,0.013523,0.002678,0.000431,0.012223
25145000,0.0324,0.013523,0.002678,0.000431,0.048069
25146000,0.0324,0.013523,0.002678,0.000431,0.044073
25147000,0.0324,0.013523,0.002678,0.000431,0.004701
25148000,0.0324,0.013523,0.002678,0.000431,0.004701
25149000,0.0324,0.013523,0.002678,0.000431,0.004701
25150000,0.0324,0.013523,0.002678,0.000431,0.004701
25151000,0.0324,0.013523,0.002678,0.000431,0.012223
25152000,0.0324,0.013523,0.002678,0.000431,0.045601
25153000,0.0324,0.013523,0.002678,0.000431,0.060409
25154000,0.0324,0.013523,0.002678,0.000431,0.004701
25155000,0.0324,0.013523,0.002678,0.000431,0.004701
25156000,0.0324,0.013523,0.002678,0.000431,0.004466
25157000,0.0324,0.013523,0.002678,0.000431,0.012223
25158000,0.0324,0.013523,0.002678,0.000431,0.117293
25159000,0.0324,0.013523,0.002678,0.000431,0.042310
25160000,0.0324,0.013523,0.002678,0.000431,0.027267
25161000,0.0324,0.013523,0.002678,0.000431,0.004701
25162000,0.0324,0.013523,0.002678,0.000431,0.004701
25163000,0.0324,0.013523,0.002678,0.000431,0.004701
25164000,0.0324,0.013523,0.002678,0.000431,0.004701
25165000,0.0324,0.013523,0.002678,0.000431,0.040665
25166000,0.0324,0.013523,0.002678,0.000431,0.085090
25167000,0.0324,0.013523,0.002678,0.000431,0.076393
25168000,0.0324,0.013523,0.002678,0.000431,0.004701
25169000,0.0324,0.013523,0.002678,0.000431,0.004701
25170000,0.0324,0.013523,0.002678,0.000431,0.004701
25171000,0.0324,0.013523,0.002678,0.000431,0.012223
25172000,0.0324,0.013523,0.002678,0.000431,0.026091
25173000,0.0324,0.013523,0.002678,0.000431,0.013398
25174000,0.0324,0.013523,0.002678,0.000431,0.004701
25175000,0.0324,0.013523,0.002678,0.000431,0.004701
25176000,0.0324,0.013523,0.002678,0.000431,0.004701
25177000,0.0324,0.013523,0.002678,0.000431,0.004701
25178000,0.0324,0.013523,0.002678,0.000431,0.004701
25179000,0.0324,0.013523,0.002678,0.000431,0.034788
25180000,0.0324,0.013523,0.002678,0.000431,0.004701
25181000,0.0324,0.013523,0.002678,0.000431,0.004584
25182000,0.0324,0.013523,0.002678,0.000431,0.004349
25183000,0.0324,0.013523,0.002678,0.000431,0.034788
25184000,0.0324,0.013523,0.002678,0.000431,0.004701
25185000,0.0324,0.013523,0.002678,0.000431,0.102250
25186000,0.0324,0.013523,0.002678,0.000431,0.012223
25187000,0.0324,0.013523,0.002678,0.000431,0.004701
25188000,0.0324,0.013523,0.002678,0.000431,0.004701
25189000,0.0324,0.013523,0.002678,0.000431,0.019745
25190000,0.0324,0.013523,0.002678,0.000431,0.004701
25191000,0.0324,0.013523,0.002678,0.000431,0.044778
25192000,0.0324,0.013523,0.002678,0.000431,0.077451
25193000,0.0324,0.013523,0.002678,0.000431,0.004701
25194000,0.0324,0.013523,0.002678,0.000431,0.004701
25195000,0.0324,0.013523,0.002678,0.000431,0.004701
25196000,0.0324,0.013523,0.002678,0.000431,0.064641
25197000,0.0324,0.013523,0.002678,0.000431,0.012223
25198000,0.0324,0.013523,0.002678,0.000431,0.027267
25199000,0.0324,0.013523,0.002678,0.000431,0.004701
25200000,0.0324,0.013523,0.002678,0.000431,0.004584
25201000,0.0324,0.013523,0.002678,0.000431,0.004584
25202000,0.0324,0.013523,0.002678,0.000431,0.042310
25203000,0.0324,0.013523,0.002678,0.000431,0.004701
25204000,0.0324,0.013523,0.002678,0.000431,0.019745
25205000,0.0324,0.013523,0.002678,0.000431,0.019745
25206000,0.0324,0.013523,0.002678,0.000431,0.004701
25207000,0.0324,0.013523,0.002678,0.000431,0.004701
25208000,0.0324,0.013523,0.002678,0.000431,0.004936
25209000,0.0324,0.013523,0.002678,0.000431,0.019510
25210000,0.0324,0.013523,0.002678,0.000431,0.007404
25211000,0.0324,0.013523,0.002678,0.000431,0.046071
25212000,0.0324,0.013523,0.002678,0.000431,0.035846
25213000,0.0324,0.013523,0.002678,0.000431,0.004701
25214000,0.0324,0.013523,0.002678,0.000431,0.004701
25215000,0.0324,0.013523,0.002678,0.000431,0.004701
25216000,0.0324,0.013523,0.002678,0.000431,0.012223
25217000,0.0324,0.013523,0.002678,0.000431,0.019745
25218000,0.0324,0.013523,0.002678,0.000431,0.012223
25219000,0.0324,0.013523,0.002678,0.000431,0.049832
25220000,0.0324,0.013523,0.002678,0.000431,0.004701
25221000,0.0324,0.013523,0.002678,0.000431,0.012223
25222000,0.0324,0.013523,0.002678,0.000431,0.011753
25223000,0.0324,0.013523,0.002678,0.000431,0.027267
25224000,0.0324,0.013523,0.002678,0.000431,0.042310
25225000,0.0324,0.013523,0.002678,0.000431,0.004701
25226000,0.0324,0.013523,0.002678,0.000431,0.004701
25227000,0.0324,0.013523,0.002678,0.000431,0.004701
25228000,0.0324,0.013523,0.002678,0.000431,0.027267
25229000,0.0324,0.013523,0.002678,0.000431,0.018805
25230000,0.0324,0.013523,0.002678,0.000431,0.028207
25231000,0.0324,0.013523,0.002678,0.000431,0.004701
25232000,0.0324,0.013523,0.002678,0.000431,0.004701
25233000,0.0324,0.013523,0.002678,0.000431,0.004701
25234000,0.0324,0.013523,0.002678,0.000431,0.004701
25235000,0.0324,0.013523,0.002678,0.000431,0.004701
25236000,0.0324,0.013523,0.002678,0.000431,0.006699
25237000,0.0324,0.013523,0.002678,0.000431,0.040077
25238000,0.0324,0.013523,0.002678,0.000431,0.004701
25239000,0.0324,0.013523,0.002678,0.000431,0.027267
25240000,0.0324,0.013523,0.002678,0.000431,0.004584
25241000,0.0324,0.013523,0.002678,0.000431,0.042193
25242000,0.0324,0.013523,0.002678,0.000431,0.004701
25243000,0.0324,0.013523,0.002678,0.000431,0.019745
25244000,0.0324,0.013523,0.002678,0.000431,0.004701
25245000,0.0324,0.013523,0.002678,0.000431,0.004701
25246000,0.0324,0.013523,0.002678,0.000431,0.004701
25247000,0.0324,0.013523,0.002678,0.000431,0.004701
25248000,0.0324,0.013523,0.002678,0.000431,0.004701
25249000,0.0324,0.013523,0.002678,0.000431,0.004701
25250000,0.0324,0.013523,0.002678,0.000431,0.072397
25251000,0.0324,0.013523,0.002678,0.000431,0.181228
25252000,0.0324,0.013523,0.002678,0.000431,0.008462
25253000,0.0324,0.013523,0.002678,0.000431,0.004701
25254000,0.0324,0.013523,0.002678,0.000431,0.004701
25255000,0.0324,0.013523,0.002678,0.000431,0.004701
25256000,0.0324,0.013523,0.002678,0.000431,0.004701
25257000,0.0324,0.013523,0.002678,0.000431,0.014691
25258000,0.0324,0.013523,0.002678,0.000431,0.054886
25259000,0.0324,0.013523,0.002678,0.000431,0.004701
25260000,0.0324,0.013523,0.002678,0.000431,0.110476
25261000,0.0324,0.013523,0.002678,0.000431,0.041370
25262000,0.0324,0.013523,0.002678,0.000431,0.015749
25263000,0.0324,0.013523,0.002678,0.000431,0.015984
25264000,0.0324,0.013523,0.002678,0.000431,0.042310
25265000,0.0324,0.013523,0.002678,0.000431,0.004701
25266000,0.0324,0.013523,0.002678,0.000431,0.064876
25267000,0.0324,0.013523,0.002678,0.000431,0.004701
25268000,0.0324,0.013523,0.002678,0.000431,0.004701
25269000,0.0324,0.013523,0.002678,0.000431,0.004701
25270000,0.0324,0.013523,0.002678,0.000431,0.014691
25271000,0.0324,0.013523,0.002678,0.000431,0.024681
25272000,0.0324,0.013523,0.002678,0.000431,0.004584
25273000,0.0324,0.013523,0.002678,0.000431,0.004701
25274000,0.0324,0.013523,0.002678,0.000431,0.004701
25275000,0.0324,0.013523,0.002678,0.000431,0.011988
25276000,0.0324,0.013523,0.002678,0.000431,0.019745
25277000,0.0324,0.013523,0.002678,0.000431,0.016689
25278000,0.0324,0.013523,0.002678,0.000431,0.022800
25279000,0.0324,0.013523,0.002678,0.000431,0.004466
25280000,0.0324,0.013523,0.002678,0.000431,0.004701
25281000,0.0324,0.013523,0.002678,0.000431,0.004701
25282000,0.0324,0.013523,0.002678,0.000431,0.057706
25283000,0.0324,0.013523,0.002678,0.000431,0.026914
25284000,0.0324,0.013523,0.002678,0.000431,0.004701
25285000,0.0324,0.013523,0.002678,0.000431,0.004701
25286000,0.0324,0.013523,0.002678,0.000431,0.004701
25287000,0.0324,0.013523,0.002678,0.000431,0.004701
25288000,0.0324,0.013523,0.002678,0.000431,0.004701
25289000,0.0324,0.013523,0.002678,0.000431,0.004701
25290000,0.0324,0.013523,0.002678,0.000431,0.046071
25291000,0.0324,0.013523,0.002678,0.000431,0.068636
25292000,0.0324,0.013523,0.002678,0.000431,0.004701
25293000,0.0324,0.013523,0.002678,0.000431,0.004701
25294000,0.0324,0.013523,0.002678,0.000431,0.005876
25295000,0.0324,0.013523,0.002678,0.000431,0.018569
25296000,0.0324,0.013523,0.002678,0.000431,0.072280
25297000,0.0324,0.013523,0.002678,0.000431,0.057001
25298000,0.0324,0.013523,0.002678,0.000431,0.079919
25299000,0.0324,0.013523,0.002678,0.000431,0.012223
25300000,0.0324,0.013523,0.002678,0.000431,0.004701
25301000,0.0324,0.013523,0.002678,0.000431,0.042310
25302000,0.0324,0.013523,0.002678,0.000431,0.004701
25303000,0.0324,0.013523,0.002678,0.000431,0.118821
25304000,0.0324,0.013523,0.002678,0.000431,0.025739
25305000,0.0324,0.013523,0.002678,0.000431,0.035023
25306000,0.0324,0.013523,0.002678,0.000431,0.004701
25307000,0.0324,0.013523,0.002678,0.000431,0.004701
25308000,0.0324,0.013523,0.002678,0.000431,0.035023
25309000,0.0324,0.013523,0.002678,0.000431,0.004701
25310000,0.0324,0.013523,0.002678,0.000431,0.004701
25311000,0.0324,0.013523,0.002678,0.000431,0.103542
25312000,0.0324,0.013523,0.002678,0.000431,0.048187
25313000,0.0324,0.013523,0.002678,0.000431,0.004584
25314000,0.0324,0.013523,0.002678,0.000431,0.004701
25315000,0.0324,0.013523,0.002678,0.000431,0.008462
25316000,0.0324,0.013523,0.002678,0.000431,0.008462
25317000,0.0324,0.013523,0.002678,0.000431,0.004701
25318000,0.0324,0.013523,0.002678,0.000431,0.012223
25319000,0.0324,0.013523,0.002678,0.000431,0.004701
25320000,0.0324,0.013523,0.002678,0.000431,0.004701
25321000,0.0324,0.013523,0.002678,0.000431,0.042310
25322000,0.0324,0.013523,0.002678,0.000431,0.004701
25323000,0.0324,0.013523,0.002678,0.000431,0.004701
25324000,0.0324,0.013523,0.002678,0.000431,0.038432
25325000,0.0324,0.013523,0.002678,0.000431,0.023623
25326000,0.0324,0.013523,0.002678,0.000431,0.004701
25327000,0.0324,0.013523,0.002678,0.000431,0.006582
25328000,0.0324,0.013523,0.002678,0.000431,0.085796
25329000,0.0324,0.013523,0.002678,0.000431,0.004701
25330000,0.0324,0.013523,0.002678,0.000431,0.004701
25331000,0.0324,0.013523,0.002678,0.000431,0.080742
25332000,0.0324,0.013523,0.002678,0.000431,0.018687
25333000,0.0324,0.013523,0.002678,0.000431,0.004701
25334000,0.0324,0.013523,0.002678,0.000431,0.064993
25335000,0.0324,0.013523,0.002678,0.000431,0.034906
25336000,0.0324,0.013523,0.002678,0.000431,0.004701
25337000,0.0324,0.013523,0.002678,0.000431,0.004466
25338000,0.0324,0.013523,0.002678,0.000431,0.094963
25339000,0.0324,0.013523,0.002678,0.000431,0.004701
25340000,0.0324,0.013523,0.002678,0.000431,0.022448
25341000,0.0324,0.013523,0.002678,0.000431,0.196037
25342000,0.0324,0.013523,0.002678,0.000431,0.013516
25343000,0.0324,0.013523,0.002678,0.000431,0.004701
25344000,0.0324,0.013523,0.002678,0.000431,0.030322
25345000,0.0324,0.013523,0.002678,0.000431,0.059117
25346000,0.0324,0.013523,0.002678,0.000431,0.014926
25347000,0.0324,0.013523,0.002678,0.000431,0.004466
25348000,0.0324,0.013523,0.002678,0.000431,0.057589
25349000,0.0324,0.013523,0.002678,0.000431,0.057354
25350000,0.0324,0.013523,0.002678,0.000431,0.031027
25351000,0.0324,0.013523,0.002678,0.000431,0.008462
25352000,0.0324,0.013523,0.002678,0.000431,0.012458
25353000,0.0324,0.013523,0.002678,0.000431,0.004701
25354000,0.0324,0.013523,0.002678,0.000431,0.004701
25355000,0.0324,0.013523,0.002678,0.000431,0.004701
25356000,0.0324,0.013523,0.002678,0.000431,0.061350
25357000,0.0324,0.013523,0.002678,0.000431,0.068636
25358000,0.0324,0.013523,0.002678,0.000431,0.004701
25359000,0.0324,0.013523,0.002678,0.000431,0.004701
25360000,0.0324,0.013523,0.002678,0.000431,0.008462
25361000,0.0324,0.013523,0.002678,0.000431,0.008462
25362000,0.0324,0.013523,0.002678,0.000431,0.004701
25363000,0.0324,0.013523,0.002678,0.000431,0.004701
25364000,0.0324,0.013523,0.002678,0.000431,0.004701
25365000,0.0324,0.013523,0.002678,0.000431,0.012223
25366000,0.0324,0.013523,0.002678,0.000431,0.004701
25367000,0.0324,0.013523,0.002678,0.000431,0.004584
25368000,0.0324,0.013523,0.002678,0.000431,0.004584
25369000,0.0324,0.013523,0.002678,0.000431,0.031968
25370000,0.0324,0.013523,0.002678,0.000431,0.082740
25371000,0.0324,0.013523,0.002678,0.000431,0.015514
25372000,0.0324,0.013523,0.002678,0.000431,0.054063
25373000,0.0324,0.013523,0.002678,0.000431,0.019745
25374000,0.0324,0.013523,0.002678,0.000431,0.004701
25375000,0.0324,0.013523,0.002678,0.000431,0.004701
25376000,0.0324,0.013523,0.002678,0.000431,0.004701
25377000,0.0324,0.013523,0.002678,0.000431,0.004466
25378000,0.0324,0.013523,0.002678,0.000431,0.080154
25379000,0.0324,0.013523,0.002678,0.000431,0.060527
25380000,0.0324,0.013523,0.002678,0.000431,0.061467
25381000,0.0324,0.013523,0.002678,0.000431,0.004701
25382000,0.0324,0.013523,0.002678,0.000431,0.047834
25383000,0.0324,0.013523,0.002678,0.000431,0.145382
25384000,0.0324,0.013523,0.002678,0.000431,0.098959
25385000,0.0324,0.013523,0.002678,0.000431,0.027267
25386000,0.0324,0.013523,0.002678,0.000431,0.004701
25387000,0.0324,0.013523,0.002678,0.000431,0.004701
25388000,0.0324,0.013523,0.002678,0.000431,0.004701
25389000,0.0324,0.013523,0.002678,0.000431,0.022565
25390000,0.0324,0.013523,0.002678,0.000431,0.009402
25391000,0.0324,0.013523,0.002678,0.000431,0.004701
25392000,0.0324,0.013523,0.002678,0.000431,0.179936
25393000,0.0324,0.013523,0.002678,0.000431,0.009520
25394000,0.0324,0.013523,0.002678,0.000431,0.004701
25395000,0.0324,0.013523,0.002678,0.000431,0.004701
25396000,0.0324,0.013523,0.002678,0.000431,0.034553
25397000,0.0324,0.013523,0.002678,0.000431,0.004701
25398000,0.0324,0.013523,0.002678,0.000431,0.004701
25399000,0.0324,0.013523,0.002678,0.000431,0.064876
25400000,0.0324,0.013523,0.002678,0.000431,0.004701
25401000,0.0324,0.013523,0.002678,0.000431,0.004466
25402000,0.0324,0.013523,0.002678,0.000431,0.015984
25403000,0.0324,0.013523,0.002678,0.000431,0.008462
25404000,0.0324,0.013523,0.002678,0.000431,0.012223
25405000,0.0324,0.013523,0.002678,0.000431,0.004701
25406000,0.0324,0.013523,0.002678,0.000431,0.004701
25407000,0.0324,0.013523,0.002678,0.000431,0.004701
25408000,0.0324,0.013523,0.002678,0.000431,0.004701
25409000,0.0324,0.013523,0.002678,0.000431,0.012223
25410000,0.0324,0.013523,0.002678,0.000431,0.004701
25411000,0.0324,0.013523,0.002678,0.000431,0.012223
25412000,0.0324,0.013523,0.002678,0.000431,0.004701
25413000,0.0324,0.013523,0.002678,0.000431,0.004466
25414000,0.0324,0.013523,0.002678,0.000431,0.004701
25415000,0.0324,0.013523,0.002678,0.000431,0.012223
25416000,0.0324,0.013523,0.002678,0.000431,0.004701
25417000,0.0324,0.013523,0.002678,0.000431,0.012223
25418000,0.0324,0.013523,0.002678,0.000431,0.004701
25419000,0.0324,0.013523,0.002678,0.000431,0.034788
25420000,0.0324,0.013523,0.002678,0.000431,0.004701
25421000,0.0324,0.013523,0.002678,0.000431,0.015631
25422000,0.0324,0.013523,0.002678,0.000431,0.031380
25423000,0.0324,0.013523,0.002678,0.000431,0.004701
25424000,0.0324,0.013523,0.002678,0.000431,0.012223
25425000,0.0324,0.013523,0.002678,0.000431,0.004701
25426000,0.0324,0.013523,0.002678,0.000431,0.061115
25427000,0.0324,0.013523,0.002678,0.000431,0.031027
25428000,0.0324,0.013523,0.002678,0.000431,0.125285
25429000,0.0324,0.013523,0.002678,0.000431,0.004701
25430000,0.0324,0.013523,0.002678,0.000431,0.052300
25431000,0.0324,0.013523,0.002678,0.000431,0.069694
25432000,0.0324,0.013523,0.002678,0.000431,0.004701
25433000,0.0324,0.013523,0.002678,0.000431,0.004701
25434000,0.0324,0.013523,0.002678,0.000431,0.027149
25435000,0.0324,0.013523,0.002678,0.000431,0.012340
25436000,0.0324,0.013523,0.002678,0.000431,0.004701
25437000,0.0324,0.013523,0.002678,0.000431,0.015984
25438000,0.0324,0.013523,0.002678,0.000431,0.008462
25439000,0.0324,0.013523,0.002678,0.000431,0.012223
25440000,0.0324,0.013523,0.002678,0.000431,0.004584
25441000,0.0324,0.013523,0.002678,0.000431,0.049479
25442000,0.0324,0.013523,0.002678,0.000431,0.004701
25443000,0.0324,0.013523,0.002678,0.000431,0.006817
25444000,0.0324,0.013523,0.002678,0.000431,0.025151
25445000,0.0324,0.013523,0.002678,0.000431,0.004701
25446000,0.0324,0.013523,0.002678,0.000431,0.004701
25447000,0.0324,0.013523,0.002678,0.000431,0.059117
25448000,0.0324,0.013523,0.002678,0.000431,0.055591
25449000,0.0324,0.013523,0.002678,0.000431,0.004701
25450000,0.0324,0.013523,0.002678,0.000431,0.004819
25451000,0.0324,0.013523,0.002678,0.000431,0.004819
25452000,0.0324,0.013523,0.002678,0.000431,0.004701
25453000,0.0324,0.013523,0.002678,0.000431,0.004701
25454000,0.0324,0.013523,0.002678,0.000431,0.034788
25455000,0.0324,0.013523,0.002678,0.000431,0.004701
25456000,0.0324,0.013523,0.002678,0.000431,0.004701
25457000,0.0324,0.013523,0.002678,0.000431,0.004701
25458000,0.0324,0.013523,0.002678,0.000431,0.004701
25459000,0.0324,0.013523,0.002678,0.000431,0.016924
25460000,0.0324,0.013523,0.002678,0.000431,0.075923
25461000,0.0324,0.013523,0.002678,0.000431,0.011400
25462000,0.0324,0.013523,0.002678,0.000431,0.004584
25463000,0.0324,0.013523,0.002678,0.000431,0.015984
25464000,0.0324,0.013523,0.002678,0.000431,0.015749
25465000,0.0324,0.013523,0.002678,0.000431,0.027267
25466000,0.0324,0.013523,0.002678,0.000431,0.094728
25467000,0.0324,0.013523,0.002678,0.000431,0.004701
25468000,0.0324,0.013523,0.002678,0.000431,0.004701
25469000,0.0324,0.013523,0.002678,0.000431,0.004584
25470000,0.0324,0.013523,0.002678,0.000431,0.004584
25471000,0.0324,0.013523,0.002678,0.000431,0.053828
25472000,0.0324,0.013523,0.002678,0.000431,0.015749
25473000,0.0324,0.013523,0.002678,0.000431,0.027267
25474000,0.0324,0.013523,0.002678,0.000431,0.004701
25475000,0.0324,0.013523,0.002678,0.000431,0.004701
25476000,0.0324,0.013523,0.002678,0.000431,0.012223
25477000,0.0324,0.013523,0.002678,0.000431,0.004701
25478000,0.0324,0.013523,0.002678,0.000431,0.124815
25479000,0.0324,0.013523,0.002678,0.000431,0.057354
25480000,0.0324,0.013523,0.002678,0.000431,0.100134
25481000,0.0324,0.013523,0.002678,0.000431,0.014338
25482000,0.0324,0.013523,0.002678,0.000431,0.004701
25483000,0.0324,0.013523,0.002678,0.000431,0.029852
25484000,0.0324,0.013523,0.002678,0.000431,0.108714
25485000,0.0324,0.013523,0.002678,0.000431,0.018217
25486000,0.0324,0.013523,0.002678,0.000431,0.004701
25487000,0.0324,0.013523,0.002678,0.000431,0.004701
25488000,0.0324,0.013523,0.002678,0.000431,0.004701
25489000,0.0324,0.013523,0.002678,0.000431,0.004584
25490000,0.0324,0.013523,0.002678,0.000431,0.080859
25491000,0.0324,0.013523,0.002678,0.000431,0.011400
25492000,0.0324,0.013523,0.002678,0.000431,0.034788
25493000,0.0324,0.013523,0.002678,0.000431,0.004701
25494000,0.0324,0.013523,0.002678,0.000431,0.004701
25495000,0.0324,0.013523,0.002678,0.000431,0.004701
25496000,0.0324,0.013523,0.002678,0.000431,0.004701
25497000,0.0324,0.013523,0.002678,0.000431,0.004701
25498000,0.0324,0.013523,0.002678,0.000431,0.004701
25499000,0.0324,0.013523,0.002678,0.000431,0.012223
25500000,0.0324,0.013523,0.002678,0.000431,0.004701
25501000,0.0324,0.013523,0.002678,0.000431,0.004701
25502000,0.0324,0.013523,0.002678,0.000431,0.004701
25503000,0.0324,0.013523,0.002678,0.000431,0.049832
25504000,0.0324,0.013523,0.002678,0.000431,0.019510
25505000,0.0324,0.013523,0.002678,0.000431,0.019745
25506000,0.0324,0.013523,0.002678,0.000431,0.004584
25507000,0.0324,0.013523,0.002678,0.000431,0.004584
25508000,0.0324,0.013523,0.002678,0.000431,0.004701
25509000,0.0324,0.013523,0.002678,0.000431,0.004701
25510000,0.0324,0.013523,0.002678,0.000431,0.004701
25511000,0.0324,0.013523,0.002678,0.000431,0.004466
25512000,0.0324,0.013523,0.002678,0.000431,0.049832
25513000,0.0324,0.013523,0.002678,0.000431,0.004701
25514000,0.0324,0.013523,0.002678,0.000431,0.004701
25515000,0.0324,0.013523,0.002678,0.000431,0.004701
25516000,0.0324,0.013523,0.002678,0.000431,0.004701
25517000,0.0324,0.013523,0.002678,0.000431,0.049832
25518000,0.0324,0.013523,0.002678,0.000431,0.026444
25519000,0.0324,0.013523,0.002678,0.000431,0.005759
25520000,0.0324,0.013523,0.002678,0.000431,0.004701
25521000,0.0324,0.013523,0.002678,0.000431,0.004701
25522000,0.0324,0.013523,0.002678,0.000431,0.045366
25523000,0.0324,0.013523,0.002678,0.000431,0.076981
25524000,0.0324,0.013523,0.002678,0.000431,0.004584
25525000,0.0324,0.013523,0.002678,0.000431,0.034788
25526000,0.0324,0.013523,0.002678,0.000431,0.004701
25527000,0.0324,0.013523,0.002678,0.000431,0.004701
25528000,0.0324,0.013523,0.002678,0.000431,0.004701
25529000,0.0324,0.013523,0.002678,0.000431,0.027149
25530000,0.0324,0.013523,0.002678,0.000431,0.019627
25531000,0.0324,0.013523,0.002678,0.000431,0.012223
25532000,0.0324,0.013523,0.002678,0.000431,0.004701
25533000,0.0324,0.013523,0.002678,0.000431,0.004701
25534000,0.0324,0.013523,0.002678,0.000431,0.004701
25535000,0.0324,0.013523,0.002678,0.000431,0.049832
25536000,0.0324,0.013523,0.002678,0.000431,0.027267
25537000,0.0324,0.013523,0.002678,0.000431,0.004701
25538000,0.0324,0.013523,0.002678,0.000431,0.034788
25539000,0.0324,0.013523,0.002678,0.000431,0.004701
25540000,0.0324,0.013523,0.002678,0.000431,0.004701
25541000,0.0324,0.013523,0.002678,0.000431,0.007639
25542000,0.0324,0.013523,0.002678,0.000431,0.133159
25543000,0.0324,0.013523,0.002678,0.000431,0.008462
25544000,0.0324,0.013523,0.002678,0.000431,0.004466
25545000,0.0324,0.013523,0.002678,0.000431,0.004701
25546000,0.0324,0.013523,0.002678,0.000431,0.004701
25547000,0.0324,0.013523,0.002678,0.000431,0.004701
25548000,0.0324,0.013523,0.002678,0.000431,0.068636
25549000,0.0324,0.013523,0.002678,0.000431,0.019745
25550000,0.0324,0.013523,0.002678,0.000431,0.008462
25551000,0.0324,0.013523,0.002678,0.000431,0.064876
25552000,0.0324,0.013523,0.002678,0.000431,0.004584
25553000,0.0324,0.013523,0.002678,0.000431,0.004584
25554000,0.0324,0.013523,0.002678,0.000431,0.004701
25555000,0.0324,0.013523,0.002678,0.000431,0.029617
25556000,0.0324,0.013523,0.002678,0.000431,0.062525
25557000,0.0324,0.013523,0.002678,0.000431,0.004701
25558000,0.0324,0.013523,0.002678,0.000431,0.004701
25559000,0.0324,0.013523,0.002678,0.000431,0.004701
25560000,0.0324,0.013523,0.002678,0.000431,0.004701
25561000,0.0324,0.013523,0.002678,0.000431,0.004701
25562000,0.0324,0.013523,0.002678,0.000431,0.057589
25563000,0.0324,0.013523,0.002678,0.000431,0.008109
25564000,0.0324,0.013523,0.002678,0.000431,0.091554
25565000,0.0324,0.013523,0.002678,0.000431,0.004701
25566000,0.0324,0.013523,0.002678,0.000431,0.004701
25567000,0.0324,0.013523,0.002678,0.000431,0.023623
25568000,0.0324,0.013523,0.002678,0.000431,0.023623
25569000,0.0324,0.013523,0.002678,0.000431,0.004701
25570000,0.0324,0.013523,0.002678,0.000431,0.004701
25571000,0.0324,0.013523,0.002678,0.000431,0.004701
25572000,0.0324,0.013523,0.002678,0.000431,0.004701
25573000,0.0324,0.013523,0.002678,0.000431,0.004701
25574000,0.0324,0.013523,0.002678,0.000431,0.006347
25575000,0.0324,0.013523,0.002678,0.000431,0.070517
25576000,0.0324,0.013523,0.002678,0.000431,0.004701
25577000,0.0324,0.013523,0.002678,0.000431,0.019745
25578000,0.0324,0.013523,0.002678,0.000431,0.004701
25579000,0.0324,0.013523,0.002678,0.000431,0.004701
25580000,0.0324,0.013523,0.002678,0.000431,0.004701
25581000,0.0324,0.013523,0.002678,0.000431,0.004701
25582000,0.0324,0.013523,0.002678,0.000431,0.004701
25583000,0.0324,0.013523,0.002678,0.000431,0.015749
25584000,0.0324,0.013523,0.002678,0.000431,0.015749
25585000,0.0324,0.013523,0.002678,0.000431,0.004701
25586000,0.0324,0.013523,0.002678,0.000431,0.004701
25587000,0.0324,0.013523,0.002678,0.000431,0.004701
25588000,0.0324,0.013523,0.002678,0.000431,0.072397
25589000,0.0324,0.013523,0.002678,0.000431,0.004701
25590000,0.0324,0.013523,0.002678,0.000431,0.004701
25591000,0.0324,0.013523,0.002678,0.000431,0.004701
25592000,0.0324,0.013523,0.002678,0.000431,0.004584
25593000,0.0324,0.013523,0.002678,0.000431,0.013398
25594000,0.0324,0.013523,0.002678,0.000431,0.018452
25595000,0.0324,0.013523,0.002678,0.000431,0.004701
25596000,0.0324,0.013523,0.002678,0.000431,0.004701
25597000,0.0324,0.013523,0.002678,0.000431,0.004701
25598000,0.0324,0.013523,0.002678,0.000431,0.004701
25599000,0.0324,0.013523,0.002678,0.000431,0.013516
25600000,0.0324,0.013523,0.002678,0.000431,0.126108
25601000,0.0324,0.013523,0.002678,0.000431,0.032203
25602000,0.0324,0.013523,0.002678,0.000431,0.004701
25603000,0.0324,0.013523,0.002678,0.000431,0.049832
25604000,0.0324,0.013523,0.002678,0.000431,0.004701
25605000,0.0324,0.013523,0.002678,0.000431,0.004701
25606000,0.0324,0.013523,0.002678,0.000431,0.004701
25607000,0.0324,0.013523,0.002678,0.000431,0.015984
25608000,0.0324,0.013523,0.002678,0.000431,0.015984
25609000,0.0324,0.013523,0.002678,0.000431,0.004701
25610000,0.0324,0.013523,0.002678,0.000431,0.004701
25611000,0.0324,0.013523,0.002678,0.000431,0.004701
25612000,0.0324,0.013523,0.002678,0.000431,0.010695
25613000,0.0324,0.013523,0.002678,0.000431,0.013751
25614000,0.0324,0.013523,0.002678,0.000431,0.012223
25615000,0.0324,0.013523,0.002678,0.000431,0.004701
25616000,0.0324,0.013523,0.002678,0.000431,0.027267
25617000,0.0324,0.013523,0.002678,0.000431,0.004701
25618000,0.0324,0.013523,0.002678,0.000431,0.004701
25619000,0.0324,0.013523,0.002678,0.000431,0.004701
25620000,0.0324,0.013523,0.002678,0.000431,0.015984
25621000,0.0324,0.013523,0.002678,0.000431,0.008462
25622000,0.0324,0.013523,0.002678,0.000431,0.005054
25623000,0.0324,0.013523,0.002678,0.000431,0.034083
25624000,0.0324,0.013523,0.002678,0.000431,0.004349
25625000,0.0324,0.013523,0.002678,0.000431,0.019862
25626000,0.0324,0.013523,0.002678,0.000431,0.019862
25627000,0.0324,0.013523,0.002678,0.000431,0.064876
25628000,0.0324,0.013523,0.002678,0.000431,0.004701
25629000,0.0324,0.013523,0.002678,0.000431,0.004701
25630000,0.0324,0.013523,0.002678,0.000431,0.004701
25631000,0.0324,0.013523,0.002678,0.000431,0.004701
25632000,0.0324,0.013523,0.002678,0.000431,0.019745
25633000,0.0324,0.013523,0.002678,0.000431,0.095198
25634000,0.0324,0.013523,0.002678,0.000431,0.034083
25635000,0.0324,0.013523,0.002678,0.000431,0.015984
25636000,0.0324,0.013523,0.002678,0.000431,0.023506
25637000,0.0324,0.013523,0.002678,0.000431,0.004701
25638000,0.0324,0.013523,0.002678,0.000431,0.004701
25639000,0.0324,0.013523,0.002678,0.000431,0.004701
25640000,0.0324,0.013523,0.002678,0.000431,0.042545
25641000,0.0324,0.013523,0.002678,0.000431,0.004701
25642000,0.0324,0.013523,0.002678,0.000431,0.027502
25643000,0.0324,0.013523,0.002678,0.000431,0.004701
25644000,0.0324,0.013523,0.002678,0.000431,0.004701
25645000,0.0324,0.013523,0.002678,0.000431,0.049832
25646000,0.0324,0.013523,0.002678,0.000431,0.004701
25647000,0.0324,0.013523,0.002678,0.000431,0.034788
25648000,0.0324,0.013523,0.002678,0.000431,0.004701
25649000,0.0324,0.013523,0.002678,0.000431,0.004701
25650000,0.0324,0.013523,0.002678,0.000431,0.004701
25651000,0.0324,0.013523,0.002678,0.000431,0.019745
25652000,0.0324,0.013523,0.002678,0.000431,0.004701
25653000,0.0324,0.013523,0.002678,0.000431,0.012223
25654000,0.0324,0.013523,0.002678,0.000431,0.004701
25655000,0.0324,0.013523,0.002678,0.000431,0.012223
25656000,0.0324,0.013523,0.002678,0.000431,0.004701
25657000,0.0324,0.013523,0.002678,0.000431,0.007992
25658000,0.0324,0.013523,0.002678,0.000431,0.031498
25659000,0.0324,0.013523,0.002678,0.000431,0.019745
25660000,0.0324,0.013523,0.002678,0.000431,0.004701
25661000,0.0324,0.013523,0.002678,0.000431,0.004466
25662000,0.0324,0.013523,0.002678,0.000431,0.004701
25663000,0.0324,0.013523,0.002678,0.000431,0.004466
25664000,0.0324,0.013523,0.002678,0.000431,0.019510
25665000,0.0324,0.013523,0.002678,0.000431,0.004701
25666000,0.0324,0.013523,0.002678,0.000431,0.008345
25667000,0.0324,0.013523,0.002678,0.000431,0.038667
25668000,0.0324,0.013523,0.002678,0.000431,0.004701
25669000,0.0324,0.013523,0.002678,0.000431,0.004701
25670000,0.0324,0.013523,0.002678,0.000431,0.023741
25671000,0.0324,0.013523,0.002678,0.000431,0.030792
25672000,0.0324,0.013523,0.002678,0.000431,0.004701
25673000,0.0324,0.013523,0.002678,0.000431,0.023271
25674000,0.0324,0.013523,0.002678,0.000431,0.038549
25675000,0.0324,0.013523,0.002678,0.000431,0.019745
25676000,0.0324,0.013523,0.002678,0.000431,0.004701
25677000,0.0324,0.013523,0.002678,0.000431,0.004701
25678000,0.0324,0.013523,0.002678,0.000431,0.047951
25679000,0.0324,0.013523,0.002678,0.000431,0.021625
25680000,0.0324,0.013523,0.002678,0.000431,0.004936
25681000,0.0324,0.013523,0.002678,0.000431,0.004701
25682000,0.0324,0.013523,0.002678,0.000431,0.019745
25683000,0.0324,0.013523,0.002678,0.000431,0.004701
25684000,0.0324,0.013523,0.002678,0.000431,0.004701
25685000,0.0324,0.013523,0.002678,0.000431,0.004701
25686000,0.0324,0.013523,0.002678,0.000431,0.004701
25687000,0.0324,0.013523,0.002678,0.000431,0.004701
25688000,0.0324,0.013523,0.002678,0.000431,0.034788
25689000,0.0324,0.013523,0.002678,0.000431,0.004466
25690000,0.0324,0.013523,0.002678,0.000431,0.004701
25691000,0.0324,0.013523,0.002678,0.000431,0.057354
25692000,0.0324,0.013523,0.002678,0.000431,0.019745
25693000,0.0324,0.013523,0.002678,0.000431,0.042310
25694000,0.0324,0.013523,0.002678,0.000431,0.021390
25695000,0.0324,0.013523,0.002678,0.000431,0.010578
25696000,0.0324,0.013523,0.002678,0.000431,0.034788
25697000,0.0324,0.013523,0.002678,0.000431,0.004701
25698000,0.0324,0.013523,0.002678,0.000431,0.004701
25699000,0.0324,0.013523,0.002678,0.000431,0.012223
25700000,0.0324,0.013523,0.002678,0.000431,0.004701
25701000,0.0324,0.013523,0.002678,0.000431,0.012223
25702000,0.0324,0.013523,0.002678,0.000431,0.004701
25703000,0.0324,0.013523,0.002678,0.000431,0.034671
25704000,0.0324,0.013523,0.002678,0.000431,0.011870
25705000,0.0324,0.013523,0.002678,0.000431,0.004701
25706000,0.0324,0.013523,0.002678,0.000431,0.012223
25707000,0.0324,0.013523,0.002678,0.000431,0.015984
25708000,0.0324,0.013523,0.002678,0.000431,0.015984
25709000,0.0324,0.013523,0.002678,0.000431,0.076158
25710000,0.0324,0.013523,0.002678,0.000431,0.008462
25711000,0.0324,0.013523,0.002678,0.000431,0.004701
25712000,0.0324,0.013523,0.002678,0.000431,0.004701
25713000,0.0324,0.013523,0.002678,0.000431,0.004466
25714000,0.0324,0.013523,0.002678,0.000431,0.071575
25715000,0.0324,0.013523,0.002678,0.000431,0.005524
25716000,0.0324,0.013523,0.002678,0.000431,0.004701
25717000,0.0324,0.013523,0.002678,0.000431,0.012223
25718000,0.0324,0.013523,0.002678,0.000431,0.004701
25719000,0.0324,0.013523,0.002678,0.000431,0.012223
25720000,0.0324,0.013523,0.002678,0.000431,0.004701
25721000,0.0324,0.013523,0.002678,0.000431,0.019745
25722000,0.0324,0.013523,0.002678,0.000431,0.012223
25723000,0.0324,0.013523,0.002678,0.000431,0.004701
25724000,0.0324,0.013523,0.002678,0.000431,0.004701
25725000,0.0324,0.013523,0.002678,0.000431,0.004701
25726000,0.0324,0.013523,0.002678,0.000431,0.004701
25727000,0.0324,0.013523,0.002678,0.000431,0.004701
25728000,0.0324,0.013523,0.002678,0.000431,0.004701
25729000,0.0324,0.013523,0.002678,0.000431,0.004466
25730000,0.0324,0.013523,0.002678,0.000431,0.019745
25731000,0.0324,0.013523,0.002678,0.000431,0.004701
25732000,0.0324,0.013523,0.002678,0.000431,0.004701
25733000,0.0324,0.013523,0.002678,0.000431,0.004701
25734000,0.0324,0.013523,0.002678,0.000431,0.004701
25735000,0.0324,0.013523,0.002678,0.000431,0.012223
25736000,0.0324,0.013523,0.002678,0.000431,0.019745
25737000,0.0324,0.013523,0.002678,0.000431,0.004701
25738000,0.0324,0.013523,0.002678,0.000431,0.012223
25739000,0.0324,0.013523,0.002678,0.000431,0.004701
25740000,0.0324,0.013523,0.002678,0.000431,0.019745
25741000,0.0324,0.013523,0.002678,0.000431,0.027267
25742000,0.0324,0.013523,0.002678,0.000431,0.019745
25743000,0.0324,0.013523,0.002678,0.000431,0.080037
25744000,0.0324,0.013523,0.002678,0.000431,0.004349
25745000,0.0324,0.013523,0.002678,0.000431,0.027267
25746000,0.0324,0.013523,0.002678,0.000431,0.008462
25747000,0.0324,0.013523,0.002678,0.000431,0.008462
25748000,0.0324,0.013523,0.002678,0.000431,0.004701
25749000,0.0324,0.013523,0.002678,0.000431,0.004701
25750000,0.0324,0.013523,0.002678,0.000431,0.004701
25751000,0.0324,0.013523,0.002678,0.000431,0.031498
25752000,0.0324,0.013523,0.002678,0.000431,0.015279
25753000,0.0324,0.013523,0.002678,0.000431,0.004584
25754000,0.0324,0.013523,0.002678,0.000431,0.019627
25755000,0.0324,0.013523,0.002678,0.000431,0.004701
25756000,0.0324,0.013523,0.002678,0.000431,0.064876
25757000,0.0324,0.013523,0.002678,0.000431,0.004701
25758000,0.0324,0.013523,0.002678,0.000431,0.064876
25759000,0.0324,0.013523,0.002678,0.000431,0.012223
25760000,0.0324,0.013523,0.002678,0.000431,0.023506
25761000,0.0324,0.013523,0.002678,0.000431,0.023506
25762000,0.0324,0.013523,0.002678,0.000431,0.012223
25763000,0.0324,0.013523,0.002678,0.000431,0.004701
25764000,0.0324,0.013523,0.002678,0.000431,0.008462
25765000,0.0324,0.013523,0.002678,0.000431,0.008462
25766000,0.0324,0.013523,0.002678,0.000431,0.019745
25767000,0.0324,0.013523,0.002678,0.000431,0.019980
25768000,0.0324,0.013523,0.002678,0.000431,0.010225
25769000,0.0324,0.013523,0.002678,0.000431,0.036786
25770000,0.0324,0.013523,0.002678,0.000431,0.004701
25771000,0.0324,0.013523,0.002678,0.000431,0.019745
25772000,0.0324,0.013523,0.002678,0.000431,0.087676
25773000,0.0324,0.013523,0.002678,0.000431,0.056884
25774000,0.0324,0.013523,0.002678,0.000431,0.004701
25775000,0.0324,0.013523,0.002678,0.000431,0.019745
25776000,0.0324,0.013523,0.002678,0.000431,0.004701
25777000,0.0324,0.013523,0.002678,0.000431,0.012223
25778000,0.0324,0.013523,0.002678,0.000431,0.004701
25779000,0.0324,0.013523,0.002678,0.000431,0.004466
25780000,0.0324,0.013523,0.002678,0.000431,0.004701
25781000,0.0324,0.013523,0.002678,0.000431,0.008462
25782000,0.0324,0.013523,0.002678,0.000431,0.008462
25783000,0.0324,0.013523,0.002678,0.000431,0.004701
25784000,0.0324,0.013523,0.002678,0.000431,0.004466
25785000,0.0324,0.013523,0.002678,0.000431,0.019745
25786000,0.0324,0.013523,0.002678,0.000431,0.057354
25787000,0.0324,0.013523,0.002678,0.000431,0.042310
25788000,0.0324,0.013523,0.002678,0.000431,0.004701
25789000,0.0324,0.013523,0.002678,0.000431,0.004701
25790000,0.0324,0.013523,0.002678,0.000431,0.008462
25791000,0.0324,0.013523,0.002678,0.000431,0.015984
25792000,0.0324,0.013523,0.002678,0.000431,0.004701
25793000,0.0324,0.013523,0.002678,0.000431,0.019627
25794000,0.0324,0.013523,0.002678,0.000431,0.004584
25795000,0.0324,0.013523,0.002678,0.000431,0.004701
25796000,0.0324,0.013523,0.002678,0.000431,0.004701
25797000,0.0324,0.013523,0.002678,0.000431,0.004701
25798000,0.0324,0.013523,0.002678,0.000431,0.023506
25799000,0.0324,0.013523,0.002678,0.000431,0.015984
25800000,0.0324,0.013523,0.002678,0.000431,0.004584
25801000,0.0324,0.013523,0.002678,0.000431,0.004584
25802000,0.0324,0.013523,0.002678,0.000431,0.004701
25803000,0.0324,0.013523,0.002678,0.000431,0.027267
25804000,0.0324,0.013523,0.002678,0.000431,0.004701
25805000,0.0324,0.013523,0.002678,0.000431,0.019745
25806000,0.0324,0.013523,0.002678,0.000431,0.004701
25807000,0.0324,0.013523,0.002678,0.000431,0.021860
25808000,0.0324,0.013523,0.002678,0.000431,0.040195
25809000,0.0324,0.013523,0.002678,0.000431,0.004701
25810000,0.0324,0.013523,0.002678,0.000431,0.139388
25811000,0.0324,0.013523,0.002678,0.000431,0.019980
25812000,0.0324,0.013523,0.002678,0.000431,0.012223
25813000,0.0324,0.013523,0.002678,0.000431,0.007287
25814000,0.0324,0.013523,0.002678,0.000431,0.009637
25815000,0.0324,0.013523,0.002678,0.000431,0.004701
25816000,0.0324,0.013523,0.002678,0.000431,0.004701
25817000,0.0324,0.013523,0.002678,0.000431,0.042310
25818000,0.0324,0.013523,0.002678,0.000431,0.004701
25819000,0.0324,0.013523,0.002678,0.000431,0.004466
25820000,0.0324,0.013523,0.002678,0.000431,0.012223
25821000,0.0324,0.013523,0.002678,0.000431,0.004701
25822000,0.0324,0.013523,0.002678,0.000431,0.004701
25823000,0.0324,0.013523,0.002678,0.000431,0.004701
25824000,0.0324,0.013523,0.002678,0.000431,0.028677
25825000,0.0324,0.013523,0.002678,0.000431,0.017864
25826000,0.0324,0.013523,0.002678,0.000431,0.008462
25827000,0.0324,0.013523,0.002678,0.000431,0.008462
25828000,0.0324,0.013523,0.002678,0.000431,0.004701
25829000,0.0324,0.013523,0.002678,0.000431,0.004701
25830000,0.0324,0.013523,0.002678,0.000431,0.004701
25831000,0.0324,0.013523,0.002678,0.000431,0.083915
25832000,0.0324,0.013523,0.002678,0.000431,0.015984
25833000,0.0324,0.013523,0.002678,0.000431,0.004701
25834000,0.0324,0.013523,0.002678,0.000431,0.004701
25835000,0.0324,0.013523,0.002678,0.000431,0.004701
25836000,0.0324,0.013523,0.002678,0.000431,0.004701
25837000,0.0324,0.013523,0.002678,0.000431,0.019745
25838000,0.0324,0.013523,0.002678,0.000431,0.004701
25839000,0.0324,0.013523,0.002678,0.000431,0.027502
25840000,0.0324,0.013523,0.002678,0.000431,0.011870
25841000,0.0324,0.013523,0.002678,0.000431,0.004584
25842000,0.0324,0.013523,0.002678,0.000431,0.004701
25843000,0.0324,0.013523,0.002678,0.000431,0.074043
25844000,0.0324,0.013523,0.002678,0.000431,0.055943
25845000,0.0324,0.013523,0.002678,0.000431,0.004701
25846000,0.0324,0.013523,0.002678,0.000431,0.027267
25847000,0.0324,0.013523,0.002678,0.000431,0.004701
25848000,0.0324,0.013523,0.002678,0.000431,0.004701
25849000,0.0324,0.013523,0.002678,0.000431,0.004701
25850000,0.0324,0.013523,0.002678,0.000431,0.087794
25851000,0.0324,0.013523,0.002678,0.000431,0.079332
25852000,0.0324,0.013523,0.002678,0.000431,0.004701
25853000,0.0324,0.013523,0.002678,0.000431,0.004701
25854000,0.0324,0.013523,0.002678,0.000431,0.004701
25855000,0.0324,0.013523,0.002678,0.000431,0.004701
25856000,0.0324,0.013523,0.002678,0.000431,0.004701
25857000,0.0324,0.013523,0.002678,0.000431,0.012223
25858000,0.0324,0.013523,0.002678,0.000431,0.004701
25859000,0.0324,0.013523,0.002678,0.000431,0.004466
25860000,0.0324,0.013523,0.002678,0.000431,0.004701
25861000,0.0324,0.013523,0.002678,0.000431,0.004701
25862000,0.0324,0.013523,0.002678,0.000431,0.004701
25863000,0.0324,0.013523,0.002678,0.000431,0.025034
25864000,0.0324,0.013523,0.002678,0.000431,0.066874
25865000,0.0324,0.013523,0.002678,0.000431,0.042310
25866000,0.0324,0.013523,0.002678,0.000431,0.004701
25867000,0.0324,0.013523,0.002678,0.000431,0.004701
25868000,0.0324,0.013523,0.002678,0.000431,0.004701
25869000,0.0324,0.013523,0.002678,0.000431,0.027267
25870000,0.0324,0.013523,0.002678,0.000431,0.019745
25871000,0.0324,0.013523,0.002678,0.000431,0.020450
25872000,0.0324,0.013523,0.002678,0.000431,0.026561
25873000,0.0324,0.013523,0.002678,0.000431,0.004466
25874000,0.0324,0.013523,0.002678,0.000431,0.004701
25875000,0.0324,0.013523,0.002678,0.000431,0.004701
25876000,0.0324,0.013523,0.002678,0.000431,0.031027
25877000,0.0324,0.013523,0.002678,0.000431,0.008462
25878000,0.0324,0.013523,0.002678,0.000431,0.042310
25879000,0.0324,0.013523,0.002678,0.000431,0.004701
25880000,0.0324,0.013523,0.002678,0.000431,0.004584
25881000,0.0324,0.013523,0.002678,0.000431,0.004584
25882000,0.0324,0.013523,0.002678,0.000431,0.027502
25883000,0.0324,0.013523,0.002678,0.000431,0.004701
25884000,0.0324,0.013523,0.002678,0.000431,0.045366
25885000,0.0324,0.013523,0.002678,0.000431,0.039019
25886000,0.0324,0.013523,0.002678,0.000431,0.004701
25887000,0.0324,0.013523,0.002678,0.000431,0.004701
25888000,0.0324,0.013523,0.002678,0.000431,0.021508
25889000,0.0324,0.013523,0.002678,0.000431,0.088146
25890000,0.0324,0.013523,0.002678,0.000431,0.017277
25891000,0.0324,0.013523,0.002678,0.000431,0.034788
25892000,0.0324,0.013523,0.002678,0.000431,0.004701
25893000,0.0324,0.013523,0.002678,0.000431,0.004701
25894000,0.0324,0.013523,0.002678,0.000431,0.004701
25895000,0.0324,0.013523,0.002678,0.000431,0.019745
25896000,0.0324,0.013523,0.002678,0.000431,0.004701
25897000,0.0324,0.013523,0.002678,0.000431,0.019745
25898000,0.0324,0.013523,0.002678,0.000431,0.004701
25899000,0.0324,0.013523,0.002678,0.000431,0.004701
25900000,0.0324,0.013523,0.002678,0.000431,0.004701
25901000,0.0324,0.013523,0.002678,0.000431,0.012223
25902000,0.0324,0.013523,0.002678,0.000431,0.064876
25903000,0.0324,0.013523,0.002678,0.000431,0.004701
25904000,0.0324,0.013523,0.002678,0.000431,0.027031
25905000,0.0324,0.013523,0.002678,0.000431,0.004701
25906000,0.0324,0.013523,0.002678,0.000431,0.004701
25907000,0.0324,0.013523,0.002678,0.000431,0.004701
25908000,0.0324,0.013523,0.002678,0.000431,0.074748
25909000,0.0324,0.013523,0.002678,0.000431,0.017394
25910000,0.0324,0.013523,0.002678,0.000431,0.034788
25911000,0.0324,0.013523,0.002678,0.000431,0.004701
25912000,0.0324,0.013523,0.002678,0.000431,0.004701
25913000,0.0324,0.013523,0.002678,0.000431,0.004466
25914000,0.0324,0.013523,0.002678,0.000431,0.004701
25915000,0.0324,0.013523,0.002678,0.000431,0.027031
25916000,0.0324,0.013523,0.002678,0.000431,0.004701
25917000,0.0324,0.013523,0.002678,0.000431,0.072632
25918000,0.0324,0.013523,0.002678,0.000431,0.004701
25919000,0.0324,0.013523,0.002678,0.000431,0.004701
25920000,0.0324,0.013523,0.002678,0.000431,0.012105
25921000,0.0324,0.013523,0.002678,0.000431,0.012105
25922000,0.0324,0.013523,0.002678,0.000431,0.027267
25923000,0.0324,0.013523,0.002678,0.000431,0.049832
25924000,0.0324,0.013523,0.002678,0.000431,0.004701
25925000,0.0324,0.013523,0.002678,0.000431,0.004701
25926000,0.0324,0.013523,0.002678,0.000431,0.011165
25927000,0.0324,0.013523,0.002678,0.000431,0.013281
25928000,0.0324,0.013523,0.002678,0.000431,0.027267
25929000,0.0324,0.013523,0.002678,0.000431,0.004701
25930000,0.0324,0.013523,0.002678,0.000431,0.004701
25931000,0.0324,0.013523,0.002678,0.000431,0.004701
25932000,0.0324,0.013523,0.002678,0.000431,0.004701
25933000,0.0324,0.013523,0.002678,0.000431,0.004701
25934000,0.0324,0.013523,0.002678,0.000431,0.023506
25935000,0.0324,0.013523,0.002678,0.000431,0.015984
25936000,0.0324,0.013523,0.002678,0.000431,0.004701
25937000,0.0324,0.013523,0.002678,0.000431,0.004701
25938000,0.0324,0.013523,0.002678,0.000431,0.004701
25939000,0.0324,0.013523,0.002678,0.000431,0.004701
25940000,0.0324,0.013523,0.002678,0.000431,0.004701
25941000,0.0324,0.013523,0.002678,0.000431,0.019745
25942000,0.0324,0.013523,0.002678,0.000431,0.004701
25943000,0.0324,0.013523,0.002678,0.000431,0.004701
25944000,0.0324,0.013523,0.002678,0.000431,0.004584
25945000,0.0324,0.013523,0.002678,0.000431,0.004584
25946000,0.0324,0.013523,0.002678,0.000431,0.004701
25947000,0.0324,0.013523,0.002678,0.000431,0.061350
25948000,0.0324,0.013523,0.002678,0.000431,0.008227
25949000,0.0324,0.013523,0.002678,0.000431,0.004584
25950000,0.0324,0.013523,0.002678,0.000431,0.004584
25951000,0.0324,0.013523,0.002678,0.000431,0.004701
25952000,0.0324,0.013523,0.002678,0.000431,0.049832
25953000,0.0324,0.013523,0.002678,0.000431,0.019510
25954000,0.0324,0.013523,0.002678,0.000431,0.035023
25955000,0.0324,0.013523,0.002678,0.000431,0.012223
25956000,0.0324,0.013523,0.002678,0.000431,0.004701
25957000,0.0324,0.013523,0.002678,0.000431,0.004701
25958000,0.0324,0.013523,0.002678,0.000431,0.004701
25959000,0.0324,0.013523,0.002678,0.000431,0.012223
25960000,0.0324,0.013523,0.002678,0.000431,0.049832
25961000,0.0324,0.013523,0.002678,0.000431,0.004466
25962000,0.0324,0.013523,0.002678,0.000431,0.004701
25963000,0.0324,0.013523,0.002678,0.000431,0.004701
25964000,0.0324,0.013523,0.002678,0.000431,0.004701
25965000,0.0324,0.013523,0.002678,0.000431,0.004701
25966000,0.0324,0.013523,0.002678,0.000431,0.020215
25967000,0.0324,0.013523,0.002678,0.000431,0.166185
25968000,0.0324,0.013523,0.002678,0.000431,0.031027
25969000,0.0324,0.013523,0.002678,0.000431,0.004701
25970000,0.0324,0.013523,0.002678,0.000431,0.004701
25971000,0.0324,0.013523,0.002678,0.000431,0.012223
25972000,0.0324,0.013523,0.002678,0.000431,0.049832
25973000,0.0324,0.013523,0.002678,0.000431,0.027267
25974000,0.0324,0.013523,0.002678,0.000431,0.004701
25975000,0.0324,0.013523,0.002678,0.000431,0.004701
25976000,0.0324,0.013523,0.002678,0.000431,0.004701
25977000,0.0324,0.013523,0.002678,0.000431,0.004701
25978000,0.0324,0.013523,0.002678,0.000431,0.004701
25979000,0.0324,0.013523,0.002678,0.000431,0.015984
25980000,0.0324,0.013523,0.002678,0.000431,0.015984
25981000,0.0324,0.013523,0.002678,0.000431,0.004584
25982000,0.0324,0.013523,0.002678,0.000431,0.004584
25983000,0.0324,0.013523,0.002678,0.000431,0.004701
25984000,0.0324,0.013523,0.002678,0.000431,0.004584
25985000,0.0324,0.013523,0.002678,0.000431,0.019627
25986000,0.0324,0.013523,0.002678,0.000431,0.034788
25987000,0.0324,0.013523,0.002678,0.000431,0.030087
25988000,0.0324,0.013523,0.002678,0.000431,0.069577
25989000,0.0324,0.013523,0.002678,0.000431,0.004701
25990000,0.0324,0.013523,0.002678,0.000431,0.004701
25991000,0.0324,0.013523,0.002678,0.000431,0.012105
25992000,0.0324,0.013523,0.002678,0.000431,0.016924
25993000,0.0324,0.013523,0.002678,0.000431,0.082387
25994000,0.0324,0.013523,0.002678,0.000431,0.019745
25995000,0.0324,0.013523,0.002678,0.000431,0.004701
25996000,0.0324,0.013523,0.002678,0.000431,0.004701
25997000,0.0324,0.013523,0.002678,0.000431,0.004701
25998000,0.0324,0.013523,0.002678,0.000431,0.034788
25999000,0.0324,0.013523,0.002678,0.000431,0.012223
