Cycle,Area(mm^2),PeakDynamic(W),SubthresholdLeakage(W),GateLeakage(W),RunTimeDynamic(W)
28000000,0.0324,0.013523,0.002678,0.000431,0.004701
28001000,0.0324,0.013523,0.002678,0.000431,0.004701
28002000,0.0324,0.013523,0.002678,0.000431,0.004701
28003000,0.0324,0.013523,0.002678,0.000431,0.010460
28004000,0.0324,0.013523,0.002678,0.000431,0.104012
28005000,0.0324,0.013523,0.002678,0.000431,0.019745
28006000,0.0324,0.013523,0.002678,0.000431,0.004701
28007000,0.0324,0.013523,0.002678,0.000431,0.004701
28008000,0.0324,0.013523,0.002678,0.000431,0.004701
28009000,0.0324,0.013523,0.002678,0.000431,0.004466
28010000,0.0324,0.013523,0.002678,0.000431,0.034553
28011000,0.0324,0.013523,0.002678,0.000431,0.061115
28012000,0.0324,0.013523,0.002678,0.000431,0.015984
28013000,0.0324,0.013523,0.002678,0.000431,0.004701
28014000,0.0324,0.013523,0.002678,0.000431,0.004701
28015000,0.0324,0.013523,0.002678,0.000431,0.004701
28016000,0.0324,0.013523,0.002678,0.000431,0.004701
28017000,0.0324,0.013523,0.002678,0.000431,0.025974
28018000,0.0324,0.013523,0.002678,0.000431,0.028559
28019000,0.0324,0.013523,0.002678,0.000431,0.004701
28020000,0.0324,0.013523,0.002678,0.000431,0.004701
28021000,0.0324,0.013523,0.002678,0.000431,0.004701
28022000,0.0324,0.013523,0.002678,0.000431,0.004701
28023000,0.0324,0.013523,0.002678,0.000431,0.012223
28024000,0.0324,0.013523,0.002678,0.000431,0.072397
28025000,0.0324,0.013523,0.002678,0.000431,0.004701
28026000,0.0324,0.013523,0.002678,0.000431,0.004584
28027000,0.0324,0.013523,0.002678,0.000431,0.004584
28028000,0.0324,0.013523,0.002678,0.000431,0.004701
28029000,0.0324,0.013523,0.002678,0.000431,0.008345
28030000,0.0324,0.013523,0.002678,0.000431,0.015866
28031000,0.0324,0.013523,0.002678,0.000431,0.087441
28032000,0.0324,0.013523,0.002678,0.000431,0.004584
28033000,0.0324,0.013523,0.002678,0.000431,0.004584
28034000,0.0324,0.013523,0.002678,0.000431,0.004701
28035000,0.0324,0.013523,0.002678,0.000431,0.004701
28036000,0.0324,0.013523,0.002678,0.000431,0.012223
28037000,0.0324,0.013523,0.002678,0.000431,0.012223
28038000,0.0324,0.013523,0.002678,0.000431,0.012223
28039000,0.0324,0.013523,0.002678,0.000431,0.004701
28040000,0.0324,0.013523,0.002678,0.000431,0.004701
28041000,0.0324,0.013523,0.002678,0.000431,0.004701
28042000,0.0324,0.013523,0.002678,0.000431,0.004701
28043000,0.0324,0.013523,0.002678,0.000431,0.040665
28044000,0.0324,0.013523,0.002678,0.000431,0.066521
28045000,0.0324,0.013523,0.002678,0.000431,0.004701
28046000,0.0324,0.013523,0.002678,0.000431,0.004701
28047000,0.0324,0.013523,0.002678,0.000431,0.004701
28048000,0.0324,0.013523,0.002678,0.000431,0.004701
28049000,0.0324,0.013523,0.002678,0.000431,0.034553
28050000,0.0324,0.013523,0.002678,0.000431,0.027267
28051000,0.0324,0.013523,0.002678,0.000431,0.004701
28052000,0.0324,0.013523,0.002678,0.000431,0.004701
28053000,0.0324,0.013523,0.002678,0.000431,0.004701
28054000,0.0324,0.013523,0.002678,0.000431,0.004701
28055000,0.0324,0.013523,0.002678,0.000431,0.004701
28056000,0.0324,0.013523,0.002678,0.000431,0.029147
28057000,0.0324,0.013523,0.002678,0.000431,0.055473
28058000,0.0324,0.013523,0.002678,0.000431,0.004701
28059000,0.0324,0.013523,0.002678,0.000431,0.004701
28060000,0.0324,0.013523,0.002678,0.000431,0.004701
28061000,0.0324,0.013523,0.002678,0.000431,0.004701
28062000,0.0324,0.013523,0.002678,0.000431,0.040900
28063000,0.0324,0.013523,0.002678,0.000431,0.043485
28064000,0.0324,0.013523,0.002678,0.000431,0.004701
28065000,0.0324,0.013523,0.002678,0.000431,0.004701
28066000,0.0324,0.013523,0.002678,0.000431,0.004584
28067000,0.0324,0.013523,0.002678,0.000431,0.004584
28068000,0.0324,0.013523,0.002678,0.000431,0.049832
28069000,0.0324,0.013523,0.002678,0.000431,0.079802
28070000,0.0324,0.013523,0.002678,0.000431,0.004584
28071000,0.0324,0.013523,0.002678,0.000431,0.004701
28072000,0.0324,0.013523,0.002678,0.000431,0.004701
28073000,0.0324,0.013523,0.002678,0.000431,0.004466
28074000,0.0324,0.013523,0.002678,0.000431,0.004701
28075000,0.0324,0.013523,0.002678,0.000431,0.072867
28076000,0.0324,0.013523,0.002678,0.000431,0.086971
28077000,0.0324,0.013523,0.002678,0.000431,0.004701
28078000,0.0324,0.013523,0.002678,0.000431,0.004701
28079000,0.0324,0.013523,0.002678,0.000431,0.004701
28080000,0.0324,0.013523,0.002678,0.000431,0.004701
28081000,0.0324,0.013523,0.002678,0.000431,0.027267
28082000,0.0324,0.013523,0.002678,0.000431,0.072397
28083000,0.0324,0.013523,0.002678,0.000431,0.004701
28084000,0.0324,0.013523,0.002678,0.000431,0.004701
28085000,0.0324,0.013523,0.002678,0.000431,0.004701
28086000,0.0324,0.013523,0.002678,0.000431,0.004701
28087000,0.0324,0.013523,0.002678,0.000431,0.020802
28088000,0.0324,0.013523,0.002678,0.000431,0.033731
28089000,0.0324,0.013523,0.002678,0.000431,0.057354
28090000,0.0324,0.013523,0.002678,0.000431,0.004701
28091000,0.0324,0.013523,0.002678,0.000431,0.004701
28092000,0.0324,0.013523,0.002678,0.000431,0.004701
28093000,0.0324,0.013523,0.002678,0.000431,0.004701
28094000,0.0324,0.013523,0.002678,0.000431,0.027267
28095000,0.0324,0.013523,0.002678,0.000431,0.004701
28096000,0.0324,0.013523,0.002678,0.000431,0.004701
28097000,0.0324,0.013523,0.002678,0.000431,0.004701
28098000,0.0324,0.013523,0.002678,0.000431,0.004701
28099000,0.0324,0.013523,0.002678,0.000431,0.004701
28100000,0.0324,0.013523,0.002678,0.000431,0.012223
28101000,0.0324,0.013523,0.002678,0.000431,0.045013
28102000,0.0324,0.013523,0.002678,0.000431,0.017042
28103000,0.0324,0.013523,0.002678,0.000431,0.004701
28104000,0.0324,0.013523,0.002678,0.000431,0.004584
28105000,0.0324,0.013523,0.002678,0.000431,0.004584
28106000,0.0324,0.013523,0.002678,0.000431,0.004701
28107000,0.0324,0.013523,0.002678,0.000431,0.011988
28108000,0.0324,0.013523,0.002678,0.000431,0.050067
28109000,0.0324,0.013523,0.002678,0.000431,0.004701
28110000,0.0324,0.013523,0.002678,0.000431,0.004701
28111000,0.0324,0.013523,0.002678,0.000431,0.004701
28112000,0.0324,0.013523,0.002678,0.000431,0.004701
28113000,0.0324,0.013523,0.002678,0.000431,0.019510
28114000,0.0324,0.013523,0.002678,0.000431,0.027267
28115000,0.0324,0.013523,0.002678,0.000431,0.004701
28116000,0.0324,0.013523,0.002678,0.000431,0.004701
28117000,0.0324,0.013523,0.002678,0.000431,0.004701
28118000,0.0324,0.013523,0.002678,0.000431,0.004701
28119000,0.0324,0.013523,0.002678,0.000431,0.004701
28120000,0.0324,0.013523,0.002678,0.000431,0.031498
28121000,0.0324,0.013523,0.002678,0.000431,0.008462
28122000,0.0324,0.013523,0.002678,0.000431,0.004701
28123000,0.0324,0.013523,0.002678,0.000431,0.004701
28124000,0.0324,0.013523,0.002678,0.000431,0.004701
28125000,0.0324,0.013523,0.002678,0.000431,0.004701
28126000,0.0324,0.013523,0.002678,0.000431,0.019745
28127000,0.0324,0.013523,0.002678,0.000431,0.072045
28128000,0.0324,0.013523,0.002678,0.000431,0.020097
28129000,0.0324,0.013523,0.002678,0.000431,0.004584
28130000,0.0324,0.013523,0.002678,0.000431,0.004584
28131000,0.0324,0.013523,0.002678,0.000431,0.004701
28132000,0.0324,0.013523,0.002678,0.000431,0.008462
28133000,0.0324,0.013523,0.002678,0.000431,0.023858
28134000,0.0324,0.013523,0.002678,0.000431,0.011870
28135000,0.0324,0.013523,0.002678,0.000431,0.004701
28136000,0.0324,0.013523,0.002678,0.000431,0.004701
28137000,0.0324,0.013523,0.002678,0.000431,0.004701
28138000,0.0324,0.013523,0.002678,0.000431,0.004701
28139000,0.0324,0.013523,0.002678,0.000431,0.030087
28140000,0.0324,0.013523,0.002678,0.000431,0.032203
28141000,0.0324,0.013523,0.002678,0.000431,0.004466
28142000,0.0324,0.013523,0.002678,0.000431,0.004701
28143000,0.0324,0.013523,0.002678,0.000431,0.004701
28144000,0.0324,0.013523,0.002678,0.000431,0.004584
28145000,0.0324,0.013523,0.002678,0.000431,0.052183
28146000,0.0324,0.013523,0.002678,0.000431,0.091437
28147000,0.0324,0.013523,0.002678,0.000431,0.148438
28148000,0.0324,0.013523,0.002678,0.000431,0.004701
28149000,0.0324,0.013523,0.002678,0.000431,0.004701
28150000,0.0324,0.013523,0.002678,0.000431,0.004701
28151000,0.0324,0.013523,0.002678,0.000431,0.004701
28152000,0.0324,0.013523,0.002678,0.000431,0.042310
28153000,0.0324,0.013523,0.002678,0.000431,0.080154
28154000,0.0324,0.013523,0.002678,0.000431,0.004701
28155000,0.0324,0.013523,0.002678,0.000431,0.004701
28156000,0.0324,0.013523,0.002678,0.000431,0.004701
28157000,0.0324,0.013523,0.002678,0.000431,0.004701
28158000,0.0324,0.013523,0.002678,0.000431,0.053593
28159000,0.0324,0.013523,0.002678,0.000431,0.044191
28160000,0.0324,0.013523,0.002678,0.000431,0.036434
28161000,0.0324,0.013523,0.002678,0.000431,0.004701
28162000,0.0324,0.013523,0.002678,0.000431,0.004701
28163000,0.0324,0.013523,0.002678,0.000431,0.004701
28164000,0.0324,0.013523,0.002678,0.000431,0.004701
28165000,0.0324,0.013523,0.002678,0.000431,0.072397
28166000,0.0324,0.013523,0.002678,0.000431,0.027267
28167000,0.0324,0.013523,0.002678,0.000431,0.004701
28168000,0.0324,0.013523,0.002678,0.000431,0.004701
28169000,0.0324,0.013523,0.002678,0.000431,0.004701
28170000,0.0324,0.013523,0.002678,0.000431,0.004466
28171000,0.0324,0.013523,0.002678,0.000431,0.004701
28172000,0.0324,0.013523,0.002678,0.000431,0.015749
28173000,0.0324,0.013523,0.002678,0.000431,0.008697
28174000,0.0324,0.013523,0.002678,0.000431,0.004701
28175000,0.0324,0.013523,0.002678,0.000431,0.004701
28176000,0.0324,0.013523,0.002678,0.000431,0.004701
28177000,0.0324,0.013523,0.002678,0.000431,0.012223
28178000,0.0324,0.013523,0.002678,0.000431,0.012105
28179000,0.0324,0.013523,0.002678,0.000431,0.012105
28180000,0.0324,0.013523,0.002678,0.000431,0.004701
28181000,0.0324,0.013523,0.002678,0.000431,0.004701
28182000,0.0324,0.013523,0.002678,0.000431,0.004701
28183000,0.0324,0.013523,0.002678,0.000431,0.004701
28184000,0.0324,0.013523,0.002678,0.000431,0.064641
28185000,0.0324,0.013523,0.002678,0.000431,0.106481
28186000,0.0324,0.013523,0.002678,0.000431,0.015514
28187000,0.0324,0.013523,0.002678,0.000431,0.004701
28188000,0.0324,0.013523,0.002678,0.000431,0.004701
28189000,0.0324,0.013523,0.002678,0.000431,0.004701
28190000,0.0324,0.013523,0.002678,0.000431,0.015984
28191000,0.0324,0.013523,0.002678,0.000431,0.083680
28192000,0.0324,0.013523,0.002678,0.000431,0.034788
28193000,0.0324,0.013523,0.002678,0.000431,0.004701
28194000,0.0324,0.013523,0.002678,0.000431,0.004701
28195000,0.0324,0.013523,0.002678,0.000431,0.004701
28196000,0.0324,0.013523,0.002678,0.000431,0.004701
28197000,0.0324,0.013523,0.002678,0.000431,0.012223
28198000,0.0324,0.013523,0.002678,0.000431,0.087676
28199000,0.0324,0.013523,0.002678,0.000431,0.004701
28200000,0.0324,0.013523,0.002678,0.000431,0.004701
28201000,0.0324,0.013523,0.002678,0.000431,0.004701
28202000,0.0324,0.013523,0.002678,0.000431,0.004701
28203000,0.0324,0.013523,0.002678,0.000431,0.004701
28204000,0.0324,0.013523,0.002678,0.000431,0.007757
28205000,0.0324,0.013523,0.002678,0.000431,0.046776
28206000,0.0324,0.013523,0.002678,0.000431,0.004701
28207000,0.0324,0.013523,0.002678,0.000431,0.004701
28208000,0.0324,0.013523,0.002678,0.000431,0.004701
28209000,0.0324,0.013523,0.002678,0.000431,0.004701
28210000,0.0324,0.013523,0.002678,0.000431,0.102014
28211000,0.0324,0.013523,0.002678,0.000431,0.072397
28212000,0.0324,0.013523,0.002678,0.000431,0.004701
28213000,0.0324,0.013523,0.002678,0.000431,0.004701
28214000,0.0324,0.013523,0.002678,0.000431,0.004701
28215000,0.0324,0.013523,0.002678,0.000431,0.004701
28216000,0.0324,0.013523,0.002678,0.000431,0.012223
28217000,0.0324,0.013523,0.002678,0.000431,0.029147
28218000,0.0324,0.013523,0.002678,0.000431,0.047951
28219000,0.0324,0.013523,0.002678,0.000431,0.004701
28220000,0.0324,0.013523,0.002678,0.000431,0.004701
28221000,0.0324,0.013523,0.002678,0.000431,0.004701
28222000,0.0324,0.013523,0.002678,0.000431,0.005171
28223000,0.0324,0.013523,0.002678,0.000431,0.004701
28224000,0.0324,0.013523,0.002678,0.000431,0.072632
28225000,0.0324,0.013523,0.002678,0.000431,0.004701
28226000,0.0324,0.013523,0.002678,0.000431,0.004701
28227000,0.0324,0.013523,0.002678,0.000431,0.004701
28228000,0.0324,0.013523,0.002678,0.000431,0.004701
28229000,0.0324,0.013523,0.002678,0.000431,0.019745
28230000,0.0324,0.013523,0.002678,0.000431,0.026796
28231000,0.0324,0.013523,0.002678,0.000431,0.005171
28232000,0.0324,0.013523,0.002678,0.000431,0.004701
28233000,0.0324,0.013523,0.002678,0.000431,0.004701
28234000,0.0324,0.013523,0.002678,0.000431,0.004701
28235000,0.0324,0.013523,0.002678,0.000431,0.004701
28236000,0.0324,0.013523,0.002678,0.000431,0.004466
28237000,0.0324,0.013523,0.002678,0.000431,0.042310
28238000,0.0324,0.013523,0.002678,0.000431,0.004701
28239000,0.0324,0.013523,0.002678,0.000431,0.004701
28240000,0.0324,0.013523,0.002678,0.000431,0.004701
28241000,0.0324,0.013523,0.002678,0.000431,0.004701
28242000,0.0324,0.013523,0.002678,0.000431,0.027267
28243000,0.0324,0.013523,0.002678,0.000431,0.012223
28244000,0.0324,0.013523,0.002678,0.000431,0.004701
28245000,0.0324,0.013523,0.002678,0.000431,0.004701
28246000,0.0324,0.013523,0.002678,0.000431,0.004701
28247000,0.0324,0.013523,0.002678,0.000431,0.004466
28248000,0.0324,0.013523,0.002678,0.000431,0.019745
28249000,0.0324,0.013523,0.002678,0.000431,0.004701
28250000,0.0324,0.013523,0.002678,0.000431,0.019745
28251000,0.0324,0.013523,0.002678,0.000431,0.004584
28252000,0.0324,0.013523,0.002678,0.000431,0.004584
28253000,0.0324,0.013523,0.002678,0.000431,0.004701
28254000,0.0324,0.013523,0.002678,0.000431,0.004701
28255000,0.0324,0.013523,0.002678,0.000431,0.027267
28256000,0.0324,0.013523,0.002678,0.000431,0.012223
28257000,0.0324,0.013523,0.002678,0.000431,0.027267
28258000,0.0324,0.013523,0.002678,0.000431,0.004701
28259000,0.0324,0.013523,0.002678,0.000431,0.004701
28260000,0.0324,0.013523,0.002678,0.000431,0.004701
28261000,0.0324,0.013523,0.002678,0.000431,0.165362
28262000,0.0324,0.013523,0.002678,0.000431,0.050655
28263000,0.0324,0.013523,0.002678,0.000431,0.008462
28264000,0.0324,0.013523,0.002678,0.000431,0.004701
28265000,0.0324,0.013523,0.002678,0.000431,0.004701
28266000,0.0324,0.013523,0.002678,0.000431,0.004701
28267000,0.0324,0.013523,0.002678,0.000431,0.025034
28268000,0.0324,0.013523,0.002678,0.000431,0.044543
28269000,0.0324,0.013523,0.002678,0.000431,0.041840
28270000,0.0324,0.013523,0.002678,0.000431,0.065581
28271000,0.0324,0.013523,0.002678,0.000431,0.004701
28272000,0.0324,0.013523,0.002678,0.000431,0.004701
28273000,0.0324,0.013523,0.002678,0.000431,0.004701
28274000,0.0324,0.013523,0.002678,0.000431,0.004701
28275000,0.0324,0.013523,0.002678,0.000431,0.004701
28276000,0.0324,0.013523,0.002678,0.000431,0.042663
28277000,0.0324,0.013523,0.002678,0.000431,0.004584
28278000,0.0324,0.013523,0.002678,0.000431,0.004701
28279000,0.0324,0.013523,0.002678,0.000431,0.004701
28280000,0.0324,0.013523,0.002678,0.000431,0.012223
28281000,0.0324,0.013523,0.002678,0.000431,0.019745
28282000,0.0324,0.013523,0.002678,0.000431,0.032790
28283000,0.0324,0.013523,0.002678,0.000431,0.051595
28284000,0.0324,0.013523,0.002678,0.000431,0.004701
28285000,0.0324,0.013523,0.002678,0.000431,0.004701
28286000,0.0324,0.013523,0.002678,0.000431,0.004701
28287000,0.0324,0.013523,0.002678,0.000431,0.019745
28288000,0.0324,0.013523,0.002678,0.000431,0.004701
28289000,0.0324,0.013523,0.002678,0.000431,0.004701
28290000,0.0324,0.013523,0.002678,0.000431,0.004701
28291000,0.0324,0.013523,0.002678,0.000431,0.004701
28292000,0.0324,0.013523,0.002678,0.000431,0.004701
28293000,0.0324,0.013523,0.002678,0.000431,0.004701
28294000,0.0324,0.013523,0.002678,0.000431,0.049832
28295000,0.0324,0.013523,0.002678,0.000431,0.072397
28296000,0.0324,0.013523,0.002678,0.000431,0.004701
28297000,0.0324,0.013523,0.002678,0.000431,0.004701
28298000,0.0324,0.013523,0.002678,0.000431,0.004701
28299000,0.0324,0.013523,0.002678,0.000431,0.004701
28300000,0.0324,0.013523,0.002678,0.000431,0.042310
28301000,0.0324,0.013523,0.002678,0.000431,0.061702
28302000,0.0324,0.013523,0.002678,0.000431,0.015161
28303000,0.0324,0.013523,0.002678,0.000431,0.004701
28304000,0.0324,0.013523,0.002678,0.000431,0.004701
28305000,0.0324,0.013523,0.002678,0.000431,0.004701
28306000,0.0324,0.013523,0.002678,0.000431,0.014926
28307000,0.0324,0.013523,0.002678,0.000431,0.016924
28308000,0.0324,0.013523,0.002678,0.000431,0.042193
28309000,0.0324,0.013523,0.002678,0.000431,0.004701
28310000,0.0324,0.013523,0.002678,0.000431,0.004584
28311000,0.0324,0.013523,0.002678,0.000431,0.004584
28312000,0.0324,0.013523,0.002678,0.000431,0.004701
28313000,0.0324,0.013523,0.002678,0.000431,0.079684
28314000,0.0324,0.013523,0.002678,0.000431,0.008462
28315000,0.0324,0.013523,0.002678,0.000431,0.031027
28316000,0.0324,0.013523,0.002678,0.000431,0.004701
28317000,0.0324,0.013523,0.002678,0.000431,0.004701
28318000,0.0324,0.013523,0.002678,0.000431,0.004701
28319000,0.0324,0.013523,0.002678,0.000431,0.058882
28320000,0.0324,0.013523,0.002678,0.000431,0.048304
28321000,0.0324,0.013523,0.002678,0.000431,0.103660
28322000,0.0324,0.013523,0.002678,0.000431,0.026326
28323000,0.0324,0.013523,0.002678,0.000431,0.004701
28324000,0.0324,0.013523,0.002678,0.000431,0.004701
28325000,0.0324,0.013523,0.002678,0.000431,0.004701
28326000,0.0324,0.013523,0.002678,0.000431,0.169946
28327000,0.0324,0.013523,0.002678,0.000431,0.004701
28328000,0.0324,0.013523,0.002678,0.000431,0.004701
28329000,0.0324,0.013523,0.002678,0.000431,0.004701
28330000,0.0324,0.013523,0.002678,0.000431,0.004466
28331000,0.0324,0.013523,0.002678,0.000431,0.004701
28332000,0.0324,0.013523,0.002678,0.000431,0.004701
28333000,0.0324,0.013523,0.002678,0.000431,0.019745
28334000,0.0324,0.013523,0.002678,0.000431,0.004701
28335000,0.0324,0.013523,0.002678,0.000431,0.004701
28336000,0.0324,0.013523,0.002678,0.000431,0.004701
28337000,0.0324,0.013523,0.002678,0.000431,0.004466
28338000,0.0324,0.013523,0.002678,0.000431,0.004466
28339000,0.0324,0.013523,0.002678,0.000431,0.004701
28340000,0.0324,0.013523,0.002678,0.000431,0.023506
28341000,0.0324,0.013523,0.002678,0.000431,0.031262
28342000,0.0324,0.013523,0.002678,0.000431,0.004701
28343000,0.0324,0.013523,0.002678,0.000431,0.004701
28344000,0.0324,0.013523,0.002678,0.000431,0.004701
28345000,0.0324,0.013523,0.002678,0.000431,0.008462
28346000,0.0324,0.013523,0.002678,0.000431,0.008462
28347000,0.0324,0.013523,0.002678,0.000431,0.042310
28348000,0.0324,0.013523,0.002678,0.000431,0.004701
28349000,0.0324,0.013523,0.002678,0.000431,0.004701
28350000,0.0324,0.013523,0.002678,0.000431,0.004584
28351000,0.0324,0.013523,0.002678,0.000431,0.049479
28352000,0.0324,0.013523,0.002678,0.000431,0.117293
28353000,0.0324,0.013523,0.002678,0.000431,0.025739
28354000,0.0324,0.013523,0.002678,0.000431,0.073925
28355000,0.0324,0.013523,0.002678,0.000431,0.004701
28356000,0.0324,0.013523,0.002678,0.000431,0.004701
28357000,0.0324,0.013523,0.002678,0.000431,0.024093
28358000,0.0324,0.013523,0.002678,0.000431,0.124932
28359000,0.0324,0.013523,0.002678,0.000431,0.008462
28360000,0.0324,0.013523,0.002678,0.000431,0.027267
28361000,0.0324,0.013523,0.002678,0.000431,0.004701
28362000,0.0324,0.013523,0.002678,0.000431,0.004701
28363000,0.0324,0.013523,0.002678,0.000431,0.004701
28364000,0.0324,0.013523,0.002678,0.000431,0.015984
28365000,0.0324,0.013523,0.002678,0.000431,0.023506
28366000,0.0324,0.013523,0.002678,0.000431,0.077921
28367000,0.0324,0.013523,0.002678,0.000431,0.043838
28368000,0.0324,0.013523,0.002678,0.000431,0.004701
28369000,0.0324,0.013523,0.002678,0.000431,0.004701
28370000,0.0324,0.013523,0.002678,0.000431,0.008462
28371000,0.0324,0.013523,0.002678,0.000431,0.017277
28372000,0.0324,0.013523,0.002678,0.000431,0.010930
28373000,0.0324,0.013523,0.002678,0.000431,0.042310
28374000,0.0324,0.013523,0.002678,0.000431,0.004701
28375000,0.0324,0.013523,0.002678,0.000431,0.004701
28376000,0.0324,0.013523,0.002678,0.000431,0.004701
28377000,0.0324,0.013523,0.002678,0.000431,0.064876
28378000,0.0324,0.013523,0.002678,0.000431,0.004466
28379000,0.0324,0.013523,0.002678,0.000431,0.004701
28380000,0.0324,0.013523,0.002678,0.000431,0.004466
28381000,0.0324,0.013523,0.002678,0.000431,0.004701
28382000,0.0324,0.013523,0.002678,0.000431,0.004466
28383000,0.0324,0.013523,0.002678,0.000431,0.023036
28384000,0.0324,0.013523,0.002678,0.000431,0.046541
28385000,0.0324,0.013523,0.002678,0.000431,0.034788
28386000,0.0324,0.013523,0.002678,0.000431,0.042310
28387000,0.0324,0.013523,0.002678,0.000431,0.004701
28388000,0.0324,0.013523,0.002678,0.000431,0.004701
28389000,0.0324,0.013523,0.002678,0.000431,0.004701
28390000,0.0324,0.013523,0.002678,0.000431,0.032908
28391000,0.0324,0.013523,0.002678,0.000431,0.044308
28392000,0.0324,0.013523,0.002678,0.000431,0.049714
28393000,0.0324,0.013523,0.002678,0.000431,0.050067
28394000,0.0324,0.013523,0.002678,0.000431,0.004701
28395000,0.0324,0.013523,0.002678,0.000431,0.004701
28396000,0.0324,0.013523,0.002678,0.000431,0.004701
28397000,0.0324,0.013523,0.002678,0.000431,0.034788
28398000,0.0324,0.013523,0.002678,0.000431,0.012458
28399000,0.0324,0.013523,0.002678,0.000431,0.012223
28400000,0.0324,0.013523,0.002678,0.000431,0.012223
28401000,0.0324,0.013523,0.002678,0.000431,0.004701
28402000,0.0324,0.013523,0.002678,0.000431,0.004701
28403000,0.0324,0.013523,0.002678,0.000431,0.004936
28404000,0.0324,0.013523,0.002678,0.000431,0.004701
28405000,0.0324,0.013523,0.002678,0.000431,0.004701
28406000,0.0324,0.013523,0.002678,0.000431,0.042310
28407000,0.0324,0.013523,0.002678,0.000431,0.004701
28408000,0.0324,0.013523,0.002678,0.000431,0.004701
28409000,0.0324,0.013523,0.002678,0.000431,0.027502
28410000,0.0324,0.013523,0.002678,0.000431,0.004701
28411000,0.0324,0.013523,0.002678,0.000431,0.087206
28412000,0.0324,0.013523,0.002678,0.000431,0.004701
28413000,0.0324,0.013523,0.002678,0.000431,0.004701
28414000,0.0324,0.013523,0.002678,0.000431,0.004701
28415000,0.0324,0.013523,0.002678,0.000431,0.004701
28416000,0.0324,0.013523,0.002678,0.000431,0.042310
28417000,0.0324,0.013523,0.002678,0.000431,0.096843
28418000,0.0324,0.013523,0.002678,0.000431,0.077804
28419000,0.0324,0.013523,0.002678,0.000431,0.027267
28420000,0.0324,0.013523,0.002678,0.000431,0.004701
28421000,0.0324,0.013523,0.002678,0.000431,0.004701
28422000,0.0324,0.013523,0.002678,0.000431,0.004466
28423000,0.0324,0.013523,0.002678,0.000431,0.030675
28424000,0.0324,0.013523,0.002678,0.000431,0.076511
28425000,0.0324,0.013523,0.002678,0.000431,0.012223
28426000,0.0324,0.013523,0.002678,0.000431,0.004466
28427000,0.0324,0.013523,0.002678,0.000431,0.004701
28428000,0.0324,0.013523,0.002678,0.000431,0.004701
28429000,0.0324,0.013523,0.002678,0.000431,0.049832
28430000,0.0324,0.013523,0.002678,0.000431,0.076158
28431000,0.0324,0.013523,0.002678,0.000431,0.031027
28432000,0.0324,0.013523,0.002678,0.000431,0.012223
28433000,0.0324,0.013523,0.002678,0.000431,0.004701
28434000,0.0324,0.013523,0.002678,0.000431,0.004701
28435000,0.0324,0.013523,0.002678,0.000431,0.004701
28436000,0.0324,0.013523,0.002678,0.000431,0.027267
28437000,0.0324,0.013523,0.002678,0.000431,0.034788
28438000,0.0324,0.013523,0.002678,0.000431,0.019745
28439000,0.0324,0.013523,0.002678,0.000431,0.004701
28440000,0.0324,0.013523,0.002678,0.000431,0.004701
28441000,0.0324,0.013523,0.002678,0.000431,0.004701
28442000,0.0324,0.013523,0.002678,0.000431,0.060880
28443000,0.0324,0.013523,0.002678,0.000431,0.023506
28444000,0.0324,0.013523,0.002678,0.000431,0.092612
28445000,0.0324,0.013523,0.002678,0.000431,0.007052
28446000,0.0324,0.013523,0.002678,0.000431,0.004701
28447000,0.0324,0.013523,0.002678,0.000431,0.004701
28448000,0.0324,0.013523,0.002678,0.000431,0.004701
28449000,0.0324,0.013523,0.002678,0.000431,0.037256
28450000,0.0324,0.013523,0.002678,0.000431,0.032320
28451000,0.0324,0.013523,0.002678,0.000431,0.079919
28452000,0.0324,0.013523,0.002678,0.000431,0.004701
28453000,0.0324,0.013523,0.002678,0.000431,0.004701
28454000,0.0324,0.013523,0.002678,0.000431,0.031027
28455000,0.0324,0.013523,0.002678,0.000431,0.023506
28456000,0.0324,0.013523,0.002678,0.000431,0.008462
28457000,0.0324,0.013523,0.002678,0.000431,0.008462
28458000,0.0324,0.013523,0.002678,0.000431,0.004701
28459000,0.0324,0.013523,0.002678,0.000431,0.004701
28460000,0.0324,0.013523,0.002678,0.000431,0.004701
28461000,0.0324,0.013523,0.002678,0.000431,0.004701
28462000,0.0324,0.013523,0.002678,0.000431,0.004466
28463000,0.0324,0.013523,0.002678,0.000431,0.013516
28464000,0.0324,0.013523,0.002678,0.000431,0.025974
28465000,0.0324,0.013523,0.002678,0.000431,0.004701
28466000,0.0324,0.013523,0.002678,0.000431,0.004466
28467000,0.0324,0.013523,0.002678,0.000431,0.012223
28468000,0.0324,0.013523,0.002678,0.000431,0.004701
28469000,0.0324,0.013523,0.002678,0.000431,0.004466
28470000,0.0324,0.013523,0.002678,0.000431,0.034788
28471000,0.0324,0.013523,0.002678,0.000431,0.004701
28472000,0.0324,0.013523,0.002678,0.000431,0.004701
28473000,0.0324,0.013523,0.002678,0.000431,0.004701
28474000,0.0324,0.013523,0.002678,0.000431,0.159603
28475000,0.0324,0.013523,0.002678,0.000431,0.022330
28476000,0.0324,0.013523,0.002678,0.000431,0.061115
28477000,0.0324,0.013523,0.002678,0.000431,0.038549
28478000,0.0324,0.013523,0.002678,0.000431,0.004701
28479000,0.0324,0.013523,0.002678,0.000431,0.004701
28480000,0.0324,0.013523,0.002678,0.000431,0.023036
28481000,0.0324,0.013523,0.002678,0.000431,0.031498
28482000,0.0324,0.013523,0.002678,0.000431,0.038549
28483000,0.0324,0.013523,0.002678,0.000431,0.008462
28484000,0.0324,0.013523,0.002678,0.000431,0.004701
28485000,0.0324,0.013523,0.002678,0.000431,0.004701
28486000,0.0324,0.013523,0.002678,0.000431,0.025151
28487000,0.0324,0.013523,0.002678,0.000431,0.051712
28488000,0.0324,0.013523,0.002678,0.000431,0.004701
28489000,0.0324,0.013523,0.002678,0.000431,0.015984
28490000,0.0324,0.013523,0.002678,0.000431,0.008462
28491000,0.0324,0.013523,0.002678,0.000431,0.004701
28492000,0.0324,0.013523,0.002678,0.000431,0.004701
28493000,0.0324,0.013523,0.002678,0.000431,0.042310
28494000,0.0324,0.013523,0.002678,0.000431,0.004701
28495000,0.0324,0.013523,0.002678,0.000431,0.034788
28496000,0.0324,0.013523,0.002678,0.000431,0.004701
28497000,0.0324,0.013523,0.002678,0.000431,0.004701
28498000,0.0324,0.013523,0.002678,0.000431,0.004701
28499000,0.0324,0.013523,0.002678,0.000431,0.006111
28500000,0.0324,0.013523,0.002678,0.000431,0.018334
28501000,0.0324,0.013523,0.002678,0.000431,0.016571
28502000,0.0324,0.013523,0.002678,0.000431,0.045248
28503000,0.0324,0.013523,0.002678,0.000431,0.004701
28504000,0.0324,0.013523,0.002678,0.000431,0.004701
28505000,0.0324,0.013523,0.002678,0.000431,0.004701
28506000,0.0324,0.013523,0.002678,0.000431,0.004466
28507000,0.0324,0.013523,0.002678,0.000431,0.012223
28508000,0.0324,0.013523,0.002678,0.000431,0.049832
28509000,0.0324,0.013523,0.002678,0.000431,0.034553
28510000,0.0324,0.013523,0.002678,0.000431,0.004701
28511000,0.0324,0.013523,0.002678,0.000431,0.004701
28512000,0.0324,0.013523,0.002678,0.000431,0.004701
28513000,0.0324,0.013523,0.002678,0.000431,0.004701
28514000,0.0324,0.013523,0.002678,0.000431,0.053005
28515000,0.0324,0.013523,0.002678,0.000431,0.062525
28516000,0.0324,0.013523,0.002678,0.000431,0.012340
28517000,0.0324,0.013523,0.002678,0.000431,0.004701
28518000,0.0324,0.013523,0.002678,0.000431,0.004701
28519000,0.0324,0.013523,0.002678,0.000431,0.055003
28520000,0.0324,0.013523,0.002678,0.000431,0.014573
28521000,0.0324,0.013523,0.002678,0.000431,0.004701
28522000,0.0324,0.013523,0.002678,0.000431,0.027502
28523000,0.0324,0.013523,0.002678,0.000431,0.004701
28524000,0.0324,0.013523,0.002678,0.000431,0.004701
28525000,0.0324,0.013523,0.002678,0.000431,0.005289
28526000,0.0324,0.013523,0.002678,0.000431,0.120936
28527000,0.0324,0.013523,0.002678,0.000431,0.046071
28528000,0.0324,0.013523,0.002678,0.000431,0.004701
28529000,0.0324,0.013523,0.002678,0.000431,0.004701
28530000,0.0324,0.013523,0.002678,0.000431,0.004701
28531000,0.0324,0.013523,0.002678,0.000431,0.004701
28532000,0.0324,0.013523,0.002678,0.000431,0.004701
28533000,0.0324,0.013523,0.002678,0.000431,0.004936
28534000,0.0324,0.013523,0.002678,0.000431,0.004701
28535000,0.0324,0.013523,0.002678,0.000431,0.012223
28536000,0.0324,0.013523,0.002678,0.000431,0.004701
28537000,0.0324,0.013523,0.002678,0.000431,0.004701
28538000,0.0324,0.013523,0.002678,0.000431,0.065346
28539000,0.0324,0.013523,0.002678,0.000431,0.049832
28540000,0.0324,0.013523,0.002678,0.000431,0.004701
28541000,0.0324,0.013523,0.002678,0.000431,0.004701
28542000,0.0324,0.013523,0.002678,0.000431,0.004584
28543000,0.0324,0.013523,0.002678,0.000431,0.004584
28544000,0.0324,0.013523,0.002678,0.000431,0.004701
28545000,0.0324,0.013523,0.002678,0.000431,0.055003
28546000,0.0324,0.013523,0.002678,0.000431,0.022448
28547000,0.0324,0.013523,0.002678,0.000431,0.004584
28548000,0.0324,0.013523,0.002678,0.000431,0.004701
28549000,0.0324,0.013523,0.002678,0.000431,0.004466
28550000,0.0324,0.013523,0.002678,0.000431,0.004701
28551000,0.0324,0.013523,0.002678,0.000431,0.004701
28552000,0.0324,0.013523,0.002678,0.000431,0.102485
28553000,0.0324,0.013523,0.002678,0.000431,0.004701
28554000,0.0324,0.013523,0.002678,0.000431,0.019745
28555000,0.0324,0.013523,0.002678,0.000431,0.004701
28556000,0.0324,0.013523,0.002678,0.000431,0.004701
28557000,0.0324,0.013523,0.002678,0.000431,0.004701
28558000,0.0324,0.013523,0.002678,0.000431,0.010342
28559000,0.0324,0.013523,0.002678,0.000431,0.044191
28560000,0.0324,0.013523,0.002678,0.000431,0.019745
28561000,0.0324,0.013523,0.002678,0.000431,0.004701
28562000,0.0324,0.013523,0.002678,0.000431,0.004701
28563000,0.0324,0.013523,0.002678,0.000431,0.004701
28564000,0.0324,0.013523,0.002678,0.000431,0.065581
28565000,0.0324,0.013523,0.002678,0.000431,0.057119
28566000,0.0324,0.013523,0.002678,0.000431,0.004701
28567000,0.0324,0.013523,0.002678,0.000431,0.027031
28568000,0.0324,0.013523,0.002678,0.000431,0.004584
28569000,0.0324,0.013523,0.002678,0.000431,0.004584
28570000,0.0324,0.013523,0.002678,0.000431,0.004701
28571000,0.0324,0.013523,0.002678,0.000431,0.097666
28572000,0.0324,0.013523,0.002678,0.000431,0.017042
28573000,0.0324,0.013523,0.002678,0.000431,0.089439
28574000,0.0324,0.013523,0.002678,0.000431,0.040547
28575000,0.0324,0.013523,0.002678,0.000431,0.004701
28576000,0.0324,0.013523,0.002678,0.000431,0.004701
28577000,0.0324,0.013523,0.002678,0.000431,0.087206
28578000,0.0324,0.013523,0.002678,0.000431,0.027267
28579000,0.0324,0.013523,0.002678,0.000431,0.004701
28580000,0.0324,0.013523,0.002678,0.000431,0.019745
28581000,0.0324,0.013523,0.002678,0.000431,0.004701
28582000,0.0324,0.013523,0.002678,0.000431,0.004701
28583000,0.0324,0.013523,0.002678,0.000431,0.004701
28584000,0.0324,0.013523,0.002678,0.000431,0.042075
28585000,0.0324,0.013523,0.002678,0.000431,0.004584
28586000,0.0324,0.013523,0.002678,0.000431,0.012105
28587000,0.0324,0.013523,0.002678,0.000431,0.004701
28588000,0.0324,0.013523,0.002678,0.000431,0.004701
28589000,0.0324,0.013523,0.002678,0.000431,0.004701
28590000,0.0324,0.013523,0.002678,0.000431,0.075218
28591000,0.0324,0.013523,0.002678,0.000431,0.105423
28592000,0.0324,0.013523,0.002678,0.000431,0.051360
28593000,0.0324,0.013523,0.002678,0.000431,0.012223
28594000,0.0324,0.013523,0.002678,0.000431,0.004701
28595000,0.0324,0.013523,0.002678,0.000431,0.004701
28596000,0.0324,0.013523,0.002678,0.000431,0.057354
28597000,0.0324,0.013523,0.002678,0.000431,0.027267
28598000,0.0324,0.013523,0.002678,0.000431,0.004701
28599000,0.0324,0.013523,0.002678,0.000431,0.004701
28600000,0.0324,0.013523,0.002678,0.000431,0.004466
28601000,0.0324,0.013523,0.002678,0.000431,0.004701
28602000,0.0324,0.013523,0.002678,0.000431,0.004701
28603000,0.0324,0.013523,0.002678,0.000431,0.027267
28604000,0.0324,0.013523,0.002678,0.000431,0.043250
28605000,0.0324,0.013523,0.002678,0.000431,0.041370
28606000,0.0324,0.013523,0.002678,0.000431,0.004701
28607000,0.0324,0.013523,0.002678,0.000431,0.004466
28608000,0.0324,0.013523,0.002678,0.000431,0.004701
28609000,0.0324,0.013523,0.002678,0.000431,0.019745
28610000,0.0324,0.013523,0.002678,0.000431,0.034788
28611000,0.0324,0.013523,0.002678,0.000431,0.046659
28612000,0.0324,0.013523,0.002678,0.000431,0.068049
28613000,0.0324,0.013523,0.002678,0.000431,0.004701
28614000,0.0324,0.013523,0.002678,0.000431,0.004701
28615000,0.0324,0.013523,0.002678,0.000431,0.018805
28616000,0.0324,0.013523,0.002678,0.000431,0.103190
28617000,0.0324,0.013523,0.002678,0.000431,0.004701
28618000,0.0324,0.013523,0.002678,0.000431,0.012223
28619000,0.0324,0.013523,0.002678,0.000431,0.004701
28620000,0.0324,0.013523,0.002678,0.000431,0.004701
28621000,0.0324,0.013523,0.002678,0.000431,0.004701
28622000,0.0324,0.013523,0.002678,0.000431,0.035023
28623000,0.0324,0.013523,0.002678,0.000431,0.004701
28624000,0.0324,0.013523,0.002678,0.000431,0.098959
28625000,0.0324,0.013523,0.002678,0.000431,0.053240
28626000,0.0324,0.013523,0.002678,0.000431,0.004584
28627000,0.0324,0.013523,0.002678,0.000431,0.004701
28628000,0.0324,0.013523,0.002678,0.000431,0.016219
28629000,0.0324,0.013523,0.002678,0.000431,0.034553
28630000,0.0324,0.013523,0.002678,0.000431,0.004819
28631000,0.0324,0.013523,0.002678,0.000431,0.117411
28632000,0.0324,0.013523,0.002678,0.000431,0.004701
28633000,0.0324,0.013523,0.002678,0.000431,0.004701
28634000,0.0324,0.013523,0.002678,0.000431,0.004701
28635000,0.0324,0.013523,0.002678,0.000431,0.125520
28636000,0.0324,0.013523,0.002678,0.000431,0.012223
28637000,0.0324,0.013523,0.002678,0.000431,0.023506
28638000,0.0324,0.013523,0.002678,0.000431,0.023741
28639000,0.0324,0.013523,0.002678,0.000431,0.004701
28640000,0.0324,0.013523,0.002678,0.000431,0.004701
28641000,0.0324,0.013523,0.002678,0.000431,0.004701
28642000,0.0324,0.013523,0.002678,0.000431,0.042075
28643000,0.0324,0.013523,0.002678,0.000431,0.004701
28644000,0.0324,0.013523,0.002678,0.000431,0.012223
28645000,0.0324,0.013523,0.002678,0.000431,0.004701
28646000,0.0324,0.013523,0.002678,0.000431,0.004701
28647000,0.0324,0.013523,0.002678,0.000431,0.004701
28648000,0.0324,0.013523,0.002678,0.000431,0.020567
28649000,0.0324,0.013523,0.002678,0.000431,0.049244
28650000,0.0324,0.013523,0.002678,0.000431,0.008462
28651000,0.0324,0.013523,0.002678,0.000431,0.008462
28652000,0.0324,0.013523,0.002678,0.000431,0.004466
28653000,0.0324,0.013523,0.002678,0.000431,0.004701
28654000,0.0324,0.013523,0.002678,0.000431,0.019745
28655000,0.0324,0.013523,0.002678,0.000431,0.004701
28656000,0.0324,0.013523,0.002678,0.000431,0.019745
28657000,0.0324,0.013523,0.002678,0.000431,0.042310
28658000,0.0324,0.013523,0.002678,0.000431,0.019745
28659000,0.0324,0.013523,0.002678,0.000431,0.004701
28660000,0.0324,0.013523,0.002678,0.000431,0.004701
28661000,0.0324,0.013523,0.002678,0.000431,0.012223
28662000,0.0324,0.013523,0.002678,0.000431,0.004701
28663000,0.0324,0.013523,0.002678,0.000431,0.019745
28664000,0.0324,0.013523,0.002678,0.000431,0.027267
28665000,0.0324,0.013523,0.002678,0.000431,0.004701
28666000,0.0324,0.013523,0.002678,0.000431,0.004701
28667000,0.0324,0.013523,0.002678,0.000431,0.004701
28668000,0.0324,0.013523,0.002678,0.000431,0.004701
28669000,0.0324,0.013523,0.002678,0.000431,0.057354
28670000,0.0324,0.013523,0.002678,0.000431,0.004584
28671000,0.0324,0.013523,0.002678,0.000431,0.008345
28672000,0.0324,0.013523,0.002678,0.000431,0.015984
28673000,0.0324,0.013523,0.002678,0.000431,0.004701
28674000,0.0324,0.013523,0.002678,0.000431,0.004584
28675000,0.0324,0.013523,0.002678,0.000431,0.004584
28676000,0.0324,0.013523,0.002678,0.000431,0.049597
28677000,0.0324,0.013523,0.002678,0.000431,0.012928
28678000,0.0324,0.013523,0.002678,0.000431,0.004701
28679000,0.0324,0.013523,0.002678,0.000431,0.004701
28680000,0.0324,0.013523,0.002678,0.000431,0.027267
28681000,0.0324,0.013523,0.002678,0.000431,0.033966
28682000,0.0324,0.013523,0.002678,0.000431,0.043133
28683000,0.0324,0.013523,0.002678,0.000431,0.004701
28684000,0.0324,0.013523,0.002678,0.000431,0.004701
28685000,0.0324,0.013523,0.002678,0.000431,0.004701
28686000,0.0324,0.013523,0.002678,0.000431,0.004584
28687000,0.0324,0.013523,0.002678,0.000431,0.012105
28688000,0.0324,0.013523,0.002678,0.000431,0.004701
28689000,0.0324,0.013523,0.002678,0.000431,0.012223
28690000,0.0324,0.013523,0.002678,0.000431,0.004701
28691000,0.0324,0.013523,0.002678,0.000431,0.004701
28692000,0.0324,0.013523,0.002678,0.000431,0.004701
28693000,0.0324,0.013523,0.002678,0.000431,0.088616
28694000,0.0324,0.013523,0.002678,0.000431,0.037374
28695000,0.0324,0.013523,0.002678,0.000431,0.004701
28696000,0.0324,0.013523,0.002678,0.000431,0.004701
28697000,0.0324,0.013523,0.002678,0.000431,0.004701
28698000,0.0324,0.013523,0.002678,0.000431,0.004701
28699000,0.0324,0.013523,0.002678,0.000431,0.016101
28700000,0.0324,0.013523,0.002678,0.000431,0.008580
28701000,0.0324,0.013523,0.002678,0.000431,0.004701
28702000,0.0324,0.013523,0.002678,0.000431,0.004584
28703000,0.0324,0.013523,0.002678,0.000431,0.004584
28704000,0.0324,0.013523,0.002678,0.000431,0.004701
28705000,0.0324,0.013523,0.002678,0.000431,0.004701
28706000,0.0324,0.013523,0.002678,0.000431,0.108126
28707000,0.0324,0.013523,0.002678,0.000431,0.006817
28708000,0.0324,0.013523,0.002678,0.000431,0.012223
28709000,0.0324,0.013523,0.002678,0.000431,0.012223
28710000,0.0324,0.013523,0.002678,0.000431,0.004701
28711000,0.0324,0.013523,0.002678,0.000431,0.004701
28712000,0.0324,0.013523,0.002678,0.000431,0.012458
28713000,0.0324,0.013523,0.002678,0.000431,0.004701
28714000,0.0324,0.013523,0.002678,0.000431,0.004701
28715000,0.0324,0.013523,0.002678,0.000431,0.019510
28716000,0.0324,0.013523,0.002678,0.000431,0.004701
28717000,0.0324,0.013523,0.002678,0.000431,0.004701
28718000,0.0324,0.013523,0.002678,0.000431,0.004701
28719000,0.0324,0.013523,0.002678,0.000431,0.057354
28720000,0.0324,0.013523,0.002678,0.000431,0.012223
28721000,0.0324,0.013523,0.002678,0.000431,0.004701
28722000,0.0324,0.013523,0.002678,0.000431,0.004466
28723000,0.0324,0.013523,0.002678,0.000431,0.004701
28724000,0.0324,0.013523,0.002678,0.000431,0.004701
28725000,0.0324,0.013523,0.002678,0.000431,0.069107
28726000,0.0324,0.013523,0.002678,0.000431,0.064876
28727000,0.0324,0.013523,0.002678,0.000431,0.011753
28728000,0.0324,0.013523,0.002678,0.000431,0.057589
28729000,0.0324,0.013523,0.002678,0.000431,0.004701
28730000,0.0324,0.013523,0.002678,0.000431,0.004701
28731000,0.0324,0.013523,0.002678,0.000431,0.004701
28732000,0.0324,0.013523,0.002678,0.000431,0.035023
28733000,0.0324,0.013523,0.002678,0.000431,0.004701
28734000,0.0324,0.013523,0.002678,0.000431,0.004701
28735000,0.0324,0.013523,0.002678,0.000431,0.004701
28736000,0.0324,0.013523,0.002678,0.000431,0.004701
28737000,0.0324,0.013523,0.002678,0.000431,0.004701
28738000,0.0324,0.013523,0.002678,0.000431,0.065346
28739000,0.0324,0.013523,0.002678,0.000431,0.018334
28740000,0.0324,0.013523,0.002678,0.000431,0.015044
28741000,0.0324,0.013523,0.002678,0.000431,0.026326
28742000,0.0324,0.013523,0.002678,0.000431,0.004701
28743000,0.0324,0.013523,0.002678,0.000431,0.004466
28744000,0.0324,0.013523,0.002678,0.000431,0.004701
28745000,0.0324,0.013523,0.002678,0.000431,0.004701
28746000,0.0324,0.013523,0.002678,0.000431,0.044308
28747000,0.0324,0.013523,0.002678,0.000431,0.048069
28748000,0.0324,0.013523,0.002678,0.000431,0.004701
28749000,0.0324,0.013523,0.002678,0.000431,0.004584
28750000,0.0324,0.013523,0.002678,0.000431,0.004584
28751000,0.0324,0.013523,0.002678,0.000431,0.011048
28752000,0.0324,0.013523,0.002678,0.000431,0.029147
28753000,0.0324,0.013523,0.002678,0.000431,0.041605
28754000,0.0324,0.013523,0.002678,0.000431,0.004701
28755000,0.0324,0.013523,0.002678,0.000431,0.004701
28756000,0.0324,0.013523,0.002678,0.000431,0.004701
28757000,0.0324,0.013523,0.002678,0.000431,0.016571
28758000,0.0324,0.013523,0.002678,0.000431,0.043368
28759000,0.0324,0.013523,0.002678,0.000431,0.064758
28760000,0.0324,0.013523,0.002678,0.000431,0.017982
28761000,0.0324,0.013523,0.002678,0.000431,0.004701
28762000,0.0324,0.013523,0.002678,0.000431,0.004466
28763000,0.0324,0.013523,0.002678,0.000431,0.004701
28764000,0.0324,0.013523,0.002678,0.000431,0.004701
28765000,0.0324,0.013523,0.002678,0.000431,0.174412
28766000,0.0324,0.013523,0.002678,0.000431,0.031027
28767000,0.0324,0.013523,0.002678,0.000431,0.012223
28768000,0.0324,0.013523,0.002678,0.000431,0.004701
28769000,0.0324,0.013523,0.002678,0.000431,0.004466
28770000,0.0324,0.013523,0.002678,0.000431,0.012223
28771000,0.0324,0.013523,0.002678,0.000431,0.019745
28772000,0.0324,0.013523,0.002678,0.000431,0.004701
28773000,0.0324,0.013523,0.002678,0.000431,0.034788
28774000,0.0324,0.013523,0.002678,0.000431,0.004701
28775000,0.0324,0.013523,0.002678,0.000431,0.004701
28776000,0.0324,0.013523,0.002678,0.000431,0.004701
28777000,0.0324,0.013523,0.002678,0.000431,0.026796
28778000,0.0324,0.013523,0.002678,0.000431,0.065111
28779000,0.0324,0.013523,0.002678,0.000431,0.042310
28780000,0.0324,0.013523,0.002678,0.000431,0.004701
28781000,0.0324,0.013523,0.002678,0.000431,0.004701
28782000,0.0324,0.013523,0.002678,0.000431,0.004701
28783000,0.0324,0.013523,0.002678,0.000431,0.004701
28784000,0.0324,0.013523,0.002678,0.000431,0.087441
28785000,0.0324,0.013523,0.002678,0.000431,0.031262
28786000,0.0324,0.013523,0.002678,0.000431,0.008462
28787000,0.0324,0.013523,0.002678,0.000431,0.004701
28788000,0.0324,0.013523,0.002678,0.000431,0.004701
28789000,0.0324,0.013523,0.002678,0.000431,0.004701
28790000,0.0324,0.013523,0.002678,0.000431,0.023506
28791000,0.0324,0.013523,0.002678,0.000431,0.008462
28792000,0.0324,0.013523,0.002678,0.000431,0.019745
28793000,0.0324,0.013523,0.002678,0.000431,0.004701
28794000,0.0324,0.013523,0.002678,0.000431,0.004701
28795000,0.0324,0.013523,0.002678,0.000431,0.004701
28796000,0.0324,0.013523,0.002678,0.000431,0.027267
28797000,0.0324,0.013523,0.002678,0.000431,0.027737
28798000,0.0324,0.013523,0.002678,0.000431,0.021978
28799000,0.0324,0.013523,0.002678,0.000431,0.009755
28800000,0.0324,0.013523,0.002678,0.000431,0.004701
28801000,0.0324,0.013523,0.002678,0.000431,0.004701
28802000,0.0324,0.013523,0.002678,0.000431,0.004584
28803000,0.0324,0.013523,0.002678,0.000431,0.049714
28804000,0.0324,0.013523,0.002678,0.000431,0.004701
28805000,0.0324,0.013523,0.002678,0.000431,0.057354
28806000,0.0324,0.013523,0.002678,0.000431,0.004701
28807000,0.0324,0.013523,0.002678,0.000431,0.004701
28808000,0.0324,0.013523,0.002678,0.000431,0.004701
28809000,0.0324,0.013523,0.002678,0.000431,0.030792
28810000,0.0324,0.013523,0.002678,0.000431,0.015984
28811000,0.0324,0.013523,0.002678,0.000431,0.075218
28812000,0.0324,0.013523,0.002678,0.000431,0.016689
28813000,0.0324,0.013523,0.002678,0.000431,0.004701
28814000,0.0324,0.013523,0.002678,0.000431,0.004701
28815000,0.0324,0.013523,0.002678,0.000431,0.004701
28816000,0.0324,0.013523,0.002678,0.000431,0.049832
28817000,0.0324,0.013523,0.002678,0.000431,0.019510
28818000,0.0324,0.013523,0.002678,0.000431,0.008697
28819000,0.0324,0.013523,0.002678,0.000431,0.008462
28820000,0.0324,0.013523,0.002678,0.000431,0.004701
28821000,0.0324,0.013523,0.002678,0.000431,0.004701
28822000,0.0324,0.013523,0.002678,0.000431,0.042310
28823000,0.0324,0.013523,0.002678,0.000431,0.004701
28824000,0.0324,0.013523,0.002678,0.000431,0.034788
28825000,0.0324,0.013523,0.002678,0.000431,0.004701
28826000,0.0324,0.013523,0.002678,0.000431,0.004701
28827000,0.0324,0.013523,0.002678,0.000431,0.004701
28828000,0.0324,0.013523,0.002678,0.000431,0.004701
28829000,0.0324,0.013523,0.002678,0.000431,0.004701
28830000,0.0324,0.013523,0.002678,0.000431,0.059234
28831000,0.0324,0.013523,0.002678,0.000431,0.100604
28832000,0.0324,0.013523,0.002678,0.000431,0.012223
28833000,0.0324,0.013523,0.002678,0.000431,0.004701
28834000,0.0324,0.013523,0.002678,0.000431,0.004701
28835000,0.0324,0.013523,0.002678,0.000431,0.027267
28836000,0.0324,0.013523,0.002678,0.000431,0.004701
28837000,0.0324,0.013523,0.002678,0.000431,0.035023
28838000,0.0324,0.013523,0.002678,0.000431,0.034788
28839000,0.0324,0.013523,0.002678,0.000431,0.004701
28840000,0.0324,0.013523,0.002678,0.000431,0.004701
28841000,0.0324,0.013523,0.002678,0.000431,0.025856
28842000,0.0324,0.013523,0.002678,0.000431,0.013516
28843000,0.0324,0.013523,0.002678,0.000431,0.110359
28844000,0.0324,0.013523,0.002678,0.000431,0.012223
28845000,0.0324,0.013523,0.002678,0.000431,0.019745
28846000,0.0324,0.013523,0.002678,0.000431,0.004701
28847000,0.0324,0.013523,0.002678,0.000431,0.004701
28848000,0.0324,0.013523,0.002678,0.000431,0.012223
28849000,0.0324,0.013523,0.002678,0.000431,0.011988
28850000,0.0324,0.013523,0.002678,0.000431,0.042310
28851000,0.0324,0.013523,0.002678,0.000431,0.035023
28852000,0.0324,0.013523,0.002678,0.000431,0.004466
28853000,0.0324,0.013523,0.002678,0.000431,0.004701
28854000,0.0324,0.013523,0.002678,0.000431,0.019745
28855000,0.0324,0.013523,0.002678,0.000431,0.004701
28856000,0.0324,0.013523,0.002678,0.000431,0.019745
28857000,0.0324,0.013523,0.002678,0.000431,0.012223
28858000,0.0324,0.013523,0.002678,0.000431,0.012223
28859000,0.0324,0.013523,0.002678,0.000431,0.004701
28860000,0.0324,0.013523,0.002678,0.000431,0.004701
28861000,0.0324,0.013523,0.002678,0.000431,0.019745
28862000,0.0324,0.013523,0.002678,0.000431,0.023506
28863000,0.0324,0.013523,0.002678,0.000431,0.015984
28864000,0.0324,0.013523,0.002678,0.000431,0.019745
28865000,0.0324,0.013523,0.002678,0.000431,0.004701
28866000,0.0324,0.013523,0.002678,0.000431,0.004701
28867000,0.0324,0.013523,0.002678,0.000431,0.065111
28868000,0.0324,0.013523,0.002678,0.000431,0.004701
28869000,0.0324,0.013523,0.002678,0.000431,0.004701
28870000,0.0324,0.013523,0.002678,0.000431,0.004701
28871000,0.0324,0.013523,0.002678,0.000431,0.004701
28872000,0.0324,0.013523,0.002678,0.000431,0.004701
28873000,0.0324,0.013523,0.002678,0.000431,0.004466
28874000,0.0324,0.013523,0.002678,0.000431,0.004701
28875000,0.0324,0.013523,0.002678,0.000431,0.004701
28876000,0.0324,0.013523,0.002678,0.000431,0.004701
28877000,0.0324,0.013523,0.002678,0.000431,0.015279
28878000,0.0324,0.013523,0.002678,0.000431,0.004701
28879000,0.0324,0.013523,0.002678,0.000431,0.004701
28880000,0.0324,0.013523,0.002678,0.000431,0.030792
28881000,0.0324,0.013523,0.002678,0.000431,0.004701
28882000,0.0324,0.013523,0.002678,0.000431,0.094728
28883000,0.0324,0.013523,0.002678,0.000431,0.004466
28884000,0.0324,0.013523,0.002678,0.000431,0.004701
28885000,0.0324,0.013523,0.002678,0.000431,0.004701
28886000,0.0324,0.013523,0.002678,0.000431,0.075688
28887000,0.0324,0.013523,0.002678,0.000431,0.008932
28888000,0.0324,0.013523,0.002678,0.000431,0.026914
28889000,0.0324,0.013523,0.002678,0.000431,0.027619
28890000,0.0324,0.013523,0.002678,0.000431,0.012223
28891000,0.0324,0.013523,0.002678,0.000431,0.004701
28892000,0.0324,0.013523,0.002678,0.000431,0.017629
28893000,0.0324,0.013523,0.002678,0.000431,0.066756
28894000,0.0324,0.013523,0.002678,0.000431,0.011165
28895000,0.0324,0.013523,0.002678,0.000431,0.013516
28896000,0.0324,0.013523,0.002678,0.000431,0.004701
28897000,0.0324,0.013523,0.002678,0.000431,0.004701
28898000,0.0324,0.013523,0.002678,0.000431,0.004701
28899000,0.0324,0.013523,0.002678,0.000431,0.004936
28900000,0.0324,0.013523,0.002678,0.000431,0.035023
28901000,0.0324,0.013523,0.002678,0.000431,0.004701
28902000,0.0324,0.013523,0.002678,0.000431,0.016219
28903000,0.0324,0.013523,0.002678,0.000431,0.045836
28904000,0.0324,0.013523,0.002678,0.000431,0.004701
28905000,0.0324,0.013523,0.002678,0.000431,0.012223
28906000,0.0324,0.013523,0.002678,0.000431,0.008815
28907000,0.0324,0.013523,0.002678,0.000431,0.015866
28908000,0.0324,0.013523,0.002678,0.000431,0.012105
28909000,0.0324,0.013523,0.002678,0.000431,0.027149
28910000,0.0324,0.013523,0.002678,0.000431,0.004701
28911000,0.0324,0.013523,0.002678,0.000431,0.004701
28912000,0.0324,0.013523,0.002678,0.000431,0.034788
28913000,0.0324,0.013523,0.002678,0.000431,0.012105
28914000,0.0324,0.013523,0.002678,0.000431,0.004584
28915000,0.0324,0.013523,0.002678,0.000431,0.004701
28916000,0.0324,0.013523,0.002678,0.000431,0.004701
28917000,0.0324,0.013523,0.002678,0.000431,0.004584
28918000,0.0324,0.013523,0.002678,0.000431,0.004584
28919000,0.0324,0.013523,0.002678,0.000431,0.004701
28920000,0.0324,0.013523,0.002678,0.000431,0.004701
28921000,0.0324,0.013523,0.002678,0.000431,0.004701
28922000,0.0324,0.013523,0.002678,0.000431,0.035023
28923000,0.0324,0.013523,0.002678,0.000431,0.013046
28924000,0.0324,0.013523,0.002678,0.000431,0.005876
28925000,0.0324,0.013523,0.002678,0.000431,0.005641
28926000,0.0324,0.013523,0.002678,0.000431,0.012811
28927000,0.0324,0.013523,0.002678,0.000431,0.019745
28928000,0.0324,0.013523,0.002678,0.000431,0.004936
28929000,0.0324,0.013523,0.002678,0.000431,0.004701
28930000,0.0324,0.013523,0.002678,0.000431,0.004701
28931000,0.0324,0.013523,0.002678,0.000431,0.004701
28932000,0.0324,0.013523,0.002678,0.000431,0.004701
28933000,0.0324,0.013523,0.002678,0.000431,0.019745
28934000,0.0324,0.013523,0.002678,0.000431,0.004701
28935000,0.0324,0.013523,0.002678,0.000431,0.057354
28936000,0.0324,0.013523,0.002678,0.000431,0.004701
28937000,0.0324,0.013523,0.002678,0.000431,0.004701
28938000,0.0324,0.013523,0.002678,0.000431,0.004701
28939000,0.0324,0.013523,0.002678,0.000431,0.031027
28940000,0.0324,0.013523,0.002678,0.000431,0.008462
28941000,0.0324,0.013523,0.002678,0.000431,0.004701
28942000,0.0324,0.013523,0.002678,0.000431,0.004701
28943000,0.0324,0.013523,0.002678,0.000431,0.004701
28944000,0.0324,0.013523,0.002678,0.000431,0.027267
28945000,0.0324,0.013523,0.002678,0.000431,0.004936
28946000,0.0324,0.013523,0.002678,0.000431,0.035023
28947000,0.0324,0.013523,0.002678,0.000431,0.004701
28948000,0.0324,0.013523,0.002678,0.000431,0.042428
28949000,0.0324,0.013523,0.002678,0.000431,0.004584
28950000,0.0324,0.013523,0.002678,0.000431,0.026679
28951000,0.0324,0.013523,0.002678,0.000431,0.065698
28952000,0.0324,0.013523,0.002678,0.000431,0.004466
28953000,0.0324,0.013523,0.002678,0.000431,0.004584
28954000,0.0324,0.013523,0.002678,0.000431,0.004584
28955000,0.0324,0.013523,0.002678,0.000431,0.004701
28956000,0.0324,0.013523,0.002678,0.000431,0.004701
28957000,0.0324,0.013523,0.002678,0.000431,0.012223
28958000,0.0324,0.013523,0.002678,0.000431,0.019745
28959000,0.0324,0.013523,0.002678,0.000431,0.027502
28960000,0.0324,0.013523,0.002678,0.000431,0.004701
28961000,0.0324,0.013523,0.002678,0.000431,0.004701
28962000,0.0324,0.013523,0.002678,0.000431,0.004701
28963000,0.0324,0.013523,0.002678,0.000431,0.019627
28964000,0.0324,0.013523,0.002678,0.000431,0.012105
28965000,0.0324,0.013523,0.002678,0.000431,0.061115
28966000,0.0324,0.013523,0.002678,0.000431,0.015984
28967000,0.0324,0.013523,0.002678,0.000431,0.087911
28968000,0.0324,0.013523,0.002678,0.000431,0.004701
28969000,0.0324,0.013523,0.002678,0.000431,0.008462
28970000,0.0324,0.013523,0.002678,0.000431,0.008227
28971000,0.0324,0.013523,0.002678,0.000431,0.034788
28972000,0.0324,0.013523,0.002678,0.000431,0.004701
28973000,0.0324,0.013523,0.002678,0.000431,0.019980
28974000,0.0324,0.013523,0.002678,0.000431,0.004701
28975000,0.0324,0.013523,0.002678,0.000431,0.004701
28976000,0.0324,0.013523,0.002678,0.000431,0.027267
28977000,0.0324,0.013523,0.002678,0.000431,0.004819
28978000,0.0324,0.013523,0.002678,0.000431,0.004819
28979000,0.0324,0.013523,0.002678,0.000431,0.008462
28980000,0.0324,0.013523,0.002678,0.000431,0.031027
28981000,0.0324,0.013523,0.002678,0.000431,0.004701
28982000,0.0324,0.013523,0.002678,0.000431,0.008462
28983000,0.0324,0.013523,0.002678,0.000431,0.031262
28984000,0.0324,0.013523,0.002678,0.000431,0.004701
28985000,0.0324,0.013523,0.002678,0.000431,0.004701
28986000,0.0324,0.013523,0.002678,0.000431,0.088734
28987000,0.0324,0.013523,0.002678,0.000431,0.026444
28988000,0.0324,0.013523,0.002678,0.000431,0.004701
28989000,0.0324,0.013523,0.002678,0.000431,0.042780
28990000,0.0324,0.013523,0.002678,0.000431,0.004701
28991000,0.0324,0.013523,0.002678,0.000431,0.004701
28992000,0.0324,0.013523,0.002678,0.000431,0.004466
28993000,0.0324,0.013523,0.002678,0.000431,0.034671
28994000,0.0324,0.013523,0.002678,0.000431,0.004584
28995000,0.0324,0.013523,0.002678,0.000431,0.004701
28996000,0.0324,0.013523,0.002678,0.000431,0.004701
28997000,0.0324,0.013523,0.002678,0.000431,0.004701
28998000,0.0324,0.013523,0.002678,0.000431,0.004701
28999000,0.0324,0.013523,0.002678,0.000431,0.004701
