Cycle,Area(mm^2),PeakDynamic(W),SubthresholdLeakage(W),GateLeakage(W),RunTimeDynamic(W)
3000000,0.0324,0.013523,0.002678,0.000431,0.238700
3001000,0.0324,0.013523,0.002678,0.000431,0.217897
3002000,0.0324,0.013523,0.002678,0.000431,0.213901
3003000,0.0324,0.013523,0.002678,0.000431,0.270197
3004000,0.0324,0.013523,0.002678,0.000431,0.344123
3005000,0.0324,0.013523,0.002678,0.000431,0.342007
3006000,0.0324,0.013523,0.002678,0.000431,0.427568
3007000,0.0324,0.013523,0.002678,0.000431,0.310392
3008000,0.0324,0.013523,0.002678,0.000431,0.296171
3009000,0.0324,0.013523,0.002678,0.000431,0.300402
3010000,0.0324,0.013523,0.002678,0.000431,0.292058
3011000,0.0324,0.013523,0.002678,0.000431,0.353525
3012000,0.0324,0.013523,0.002678,0.000431,0.304633
3013000,0.0324,0.013523,0.002678,0.000431,0.256329
3014000,0.0324,0.013523,0.002678,0.000431,0.248102
3015000,0.0324,0.013523,0.002678,0.000431,0.272195
3016000,0.0324,0.013523,0.002678,0.000431,0.281010
3017000,0.0324,0.013523,0.002678,0.000431,0.285006
3018000,0.0324,0.013523,0.002678,0.000431,0.278542
3019000,0.0324,0.013523,0.002678,0.000431,0.252215
3020000,0.0324,0.013523,0.002678,0.000431,0.332370
3021000,0.0324,0.013523,0.002678,0.000431,0.359284
3022000,0.0324,0.013523,0.002678,0.000431,0.266084
3023000,0.0324,0.013523,0.002678,0.000431,0.248220
3024000,0.0324,0.013523,0.002678,0.000431,0.249630
3025000,0.0324,0.013523,0.002678,0.000431,0.313213
3026000,0.0324,0.013523,0.002678,0.000431,0.277602
3027000,0.0324,0.013523,0.002678,0.000431,0.291352
3028000,0.0324,0.013523,0.002678,0.000431,0.313330
3029000,0.0324,0.013523,0.002678,0.000431,0.304398
3030000,0.0324,0.013523,0.002678,0.000431,0.350234
3031000,0.0324,0.013523,0.002678,0.000431,0.296289
3032000,0.0324,0.013523,0.002678,0.000431,0.319324
3033000,0.0324,0.013523,0.002678,0.000431,0.331547
3034000,0.0324,0.013523,0.002678,0.000431,0.283713
3035000,0.0324,0.013523,0.002678,0.000431,0.274311
3036000,0.0324,0.013523,0.002678,0.000431,0.343770
3037000,0.0324,0.013523,0.002678,0.000431,0.273018
3038000,0.0324,0.013523,0.002678,0.000431,0.295466
3039000,0.0324,0.013523,0.002678,0.000431,0.281362
3040000,0.0324,0.013523,0.002678,0.000431,0.200150
3041000,0.0324,0.013523,0.002678,0.000431,0.309569
3042000,0.0324,0.013523,0.002678,0.000431,0.303575
3043000,0.0324,0.013523,0.002678,0.000431,0.257857
3044000,0.0324,0.013523,0.002678,0.000431,0.356816
3045000,0.0324,0.013523,0.002678,0.000431,0.355170
3046000,0.0324,0.013523,0.002678,0.000431,0.270315
3047000,0.0324,0.013523,0.002678,0.000431,0.275604
3048000,0.0324,0.013523,0.002678,0.000431,0.280540
3049000,0.0324,0.013523,0.002678,0.000431,0.275486
3050000,0.0324,0.013523,0.002678,0.000431,0.256564
3051000,0.0324,0.013523,0.002678,0.000431,0.170533
3052000,0.0324,0.013523,0.002678,0.000431,0.167713
3053000,0.0324,0.013523,0.002678,0.000431,0.276426
3054000,0.0324,0.013523,0.002678,0.000431,0.238700
3055000,0.0324,0.013523,0.002678,0.000431,0.369509
3056000,0.0324,0.013523,0.002678,0.000431,0.279482
3057000,0.0324,0.013523,0.002678,0.000431,0.280657
3058000,0.0324,0.013523,0.002678,0.000431,0.312507
3059000,0.0324,0.013523,0.002678,0.000431,0.340009
3060000,0.0324,0.013523,0.002678,0.000431,0.251863
3061000,0.0324,0.013523,0.002678,0.000431,0.208495
3062000,0.0324,0.013523,0.002678,0.000431,0.265849
3063000,0.0324,0.013523,0.002678,0.000431,0.228122
3064000,0.0324,0.013523,0.002678,0.000431,0.222833
3065000,0.0324,0.013523,0.002678,0.000431,0.268317
3066000,0.0324,0.013523,0.002678,0.000431,0.282773
3067000,0.0324,0.013523,0.002678,0.000431,0.247044
3068000,0.0324,0.013523,0.002678,0.000431,0.281950
3069000,0.0324,0.013523,0.002678,0.000431,0.202736
3070000,0.0324,0.013523,0.002678,0.000431,0.183109
3071000,0.0324,0.013523,0.002678,0.000431,0.296641
3072000,0.0324,0.013523,0.002678,0.000431,0.284418
3073000,0.0324,0.013523,0.002678,0.000431,0.224126
3074000,0.0324,0.013523,0.002678,0.000431,0.210728
3075000,0.0324,0.013523,0.002678,0.000431,0.248807
3076000,0.0324,0.013523,0.002678,0.000431,0.255271
3077000,0.0324,0.013523,0.002678,0.000431,0.314153
3078000,0.0324,0.013523,0.002678,0.000431,0.292293
3079000,0.0324,0.013523,0.002678,0.000431,0.241755
3080000,0.0324,0.013523,0.002678,0.000431,0.306984
3081000,0.0324,0.013523,0.002678,0.000431,0.310039
3082000,0.0324,0.013523,0.002678,0.000431,0.208260
3083000,0.0324,0.013523,0.002678,0.000431,0.248807
3084000,0.0324,0.013523,0.002678,0.000431,0.222951
3085000,0.0324,0.013523,0.002678,0.000431,0.212726
3086000,0.0324,0.013523,0.002678,0.000431,0.240110
3087000,0.0324,0.013523,0.002678,0.000431,0.190278
3088000,0.0324,0.013523,0.002678,0.000431,0.158428
3089000,0.0324,0.013523,0.002678,0.000431,0.229415
3090000,0.0324,0.013523,0.002678,0.000431,0.204029
3091000,0.0324,0.013523,0.002678,0.000431,0.250453
3092000,0.0324,0.013523,0.002678,0.000431,0.182874
3093000,0.0324,0.013523,0.002678,0.000431,0.169006
3094000,0.0324,0.013523,0.002678,0.000431,0.210023
3095000,0.0324,0.013523,0.002678,0.000431,0.208495
3096000,0.0324,0.013523,0.002678,0.000431,0.217192
3097000,0.0324,0.013523,0.002678,0.000431,0.212021
3098000,0.0324,0.013523,0.002678,0.000431,0.206027
3099000,0.0324,0.013523,0.002678,0.000431,0.150319
3100000,0.0324,0.013523,0.002678,0.000431,0.230355
3101000,0.0324,0.013523,0.002678,0.000431,0.288532
3102000,0.0324,0.013523,0.002678,0.000431,0.239405
3103000,0.0324,0.013523,0.002678,0.000431,0.232706
3104000,0.0324,0.013523,0.002678,0.000431,0.306513
3105000,0.0324,0.013523,0.002678,0.000431,0.336953
3106000,0.0324,0.013523,0.002678,0.000431,0.325318
3107000,0.0324,0.013523,0.002678,0.000431,0.179818
3108000,0.0324,0.013523,0.002678,0.000431,0.173001
3109000,0.0324,0.013523,0.002678,0.000431,0.195332
3110000,0.0324,0.013523,0.002678,0.000431,0.281715
3111000,0.0324,0.013523,0.002678,0.000431,0.359049
3112000,0.0324,0.013523,0.002678,0.000431,0.255389
3113000,0.0324,0.013523,0.002678,0.000431,0.215547
3114000,0.0324,0.013523,0.002678,0.000431,0.217780
3115000,0.0324,0.013523,0.002678,0.000431,0.150083
3116000,0.0324,0.013523,0.002678,0.000431,0.149848
3117000,0.0324,0.013523,0.002678,0.000431,0.253391
3118000,0.0324,0.013523,0.002678,0.000431,0.203324
3119000,0.0324,0.013523,0.002678,0.000431,0.135392
3120000,0.0324,0.013523,0.002678,0.000431,0.176527
3121000,0.0324,0.013523,0.002678,0.000431,0.139623
3122000,0.0324,0.013523,0.002678,0.000431,0.249747
3123000,0.0324,0.013523,0.002678,0.000431,0.253038
3124000,0.0324,0.013523,0.002678,0.000431,0.204146
3125000,0.0324,0.013523,0.002678,0.000431,0.175235
3126000,0.0324,0.013523,0.002678,0.000431,0.206615
3127000,0.0324,0.013523,0.002678,0.000431,0.178055
3128000,0.0324,0.013523,0.002678,0.000431,0.131161
3129000,0.0324,0.013523,0.002678,0.000431,0.217075
3130000,0.0324,0.013523,0.002678,0.000431,0.177938
3131000,0.0324,0.013523,0.002678,0.000431,0.208495
3132000,0.0324,0.013523,0.002678,0.000431,0.194862
3133000,0.0324,0.013523,0.002678,0.000431,0.157723
3134000,0.0324,0.013523,0.002678,0.000431,0.171709
3135000,0.0324,0.013523,0.002678,0.000431,0.157018
3136000,0.0324,0.013523,0.002678,0.000431,0.194744
3137000,0.0324,0.013523,0.002678,0.000431,0.200268
3138000,0.0324,0.013523,0.002678,0.000431,0.192981
3139000,0.0324,0.013523,0.002678,0.000431,0.177115
3140000,0.0324,0.013523,0.002678,0.000431,0.131514
3141000,0.0324,0.013523,0.002678,0.000431,0.211668
3142000,0.0324,0.013523,0.002678,0.000431,0.141504
3143000,0.0324,0.013523,0.002678,0.000431,0.291940
3144000,0.0324,0.013523,0.002678,0.000431,0.228357
3145000,0.0324,0.013523,0.002678,0.000431,0.156312
3146000,0.0324,0.013523,0.002678,0.000431,0.112945
3147000,0.0324,0.013523,0.002678,0.000431,0.132219
3148000,0.0324,0.013523,0.002678,0.000431,0.184519
3149000,0.0324,0.013523,0.002678,0.000431,0.236114
3150000,0.0324,0.013523,0.002678,0.000431,0.232236
3151000,0.0324,0.013523,0.002678,0.000431,0.293703
3152000,0.0324,0.013523,0.002678,0.000431,0.262440
3153000,0.0324,0.013523,0.002678,0.000431,0.239287
3154000,0.0324,0.013523,0.002678,0.000431,0.215077
3155000,0.0324,0.013523,0.002678,0.000431,0.167713
3156000,0.0324,0.013523,0.002678,0.000431,0.183109
3157000,0.0324,0.013523,0.002678,0.000431,0.214724
3158000,0.0324,0.013523,0.002678,0.000431,0.189338
3159000,0.0324,0.013523,0.002678,0.000431,0.202971
3160000,0.0324,0.013523,0.002678,0.000431,0.145382
3161000,0.0324,0.013523,0.002678,0.000431,0.209083
3162000,0.0324,0.013523,0.002678,0.000431,0.225537
3163000,0.0324,0.013523,0.002678,0.000431,0.151729
3164000,0.0324,0.013523,0.002678,0.000431,0.176057
3165000,0.0324,0.013523,0.002678,0.000431,0.204734
3166000,0.0324,0.013523,0.002678,0.000431,0.211668
3167000,0.0324,0.013523,0.002678,0.000431,0.155607
3168000,0.0324,0.013523,0.002678,0.000431,0.161366
3169000,0.0324,0.013523,0.002678,0.000431,0.178878
3170000,0.0324,0.013523,0.002678,0.000431,0.143619
3171000,0.0324,0.013523,0.002678,0.000431,0.203676
3172000,0.0324,0.013523,0.002678,0.000431,0.207320
3173000,0.0324,0.013523,0.002678,0.000431,0.220718
3174000,0.0324,0.013523,0.002678,0.000431,0.177585
3175000,0.0324,0.013523,0.002678,0.000431,0.140916
3176000,0.0324,0.013523,0.002678,0.000431,0.125638
3177000,0.0324,0.013523,0.002678,0.000431,0.186165
3178000,0.0324,0.013523,0.002678,0.000431,0.160426
3179000,0.0324,0.013523,0.002678,0.000431,0.106716
3180000,0.0324,0.013523,0.002678,0.000431,0.166537
3181000,0.0324,0.013523,0.002678,0.000431,0.119526
3182000,0.0324,0.013523,0.002678,0.000431,0.083915
3183000,0.0324,0.013523,0.002678,0.000431,0.138683
3184000,0.0324,0.013523,0.002678,0.000431,0.224126
3185000,0.0324,0.013523,0.002678,0.000431,0.167830
3186000,0.0324,0.013523,0.002678,0.000431,0.131044
3187000,0.0324,0.013523,0.002678,0.000431,0.125050
3188000,0.0324,0.013523,0.002678,0.000431,0.125520
3189000,0.0324,0.013523,0.002678,0.000431,0.132924
3190000,0.0324,0.013523,0.002678,0.000431,0.124345
3191000,0.0324,0.013523,0.002678,0.000431,0.110241
3192000,0.0324,0.013523,0.002678,0.000431,0.190748
3193000,0.0324,0.013523,0.002678,0.000431,0.164187
3194000,0.0324,0.013523,0.002678,0.000431,0.139976
3195000,0.0324,0.013523,0.002678,0.000431,0.199445
3196000,0.0324,0.013523,0.002678,0.000431,0.092377
3197000,0.0324,0.013523,0.002678,0.000431,0.139388
3198000,0.0324,0.013523,0.002678,0.000431,0.137390
3199000,0.0324,0.013523,0.002678,0.000431,0.077686
3200000,0.0324,0.013523,0.002678,0.000431,0.138801
3201000,0.0324,0.013523,0.002678,0.000431,0.203441
3202000,0.0324,0.013523,0.002678,0.000431,0.114943
3203000,0.0324,0.013523,0.002678,0.000431,0.171709
3204000,0.0324,0.013523,0.002678,0.000431,0.146088
3205000,0.0324,0.013523,0.002678,0.000431,0.090262
3206000,0.0324,0.013523,0.002678,0.000431,0.180758
3207000,0.0324,0.013523,0.002678,0.000431,0.221541
3208000,0.0324,0.013523,0.002678,0.000431,0.200856
3209000,0.0324,0.013523,0.002678,0.000431,0.185695
3210000,0.0324,0.013523,0.002678,0.000431,0.142209
3211000,0.0324,0.013523,0.002678,0.000431,0.236937
3212000,0.0324,0.013523,0.002678,0.000431,0.185695
3213000,0.0324,0.013523,0.002678,0.000431,0.143032
3214000,0.0324,0.013523,0.002678,0.000431,0.103660
3215000,0.0324,0.013523,0.002678,0.000431,0.113297
3216000,0.0324,0.013523,0.002678,0.000431,0.174999
3217000,0.0324,0.013523,0.002678,0.000431,0.214371
3218000,0.0324,0.013523,0.002678,0.000431,0.135510
3219000,0.0324,0.013523,0.002678,0.000431,0.141386
3220000,0.0324,0.013523,0.002678,0.000431,0.127048
3221000,0.0324,0.013523,0.002678,0.000431,0.151846
3222000,0.0324,0.013523,0.002678,0.000431,0.150554
3223000,0.0324,0.013523,0.002678,0.000431,0.094258
3224000,0.0324,0.013523,0.002678,0.000431,0.089086
3225000,0.0324,0.013523,0.002678,0.000431,0.065581
3226000,0.0324,0.013523,0.002678,0.000431,0.147263
3227000,0.0324,0.013523,0.002678,0.000431,0.127401
3228000,0.0324,0.013523,0.002678,0.000431,0.166067
3229000,0.0324,0.013523,0.002678,0.000431,0.102955
3230000,0.0324,0.013523,0.002678,0.000431,0.165245
3231000,0.0324,0.013523,0.002678,0.000431,0.127165
3232000,0.0324,0.013523,0.002678,0.000431,0.073808
3233000,0.0324,0.013523,0.002678,0.000431,0.060527
3234000,0.0324,0.013523,0.002678,0.000431,0.103542
3235000,0.0324,0.013523,0.002678,0.000431,0.211433
3236000,0.0324,0.013523,0.002678,0.000431,0.094375
3237000,0.0324,0.013523,0.002678,0.000431,0.082152
3238000,0.0324,0.013523,0.002678,0.000431,0.106951
3239000,0.0324,0.013523,0.002678,0.000431,0.161836
3240000,0.0324,0.013523,0.002678,0.000431,0.127988
3241000,0.0324,0.013523,0.002678,0.000431,0.097196
3242000,0.0324,0.013523,0.002678,0.000431,0.098606
3243000,0.0324,0.013523,0.002678,0.000431,0.172531
3244000,0.0324,0.013523,0.002678,0.000431,0.101662
3245000,0.0324,0.013523,0.002678,0.000431,0.102367
3246000,0.0324,0.013523,0.002678,0.000431,0.065228
3247000,0.0324,0.013523,0.002678,0.000431,0.063230
3248000,0.0324,0.013523,0.002678,0.000431,0.110712
3249000,0.0324,0.013523,0.002678,0.000431,0.114708
3250000,0.0324,0.013523,0.002678,0.000431,0.059587
3251000,0.0324,0.013523,0.002678,0.000431,0.142444
3252000,0.0324,0.013523,0.002678,0.000431,0.101074
3253000,0.0324,0.013523,0.002678,0.000431,0.066051
3254000,0.0324,0.013523,0.002678,0.000431,0.129399
3255000,0.0324,0.013523,0.002678,0.000431,0.091672
3256000,0.0324,0.013523,0.002678,0.000431,0.098841
3257000,0.0324,0.013523,0.002678,0.000431,0.109536
3258000,0.0324,0.013523,0.002678,0.000431,0.076511
3259000,0.0324,0.013523,0.002678,0.000431,0.082387
3260000,0.0324,0.013523,0.002678,0.000431,0.073220
3261000,0.0324,0.013523,0.002678,0.000431,0.073220
3262000,0.0324,0.013523,0.002678,0.000431,0.065346
3263000,0.0324,0.013523,0.002678,0.000431,0.135157
3264000,0.0324,0.013523,0.002678,0.000431,0.213314
3265000,0.0324,0.013523,0.002678,0.000431,0.132102
3266000,0.0324,0.013523,0.002678,0.000431,0.125285
3267000,0.0324,0.013523,0.002678,0.000431,0.113180
3268000,0.0324,0.013523,0.002678,0.000431,0.088381
3269000,0.0324,0.013523,0.002678,0.000431,0.059587
3270000,0.0324,0.013523,0.002678,0.000431,0.046424
3271000,0.0324,0.013523,0.002678,0.000431,0.061350
3272000,0.0324,0.013523,0.002678,0.000431,0.087088
3273000,0.0324,0.013523,0.002678,0.000431,0.091084
3274000,0.0324,0.013523,0.002678,0.000431,0.062172
3275000,0.0324,0.013523,0.002678,0.000431,0.119409
3276000,0.0324,0.013523,0.002678,0.000431,0.084855
3277000,0.0324,0.013523,0.002678,0.000431,0.057119
3278000,0.0324,0.013523,0.002678,0.000431,0.052418
3279000,0.0324,0.013523,0.002678,0.000431,0.055591
3280000,0.0324,0.013523,0.002678,0.000431,0.101544
3281000,0.0324,0.013523,0.002678,0.000431,0.098606
3282000,0.0324,0.013523,0.002678,0.000431,0.053593
3283000,0.0324,0.013523,0.002678,0.000431,0.047364
3284000,0.0324,0.013523,0.002678,0.000431,0.061702
3285000,0.0324,0.013523,0.002678,0.000431,0.059704
3286000,0.0324,0.013523,0.002678,0.000431,0.077216
3287000,0.0324,0.013523,0.002678,0.000431,0.057001
3288000,0.0324,0.013523,0.002678,0.000431,0.114355
3289000,0.0324,0.013523,0.002678,0.000431,0.102132
3290000,0.0324,0.013523,0.002678,0.000431,0.061115
3291000,0.0324,0.013523,0.002678,0.000431,0.092495
3292000,0.0324,0.013523,0.002678,0.000431,0.049597
3293000,0.0324,0.013523,0.002678,0.000431,0.045248
3294000,0.0324,0.013523,0.002678,0.000431,0.104483
3295000,0.0324,0.013523,0.002678,0.000431,0.107773
3296000,0.0324,0.013523,0.002678,0.000431,0.079214
3297000,0.0324,0.013523,0.002678,0.000431,0.040900
3298000,0.0324,0.013523,0.002678,0.000431,0.039137
3299000,0.0324,0.013523,0.002678,0.000431,0.060174
3300000,0.0324,0.013523,0.002678,0.000431,0.053358
3301000,0.0324,0.013523,0.002678,0.000431,0.020802
3302000,0.0324,0.013523,0.002678,0.000431,0.028207
3303000,0.0324,0.013523,0.002678,0.000431,0.027031
3304000,0.0324,0.013523,0.002678,0.000431,0.027854
3305000,0.0324,0.013523,0.002678,0.000431,0.027502
3306000,0.0324,0.013523,0.002678,0.000431,0.025269
3307000,0.0324,0.013523,0.002678,0.000431,0.034671
3308000,0.0324,0.013523,0.002678,0.000431,0.021978
3309000,0.0324,0.013523,0.002678,0.000431,0.029500
3310000,0.0324,0.013523,0.002678,0.000431,0.020802
3311000,0.0324,0.013523,0.002678,0.000431,0.084268
3312000,0.0324,0.013523,0.002678,0.000431,0.110241
3313000,0.0324,0.013523,0.002678,0.000431,0.058176
3314000,0.0324,0.013523,0.002678,0.000431,0.041252
3315000,0.0324,0.013523,0.002678,0.000431,0.042780
3316000,0.0324,0.013523,0.002678,0.000431,0.046424
3317000,0.0324,0.013523,0.002678,0.000431,0.042663
3318000,0.0324,0.013523,0.002678,0.000431,0.036434
3319000,0.0324,0.013523,0.002678,0.000431,0.027149
3320000,0.0324,0.013523,0.002678,0.000431,0.024446
3321000,0.0324,0.013523,0.002678,0.000431,0.021273
3322000,0.0324,0.013523,0.002678,0.000431,0.026326
3323000,0.0324,0.013523,0.002678,0.000431,0.057001
3324000,0.0324,0.013523,0.002678,0.000431,0.038197
3325000,0.0324,0.013523,0.002678,0.000431,0.027502
3326000,0.0324,0.013523,0.002678,0.000431,0.024681
3327000,0.0324,0.013523,0.002678,0.000431,0.018569
3328000,0.0324,0.013523,0.002678,0.000431,0.025856
3329000,0.0324,0.013523,0.002678,0.000431,0.016336
3330000,0.0324,0.013523,0.002678,0.000431,0.036199
3331000,0.0324,0.013523,0.002678,0.000431,0.046541
3332000,0.0324,0.013523,0.002678,0.000431,0.022213
3333000,0.0324,0.013523,0.002678,0.000431,0.020920
3334000,0.0324,0.013523,0.002678,0.000431,0.015984
3335000,0.0324,0.013523,0.002678,0.000431,0.087558
3336000,0.0324,0.013523,0.002678,0.000431,0.032555
3337000,0.0324,0.013523,0.002678,0.000431,0.030205
3338000,0.0324,0.013523,0.002678,0.000431,0.025269
3339000,0.0324,0.013523,0.002678,0.000431,0.025504
3340000,0.0324,0.013523,0.002678,0.000431,0.019275
3341000,0.0324,0.013523,0.002678,0.000431,0.040430
3342000,0.0324,0.013523,0.002678,0.000431,0.054886
3343000,0.0324,0.013523,0.002678,0.000431,0.019275
3344000,0.0324,0.013523,0.002678,0.000431,0.026561
3345000,0.0324,0.013523,0.002678,0.000431,0.064170
3346000,0.0324,0.013523,0.002678,0.000431,0.028324
3347000,0.0324,0.013523,0.002678,0.000431,0.028442
3348000,0.0324,0.013523,0.002678,0.000431,0.028089
3349000,0.0324,0.013523,0.002678,0.000431,0.023506
3350000,0.0324,0.013523,0.002678,0.000431,0.018922
3351000,0.0324,0.013523,0.002678,0.000431,0.021743
3352000,0.0324,0.013523,0.002678,0.000431,0.061820
3353000,0.0324,0.013523,0.002678,0.000431,0.054416
3354000,0.0324,0.013523,0.002678,0.000431,0.020685
3355000,0.0324,0.013523,0.002678,0.000431,0.023036
3356000,0.0324,0.013523,0.002678,0.000431,0.024563
3357000,0.0324,0.013523,0.002678,0.000431,0.030675
3358000,0.0324,0.013523,0.002678,0.000431,0.021508
3359000,0.0324,0.013523,0.002678,0.000431,0.019862
3360000,0.0324,0.013523,0.002678,0.000431,0.020215
3361000,0.0324,0.013523,0.002678,0.000431,0.020450
3362000,0.0324,0.013523,0.002678,0.000431,0.025856
3363000,0.0324,0.013523,0.002678,0.000431,0.020567
3364000,0.0324,0.013523,0.002678,0.000431,0.019862
3365000,0.0324,0.013523,0.002678,0.000431,0.019627
3366000,0.0324,0.013523,0.002678,0.000431,0.019392
3367000,0.0324,0.013523,0.002678,0.000431,0.019862
3368000,0.0324,0.013523,0.002678,0.000431,0.020450
3369000,0.0324,0.013523,0.002678,0.000431,0.023153
3370000,0.0324,0.013523,0.002678,0.000431,0.019392
3371000,0.0324,0.013523,0.002678,0.000431,0.019510
3372000,0.0324,0.013523,0.002678,0.000431,0.018334
3373000,0.0324,0.013523,0.002678,0.000431,0.023153
3374000,0.0324,0.013523,0.002678,0.000431,0.018805
3375000,0.0324,0.013523,0.002678,0.000431,0.018099
3376000,0.0324,0.013523,0.002678,0.000431,0.022800
3377000,0.0324,0.013523,0.002678,0.000431,0.015279
3378000,0.0324,0.013523,0.002678,0.000431,0.018922
3379000,0.0324,0.013523,0.002678,0.000431,0.011048
3380000,0.0324,0.013523,0.002678,0.000431,0.015279
3381000,0.0324,0.013523,0.002678,0.000431,0.014221
3382000,0.0324,0.013523,0.002678,0.000431,0.011870
3383000,0.0324,0.013523,0.002678,0.000431,0.015866
3384000,0.0324,0.013523,0.002678,0.000431,0.010930
3385000,0.0324,0.013523,0.002678,0.000431,0.013516
3386000,0.0324,0.013523,0.002678,0.000431,0.014691
3387000,0.0324,0.013523,0.002678,0.000431,0.011988
3388000,0.0324,0.013523,0.002678,0.000431,0.016924
3389000,0.0324,0.013523,0.002678,0.000431,0.009872
3390000,0.0324,0.013523,0.002678,0.000431,0.015749
3391000,0.0324,0.013523,0.002678,0.000431,0.013046
3392000,0.0324,0.013523,0.002678,0.000431,0.013751
3393000,0.0324,0.013523,0.002678,0.000431,0.014456
3394000,0.0324,0.013523,0.002678,0.000431,0.011048
3395000,0.0324,0.013523,0.002678,0.000431,0.013398
3396000,0.0324,0.013523,0.002678,0.000431,0.011048
3397000,0.0324,0.013523,0.002678,0.000431,0.013516
3398000,0.0324,0.013523,0.002678,0.000431,0.015044
3399000,0.0324,0.013523,0.002678,0.000431,0.012458
3400000,0.0324,0.013523,0.002678,0.000431,0.014221
3401000,0.0324,0.013523,0.002678,0.000431,0.013986
3402000,0.0324,0.013523,0.002678,0.000431,0.012693
3403000,0.0324,0.013523,0.002678,0.000431,0.013751
3404000,0.0324,0.013523,0.002678,0.000431,0.014221
3405000,0.0324,0.013523,0.002678,0.000431,0.010813
3406000,0.0324,0.013523,0.002678,0.000431,0.016101
3407000,0.0324,0.013523,0.002678,0.000431,0.011165
3408000,0.0324,0.013523,0.002678,0.000431,0.018217
3409000,0.0324,0.013523,0.002678,0.000431,0.011283
3410000,0.0324,0.013523,0.002678,0.000431,0.013751
3411000,0.0324,0.013523,0.002678,0.000431,0.015514
3412000,0.0324,0.013523,0.002678,0.000431,0.009872
3413000,0.0324,0.013523,0.002678,0.000431,0.017394
3414000,0.0324,0.013523,0.002678,0.000431,0.010225
3415000,0.0324,0.013523,0.002678,0.000431,0.017042
3416000,0.0324,0.013523,0.002678,0.000431,0.011165
3417000,0.0324,0.013523,0.002678,0.000431,0.011283
3418000,0.0324,0.013523,0.002678,0.000431,0.016571
3419000,0.0324,0.013523,0.002678,0.000431,0.009990
3420000,0.0324,0.013523,0.002678,0.000431,0.018687
3421000,0.0324,0.013523,0.002678,0.000431,0.011753
3422000,0.0324,0.013523,0.002678,0.000431,0.013986
3423000,0.0324,0.013523,0.002678,0.000431,0.016219
3424000,0.0324,0.013523,0.002678,0.000431,0.011165
3425000,0.0324,0.013523,0.002678,0.000431,0.016454
3426000,0.0324,0.013523,0.002678,0.000431,0.010930
3427000,0.0324,0.013523,0.002678,0.000431,0.014573
3428000,0.0324,0.013523,0.002678,0.000431,0.015044
3429000,0.0324,0.013523,0.002678,0.000431,0.011753
3430000,0.0324,0.013523,0.002678,0.000431,0.016336
3431000,0.0324,0.013523,0.002678,0.000431,0.010578
3432000,0.0324,0.013523,0.002678,0.000431,0.014221
3433000,0.0324,0.013523,0.002678,0.000431,0.014926
3434000,0.0324,0.013523,0.002678,0.000431,0.012223
3435000,0.0324,0.013523,0.002678,0.000431,0.017394
3436000,0.0324,0.013523,0.002678,0.000431,0.009637
3437000,0.0324,0.013523,0.002678,0.000431,0.017629
3438000,0.0324,0.013523,0.002678,0.000431,0.011635
3439000,0.0324,0.013523,0.002678,0.000431,0.011988
3440000,0.0324,0.013523,0.002678,0.000431,0.016454
3441000,0.0324,0.013523,0.002678,0.000431,0.011165
3442000,0.0324,0.013523,0.002678,0.000431,0.015279
3443000,0.0324,0.013523,0.002678,0.000431,0.013868
3444000,0.0324,0.013523,0.002678,0.000431,0.012693
3445000,0.0324,0.013523,0.002678,0.000431,0.017159
3446000,0.0324,0.013523,0.002678,0.000431,0.010930
3447000,0.0324,0.013523,0.002678,0.000431,0.015984
3448000,0.0324,0.013523,0.002678,0.000431,0.011518
3449000,0.0324,0.013523,0.002678,0.000431,0.014221
3450000,0.0324,0.013523,0.002678,0.000431,0.014573
3451000,0.0324,0.013523,0.002678,0.000431,0.011518
3452000,0.0324,0.013523,0.002678,0.000431,0.015749
3453000,0.0324,0.013523,0.002678,0.000431,0.011283
3454000,0.0324,0.013523,0.002678,0.000431,0.013986
3455000,0.0324,0.013523,0.002678,0.000431,0.011048
3456000,0.0324,0.013523,0.002678,0.000431,0.015279
3457000,0.0324,0.013523,0.002678,0.000431,0.013281
3458000,0.0324,0.013523,0.002678,0.000431,0.011635
3459000,0.0324,0.013523,0.002678,0.000431,0.018687
3460000,0.0324,0.013523,0.002678,0.000431,0.009872
3461000,0.0324,0.013523,0.002678,0.000431,0.019392
3462000,0.0324,0.013523,0.002678,0.000431,0.010460
3463000,0.0324,0.013523,0.002678,0.000431,0.015631
3464000,0.0324,0.013523,0.002678,0.000431,0.014338
3465000,0.0324,0.013523,0.002678,0.000431,0.011988
3466000,0.0324,0.013523,0.002678,0.000431,0.018452
3467000,0.0324,0.013523,0.002678,0.000431,0.010930
3468000,0.0324,0.013523,0.002678,0.000431,0.017159
3469000,0.0324,0.013523,0.002678,0.000431,0.012105
3470000,0.0324,0.013523,0.002678,0.000431,0.013633
3471000,0.0324,0.013523,0.002678,0.000431,0.013046
3472000,0.0324,0.013523,0.002678,0.000431,0.011048
3473000,0.0324,0.013523,0.002678,0.000431,0.016219
3474000,0.0324,0.013523,0.002678,0.000431,0.010930
3475000,0.0324,0.013523,0.002678,0.000431,0.013633
3476000,0.0324,0.013523,0.002678,0.000431,0.015161
3477000,0.0324,0.013523,0.002678,0.000431,0.011048
3478000,0.0324,0.013523,0.002678,0.000431,0.015396
3479000,0.0324,0.013523,0.002678,0.000431,0.010460
3480000,0.0324,0.013523,0.002678,0.000431,0.015161
3481000,0.0324,0.013523,0.002678,0.000431,0.014221
3482000,0.0324,0.013523,0.002678,0.000431,0.012576
3483000,0.0324,0.013523,0.002678,0.000431,0.018452
3484000,0.0324,0.013523,0.002678,0.000431,0.010225
3485000,0.0324,0.013523,0.002678,0.000431,0.013633
3486000,0.0324,0.013523,0.002678,0.000431,0.011635
3487000,0.0324,0.013523,0.002678,0.000431,0.011988
3488000,0.0324,0.013523,0.002678,0.000431,0.016571
3489000,0.0324,0.013523,0.002678,0.000431,0.011518
3490000,0.0324,0.013523,0.002678,0.000431,0.016454
3491000,0.0324,0.013523,0.002678,0.000431,0.011635
3492000,0.0324,0.013523,0.002678,0.000431,0.011988
3493000,0.0324,0.013523,0.002678,0.000431,0.017159
3494000,0.0324,0.013523,0.002678,0.000431,0.008462
3495000,0.0324,0.013523,0.002678,0.000431,0.008815
3496000,0.0324,0.013523,0.002678,0.000431,0.004584
3497000,0.0324,0.013523,0.002678,0.000431,0.008345
3498000,0.0324,0.013523,0.002678,0.000431,0.004819
3499000,0.0324,0.013523,0.002678,0.000431,0.006347
3500000,0.0324,0.013523,0.002678,0.000431,0.007992
3501000,0.0324,0.013523,0.002678,0.000431,0.005524
3502000,0.0324,0.013523,0.002678,0.000431,0.006817
3503000,0.0324,0.013523,0.002678,0.000431,0.004231
3504000,0.0324,0.013523,0.002678,0.000431,0.006229
3505000,0.0324,0.013523,0.002678,0.000431,0.008580
3506000,0.0324,0.013523,0.002678,0.000431,0.006347
3507000,0.0324,0.013523,0.002678,0.000431,0.006934
3508000,0.0324,0.013523,0.002678,0.000431,0.005994
3509000,0.0324,0.013523,0.002678,0.000431,0.008345
3510000,0.0324,0.013523,0.002678,0.000431,0.005641
3511000,0.0324,0.013523,0.002678,0.000431,0.006347
3512000,0.0324,0.013523,0.002678,0.000431,0.006934
3513000,0.0324,0.013523,0.002678,0.000431,0.007992
3514000,0.0324,0.013523,0.002678,0.000431,0.006347
3515000,0.0324,0.013523,0.002678,0.000431,0.006347
3516000,0.0324,0.013523,0.002678,0.000431,0.007169
3517000,0.0324,0.013523,0.002678,0.000431,0.004819
3518000,0.0324,0.013523,0.002678,0.000431,0.007052
3519000,0.0324,0.013523,0.002678,0.000431,0.007169
3520000,0.0324,0.013523,0.002678,0.000431,0.005759
3521000,0.0324,0.013523,0.002678,0.000431,0.008462
3522000,0.0324,0.013523,0.002678,0.000431,0.004701
3523000,0.0324,0.013523,0.002678,0.000431,0.008345
3524000,0.0324,0.013523,0.002678,0.000431,0.006699
3525000,0.0324,0.013523,0.002678,0.000431,0.006111
3526000,0.0324,0.013523,0.002678,0.000431,0.008580
3527000,0.0324,0.013523,0.002678,0.000431,0.004466
3528000,0.0324,0.013523,0.002678,0.000431,0.008227
3529000,0.0324,0.013523,0.002678,0.000431,0.005876
3530000,0.0324,0.013523,0.002678,0.000431,0.006229
3531000,0.0324,0.013523,0.002678,0.000431,0.008109
3532000,0.0324,0.013523,0.002678,0.000431,0.006229
3533000,0.0324,0.013523,0.002678,0.000431,0.006817
3534000,0.0324,0.013523,0.002678,0.000431,0.005289
3535000,0.0324,0.013523,0.002678,0.000431,0.005641
3536000,0.0324,0.013523,0.002678,0.000431,0.007992
3537000,0.0324,0.013523,0.002678,0.000431,0.005759
3538000,0.0324,0.013523,0.002678,0.000431,0.008697
3539000,0.0324,0.013523,0.002678,0.000431,0.005994
3540000,0.0324,0.013523,0.002678,0.000431,0.008345
3541000,0.0324,0.013523,0.002678,0.000431,0.006229
3542000,0.0324,0.013523,0.002678,0.000431,0.006934
3543000,0.0324,0.013523,0.002678,0.000431,0.006934
3544000,0.0324,0.013523,0.002678,0.000431,0.006229
3545000,0.0324,0.013523,0.002678,0.000431,0.008109
3546000,0.0324,0.013523,0.002678,0.000431,0.004819
3547000,0.0324,0.013523,0.002678,0.000431,0.008815
3548000,0.0324,0.013523,0.002678,0.000431,0.004701
3549000,0.0324,0.013523,0.002678,0.000431,0.005524
3550000,0.0324,0.013523,0.002678,0.000431,0.007522
3551000,0.0324,0.013523,0.002678,0.000431,0.005054
3552000,0.0324,0.013523,0.002678,0.000431,0.008227
3553000,0.0324,0.013523,0.002678,0.000431,0.005406
3554000,0.0324,0.013523,0.002678,0.000431,0.007522
3555000,0.0324,0.013523,0.002678,0.000431,0.004819
3556000,0.0324,0.013523,0.002678,0.000431,0.008932
3557000,0.0324,0.013523,0.002678,0.000431,0.005406
3558000,0.0324,0.013523,0.002678,0.000431,0.006229
3559000,0.0324,0.013523,0.002678,0.000431,0.006347
3560000,0.0324,0.013523,0.002678,0.000431,0.004936
3561000,0.0324,0.013523,0.002678,0.000431,0.007052
3562000,0.0324,0.013523,0.002678,0.000431,0.005759
3563000,0.0324,0.013523,0.002678,0.000431,0.006347
3564000,0.0324,0.013523,0.002678,0.000431,0.009050
3565000,0.0324,0.013523,0.002678,0.000431,0.005876
3566000,0.0324,0.013523,0.002678,0.000431,0.008580
3567000,0.0324,0.013523,0.002678,0.000431,0.004936
3568000,0.0324,0.013523,0.002678,0.000431,0.008109
3569000,0.0324,0.013523,0.002678,0.000431,0.005289
3570000,0.0324,0.013523,0.002678,0.000431,0.007287
3571000,0.0324,0.013523,0.002678,0.000431,0.005289
3572000,0.0324,0.013523,0.002678,0.000431,0.005641
3573000,0.0324,0.013523,0.002678,0.000431,0.008697
3574000,0.0324,0.013523,0.002678,0.000431,0.005759
3575000,0.0324,0.013523,0.002678,0.000431,0.008462
3576000,0.0324,0.013523,0.002678,0.000431,0.004113
3577000,0.0324,0.013523,0.002678,0.000431,0.007522
3578000,0.0324,0.013523,0.002678,0.000431,0.006699
3579000,0.0324,0.013523,0.002678,0.000431,0.007052
3580000,0.0324,0.013523,0.002678,0.000431,0.006229
3581000,0.0324,0.013523,0.002678,0.000431,0.005524
3582000,0.0324,0.013523,0.002678,0.000431,0.008227
3583000,0.0324,0.013523,0.002678,0.000431,0.005171
3584000,0.0324,0.013523,0.002678,0.000431,0.007639
3585000,0.0324,0.013523,0.002678,0.000431,0.005524
3586000,0.0324,0.013523,0.002678,0.000431,0.005759
3587000,0.0324,0.013523,0.002678,0.000431,0.008580
3588000,0.0324,0.013523,0.002678,0.000431,0.006229
3589000,0.0324,0.013523,0.002678,0.000431,0.007522
3590000,0.0324,0.013523,0.002678,0.000431,0.006347
3591000,0.0324,0.013523,0.002678,0.000431,0.006347
3592000,0.0324,0.013523,0.002678,0.000431,0.007874
3593000,0.0324,0.013523,0.002678,0.000431,0.005171
3594000,0.0324,0.013523,0.002678,0.000431,0.007522
3595000,0.0324,0.013523,0.002678,0.000431,0.006229
3596000,0.0324,0.013523,0.002678,0.000431,0.005171
3597000,0.0324,0.013523,0.002678,0.000431,0.008109
3598000,0.0324,0.013523,0.002678,0.000431,0.006229
3599000,0.0324,0.013523,0.002678,0.000431,0.007639
3600000,0.0324,0.013523,0.002678,0.000431,0.005641
3601000,0.0324,0.013523,0.002678,0.000431,0.006111
3602000,0.0324,0.013523,0.002678,0.000431,0.008815
3603000,0.0324,0.013523,0.002678,0.000431,0.005641
3604000,0.0324,0.013523,0.002678,0.000431,0.006464
3605000,0.0324,0.013523,0.002678,0.000431,0.006229
3606000,0.0324,0.013523,0.002678,0.000431,0.006817
3607000,0.0324,0.013523,0.002678,0.000431,0.006347
3608000,0.0324,0.013523,0.002678,0.000431,0.005641
3609000,0.0324,0.013523,0.002678,0.000431,0.007992
3610000,0.0324,0.013523,0.002678,0.000431,0.005289
3611000,0.0324,0.013523,0.002678,0.000431,0.007757
3612000,0.0324,0.013523,0.002678,0.000431,0.005289
3613000,0.0324,0.013523,0.002678,0.000431,0.006934
3614000,0.0324,0.013523,0.002678,0.000431,0.006347
3615000,0.0324,0.013523,0.002678,0.000431,0.006111
3616000,0.0324,0.013523,0.002678,0.000431,0.008227
3617000,0.0324,0.013523,0.002678,0.000431,0.004819
3618000,0.0324,0.013523,0.002678,0.000431,0.008697
3619000,0.0324,0.013523,0.002678,0.000431,0.005406
3620000,0.0324,0.013523,0.002678,0.000431,0.008580
3621000,0.0324,0.013523,0.002678,0.000431,0.005171
3622000,0.0324,0.013523,0.002678,0.000431,0.007992
3623000,0.0324,0.013523,0.002678,0.000431,0.006229
3624000,0.0324,0.013523,0.002678,0.000431,0.005171
3625000,0.0324,0.013523,0.002678,0.000431,0.008109
3626000,0.0324,0.013523,0.002678,0.000431,0.005524
3627000,0.0324,0.013523,0.002678,0.000431,0.007404
3628000,0.0324,0.013523,0.002678,0.000431,0.005406
3629000,0.0324,0.013523,0.002678,0.000431,0.008462
3630000,0.0324,0.013523,0.002678,0.000431,0.005876
3631000,0.0324,0.013523,0.002678,0.000431,0.005054
3632000,0.0324,0.013523,0.002678,0.000431,0.008462
3633000,0.0324,0.013523,0.002678,0.000431,0.005406
3634000,0.0324,0.013523,0.002678,0.000431,0.010107
3635000,0.0324,0.013523,0.002678,0.000431,0.005406
3636000,0.0324,0.013523,0.002678,0.000431,0.007757
3637000,0.0324,0.013523,0.002678,0.000431,0.007052
3638000,0.0324,0.013523,0.002678,0.000431,0.005289
3639000,0.0324,0.013523,0.002678,0.000431,0.007757
3640000,0.0324,0.013523,0.002678,0.000431,0.004349
3641000,0.0324,0.013523,0.002678,0.000431,0.007169
3642000,0.0324,0.013523,0.002678,0.000431,0.005289
3643000,0.0324,0.013523,0.002678,0.000431,0.005054
3644000,0.0324,0.013523,0.002678,0.000431,0.009285
3645000,0.0324,0.013523,0.002678,0.000431,0.006229
3646000,0.0324,0.013523,0.002678,0.000431,0.008462
3647000,0.0324,0.013523,0.002678,0.000431,0.006347
3648000,0.0324,0.013523,0.002678,0.000431,0.008109
3649000,0.0324,0.013523,0.002678,0.000431,0.006464
3650000,0.0324,0.013523,0.002678,0.000431,0.007992
3651000,0.0324,0.013523,0.002678,0.000431,0.005641
3652000,0.0324,0.013523,0.002678,0.000431,0.005171
3653000,0.0324,0.013523,0.002678,0.000431,0.008109
3654000,0.0324,0.013523,0.002678,0.000431,0.005524
3655000,0.0324,0.013523,0.002678,0.000431,0.007522
3656000,0.0324,0.013523,0.002678,0.000431,0.004113
3657000,0.0324,0.013523,0.002678,0.000431,0.005524
3658000,0.0324,0.013523,0.002678,0.000431,0.007639
3659000,0.0324,0.013523,0.002678,0.000431,0.006347
3660000,0.0324,0.013523,0.002678,0.000431,0.008109
3661000,0.0324,0.013523,0.002678,0.000431,0.005641
3662000,0.0324,0.013523,0.002678,0.000431,0.008227
3663000,0.0324,0.013523,0.002678,0.000431,0.007287
3664000,0.0324,0.013523,0.002678,0.000431,0.005171
3665000,0.0324,0.013523,0.002678,0.000431,0.008462
3666000,0.0324,0.013523,0.002678,0.000431,0.005876
3667000,0.0324,0.013523,0.002678,0.000431,0.008345
3668000,0.0324,0.013523,0.002678,0.000431,0.004701
3669000,0.0324,0.013523,0.002678,0.000431,0.007639
3670000,0.0324,0.013523,0.002678,0.000431,0.006229
3671000,0.0324,0.013523,0.002678,0.000431,0.005054
3672000,0.0324,0.013523,0.002678,0.000431,0.008109
3673000,0.0324,0.013523,0.002678,0.000431,0.005759
3674000,0.0324,0.013523,0.002678,0.000431,0.007757
3675000,0.0324,0.013523,0.002678,0.000431,0.004231
3676000,0.0324,0.013523,0.002678,0.000431,0.008697
3677000,0.0324,0.013523,0.002678,0.000431,0.006817
3678000,0.0324,0.013523,0.002678,0.000431,0.005171
3679000,0.0324,0.013523,0.002678,0.000431,0.009050
3680000,0.0324,0.013523,0.002678,0.000431,0.005406
3681000,0.0324,0.013523,0.002678,0.000431,0.007874
3682000,0.0324,0.013523,0.002678,0.000431,0.005641
3683000,0.0324,0.013523,0.002678,0.000431,0.006464
3684000,0.0324,0.013523,0.002678,0.000431,0.007992
3685000,0.0324,0.013523,0.002678,0.000431,0.004231
3686000,0.0324,0.013523,0.002678,0.000431,0.008227
3687000,0.0324,0.013523,0.002678,0.000431,0.005876
3688000,0.0324,0.013523,0.002678,0.000431,0.006111
3689000,0.0324,0.013523,0.002678,0.000431,0.008815
3690000,0.0324,0.013523,0.002678,0.000431,0.005876
3691000,0.0324,0.013523,0.002678,0.000431,0.006699
3692000,0.0324,0.013523,0.002678,0.000431,0.026326
3693000,0.0324,0.013523,0.002678,0.000431,0.019862
3694000,0.0324,0.013523,0.002678,0.000431,0.007522
3695000,0.0324,0.013523,0.002678,0.000431,0.046894
3696000,0.0324,0.013523,0.002678,0.000431,0.004231
3697000,0.0324,0.013523,0.002678,0.000431,0.009872
3698000,0.0324,0.013523,0.002678,0.000431,0.006464
3699000,0.0324,0.013523,0.002678,0.000431,0.028677
3700000,0.0324,0.013523,0.002678,0.000431,0.064876
3701000,0.0324,0.013523,0.002678,0.000431,0.041252
3702000,0.0324,0.013523,0.002678,0.000431,0.043368
3703000,0.0324,0.013523,0.002678,0.000431,0.042663
3704000,0.0324,0.013523,0.002678,0.000431,0.048539
3705000,0.0324,0.013523,0.002678,0.000431,0.029500
3706000,0.0324,0.013523,0.002678,0.000431,0.035964
3707000,0.0324,0.013523,0.002678,0.000431,0.026091
3708000,0.0324,0.013523,0.002678,0.000431,0.012105
3709000,0.0324,0.013523,0.002678,0.000431,0.019157
3710000,0.0324,0.013523,0.002678,0.000431,0.011518
3711000,0.0324,0.013523,0.002678,0.000431,0.006347
3712000,0.0324,0.013523,0.002678,0.000431,0.008462
3713000,0.0324,0.013523,0.002678,0.000431,0.006464
3714000,0.0324,0.013523,0.002678,0.000431,0.008580
3715000,0.0324,0.013523,0.002678,0.000431,0.005054
3716000,0.0324,0.013523,0.002678,0.000431,0.008462
3717000,0.0324,0.013523,0.002678,0.000431,0.005994
3718000,0.0324,0.013523,0.002678,0.000431,0.007404
3719000,0.0324,0.013523,0.002678,0.000431,0.006934
3720000,0.0324,0.013523,0.002678,0.000431,0.006347
3721000,0.0324,0.013523,0.002678,0.000431,0.008580
3722000,0.0324,0.013523,0.002678,0.000431,0.006229
3723000,0.0324,0.013523,0.002678,0.000431,0.007992
3724000,0.0324,0.013523,0.002678,0.000431,0.005289
3725000,0.0324,0.013523,0.002678,0.000431,0.006347
3726000,0.0324,0.013523,0.002678,0.000431,0.008462
3727000,0.0324,0.013523,0.002678,0.000431,0.005289
3728000,0.0324,0.013523,0.002678,0.000431,0.010107
3729000,0.0324,0.013523,0.002678,0.000431,0.005289
3730000,0.0324,0.013523,0.002678,0.000431,0.006464
3731000,0.0324,0.013523,0.002678,0.000431,0.009167
3732000,0.0324,0.013523,0.002678,0.000431,0.005641
3733000,0.0324,0.013523,0.002678,0.000431,0.006699
3734000,0.0324,0.013523,0.002678,0.000431,0.007757
3735000,0.0324,0.013523,0.002678,0.000431,0.005641
3736000,0.0324,0.013523,0.002678,0.000431,0.009285
3737000,0.0324,0.013523,0.002678,0.000431,0.006347
3738000,0.0324,0.013523,0.002678,0.000431,0.006229
3739000,0.0324,0.013523,0.002678,0.000431,0.006934
3740000,0.0324,0.013523,0.002678,0.000431,0.006347
3741000,0.0324,0.013523,0.002678,0.000431,0.008932
3742000,0.0324,0.013523,0.002678,0.000431,0.005406
3743000,0.0324,0.013523,0.002678,0.000431,0.008109
3744000,0.0324,0.013523,0.002678,0.000431,0.006817
3745000,0.0324,0.013523,0.002678,0.000431,0.006347
3746000,0.0324,0.013523,0.002678,0.000431,0.008345
3747000,0.0324,0.013523,0.002678,0.000431,0.005406
3748000,0.0324,0.013523,0.002678,0.000431,0.006699
3749000,0.0324,0.013523,0.002678,0.000431,0.008697
3750000,0.0324,0.013523,0.002678,0.000431,0.006464
3751000,0.0324,0.013523,0.002678,0.000431,0.007992
3752000,0.0324,0.013523,0.002678,0.000431,0.005641
3753000,0.0324,0.013523,0.002678,0.000431,0.006464
3754000,0.0324,0.013523,0.002678,0.000431,0.009167
3755000,0.0324,0.013523,0.002678,0.000431,0.005406
3756000,0.0324,0.013523,0.002678,0.000431,0.007874
3757000,0.0324,0.013523,0.002678,0.000431,0.006817
3758000,0.0324,0.013523,0.002678,0.000431,0.005641
3759000,0.0324,0.013523,0.002678,0.000431,0.008697
3760000,0.0324,0.013523,0.002678,0.000431,0.005759
3761000,0.0324,0.013523,0.002678,0.000431,0.007874
3762000,0.0324,0.013523,0.002678,0.000431,0.006464
3763000,0.0324,0.013523,0.002678,0.000431,0.009637
3764000,0.0324,0.013523,0.002678,0.000431,0.005876
3765000,0.0324,0.013523,0.002678,0.000431,0.006347
3766000,0.0324,0.013523,0.002678,0.000431,0.008932
3767000,0.0324,0.013523,0.002678,0.000431,0.005406
3768000,0.0324,0.013523,0.002678,0.000431,0.009167
3769000,0.0324,0.013523,0.002678,0.000431,0.006229
3770000,0.0324,0.013523,0.002678,0.000431,0.006347
3771000,0.0324,0.013523,0.002678,0.000431,0.008697
3772000,0.0324,0.013523,0.002678,0.000431,0.005054
3773000,0.0324,0.013523,0.002678,0.000431,0.008697
3774000,0.0324,0.013523,0.002678,0.000431,0.006934
3775000,0.0324,0.013523,0.002678,0.000431,0.004936
3776000,0.0324,0.013523,0.002678,0.000431,0.008815
3777000,0.0324,0.013523,0.002678,0.000431,0.006347
3778000,0.0324,0.013523,0.002678,0.000431,0.008345
3779000,0.0324,0.013523,0.002678,0.000431,0.005406
3780000,0.0324,0.013523,0.002678,0.000431,0.006347
3781000,0.0324,0.013523,0.002678,0.000431,0.009167
3782000,0.0324,0.013523,0.002678,0.000431,0.006347
3783000,0.0324,0.013523,0.002678,0.000431,0.008345
3784000,0.0324,0.013523,0.002678,0.000431,0.005406
3785000,0.0324,0.013523,0.002678,0.000431,0.007404
3786000,0.0324,0.013523,0.002678,0.000431,0.006229
3787000,0.0324,0.013523,0.002678,0.000431,0.006347
3788000,0.0324,0.013523,0.002678,0.000431,0.008697
3789000,0.0324,0.013523,0.002678,0.000431,0.005994
3790000,0.0324,0.013523,0.002678,0.000431,0.007757
3791000,0.0324,0.013523,0.002678,0.000431,0.006347
3792000,0.0324,0.013523,0.002678,0.000431,0.005524
3793000,0.0324,0.013523,0.002678,0.000431,0.008815
3794000,0.0324,0.013523,0.002678,0.000431,0.005759
3795000,0.0324,0.013523,0.002678,0.000431,0.007874
3796000,0.0324,0.013523,0.002678,0.000431,0.006464
3797000,0.0324,0.013523,0.002678,0.000431,0.005759
3798000,0.0324,0.013523,0.002678,0.000431,0.007992
3799000,0.0324,0.013523,0.002678,0.000431,0.006347
3800000,0.0324,0.013523,0.002678,0.000431,0.008932
3801000,0.0324,0.013523,0.002678,0.000431,0.005406
3802000,0.0324,0.013523,0.002678,0.000431,0.007874
3803000,0.0324,0.013523,0.002678,0.000431,0.006934
3804000,0.0324,0.013523,0.002678,0.000431,0.006464
3805000,0.0324,0.013523,0.002678,0.000431,0.009167
3806000,0.0324,0.013523,0.002678,0.000431,0.004466
3807000,0.0324,0.013523,0.002678,0.000431,0.008345
3808000,0.0324,0.013523,0.002678,0.000431,0.006699
3809000,0.0324,0.013523,0.002678,0.000431,0.006229
3810000,0.0324,0.013523,0.002678,0.000431,0.009050
3811000,0.0324,0.013523,0.002678,0.000431,0.005406
3812000,0.0324,0.013523,0.002678,0.000431,0.008932
3813000,0.0324,0.013523,0.002678,0.000431,0.005406
3814000,0.0324,0.013523,0.002678,0.000431,0.009637
3815000,0.0324,0.013523,0.002678,0.000431,0.005876
3816000,0.0324,0.013523,0.002678,0.000431,0.005759
3817000,0.0324,0.013523,0.002678,0.000431,0.009167
3818000,0.0324,0.013523,0.002678,0.000431,0.007757
3819000,0.0324,0.013523,0.002678,0.000431,0.054768
3820000,0.0324,0.013523,0.002678,0.000431,0.015279
3821000,0.0324,0.013523,0.002678,0.000431,0.008580
3822000,0.0324,0.013523,0.002678,0.000431,0.008932
3823000,0.0324,0.013523,0.002678,0.000431,0.004819
3824000,0.0324,0.013523,0.002678,0.000431,0.037962
3825000,0.0324,0.013523,0.002678,0.000431,0.058294
3826000,0.0324,0.013523,0.002678,0.000431,0.008815
3827000,0.0324,0.013523,0.002678,0.000431,0.004231
3828000,0.0324,0.013523,0.002678,0.000431,0.007404
3829000,0.0324,0.013523,0.002678,0.000431,0.051947
3830000,0.0324,0.013523,0.002678,0.000431,0.013516
3831000,0.0324,0.013523,0.002678,0.000431,0.009637
3832000,0.0324,0.013523,0.002678,0.000431,0.007757
3833000,0.0324,0.013523,0.002678,0.000431,0.009520
3834000,0.0324,0.013523,0.002678,0.000431,0.004819
3835000,0.0324,0.013523,0.002678,0.000431,0.014926
3836000,0.0324,0.013523,0.002678,0.000431,0.030792
3837000,0.0324,0.013523,0.002678,0.000431,0.037727
3838000,0.0324,0.013523,0.002678,0.000431,0.023858
3839000,0.0324,0.013523,0.002678,0.000431,0.019275
3840000,0.0324,0.013523,0.002678,0.000431,0.026444
3841000,0.0324,0.013523,0.002678,0.000431,0.026796
3842000,0.0324,0.013523,0.002678,0.000431,0.008345
3843000,0.0324,0.013523,0.002678,0.000431,0.007287
3844000,0.0324,0.013523,0.002678,0.000431,0.008580
3845000,0.0324,0.013523,0.002678,0.000431,0.004819
3846000,0.0324,0.013523,0.002678,0.000431,0.007639
3847000,0.0324,0.013523,0.002678,0.000431,0.005994
3848000,0.0324,0.013523,0.002678,0.000431,0.033848
3849000,0.0324,0.013523,0.002678,0.000431,0.071105
3850000,0.0324,0.013523,0.002678,0.000431,0.025856
3851000,0.0324,0.013523,0.002678,0.000431,0.019627
3852000,0.0324,0.013523,0.002678,0.000431,0.015396
3853000,0.0324,0.013523,0.002678,0.000431,0.011048
3854000,0.0324,0.013523,0.002678,0.000431,0.017629
3855000,0.0324,0.013523,0.002678,0.000431,0.018687
3856000,0.0324,0.013523,0.002678,0.000431,0.024798
3857000,0.0324,0.013523,0.002678,0.000431,0.018805
3858000,0.0324,0.013523,0.002678,0.000431,0.013398
3859000,0.0324,0.013523,0.002678,0.000431,0.013281
3860000,0.0324,0.013523,0.002678,0.000431,0.006111
3861000,0.0324,0.013523,0.002678,0.000431,0.008697
3862000,0.0324,0.013523,0.002678,0.000431,0.009520
