Cycle,Area(mm^2),PeakDynamic(W),SubthresholdLeakage(W),GateLeakage(W),RunTimeDynamic(W)
6000000,0.0324,0.013523,0.002678,0.000431,0.871236
6001000,0.0324,0.013523,0.002678,0.000431,0.856663
6002000,0.0324,0.013523,0.002678,0.000431,0.851139
6003000,0.0324,0.013523,0.002678,0.000431,0.928355
6004000,0.0324,0.013523,0.002678,0.000431,0.876173
6005000,0.0324,0.013523,0.002678,0.000431,0.892509
6006000,0.0324,0.013523,0.002678,0.000431,0.859484
6007000,0.0324,0.013523,0.002678,0.000431,0.854312
6008000,0.0324,0.013523,0.002678,0.000431,0.864302
6009000,0.0324,0.013523,0.002678,0.000431,0.920481
6010000,0.0324,0.013523,0.002678,0.000431,0.854312
6011000,0.0324,0.013523,0.002678,0.000431,0.815881
6012000,0.0324,0.013523,0.002678,0.000431,0.815998
6013000,0.0324,0.013523,0.002678,0.000431,0.841149
6014000,0.0324,0.013523,0.002678,0.000431,0.812355
6015000,0.0324,0.013523,0.002678,0.000431,0.862892
6016000,0.0324,0.013523,0.002678,0.000431,0.765226
6017000,0.0324,0.013523,0.002678,0.000431,0.774041
6018000,0.0324,0.013523,0.002678,0.000431,0.742896
6019000,0.0324,0.013523,0.002678,0.000431,0.725384
6020000,0.0324,0.013523,0.002678,0.000431,0.831747
6021000,0.0324,0.013523,0.002678,0.000431,0.859601
6022000,0.0324,0.013523,0.002678,0.000431,0.798251
6023000,0.0324,0.013523,0.002678,0.000431,0.815998
6024000,0.0324,0.013523,0.002678,0.000431,0.853020
6025000,0.0324,0.013523,0.002678,0.000431,0.874762
6026000,0.0324,0.013523,0.002678,0.000431,0.868298
6027000,0.0324,0.013523,0.002678,0.000431,0.825988
6028000,0.0324,0.013523,0.002678,0.000431,0.887925
6029000,0.0324,0.013523,0.002678,0.000431,0.940461
6030000,0.0324,0.013523,0.002678,0.000431,0.965141
6031000,0.0324,0.013523,0.002678,0.000431,0.929765
6032000,0.0324,0.013523,0.002678,0.000431,0.960440
6033000,0.0324,0.013523,0.002678,0.000431,0.987002
6034000,0.0324,0.013523,0.002678,0.000431,0.928943
6035000,0.0324,0.013523,0.002678,0.000431,0.959383
6036000,0.0324,0.013523,0.002678,0.000431,0.900971
6037000,0.0324,0.013523,0.002678,0.000431,0.928003
6038000,0.0324,0.013523,0.002678,0.000431,0.940225
6039000,0.0324,0.013523,0.002678,0.000431,0.938933
6040000,0.0324,0.013523,0.002678,0.000431,0.939168
6041000,0.0324,0.013523,0.002678,0.000431,1.009802
6042000,0.0324,0.013523,0.002678,0.000431,0.940461
6043000,0.0324,0.013523,0.002678,0.000431,0.861952
6044000,0.0324,0.013523,0.002678,0.000431,0.827986
6045000,0.0324,0.013523,0.002678,0.000431,0.817644
6046000,0.0324,0.013523,0.002678,0.000431,0.935054
6047000,0.0324,0.013523,0.002678,0.000431,0.976659
6048000,0.0324,0.013523,0.002678,0.000431,0.907200
6049000,0.0324,0.013523,0.002678,0.000431,0.950098
6050000,0.0324,0.013523,0.002678,0.000431,0.957150
6051000,0.0324,0.013523,0.002678,0.000431,0.913312
6052000,0.0324,0.013523,0.002678,0.000431,1.020380
6053000,0.0324,0.013523,0.002678,0.000431,1.087958
6054000,0.0324,0.013523,0.002678,0.000431,1.119456
6055000,0.0324,0.013523,0.002678,0.000431,1.137555
6056000,0.0324,0.013523,0.002678,0.000431,1.031310
6057000,0.0324,0.013523,0.002678,0.000431,1.052700
6058000,0.0324,0.013523,0.002678,0.000431,1.007569
6059000,0.0324,0.013523,0.002678,0.000431,1.039654
6060000,0.0324,0.013523,0.002678,0.000431,0.935289
6061000,0.0324,0.013523,0.002678,0.000431,0.889571
6062000,0.0324,0.013523,0.002678,0.000431,0.850316
6063000,0.0324,0.013523,0.002678,0.000431,0.840679
6064000,0.0324,0.013523,0.002678,0.000431,0.830689
6065000,0.0324,0.013523,0.002678,0.000431,0.833862
6066000,0.0324,0.013523,0.002678,0.000431,0.862422
6067000,0.0324,0.013523,0.002678,0.000431,0.794020
6068000,0.0324,0.013523,0.002678,0.000431,0.851022
6069000,0.0324,0.013523,0.002678,0.000431,0.829866
6070000,0.0324,0.013523,0.002678,0.000431,0.782033
6071000,0.0324,0.013523,0.002678,0.000431,0.765579
6072000,0.0324,0.013523,0.002678,0.000431,0.819171
6073000,0.0324,0.013523,0.002678,0.000431,0.796136
6074000,0.0324,0.013523,0.002678,0.000431,0.853607
6075000,0.0324,0.013523,0.002678,0.000431,0.895330
6076000,0.0324,0.013523,0.002678,0.000431,0.806478
6077000,0.0324,0.013523,0.002678,0.000431,0.759232
6078000,0.0324,0.013523,0.002678,0.000431,0.788262
6079000,0.0324,0.013523,0.002678,0.000431,0.843735
6080000,0.0324,0.013523,0.002678,0.000431,0.874175
6081000,0.0324,0.013523,0.002678,0.000431,0.818114
6082000,0.0324,0.013523,0.002678,0.000431,0.782033
6083000,0.0324,0.013523,0.002678,0.000431,0.793433
6084000,0.0324,0.013523,0.002678,0.000431,0.938933
6085000,0.0324,0.013523,0.002678,0.000431,0.847496
6086000,0.0324,0.013523,0.002678,0.000431,0.736197
6087000,0.0324,0.013523,0.002678,0.000431,0.806949
6088000,0.0324,0.013523,0.002678,0.000431,0.770750
6089000,0.0324,0.013523,0.002678,0.000431,0.789672
6090000,0.0324,0.013523,0.002678,0.000431,0.740663
6091000,0.0324,0.013523,0.002678,0.000431,0.839151
6092000,0.0324,0.013523,0.002678,0.000431,0.812472
6093000,0.0324,0.013523,0.002678,0.000431,0.798016
6094000,0.0324,0.013523,0.002678,0.000431,0.726324
6095000,0.0324,0.013523,0.002678,0.000431,0.676257
6096000,0.0324,0.013523,0.002678,0.000431,0.781327
6097000,0.0324,0.013523,0.002678,0.000431,0.821640
6098000,0.0324,0.013523,0.002678,0.000431,0.773806
6099000,0.0324,0.013523,0.002678,0.000431,0.734199
6100000,0.0324,0.013523,0.002678,0.000431,0.735491
6101000,0.0324,0.013523,0.002678,0.000431,0.751123
6102000,0.0324,0.013523,0.002678,0.000431,0.797194
6103000,0.0324,0.013523,0.002678,0.000431,0.810944
6104000,0.0324,0.013523,0.002678,0.000431,0.840797
6105000,0.0324,0.013523,0.002678,0.000431,0.746421
6106000,0.0324,0.013523,0.002678,0.000431,0.764403
6107000,0.0324,0.013523,0.002678,0.000431,0.845968
6108000,0.0324,0.013523,0.002678,0.000431,0.752298
6109000,0.0324,0.013523,0.002678,0.000431,0.736314
6110000,0.0324,0.013523,0.002678,0.000431,0.751945
6111000,0.0324,0.013523,0.002678,0.000431,0.752180
6112000,0.0324,0.013523,0.002678,0.000431,0.784501
6113000,0.0324,0.013523,0.002678,0.000431,0.758762
6114000,0.0324,0.013523,0.002678,0.000431,0.776861
6115000,0.0324,0.013523,0.002678,0.000431,0.793903
6116000,0.0324,0.013523,0.002678,0.000431,0.812237
6117000,0.0324,0.013523,0.002678,0.000431,0.882754
6118000,0.0324,0.013523,0.002678,0.000431,0.868651
6119000,0.0324,0.013523,0.002678,0.000431,0.770867
6120000,0.0324,0.013523,0.002678,0.000431,0.723033
6121000,0.0324,0.013523,0.002678,0.000431,0.813765
6122000,0.0324,0.013523,0.002678,0.000431,0.830924
6123000,0.0324,0.013523,0.002678,0.000431,0.778624
6124000,0.0324,0.013523,0.002678,0.000431,0.761348
6125000,0.0324,0.013523,0.002678,0.000431,0.767342
6126000,0.0324,0.013523,0.002678,0.000431,0.716217
6127000,0.0324,0.013523,0.002678,0.000431,0.769810
6128000,0.0324,0.013523,0.002678,0.000431,0.833627
6129000,0.0324,0.013523,0.002678,0.000431,0.847026
6130000,0.0324,0.013523,0.002678,0.000431,0.849964
6131000,0.0324,0.013523,0.002678,0.000431,0.873940
6132000,0.0324,0.013523,0.002678,0.000431,0.781092
6133000,0.0324,0.013523,0.002678,0.000431,0.778742
6134000,0.0324,0.013523,0.002678,0.000431,0.730438
6135000,0.0324,0.013523,0.002678,0.000431,0.786146
6136000,0.0324,0.013523,0.002678,0.000431,0.874997
6137000,0.0324,0.013523,0.002678,0.000431,0.879698
6138000,0.0324,0.013523,0.002678,0.000431,0.954564
6139000,0.0324,0.013523,0.002678,0.000431,0.910021
6140000,0.0324,0.013523,0.002678,0.000431,0.837388
6141000,0.0324,0.013523,0.002678,0.000431,0.823755
6142000,0.0324,0.013523,0.002678,0.000431,0.875585
6143000,0.0324,0.013523,0.002678,0.000431,0.841267
6144000,0.0324,0.013523,0.002678,0.000431,0.895212
6145000,0.0324,0.013523,0.002678,0.000431,0.841149
6146000,0.0324,0.013523,0.002678,0.000431,0.882402
6147000,0.0324,0.013523,0.002678,0.000431,0.923536
6148000,0.0324,0.013523,0.002678,0.000431,0.955857
6149000,0.0324,0.013523,0.002678,0.000431,0.840797
6150000,0.0324,0.013523,0.002678,0.000431,0.841384
6151000,0.0324,0.013523,0.002678,0.000431,0.849611
6152000,0.0324,0.013523,0.002678,0.000431,0.910608
6153000,0.0324,0.013523,0.002678,0.000431,0.865242
6154000,0.0324,0.013523,0.002678,0.000431,0.817996
6155000,0.0324,0.013523,0.002678,0.000431,0.809182
6156000,0.0324,0.013523,0.002678,0.000431,0.755589
6157000,0.0324,0.013523,0.002678,0.000431,0.727852
6158000,0.0324,0.013523,0.002678,0.000431,0.699528
6159000,0.0324,0.013523,0.002678,0.000431,0.760290
6160000,0.0324,0.013523,0.002678,0.000431,0.750182
6161000,0.0324,0.013523,0.002678,0.000431,0.794961
6162000,0.0324,0.013523,0.002678,0.000431,0.724914
6163000,0.0324,0.013523,0.002678,0.000431,0.740663
6164000,0.0324,0.013523,0.002678,0.000431,0.761113
6165000,0.0324,0.013523,0.002678,0.000431,0.757939
6166000,0.0324,0.013523,0.002678,0.000431,0.842560
6167000,0.0324,0.013523,0.002678,0.000431,0.832922
6168000,0.0324,0.013523,0.002678,0.000431,0.798134
6169000,0.0324,0.013523,0.002678,0.000431,0.845380
6170000,0.0324,0.013523,0.002678,0.000431,0.942458
6171000,0.0324,0.013523,0.002678,0.000431,0.935172
6172000,0.0324,0.013523,0.002678,0.000431,0.908610
6173000,0.0324,0.013523,0.002678,0.000431,0.808241
6174000,0.0324,0.013523,0.002678,0.000431,0.872294
6175000,0.0324,0.013523,0.002678,0.000431,0.911784
6176000,0.0324,0.013523,0.002678,0.000431,0.876290
6177000,0.0324,0.013523,0.002678,0.000431,0.829984
6178000,0.0324,0.013523,0.002678,0.000431,0.860659
6179000,0.0324,0.013523,0.002678,0.000431,0.866183
6180000,0.0324,0.013523,0.002678,0.000431,0.868416
6181000,0.0324,0.013523,0.002678,0.000431,0.835038
6182000,0.0324,0.013523,0.002678,0.000431,0.839739
6183000,0.0324,0.013523,0.002678,0.000431,0.839974
6184000,0.0324,0.013523,0.002678,0.000431,0.889218
6185000,0.0324,0.013523,0.002678,0.000431,0.862304
6186000,0.0324,0.013523,0.002678,0.000431,0.825635
6187000,0.0324,0.013523,0.002678,0.000431,0.851374
6188000,0.0324,0.013523,0.002678,0.000431,0.988882
6189000,0.0324,0.013523,0.002678,0.000431,0.905790
6190000,0.0324,0.013523,0.002678,0.000431,0.810944
6191000,0.0324,0.013523,0.002678,0.000431,0.871707
6192000,0.0324,0.013523,0.002678,0.000431,0.952919
6193000,0.0324,0.013523,0.002678,0.000431,0.941518
6194000,0.0324,0.013523,0.002678,0.000431,0.875115
6195000,0.0324,0.013523,0.002678,0.000431,0.895917
6196000,0.0324,0.013523,0.002678,0.000431,0.835390
6197000,0.0324,0.013523,0.002678,0.000431,0.762405
6198000,0.0324,0.013523,0.002678,0.000431,0.832805
6199000,0.0324,0.013523,0.002678,0.000431,0.824695
6200000,0.0324,0.013523,0.002678,0.000431,0.794138
6201000,0.0324,0.013523,0.002678,0.000431,0.786264
6202000,0.0324,0.013523,0.002678,0.000431,0.832335
6203000,0.0324,0.013523,0.002678,0.000431,0.828691
6204000,0.0324,0.013523,0.002678,0.000431,0.703406
6205000,0.0324,0.013523,0.002678,0.000431,0.655925
6206000,0.0324,0.013523,0.002678,0.000431,0.621372
6207000,0.0324,0.013523,0.002678,0.000431,0.663212
6208000,0.0324,0.013523,0.002678,0.000431,0.738195
6209000,0.0324,0.013523,0.002678,0.000431,0.727147
6210000,0.0324,0.013523,0.002678,0.000431,0.666620
6211000,0.0324,0.013523,0.002678,0.000431,0.630421
6212000,0.0324,0.013523,0.002678,0.000431,0.619256
6213000,0.0324,0.013523,0.002678,0.000431,0.688950
6214000,0.0324,0.013523,0.002678,0.000431,0.757704
6215000,0.0324,0.013523,0.002678,0.000431,0.753238
6216000,0.0324,0.013523,0.002678,0.000431,0.751123
6217000,0.0324,0.013523,0.002678,0.000431,0.780270
6218000,0.0324,0.013523,0.002678,0.000431,0.919070
6219000,0.0324,0.013523,0.002678,0.000431,0.888983
6220000,0.0324,0.013523,0.002678,0.000431,0.849964
6221000,0.0324,0.013523,0.002678,0.000431,0.814588
6222000,0.0324,0.013523,0.002678,0.000431,0.837388
6223000,0.0324,0.013523,0.002678,0.000431,0.825988
6224000,0.0324,0.013523,0.002678,0.000431,0.790377
6225000,0.0324,0.013523,0.002678,0.000431,0.734434
6226000,0.0324,0.013523,0.002678,0.000431,0.684484
6227000,0.0324,0.013523,0.002678,0.000431,0.714454
6228000,0.0324,0.013523,0.002678,0.000431,0.687892
6229000,0.0324,0.013523,0.002678,0.000431,0.664974
6230000,0.0324,0.013523,0.002678,0.000431,0.695414
6231000,0.0324,0.013523,0.002678,0.000431,0.704581
6232000,0.0324,0.013523,0.002678,0.000431,0.737019
6233000,0.0324,0.013523,0.002678,0.000431,0.691771
6234000,0.0324,0.013523,0.002678,0.000431,0.746774
6235000,0.0324,0.013523,0.002678,0.000431,0.768987
6236000,0.0324,0.013523,0.002678,0.000431,0.940931
6237000,0.0324,0.013523,0.002678,0.000431,1.022378
6238000,0.0324,0.013523,0.002678,0.000431,0.928003
6239000,0.0324,0.013523,0.002678,0.000431,0.962321
6240000,0.0324,0.013523,0.002678,0.000431,0.957855
6241000,0.0324,0.013523,0.002678,0.000431,1.002986
6242000,0.0324,0.013523,0.002678,0.000431,0.991115
6243000,0.0324,0.013523,0.002678,0.000431,0.917660
6244000,0.0324,0.013523,0.002678,0.000431,0.970665
6245000,0.0324,0.013523,0.002678,0.000431,1.009450
6246000,0.0324,0.013523,0.002678,0.000431,0.910373
6247000,0.0324,0.013523,0.002678,0.000431,0.940225
6248000,0.0324,0.013523,0.002678,0.000431,1.083022
6249000,0.0324,0.013523,0.002678,0.000431,0.928825
6250000,0.0324,0.013523,0.002678,0.000431,0.934819
6251000,0.0324,0.013523,0.002678,0.000431,0.943281
6252000,0.0324,0.013523,0.002678,0.000431,0.941871
6253000,0.0324,0.013523,0.002678,0.000431,0.896387
6254000,0.0324,0.013523,0.002678,0.000431,0.914369
6255000,0.0324,0.013523,0.002678,0.000431,0.809534
6256000,0.0324,0.013523,0.002678,0.000431,0.794491
6257000,0.0324,0.013523,0.002678,0.000431,0.786381
6258000,0.0324,0.013523,0.002678,0.000431,0.851374
6259000,0.0324,0.013523,0.002678,0.000431,0.792963
6260000,0.0324,0.013523,0.002678,0.000431,0.728205
6261000,0.0324,0.013523,0.002678,0.000431,0.741485
6262000,0.0324,0.013523,0.002678,0.000431,0.852549
6263000,0.0324,0.013523,0.002678,0.000431,0.817644
6264000,0.0324,0.013523,0.002678,0.000431,0.759820
6265000,0.0324,0.013523,0.002678,0.000431,0.733376
6266000,0.0324,0.013523,0.002678,0.000431,0.791435
6267000,0.0324,0.013523,0.002678,0.000431,0.842795
6268000,0.0324,0.013523,0.002678,0.000431,0.865360
6269000,0.0324,0.013523,0.002678,0.000431,0.945397
6270000,0.0324,0.013523,0.002678,0.000431,0.915309
6271000,0.0324,0.013523,0.002678,0.000431,1.000400
6272000,0.0324,0.013523,0.002678,0.000431,0.921068
6273000,0.0324,0.013523,0.002678,0.000431,0.850669
6274000,0.0324,0.013523,0.002678,0.000431,0.907670
6275000,0.0324,0.013523,0.002678,0.000431,0.935759
6276000,0.0324,0.013523,0.002678,0.000431,1.002868
6277000,0.0324,0.013523,0.002678,0.000431,0.931646
6278000,0.0324,0.013523,0.002678,0.000431,0.888160
6279000,0.0324,0.013523,0.002678,0.000431,0.947160
6280000,0.0324,0.013523,0.002678,0.000431,0.934819
6281000,0.0324,0.013523,0.002678,0.000431,0.855958
6282000,0.0324,0.013523,0.002678,0.000431,0.828809
6283000,0.0324,0.013523,0.002678,0.000431,0.793433
6284000,0.0324,0.013523,0.002678,0.000431,0.751123
6285000,0.0324,0.013523,0.002678,0.000431,0.739017
6286000,0.0324,0.013523,0.002678,0.000431,0.707872
6287000,0.0324,0.013523,0.002678,0.000431,0.653104
6288000,0.0324,0.013523,0.002678,0.000431,0.662154
6289000,0.0324,0.013523,0.002678,0.000431,0.759115
6290000,0.0324,0.013523,0.002678,0.000431,0.718920
6291000,0.0324,0.013523,0.002678,0.000431,0.676962
6292000,0.0324,0.013523,0.002678,0.000431,0.745481
6293000,0.0324,0.013523,0.002678,0.000431,0.784266
6294000,0.0324,0.013523,0.002678,0.000431,0.747714
6295000,0.0324,0.013523,0.002678,0.000431,0.718450
6296000,0.0324,0.013523,0.002678,0.000431,0.743601
6297000,0.0324,0.013523,0.002678,0.000431,0.838681
6298000,0.0324,0.013523,0.002678,0.000431,0.742190
6299000,0.0324,0.013523,0.002678,0.000431,0.706814
6300000,0.0324,0.013523,0.002678,0.000431,0.706697
6301000,0.0324,0.013523,0.002678,0.000431,0.706814
6302000,0.0324,0.013523,0.002678,0.000431,0.718920
6303000,0.0324,0.013523,0.002678,0.000431,0.698588
6304000,0.0324,0.013523,0.002678,0.000431,0.679665
6305000,0.0324,0.013523,0.002678,0.000431,0.590109
6306000,0.0324,0.013523,0.002678,0.000431,0.632067
6307000,0.0324,0.013523,0.002678,0.000431,0.595398
6308000,0.0324,0.013523,0.002678,0.000431,0.633359
6309000,0.0324,0.013523,0.002678,0.000431,0.696590
6310000,0.0324,0.013523,0.002678,0.000431,0.639236
6311000,0.0324,0.013523,0.002678,0.000431,0.589169
6312000,0.0324,0.013523,0.002678,0.000431,0.577886
6313000,0.0324,0.013523,0.002678,0.000431,0.646993
6314000,0.0324,0.013523,0.002678,0.000431,0.607856
6315000,0.0324,0.013523,0.002678,0.000431,0.579531
6316000,0.0324,0.013523,0.002678,0.000431,0.635827
6317000,0.0324,0.013523,0.002678,0.000431,0.691536
6318000,0.0324,0.013523,0.002678,0.000431,0.735256
6319000,0.0324,0.013523,0.002678,0.000431,0.736314
6320000,0.0324,0.013523,0.002678,0.000431,0.720095
6321000,0.0324,0.013523,0.002678,0.000431,0.713749
6322000,0.0324,0.013523,0.002678,0.000431,0.682721
6323000,0.0324,0.013523,0.002678,0.000431,0.700350
6324000,0.0324,0.013523,0.002678,0.000431,0.790612
6325000,0.0324,0.013523,0.002678,0.000431,0.712926
6326000,0.0324,0.013523,0.002678,0.000431,0.684367
6327000,0.0324,0.013523,0.002678,0.000431,0.638413
6328000,0.0324,0.013523,0.002678,0.000431,0.595163
6329000,0.0324,0.013523,0.002678,0.000431,0.582235
6330000,0.0324,0.013523,0.002678,0.000431,0.609266
6331000,0.0324,0.013523,0.002678,0.000431,0.674729
6332000,0.0324,0.013523,0.002678,0.000431,0.654632
6333000,0.0324,0.013523,0.002678,0.000431,0.665797
6334000,0.0324,0.013523,0.002678,0.000431,0.636180
6335000,0.0324,0.013523,0.002678,0.000431,0.625838
6336000,0.0324,0.013523,0.002678,0.000431,0.668618
6337000,0.0324,0.013523,0.002678,0.000431,0.693181
6338000,0.0324,0.013523,0.002678,0.000431,0.729968
6339000,0.0324,0.013523,0.002678,0.000431,0.701878
6340000,0.0324,0.013523,0.002678,0.000431,0.633829
6341000,0.0324,0.013523,0.002678,0.000431,0.635475
6342000,0.0324,0.013523,0.002678,0.000431,0.670851
6343000,0.0324,0.013523,0.002678,0.000431,0.647110
6344000,0.0324,0.013523,0.002678,0.000431,0.678255
6345000,0.0324,0.013523,0.002678,0.000431,0.714924
6346000,0.0324,0.013523,0.002678,0.000431,0.762053
6347000,0.0324,0.013523,0.002678,0.000431,0.760290
6348000,0.0324,0.013523,0.002678,0.000431,0.851374
6349000,0.0324,0.013523,0.002678,0.000431,0.821404
6350000,0.0324,0.013523,0.002678,0.000431,0.845145
6351000,0.0324,0.013523,0.002678,0.000431,0.881344
6352000,0.0324,0.013523,0.002678,0.000431,0.894625
6353000,0.0324,0.013523,0.002678,0.000431,0.904967
6354000,0.0324,0.013523,0.002678,0.000431,0.894860
6355000,0.0324,0.013523,0.002678,0.000431,0.865478
6356000,0.0324,0.013523,0.002678,0.000431,0.848906
6357000,0.0324,0.013523,0.002678,0.000431,0.864772
6358000,0.0324,0.013523,0.002678,0.000431,0.798486
6359000,0.0324,0.013523,0.002678,0.000431,0.802130
6360000,0.0324,0.013523,0.002678,0.000431,0.861129
6361000,0.0324,0.013523,0.002678,0.000431,0.878406
6362000,0.0324,0.013523,0.002678,0.000431,0.789554
6363000,0.0324,0.013523,0.002678,0.000431,0.796724
6364000,0.0324,0.013523,0.002678,0.000431,0.740663
6365000,0.0324,0.013523,0.002678,0.000431,0.728675
6366000,0.0324,0.013523,0.002678,0.000431,0.830924
6367000,0.0324,0.013523,0.002678,0.000431,0.768752
6368000,0.0324,0.013523,0.002678,0.000431,0.752886
6369000,0.0324,0.013523,0.002678,0.000431,0.790024
6370000,0.0324,0.013523,0.002678,0.000431,0.733728
6371000,0.0324,0.013523,0.002678,0.000431,0.781092
6372000,0.0324,0.013523,0.002678,0.000431,0.831864
6373000,0.0324,0.013523,0.002678,0.000431,0.725149
6374000,0.0324,0.013523,0.002678,0.000431,0.803070
6375000,0.0324,0.013523,0.002678,0.000431,0.847731
6376000,0.0324,0.013523,0.002678,0.000431,0.957150
6377000,0.0324,0.013523,0.002678,0.000431,0.926592
6378000,0.0324,0.013523,0.002678,0.000431,0.827986
6379000,0.0324,0.013523,0.002678,0.000431,0.835390
6380000,0.0324,0.013523,0.002678,0.000431,0.898973
6381000,0.0324,0.013523,0.002678,0.000431,0.882989
6382000,0.0324,0.013523,0.002678,0.000431,0.836801
6383000,0.0324,0.013523,0.002678,0.000431,0.782855
6384000,0.0324,0.013523,0.002678,0.000431,0.792728
6385000,0.0324,0.013523,0.002678,0.000431,0.840797
6386000,0.0324,0.013523,0.002678,0.000431,0.756999
6387000,0.0324,0.013523,0.002678,0.000431,0.769222
6388000,0.0324,0.013523,0.002678,0.000431,0.747714
6389000,0.0324,0.013523,0.002678,0.000431,0.666502
6390000,0.0324,0.013523,0.002678,0.000431,0.638413
6391000,0.0324,0.013523,0.002678,0.000431,0.634182
6392000,0.0324,0.013523,0.002678,0.000431,0.700703
6393000,0.0324,0.013523,0.002678,0.000431,0.726794
6394000,0.0324,0.013523,0.002678,0.000431,0.692241
6395000,0.0324,0.013523,0.002678,0.000431,0.699175
6396000,0.0324,0.013523,0.002678,0.000431,0.734551
6397000,0.0324,0.013523,0.002678,0.000431,0.782150
6398000,0.0324,0.013523,0.002678,0.000431,0.766636
6399000,0.0324,0.013523,0.002678,0.000431,0.828104
6400000,0.0324,0.013523,0.002678,0.000431,0.797429
6401000,0.0324,0.013523,0.002678,0.000431,0.852902
6402000,0.0324,0.013523,0.002678,0.000431,0.875115
6403000,0.0324,0.013523,0.002678,0.000431,0.828104
6404000,0.0324,0.013523,0.002678,0.000431,0.890981
6405000,0.0324,0.013523,0.002678,0.000431,0.847613
6406000,0.0324,0.013523,0.002678,0.000431,0.770280
6407000,0.0324,0.013523,0.002678,0.000431,0.816703
6408000,0.0324,0.013523,0.002678,0.000431,0.832687
6409000,0.0324,0.013523,0.002678,0.000431,0.876173
6410000,0.0324,0.013523,0.002678,0.000431,0.847496
6411000,0.0324,0.013523,0.002678,0.000431,0.801660
6412000,0.0324,0.013523,0.002678,0.000431,0.824108
6413000,0.0324,0.013523,0.002678,0.000431,0.767812
6414000,0.0324,0.013523,0.002678,0.000431,0.741368
6415000,0.0324,0.013523,0.002678,0.000431,0.749595
6416000,0.0324,0.013523,0.002678,0.000431,0.837153
6417000,0.0324,0.013523,0.002678,0.000431,0.820229
6418000,0.0324,0.013523,0.002678,0.000431,0.772160
6419000,0.0324,0.013523,0.002678,0.000431,0.731613
6420000,0.0324,0.013523,0.002678,0.000431,0.798251
6421000,0.0324,0.013523,0.002678,0.000431,0.905202
6422000,0.0324,0.013523,0.002678,0.000431,0.895095
6423000,0.0324,0.013523,0.002678,0.000431,0.766049
6424000,0.0324,0.013523,0.002678,0.000431,0.781210
6425000,0.0324,0.013523,0.002678,0.000431,0.806949
6426000,0.0324,0.013523,0.002678,0.000431,0.802717
6427000,0.0324,0.013523,0.002678,0.000431,0.814118
6428000,0.0324,0.013523,0.002678,0.000431,0.847966
6429000,0.0324,0.013523,0.002678,0.000431,0.928238
6430000,0.0324,0.013523,0.002678,0.000431,0.822227
6431000,0.0324,0.013523,0.002678,0.000431,0.789437
6432000,0.0324,0.013523,0.002678,0.000431,0.776626
6433000,0.0324,0.013523,0.002678,0.000431,0.799427
6434000,0.0324,0.013523,0.002678,0.000431,0.776274
6435000,0.0324,0.013523,0.002678,0.000431,0.775098
6436000,0.0324,0.013523,0.002678,0.000431,0.700703
6437000,0.0324,0.013523,0.002678,0.000431,0.638061
6438000,0.0324,0.013523,0.002678,0.000431,0.628658
6439000,0.0324,0.013523,0.002678,0.000431,0.611969
6440000,0.0324,0.013523,0.002678,0.000431,0.659216
6441000,0.0324,0.013523,0.002678,0.000431,0.654867
6442000,0.0324,0.013523,0.002678,0.000431,0.657923
6443000,0.0324,0.013523,0.002678,0.000431,0.688715
6444000,0.0324,0.013523,0.002678,0.000431,0.829044
6445000,0.0324,0.013523,0.002678,0.000431,0.766754
6446000,0.0324,0.013523,0.002678,0.000431,0.790024
6447000,0.0324,0.013523,0.002678,0.000431,0.775333
6448000,0.0324,0.013523,0.002678,0.000431,0.794726
6449000,0.0324,0.013523,0.002678,0.000431,0.901089
6450000,0.0324,0.013523,0.002678,0.000431,0.843147
6451000,0.0324,0.013523,0.002678,0.000431,0.852902
6452000,0.0324,0.013523,0.002678,0.000431,0.758644
6453000,0.0324,0.013523,0.002678,0.000431,0.792257
6454000,0.0324,0.013523,0.002678,0.000431,0.835743
6455000,0.0324,0.013523,0.002678,0.000431,0.754766
6456000,0.0324,0.013523,0.002678,0.000431,0.696472
6457000,0.0324,0.013523,0.002678,0.000431,0.626425
6458000,0.0324,0.013523,0.002678,0.000431,0.610794
6459000,0.0324,0.013523,0.002678,0.000431,0.607151
6460000,0.0324,0.013523,0.002678,0.000431,0.673201
6461000,0.0324,0.013523,0.002678,0.000431,0.606328
6462000,0.0324,0.013523,0.002678,0.000431,0.629598
6463000,0.0324,0.013523,0.002678,0.000431,0.594575
6464000,0.0324,0.013523,0.002678,0.000431,0.557436
6465000,0.0324,0.013523,0.002678,0.000431,0.563078
6466000,0.0324,0.013523,0.002678,0.000431,0.582235
6467000,0.0324,0.013523,0.002678,0.000431,0.662154
6468000,0.0324,0.013523,0.002678,0.000431,0.672026
6469000,0.0324,0.013523,0.002678,0.000431,0.593987
6470000,0.0324,0.013523,0.002678,0.000431,0.591402
6471000,0.0324,0.013523,0.002678,0.000431,0.643937
6472000,0.0324,0.013523,0.002678,0.000431,0.582117
6473000,0.0324,0.013523,0.002678,0.000431,0.548974
6474000,0.0324,0.013523,0.002678,0.000431,0.614672
6475000,0.0324,0.013523,0.002678,0.000431,0.658863
6476000,0.0324,0.013523,0.002678,0.000431,0.601862
6477000,0.0324,0.013523,0.002678,0.000431,0.605623
6478000,0.0324,0.013523,0.002678,0.000431,0.679901
6479000,0.0324,0.013523,0.002678,0.000431,0.658040
6480000,0.0324,0.013523,0.002678,0.000431,0.705992
6481000,0.0324,0.013523,0.002678,0.000431,0.722681
6482000,0.0324,0.013523,0.002678,0.000431,0.869238
6483000,0.0324,0.013523,0.002678,0.000431,0.912606
6484000,0.0324,0.013523,0.002678,0.000431,0.882049
6485000,0.0324,0.013523,0.002678,0.000431,0.887103
6486000,0.0324,0.013523,0.002678,0.000431,0.896152
6487000,0.0324,0.013523,0.002678,0.000431,0.912489
6488000,0.0324,0.013523,0.002678,0.000431,0.859366
6489000,0.0324,0.013523,0.002678,0.000431,0.845498
6490000,0.0324,0.013523,0.002678,0.000431,0.866183
6491000,0.0324,0.013523,0.002678,0.000431,0.785323
6492000,0.0324,0.013523,0.002678,0.000431,0.787674
6493000,0.0324,0.013523,0.002678,0.000431,0.775686
6494000,0.0324,0.013523,0.002678,0.000431,0.774276
6495000,0.0324,0.013523,0.002678,0.000431,0.737607
6496000,0.0324,0.013523,0.002678,0.000431,0.675082
6497000,0.0324,0.013523,0.002678,0.000431,0.672614
6498000,0.0324,0.013523,0.002678,0.000431,0.621136
6499000,0.0324,0.013523,0.002678,0.000431,0.623252
6500000,0.0324,0.013523,0.002678,0.000431,0.640411
6501000,0.0324,0.013523,0.002678,0.000431,0.637590
6502000,0.0324,0.013523,0.002678,0.000431,0.646405
6503000,0.0324,0.013523,0.002678,0.000431,0.650754
6504000,0.0324,0.013523,0.002678,0.000431,0.619491
6505000,0.0324,0.013523,0.002678,0.000431,0.576123
6506000,0.0324,0.013523,0.002678,0.000431,0.637120
6507000,0.0324,0.013523,0.002678,0.000431,0.671203
6508000,0.0324,0.013523,0.002678,0.000431,0.644877
6509000,0.0324,0.013523,0.002678,0.000431,0.571657
6510000,0.0324,0.013523,0.002678,0.000431,0.660391
6511000,0.0324,0.013523,0.002678,0.000431,0.721623
6512000,0.0324,0.013523,0.002678,0.000431,0.688598
6513000,0.0324,0.013523,0.002678,0.000431,0.664739
6514000,0.0324,0.013523,0.002678,0.000431,0.574830
6515000,0.0324,0.013523,0.002678,0.000431,0.563900
6516000,0.0324,0.013523,0.002678,0.000431,0.549209
6517000,0.0324,0.013523,0.002678,0.000431,0.513951
6518000,0.0324,0.013523,0.002678,0.000431,0.570012
6519000,0.0324,0.013523,0.002678,0.000431,0.629834
6520000,0.0324,0.013523,0.002678,0.000431,0.667207
6521000,0.0324,0.013523,0.002678,0.000431,0.704464
6522000,0.0324,0.013523,0.002678,0.000431,0.748537
6523000,0.0324,0.013523,0.002678,0.000431,0.757469
6524000,0.0324,0.013523,0.002678,0.000431,0.735726
6525000,0.0324,0.013523,0.002678,0.000431,0.823167
6526000,0.0324,0.013523,0.002678,0.000431,0.906965
6527000,0.0324,0.013523,0.002678,0.000431,0.808946
6528000,0.0324,0.013523,0.002678,0.000431,0.802247
6529000,0.0324,0.013523,0.002678,0.000431,0.887808
6530000,0.0324,0.013523,0.002678,0.000431,0.839151
6531000,0.0324,0.013523,0.002678,0.000431,0.780270
6532000,0.0324,0.013523,0.002678,0.000431,0.751358
6533000,0.0324,0.013523,0.002678,0.000431,0.710458
6534000,0.0324,0.013523,0.002678,0.000431,0.777684
6535000,0.0324,0.013523,0.002678,0.000431,0.772160
6536000,0.0324,0.013523,0.002678,0.000431,0.752063
6537000,0.0324,0.013523,0.002678,0.000431,0.707520
6538000,0.0324,0.013523,0.002678,0.000431,0.765226
6539000,0.0324,0.013523,0.002678,0.000431,0.798369
6540000,0.0324,0.013523,0.002678,0.000431,0.798016
6541000,0.0324,0.013523,0.002678,0.000431,0.836095
6542000,0.0324,0.013523,0.002678,0.000431,0.808006
6543000,0.0324,0.013523,0.002678,0.000431,0.793315
6544000,0.0324,0.013523,0.002678,0.000431,0.817173
6545000,0.0324,0.013523,0.002678,0.000431,0.835155
6546000,0.0324,0.013523,0.002678,0.000431,0.771455
6547000,0.0324,0.013523,0.002678,0.000431,0.800132
6548000,0.0324,0.013523,0.002678,0.000431,0.830572
6549000,0.0324,0.013523,0.002678,0.000431,0.814940
6550000,0.0324,0.013523,0.002678,0.000431,0.765226
6551000,0.0324,0.013523,0.002678,0.000431,0.762640
6552000,0.0324,0.013523,0.002678,0.000431,0.810004
6553000,0.0324,0.013523,0.002678,0.000431,0.755941
6554000,0.0324,0.013523,0.002678,0.000431,0.720213
6555000,0.0324,0.013523,0.002678,0.000431,0.787321
6556000,0.0324,0.013523,0.002678,0.000431,0.774276
6557000,0.0324,0.013523,0.002678,0.000431,0.700115
6558000,0.0324,0.013523,0.002678,0.000431,0.646287
6559000,0.0324,0.013523,0.002678,0.000431,0.663564
6560000,0.0324,0.013523,0.002678,0.000431,0.663447
6561000,0.0324,0.013523,0.002678,0.000431,0.660743
6562000,0.0324,0.013523,0.002678,0.000431,0.627130
6563000,0.0324,0.013523,0.002678,0.000431,0.645935
6564000,0.0324,0.013523,0.002678,0.000431,0.609736
6565000,0.0324,0.013523,0.002678,0.000431,0.645465
6566000,0.0324,0.013523,0.002678,0.000431,0.664152
6567000,0.0324,0.013523,0.002678,0.000431,0.675552
6568000,0.0324,0.013523,0.002678,0.000431,0.743601
6569000,0.0324,0.013523,0.002678,0.000431,0.740192
6570000,0.0324,0.013523,0.002678,0.000431,0.782150
6571000,0.0324,0.013523,0.002678,0.000431,0.677903
6572000,0.0324,0.013523,0.002678,0.000431,0.636063
6573000,0.0324,0.013523,0.002678,0.000431,0.648168
6574000,0.0324,0.013523,0.002678,0.000431,0.581059
6575000,0.0324,0.013523,0.002678,0.000431,0.666737
6576000,0.0324,0.013523,0.002678,0.000431,0.667795
6577000,0.0324,0.013523,0.002678,0.000431,0.679783
6578000,0.0324,0.013523,0.002678,0.000431,0.672849
6579000,0.0324,0.013523,0.002678,0.000431,0.711398
6580000,0.0324,0.013523,0.002678,0.000431,0.684132
6581000,0.0324,0.013523,0.002678,0.000431,0.653457
6582000,0.0324,0.013523,0.002678,0.000431,0.628188
6583000,0.0324,0.013523,0.002678,0.000431,0.710105
6584000,0.0324,0.013523,0.002678,0.000431,0.711868
6585000,0.0324,0.013523,0.002678,0.000431,0.772043
6586000,0.0324,0.013523,0.002678,0.000431,0.727499
6587000,0.0324,0.013523,0.002678,0.000431,0.683661
6588000,0.0324,0.013523,0.002678,0.000431,0.692829
6589000,0.0324,0.013523,0.002678,0.000431,0.689420
6590000,0.0324,0.013523,0.002678,0.000431,0.673907
6591000,0.0324,0.013523,0.002678,0.000431,0.739487
6592000,0.0324,0.013523,0.002678,0.000431,0.842677
6593000,0.0324,0.013523,0.002678,0.000431,0.832100
6594000,0.0324,0.013523,0.002678,0.000431,0.720800
6595000,0.0324,0.013523,0.002678,0.000431,0.650048
6596000,0.0324,0.013523,0.002678,0.000431,0.589286
6597000,0.0324,0.013523,0.002678,0.000431,0.682369
6598000,0.0324,0.013523,0.002678,0.000431,0.825283
6599000,0.0324,0.013523,0.002678,0.000431,0.862069
6600000,0.0324,0.013523,0.002678,0.000431,0.842442
6601000,0.0324,0.013523,0.002678,0.000431,0.743953
6602000,0.0324,0.013523,0.002678,0.000431,0.702819
6603000,0.0324,0.013523,0.002678,0.000431,0.747362
6604000,0.0324,0.013523,0.002678,0.000431,0.807066
6605000,0.0324,0.013523,0.002678,0.000431,0.840797
6606000,0.0324,0.013523,0.002678,0.000431,0.804715
6607000,0.0324,0.013523,0.002678,0.000431,0.809064
6608000,0.0324,0.013523,0.002678,0.000431,0.916250
6609000,0.0324,0.013523,0.002678,0.000431,0.816116
6610000,0.0324,0.013523,0.002678,0.000431,0.766284
6611000,0.0324,0.013523,0.002678,0.000431,0.806596
6612000,0.0324,0.013523,0.002678,0.000431,0.763816
6613000,0.0324,0.013523,0.002678,0.000431,0.828691
6614000,0.0324,0.013523,0.002678,0.000431,0.840797
6615000,0.0324,0.013523,0.002678,0.000431,0.829044
6616000,0.0324,0.013523,0.002678,0.000431,0.794608
6617000,0.0324,0.013523,0.002678,0.000431,0.771102
6618000,0.0324,0.013523,0.002678,0.000431,0.752886
6619000,0.0324,0.013523,0.002678,0.000431,0.778624
6620000,0.0324,0.013523,0.002678,0.000431,0.817409
6621000,0.0324,0.013523,0.002678,0.000431,0.748067
6622000,0.0324,0.013523,0.002678,0.000431,0.758409
6623000,0.0324,0.013523,0.002678,0.000431,0.768869
6624000,0.0324,0.013523,0.002678,0.000431,0.778389
6625000,0.0324,0.013523,0.002678,0.000431,0.873117
6626000,0.0324,0.013523,0.002678,0.000431,0.902734
6627000,0.0324,0.013523,0.002678,0.000431,0.885340
6628000,0.0324,0.013523,0.002678,0.000431,0.816938
6629000,0.0324,0.013523,0.002678,0.000431,0.748890
6630000,0.0324,0.013523,0.002678,0.000431,0.745246
6631000,0.0324,0.013523,0.002678,0.000431,0.738077
6632000,0.0324,0.013523,0.002678,0.000431,0.729262
6633000,0.0324,0.013523,0.002678,0.000431,0.663917
6634000,0.0324,0.013523,0.002678,0.000431,0.726912
6635000,0.0324,0.013523,0.002678,0.000431,0.637238
6636000,0.0324,0.013523,0.002678,0.000431,0.656395
6637000,0.0324,0.013523,0.002678,0.000431,0.672731
6638000,0.0324,0.013523,0.002678,0.000431,0.782738
6639000,0.0324,0.013523,0.002678,0.000431,0.747009
6640000,0.0324,0.013523,0.002678,0.000431,0.741133
6641000,0.0324,0.013523,0.002678,0.000431,0.893684
6642000,0.0324,0.013523,0.002678,0.000431,0.845145
6643000,0.0324,0.013523,0.002678,0.000431,0.778977
6644000,0.0324,0.013523,0.002678,0.000431,0.848201
6645000,0.0324,0.013523,0.002678,0.000431,0.850787
6646000,0.0324,0.013523,0.002678,0.000431,0.725501
6647000,0.0324,0.013523,0.002678,0.000431,0.722563
6648000,0.0324,0.013523,0.002678,0.000431,0.773570
6649000,0.0324,0.013523,0.002678,0.000431,0.718215
6650000,0.0324,0.013523,0.002678,0.000431,0.714101
6651000,0.0324,0.013523,0.002678,0.000431,0.704464
6652000,0.0324,0.013523,0.002678,0.000431,0.710928
6653000,0.0324,0.013523,0.002678,0.000431,0.780152
6654000,0.0324,0.013523,0.002678,0.000431,0.809534
6655000,0.0324,0.013523,0.002678,0.000431,0.870531
6656000,0.0324,0.013523,0.002678,0.000431,0.855135
6657000,0.0324,0.013523,0.002678,0.000431,0.787556
6658000,0.0324,0.013523,0.002678,0.000431,0.777214
6659000,0.0324,0.013523,0.002678,0.000431,0.752063
6660000,0.0324,0.013523,0.002678,0.000431,0.765461
6661000,0.0324,0.013523,0.002678,0.000431,0.834450
6662000,0.0324,0.013523,0.002678,0.000431,0.829749
6663000,0.0324,0.013523,0.002678,0.000431,0.796371
6664000,0.0324,0.013523,0.002678,0.000431,0.756059
6665000,0.0324,0.013523,0.002678,0.000431,0.803188
6666000,0.0324,0.013523,0.002678,0.000431,0.802835
6667000,0.0324,0.013523,0.002678,0.000431,0.761230
6668000,0.0324,0.013523,0.002678,0.000431,0.784031
6669000,0.0324,0.013523,0.002678,0.000431,0.769457
6670000,0.0324,0.013523,0.002678,0.000431,0.786381
6671000,0.0324,0.013523,0.002678,0.000431,0.740192
6672000,0.0324,0.013523,0.002678,0.000431,0.750888
6673000,0.0324,0.013523,0.002678,0.000431,0.832217
6674000,0.0324,0.013523,0.002678,0.000431,0.810474
6675000,0.0324,0.013523,0.002678,0.000431,0.758292
6676000,0.0324,0.013523,0.002678,0.000431,0.777096
6677000,0.0324,0.013523,0.002678,0.000431,0.763698
6678000,0.0324,0.013523,0.002678,0.000431,0.826928
6679000,0.0324,0.013523,0.002678,0.000431,0.784501
6680000,0.0324,0.013523,0.002678,0.000431,0.788967
6681000,0.0324,0.013523,0.002678,0.000431,0.786028
6682000,0.0324,0.013523,0.002678,0.000431,0.772395
6683000,0.0324,0.013523,0.002678,0.000431,0.775921
6684000,0.0324,0.013523,0.002678,0.000431,0.807184
6685000,0.0324,0.013523,0.002678,0.000431,0.750065
6686000,0.0324,0.013523,0.002678,0.000431,0.709048
6687000,0.0324,0.013523,0.002678,0.000431,0.707872
6688000,0.0324,0.013523,0.002678,0.000431,0.683896
6689000,0.0324,0.013523,0.002678,0.000431,0.673319
6690000,0.0324,0.013523,0.002678,0.000431,0.646405
6691000,0.0324,0.013523,0.002678,0.000431,0.633359
6692000,0.0324,0.013523,0.002678,0.000431,0.710693
6693000,0.0324,0.013523,0.002678,0.000431,0.800014
6694000,0.0324,0.013523,0.002678,0.000431,0.828104
6695000,0.0324,0.013523,0.002678,0.000431,0.730203
6696000,0.0324,0.013523,0.002678,0.000431,0.772043
6697000,0.0324,0.013523,0.002678,0.000431,0.729497
6698000,0.0324,0.013523,0.002678,0.000431,0.695297
6699000,0.0324,0.013523,0.002678,0.000431,0.641116
6700000,0.0324,0.013523,0.002678,0.000431,0.688833
6701000,0.0324,0.013523,0.002678,0.000431,0.710693
6702000,0.0324,0.013523,0.002678,0.000431,0.702583
6703000,0.0324,0.013523,0.002678,0.000431,0.629598
6704000,0.0324,0.013523,0.002678,0.000431,0.654985
6705000,0.0324,0.013523,0.002678,0.000431,0.743013
6706000,0.0324,0.013523,0.002678,0.000431,0.727617
6707000,0.0324,0.013523,0.002678,0.000431,0.738430
6708000,0.0324,0.013523,0.002678,0.000431,0.755354
6709000,0.0324,0.013523,0.002678,0.000431,0.721976
6710000,0.0324,0.013523,0.002678,0.000431,0.744894
6711000,0.0324,0.013523,0.002678,0.000431,0.803070
6712000,0.0324,0.013523,0.002678,0.000431,0.773218
6713000,0.0324,0.013523,0.002678,0.000431,0.719390
6714000,0.0324,0.013523,0.002678,0.000431,0.719860
6715000,0.0324,0.013523,0.002678,0.000431,0.802717
6716000,0.0324,0.013523,0.002678,0.000431,0.852784
6717000,0.0324,0.013523,0.002678,0.000431,0.783090
6718000,0.0324,0.013523,0.002678,0.000431,0.685542
6719000,0.0324,0.013523,0.002678,0.000431,0.803540
6720000,0.0324,0.013523,0.002678,0.000431,0.771808
6721000,0.0324,0.013523,0.002678,0.000431,0.783443
6722000,0.0324,0.013523,0.002678,0.000431,0.727029
6723000,0.0324,0.013523,0.002678,0.000431,0.671556
6724000,0.0324,0.013523,0.002678,0.000431,0.674612
6725000,0.0324,0.013523,0.002678,0.000431,0.637590
6726000,0.0324,0.013523,0.002678,0.000431,0.696942
6727000,0.0324,0.013523,0.002678,0.000431,0.719978
6728000,0.0324,0.013523,0.002678,0.000431,0.747832
6729000,0.0324,0.013523,0.002678,0.000431,0.697882
6730000,0.0324,0.013523,0.002678,0.000431,0.658040
6731000,0.0324,0.013523,0.002678,0.000431,0.604447
6732000,0.0324,0.013523,0.002678,0.000431,0.753708
6733000,0.0324,0.013523,0.002678,0.000431,0.748067
6734000,0.0324,0.013523,0.002678,0.000431,0.700821
6735000,0.0324,0.013523,0.002678,0.000431,0.668735
6736000,0.0324,0.013523,0.002678,0.000431,0.695062
6737000,0.0324,0.013523,0.002678,0.000431,0.644642
6738000,0.0324,0.013523,0.002678,0.000431,0.727852
6739000,0.0324,0.013523,0.002678,0.000431,0.777566
6740000,0.0324,0.013523,0.002678,0.000431,0.734904
6741000,0.0324,0.013523,0.002678,0.000431,0.741955
6742000,0.0324,0.013523,0.002678,0.000431,0.690713
6743000,0.0324,0.013523,0.002678,0.000431,0.713749
6744000,0.0324,0.013523,0.002678,0.000431,0.750300
6745000,0.0324,0.013523,0.002678,0.000431,0.695414
6746000,0.0324,0.013523,0.002678,0.000431,0.646170
6747000,0.0324,0.013523,0.002678,0.000431,0.639706
6748000,0.0324,0.013523,0.002678,0.000431,0.767459
6749000,0.0324,0.013523,0.002678,0.000431,0.751240
6750000,0.0324,0.013523,0.002678,0.000431,0.687540
6751000,0.0324,0.013523,0.002678,0.000431,0.745599
6752000,0.0324,0.013523,0.002678,0.000431,0.635005
6753000,0.0324,0.013523,0.002678,0.000431,0.582352
6754000,0.0324,0.013523,0.002678,0.000431,0.652987
6755000,0.0324,0.013523,0.002678,0.000431,0.628306
6756000,0.0324,0.013523,0.002678,0.000431,0.545213
6757000,0.0324,0.013523,0.002678,0.000431,0.539807
6758000,0.0324,0.013523,0.002678,0.000431,0.473521
6759000,0.0324,0.013523,0.002678,0.000431,0.478340
6760000,0.0324,0.013523,0.002678,0.000431,0.396658
6761000,0.0324,0.013523,0.002678,0.000431,0.382907
6762000,0.0324,0.013523,0.002678,0.000431,0.372094
6763000,0.0324,0.013523,0.002678,0.000431,0.394777
6764000,0.0324,0.013523,0.002678,0.000431,0.501728
6765000,0.0324,0.013523,0.002678,0.000431,0.657805
6766000,0.0324,0.013523,0.002678,0.000431,0.753591
6767000,0.0324,0.013523,0.002678,0.000431,0.731378
6768000,0.0324,0.013523,0.002678,0.000431,0.777214
6769000,0.0324,0.013523,0.002678,0.000431,0.873234
6770000,0.0324,0.013523,0.002678,0.000431,0.903322
6771000,0.0324,0.013523,0.002678,0.000431,0.833157
6772000,0.0324,0.013523,0.002678,0.000431,0.799779
6773000,0.0324,0.013523,0.002678,0.000431,0.744776
6774000,0.0324,0.013523,0.002678,0.000431,0.692241
6775000,0.0324,0.013523,0.002678,0.000431,0.718332
6776000,0.0324,0.013523,0.002678,0.000431,0.652634
6777000,0.0324,0.013523,0.002678,0.000431,0.592225
6778000,0.0324,0.013523,0.002678,0.000431,0.544861
6779000,0.0324,0.013523,0.002678,0.000431,0.541452
6780000,0.0324,0.013523,0.002678,0.000431,0.484099
6781000,0.0324,0.013523,0.002678,0.000431,0.521120
6782000,0.0324,0.013523,0.002678,0.000431,0.499260
6783000,0.0324,0.013523,0.002678,0.000431,0.540160
6784000,0.0324,0.013523,0.002678,0.000431,0.579767
6785000,0.0324,0.013523,0.002678,0.000431,0.697882
6786000,0.0324,0.013523,0.002678,0.000431,0.794255
6787000,0.0324,0.013523,0.002678,0.000431,0.737842
6788000,0.0324,0.013523,0.002678,0.000431,0.767694
6789000,0.0324,0.013523,0.002678,0.000431,0.824108
6790000,0.0324,0.013523,0.002678,0.000431,0.907670
6791000,0.0324,0.013523,0.002678,0.000431,0.765226
6792000,0.0324,0.013523,0.002678,0.000431,0.770632
6793000,0.0324,0.013523,0.002678,0.000431,0.690831
6794000,0.0324,0.013523,0.002678,0.000431,0.761818
6795000,0.0324,0.013523,0.002678,0.000431,0.772865
6796000,0.0324,0.013523,0.002678,0.000431,0.746304
6797000,0.0324,0.013523,0.002678,0.000431,0.712221
6798000,0.0324,0.013523,0.002678,0.000431,0.661214
6799000,0.0324,0.013523,0.002678,0.000431,0.692006
6800000,0.0324,0.013523,0.002678,0.000431,0.684837
6801000,0.0324,0.013523,0.002678,0.000431,0.719978
6802000,0.0324,0.013523,0.002678,0.000431,0.684719
6803000,0.0324,0.013523,0.002678,0.000431,0.601979
6804000,0.0324,0.013523,0.002678,0.000431,0.642056
6805000,0.0324,0.013523,0.002678,0.000431,0.678490
6806000,0.0324,0.013523,0.002678,0.000431,0.764051
6807000,0.0324,0.013523,0.002678,0.000431,0.827163
6808000,0.0324,0.013523,0.002678,0.000431,0.769339
6809000,0.0324,0.013523,0.002678,0.000431,0.778154
6810000,0.0324,0.013523,0.002678,0.000431,0.699528
6811000,0.0324,0.013523,0.002678,0.000431,0.746421
6812000,0.0324,0.013523,0.002678,0.000431,0.802365
6813000,0.0324,0.013523,0.002678,0.000431,0.706932
6814000,0.0324,0.013523,0.002678,0.000431,0.704699
6815000,0.0324,0.013523,0.002678,0.000431,0.690831
6816000,0.0324,0.013523,0.002678,0.000431,0.664857
6817000,0.0324,0.013523,0.002678,0.000431,0.606093
6818000,0.0324,0.013523,0.002678,0.000431,0.563430
6819000,0.0324,0.013523,0.002678,0.000431,0.500670
6820000,0.0324,0.013523,0.002678,0.000431,0.492326
6821000,0.0324,0.013523,0.002678,0.000431,0.521355
6822000,0.0324,0.013523,0.002678,0.000431,0.532520
6823000,0.0324,0.013523,0.002678,0.000431,0.605388
6824000,0.0324,0.013523,0.002678,0.000431,0.723739
6825000,0.0324,0.013523,0.002678,0.000431,0.734199
6826000,0.0324,0.013523,0.002678,0.000431,0.816586
6827000,0.0324,0.013523,0.002678,0.000431,0.818819
6828000,0.0324,0.013523,0.002678,0.000431,0.791082
6829000,0.0324,0.013523,0.002678,0.000431,0.729497
6830000,0.0324,0.013523,0.002678,0.000431,0.719508
6831000,0.0324,0.013523,0.002678,0.000431,0.734551
6832000,0.0324,0.013523,0.002678,0.000431,0.830689
6833000,0.0324,0.013523,0.002678,0.000431,0.769339
6834000,0.0324,0.013523,0.002678,0.000431,0.678725
6835000,0.0324,0.013523,0.002678,0.000431,0.674729
6836000,0.0324,0.013523,0.002678,0.000431,0.592342
6837000,0.0324,0.013523,0.002678,0.000431,0.591167
6838000,0.0324,0.013523,0.002678,0.000431,0.655807
6839000,0.0324,0.013523,0.002678,0.000431,0.768987
6840000,0.0324,0.013523,0.002678,0.000431,0.710810
6841000,0.0324,0.013523,0.002678,0.000431,0.671086
6842000,0.0324,0.013523,0.002678,0.000431,0.596926
6843000,0.0324,0.013523,0.002678,0.000431,0.669911
6844000,0.0324,0.013523,0.002678,0.000431,0.756294
6845000,0.0324,0.013523,0.002678,0.000431,0.649931
6846000,0.0324,0.013523,0.002678,0.000431,0.591989
6847000,0.0324,0.013523,0.002678,0.000431,0.668148
6848000,0.0324,0.013523,0.002678,0.000431,0.731730
6849000,0.0324,0.013523,0.002678,0.000431,0.680488
6850000,0.0324,0.013523,0.002678,0.000431,0.749830
6851000,0.0324,0.013523,0.002678,0.000431,0.709400
6852000,0.0324,0.013523,0.002678,0.000431,0.692241
6853000,0.0324,0.013523,0.002678,0.000431,0.638061
6854000,0.0324,0.013523,0.002678,0.000431,0.693534
6855000,0.0324,0.013523,0.002678,0.000431,0.732788
6856000,0.0324,0.013523,0.002678,0.000431,0.744541
6857000,0.0324,0.013523,0.002678,0.000431,0.678490
6858000,0.0324,0.013523,0.002678,0.000431,0.756881
6859000,0.0324,0.013523,0.002678,0.000431,0.768282
6860000,0.0324,0.013523,0.002678,0.000431,0.722093
6861000,0.0324,0.013523,0.002678,0.000431,0.631596
6862000,0.0324,0.013523,0.002678,0.000431,0.620901
6863000,0.0324,0.013523,0.002678,0.000431,0.751828
6864000,0.0324,0.013523,0.002678,0.000431,0.707402
6865000,0.0324,0.013523,0.002678,0.000431,0.694121
6866000,0.0324,0.013523,0.002678,0.000431,0.752886
6867000,0.0324,0.013523,0.002678,0.000431,0.809182
6868000,0.0324,0.013523,0.002678,0.000431,0.771925
6869000,0.0324,0.013523,0.002678,0.000431,0.647580
6870000,0.0324,0.013523,0.002678,0.000431,0.669441
6871000,0.0324,0.013523,0.002678,0.000431,0.666267
6872000,0.0324,0.013523,0.002678,0.000431,0.639823
6873000,0.0324,0.013523,0.002678,0.000431,0.595985
6874000,0.0324,0.013523,0.002678,0.000431,0.596220
6875000,0.0324,0.013523,0.002678,0.000431,0.635475
6876000,0.0324,0.013523,0.002678,0.000431,0.665445
6877000,0.0324,0.013523,0.002678,0.000431,0.602567
6878000,0.0324,0.013523,0.002678,0.000431,0.578826
6879000,0.0324,0.013523,0.002678,0.000431,0.673201
6880000,0.0324,0.013523,0.002678,0.000431,0.706697
6881000,0.0324,0.013523,0.002678,0.000431,0.720448
6882000,0.0324,0.013523,0.002678,0.000431,0.704581
6883000,0.0324,0.013523,0.002678,0.000431,0.643937
6884000,0.0324,0.013523,0.002678,0.000431,0.569659
6885000,0.0324,0.013523,0.002678,0.000431,0.566368
6886000,0.0324,0.013523,0.002678,0.000431,0.578239
6887000,0.0324,0.013523,0.002678,0.000431,0.556026
6888000,0.0324,0.013523,0.002678,0.000431,0.541570
6889000,0.0324,0.013523,0.002678,0.000431,0.523471
6890000,0.0324,0.013523,0.002678,0.000431,0.514421
6891000,0.0324,0.013523,0.002678,0.000431,0.561080
6892000,0.0324,0.013523,0.002678,0.000431,0.558024
6893000,0.0324,0.013523,0.002678,0.000431,0.547094
6894000,0.0324,0.013523,0.002678,0.000431,0.605035
6895000,0.0324,0.013523,0.002678,0.000431,0.587406
6896000,0.0324,0.013523,0.002678,0.000431,0.587171
6897000,0.0324,0.013523,0.002678,0.000431,0.584820
6898000,0.0324,0.013523,0.002678,0.000431,0.683779
6899000,0.0324,0.013523,0.002678,0.000431,0.640411
6900000,0.0324,0.013523,0.002678,0.000431,0.565898
6901000,0.0324,0.013523,0.002678,0.000431,0.511483
6902000,0.0324,0.013523,0.002678,0.000431,0.541805
6903000,0.0324,0.013523,0.002678,0.000431,0.485156
6904000,0.0324,0.013523,0.002678,0.000431,0.485039
6905000,0.0324,0.013523,0.002678,0.000431,0.584938
6906000,0.0324,0.013523,0.002678,0.000431,0.563078
6907000,0.0324,0.013523,0.002678,0.000431,0.595398
6908000,0.0324,0.013523,0.002678,0.000431,0.614790
6909000,0.0324,0.013523,0.002678,0.000431,0.583292
6910000,0.0324,0.013523,0.002678,0.000431,0.676492
6911000,0.0324,0.013523,0.002678,0.000431,0.667090
6912000,0.0324,0.013523,0.002678,0.000431,0.618903
6913000,0.0324,0.013523,0.002678,0.000431,0.590579
6914000,0.0324,0.013523,0.002678,0.000431,0.609384
6915000,0.0324,0.013523,0.002678,0.000431,0.544978
6916000,0.0324,0.013523,0.002678,0.000431,0.462121
6917000,0.0324,0.013523,0.002678,0.000431,0.470935
6918000,0.0324,0.013523,0.002678,0.000431,0.576476
6919000,0.0324,0.013523,0.002678,0.000431,0.577181
6920000,0.0324,0.013523,0.002678,0.000431,0.552500
6921000,0.0324,0.013523,0.002678,0.000431,0.457302
6922000,0.0324,0.013523,0.002678,0.000431,0.547681
6923000,0.0324,0.013523,0.002678,0.000431,0.486567
6924000,0.0324,0.013523,0.002678,0.000431,0.566368
6925000,0.0324,0.013523,0.002678,0.000431,0.667090
6926000,0.0324,0.013523,0.002678,0.000431,0.659686
6927000,0.0324,0.013523,0.002678,0.000431,0.614437
6928000,0.0324,0.013523,0.002678,0.000431,0.607151
6929000,0.0324,0.013523,0.002678,0.000431,0.631361
6930000,0.0324,0.013523,0.002678,0.000431,0.607621
6931000,0.0324,0.013523,0.002678,0.000431,0.527584
6932000,0.0324,0.013523,0.002678,0.000431,0.495616
6933000,0.0324,0.013523,0.002678,0.000431,0.431799
6934000,0.0324,0.013523,0.002678,0.000431,0.468702
6935000,0.0324,0.013523,0.002678,0.000431,0.462003
6936000,0.0324,0.013523,0.002678,0.000431,0.517006
6937000,0.0324,0.013523,0.002678,0.000431,0.636885
6938000,0.0324,0.013523,0.002678,0.000431,0.584703
6939000,0.0324,0.013523,0.002678,0.000431,0.562960
6940000,0.0324,0.013523,0.002678,0.000431,0.611734
6941000,0.0324,0.013523,0.002678,0.000431,0.552735
6942000,0.0324,0.013523,0.002678,0.000431,0.610911
6943000,0.0324,0.013523,0.002678,0.000431,0.563783
6944000,0.0324,0.013523,0.002678,0.000431,0.613262
6945000,0.0324,0.013523,0.002678,0.000431,0.604330
6946000,0.0324,0.013523,0.002678,0.000431,0.616200
6947000,0.0324,0.013523,0.002678,0.000431,0.651341
6948000,0.0324,0.013523,0.002678,0.000431,0.655925
6949000,0.0324,0.013523,0.002678,0.000431,0.583645
6950000,0.0324,0.013523,0.002678,0.000431,0.569894
6951000,0.0324,0.013523,0.002678,0.000431,0.570952
6952000,0.0324,0.013523,0.002678,0.000431,0.587406
6953000,0.0324,0.013523,0.002678,0.000431,0.529582
6954000,0.0324,0.013523,0.002678,0.000431,0.483746
6955000,0.0324,0.013523,0.002678,0.000431,0.482336
6956000,0.0324,0.013523,0.002678,0.000431,0.572245
6957000,0.0324,0.013523,0.002678,0.000431,0.612204
6958000,0.0324,0.013523,0.002678,0.000431,0.649813
6959000,0.0324,0.013523,0.002678,0.000431,0.667090
6960000,0.0324,0.013523,0.002678,0.000431,0.599394
6961000,0.0324,0.013523,0.002678,0.000431,0.530522
6962000,0.0324,0.013523,0.002678,0.000431,0.530052
6963000,0.0324,0.013523,0.002678,0.000431,0.558729
6964000,0.0324,0.013523,0.002678,0.000431,0.627483
6965000,0.0324,0.013523,0.002678,0.000431,0.661331
6966000,0.0324,0.013523,0.002678,0.000431,0.659803
6967000,0.0324,0.013523,0.002678,0.000431,0.691183
6968000,0.0324,0.013523,0.002678,0.000431,0.573890
6969000,0.0324,0.013523,0.002678,0.000431,0.518534
6970000,0.0324,0.013523,0.002678,0.000431,0.584938
6971000,0.0324,0.013523,0.002678,0.000431,0.531815
6972000,0.0324,0.013523,0.002678,0.000431,0.431211
6973000,0.0324,0.013523,0.002678,0.000431,0.410408
6974000,0.0324,0.013523,0.002678,0.000431,0.430388
6975000,0.0324,0.013523,0.002678,0.000431,0.456715
6976000,0.0324,0.013523,0.002678,0.000431,0.580354
6977000,0.0324,0.013523,0.002678,0.000431,0.536164
6978000,0.0324,0.013523,0.002678,0.000431,0.509837
6979000,0.0324,0.013523,0.002678,0.000431,0.504666
6980000,0.0324,0.013523,0.002678,0.000431,0.491503
6981000,0.0324,0.013523,0.002678,0.000431,0.466469
6982000,0.0324,0.013523,0.002678,0.000431,0.472346
6983000,0.0324,0.013523,0.002678,0.000431,0.497732
6984000,0.0324,0.013523,0.002678,0.000431,0.441318
6985000,0.0324,0.013523,0.002678,0.000431,0.414639
6986000,0.0324,0.013523,0.002678,0.000431,0.458360
6987000,0.0324,0.013523,0.002678,0.000431,0.444844
6988000,0.0324,0.013523,0.002678,0.000431,0.497732
6989000,0.0324,0.013523,0.002678,0.000431,0.603507
6990000,0.0324,0.013523,0.002678,0.000431,0.532755
6991000,0.0324,0.013523,0.002678,0.000431,0.434149
6992000,0.0324,0.013523,0.002678,0.000431,0.476929
6993000,0.0324,0.013523,0.002678,0.000431,0.611969
6994000,0.0324,0.013523,0.002678,0.000431,0.638413
6995000,0.0324,0.013523,0.002678,0.000431,0.519710
6996000,0.0324,0.013523,0.002678,0.000431,0.470935
6997000,0.0324,0.013523,0.002678,0.000431,0.519357
6998000,0.0324,0.013523,0.002678,0.000431,0.530875
6999000,0.0324,0.013523,0.002678,0.000431,0.490680
