Cycle,Area(mm^2),PeakDynamic(W),SubthresholdLeakage(W),GateLeakage(W),RunTimeDynamic(W)
6000000,0.0324,0.013523,0.002678,0.000431,0.026444
6001000,0.0324,0.013523,0.002678,0.000431,0.028794
6002000,0.0324,0.013523,0.002678,0.000431,0.027619
6003000,0.0324,0.013523,0.002678,0.000431,0.028324
6004000,0.0324,0.013523,0.002678,0.000431,0.026444
6005000,0.0324,0.013523,0.002678,0.000431,0.030322
6006000,0.0324,0.013523,0.002678,0.000431,0.025974
6007000,0.0324,0.013523,0.002678,0.000431,0.028912
6008000,0.0324,0.013523,0.002678,0.000431,0.028089
6009000,0.0324,0.013523,0.002678,0.000431,0.025386
6010000,0.0324,0.013523,0.002678,0.000431,0.028912
6011000,0.0324,0.013523,0.002678,0.000431,0.028677
6012000,0.0324,0.013523,0.002678,0.000431,0.028677
6013000,0.0324,0.013523,0.002678,0.000431,0.028207
6014000,0.0324,0.013523,0.002678,0.000431,0.027619
6015000,0.0324,0.013523,0.002678,0.000431,0.027267
6016000,0.0324,0.013523,0.002678,0.000431,0.027854
6017000,0.0324,0.013523,0.002678,0.000431,0.026561
6018000,0.0324,0.013523,0.002678,0.000431,0.026444
6019000,0.0324,0.013523,0.002678,0.000431,0.029265
6020000,0.0324,0.013523,0.002678,0.000431,0.026796
6021000,0.0324,0.013523,0.002678,0.000431,0.027972
6022000,0.0324,0.013523,0.002678,0.000431,0.025739
6023000,0.0324,0.013523,0.002678,0.000431,0.027502
6024000,0.0324,0.013523,0.002678,0.000431,0.025739
6025000,0.0324,0.013523,0.002678,0.000431,0.028794
6026000,0.0324,0.013523,0.002678,0.000431,0.026326
6027000,0.0324,0.013523,0.002678,0.000431,0.028089
6028000,0.0324,0.013523,0.002678,0.000431,0.029852
6029000,0.0324,0.013523,0.002678,0.000431,0.027502
6030000,0.0324,0.013523,0.002678,0.000431,0.027384
6031000,0.0324,0.013523,0.002678,0.000431,0.027737
6032000,0.0324,0.013523,0.002678,0.000431,0.028207
6033000,0.0324,0.013523,0.002678,0.000431,0.028089
6034000,0.0324,0.013523,0.002678,0.000431,0.027502
6035000,0.0324,0.013523,0.002678,0.000431,0.028677
6036000,0.0324,0.013523,0.002678,0.000431,0.027149
6037000,0.0324,0.013523,0.002678,0.000431,0.028794
6038000,0.0324,0.013523,0.002678,0.000431,0.028442
6039000,0.0324,0.013523,0.002678,0.000431,0.028089
6040000,0.0324,0.013523,0.002678,0.000431,0.026679
6041000,0.0324,0.013523,0.002678,0.000431,0.026561
6042000,0.0324,0.013523,0.002678,0.000431,0.030087
6043000,0.0324,0.013523,0.002678,0.000431,0.026561
6044000,0.0324,0.013523,0.002678,0.000431,0.027854
6045000,0.0324,0.013523,0.002678,0.000431,0.027854
6046000,0.0324,0.013523,0.002678,0.000431,0.027619
6047000,0.0324,0.013523,0.002678,0.000431,0.027972
6048000,0.0324,0.013523,0.002678,0.000431,0.027149
6049000,0.0324,0.013523,0.002678,0.000431,0.025034
6050000,0.0324,0.013523,0.002678,0.000431,0.027031
6051000,0.0324,0.013523,0.002678,0.000431,0.027267
6052000,0.0324,0.013523,0.002678,0.000431,0.025856
6053000,0.0324,0.013523,0.002678,0.000431,0.029147
6054000,0.0324,0.013523,0.002678,0.000431,0.025504
6055000,0.0324,0.013523,0.002678,0.000431,0.028089
6056000,0.0324,0.013523,0.002678,0.000431,0.025504
6057000,0.0324,0.013523,0.002678,0.000431,0.027384
6058000,0.0324,0.013523,0.002678,0.000431,0.028207
6059000,0.0324,0.013523,0.002678,0.000431,0.027619
6060000,0.0324,0.013523,0.002678,0.000431,0.027267
6061000,0.0324,0.013523,0.002678,0.000431,0.028559
6062000,0.0324,0.013523,0.002678,0.000431,0.028559
6063000,0.0324,0.013523,0.002678,0.000431,0.027854
6064000,0.0324,0.013523,0.002678,0.000431,0.028207
6065000,0.0324,0.013523,0.002678,0.000431,0.028442
6066000,0.0324,0.013523,0.002678,0.000431,0.026091
6067000,0.0324,0.013523,0.002678,0.000431,0.028559
6068000,0.0324,0.013523,0.002678,0.000431,0.027854
6069000,0.0324,0.013523,0.002678,0.000431,0.027267
6070000,0.0324,0.013523,0.002678,0.000431,0.026326
6071000,0.0324,0.013523,0.002678,0.000431,0.026796
6072000,0.0324,0.013523,0.002678,0.000431,0.028207
6073000,0.0324,0.013523,0.002678,0.000431,0.028677
6074000,0.0324,0.013523,0.002678,0.000431,0.026091
6075000,0.0324,0.013523,0.002678,0.000431,0.027149
6076000,0.0324,0.013523,0.002678,0.000431,0.027502
6077000,0.0324,0.013523,0.002678,0.000431,0.026796
6078000,0.0324,0.013523,0.002678,0.000431,0.028559
6079000,0.0324,0.013523,0.002678,0.000431,0.025856
6080000,0.0324,0.013523,0.002678,0.000431,0.029852
6081000,0.0324,0.013523,0.002678,0.000431,0.026914
6082000,0.0324,0.013523,0.002678,0.000431,0.029029
6083000,0.0324,0.013523,0.002678,0.000431,0.027267
6084000,0.0324,0.013523,0.002678,0.000431,0.028794
6085000,0.0324,0.013523,0.002678,0.000431,0.026914
6086000,0.0324,0.013523,0.002678,0.000431,0.026914
6087000,0.0324,0.013523,0.002678,0.000431,0.027267
6088000,0.0324,0.013523,0.002678,0.000431,0.029265
6089000,0.0324,0.013523,0.002678,0.000431,0.026326
6090000,0.0324,0.013523,0.002678,0.000431,0.027619
6091000,0.0324,0.013523,0.002678,0.000431,0.026444
6092000,0.0324,0.013523,0.002678,0.000431,0.027854
6093000,0.0324,0.013523,0.002678,0.000431,0.025974
6094000,0.0324,0.013523,0.002678,0.000431,0.028207
6095000,0.0324,0.013523,0.002678,0.000431,0.026444
6096000,0.0324,0.013523,0.002678,0.000431,0.027031
6097000,0.0324,0.013523,0.002678,0.000431,0.028207
6098000,0.0324,0.013523,0.002678,0.000431,0.027031
6099000,0.0324,0.013523,0.002678,0.000431,0.028442
6100000,0.0324,0.013523,0.002678,0.000431,0.028207
6101000,0.0324,0.013523,0.002678,0.000431,0.027502
6102000,0.0324,0.013523,0.002678,0.000431,0.027149
6103000,0.0324,0.013523,0.002678,0.000431,0.027854
6104000,0.0324,0.013523,0.002678,0.000431,0.026326
6105000,0.0324,0.013523,0.002678,0.000431,0.027854
6106000,0.0324,0.013523,0.002678,0.000431,0.026914
6107000,0.0324,0.013523,0.002678,0.000431,0.027972
6108000,0.0324,0.013523,0.002678,0.000431,0.026679
6109000,0.0324,0.013523,0.002678,0.000431,0.027502
6110000,0.0324,0.013523,0.002678,0.000431,0.026679
6111000,0.0324,0.013523,0.002678,0.000431,0.028207
6112000,0.0324,0.013523,0.002678,0.000431,0.025739
6113000,0.0324,0.013523,0.002678,0.000431,0.027384
6114000,0.0324,0.013523,0.002678,0.000431,0.028442
6115000,0.0324,0.013523,0.002678,0.000431,0.026679
6116000,0.0324,0.013523,0.002678,0.000431,0.027031
6117000,0.0324,0.013523,0.002678,0.000431,0.026326
6118000,0.0324,0.013523,0.002678,0.000431,0.029500
6119000,0.0324,0.013523,0.002678,0.000431,0.028089
6120000,0.0324,0.013523,0.002678,0.000431,0.025856
6121000,0.0324,0.013523,0.002678,0.000431,0.026326
6122000,0.0324,0.013523,0.002678,0.000431,0.026561
6123000,0.0324,0.013523,0.002678,0.000431,0.026679
6124000,0.0324,0.013523,0.002678,0.000431,0.027972
6125000,0.0324,0.013523,0.002678,0.000431,0.025034
6126000,0.0324,0.013523,0.002678,0.000431,0.027267
6127000,0.0324,0.013523,0.002678,0.000431,0.026444
6128000,0.0324,0.013523,0.002678,0.000431,0.026326
6129000,0.0324,0.013523,0.002678,0.000431,0.027619
6130000,0.0324,0.013523,0.002678,0.000431,0.026796
6131000,0.0324,0.013523,0.002678,0.000431,0.027854
6132000,0.0324,0.013523,0.002678,0.000431,0.025269
6133000,0.0324,0.013523,0.002678,0.000431,0.027384
6134000,0.0324,0.013523,0.002678,0.000431,0.026796
6135000,0.0324,0.013523,0.002678,0.000431,0.026914
6136000,0.0324,0.013523,0.002678,0.000431,0.025974
6137000,0.0324,0.013523,0.002678,0.000431,0.027149
6138000,0.0324,0.013523,0.002678,0.000431,0.026209
6139000,0.0324,0.013523,0.002678,0.000431,0.027737
6140000,0.0324,0.013523,0.002678,0.000431,0.025269
6141000,0.0324,0.013523,0.002678,0.000431,0.026679
6142000,0.0324,0.013523,0.002678,0.000431,0.024446
6143000,0.0324,0.013523,0.002678,0.000431,0.026679
6144000,0.0324,0.013523,0.002678,0.000431,0.026444
6145000,0.0324,0.013523,0.002678,0.000431,0.026914
6146000,0.0324,0.013523,0.002678,0.000431,0.025974
6147000,0.0324,0.013523,0.002678,0.000431,0.026091
6148000,0.0324,0.013523,0.002678,0.000431,0.027267
6149000,0.0324,0.013523,0.002678,0.000431,0.026091
6150000,0.0324,0.013523,0.002678,0.000431,0.026209
6151000,0.0324,0.013523,0.002678,0.000431,0.025974
6152000,0.0324,0.013523,0.002678,0.000431,0.025504
6153000,0.0324,0.013523,0.002678,0.000431,0.027737
6154000,0.0324,0.013523,0.002678,0.000431,0.024211
6155000,0.0324,0.013523,0.002678,0.000431,0.027031
6156000,0.0324,0.013523,0.002678,0.000431,0.025386
6157000,0.0324,0.013523,0.002678,0.000431,0.026444
6158000,0.0324,0.013523,0.002678,0.000431,0.026561
6159000,0.0324,0.013523,0.002678,0.000431,0.026326
6160000,0.0324,0.013523,0.002678,0.000431,0.025151
6161000,0.0324,0.013523,0.002678,0.000431,0.025386
6162000,0.0324,0.013523,0.002678,0.000431,0.026561
6163000,0.0324,0.013523,0.002678,0.000431,0.024563
6164000,0.0324,0.013523,0.002678,0.000431,0.027267
6165000,0.0324,0.013523,0.002678,0.000431,0.026444
6166000,0.0324,0.013523,0.002678,0.000431,0.026091
6167000,0.0324,0.013523,0.002678,0.000431,0.026326
6168000,0.0324,0.013523,0.002678,0.000431,0.026444
6169000,0.0324,0.013523,0.002678,0.000431,0.027854
6170000,0.0324,0.013523,0.002678,0.000431,0.023976
6171000,0.0324,0.013523,0.002678,0.000431,0.026561
6172000,0.0324,0.013523,0.002678,0.000431,0.025739
6173000,0.0324,0.013523,0.002678,0.000431,0.026796
6174000,0.0324,0.013523,0.002678,0.000431,0.026561
6175000,0.0324,0.013523,0.002678,0.000431,0.024211
6176000,0.0324,0.013523,0.002678,0.000431,0.023741
6177000,0.0324,0.013523,0.002678,0.000431,0.028089
6178000,0.0324,0.013523,0.002678,0.000431,0.025034
6179000,0.0324,0.013523,0.002678,0.000431,0.027737
6180000,0.0324,0.013523,0.002678,0.000431,0.026326
6181000,0.0324,0.013523,0.002678,0.000431,0.026679
6182000,0.0324,0.013523,0.002678,0.000431,0.025151
6183000,0.0324,0.013523,0.002678,0.000431,0.028559
6184000,0.0324,0.013523,0.002678,0.000431,0.027031
6185000,0.0324,0.013523,0.002678,0.000431,0.026679
6186000,0.0324,0.013523,0.002678,0.000431,0.026091
6187000,0.0324,0.013523,0.002678,0.000431,0.027737
6188000,0.0324,0.013523,0.002678,0.000431,0.027149
6189000,0.0324,0.013523,0.002678,0.000431,0.026561
6190000,0.0324,0.013523,0.002678,0.000431,0.024563
6191000,0.0324,0.013523,0.002678,0.000431,0.027267
6192000,0.0324,0.013523,0.002678,0.000431,0.025269
6193000,0.0324,0.013523,0.002678,0.000431,0.026796
6194000,0.0324,0.013523,0.002678,0.000431,0.026796
6195000,0.0324,0.013523,0.002678,0.000431,0.025621
6196000,0.0324,0.013523,0.002678,0.000431,0.025974
6197000,0.0324,0.013523,0.002678,0.000431,0.024798
6198000,0.0324,0.013523,0.002678,0.000431,0.027384
6199000,0.0324,0.013523,0.002678,0.000431,0.026561
6200000,0.0324,0.013523,0.002678,0.000431,0.026914
6201000,0.0324,0.013523,0.002678,0.000431,0.023976
6202000,0.0324,0.013523,0.002678,0.000431,0.027619
6203000,0.0324,0.013523,0.002678,0.000431,0.024916
6204000,0.0324,0.013523,0.002678,0.000431,0.025856
6205000,0.0324,0.013523,0.002678,0.000431,0.023858
6206000,0.0324,0.013523,0.002678,0.000431,0.026326
6207000,0.0324,0.013523,0.002678,0.000431,0.023741
6208000,0.0324,0.013523,0.002678,0.000431,0.027384
6209000,0.0324,0.013523,0.002678,0.000431,0.023506
6210000,0.0324,0.013523,0.002678,0.000431,0.027267
6211000,0.0324,0.013523,0.002678,0.000431,0.026091
6212000,0.0324,0.013523,0.002678,0.000431,0.025621
6213000,0.0324,0.013523,0.002678,0.000431,0.026796
6214000,0.0324,0.013523,0.002678,0.000431,0.026209
6215000,0.0324,0.013523,0.002678,0.000431,0.026091
6216000,0.0324,0.013523,0.002678,0.000431,0.024916
6217000,0.0324,0.013523,0.002678,0.000431,0.026679
6218000,0.0324,0.013523,0.002678,0.000431,0.027384
6219000,0.0324,0.013523,0.002678,0.000431,0.025269
6220000,0.0324,0.013523,0.002678,0.000431,0.023506
6221000,0.0324,0.013523,0.002678,0.000431,0.025034
6222000,0.0324,0.013523,0.002678,0.000431,0.023858
6223000,0.0324,0.013523,0.002678,0.000431,0.025856
6224000,0.0324,0.013523,0.002678,0.000431,0.022918
6225000,0.0324,0.013523,0.002678,0.000431,0.026091
6226000,0.0324,0.013523,0.002678,0.000431,0.023623
6227000,0.0324,0.013523,0.002678,0.000431,0.025151
6228000,0.0324,0.013523,0.002678,0.000431,0.024446
6229000,0.0324,0.013523,0.002678,0.000431,0.024446
6230000,0.0324,0.013523,0.002678,0.000431,0.024798
6231000,0.0324,0.013523,0.002678,0.000431,0.024446
6232000,0.0324,0.013523,0.002678,0.000431,0.024328
6233000,0.0324,0.013523,0.002678,0.000431,0.023271
6234000,0.0324,0.013523,0.002678,0.000431,0.024211
6235000,0.0324,0.013523,0.002678,0.000431,0.025034
6236000,0.0324,0.013523,0.002678,0.000431,0.024328
6237000,0.0324,0.013523,0.002678,0.000431,0.023388
6238000,0.0324,0.013523,0.002678,0.000431,0.023506
6239000,0.0324,0.013523,0.002678,0.000431,0.024093
6240000,0.0324,0.013523,0.002678,0.000431,0.024681
6241000,0.0324,0.013523,0.002678,0.000431,0.022918
6242000,0.0324,0.013523,0.002678,0.000431,0.024563
6243000,0.0324,0.013523,0.002678,0.000431,0.024798
6244000,0.0324,0.013523,0.002678,0.000431,0.024211
6245000,0.0324,0.013523,0.002678,0.000431,0.023271
6246000,0.0324,0.013523,0.002678,0.000431,0.023506
6247000,0.0324,0.013523,0.002678,0.000431,0.022565
6248000,0.0324,0.013523,0.002678,0.000431,0.024563
6249000,0.0324,0.013523,0.002678,0.000431,0.023623
6250000,0.0324,0.013523,0.002678,0.000431,0.023506
6251000,0.0324,0.013523,0.002678,0.000431,0.022800
6252000,0.0324,0.013523,0.002678,0.000431,0.022448
6253000,0.0324,0.013523,0.002678,0.000431,0.022800
6254000,0.0324,0.013523,0.002678,0.000431,0.022800
6255000,0.0324,0.013523,0.002678,0.000431,0.023506
6256000,0.0324,0.013523,0.002678,0.000431,0.024798
6257000,0.0324,0.013523,0.002678,0.000431,0.021978
6258000,0.0324,0.013523,0.002678,0.000431,0.023153
6259000,0.0324,0.013523,0.002678,0.000431,0.024328
6260000,0.0324,0.013523,0.002678,0.000431,0.022918
6261000,0.0324,0.013523,0.002678,0.000431,0.023506
6262000,0.0324,0.013523,0.002678,0.000431,0.024328
6263000,0.0324,0.013523,0.002678,0.000431,0.023271
6264000,0.0324,0.013523,0.002678,0.000431,0.025621
6265000,0.0324,0.013523,0.002678,0.000431,0.024446
6266000,0.0324,0.013523,0.002678,0.000431,0.022800
6267000,0.0324,0.013523,0.002678,0.000431,0.024093
6268000,0.0324,0.013523,0.002678,0.000431,0.022683
6269000,0.0324,0.013523,0.002678,0.000431,0.024916
6270000,0.0324,0.013523,0.002678,0.000431,0.023271
6271000,0.0324,0.013523,0.002678,0.000431,0.024211
6272000,0.0324,0.013523,0.002678,0.000431,0.023271
6273000,0.0324,0.013523,0.002678,0.000431,0.022918
6274000,0.0324,0.013523,0.002678,0.000431,0.024211
6275000,0.0324,0.013523,0.002678,0.000431,0.022095
6276000,0.0324,0.013523,0.002678,0.000431,0.024211
6277000,0.0324,0.013523,0.002678,0.000431,0.022448
6278000,0.0324,0.013523,0.002678,0.000431,0.024563
6279000,0.0324,0.013523,0.002678,0.000431,0.023623
6280000,0.0324,0.013523,0.002678,0.000431,0.021978
6281000,0.0324,0.013523,0.002678,0.000431,0.023976
6282000,0.0324,0.013523,0.002678,0.000431,0.023858
6283000,0.0324,0.013523,0.002678,0.000431,0.022683
6284000,0.0324,0.013523,0.002678,0.000431,0.025034
6285000,0.0324,0.013523,0.002678,0.000431,0.022800
6286000,0.0324,0.013523,0.002678,0.000431,0.023858
6287000,0.0324,0.013523,0.002678,0.000431,0.022565
6288000,0.0324,0.013523,0.002678,0.000431,0.024211
6289000,0.0324,0.013523,0.002678,0.000431,0.023623
6290000,0.0324,0.013523,0.002678,0.000431,0.024211
6291000,0.0324,0.013523,0.002678,0.000431,0.022213
6292000,0.0324,0.013523,0.002678,0.000431,0.023741
6293000,0.0324,0.013523,0.002678,0.000431,0.023153
6294000,0.0324,0.013523,0.002678,0.000431,0.021508
6295000,0.0324,0.013523,0.002678,0.000431,0.023858
6296000,0.0324,0.013523,0.002678,0.000431,0.022800
6297000,0.0324,0.013523,0.002678,0.000431,0.022565
6298000,0.0324,0.013523,0.002678,0.000431,0.022095
6299000,0.0324,0.013523,0.002678,0.000431,0.024093
6300000,0.0324,0.013523,0.002678,0.000431,0.022918
6301000,0.0324,0.013523,0.002678,0.000431,0.023036
6302000,0.0324,0.013523,0.002678,0.000431,0.023271
6303000,0.0324,0.013523,0.002678,0.000431,0.023153
6304000,0.0324,0.013523,0.002678,0.000431,0.022800
6305000,0.0324,0.013523,0.002678,0.000431,0.022565
6306000,0.0324,0.013523,0.002678,0.000431,0.023976
6307000,0.0324,0.013523,0.002678,0.000431,0.023506
6308000,0.0324,0.013523,0.002678,0.000431,0.022095
6309000,0.0324,0.013523,0.002678,0.000431,0.023741
6310000,0.0324,0.013523,0.002678,0.000431,0.022213
6311000,0.0324,0.013523,0.002678,0.000431,0.022565
6312000,0.0324,0.013523,0.002678,0.000431,0.023976
6313000,0.0324,0.013523,0.002678,0.000431,0.023036
6314000,0.0324,0.013523,0.002678,0.000431,0.022565
6315000,0.0324,0.013523,0.002678,0.000431,0.023036
6316000,0.0324,0.013523,0.002678,0.000431,0.022800
6317000,0.0324,0.013523,0.002678,0.000431,0.022448
6318000,0.0324,0.013523,0.002678,0.000431,0.022918
6319000,0.0324,0.013523,0.002678,0.000431,0.023506
6320000,0.0324,0.013523,0.002678,0.000431,0.023271
6321000,0.0324,0.013523,0.002678,0.000431,0.021508
6322000,0.0324,0.013523,0.002678,0.000431,0.023036
6323000,0.0324,0.013523,0.002678,0.000431,0.023271
6324000,0.0324,0.013523,0.002678,0.000431,0.023858
6325000,0.0324,0.013523,0.002678,0.000431,0.022683
6326000,0.0324,0.013523,0.002678,0.000431,0.023976
6327000,0.0324,0.013523,0.002678,0.000431,0.021625
6328000,0.0324,0.013523,0.002678,0.000431,0.023153
6329000,0.0324,0.013523,0.002678,0.000431,0.023153
6330000,0.0324,0.013523,0.002678,0.000431,0.024563
6331000,0.0324,0.013523,0.002678,0.000431,0.022213
6332000,0.0324,0.013523,0.002678,0.000431,0.022800
6333000,0.0324,0.013523,0.002678,0.000431,0.021978
6334000,0.0324,0.013523,0.002678,0.000431,0.026209
6335000,0.0324,0.013523,0.002678,0.000431,0.021390
6336000,0.0324,0.013523,0.002678,0.000431,0.023741
6337000,0.0324,0.013523,0.002678,0.000431,0.024916
6338000,0.0324,0.013523,0.002678,0.000431,0.021978
6339000,0.0324,0.013523,0.002678,0.000431,0.025386
6340000,0.0324,0.013523,0.002678,0.000431,0.021978
6341000,0.0324,0.013523,0.002678,0.000431,0.022213
6342000,0.0324,0.013523,0.002678,0.000431,0.022213
6343000,0.0324,0.013523,0.002678,0.000431,0.023036
6344000,0.0324,0.013523,0.002678,0.000431,0.023858
6345000,0.0324,0.013523,0.002678,0.000431,0.023271
6346000,0.0324,0.013523,0.002678,0.000431,0.022095
6347000,0.0324,0.013523,0.002678,0.000431,0.023388
6348000,0.0324,0.013523,0.002678,0.000431,0.022095
6349000,0.0324,0.013523,0.002678,0.000431,0.024798
6350000,0.0324,0.013523,0.002678,0.000431,0.022448
6351000,0.0324,0.013523,0.002678,0.000431,0.023741
6352000,0.0324,0.013523,0.002678,0.000431,0.022330
6353000,0.0324,0.013523,0.002678,0.000431,0.024328
6354000,0.0324,0.013523,0.002678,0.000431,0.022918
6355000,0.0324,0.013523,0.002678,0.000431,0.022800
6356000,0.0324,0.013523,0.002678,0.000431,0.023623
6357000,0.0324,0.013523,0.002678,0.000431,0.022095
6358000,0.0324,0.013523,0.002678,0.000431,0.024446
6359000,0.0324,0.013523,0.002678,0.000431,0.022448
6360000,0.0324,0.013523,0.002678,0.000431,0.024328
6361000,0.0324,0.013523,0.002678,0.000431,0.021978
6362000,0.0324,0.013523,0.002678,0.000431,0.022565
6363000,0.0324,0.013523,0.002678,0.000431,0.021625
6364000,0.0324,0.013523,0.002678,0.000431,0.024093
6365000,0.0324,0.013523,0.002678,0.000431,0.023271
6366000,0.0324,0.013523,0.002678,0.000431,0.022800
6367000,0.0324,0.013523,0.002678,0.000431,0.023036
6368000,0.0324,0.013523,0.002678,0.000431,0.022565
6369000,0.0324,0.013523,0.002678,0.000431,0.022683
6370000,0.0324,0.013523,0.002678,0.000431,0.022565
6371000,0.0324,0.013523,0.002678,0.000431,0.021978
6372000,0.0324,0.013523,0.002678,0.000431,0.023153
6373000,0.0324,0.013523,0.002678,0.000431,0.022448
6374000,0.0324,0.013523,0.002678,0.000431,0.025034
6375000,0.0324,0.013523,0.002678,0.000431,0.021155
6376000,0.0324,0.013523,0.002678,0.000431,0.022800
6377000,0.0324,0.013523,0.002678,0.000431,0.023976
6378000,0.0324,0.013523,0.002678,0.000431,0.023036
6379000,0.0324,0.013523,0.002678,0.000431,0.024446
6380000,0.0324,0.013523,0.002678,0.000431,0.022683
6381000,0.0324,0.013523,0.002678,0.000431,0.023153
6382000,0.0324,0.013523,0.002678,0.000431,0.023036
6383000,0.0324,0.013523,0.002678,0.000431,0.023623
6384000,0.0324,0.013523,0.002678,0.000431,0.023741
6385000,0.0324,0.013523,0.002678,0.000431,0.023036
6386000,0.0324,0.013523,0.002678,0.000431,0.023036
6387000,0.0324,0.013523,0.002678,0.000431,0.023388
6388000,0.0324,0.013523,0.002678,0.000431,0.022095
6389000,0.0324,0.013523,0.002678,0.000431,0.023153
6390000,0.0324,0.013523,0.002678,0.000431,0.023271
6391000,0.0324,0.013523,0.002678,0.000431,0.022800
6392000,0.0324,0.013523,0.002678,0.000431,0.023506
6393000,0.0324,0.013523,0.002678,0.000431,0.023388
6394000,0.0324,0.013523,0.002678,0.000431,0.022800
6395000,0.0324,0.013523,0.002678,0.000431,0.022095
6396000,0.0324,0.013523,0.002678,0.000431,0.023858
6397000,0.0324,0.013523,0.002678,0.000431,0.023153
6398000,0.0324,0.013523,0.002678,0.000431,0.023271
6399000,0.0324,0.013523,0.002678,0.000431,0.023506
6400000,0.0324,0.013523,0.002678,0.000431,0.023388
6401000,0.0324,0.013523,0.002678,0.000431,0.023271
6402000,0.0324,0.013523,0.002678,0.000431,0.023623
6403000,0.0324,0.013523,0.002678,0.000431,0.023623
6404000,0.0324,0.013523,0.002678,0.000431,0.023153
6405000,0.0324,0.013523,0.002678,0.000431,0.022213
6406000,0.0324,0.013523,0.002678,0.000431,0.023858
6407000,0.0324,0.013523,0.002678,0.000431,0.022683
6408000,0.0324,0.013523,0.002678,0.000431,0.023506
6409000,0.0324,0.013523,0.002678,0.000431,0.023153
6410000,0.0324,0.013523,0.002678,0.000431,0.022330
6411000,0.0324,0.013523,0.002678,0.000431,0.022565
6412000,0.0324,0.013523,0.002678,0.000431,0.021390
6413000,0.0324,0.013523,0.002678,0.000431,0.025269
6414000,0.0324,0.013523,0.002678,0.000431,0.021390
6415000,0.0324,0.013523,0.002678,0.000431,0.022565
6416000,0.0324,0.013523,0.002678,0.000431,0.022565
6417000,0.0324,0.013523,0.002678,0.000431,0.023976
6418000,0.0324,0.013523,0.002678,0.000431,0.021743
6419000,0.0324,0.013523,0.002678,0.000431,0.023976
6420000,0.0324,0.013523,0.002678,0.000431,0.023153
6421000,0.0324,0.013523,0.002678,0.000431,0.022800
6422000,0.0324,0.013523,0.002678,0.000431,0.023153
6423000,0.0324,0.013523,0.002678,0.000431,0.023976
6424000,0.0324,0.013523,0.002678,0.000431,0.024563
6425000,0.0324,0.013523,0.002678,0.000431,0.023388
6426000,0.0324,0.013523,0.002678,0.000431,0.022683
6427000,0.0324,0.013523,0.002678,0.000431,0.024211
6428000,0.0324,0.013523,0.002678,0.000431,0.022683
6429000,0.0324,0.013523,0.002678,0.000431,0.025974
6430000,0.0324,0.013523,0.002678,0.000431,0.023741
6431000,0.0324,0.013523,0.002678,0.000431,0.021508
6432000,0.0324,0.013523,0.002678,0.000431,0.022683
6433000,0.0324,0.013523,0.002678,0.000431,0.023858
6434000,0.0324,0.013523,0.002678,0.000431,0.025739
6435000,0.0324,0.013523,0.002678,0.000431,0.022448
6436000,0.0324,0.013523,0.002678,0.000431,0.022918
6437000,0.0324,0.013523,0.002678,0.000431,0.023271
6438000,0.0324,0.013523,0.002678,0.000431,0.024211
6439000,0.0324,0.013523,0.002678,0.000431,0.023271
6440000,0.0324,0.013523,0.002678,0.000431,0.023388
6441000,0.0324,0.013523,0.002678,0.000431,0.021743
6442000,0.0324,0.013523,0.002678,0.000431,0.023858
6443000,0.0324,0.013523,0.002678,0.000431,0.023271
6444000,0.0324,0.013523,0.002678,0.000431,0.024093
6445000,0.0324,0.013523,0.002678,0.000431,0.022330
6446000,0.0324,0.013523,0.002678,0.000431,0.023623
6447000,0.0324,0.013523,0.002678,0.000431,0.024211
6448000,0.0324,0.013523,0.002678,0.000431,0.023506
6449000,0.0324,0.013523,0.002678,0.000431,0.023858
6450000,0.0324,0.013523,0.002678,0.000431,0.024093
6451000,0.0324,0.013523,0.002678,0.000431,0.020685
6452000,0.0324,0.013523,0.002678,0.000431,0.024211
6453000,0.0324,0.013523,0.002678,0.000431,0.023153
6454000,0.0324,0.013523,0.002678,0.000431,0.023741
6455000,0.0324,0.013523,0.002678,0.000431,0.024446
6456000,0.0324,0.013523,0.002678,0.000431,0.022800
6457000,0.0324,0.013523,0.002678,0.000431,0.023976
6458000,0.0324,0.013523,0.002678,0.000431,0.022448
6459000,0.0324,0.013523,0.002678,0.000431,0.023858
6460000,0.0324,0.013523,0.002678,0.000431,0.022330
6461000,0.0324,0.013523,0.002678,0.000431,0.024211
6462000,0.0324,0.013523,0.002678,0.000431,0.022213
6463000,0.0324,0.013523,0.002678,0.000431,0.023858
6464000,0.0324,0.013523,0.002678,0.000431,0.023976
6465000,0.0324,0.013523,0.002678,0.000431,0.023858
6466000,0.0324,0.013523,0.002678,0.000431,0.022683
6467000,0.0324,0.013523,0.002678,0.000431,0.024916
6468000,0.0324,0.013523,0.002678,0.000431,0.021860
6469000,0.0324,0.013523,0.002678,0.000431,0.025151
6470000,0.0324,0.013523,0.002678,0.000431,0.022448
6471000,0.0324,0.013523,0.002678,0.000431,0.024681
6472000,0.0324,0.013523,0.002678,0.000431,0.023036
6473000,0.0324,0.013523,0.002678,0.000431,0.022918
6474000,0.0324,0.013523,0.002678,0.000431,0.023858
6475000,0.0324,0.013523,0.002678,0.000431,0.023388
6476000,0.0324,0.013523,0.002678,0.000431,0.022683
6477000,0.0324,0.013523,0.002678,0.000431,0.023153
6478000,0.0324,0.013523,0.002678,0.000431,0.022565
6479000,0.0324,0.013523,0.002678,0.000431,0.022683
6480000,0.0324,0.013523,0.002678,0.000431,0.024093
6481000,0.0324,0.013523,0.002678,0.000431,0.022330
6482000,0.0324,0.013523,0.002678,0.000431,0.023623
6483000,0.0324,0.013523,0.002678,0.000431,0.022213
6484000,0.0324,0.013523,0.002678,0.000431,0.023271
6485000,0.0324,0.013523,0.002678,0.000431,0.022918
6486000,0.0324,0.013523,0.002678,0.000431,0.024211
6487000,0.0324,0.013523,0.002678,0.000431,0.022095
6488000,0.0324,0.013523,0.002678,0.000431,0.021860
6489000,0.0324,0.013523,0.002678,0.000431,0.024211
6490000,0.0324,0.013523,0.002678,0.000431,0.023976
6491000,0.0324,0.013523,0.002678,0.000431,0.021625
6492000,0.0324,0.013523,0.002678,0.000431,0.022683
6493000,0.0324,0.013523,0.002678,0.000431,0.022095
6494000,0.0324,0.013523,0.002678,0.000431,0.023976
6495000,0.0324,0.013523,0.002678,0.000431,0.023976
6496000,0.0324,0.013523,0.002678,0.000431,0.022213
6497000,0.0324,0.013523,0.002678,0.000431,0.022095
6498000,0.0324,0.013523,0.002678,0.000431,0.023036
6499000,0.0324,0.013523,0.002678,0.000431,0.022448
6500000,0.0324,0.013523,0.002678,0.000431,0.023271
6501000,0.0324,0.013523,0.002678,0.000431,0.021860
6502000,0.0324,0.013523,0.002678,0.000431,0.023388
6503000,0.0324,0.013523,0.002678,0.000431,0.022448
6504000,0.0324,0.013523,0.002678,0.000431,0.022565
6505000,0.0324,0.013523,0.002678,0.000431,0.023036
6506000,0.0324,0.013523,0.002678,0.000431,0.021390
6507000,0.0324,0.013523,0.002678,0.000431,0.022565
6508000,0.0324,0.013523,0.002678,0.000431,0.021860
6509000,0.0324,0.013523,0.002678,0.000431,0.024211
6510000,0.0324,0.013523,0.002678,0.000431,0.020450
6511000,0.0324,0.013523,0.002678,0.000431,0.023388
6512000,0.0324,0.013523,0.002678,0.000431,0.023388
6513000,0.0324,0.013523,0.002678,0.000431,0.021390
6514000,0.0324,0.013523,0.002678,0.000431,0.022683
6515000,0.0324,0.013523,0.002678,0.000431,0.024798
6516000,0.0324,0.013523,0.002678,0.000431,0.022565
6517000,0.0324,0.013523,0.002678,0.000431,0.022448
6518000,0.0324,0.013523,0.002678,0.000431,0.023388
6519000,0.0324,0.013523,0.002678,0.000431,0.023388
6520000,0.0324,0.013523,0.002678,0.000431,0.021743
6521000,0.0324,0.013523,0.002678,0.000431,0.023036
6522000,0.0324,0.013523,0.002678,0.000431,0.023858
6523000,0.0324,0.013523,0.002678,0.000431,0.021743
6524000,0.0324,0.013523,0.002678,0.000431,0.023036
6525000,0.0324,0.013523,0.002678,0.000431,0.023153
6526000,0.0324,0.013523,0.002678,0.000431,0.021978
6527000,0.0324,0.013523,0.002678,0.000431,0.022330
6528000,0.0324,0.013523,0.002678,0.000431,0.024211
6529000,0.0324,0.013523,0.002678,0.000431,0.022095
6530000,0.0324,0.013523,0.002678,0.000431,0.023388
6531000,0.0324,0.013523,0.002678,0.000431,0.021860
6532000,0.0324,0.013523,0.002678,0.000431,0.023271
6533000,0.0324,0.013523,0.002678,0.000431,0.022213
6534000,0.0324,0.013523,0.002678,0.000431,0.022448
6535000,0.0324,0.013523,0.002678,0.000431,0.023036
6536000,0.0324,0.013523,0.002678,0.000431,0.021743
6537000,0.0324,0.013523,0.002678,0.000431,0.021273
6538000,0.0324,0.013523,0.002678,0.000431,0.023388
6539000,0.0324,0.013523,0.002678,0.000431,0.022213
6540000,0.0324,0.013523,0.002678,0.000431,0.021860
6541000,0.0324,0.013523,0.002678,0.000431,0.022213
6542000,0.0324,0.013523,0.002678,0.000431,0.024211
6543000,0.0324,0.013523,0.002678,0.000431,0.021625
6544000,0.0324,0.013523,0.002678,0.000431,0.022330
6545000,0.0324,0.013523,0.002678,0.000431,0.024093
6546000,0.0324,0.013523,0.002678,0.000431,0.022448
6547000,0.0324,0.013523,0.002678,0.000431,0.022448
6548000,0.0324,0.013523,0.002678,0.000431,0.022565
6549000,0.0324,0.013523,0.002678,0.000431,0.023388
6550000,0.0324,0.013523,0.002678,0.000431,0.021743
6551000,0.0324,0.013523,0.002678,0.000431,0.023506
6552000,0.0324,0.013523,0.002678,0.000431,0.022683
6553000,0.0324,0.013523,0.002678,0.000431,0.021860
6554000,0.0324,0.013523,0.002678,0.000431,0.023623
6555000,0.0324,0.013523,0.002678,0.000431,0.022683
6556000,0.0324,0.013523,0.002678,0.000431,0.022565
6557000,0.0324,0.013523,0.002678,0.000431,0.021508
6558000,0.0324,0.013523,0.002678,0.000431,0.022565
6559000,0.0324,0.013523,0.002678,0.000431,0.024681
6560000,0.0324,0.013523,0.002678,0.000431,0.022565
6561000,0.0324,0.013523,0.002678,0.000431,0.022095
6562000,0.0324,0.013523,0.002678,0.000431,0.021625
6563000,0.0324,0.013523,0.002678,0.000431,0.022565
6564000,0.0324,0.013523,0.002678,0.000431,0.022683
6565000,0.0324,0.013523,0.002678,0.000431,0.024093
6566000,0.0324,0.013523,0.002678,0.000431,0.022683
6567000,0.0324,0.013523,0.002678,0.000431,0.022683
6568000,0.0324,0.013523,0.002678,0.000431,0.023153
6569000,0.0324,0.013523,0.002678,0.000431,0.022918
6570000,0.0324,0.013523,0.002678,0.000431,0.022683
6571000,0.0324,0.013523,0.002678,0.000431,0.021508
6572000,0.0324,0.013523,0.002678,0.000431,0.021625
6573000,0.0324,0.013523,0.002678,0.000431,0.022683
6574000,0.0324,0.013523,0.002678,0.000431,0.021390
6575000,0.0324,0.013523,0.002678,0.000431,0.024093
6576000,0.0324,0.013523,0.002678,0.000431,0.023388
6577000,0.0324,0.013523,0.002678,0.000431,0.020802
6578000,0.0324,0.013523,0.002678,0.000431,0.025034
6579000,0.0324,0.013523,0.002678,0.000431,0.023506
6580000,0.0324,0.013523,0.002678,0.000431,0.024328
6581000,0.0324,0.013523,0.002678,0.000431,0.021743
6582000,0.0324,0.013523,0.002678,0.000431,0.022213
6583000,0.0324,0.013523,0.002678,0.000431,0.021625
6584000,0.0324,0.013523,0.002678,0.000431,0.022565
6585000,0.0324,0.013523,0.002678,0.000431,0.023858
6586000,0.0324,0.013523,0.002678,0.000431,0.023506
6587000,0.0324,0.013523,0.002678,0.000431,0.022213
6588000,0.0324,0.013523,0.002678,0.000431,0.023036
6589000,0.0324,0.013523,0.002678,0.000431,0.022213
6590000,0.0324,0.013523,0.002678,0.000431,0.023858
6591000,0.0324,0.013523,0.002678,0.000431,0.022918
6592000,0.0324,0.013523,0.002678,0.000431,0.022683
6593000,0.0324,0.013523,0.002678,0.000431,0.024211
6594000,0.0324,0.013523,0.002678,0.000431,0.022330
6595000,0.0324,0.013523,0.002678,0.000431,0.023271
6596000,0.0324,0.013523,0.002678,0.000431,0.022683
6597000,0.0324,0.013523,0.002678,0.000431,0.023271
6598000,0.0324,0.013523,0.002678,0.000431,0.022095
6599000,0.0324,0.013523,0.002678,0.000431,0.024093
6600000,0.0324,0.013523,0.002678,0.000431,0.022800
6601000,0.0324,0.013523,0.002678,0.000431,0.021860
6602000,0.0324,0.013523,0.002678,0.000431,0.023153
6603000,0.0324,0.013523,0.002678,0.000431,0.023506
6604000,0.0324,0.013523,0.002678,0.000431,0.021860
6605000,0.0324,0.013523,0.002678,0.000431,0.023271
6606000,0.0324,0.013523,0.002678,0.000431,0.021625
6607000,0.0324,0.013523,0.002678,0.000431,0.022448
6608000,0.0324,0.013523,0.002678,0.000431,0.023036
6609000,0.0324,0.013523,0.002678,0.000431,0.023741
6610000,0.0324,0.013523,0.002678,0.000431,0.022683
6611000,0.0324,0.013523,0.002678,0.000431,0.023036
6612000,0.0324,0.013523,0.002678,0.000431,0.022800
6613000,0.0324,0.013523,0.002678,0.000431,0.022918
6614000,0.0324,0.013523,0.002678,0.000431,0.022800
6615000,0.0324,0.013523,0.002678,0.000431,0.022330
6616000,0.0324,0.013523,0.002678,0.000431,0.023388
6617000,0.0324,0.013523,0.002678,0.000431,0.023388
6618000,0.0324,0.013523,0.002678,0.000431,0.022330
6619000,0.0324,0.013523,0.002678,0.000431,0.024563
6620000,0.0324,0.013523,0.002678,0.000431,0.022918
6621000,0.0324,0.013523,0.002678,0.000431,0.021743
6622000,0.0324,0.013523,0.002678,0.000431,0.024093
6623000,0.0324,0.013523,0.002678,0.000431,0.022683
6624000,0.0324,0.013523,0.002678,0.000431,0.022565
6625000,0.0324,0.013523,0.002678,0.000431,0.023623
6626000,0.0324,0.013523,0.002678,0.000431,0.023036
6627000,0.0324,0.013523,0.002678,0.000431,0.022918
6628000,0.0324,0.013523,0.002678,0.000431,0.022448
6629000,0.0324,0.013523,0.002678,0.000431,0.023506
6630000,0.0324,0.013523,0.002678,0.000431,0.023858
6631000,0.0324,0.013523,0.002678,0.000431,0.021390
6632000,0.0324,0.013523,0.002678,0.000431,0.023741
6633000,0.0324,0.013523,0.002678,0.000431,0.023858
6634000,0.0324,0.013523,0.002678,0.000431,0.023741
6635000,0.0324,0.013523,0.002678,0.000431,0.023036
6636000,0.0324,0.013523,0.002678,0.000431,0.023388
6637000,0.0324,0.013523,0.002678,0.000431,0.022448
6638000,0.0324,0.013523,0.002678,0.000431,0.023036
6639000,0.0324,0.013523,0.002678,0.000431,0.023271
6640000,0.0324,0.013523,0.002678,0.000431,0.022918
6641000,0.0324,0.013523,0.002678,0.000431,0.023271
6642000,0.0324,0.013523,0.002678,0.000431,0.020685
6643000,0.0324,0.013523,0.002678,0.000431,0.024093
6644000,0.0324,0.013523,0.002678,0.000431,0.022800
6645000,0.0324,0.013523,0.002678,0.000431,0.021978
6646000,0.0324,0.013523,0.002678,0.000431,0.022918
6647000,0.0324,0.013523,0.002678,0.000431,0.022683
6648000,0.0324,0.013523,0.002678,0.000431,0.020802
6649000,0.0324,0.013523,0.002678,0.000431,0.024446
6650000,0.0324,0.013523,0.002678,0.000431,0.023271
6651000,0.0324,0.013523,0.002678,0.000431,0.022213
6652000,0.0324,0.013523,0.002678,0.000431,0.021860
6653000,0.0324,0.013523,0.002678,0.000431,0.022095
6654000,0.0324,0.013523,0.002678,0.000431,0.023036
6655000,0.0324,0.013523,0.002678,0.000431,0.021390
6656000,0.0324,0.013523,0.002678,0.000431,0.023388
6657000,0.0324,0.013523,0.002678,0.000431,0.021155
6658000,0.0324,0.013523,0.002678,0.000431,0.022565
6659000,0.0324,0.013523,0.002678,0.000431,0.022683
6660000,0.0324,0.013523,0.002678,0.000431,0.023036
6661000,0.0324,0.013523,0.002678,0.000431,0.022095
6662000,0.0324,0.013523,0.002678,0.000431,0.021625
6663000,0.0324,0.013523,0.002678,0.000431,0.021860
6664000,0.0324,0.013523,0.002678,0.000431,0.023976
6665000,0.0324,0.013523,0.002678,0.000431,0.020802
6666000,0.0324,0.013523,0.002678,0.000431,0.022683
6667000,0.0324,0.013523,0.002678,0.000431,0.021860
6668000,0.0324,0.013523,0.002678,0.000431,0.022448
6669000,0.0324,0.013523,0.002678,0.000431,0.022565
6670000,0.0324,0.013523,0.002678,0.000431,0.023506
6671000,0.0324,0.013523,0.002678,0.000431,0.021273
6672000,0.0324,0.013523,0.002678,0.000431,0.020685
6673000,0.0324,0.013523,0.002678,0.000431,0.022213
6674000,0.0324,0.013523,0.002678,0.000431,0.023388
6675000,0.0324,0.013523,0.002678,0.000431,0.023153
6676000,0.0324,0.013523,0.002678,0.000431,0.021860
6677000,0.0324,0.013523,0.002678,0.000431,0.025034
6678000,0.0324,0.013523,0.002678,0.000431,0.022448
6679000,0.0324,0.013523,0.002678,0.000431,0.023388
6680000,0.0324,0.013523,0.002678,0.000431,0.023036
6681000,0.0324,0.013523,0.002678,0.000431,0.023623
6682000,0.0324,0.013523,0.002678,0.000431,0.021625
6683000,0.0324,0.013523,0.002678,0.000431,0.024563
6684000,0.0324,0.013523,0.002678,0.000431,0.022448
6685000,0.0324,0.013523,0.002678,0.000431,0.022683
6686000,0.0324,0.013523,0.002678,0.000431,0.020097
6687000,0.0324,0.013523,0.002678,0.000431,0.023506
6688000,0.0324,0.013523,0.002678,0.000431,0.022565
6689000,0.0324,0.013523,0.002678,0.000431,0.022095
6690000,0.0324,0.013523,0.002678,0.000431,0.021390
6691000,0.0324,0.013523,0.002678,0.000431,0.022448
6692000,0.0324,0.013523,0.002678,0.000431,0.021508
6693000,0.0324,0.013523,0.002678,0.000431,0.022448
6694000,0.0324,0.013523,0.002678,0.000431,0.023623
6695000,0.0324,0.013523,0.002678,0.000431,0.023858
6696000,0.0324,0.013523,0.002678,0.000431,0.019862
6697000,0.0324,0.013523,0.002678,0.000431,0.022213
6698000,0.0324,0.013523,0.002678,0.000431,0.021860
6699000,0.0324,0.013523,0.002678,0.000431,0.022565
6700000,0.0324,0.013523,0.002678,0.000431,0.023153
6701000,0.0324,0.013523,0.002678,0.000431,0.021978
6702000,0.0324,0.013523,0.002678,0.000431,0.022918
6703000,0.0324,0.013523,0.002678,0.000431,0.022448
6704000,0.0324,0.013523,0.002678,0.000431,0.023036
6705000,0.0324,0.013523,0.002678,0.000431,0.022095
6706000,0.0324,0.013523,0.002678,0.000431,0.021508
6707000,0.0324,0.013523,0.002678,0.000431,0.023623
6708000,0.0324,0.013523,0.002678,0.000431,0.023271
6709000,0.0324,0.013523,0.002678,0.000431,0.021390
6710000,0.0324,0.013523,0.002678,0.000431,0.023506
6711000,0.0324,0.013523,0.002678,0.000431,0.021860
6712000,0.0324,0.013523,0.002678,0.000431,0.023858
6713000,0.0324,0.013523,0.002678,0.000431,0.020920
6714000,0.0324,0.013523,0.002678,0.000431,0.023388
6715000,0.0324,0.013523,0.002678,0.000431,0.022683
6716000,0.0324,0.013523,0.002678,0.000431,0.022095
6717000,0.0324,0.013523,0.002678,0.000431,0.022330
6718000,0.0324,0.013523,0.002678,0.000431,0.023506
6719000,0.0324,0.013523,0.002678,0.000431,0.021860
6720000,0.0324,0.013523,0.002678,0.000431,0.020802
6721000,0.0324,0.013523,0.002678,0.000431,0.023388
6722000,0.0324,0.013523,0.002678,0.000431,0.021860
6723000,0.0324,0.013523,0.002678,0.000431,0.022213
6724000,0.0324,0.013523,0.002678,0.000431,0.023506
6725000,0.0324,0.013523,0.002678,0.000431,0.022800
6726000,0.0324,0.013523,0.002678,0.000431,0.022918
6727000,0.0324,0.013523,0.002678,0.000431,0.021625
6728000,0.0324,0.013523,0.002678,0.000431,0.024093
6729000,0.0324,0.013523,0.002678,0.000431,0.022448
6730000,0.0324,0.013523,0.002678,0.000431,0.020920
6731000,0.0324,0.013523,0.002678,0.000431,0.023271
6732000,0.0324,0.013523,0.002678,0.000431,0.021155
6733000,0.0324,0.013523,0.002678,0.000431,0.023271
6734000,0.0324,0.013523,0.002678,0.000431,0.021978
6735000,0.0324,0.013523,0.002678,0.000431,0.022330
6736000,0.0324,0.013523,0.002678,0.000431,0.020215
6737000,0.0324,0.013523,0.002678,0.000431,0.022918
6738000,0.0324,0.013523,0.002678,0.000431,0.023741
6739000,0.0324,0.013523,0.002678,0.000431,0.022095
6740000,0.0324,0.013523,0.002678,0.000431,0.021860
6741000,0.0324,0.013523,0.002678,0.000431,0.022213
6742000,0.0324,0.013523,0.002678,0.000431,0.022095
6743000,0.0324,0.013523,0.002678,0.000431,0.023153
6744000,0.0324,0.013523,0.002678,0.000431,0.022683
6745000,0.0324,0.013523,0.002678,0.000431,0.023271
6746000,0.0324,0.013523,0.002678,0.000431,0.022330
6747000,0.0324,0.013523,0.002678,0.000431,0.021273
6748000,0.0324,0.013523,0.002678,0.000431,0.023976
6749000,0.0324,0.013523,0.002678,0.000431,0.024328
6750000,0.0324,0.013523,0.002678,0.000431,0.021155
6751000,0.0324,0.013523,0.002678,0.000431,0.021625
6752000,0.0324,0.013523,0.002678,0.000431,0.022330
6753000,0.0324,0.013523,0.002678,0.000431,0.023036
6754000,0.0324,0.013523,0.002678,0.000431,0.023153
6755000,0.0324,0.013523,0.002678,0.000431,0.022683
6756000,0.0324,0.013523,0.002678,0.000431,0.022565
6757000,0.0324,0.013523,0.002678,0.000431,0.022095
6758000,0.0324,0.013523,0.002678,0.000431,0.023388
6759000,0.0324,0.013523,0.002678,0.000431,0.022565
6760000,0.0324,0.013523,0.002678,0.000431,0.022448
6761000,0.0324,0.013523,0.002678,0.000431,0.022918
6762000,0.0324,0.013523,0.002678,0.000431,0.023271
6763000,0.0324,0.013523,0.002678,0.000431,0.021860
6764000,0.0324,0.013523,0.002678,0.000431,0.024446
6765000,0.0324,0.013523,0.002678,0.000431,0.021038
6766000,0.0324,0.013523,0.002678,0.000431,0.022565
6767000,0.0324,0.013523,0.002678,0.000431,0.022683
6768000,0.0324,0.013523,0.002678,0.000431,0.023153
6769000,0.0324,0.013523,0.002678,0.000431,0.022565
6770000,0.0324,0.013523,0.002678,0.000431,0.021743
6771000,0.0324,0.013523,0.002678,0.000431,0.023153
6772000,0.0324,0.013523,0.002678,0.000431,0.022800
6773000,0.0324,0.013523,0.002678,0.000431,0.024681
6774000,0.0324,0.013523,0.002678,0.000431,0.021743
6775000,0.0324,0.013523,0.002678,0.000431,0.021390
6776000,0.0324,0.013523,0.002678,0.000431,0.020450
6777000,0.0324,0.013523,0.002678,0.000431,0.023036
6778000,0.0324,0.013523,0.002678,0.000431,0.021155
6779000,0.0324,0.013523,0.002678,0.000431,0.021743
6780000,0.0324,0.013523,0.002678,0.000431,0.021390
6781000,0.0324,0.013523,0.002678,0.000431,0.022095
6782000,0.0324,0.013523,0.002678,0.000431,0.021743
6783000,0.0324,0.013523,0.002678,0.000431,0.020097
6784000,0.0324,0.013523,0.002678,0.000431,0.022565
6785000,0.0324,0.013523,0.002678,0.000431,0.022213
6786000,0.0324,0.013523,0.002678,0.000431,0.021625
6787000,0.0324,0.013523,0.002678,0.000431,0.021390
6788000,0.0324,0.013523,0.002678,0.000431,0.021860
6789000,0.0324,0.013523,0.002678,0.000431,0.021743
6790000,0.0324,0.013523,0.002678,0.000431,0.022095
6791000,0.0324,0.013523,0.002678,0.000431,0.020567
6792000,0.0324,0.013523,0.002678,0.000431,0.022330
6793000,0.0324,0.013523,0.002678,0.000431,0.020097
6794000,0.0324,0.013523,0.002678,0.000431,0.022800
6795000,0.0324,0.013523,0.002678,0.000431,0.021860
6796000,0.0324,0.013523,0.002678,0.000431,0.022330
6797000,0.0324,0.013523,0.002678,0.000431,0.022565
6798000,0.0324,0.013523,0.002678,0.000431,0.022330
6799000,0.0324,0.013523,0.002678,0.000431,0.023741
6800000,0.0324,0.013523,0.002678,0.000431,0.021038
6801000,0.0324,0.013523,0.002678,0.000431,0.021743
6802000,0.0324,0.013523,0.002678,0.000431,0.022095
6803000,0.0324,0.013523,0.002678,0.000431,0.021390
6804000,0.0324,0.013523,0.002678,0.000431,0.022565
6805000,0.0324,0.013523,0.002678,0.000431,0.022213
6806000,0.0324,0.013523,0.002678,0.000431,0.021743
6807000,0.0324,0.013523,0.002678,0.000431,0.021390
6808000,0.0324,0.013523,0.002678,0.000431,0.021625
6809000,0.0324,0.013523,0.002678,0.000431,0.023858
6810000,0.0324,0.013523,0.002678,0.000431,0.021625
6811000,0.0324,0.013523,0.002678,0.000431,0.020097
6812000,0.0324,0.013523,0.002678,0.000431,0.021625
6813000,0.0324,0.013523,0.002678,0.000431,0.023153
6814000,0.0324,0.013523,0.002678,0.000431,0.020920
6815000,0.0324,0.013523,0.002678,0.000431,0.023271
6816000,0.0324,0.013523,0.002678,0.000431,0.021038
6817000,0.0324,0.013523,0.002678,0.000431,0.023388
6818000,0.0324,0.013523,0.002678,0.000431,0.021273
6819000,0.0324,0.013523,0.002678,0.000431,0.022565
6820000,0.0324,0.013523,0.002678,0.000431,0.022330
6821000,0.0324,0.013523,0.002678,0.000431,0.021978
6822000,0.0324,0.013523,0.002678,0.000431,0.019980
6823000,0.0324,0.013523,0.002678,0.000431,0.023036
6824000,0.0324,0.013523,0.002678,0.000431,0.021390
6825000,0.0324,0.013523,0.002678,0.000431,0.022095
6826000,0.0324,0.013523,0.002678,0.000431,0.020802
6827000,0.0324,0.013523,0.002678,0.000431,0.022448
6828000,0.0324,0.013523,0.002678,0.000431,0.021155
6829000,0.0324,0.013523,0.002678,0.000431,0.024328
6830000,0.0324,0.013523,0.002678,0.000431,0.022213
6831000,0.0324,0.013523,0.002678,0.000431,0.021860
6832000,0.0324,0.013523,0.002678,0.000431,0.021273
6833000,0.0324,0.013523,0.002678,0.000431,0.021390
6834000,0.0324,0.013523,0.002678,0.000431,0.023153
6835000,0.0324,0.013523,0.002678,0.000431,0.021038
6836000,0.0324,0.013523,0.002678,0.000431,0.022095
6837000,0.0324,0.013523,0.002678,0.000431,0.020685
6838000,0.0324,0.013523,0.002678,0.000431,0.022683
6839000,0.0324,0.013523,0.002678,0.000431,0.021743
6840000,0.0324,0.013523,0.002678,0.000431,0.021155
6841000,0.0324,0.013523,0.002678,0.000431,0.021508
6842000,0.0324,0.013523,0.002678,0.000431,0.022800
6843000,0.0324,0.013523,0.002678,0.000431,0.022213
6844000,0.0324,0.013523,0.002678,0.000431,0.022330
6845000,0.0324,0.013523,0.002678,0.000431,0.021155
6846000,0.0324,0.013523,0.002678,0.000431,0.022448
6847000,0.0324,0.013523,0.002678,0.000431,0.019627
6848000,0.0324,0.013523,0.002678,0.000431,0.021743
6849000,0.0324,0.013523,0.002678,0.000431,0.022448
6850000,0.0324,0.013523,0.002678,0.000431,0.021273
6851000,0.0324,0.013523,0.002678,0.000431,0.022213
6852000,0.0324,0.013523,0.002678,0.000431,0.021860
6853000,0.0324,0.013523,0.002678,0.000431,0.022095
6854000,0.0324,0.013523,0.002678,0.000431,0.022330
6855000,0.0324,0.013523,0.002678,0.000431,0.022213
6856000,0.0324,0.013523,0.002678,0.000431,0.021508
6857000,0.0324,0.013523,0.002678,0.000431,0.023623
6858000,0.0324,0.013523,0.002678,0.000431,0.020215
6859000,0.0324,0.013523,0.002678,0.000431,0.021860
6860000,0.0324,0.013523,0.002678,0.000431,0.021273
6861000,0.0324,0.013523,0.002678,0.000431,0.020450
6862000,0.0324,0.013523,0.002678,0.000431,0.019627
6863000,0.0324,0.013523,0.002678,0.000431,0.021390
6864000,0.0324,0.013523,0.002678,0.000431,0.020567
6865000,0.0324,0.013523,0.002678,0.000431,0.021155
6866000,0.0324,0.013523,0.002678,0.000431,0.020215
6867000,0.0324,0.013523,0.002678,0.000431,0.020685
6868000,0.0324,0.013523,0.002678,0.000431,0.018922
6869000,0.0324,0.013523,0.002678,0.000431,0.021743
6870000,0.0324,0.013523,0.002678,0.000431,0.021273
6871000,0.0324,0.013523,0.002678,0.000431,0.020920
6872000,0.0324,0.013523,0.002678,0.000431,0.018922
6873000,0.0324,0.013523,0.002678,0.000431,0.021273
6874000,0.0324,0.013523,0.002678,0.000431,0.021978
6875000,0.0324,0.013523,0.002678,0.000431,0.020097
6876000,0.0324,0.013523,0.002678,0.000431,0.020450
6877000,0.0324,0.013523,0.002678,0.000431,0.021743
6878000,0.0324,0.013523,0.002678,0.000431,0.020215
6879000,0.0324,0.013523,0.002678,0.000431,0.019862
6880000,0.0324,0.013523,0.002678,0.000431,0.021743
6881000,0.0324,0.013523,0.002678,0.000431,0.021743
6882000,0.0324,0.013523,0.002678,0.000431,0.019745
6883000,0.0324,0.013523,0.002678,0.000431,0.021273
6884000,0.0324,0.013523,0.002678,0.000431,0.022918
6885000,0.0324,0.013523,0.002678,0.000431,0.020097
6886000,0.0324,0.013523,0.002678,0.000431,0.019157
6887000,0.0324,0.013523,0.002678,0.000431,0.022213
6888000,0.0324,0.013523,0.002678,0.000431,0.020215
6889000,0.0324,0.013523,0.002678,0.000431,0.021978
6890000,0.0324,0.013523,0.002678,0.000431,0.021625
6891000,0.0324,0.013523,0.002678,0.000431,0.020802
6892000,0.0324,0.013523,0.002678,0.000431,0.019862
6893000,0.0324,0.013523,0.002678,0.000431,0.021038
6894000,0.0324,0.013523,0.002678,0.000431,0.022448
6895000,0.0324,0.013523,0.002678,0.000431,0.021273
6896000,0.0324,0.013523,0.002678,0.000431,0.019980
6897000,0.0324,0.013523,0.002678,0.000431,0.021508
6898000,0.0324,0.013523,0.002678,0.000431,0.021390
6899000,0.0324,0.013523,0.002678,0.000431,0.021155
6900000,0.0324,0.013523,0.002678,0.000431,0.019627
6901000,0.0324,0.013523,0.002678,0.000431,0.020097
6902000,0.0324,0.013523,0.002678,0.000431,0.020097
6903000,0.0324,0.013523,0.002678,0.000431,0.020685
6904000,0.0324,0.013523,0.002678,0.000431,0.020920
6905000,0.0324,0.013523,0.002678,0.000431,0.020215
6906000,0.0324,0.013523,0.002678,0.000431,0.019980
6907000,0.0324,0.013523,0.002678,0.000431,0.020567
6908000,0.0324,0.013523,0.002678,0.000431,0.020450
6909000,0.0324,0.013523,0.002678,0.000431,0.022330
6910000,0.0324,0.013523,0.002678,0.000431,0.020567
6911000,0.0324,0.013523,0.002678,0.000431,0.020567
6912000,0.0324,0.013523,0.002678,0.000431,0.020097
6913000,0.0324,0.013523,0.002678,0.000431,0.020685
6914000,0.0324,0.013523,0.002678,0.000431,0.021978
6915000,0.0324,0.013523,0.002678,0.000431,0.019980
6916000,0.0324,0.013523,0.002678,0.000431,0.020802
6917000,0.0324,0.013523,0.002678,0.000431,0.020332
6918000,0.0324,0.013523,0.002678,0.000431,0.021743
6919000,0.0324,0.013523,0.002678,0.000431,0.020802
6920000,0.0324,0.013523,0.002678,0.000431,0.021390
6921000,0.0324,0.013523,0.002678,0.000431,0.020920
6922000,0.0324,0.013523,0.002678,0.000431,0.020450
6923000,0.0324,0.013523,0.002678,0.000431,0.021390
6924000,0.0324,0.013523,0.002678,0.000431,0.020450
6925000,0.0324,0.013523,0.002678,0.000431,0.020097
6926000,0.0324,0.013523,0.002678,0.000431,0.021508
6927000,0.0324,0.013523,0.002678,0.000431,0.019862
6928000,0.0324,0.013523,0.002678,0.000431,0.021978
6929000,0.0324,0.013523,0.002678,0.000431,0.021508
6930000,0.0324,0.013523,0.002678,0.000431,0.020802
6931000,0.0324,0.013523,0.002678,0.000431,0.021273
6932000,0.0324,0.013523,0.002678,0.000431,0.020215
6933000,0.0324,0.013523,0.002678,0.000431,0.019980
6934000,0.0324,0.013523,0.002678,0.000431,0.021155
6935000,0.0324,0.013523,0.002678,0.000431,0.021155
6936000,0.0324,0.013523,0.002678,0.000431,0.019862
6937000,0.0324,0.013523,0.002678,0.000431,0.021390
6938000,0.0324,0.013523,0.002678,0.000431,0.020450
6939000,0.0324,0.013523,0.002678,0.000431,0.023153
6940000,0.0324,0.013523,0.002678,0.000431,0.020685
6941000,0.0324,0.013523,0.002678,0.000431,0.021390
6942000,0.0324,0.013523,0.002678,0.000431,0.019980
6943000,0.0324,0.013523,0.002678,0.000431,0.021038
6944000,0.0324,0.013523,0.002678,0.000431,0.021038
6945000,0.0324,0.013523,0.002678,0.000431,0.020450
6946000,0.0324,0.013523,0.002678,0.000431,0.019862
6947000,0.0324,0.013523,0.002678,0.000431,0.019627
6948000,0.0324,0.013523,0.002678,0.000431,0.021508
6949000,0.0324,0.013523,0.002678,0.000431,0.020920
6950000,0.0324,0.013523,0.002678,0.000431,0.020802
6951000,0.0324,0.013523,0.002678,0.000431,0.020450
6952000,0.0324,0.013523,0.002678,0.000431,0.019980
6953000,0.0324,0.013523,0.002678,0.000431,0.021155
6954000,0.0324,0.013523,0.002678,0.000431,0.020802
6955000,0.0324,0.013523,0.002678,0.000431,0.019745
6956000,0.0324,0.013523,0.002678,0.000431,0.019862
6957000,0.0324,0.013523,0.002678,0.000431,0.020097
6958000,0.0324,0.013523,0.002678,0.000431,0.019980
6959000,0.0324,0.013523,0.002678,0.000431,0.021860
6960000,0.0324,0.013523,0.002678,0.000431,0.020332
6961000,0.0324,0.013523,0.002678,0.000431,0.020685
6962000,0.0324,0.013523,0.002678,0.000431,0.021390
6963000,0.0324,0.013523,0.002678,0.000431,0.020450
6964000,0.0324,0.013523,0.002678,0.000431,0.020450
6965000,0.0324,0.013523,0.002678,0.000431,0.021743
6966000,0.0324,0.013523,0.002678,0.000431,0.020567
6967000,0.0324,0.013523,0.002678,0.000431,0.020685
6968000,0.0324,0.013523,0.002678,0.000431,0.020332
6969000,0.0324,0.013523,0.002678,0.000431,0.022918
6970000,0.0324,0.013523,0.002678,0.000431,0.020215
6971000,0.0324,0.013523,0.002678,0.000431,0.020802
6972000,0.0324,0.013523,0.002678,0.000431,0.021155
6973000,0.0324,0.013523,0.002678,0.000431,0.020450
6974000,0.0324,0.013523,0.002678,0.000431,0.021625
6975000,0.0324,0.013523,0.002678,0.000431,0.020567
6976000,0.0324,0.013523,0.002678,0.000431,0.021273
6977000,0.0324,0.013523,0.002678,0.000431,0.021273
6978000,0.0324,0.013523,0.002678,0.000431,0.020920
6979000,0.0324,0.013523,0.002678,0.000431,0.022448
6980000,0.0324,0.013523,0.002678,0.000431,0.020802
6981000,0.0324,0.013523,0.002678,0.000431,0.019862
6982000,0.0324,0.013523,0.002678,0.000431,0.022095
6983000,0.0324,0.013523,0.002678,0.000431,0.020332
6984000,0.0324,0.013523,0.002678,0.000431,0.020802
6985000,0.0324,0.013523,0.002678,0.000431,0.021860
6986000,0.0324,0.013523,0.002678,0.000431,0.019627
6987000,0.0324,0.013523,0.002678,0.000431,0.021743
6988000,0.0324,0.013523,0.002678,0.000431,0.019392
6989000,0.0324,0.013523,0.002678,0.000431,0.021978
6990000,0.0324,0.013523,0.002678,0.000431,0.019040
6991000,0.0324,0.013523,0.002678,0.000431,0.022213
6992000,0.0324,0.013523,0.002678,0.000431,0.019745
6993000,0.0324,0.013523,0.002678,0.000431,0.022330
6994000,0.0324,0.013523,0.002678,0.000431,0.020920
6995000,0.0324,0.013523,0.002678,0.000431,0.020802
6996000,0.0324,0.013523,0.002678,0.000431,0.020685
6997000,0.0324,0.013523,0.002678,0.000431,0.021038
6998000,0.0324,0.013523,0.002678,0.000431,0.020567
6999000,0.0324,0.013523,0.002678,0.000431,0.022683
