Cycle,Area(mm^2),PeakDynamic(W),SubthresholdLeakage(W),GateLeakage(W),RunTimeDynamic(W)
16000000,0.0324,0.013523,0.002678,0.000431,0.001763
16001000,0.0324,0.013523,0.002678,0.000431,0.002116
16002000,0.0324,0.013523,0.002678,0.000431,0.001880
16003000,0.0324,0.013523,0.002678,0.000431,0.001880
16004000,0.0324,0.013523,0.002678,0.000431,0.001880
16005000,0.0324,0.013523,0.002678,0.000431,0.001880
16006000,0.0324,0.013523,0.002678,0.000431,0.002116
16007000,0.0324,0.013523,0.002678,0.000431,0.001880
16008000,0.0324,0.013523,0.002678,0.000431,0.001763
16009000,0.0324,0.013523,0.002678,0.000431,0.002233
16010000,0.0324,0.013523,0.002678,0.000431,0.001998
16011000,0.0324,0.013523,0.002678,0.000431,0.001528
16012000,0.0324,0.013523,0.002678,0.000431,0.002233
16013000,0.0324,0.013523,0.002678,0.000431,0.002116
16014000,0.0324,0.013523,0.002678,0.000431,0.001645
16015000,0.0324,0.013523,0.002678,0.000431,0.001763
16016000,0.0324,0.013523,0.002678,0.000431,0.001880
16017000,0.0324,0.013523,0.002678,0.000431,0.001880
16018000,0.0324,0.013523,0.002678,0.000431,0.001880
16019000,0.0324,0.013523,0.002678,0.000431,0.001998
16020000,0.0324,0.013523,0.002678,0.000431,0.002233
16021000,0.0324,0.013523,0.002678,0.000431,0.001763
16022000,0.0324,0.013523,0.002678,0.000431,0.001998
16023000,0.0324,0.013523,0.002678,0.000431,0.001998
16024000,0.0324,0.013523,0.002678,0.000431,0.002233
16025000,0.0324,0.013523,0.002678,0.000431,0.001880
16026000,0.0324,0.013523,0.002678,0.000431,0.001998
16027000,0.0324,0.013523,0.002678,0.000431,0.001998
16028000,0.0324,0.013523,0.002678,0.000431,0.001763
16029000,0.0324,0.013523,0.002678,0.000431,0.002116
16030000,0.0324,0.013523,0.002678,0.000431,0.002116
16031000,0.0324,0.013523,0.002678,0.000431,0.001998
16032000,0.0324,0.013523,0.002678,0.000431,0.001880
16033000,0.0324,0.013523,0.002678,0.000431,0.001998
16034000,0.0324,0.013523,0.002678,0.000431,0.002116
16035000,0.0324,0.013523,0.002678,0.000431,0.001880
16036000,0.0324,0.013523,0.002678,0.000431,0.001880
16037000,0.0324,0.013523,0.002678,0.000431,0.001880
16038000,0.0324,0.013523,0.002678,0.000431,0.001880
16039000,0.0324,0.013523,0.002678,0.000431,0.001528
16040000,0.0324,0.013523,0.002678,0.000431,0.002116
16041000,0.0324,0.013523,0.002678,0.000431,0.002233
16042000,0.0324,0.013523,0.002678,0.000431,0.001528
16043000,0.0324,0.013523,0.002678,0.000431,0.001880
16044000,0.0324,0.013523,0.002678,0.000431,0.001998
16045000,0.0324,0.013523,0.002678,0.000431,0.002233
16046000,0.0324,0.013523,0.002678,0.000431,0.001645
16047000,0.0324,0.013523,0.002678,0.000431,0.001998
16048000,0.0324,0.013523,0.002678,0.000431,0.002116
16049000,0.0324,0.013523,0.002678,0.000431,0.001528
16050000,0.0324,0.013523,0.002678,0.000431,0.001998
16051000,0.0324,0.013523,0.002678,0.000431,0.001998
16052000,0.0324,0.013523,0.002678,0.000431,0.002233
16053000,0.0324,0.013523,0.002678,0.000431,0.001763
16054000,0.0324,0.013523,0.002678,0.000431,0.001998
16055000,0.0324,0.013523,0.002678,0.000431,0.002233
16056000,0.0324,0.013523,0.002678,0.000431,0.001880
16057000,0.0324,0.013523,0.002678,0.000431,0.001880
16058000,0.0324,0.013523,0.002678,0.000431,0.001998
16059000,0.0324,0.013523,0.002678,0.000431,0.001645
16060000,0.0324,0.013523,0.002678,0.000431,0.002116
16061000,0.0324,0.013523,0.002678,0.000431,0.002116
16062000,0.0324,0.013523,0.002678,0.000431,0.001880
16063000,0.0324,0.013523,0.002678,0.000431,0.001998
16064000,0.0324,0.013523,0.002678,0.000431,0.001763
16065000,0.0324,0.013523,0.002678,0.000431,0.001880
16066000,0.0324,0.013523,0.002678,0.000431,0.001998
16067000,0.0324,0.013523,0.002678,0.000431,0.001645
16068000,0.0324,0.013523,0.002678,0.000431,0.001998
16069000,0.0324,0.013523,0.002678,0.000431,0.002116
16070000,0.0324,0.013523,0.002678,0.000431,0.001880
16071000,0.0324,0.013523,0.002678,0.000431,0.001998
16072000,0.0324,0.013523,0.002678,0.000431,0.001763
16073000,0.0324,0.013523,0.002678,0.000431,0.001880
16074000,0.0324,0.013523,0.002678,0.000431,0.001645
16075000,0.0324,0.013523,0.002678,0.000431,0.002116
16076000,0.0324,0.013523,0.002678,0.000431,0.001998
16077000,0.0324,0.013523,0.002678,0.000431,0.001998
16078000,0.0324,0.013523,0.002678,0.000431,0.001763
16079000,0.0324,0.013523,0.002678,0.000431,0.001998
16080000,0.0324,0.013523,0.002678,0.000431,0.001645
16081000,0.0324,0.013523,0.002678,0.000431,0.001763
16082000,0.0324,0.013523,0.002678,0.000431,0.002116
16083000,0.0324,0.013523,0.002678,0.000431,0.001998
16084000,0.0324,0.013523,0.002678,0.000431,0.001763
16085000,0.0324,0.013523,0.002678,0.000431,0.001880
16086000,0.0324,0.013523,0.002678,0.000431,0.002116
16087000,0.0324,0.013523,0.002678,0.000431,0.001645
16088000,0.0324,0.013523,0.002678,0.000431,0.001880
16089000,0.0324,0.013523,0.002678,0.000431,0.001998
16090000,0.0324,0.013523,0.002678,0.000431,0.001880
16091000,0.0324,0.013523,0.002678,0.000431,0.001880
16092000,0.0324,0.013523,0.002678,0.000431,0.001998
16093000,0.0324,0.013523,0.002678,0.000431,0.002116
16094000,0.0324,0.013523,0.002678,0.000431,0.001880
16095000,0.0324,0.013523,0.002678,0.000431,0.001880
16096000,0.0324,0.013523,0.002678,0.000431,0.001998
16097000,0.0324,0.013523,0.002678,0.000431,0.001998
16098000,0.0324,0.013523,0.002678,0.000431,0.001880
16099000,0.0324,0.013523,0.002678,0.000431,0.001998
16100000,0.0324,0.013523,0.002678,0.000431,0.001998
16101000,0.0324,0.013523,0.002678,0.000431,0.001880
16102000,0.0324,0.013523,0.002678,0.000431,0.001763
16103000,0.0324,0.013523,0.002678,0.000431,0.002233
16104000,0.0324,0.013523,0.002678,0.000431,0.001998
16105000,0.0324,0.013523,0.002678,0.000431,0.001645
16106000,0.0324,0.013523,0.002678,0.000431,0.002351
16107000,0.0324,0.013523,0.002678,0.000431,0.002116
16108000,0.0324,0.013523,0.002678,0.000431,0.001645
16109000,0.0324,0.013523,0.002678,0.000431,0.002116
16110000,0.0324,0.013523,0.002678,0.000431,0.002116
16111000,0.0324,0.013523,0.002678,0.000431,0.002116
16112000,0.0324,0.013523,0.002678,0.000431,0.001880
16113000,0.0324,0.013523,0.002678,0.000431,0.001998
16114000,0.0324,0.013523,0.002678,0.000431,0.002116
16115000,0.0324,0.013523,0.002678,0.000431,0.001998
16116000,0.0324,0.013523,0.002678,0.000431,0.001763
16117000,0.0324,0.013523,0.002678,0.000431,0.002116
16118000,0.0324,0.013523,0.002678,0.000431,0.001998
16119000,0.0324,0.013523,0.002678,0.000431,0.001880
16120000,0.0324,0.013523,0.002678,0.000431,0.001880
16121000,0.0324,0.013523,0.002678,0.000431,0.002116
16122000,0.0324,0.013523,0.002678,0.000431,0.001528
16123000,0.0324,0.013523,0.002678,0.000431,0.001645
16124000,0.0324,0.013523,0.002678,0.000431,0.002233
16125000,0.0324,0.013523,0.002678,0.000431,0.001880
16126000,0.0324,0.013523,0.002678,0.000431,0.001763
16127000,0.0324,0.013523,0.002678,0.000431,0.002116
16128000,0.0324,0.013523,0.002678,0.000431,0.002116
16129000,0.0324,0.013523,0.002678,0.000431,0.001880
16130000,0.0324,0.013523,0.002678,0.000431,0.001998
16131000,0.0324,0.013523,0.002678,0.000431,0.001998
16132000,0.0324,0.013523,0.002678,0.000431,0.001880
16133000,0.0324,0.013523,0.002678,0.000431,0.002116
16134000,0.0324,0.013523,0.002678,0.000431,0.001998
16135000,0.0324,0.013523,0.002678,0.000431,0.002116
16136000,0.0324,0.013523,0.002678,0.000431,0.001645
16137000,0.0324,0.013523,0.002678,0.000431,0.001880
16138000,0.0324,0.013523,0.002678,0.000431,0.002116
16139000,0.0324,0.013523,0.002678,0.000431,0.001998
16140000,0.0324,0.013523,0.002678,0.000431,0.001763
16141000,0.0324,0.013523,0.002678,0.000431,0.002233
16142000,0.0324,0.013523,0.002678,0.000431,0.001998
16143000,0.0324,0.013523,0.002678,0.000431,0.001763
16144000,0.0324,0.013523,0.002678,0.000431,0.002116
16145000,0.0324,0.013523,0.002678,0.000431,0.002116
16146000,0.0324,0.013523,0.002678,0.000431,0.001998
16147000,0.0324,0.013523,0.002678,0.000431,0.001763
16148000,0.0324,0.013523,0.002678,0.000431,0.002233
16149000,0.0324,0.013523,0.002678,0.000431,0.001998
16150000,0.0324,0.013523,0.002678,0.000431,0.001763
16151000,0.0324,0.013523,0.002678,0.000431,0.001880
16152000,0.0324,0.013523,0.002678,0.000431,0.002116
16153000,0.0324,0.013523,0.002678,0.000431,0.001763
16154000,0.0324,0.013523,0.002678,0.000431,0.001880
16155000,0.0324,0.013523,0.002678,0.000431,0.001998
16156000,0.0324,0.013523,0.002678,0.000431,0.001998
16157000,0.0324,0.013523,0.002678,0.000431,0.001880
16158000,0.0324,0.013523,0.002678,0.000431,0.001998
16159000,0.0324,0.013523,0.002678,0.000431,0.002233
16160000,0.0324,0.013523,0.002678,0.000431,0.001998
16161000,0.0324,0.013523,0.002678,0.000431,0.001880
16162000,0.0324,0.013523,0.002678,0.000431,0.002351
16163000,0.0324,0.013523,0.002678,0.000431,0.001880
16164000,0.0324,0.013523,0.002678,0.000431,0.001645
16165000,0.0324,0.013523,0.002678,0.000431,0.002233
16166000,0.0324,0.013523,0.002678,0.000431,0.001528
16167000,0.0324,0.013523,0.002678,0.000431,0.002116
16168000,0.0324,0.013523,0.002678,0.000431,0.001645
16169000,0.0324,0.013523,0.002678,0.000431,0.002116
16170000,0.0324,0.013523,0.002678,0.000431,0.001645
16171000,0.0324,0.013523,0.002678,0.000431,0.001880
16172000,0.0324,0.013523,0.002678,0.000431,0.002821
16173000,0.0324,0.013523,0.002678,0.000431,0.001645
16174000,0.0324,0.013523,0.002678,0.000431,0.001645
16175000,0.0324,0.013523,0.002678,0.000431,0.001410
16176000,0.0324,0.013523,0.002678,0.000431,0.001763
16177000,0.0324,0.013523,0.002678,0.000431,0.001410
16178000,0.0324,0.013523,0.002678,0.000431,0.001293
16179000,0.0324,0.013523,0.002678,0.000431,0.001645
16180000,0.0324,0.013523,0.002678,0.000431,0.001645
16181000,0.0324,0.013523,0.002678,0.000431,0.001645
16182000,0.0324,0.013523,0.002678,0.000431,0.001645
16183000,0.0324,0.013523,0.002678,0.000431,0.001645
16184000,0.0324,0.013523,0.002678,0.000431,0.001645
16185000,0.0324,0.013523,0.002678,0.000431,0.001528
16186000,0.0324,0.013523,0.002678,0.000431,0.001645
16187000,0.0324,0.013523,0.002678,0.000431,0.001528
16188000,0.0324,0.013523,0.002678,0.000431,0.001880
16189000,0.0324,0.013523,0.002678,0.000431,0.001410
16190000,0.0324,0.013523,0.002678,0.000431,0.001528
16191000,0.0324,0.013523,0.002678,0.000431,0.001645
16192000,0.0324,0.013523,0.002678,0.000431,0.001763
16193000,0.0324,0.013523,0.002678,0.000431,0.001645
16194000,0.0324,0.013523,0.002678,0.000431,0.001410
16195000,0.0324,0.013523,0.002678,0.000431,0.001528
16196000,0.0324,0.013523,0.002678,0.000431,0.001410
16197000,0.0324,0.013523,0.002678,0.000431,0.001528
16198000,0.0324,0.013523,0.002678,0.000431,0.001410
16199000,0.0324,0.013523,0.002678,0.000431,0.001763
16200000,0.0324,0.013523,0.002678,0.000431,0.001645
16201000,0.0324,0.013523,0.002678,0.000431,0.001410
16202000,0.0324,0.013523,0.002678,0.000431,0.001410
16203000,0.0324,0.013523,0.002678,0.000431,0.001645
16204000,0.0324,0.013523,0.002678,0.000431,0.001645
16205000,0.0324,0.013523,0.002678,0.000431,0.001763
16206000,0.0324,0.013523,0.002678,0.000431,0.001528
16207000,0.0324,0.013523,0.002678,0.000431,0.001880
16208000,0.0324,0.013523,0.002678,0.000431,0.001410
16209000,0.0324,0.013523,0.002678,0.000431,0.001763
16210000,0.0324,0.013523,0.002678,0.000431,0.001645
16211000,0.0324,0.013523,0.002678,0.000431,0.001645
16212000,0.0324,0.013523,0.002678,0.000431,0.001645
16213000,0.0324,0.013523,0.002678,0.000431,0.001645
16214000,0.0324,0.013523,0.002678,0.000431,0.001528
16215000,0.0324,0.013523,0.002678,0.000431,0.001528
16216000,0.0324,0.013523,0.002678,0.000431,0.001763
16217000,0.0324,0.013523,0.002678,0.000431,0.001645
16218000,0.0324,0.013523,0.002678,0.000431,0.001528
16219000,0.0324,0.013523,0.002678,0.000431,0.001645
16220000,0.0324,0.013523,0.002678,0.000431,0.001410
16221000,0.0324,0.013523,0.002678,0.000431,0.001645
16222000,0.0324,0.013523,0.002678,0.000431,0.001763
16223000,0.0324,0.013523,0.002678,0.000431,0.001528
16224000,0.0324,0.013523,0.002678,0.000431,0.001880
16225000,0.0324,0.013523,0.002678,0.000431,0.001645
16226000,0.0324,0.013523,0.002678,0.000431,0.001528
16227000,0.0324,0.013523,0.002678,0.000431,0.001880
16228000,0.0324,0.013523,0.002678,0.000431,0.001410
16229000,0.0324,0.013523,0.002678,0.000431,0.001528
16230000,0.0324,0.013523,0.002678,0.000431,0.001880
16231000,0.0324,0.013523,0.002678,0.000431,0.001528
16232000,0.0324,0.013523,0.002678,0.000431,0.001528
16233000,0.0324,0.013523,0.002678,0.000431,0.001645
16234000,0.0324,0.013523,0.002678,0.000431,0.001645
16235000,0.0324,0.013523,0.002678,0.000431,0.001645
16236000,0.0324,0.013523,0.002678,0.000431,0.001645
16237000,0.0324,0.013523,0.002678,0.000431,0.001645
16238000,0.0324,0.013523,0.002678,0.000431,0.001645
16239000,0.0324,0.013523,0.002678,0.000431,0.001528
16240000,0.0324,0.013523,0.002678,0.000431,0.001410
16241000,0.0324,0.013523,0.002678,0.000431,0.001528
16242000,0.0324,0.013523,0.002678,0.000431,0.001528
16243000,0.0324,0.013523,0.002678,0.000431,0.001763
16244000,0.0324,0.013523,0.002678,0.000431,0.001645
16245000,0.0324,0.013523,0.002678,0.000431,0.001528
16246000,0.0324,0.013523,0.002678,0.000431,0.001528
16247000,0.0324,0.013523,0.002678,0.000431,0.001645
16248000,0.0324,0.013523,0.002678,0.000431,0.001763
16249000,0.0324,0.013523,0.002678,0.000431,0.001410
16250000,0.0324,0.013523,0.002678,0.000431,0.001763
16251000,0.0324,0.013523,0.002678,0.000431,0.001645
16252000,0.0324,0.013523,0.002678,0.000431,0.001528
16253000,0.0324,0.013523,0.002678,0.000431,0.001763
16254000,0.0324,0.013523,0.002678,0.000431,0.001528
16255000,0.0324,0.013523,0.002678,0.000431,0.001410
16256000,0.0324,0.013523,0.002678,0.000431,0.001763
16257000,0.0324,0.013523,0.002678,0.000431,0.001410
16258000,0.0324,0.013523,0.002678,0.000431,0.001528
16259000,0.0324,0.013523,0.002678,0.000431,0.001763
16260000,0.0324,0.013523,0.002678,0.000431,0.001410
16261000,0.0324,0.013523,0.002678,0.000431,0.001293
16262000,0.0324,0.013523,0.002678,0.000431,0.001528
16263000,0.0324,0.013523,0.002678,0.000431,0.001763
16264000,0.0324,0.013523,0.002678,0.000431,0.001528
16265000,0.0324,0.013523,0.002678,0.000431,0.001763
16266000,0.0324,0.013523,0.002678,0.000431,0.001645
16267000,0.0324,0.013523,0.002678,0.000431,0.001528
16268000,0.0324,0.013523,0.002678,0.000431,0.001763
16269000,0.0324,0.013523,0.002678,0.000431,0.001410
16270000,0.0324,0.013523,0.002678,0.000431,0.001528
16271000,0.0324,0.013523,0.002678,0.000431,0.001528
16272000,0.0324,0.013523,0.002678,0.000431,0.001645
16273000,0.0324,0.013523,0.002678,0.000431,0.001763
16274000,0.0324,0.013523,0.002678,0.000431,0.001645
16275000,0.0324,0.013523,0.002678,0.000431,0.001880
16276000,0.0324,0.013523,0.002678,0.000431,0.001528
16277000,0.0324,0.013523,0.002678,0.000431,0.001528
16278000,0.0324,0.013523,0.002678,0.000431,0.001528
16279000,0.0324,0.013523,0.002678,0.000431,0.001293
16280000,0.0324,0.013523,0.002678,0.000431,0.001528
16281000,0.0324,0.013523,0.002678,0.000431,0.001763
16282000,0.0324,0.013523,0.002678,0.000431,0.001763
16283000,0.0324,0.013523,0.002678,0.000431,0.001528
16284000,0.0324,0.013523,0.002678,0.000431,0.001410
16285000,0.0324,0.013523,0.002678,0.000431,0.001645
16286000,0.0324,0.013523,0.002678,0.000431,0.001763
16287000,0.0324,0.013523,0.002678,0.000431,0.001528
16288000,0.0324,0.013523,0.002678,0.000431,0.001410
16289000,0.0324,0.013523,0.002678,0.000431,0.001645
16290000,0.0324,0.013523,0.002678,0.000431,0.001528
16291000,0.0324,0.013523,0.002678,0.000431,0.001763
16292000,0.0324,0.013523,0.002678,0.000431,0.001293
16293000,0.0324,0.013523,0.002678,0.000431,0.001763
16294000,0.0324,0.013523,0.002678,0.000431,0.001528
16295000,0.0324,0.013523,0.002678,0.000431,0.001528
16296000,0.0324,0.013523,0.002678,0.000431,0.001645
16297000,0.0324,0.013523,0.002678,0.000431,0.001763
16298000,0.0324,0.013523,0.002678,0.000431,0.001528
16299000,0.0324,0.013523,0.002678,0.000431,0.001645
16300000,0.0324,0.013523,0.002678,0.000431,0.001645
16301000,0.0324,0.013523,0.002678,0.000431,0.001410
16302000,0.0324,0.013523,0.002678,0.000431,0.001763
16303000,0.0324,0.013523,0.002678,0.000431,0.001763
16304000,0.0324,0.013523,0.002678,0.000431,0.001410
16305000,0.0324,0.013523,0.002678,0.000431,0.001763
16306000,0.0324,0.013523,0.002678,0.000431,0.001763
16307000,0.0324,0.013523,0.002678,0.000431,0.001410
16308000,0.0324,0.013523,0.002678,0.000431,0.001763
16309000,0.0324,0.013523,0.002678,0.000431,0.001645
16310000,0.0324,0.013523,0.002678,0.000431,0.001410
16311000,0.0324,0.013523,0.002678,0.000431,0.001645
16312000,0.0324,0.013523,0.002678,0.000431,0.001293
16313000,0.0324,0.013523,0.002678,0.000431,0.001528
16314000,0.0324,0.013523,0.002678,0.000431,0.001293
16315000,0.0324,0.013523,0.002678,0.000431,0.001880
16316000,0.0324,0.013523,0.002678,0.000431,0.001528
16317000,0.0324,0.013523,0.002678,0.000431,0.001528
16318000,0.0324,0.013523,0.002678,0.000431,0.001880
16319000,0.0324,0.013523,0.002678,0.000431,0.001410
16320000,0.0324,0.013523,0.002678,0.000431,0.001528
16321000,0.0324,0.013523,0.002678,0.000431,0.001293
16322000,0.0324,0.013523,0.002678,0.000431,0.001763
16323000,0.0324,0.013523,0.002678,0.000431,0.001410
16324000,0.0324,0.013523,0.002678,0.000431,0.001645
16325000,0.0324,0.013523,0.002678,0.000431,0.001763
16326000,0.0324,0.013523,0.002678,0.000431,0.001528
16327000,0.0324,0.013523,0.002678,0.000431,0.001528
16328000,0.0324,0.013523,0.002678,0.000431,0.001645
16329000,0.0324,0.013523,0.002678,0.000431,0.001175
16330000,0.0324,0.013523,0.002678,0.000431,0.001645
16331000,0.0324,0.013523,0.002678,0.000431,0.001528
16332000,0.0324,0.013523,0.002678,0.000431,0.001763
16333000,0.0324,0.013523,0.002678,0.000431,0.001410
16334000,0.0324,0.013523,0.002678,0.000431,0.001645
16335000,0.0324,0.013523,0.002678,0.000431,0.001645
16336000,0.0324,0.013523,0.002678,0.000431,0.001293
16337000,0.0324,0.013523,0.002678,0.000431,0.001410
16338000,0.0324,0.013523,0.002678,0.000431,0.001175
16339000,0.0324,0.013523,0.002678,0.000431,0.001528
16340000,0.0324,0.013523,0.002678,0.000431,0.001528
16341000,0.0324,0.013523,0.002678,0.000431,0.001763
16342000,0.0324,0.013523,0.002678,0.000431,0.001763
16343000,0.0324,0.013523,0.002678,0.000431,0.001763
16344000,0.0324,0.013523,0.002678,0.000431,0.001410
16345000,0.0324,0.013523,0.002678,0.000431,0.001763
16346000,0.0324,0.013523,0.002678,0.000431,0.001528
16347000,0.0324,0.013523,0.002678,0.000431,0.001410
16348000,0.0324,0.013523,0.002678,0.000431,0.001645
16349000,0.0324,0.013523,0.002678,0.000431,0.001645
16350000,0.0324,0.013523,0.002678,0.000431,0.001410
16351000,0.0324,0.013523,0.002678,0.000431,0.001645
16352000,0.0324,0.013523,0.002678,0.000431,0.001528
16353000,0.0324,0.013523,0.002678,0.000431,0.001645
16354000,0.0324,0.013523,0.002678,0.000431,0.001763
16355000,0.0324,0.013523,0.002678,0.000431,0.001293
16356000,0.0324,0.013523,0.002678,0.000431,0.001645
16357000,0.0324,0.013523,0.002678,0.000431,0.001410
16358000,0.0324,0.013523,0.002678,0.000431,0.001528
16359000,0.0324,0.013523,0.002678,0.000431,0.001645
16360000,0.0324,0.013523,0.002678,0.000431,0.001645
16361000,0.0324,0.013523,0.002678,0.000431,0.001763
16362000,0.0324,0.013523,0.002678,0.000431,0.001763
16363000,0.0324,0.013523,0.002678,0.000431,0.001410
16364000,0.0324,0.013523,0.002678,0.000431,0.001645
16365000,0.0324,0.013523,0.002678,0.000431,0.001763
16366000,0.0324,0.013523,0.002678,0.000431,0.001410
16367000,0.0324,0.013523,0.002678,0.000431,0.001645
16368000,0.0324,0.013523,0.002678,0.000431,0.001528
16369000,0.0324,0.013523,0.002678,0.000431,0.001645
16370000,0.0324,0.013523,0.002678,0.000431,0.001293
16371000,0.0324,0.013523,0.002678,0.000431,0.001410
16372000,0.0324,0.013523,0.002678,0.000431,0.001880
16373000,0.0324,0.013523,0.002678,0.000431,0.001410
16374000,0.0324,0.013523,0.002678,0.000431,0.001528
16375000,0.0324,0.013523,0.002678,0.000431,0.001880
16376000,0.0324,0.013523,0.002678,0.000431,0.001410
16377000,0.0324,0.013523,0.002678,0.000431,0.001763
16378000,0.0324,0.013523,0.002678,0.000431,0.001763
16379000,0.0324,0.013523,0.002678,0.000431,0.001410
16380000,0.0324,0.013523,0.002678,0.000431,0.001410
16381000,0.0324,0.013523,0.002678,0.000431,0.001528
16382000,0.0324,0.013523,0.002678,0.000431,0.001293
16383000,0.0324,0.013523,0.002678,0.000431,0.001645
16384000,0.0324,0.013523,0.002678,0.000431,0.001528
16385000,0.0324,0.013523,0.002678,0.000431,0.001763
16386000,0.0324,0.013523,0.002678,0.000431,0.001645
16387000,0.0324,0.013523,0.002678,0.000431,0.001763
16388000,0.0324,0.013523,0.002678,0.000431,0.001410
16389000,0.0324,0.013523,0.002678,0.000431,0.001528
16390000,0.0324,0.013523,0.002678,0.000431,0.001763
16391000,0.0324,0.013523,0.002678,0.000431,0.001528
16392000,0.0324,0.013523,0.002678,0.000431,0.001763
16393000,0.0324,0.013523,0.002678,0.000431,0.001645
16394000,0.0324,0.013523,0.002678,0.000431,0.001645
16395000,0.0324,0.013523,0.002678,0.000431,0.001528
16396000,0.0324,0.013523,0.002678,0.000431,0.001293
16397000,0.0324,0.013523,0.002678,0.000431,0.001645
16398000,0.0324,0.013523,0.002678,0.000431,0.001880
16399000,0.0324,0.013523,0.002678,0.000431,0.001410
16400000,0.0324,0.013523,0.002678,0.000431,0.001528
16401000,0.0324,0.013523,0.002678,0.000431,0.001645
16402000,0.0324,0.013523,0.002678,0.000431,0.001880
16403000,0.0324,0.013523,0.002678,0.000431,0.001410
16404000,0.0324,0.013523,0.002678,0.000431,0.001410
16405000,0.0324,0.013523,0.002678,0.000431,0.001645
16406000,0.0324,0.013523,0.002678,0.000431,0.001645
16407000,0.0324,0.013523,0.002678,0.000431,0.001763
16408000,0.0324,0.013523,0.002678,0.000431,0.001528
16409000,0.0324,0.013523,0.002678,0.000431,0.001763
16410000,0.0324,0.013523,0.002678,0.000431,0.001528
16411000,0.0324,0.013523,0.002678,0.000431,0.001763
16412000,0.0324,0.013523,0.002678,0.000431,0.001645
16413000,0.0324,0.013523,0.002678,0.000431,0.001410
16414000,0.0324,0.013523,0.002678,0.000431,0.001763
16415000,0.0324,0.013523,0.002678,0.000431,0.001763
16416000,0.0324,0.013523,0.002678,0.000431,0.001528
16417000,0.0324,0.013523,0.002678,0.000431,0.001528
16418000,0.0324,0.013523,0.002678,0.000431,0.001645
16419000,0.0324,0.013523,0.002678,0.000431,0.001410
16420000,0.0324,0.013523,0.002678,0.000431,0.001998
16421000,0.0324,0.013523,0.002678,0.000431,0.000823
16422000,0.0324,0.013523,0.002678,0.000431,0.000940
16423000,0.0324,0.013523,0.002678,0.000431,0.000823
16424000,0.0324,0.013523,0.002678,0.000431,0.000940
16425000,0.0324,0.013523,0.002678,0.000431,0.000823
16426000,0.0324,0.013523,0.002678,0.000431,0.000823
16427000,0.0324,0.013523,0.002678,0.000431,0.000823
16428000,0.0324,0.013523,0.002678,0.000431,0.000823
16429000,0.0324,0.013523,0.002678,0.000431,0.000588
16430000,0.0324,0.013523,0.002678,0.000431,0.000940
16431000,0.0324,0.013523,0.002678,0.000431,0.000705
16432000,0.0324,0.013523,0.002678,0.000431,0.000705
16433000,0.0324,0.013523,0.002678,0.000431,0.000940
16434000,0.0324,0.013523,0.002678,0.000431,0.000705
16435000,0.0324,0.013523,0.002678,0.000431,0.000940
16436000,0.0324,0.013523,0.002678,0.000431,0.000823
16437000,0.0324,0.013523,0.002678,0.000431,0.000823
16438000,0.0324,0.013523,0.002678,0.000431,0.000940
16439000,0.0324,0.013523,0.002678,0.000431,0.000705
16440000,0.0324,0.013523,0.002678,0.000431,0.000940
16441000,0.0324,0.013523,0.002678,0.000431,0.000940
16442000,0.0324,0.013523,0.002678,0.000431,0.000705
16443000,0.0324,0.013523,0.002678,0.000431,0.000940
16444000,0.0324,0.013523,0.002678,0.000431,0.000823
16445000,0.0324,0.013523,0.002678,0.000431,0.000940
16446000,0.0324,0.013523,0.002678,0.000431,0.000823
16447000,0.0324,0.013523,0.002678,0.000431,0.000705
16448000,0.0324,0.013523,0.002678,0.000431,0.000823
16449000,0.0324,0.013523,0.002678,0.000431,0.000823
16450000,0.0324,0.013523,0.002678,0.000431,0.000823
16451000,0.0324,0.013523,0.002678,0.000431,0.000823
16452000,0.0324,0.013523,0.002678,0.000431,0.000940
16453000,0.0324,0.013523,0.002678,0.000431,0.000705
16454000,0.0324,0.013523,0.002678,0.000431,0.000940
16455000,0.0324,0.013523,0.002678,0.000431,0.000940
16456000,0.0324,0.013523,0.002678,0.000431,0.000823
16457000,0.0324,0.013523,0.002678,0.000431,0.000823
16458000,0.0324,0.013523,0.002678,0.000431,0.000940
16459000,0.0324,0.013523,0.002678,0.000431,0.000705
16460000,0.0324,0.013523,0.002678,0.000431,0.000940
16461000,0.0324,0.013523,0.002678,0.000431,0.000940
16462000,0.0324,0.013523,0.002678,0.000431,0.000705
16463000,0.0324,0.013523,0.002678,0.000431,0.000940
16464000,0.0324,0.013523,0.002678,0.000431,0.000940
16465000,0.0324,0.013523,0.002678,0.000431,0.000705
16466000,0.0324,0.013523,0.002678,0.000431,0.000823
16467000,0.0324,0.013523,0.002678,0.000431,0.000940
16468000,0.0324,0.013523,0.002678,0.000431,0.000823
16469000,0.0324,0.013523,0.002678,0.000431,0.000823
16470000,0.0324,0.013523,0.002678,0.000431,0.000705
16471000,0.0324,0.013523,0.002678,0.000431,0.000823
16472000,0.0324,0.013523,0.002678,0.000431,0.000823
16473000,0.0324,0.013523,0.002678,0.000431,0.000940
16474000,0.0324,0.013523,0.002678,0.000431,0.000705
16475000,0.0324,0.013523,0.002678,0.000431,0.000705
16476000,0.0324,0.013523,0.002678,0.000431,0.000940
16477000,0.0324,0.013523,0.002678,0.000431,0.000823
16478000,0.0324,0.013523,0.002678,0.000431,0.000823
16479000,0.0324,0.013523,0.002678,0.000431,0.000940
16480000,0.0324,0.013523,0.002678,0.000431,0.000705
16481000,0.0324,0.013523,0.002678,0.000431,0.000823
16482000,0.0324,0.013523,0.002678,0.000431,0.000823
16483000,0.0324,0.013523,0.002678,0.000431,0.000823
16484000,0.0324,0.013523,0.002678,0.000431,0.000940
16485000,0.0324,0.013523,0.002678,0.000431,0.000705
16486000,0.0324,0.013523,0.002678,0.000431,0.000705
16487000,0.0324,0.013523,0.002678,0.000431,0.000823
16488000,0.0324,0.013523,0.002678,0.000431,0.000940
16489000,0.0324,0.013523,0.002678,0.000431,0.000588
16490000,0.0324,0.013523,0.002678,0.000431,0.000940
16491000,0.0324,0.013523,0.002678,0.000431,0.000940
16492000,0.0324,0.013523,0.002678,0.000431,0.000705
16493000,0.0324,0.013523,0.002678,0.000431,0.000940
16494000,0.0324,0.013523,0.002678,0.000431,0.000940
16495000,0.0324,0.013523,0.002678,0.000431,0.000705
16496000,0.0324,0.013523,0.002678,0.000431,0.000940
16497000,0.0324,0.013523,0.002678,0.000431,0.000705
16498000,0.0324,0.013523,0.002678,0.000431,0.000705
16499000,0.0324,0.013523,0.002678,0.000431,0.000940
16500000,0.0324,0.013523,0.002678,0.000431,0.000705
16501000,0.0324,0.013523,0.002678,0.000431,0.001058
16502000,0.0324,0.013523,0.002678,0.000431,0.000823
16503000,0.0324,0.013523,0.002678,0.000431,0.000705
16504000,0.0324,0.013523,0.002678,0.000431,0.000940
16505000,0.0324,0.013523,0.002678,0.000431,0.000823
16506000,0.0324,0.013523,0.002678,0.000431,0.001058
16507000,0.0324,0.013523,0.002678,0.000431,0.000823
16508000,0.0324,0.013523,0.002678,0.000431,0.000823
16509000,0.0324,0.013523,0.002678,0.000431,0.000940
16510000,0.0324,0.013523,0.002678,0.000431,0.000705
16511000,0.0324,0.013523,0.002678,0.000431,0.000705
16512000,0.0324,0.013523,0.002678,0.000431,0.000823
16513000,0.0324,0.013523,0.002678,0.000431,0.000823
16514000,0.0324,0.013523,0.002678,0.000431,0.000705
16515000,0.0324,0.013523,0.002678,0.000431,0.000940
16516000,0.0324,0.013523,0.002678,0.000431,0.000705
16517000,0.0324,0.013523,0.002678,0.000431,0.000705
16518000,0.0324,0.013523,0.002678,0.000431,0.000940
16519000,0.0324,0.013523,0.002678,0.000431,0.000705
16520000,0.0324,0.013523,0.002678,0.000431,0.000823
16521000,0.0324,0.013523,0.002678,0.000431,0.000823
16522000,0.0324,0.013523,0.002678,0.000431,0.000940
16523000,0.0324,0.013523,0.002678,0.000431,0.000823
16524000,0.0324,0.013523,0.002678,0.000431,0.000940
16525000,0.0324,0.013523,0.002678,0.000431,0.000940
16526000,0.0324,0.013523,0.002678,0.000431,0.000823
16527000,0.0324,0.013523,0.002678,0.000431,0.000588
16528000,0.0324,0.013523,0.002678,0.000431,0.000940
16529000,0.0324,0.013523,0.002678,0.000431,0.000823
16530000,0.0324,0.013523,0.002678,0.000431,0.000940
16531000,0.0324,0.013523,0.002678,0.000431,0.000823
16532000,0.0324,0.013523,0.002678,0.000431,0.000823
16533000,0.0324,0.013523,0.002678,0.000431,0.000940
16534000,0.0324,0.013523,0.002678,0.000431,0.000823
16535000,0.0324,0.013523,0.002678,0.000431,0.000823
16536000,0.0324,0.013523,0.002678,0.000431,0.000705
16537000,0.0324,0.013523,0.002678,0.000431,0.000705
16538000,0.0324,0.013523,0.002678,0.000431,0.000940
16539000,0.0324,0.013523,0.002678,0.000431,0.000823
16540000,0.0324,0.013523,0.002678,0.000431,0.000823
16541000,0.0324,0.013523,0.002678,0.000431,0.000823
16542000,0.0324,0.013523,0.002678,0.000431,0.000940
16543000,0.0324,0.013523,0.002678,0.000431,0.000588
16544000,0.0324,0.013523,0.002678,0.000431,0.000705
16545000,0.0324,0.013523,0.002678,0.000431,0.000940
16546000,0.0324,0.013523,0.002678,0.000431,0.000823
16547000,0.0324,0.013523,0.002678,0.000431,0.000940
16548000,0.0324,0.013523,0.002678,0.000431,0.000940
16549000,0.0324,0.013523,0.002678,0.000431,0.000823
16550000,0.0324,0.013523,0.002678,0.000431,0.000940
16551000,0.0324,0.013523,0.002678,0.000431,0.000823
16552000,0.0324,0.013523,0.002678,0.000431,0.000823
16553000,0.0324,0.013523,0.002678,0.000431,0.000705
16554000,0.0324,0.013523,0.002678,0.000431,0.000823
16555000,0.0324,0.013523,0.002678,0.000431,0.000823
16556000,0.0324,0.013523,0.002678,0.000431,0.000940
16557000,0.0324,0.013523,0.002678,0.000431,0.000705
16558000,0.0324,0.013523,0.002678,0.000431,0.000940
16559000,0.0324,0.013523,0.002678,0.000431,0.000940
16560000,0.0324,0.013523,0.002678,0.000431,0.000705
16561000,0.0324,0.013523,0.002678,0.000431,0.000940
16562000,0.0324,0.013523,0.002678,0.000431,0.000940
16563000,0.0324,0.013523,0.002678,0.000431,0.000705
16564000,0.0324,0.013523,0.002678,0.000431,0.000940
16565000,0.0324,0.013523,0.002678,0.000431,0.000823
16566000,0.0324,0.013523,0.002678,0.000431,0.000823
16567000,0.0324,0.013523,0.002678,0.000431,0.000705
16568000,0.0324,0.013523,0.002678,0.000431,0.000940
16569000,0.0324,0.013523,0.002678,0.000431,0.000823
16570000,0.0324,0.013523,0.002678,0.000431,0.001058
16571000,0.0324,0.013523,0.002678,0.000431,0.000823
16572000,0.0324,0.013523,0.002678,0.000431,0.000588
16573000,0.0324,0.013523,0.002678,0.000431,0.001058
16574000,0.0324,0.013523,0.002678,0.000431,0.000940
16575000,0.0324,0.013523,0.002678,0.000431,0.000588
16576000,0.0324,0.013523,0.002678,0.000431,0.000940
16577000,0.0324,0.013523,0.002678,0.000431,0.000940
16578000,0.0324,0.013523,0.002678,0.000431,0.000705
16579000,0.0324,0.013523,0.002678,0.000431,0.000940
16580000,0.0324,0.013523,0.002678,0.000431,0.000940
16581000,0.0324,0.013523,0.002678,0.000431,0.000823
16582000,0.0324,0.013523,0.002678,0.000431,0.000823
16583000,0.0324,0.013523,0.002678,0.000431,0.000940
16584000,0.0324,0.013523,0.002678,0.000431,0.000705
16585000,0.0324,0.013523,0.002678,0.000431,0.000940
16586000,0.0324,0.013523,0.002678,0.000431,0.000823
16587000,0.0324,0.013523,0.002678,0.000431,0.000823
16588000,0.0324,0.013523,0.002678,0.000431,0.000823
16589000,0.0324,0.013523,0.002678,0.000431,0.000588
16590000,0.0324,0.013523,0.002678,0.000431,0.000940
16591000,0.0324,0.013523,0.002678,0.000431,0.000823
16592000,0.0324,0.013523,0.002678,0.000431,0.000940
16593000,0.0324,0.013523,0.002678,0.000431,0.000823
16594000,0.0324,0.013523,0.002678,0.000431,0.000940
16595000,0.0324,0.013523,0.002678,0.000431,0.000705
16596000,0.0324,0.013523,0.002678,0.000431,0.000705
16597000,0.0324,0.013523,0.002678,0.000431,0.000940
16598000,0.0324,0.013523,0.002678,0.000431,0.000705
16599000,0.0324,0.013523,0.002678,0.000431,0.000470
16600000,0.0324,0.013523,0.002678,0.000431,0.000940
16601000,0.0324,0.013523,0.002678,0.000431,0.000588
16602000,0.0324,0.013523,0.002678,0.000431,0.000823
16603000,0.0324,0.013523,0.002678,0.000431,0.000940
16604000,0.0324,0.013523,0.002678,0.000431,0.000940
16605000,0.0324,0.013523,0.002678,0.000431,0.000705
16606000,0.0324,0.013523,0.002678,0.000431,0.000940
16607000,0.0324,0.013523,0.002678,0.000431,0.000823
16608000,0.0324,0.013523,0.002678,0.000431,0.000823
16609000,0.0324,0.013523,0.002678,0.000431,0.000940
16610000,0.0324,0.013523,0.002678,0.000431,0.000705
16611000,0.0324,0.013523,0.002678,0.000431,0.001058
16612000,0.0324,0.013523,0.002678,0.000431,0.000823
16613000,0.0324,0.013523,0.002678,0.000431,0.000705
16614000,0.0324,0.013523,0.002678,0.000431,0.000940
16615000,0.0324,0.013523,0.002678,0.000431,0.000823
16616000,0.0324,0.013523,0.002678,0.000431,0.000588
16617000,0.0324,0.013523,0.002678,0.000431,0.000940
16618000,0.0324,0.013523,0.002678,0.000431,0.000823
16619000,0.0324,0.013523,0.002678,0.000431,0.000940
16620000,0.0324,0.013523,0.002678,0.000431,0.000940
16621000,0.0324,0.013523,0.002678,0.000431,0.000823
16622000,0.0324,0.013523,0.002678,0.000431,0.000823
16623000,0.0324,0.013523,0.002678,0.000431,0.000940
16624000,0.0324,0.013523,0.002678,0.000431,0.000823
16625000,0.0324,0.013523,0.002678,0.000431,0.000470
16626000,0.0324,0.013523,0.002678,0.000431,0.000940
16627000,0.0324,0.013523,0.002678,0.000431,0.000940
16628000,0.0324,0.013523,0.002678,0.000431,0.000823
16629000,0.0324,0.013523,0.002678,0.000431,0.000705
16630000,0.0324,0.013523,0.002678,0.000431,0.000705
16631000,0.0324,0.013523,0.002678,0.000431,0.000823
16632000,0.0324,0.013523,0.002678,0.000431,0.000940
16633000,0.0324,0.013523,0.002678,0.000431,0.000705
16634000,0.0324,0.013523,0.002678,0.000431,0.000940
16635000,0.0324,0.013523,0.002678,0.000431,0.000940
16636000,0.0324,0.013523,0.002678,0.000431,0.000823
16637000,0.0324,0.013523,0.002678,0.000431,0.000823
16638000,0.0324,0.013523,0.002678,0.000431,0.000823
16639000,0.0324,0.013523,0.002678,0.000431,0.000823
16640000,0.0324,0.013523,0.002678,0.000431,0.000940
16641000,0.0324,0.013523,0.002678,0.000431,0.000823
16642000,0.0324,0.013523,0.002678,0.000431,0.000823
16643000,0.0324,0.013523,0.002678,0.000431,0.000940
16644000,0.0324,0.013523,0.002678,0.000431,0.000705
16645000,0.0324,0.013523,0.002678,0.000431,0.001058
16646000,0.0324,0.013523,0.002678,0.000431,0.000940
16647000,0.0324,0.013523,0.002678,0.000431,0.000588
16648000,0.0324,0.013523,0.002678,0.000431,0.000940
16649000,0.0324,0.013523,0.002678,0.000431,0.000823
16650000,0.0324,0.013523,0.002678,0.000431,0.001058
16651000,0.0324,0.013523,0.002678,0.000431,0.000823
16652000,0.0324,0.013523,0.002678,0.000431,0.000823
16653000,0.0324,0.013523,0.002678,0.000431,0.000823
16654000,0.0324,0.013523,0.002678,0.000431,0.000823
16655000,0.0324,0.013523,0.002678,0.000431,0.000823
16656000,0.0324,0.013523,0.002678,0.000431,0.000823
16657000,0.0324,0.013523,0.002678,0.000431,0.000705
16658000,0.0324,0.013523,0.002678,0.000431,0.000705
16659000,0.0324,0.013523,0.002678,0.000431,0.000705
16660000,0.0324,0.013523,0.002678,0.000431,0.000705
16661000,0.0324,0.013523,0.002678,0.000431,0.000823
16662000,0.0324,0.013523,0.002678,0.000431,0.000705
16663000,0.0324,0.013523,0.002678,0.000431,0.000823
16664000,0.0324,0.013523,0.002678,0.000431,0.000705
16665000,0.0324,0.013523,0.002678,0.000431,0.000940
16666000,0.0324,0.013523,0.002678,0.000431,0.000940
16667000,0.0324,0.013523,0.002678,0.000431,0.000705
16668000,0.0324,0.013523,0.002678,0.000431,0.000940
16669000,0.0324,0.013523,0.002678,0.000431,0.000823
16670000,0.0324,0.013523,0.002678,0.000431,0.000823
16671000,0.0324,0.013523,0.002678,0.000431,0.000823
16672000,0.0324,0.013523,0.002678,0.000431,0.000705
16673000,0.0324,0.013523,0.002678,0.000431,0.000588
16674000,0.0324,0.013523,0.002678,0.000431,0.000940
16675000,0.0324,0.013523,0.002678,0.000431,0.000940
16676000,0.0324,0.013523,0.002678,0.000431,0.000940
16677000,0.0324,0.013523,0.002678,0.000431,0.000823
16678000,0.0324,0.013523,0.002678,0.000431,0.000940
16679000,0.0324,0.013523,0.002678,0.000431,0.000705
16680000,0.0324,0.013523,0.002678,0.000431,0.000823
16681000,0.0324,0.013523,0.002678,0.000431,0.000940
16682000,0.0324,0.013523,0.002678,0.000431,0.000588
16683000,0.0324,0.013523,0.002678,0.000431,0.000823
16684000,0.0324,0.013523,0.002678,0.000431,0.000823
16685000,0.0324,0.013523,0.002678,0.000431,0.000588
16686000,0.0324,0.013523,0.002678,0.000431,0.001058
16687000,0.0324,0.013523,0.002678,0.000431,0.000940
16688000,0.0324,0.013523,0.002678,0.000431,0.000823
16689000,0.0324,0.013523,0.002678,0.000431,0.000705
16690000,0.0324,0.013523,0.002678,0.000431,0.000940
16691000,0.0324,0.013523,0.002678,0.000431,0.000940
16692000,0.0324,0.013523,0.002678,0.000431,0.000823
16693000,0.0324,0.013523,0.002678,0.000431,0.000940
16694000,0.0324,0.013523,0.002678,0.000431,0.000823
16695000,0.0324,0.013523,0.002678,0.000431,0.000823
16696000,0.0324,0.013523,0.002678,0.000431,0.000823
16697000,0.0324,0.013523,0.002678,0.000431,0.000705
16698000,0.0324,0.013523,0.002678,0.000431,0.000940
16699000,0.0324,0.013523,0.002678,0.000431,0.000940
16700000,0.0324,0.013523,0.002678,0.000431,0.000705
16701000,0.0324,0.013523,0.002678,0.000431,0.000940
16702000,0.0324,0.013523,0.002678,0.000431,0.000823
16703000,0.0324,0.013523,0.002678,0.000431,0.000823
16704000,0.0324,0.013523,0.002678,0.000431,0.000823
16705000,0.0324,0.013523,0.002678,0.000431,0.000823
16706000,0.0324,0.013523,0.002678,0.000431,0.000940
16707000,0.0324,0.013523,0.002678,0.000431,0.000588
16708000,0.0324,0.013523,0.002678,0.000431,0.000705
16709000,0.0324,0.013523,0.002678,0.000431,0.000823
16710000,0.0324,0.013523,0.002678,0.000431,0.000940
16711000,0.0324,0.013523,0.002678,0.000431,0.000823
16712000,0.0324,0.013523,0.002678,0.000431,0.000823
16713000,0.0324,0.013523,0.002678,0.000431,0.000823
16714000,0.0324,0.013523,0.002678,0.000431,0.000823
16715000,0.0324,0.013523,0.002678,0.000431,0.000823
16716000,0.0324,0.013523,0.002678,0.000431,0.000940
16717000,0.0324,0.013523,0.002678,0.000431,0.000940
16718000,0.0324,0.013523,0.002678,0.000431,0.000823
16719000,0.0324,0.013523,0.002678,0.000431,0.000823
16720000,0.0324,0.013523,0.002678,0.000431,0.000823
16721000,0.0324,0.013523,0.002678,0.000431,0.000940
16722000,0.0324,0.013523,0.002678,0.000431,0.000705
16723000,0.0324,0.013523,0.002678,0.000431,0.000940
16724000,0.0324,0.013523,0.002678,0.000431,0.000940
16725000,0.0324,0.013523,0.002678,0.000431,0.000940
16726000,0.0324,0.013523,0.002678,0.000431,0.000823
16727000,0.0324,0.013523,0.002678,0.000431,0.000705
16728000,0.0324,0.013523,0.002678,0.000431,0.000823
16729000,0.0324,0.013523,0.002678,0.000431,0.000823
16730000,0.0324,0.013523,0.002678,0.000431,0.000823
16731000,0.0324,0.013523,0.002678,0.000431,0.000705
16732000,0.0324,0.013523,0.002678,0.000431,0.000940
16733000,0.0324,0.013523,0.002678,0.000431,0.000940
16734000,0.0324,0.013523,0.002678,0.000431,0.000705
16735000,0.0324,0.013523,0.002678,0.000431,0.000940
16736000,0.0324,0.013523,0.002678,0.000431,0.000940
16737000,0.0324,0.013523,0.002678,0.000431,0.000823
16738000,0.0324,0.013523,0.002678,0.000431,0.000823
16739000,0.0324,0.013523,0.002678,0.000431,0.000823
16740000,0.0324,0.013523,0.002678,0.000431,0.000940
16741000,0.0324,0.013523,0.002678,0.000431,0.000940
16742000,0.0324,0.013523,0.002678,0.000431,0.000823
16743000,0.0324,0.013523,0.002678,0.000431,0.000823
16744000,0.0324,0.013523,0.002678,0.000431,0.000940
16745000,0.0324,0.013523,0.002678,0.000431,0.000823
16746000,0.0324,0.013523,0.002678,0.000431,0.000823
16747000,0.0324,0.013523,0.002678,0.000431,0.000705
16748000,0.0324,0.013523,0.002678,0.000431,0.001058
16749000,0.0324,0.013523,0.002678,0.000431,0.000823
16750000,0.0324,0.013523,0.002678,0.000431,0.000823
16751000,0.0324,0.013523,0.002678,0.000431,0.000940
16752000,0.0324,0.013523,0.002678,0.000431,0.000823
16753000,0.0324,0.013523,0.002678,0.000431,0.000823
16754000,0.0324,0.013523,0.002678,0.000431,0.000940
16755000,0.0324,0.013523,0.002678,0.000431,0.000823
16756000,0.0324,0.013523,0.002678,0.000431,0.000823
16757000,0.0324,0.013523,0.002678,0.000431,0.000823
16758000,0.0324,0.013523,0.002678,0.000431,0.000940
16759000,0.0324,0.013523,0.002678,0.000431,0.000823
16760000,0.0324,0.013523,0.002678,0.000431,0.000940
16761000,0.0324,0.013523,0.002678,0.000431,0.000705
16762000,0.0324,0.013523,0.002678,0.000431,0.000705
16763000,0.0324,0.013523,0.002678,0.000431,0.000823
16764000,0.0324,0.013523,0.002678,0.000431,0.000940
16765000,0.0324,0.013523,0.002678,0.000431,0.000705
16766000,0.0324,0.013523,0.002678,0.000431,0.000705
16767000,0.0324,0.013523,0.002678,0.000431,0.000823
16768000,0.0324,0.013523,0.002678,0.000431,0.000705
16769000,0.0324,0.013523,0.002678,0.000431,0.000940
16770000,0.0324,0.013523,0.002678,0.000431,0.000940
16771000,0.0324,0.013523,0.002678,0.000431,0.000705
16772000,0.0324,0.013523,0.002678,0.000431,0.000705
16773000,0.0324,0.013523,0.002678,0.000431,0.000705
16774000,0.0324,0.013523,0.002678,0.000431,0.000705
16775000,0.0324,0.013523,0.002678,0.000431,0.000823
16776000,0.0324,0.013523,0.002678,0.000431,0.000940
16777000,0.0324,0.013523,0.002678,0.000431,0.000705
16778000,0.0324,0.013523,0.002678,0.000431,0.000940
16779000,0.0324,0.013523,0.002678,0.000431,0.000588
16780000,0.0324,0.013523,0.002678,0.000431,0.000705
16781000,0.0324,0.013523,0.002678,0.000431,0.000940
16782000,0.0324,0.013523,0.002678,0.000431,0.000940
16783000,0.0324,0.013523,0.002678,0.000431,0.000705
16784000,0.0324,0.013523,0.002678,0.000431,0.000940
16785000,0.0324,0.013523,0.002678,0.000431,0.000940
16786000,0.0324,0.013523,0.002678,0.000431,0.000705
16787000,0.0324,0.013523,0.002678,0.000431,0.000940
16788000,0.0324,0.013523,0.002678,0.000431,0.000823
16789000,0.0324,0.013523,0.002678,0.000431,0.000823
16790000,0.0324,0.013523,0.002678,0.000431,0.000940
16791000,0.0324,0.013523,0.002678,0.000431,0.000823
16792000,0.0324,0.013523,0.002678,0.000431,0.000940
16793000,0.0324,0.013523,0.002678,0.000431,0.000940
16794000,0.0324,0.013523,0.002678,0.000431,0.000823
16795000,0.0324,0.013523,0.002678,0.000431,0.000823
16796000,0.0324,0.013523,0.002678,0.000431,0.000823
16797000,0.0324,0.013523,0.002678,0.000431,0.000940
16798000,0.0324,0.013523,0.002678,0.000431,0.000823
16799000,0.0324,0.013523,0.002678,0.000431,0.000823
16800000,0.0324,0.013523,0.002678,0.000431,0.000940
16801000,0.0324,0.013523,0.002678,0.000431,0.000823
16802000,0.0324,0.013523,0.002678,0.000431,0.000823
16803000,0.0324,0.013523,0.002678,0.000431,0.000823
16804000,0.0324,0.013523,0.002678,0.000431,0.000823
16805000,0.0324,0.013523,0.002678,0.000431,0.000705
16806000,0.0324,0.013523,0.002678,0.000431,0.000940
16807000,0.0324,0.013523,0.002678,0.000431,0.000940
16808000,0.0324,0.013523,0.002678,0.000431,0.000705
16809000,0.0324,0.013523,0.002678,0.000431,0.000588
16810000,0.0324,0.013523,0.002678,0.000431,0.000940
16811000,0.0324,0.013523,0.002678,0.000431,0.000705
16812000,0.0324,0.013523,0.002678,0.000431,0.000823
16813000,0.0324,0.013523,0.002678,0.000431,0.000705
16814000,0.0324,0.013523,0.002678,0.000431,0.000705
16815000,0.0324,0.013523,0.002678,0.000431,0.000705
16816000,0.0324,0.013523,0.002678,0.000431,0.000940
16817000,0.0324,0.013523,0.002678,0.000431,0.000823
16818000,0.0324,0.013523,0.002678,0.000431,0.000823
16819000,0.0324,0.013523,0.002678,0.000431,0.000940
16820000,0.0324,0.013523,0.002678,0.000431,0.000823
16821000,0.0324,0.013523,0.002678,0.000431,0.000705
16822000,0.0324,0.013523,0.002678,0.000431,0.000940
16823000,0.0324,0.013523,0.002678,0.000431,0.000823
16824000,0.0324,0.013523,0.002678,0.000431,0.000823
16825000,0.0324,0.013523,0.002678,0.000431,0.000823
16826000,0.0324,0.013523,0.002678,0.000431,0.000823
16827000,0.0324,0.013523,0.002678,0.000431,0.000940
16828000,0.0324,0.013523,0.002678,0.000431,0.000823
16829000,0.0324,0.013523,0.002678,0.000431,0.000823
16830000,0.0324,0.013523,0.002678,0.000431,0.000588
16831000,0.0324,0.013523,0.002678,0.000431,0.001058
16832000,0.0324,0.013523,0.002678,0.000431,0.000588
16833000,0.0324,0.013523,0.002678,0.000431,0.000940
16834000,0.0324,0.013523,0.002678,0.000431,0.000823
16835000,0.0324,0.013523,0.002678,0.000431,0.000940
16836000,0.0324,0.013523,0.002678,0.000431,0.000823
16837000,0.0324,0.013523,0.002678,0.000431,0.000940
16838000,0.0324,0.013523,0.002678,0.000431,0.000823
16839000,0.0324,0.013523,0.002678,0.000431,0.000823
16840000,0.0324,0.013523,0.002678,0.000431,0.000940
16841000,0.0324,0.013523,0.002678,0.000431,0.000705
16842000,0.0324,0.013523,0.002678,0.000431,0.000940
16843000,0.0324,0.013523,0.002678,0.000431,0.000823
16844000,0.0324,0.013523,0.002678,0.000431,0.000823
16845000,0.0324,0.013523,0.002678,0.000431,0.000705
16846000,0.0324,0.013523,0.002678,0.000431,0.000705
16847000,0.0324,0.013523,0.002678,0.000431,0.000705
16848000,0.0324,0.013523,0.002678,0.000431,0.000705
16849000,0.0324,0.013523,0.002678,0.000431,0.000705
16850000,0.0324,0.013523,0.002678,0.000431,0.000940
16851000,0.0324,0.013523,0.002678,0.000431,0.000940
16852000,0.0324,0.013523,0.002678,0.000431,0.000940
16853000,0.0324,0.013523,0.002678,0.000431,0.000823
16854000,0.0324,0.013523,0.002678,0.000431,0.000705
16855000,0.0324,0.013523,0.002678,0.000431,0.000705
16856000,0.0324,0.013523,0.002678,0.000431,0.000823
16857000,0.0324,0.013523,0.002678,0.000431,0.000940
16858000,0.0324,0.013523,0.002678,0.000431,0.000705
16859000,0.0324,0.013523,0.002678,0.000431,0.000705
16860000,0.0324,0.013523,0.002678,0.000431,0.000940
16861000,0.0324,0.013523,0.002678,0.000431,0.000705
16862000,0.0324,0.013523,0.002678,0.000431,0.000705
16863000,0.0324,0.013523,0.002678,0.000431,0.000940
16864000,0.0324,0.013523,0.002678,0.000431,0.000470
16865000,0.0324,0.013523,0.002678,0.000431,0.000940
16866000,0.0324,0.013523,0.002678,0.000431,0.000940
16867000,0.0324,0.013523,0.002678,0.000431,0.000940
16868000,0.0324,0.013523,0.002678,0.000431,0.000823
16869000,0.0324,0.013523,0.002678,0.000431,0.000705
16870000,0.0324,0.013523,0.002678,0.000431,0.000705
16871000,0.0324,0.013523,0.002678,0.000431,0.000940
16872000,0.0324,0.013523,0.002678,0.000431,0.000705
16873000,0.0324,0.013523,0.002678,0.000431,0.000823
16874000,0.0324,0.013523,0.002678,0.000431,0.000705
16875000,0.0324,0.013523,0.002678,0.000431,0.000823
16876000,0.0324,0.013523,0.002678,0.000431,0.000823
16877000,0.0324,0.013523,0.002678,0.000431,0.000940
16878000,0.0324,0.013523,0.002678,0.000431,0.000588
16879000,0.0324,0.013523,0.002678,0.000431,0.000705
16880000,0.0324,0.013523,0.002678,0.000431,0.000940
16881000,0.0324,0.013523,0.002678,0.000431,0.000823
16882000,0.0324,0.013523,0.002678,0.000431,0.000940
16883000,0.0324,0.013523,0.002678,0.000431,0.000705
16884000,0.0324,0.013523,0.002678,0.000431,0.000940
16885000,0.0324,0.013523,0.002678,0.000431,0.000940
16886000,0.0324,0.013523,0.002678,0.000431,0.000823
16887000,0.0324,0.013523,0.002678,0.000431,0.000823
16888000,0.0324,0.013523,0.002678,0.000431,0.000940
16889000,0.0324,0.013523,0.002678,0.000431,0.000823
16890000,0.0324,0.013523,0.002678,0.000431,0.000940
16891000,0.0324,0.013523,0.002678,0.000431,0.000940
16892000,0.0324,0.013523,0.002678,0.000431,0.000823
16893000,0.0324,0.013523,0.002678,0.000431,0.000823
16894000,0.0324,0.013523,0.002678,0.000431,0.000705
16895000,0.0324,0.013523,0.002678,0.000431,0.000940
16896000,0.0324,0.013523,0.002678,0.000431,0.000823
16897000,0.0324,0.013523,0.002678,0.000431,0.000823
16898000,0.0324,0.013523,0.002678,0.000431,0.000705
16899000,0.0324,0.013523,0.002678,0.000431,0.000823
16900000,0.0324,0.013523,0.002678,0.000431,0.000705
16901000,0.0324,0.013523,0.002678,0.000431,0.001058
16902000,0.0324,0.013523,0.002678,0.000431,0.000940
16903000,0.0324,0.013523,0.002678,0.000431,0.000823
16904000,0.0324,0.013523,0.002678,0.000431,0.000823
16905000,0.0324,0.013523,0.002678,0.000431,0.000823
16906000,0.0324,0.013523,0.002678,0.000431,0.000940
16907000,0.0324,0.013523,0.002678,0.000431,0.000823
16908000,0.0324,0.013523,0.002678,0.000431,0.000823
16909000,0.0324,0.013523,0.002678,0.000431,0.000940
16910000,0.0324,0.013523,0.002678,0.000431,0.000705
16911000,0.0324,0.013523,0.002678,0.000431,0.000705
16912000,0.0324,0.013523,0.002678,0.000431,0.000705
16913000,0.0324,0.013523,0.002678,0.000431,0.000940
16914000,0.0324,0.013523,0.002678,0.000431,0.000705
16915000,0.0324,0.013523,0.002678,0.000431,0.000940
16916000,0.0324,0.013523,0.002678,0.000431,0.000940
16917000,0.0324,0.013523,0.002678,0.000431,0.000823
16918000,0.0324,0.013523,0.002678,0.000431,0.000823
16919000,0.0324,0.013523,0.002678,0.000431,0.000940
16920000,0.0324,0.013523,0.002678,0.000431,0.000705
16921000,0.0324,0.013523,0.002678,0.000431,0.000940
16922000,0.0324,0.013523,0.002678,0.000431,0.000940
16923000,0.0324,0.013523,0.002678,0.000431,0.000705
16924000,0.0324,0.013523,0.002678,0.000431,0.000940
16925000,0.0324,0.013523,0.002678,0.000431,0.000940
16926000,0.0324,0.013523,0.002678,0.000431,0.000705
16927000,0.0324,0.013523,0.002678,0.000431,0.000940
16928000,0.0324,0.013523,0.002678,0.000431,0.000823
16929000,0.0324,0.013523,0.002678,0.000431,0.000823
16930000,0.0324,0.013523,0.002678,0.000431,0.000705
16931000,0.0324,0.013523,0.002678,0.000431,0.000940
16932000,0.0324,0.013523,0.002678,0.000431,0.000705
16933000,0.0324,0.013523,0.002678,0.000431,0.000940
16934000,0.0324,0.013523,0.002678,0.000431,0.000823
16935000,0.0324,0.013523,0.002678,0.000431,0.000823
16936000,0.0324,0.013523,0.002678,0.000431,0.000940
16937000,0.0324,0.013523,0.002678,0.000431,0.000823
16938000,0.0324,0.013523,0.002678,0.000431,0.000823
16939000,0.0324,0.013523,0.002678,0.000431,0.000940
16940000,0.0324,0.013523,0.002678,0.000431,0.000705
16941000,0.0324,0.013523,0.002678,0.000431,0.000940
16942000,0.0324,0.013523,0.002678,0.000431,0.000823
16943000,0.0324,0.013523,0.002678,0.000431,0.000823
16944000,0.0324,0.013523,0.002678,0.000431,0.000705
16945000,0.0324,0.013523,0.002678,0.000431,0.000823
16946000,0.0324,0.013523,0.002678,0.000431,0.000940
16947000,0.0324,0.013523,0.002678,0.000431,0.000940
16948000,0.0324,0.013523,0.002678,0.000431,0.000823
16949000,0.0324,0.013523,0.002678,0.000431,0.000823
16950000,0.0324,0.013523,0.002678,0.000431,0.000940
16951000,0.0324,0.013523,0.002678,0.000431,0.000588
16952000,0.0324,0.013523,0.002678,0.000431,0.000940
16953000,0.0324,0.013523,0.002678,0.000431,0.000940
16954000,0.0324,0.013523,0.002678,0.000431,0.000705
16955000,0.0324,0.013523,0.002678,0.000431,0.000705
16956000,0.0324,0.013523,0.002678,0.000431,0.000823
16957000,0.0324,0.013523,0.002678,0.000431,0.000823
16958000,0.0324,0.013523,0.002678,0.000431,0.000940
16959000,0.0324,0.013523,0.002678,0.000431,0.000823
16960000,0.0324,0.013523,0.002678,0.000431,0.000588
16961000,0.0324,0.013523,0.002678,0.000431,0.001058
16962000,0.0324,0.013523,0.002678,0.000431,0.000823
16963000,0.0324,0.013523,0.002678,0.000431,0.000705
16964000,0.0324,0.013523,0.002678,0.000431,0.000705
16965000,0.0324,0.013523,0.002678,0.000431,0.000940
16966000,0.0324,0.013523,0.002678,0.000431,0.000705
16967000,0.0324,0.013523,0.002678,0.000431,0.000940
16968000,0.0324,0.013523,0.002678,0.000431,0.000940
16969000,0.0324,0.013523,0.002678,0.000431,0.000823
16970000,0.0324,0.013523,0.002678,0.000431,0.000823
16971000,0.0324,0.013523,0.002678,0.000431,0.000940
16972000,0.0324,0.013523,0.002678,0.000431,0.000705
16973000,0.0324,0.013523,0.002678,0.000431,0.000940
16974000,0.0324,0.013523,0.002678,0.000431,0.000823
16975000,0.0324,0.013523,0.002678,0.000431,0.000588
16976000,0.0324,0.013523,0.002678,0.000431,0.001058
16977000,0.0324,0.013523,0.002678,0.000431,0.000823
16978000,0.0324,0.013523,0.002678,0.000431,0.000940
16979000,0.0324,0.013523,0.002678,0.000431,0.000823
16980000,0.0324,0.013523,0.002678,0.000431,0.000940
16981000,0.0324,0.013523,0.002678,0.000431,0.000823
16982000,0.0324,0.013523,0.002678,0.000431,0.000940
16983000,0.0324,0.013523,0.002678,0.000431,0.000823
16984000,0.0324,0.013523,0.002678,0.000431,0.000823
16985000,0.0324,0.013523,0.002678,0.000431,0.000823
16986000,0.0324,0.013523,0.002678,0.000431,0.000823
16987000,0.0324,0.013523,0.002678,0.000431,0.000940
16988000,0.0324,0.013523,0.002678,0.000431,0.000705
16989000,0.0324,0.013523,0.002678,0.000431,0.000705
16990000,0.0324,0.013523,0.002678,0.000431,0.000940
16991000,0.0324,0.013523,0.002678,0.000431,0.000823
16992000,0.0324,0.013523,0.002678,0.000431,0.000823
16993000,0.0324,0.013523,0.002678,0.000431,0.000940
16994000,0.0324,0.013523,0.002678,0.000431,0.000705
16995000,0.0324,0.013523,0.002678,0.000431,0.000705
16996000,0.0324,0.013523,0.002678,0.000431,0.000470
16997000,0.0324,0.013523,0.002678,0.000431,0.000705
16998000,0.0324,0.013523,0.002678,0.000431,0.000705
16999000,0.0324,0.013523,0.002678,0.000431,0.000705
