Cycle,Area(mm^2),PeakDynamic(W),SubthresholdLeakage(W),GateLeakage(W),RunTimeDynamic(W)
5000000,0.0324,0.013523,0.002678,0.000431,0.039607
5001000,0.0324,0.013523,0.002678,0.000431,0.040665
5002000,0.0324,0.013523,0.002678,0.000431,0.040312
5003000,0.0324,0.013523,0.002678,0.000431,0.039842
5004000,0.0324,0.013523,0.002678,0.000431,0.041370
5005000,0.0324,0.013523,0.002678,0.000431,0.041723
5006000,0.0324,0.013523,0.002678,0.000431,0.041252
5007000,0.0324,0.013523,0.002678,0.000431,0.041723
5008000,0.0324,0.013523,0.002678,0.000431,0.040665
5009000,0.0324,0.013523,0.002678,0.000431,0.039960
5010000,0.0324,0.013523,0.002678,0.000431,0.044191
5011000,0.0324,0.013523,0.002678,0.000431,0.040547
5012000,0.0324,0.013523,0.002678,0.000431,0.039137
5013000,0.0324,0.013523,0.002678,0.000431,0.040195
5014000,0.0324,0.013523,0.002678,0.000431,0.039489
5015000,0.0324,0.013523,0.002678,0.000431,0.037844
5016000,0.0324,0.013523,0.002678,0.000431,0.040430
5017000,0.0324,0.013523,0.002678,0.000431,0.038784
5018000,0.0324,0.013523,0.002678,0.000431,0.041135
5019000,0.0324,0.013523,0.002678,0.000431,0.038784
5020000,0.0324,0.013523,0.002678,0.000431,0.038432
5021000,0.0324,0.013523,0.002678,0.000431,0.041252
5022000,0.0324,0.013523,0.002678,0.000431,0.036669
5023000,0.0324,0.013523,0.002678,0.000431,0.038197
5024000,0.0324,0.013523,0.002678,0.000431,0.041252
5025000,0.0324,0.013523,0.002678,0.000431,0.040547
5026000,0.0324,0.013523,0.002678,0.000431,0.040547
5027000,0.0324,0.013523,0.002678,0.000431,0.040900
5028000,0.0324,0.013523,0.002678,0.000431,0.037374
5029000,0.0324,0.013523,0.002678,0.000431,0.043368
5030000,0.0324,0.013523,0.002678,0.000431,0.040547
5031000,0.0324,0.013523,0.002678,0.000431,0.039607
5032000,0.0324,0.013523,0.002678,0.000431,0.038549
5033000,0.0324,0.013523,0.002678,0.000431,0.041958
5034000,0.0324,0.013523,0.002678,0.000431,0.038079
5035000,0.0324,0.013523,0.002678,0.000431,0.041370
5036000,0.0324,0.013523,0.002678,0.000431,0.039960
5037000,0.0324,0.013523,0.002678,0.000431,0.040547
5038000,0.0324,0.013523,0.002678,0.000431,0.039842
5039000,0.0324,0.013523,0.002678,0.000431,0.038784
5040000,0.0324,0.013523,0.002678,0.000431,0.037491
5041000,0.0324,0.013523,0.002678,0.000431,0.042663
5042000,0.0324,0.013523,0.002678,0.000431,0.037374
5043000,0.0324,0.013523,0.002678,0.000431,0.040312
5044000,0.0324,0.013523,0.002678,0.000431,0.039254
5045000,0.0324,0.013523,0.002678,0.000431,0.039489
5046000,0.0324,0.013523,0.002678,0.000431,0.041605
5047000,0.0324,0.013523,0.002678,0.000431,0.038432
5048000,0.0324,0.013523,0.002678,0.000431,0.038549
5049000,0.0324,0.013523,0.002678,0.000431,0.041723
5050000,0.0324,0.013523,0.002678,0.000431,0.037491
5051000,0.0324,0.013523,0.002678,0.000431,0.036551
5052000,0.0324,0.013523,0.002678,0.000431,0.040782
5053000,0.0324,0.013523,0.002678,0.000431,0.039842
5054000,0.0324,0.013523,0.002678,0.000431,0.039725
5055000,0.0324,0.013523,0.002678,0.000431,0.039372
5056000,0.0324,0.013523,0.002678,0.000431,0.036081
5057000,0.0324,0.013523,0.002678,0.000431,0.042545
5058000,0.0324,0.013523,0.002678,0.000431,0.037256
5059000,0.0324,0.013523,0.002678,0.000431,0.039725
5060000,0.0324,0.013523,0.002678,0.000431,0.040900
5061000,0.0324,0.013523,0.002678,0.000431,0.036551
5062000,0.0324,0.013523,0.002678,0.000431,0.041723
5063000,0.0324,0.013523,0.002678,0.000431,0.039725
5064000,0.0324,0.013523,0.002678,0.000431,0.039960
5065000,0.0324,0.013523,0.002678,0.000431,0.037491
5066000,0.0324,0.013523,0.002678,0.000431,0.040900
5067000,0.0324,0.013523,0.002678,0.000431,0.039960
5068000,0.0324,0.013523,0.002678,0.000431,0.040665
5069000,0.0324,0.013523,0.002678,0.000431,0.038667
5070000,0.0324,0.013523,0.002678,0.000431,0.038432
5071000,0.0324,0.013523,0.002678,0.000431,0.041723
5072000,0.0324,0.013523,0.002678,0.000431,0.039254
5073000,0.0324,0.013523,0.002678,0.000431,0.039254
5074000,0.0324,0.013523,0.002678,0.000431,0.039019
5075000,0.0324,0.013523,0.002678,0.000431,0.037962
5076000,0.0324,0.013523,0.002678,0.000431,0.037727
5077000,0.0324,0.013523,0.002678,0.000431,0.041723
5078000,0.0324,0.013523,0.002678,0.000431,0.037256
5079000,0.0324,0.013523,0.002678,0.000431,0.039372
5080000,0.0324,0.013523,0.002678,0.000431,0.038784
5081000,0.0324,0.013523,0.002678,0.000431,0.039607
5082000,0.0324,0.013523,0.002678,0.000431,0.039489
5083000,0.0324,0.013523,0.002678,0.000431,0.039607
5084000,0.0324,0.013523,0.002678,0.000431,0.038549
5085000,0.0324,0.013523,0.002678,0.000431,0.041017
5086000,0.0324,0.013523,0.002678,0.000431,0.040312
5087000,0.0324,0.013523,0.002678,0.000431,0.041017
5088000,0.0324,0.013523,0.002678,0.000431,0.039842
5089000,0.0324,0.013523,0.002678,0.000431,0.037021
5090000,0.0324,0.013523,0.002678,0.000431,0.041605
5091000,0.0324,0.013523,0.002678,0.000431,0.039960
5092000,0.0324,0.013523,0.002678,0.000431,0.038197
5093000,0.0324,0.013523,0.002678,0.000431,0.040782
5094000,0.0324,0.013523,0.002678,0.000431,0.039842
5095000,0.0324,0.013523,0.002678,0.000431,0.036551
5096000,0.0324,0.013523,0.002678,0.000431,0.039960
5097000,0.0324,0.013523,0.002678,0.000431,0.038314
5098000,0.0324,0.013523,0.002678,0.000431,0.039254
5099000,0.0324,0.013523,0.002678,0.000431,0.039137
5100000,0.0324,0.013523,0.002678,0.000431,0.038667
5101000,0.0324,0.013523,0.002678,0.000431,0.038784
5102000,0.0324,0.013523,0.002678,0.000431,0.038667
5103000,0.0324,0.013523,0.002678,0.000431,0.039489
5104000,0.0324,0.013523,0.002678,0.000431,0.038549
5105000,0.0324,0.013523,0.002678,0.000431,0.039489
5106000,0.0324,0.013523,0.002678,0.000431,0.037727
5107000,0.0324,0.013523,0.002678,0.000431,0.040312
5108000,0.0324,0.013523,0.002678,0.000431,0.040547
5109000,0.0324,0.013523,0.002678,0.000431,0.037021
5110000,0.0324,0.013523,0.002678,0.000431,0.042663
5111000,0.0324,0.013523,0.002678,0.000431,0.037609
5112000,0.0324,0.013523,0.002678,0.000431,0.038902
5113000,0.0324,0.013523,0.002678,0.000431,0.039372
5114000,0.0324,0.013523,0.002678,0.000431,0.040900
5115000,0.0324,0.013523,0.002678,0.000431,0.038784
5116000,0.0324,0.013523,0.002678,0.000431,0.041252
5117000,0.0324,0.013523,0.002678,0.000431,0.038549
5118000,0.0324,0.013523,0.002678,0.000431,0.042428
5119000,0.0324,0.013523,0.002678,0.000431,0.037727
5120000,0.0324,0.013523,0.002678,0.000431,0.037962
5121000,0.0324,0.013523,0.002678,0.000431,0.042075
5122000,0.0324,0.013523,0.002678,0.000431,0.040195
5123000,0.0324,0.013523,0.002678,0.000431,0.036081
5124000,0.0324,0.013523,0.002678,0.000431,0.040665
5125000,0.0324,0.013523,0.002678,0.000431,0.036904
5126000,0.0324,0.013523,0.002678,0.000431,0.039019
5127000,0.0324,0.013523,0.002678,0.000431,0.040312
5128000,0.0324,0.013523,0.002678,0.000431,0.036434
5129000,0.0324,0.013523,0.002678,0.000431,0.041135
5130000,0.0324,0.013523,0.002678,0.000431,0.036904
5131000,0.0324,0.013523,0.002678,0.000431,0.038314
5132000,0.0324,0.013523,0.002678,0.000431,0.040900
5133000,0.0324,0.013523,0.002678,0.000431,0.038432
5134000,0.0324,0.013523,0.002678,0.000431,0.037491
5135000,0.0324,0.013523,0.002678,0.000431,0.040547
5136000,0.0324,0.013523,0.002678,0.000431,0.037962
5137000,0.0324,0.013523,0.002678,0.000431,0.038079
5138000,0.0324,0.013523,0.002678,0.000431,0.040900
5139000,0.0324,0.013523,0.002678,0.000431,0.038549
5140000,0.0324,0.013523,0.002678,0.000431,0.037962
5141000,0.0324,0.013523,0.002678,0.000431,0.040077
5142000,0.0324,0.013523,0.002678,0.000431,0.037491
5143000,0.0324,0.013523,0.002678,0.000431,0.038784
5144000,0.0324,0.013523,0.002678,0.000431,0.040782
5145000,0.0324,0.013523,0.002678,0.000431,0.038079
5146000,0.0324,0.013523,0.002678,0.000431,0.040430
5147000,0.0324,0.013523,0.002678,0.000431,0.039019
5148000,0.0324,0.013523,0.002678,0.000431,0.040900
5149000,0.0324,0.013523,0.002678,0.000431,0.038667
5150000,0.0324,0.013523,0.002678,0.000431,0.039489
5151000,0.0324,0.013523,0.002678,0.000431,0.039019
5152000,0.0324,0.013523,0.002678,0.000431,0.038432
5153000,0.0324,0.013523,0.002678,0.000431,0.037374
5154000,0.0324,0.013523,0.002678,0.000431,0.038432
5155000,0.0324,0.013523,0.002678,0.000431,0.040312
5156000,0.0324,0.013523,0.002678,0.000431,0.039489
5157000,0.0324,0.013523,0.002678,0.000431,0.041135
5158000,0.0324,0.013523,0.002678,0.000431,0.037021
5159000,0.0324,0.013523,0.002678,0.000431,0.039725
5160000,0.0324,0.013523,0.002678,0.000431,0.039372
5161000,0.0324,0.013523,0.002678,0.000431,0.041252
5162000,0.0324,0.013523,0.002678,0.000431,0.035964
5163000,0.0324,0.013523,0.002678,0.000431,0.040077
5164000,0.0324,0.013523,0.002678,0.000431,0.037844
5165000,0.0324,0.013523,0.002678,0.000431,0.038902
5166000,0.0324,0.013523,0.002678,0.000431,0.039960
5167000,0.0324,0.013523,0.002678,0.000431,0.041840
5168000,0.0324,0.013523,0.002678,0.000431,0.038197
5169000,0.0324,0.013523,0.002678,0.000431,0.037844
5170000,0.0324,0.013523,0.002678,0.000431,0.040547
5171000,0.0324,0.013523,0.002678,0.000431,0.039960
5172000,0.0324,0.013523,0.002678,0.000431,0.038314
5173000,0.0324,0.013523,0.002678,0.000431,0.037962
5174000,0.0324,0.013523,0.002678,0.000431,0.040547
5175000,0.0324,0.013523,0.002678,0.000431,0.036904
5176000,0.0324,0.013523,0.002678,0.000431,0.041723
5177000,0.0324,0.013523,0.002678,0.000431,0.037021
5178000,0.0324,0.013523,0.002678,0.000431,0.040195
5179000,0.0324,0.013523,0.002678,0.000431,0.036434
5180000,0.0324,0.013523,0.002678,0.000431,0.038784
5181000,0.0324,0.013523,0.002678,0.000431,0.039607
5182000,0.0324,0.013523,0.002678,0.000431,0.037844
5183000,0.0324,0.013523,0.002678,0.000431,0.037374
5184000,0.0324,0.013523,0.002678,0.000431,0.038314
5185000,0.0324,0.013523,0.002678,0.000431,0.037021
5186000,0.0324,0.013523,0.002678,0.000431,0.040430
5187000,0.0324,0.013523,0.002678,0.000431,0.035846
5188000,0.0324,0.013523,0.002678,0.000431,0.038902
5189000,0.0324,0.013523,0.002678,0.000431,0.039960
5190000,0.0324,0.013523,0.002678,0.000431,0.039607
5191000,0.0324,0.013523,0.002678,0.000431,0.039489
5192000,0.0324,0.013523,0.002678,0.000431,0.036904
5193000,0.0324,0.013523,0.002678,0.000431,0.041370
5194000,0.0324,0.013523,0.002678,0.000431,0.037256
5195000,0.0324,0.013523,0.002678,0.000431,0.041840
5196000,0.0324,0.013523,0.002678,0.000431,0.038314
5197000,0.0324,0.013523,0.002678,0.000431,0.040900
5198000,0.0324,0.013523,0.002678,0.000431,0.036786
5199000,0.0324,0.013523,0.002678,0.000431,0.040077
5200000,0.0324,0.013523,0.002678,0.000431,0.039960
5201000,0.0324,0.013523,0.002678,0.000431,0.039607
5202000,0.0324,0.013523,0.002678,0.000431,0.035964
5203000,0.0324,0.013523,0.002678,0.000431,0.039254
5204000,0.0324,0.013523,0.002678,0.000431,0.038902
5205000,0.0324,0.013523,0.002678,0.000431,0.038432
5206000,0.0324,0.013523,0.002678,0.000431,0.038784
5207000,0.0324,0.013523,0.002678,0.000431,0.039254
5208000,0.0324,0.013523,0.002678,0.000431,0.037139
5209000,0.0324,0.013523,0.002678,0.000431,0.038667
5210000,0.0324,0.013523,0.002678,0.000431,0.039607
5211000,0.0324,0.013523,0.002678,0.000431,0.036434
5212000,0.0324,0.013523,0.002678,0.000431,0.039489
5213000,0.0324,0.013523,0.002678,0.000431,0.039019
5214000,0.0324,0.013523,0.002678,0.000431,0.039019
5215000,0.0324,0.013523,0.002678,0.000431,0.038079
5216000,0.0324,0.013523,0.002678,0.000431,0.037256
5217000,0.0324,0.013523,0.002678,0.000431,0.038314
5218000,0.0324,0.013523,0.002678,0.000431,0.038197
5219000,0.0324,0.013523,0.002678,0.000431,0.037962
5220000,0.0324,0.013523,0.002678,0.000431,0.037139
5221000,0.0324,0.013523,0.002678,0.000431,0.039137
5222000,0.0324,0.013523,0.002678,0.000431,0.037962
5223000,0.0324,0.013523,0.002678,0.000431,0.036669
5224000,0.0324,0.013523,0.002678,0.000431,0.039489
5225000,0.0324,0.013523,0.002678,0.000431,0.039137
5226000,0.0324,0.013523,0.002678,0.000431,0.038667
5227000,0.0324,0.013523,0.002678,0.000431,0.037727
5228000,0.0324,0.013523,0.002678,0.000431,0.036316
5229000,0.0324,0.013523,0.002678,0.000431,0.037491
5230000,0.0324,0.013523,0.002678,0.000431,0.037374
5231000,0.0324,0.013523,0.002678,0.000431,0.038784
5232000,0.0324,0.013523,0.002678,0.000431,0.037491
5233000,0.0324,0.013523,0.002678,0.000431,0.040077
5234000,0.0324,0.013523,0.002678,0.000431,0.034906
5235000,0.0324,0.013523,0.002678,0.000431,0.037139
5236000,0.0324,0.013523,0.002678,0.000431,0.038197
5237000,0.0324,0.013523,0.002678,0.000431,0.036904
5238000,0.0324,0.013523,0.002678,0.000431,0.039254
5239000,0.0324,0.013523,0.002678,0.000431,0.037727
5240000,0.0324,0.013523,0.002678,0.000431,0.039725
5241000,0.0324,0.013523,0.002678,0.000431,0.036551
5242000,0.0324,0.013523,0.002678,0.000431,0.038432
5243000,0.0324,0.013523,0.002678,0.000431,0.036081
5244000,0.0324,0.013523,0.002678,0.000431,0.036669
5245000,0.0324,0.013523,0.002678,0.000431,0.036786
5246000,0.0324,0.013523,0.002678,0.000431,0.038197
5247000,0.0324,0.013523,0.002678,0.000431,0.036551
5248000,0.0324,0.013523,0.002678,0.000431,0.038549
5249000,0.0324,0.013523,0.002678,0.000431,0.036434
5250000,0.0324,0.013523,0.002678,0.000431,0.039372
5251000,0.0324,0.013523,0.002678,0.000431,0.037374
5252000,0.0324,0.013523,0.002678,0.000431,0.035376
5253000,0.0324,0.013523,0.002678,0.000431,0.038079
5254000,0.0324,0.013523,0.002678,0.000431,0.036434
5255000,0.0324,0.013523,0.002678,0.000431,0.037256
5256000,0.0324,0.013523,0.002678,0.000431,0.037139
5257000,0.0324,0.013523,0.002678,0.000431,0.037256
5258000,0.0324,0.013523,0.002678,0.000431,0.036551
5259000,0.0324,0.013523,0.002678,0.000431,0.036551
5260000,0.0324,0.013523,0.002678,0.000431,0.037491
5261000,0.0324,0.013523,0.002678,0.000431,0.038314
5262000,0.0324,0.013523,0.002678,0.000431,0.034201
5263000,0.0324,0.013523,0.002678,0.000431,0.037727
5264000,0.0324,0.013523,0.002678,0.000431,0.034553
5265000,0.0324,0.013523,0.002678,0.000431,0.039137
5266000,0.0324,0.013523,0.002678,0.000431,0.035611
5267000,0.0324,0.013523,0.002678,0.000431,0.037962
5268000,0.0324,0.013523,0.002678,0.000431,0.034436
5269000,0.0324,0.013523,0.002678,0.000431,0.037609
5270000,0.0324,0.013523,0.002678,0.000431,0.035729
5271000,0.0324,0.013523,0.002678,0.000431,0.039960
5272000,0.0324,0.013523,0.002678,0.000431,0.035494
5273000,0.0324,0.013523,0.002678,0.000431,0.037962
5274000,0.0324,0.013523,0.002678,0.000431,0.037374
5275000,0.0324,0.013523,0.002678,0.000431,0.037727
5276000,0.0324,0.013523,0.002678,0.000431,0.037844
5277000,0.0324,0.013523,0.002678,0.000431,0.038667
5278000,0.0324,0.013523,0.002678,0.000431,0.038197
5279000,0.0324,0.013523,0.002678,0.000431,0.035611
5280000,0.0324,0.013523,0.002678,0.000431,0.040547
5281000,0.0324,0.013523,0.002678,0.000431,0.034671
5282000,0.0324,0.013523,0.002678,0.000431,0.038432
5283000,0.0324,0.013523,0.002678,0.000431,0.035258
5284000,0.0324,0.013523,0.002678,0.000431,0.038079
5285000,0.0324,0.013523,0.002678,0.000431,0.035494
5286000,0.0324,0.013523,0.002678,0.000431,0.037962
5287000,0.0324,0.013523,0.002678,0.000431,0.036434
5288000,0.0324,0.013523,0.002678,0.000431,0.037374
5289000,0.0324,0.013523,0.002678,0.000431,0.036786
5290000,0.0324,0.013523,0.002678,0.000431,0.039725
5291000,0.0324,0.013523,0.002678,0.000431,0.036551
5292000,0.0324,0.013523,0.002678,0.000431,0.037256
5293000,0.0324,0.013523,0.002678,0.000431,0.037844
5294000,0.0324,0.013523,0.002678,0.000431,0.037139
5295000,0.0324,0.013523,0.002678,0.000431,0.036786
5296000,0.0324,0.013523,0.002678,0.000431,0.037609
5297000,0.0324,0.013523,0.002678,0.000431,0.035846
5298000,0.0324,0.013523,0.002678,0.000431,0.035376
5299000,0.0324,0.013523,0.002678,0.000431,0.036786
5300000,0.0324,0.013523,0.002678,0.000431,0.037374
5301000,0.0324,0.013523,0.002678,0.000431,0.035376
5302000,0.0324,0.013523,0.002678,0.000431,0.034788
5303000,0.0324,0.013523,0.002678,0.000431,0.038667
5304000,0.0324,0.013523,0.002678,0.000431,0.039372
5305000,0.0324,0.013523,0.002678,0.000431,0.036669
5306000,0.0324,0.013523,0.002678,0.000431,0.037021
5307000,0.0324,0.013523,0.002678,0.000431,0.036199
5308000,0.0324,0.013523,0.002678,0.000431,0.036904
5309000,0.0324,0.013523,0.002678,0.000431,0.037609
5310000,0.0324,0.013523,0.002678,0.000431,0.035258
5311000,0.0324,0.013523,0.002678,0.000431,0.037844
5312000,0.0324,0.013523,0.002678,0.000431,0.036316
5313000,0.0324,0.013523,0.002678,0.000431,0.037139
5314000,0.0324,0.013523,0.002678,0.000431,0.039725
5315000,0.0324,0.013523,0.002678,0.000431,0.036199
5316000,0.0324,0.013523,0.002678,0.000431,0.037021
5317000,0.0324,0.013523,0.002678,0.000431,0.036786
5318000,0.0324,0.013523,0.002678,0.000431,0.035964
5319000,0.0324,0.013523,0.002678,0.000431,0.036551
5320000,0.0324,0.013523,0.002678,0.000431,0.038197
5321000,0.0324,0.013523,0.002678,0.000431,0.036199
5322000,0.0324,0.013523,0.002678,0.000431,0.037021
5323000,0.0324,0.013523,0.002678,0.000431,0.038314
5324000,0.0324,0.013523,0.002678,0.000431,0.037609
5325000,0.0324,0.013523,0.002678,0.000431,0.037609
5326000,0.0324,0.013523,0.002678,0.000431,0.035258
5327000,0.0324,0.013523,0.002678,0.000431,0.037256
5328000,0.0324,0.013523,0.002678,0.000431,0.035376
5329000,0.0324,0.013523,0.002678,0.000431,0.037609
5330000,0.0324,0.013523,0.002678,0.000431,0.036434
5331000,0.0324,0.013523,0.002678,0.000431,0.037139
5332000,0.0324,0.013523,0.002678,0.000431,0.037139
5333000,0.0324,0.013523,0.002678,0.000431,0.037491
5334000,0.0324,0.013523,0.002678,0.000431,0.038079
5335000,0.0324,0.013523,0.002678,0.000431,0.036199
5336000,0.0324,0.013523,0.002678,0.000431,0.037021
5337000,0.0324,0.013523,0.002678,0.000431,0.038314
5338000,0.0324,0.013523,0.002678,0.000431,0.036786
5339000,0.0324,0.013523,0.002678,0.000431,0.037727
5340000,0.0324,0.013523,0.002678,0.000431,0.035376
5341000,0.0324,0.013523,0.002678,0.000431,0.036199
5342000,0.0324,0.013523,0.002678,0.000431,0.037021
5343000,0.0324,0.013523,0.002678,0.000431,0.036669
5344000,0.0324,0.013523,0.002678,0.000431,0.037256
5345000,0.0324,0.013523,0.002678,0.000431,0.036551
5346000,0.0324,0.013523,0.002678,0.000431,0.037256
5347000,0.0324,0.013523,0.002678,0.000431,0.036786
5348000,0.0324,0.013523,0.002678,0.000431,0.037727
5349000,0.0324,0.013523,0.002678,0.000431,0.037374
5350000,0.0324,0.013523,0.002678,0.000431,0.036551
5351000,0.0324,0.013523,0.002678,0.000431,0.036081
5352000,0.0324,0.013523,0.002678,0.000431,0.036199
5353000,0.0324,0.013523,0.002678,0.000431,0.037727
5354000,0.0324,0.013523,0.002678,0.000431,0.038667
5355000,0.0324,0.013523,0.002678,0.000431,0.035729
5356000,0.0324,0.013523,0.002678,0.000431,0.038314
5357000,0.0324,0.013523,0.002678,0.000431,0.038667
5358000,0.0324,0.013523,0.002678,0.000431,0.036904
5359000,0.0324,0.013523,0.002678,0.000431,0.037962
5360000,0.0324,0.013523,0.002678,0.000431,0.037844
5361000,0.0324,0.013523,0.002678,0.000431,0.037374
5362000,0.0324,0.013523,0.002678,0.000431,0.039019
5363000,0.0324,0.013523,0.002678,0.000431,0.035494
5364000,0.0324,0.013523,0.002678,0.000431,0.035376
5365000,0.0324,0.013523,0.002678,0.000431,0.037962
5366000,0.0324,0.013523,0.002678,0.000431,0.037021
5367000,0.0324,0.013523,0.002678,0.000431,0.038079
5368000,0.0324,0.013523,0.002678,0.000431,0.037021
5369000,0.0324,0.013523,0.002678,0.000431,0.036081
5370000,0.0324,0.013523,0.002678,0.000431,0.038784
5371000,0.0324,0.013523,0.002678,0.000431,0.039725
5372000,0.0324,0.013523,0.002678,0.000431,0.035376
5373000,0.0324,0.013523,0.002678,0.000431,0.035964
5374000,0.0324,0.013523,0.002678,0.000431,0.036669
5375000,0.0324,0.013523,0.002678,0.000431,0.037491
5376000,0.0324,0.013523,0.002678,0.000431,0.037491
5377000,0.0324,0.013523,0.002678,0.000431,0.038432
5378000,0.0324,0.013523,0.002678,0.000431,0.036081
5379000,0.0324,0.013523,0.002678,0.000431,0.037374
5380000,0.0324,0.013523,0.002678,0.000431,0.039489
5381000,0.0324,0.013523,0.002678,0.000431,0.037374
5382000,0.0324,0.013523,0.002678,0.000431,0.035141
5383000,0.0324,0.013523,0.002678,0.000431,0.036904
5384000,0.0324,0.013523,0.002678,0.000431,0.037021
5385000,0.0324,0.013523,0.002678,0.000431,0.038902
5386000,0.0324,0.013523,0.002678,0.000431,0.038079
5387000,0.0324,0.013523,0.002678,0.000431,0.035729
5388000,0.0324,0.013523,0.002678,0.000431,0.036316
5389000,0.0324,0.013523,0.002678,0.000431,0.038079
5390000,0.0324,0.013523,0.002678,0.000431,0.036669
5391000,0.0324,0.013523,0.002678,0.000431,0.038079
5392000,0.0324,0.013523,0.002678,0.000431,0.037727
5393000,0.0324,0.013523,0.002678,0.000431,0.036081
5394000,0.0324,0.013523,0.002678,0.000431,0.038079
5395000,0.0324,0.013523,0.002678,0.000431,0.037727
5396000,0.0324,0.013523,0.002678,0.000431,0.038197
5397000,0.0324,0.013523,0.002678,0.000431,0.035846
5398000,0.0324,0.013523,0.002678,0.000431,0.037727
5399000,0.0324,0.013523,0.002678,0.000431,0.036551
5400000,0.0324,0.013523,0.002678,0.000431,0.037374
5401000,0.0324,0.013523,0.002678,0.000431,0.037844
5402000,0.0324,0.013523,0.002678,0.000431,0.037021
5403000,0.0324,0.013523,0.002678,0.000431,0.036669
5404000,0.0324,0.013523,0.002678,0.000431,0.038667
5405000,0.0324,0.013523,0.002678,0.000431,0.038197
5406000,0.0324,0.013523,0.002678,0.000431,0.037374
5407000,0.0324,0.013523,0.002678,0.000431,0.036669
5408000,0.0324,0.013523,0.002678,0.000431,0.037844
5409000,0.0324,0.013523,0.002678,0.000431,0.034553
5410000,0.0324,0.013523,0.002678,0.000431,0.036786
5411000,0.0324,0.013523,0.002678,0.000431,0.037491
5412000,0.0324,0.013523,0.002678,0.000431,0.036316
5413000,0.0324,0.013523,0.002678,0.000431,0.034671
5414000,0.0324,0.013523,0.002678,0.000431,0.035729
5415000,0.0324,0.013523,0.002678,0.000431,0.038667
5416000,0.0324,0.013523,0.002678,0.000431,0.036669
5417000,0.0324,0.013523,0.002678,0.000431,0.038432
5418000,0.0324,0.013523,0.002678,0.000431,0.037609
5419000,0.0324,0.013523,0.002678,0.000431,0.036199
5420000,0.0324,0.013523,0.002678,0.000431,0.036786
5421000,0.0324,0.013523,0.002678,0.000431,0.038549
5422000,0.0324,0.013523,0.002678,0.000431,0.034906
5423000,0.0324,0.013523,0.002678,0.000431,0.036316
5424000,0.0324,0.013523,0.002678,0.000431,0.037256
5425000,0.0324,0.013523,0.002678,0.000431,0.035376
5426000,0.0324,0.013523,0.002678,0.000431,0.036199
5427000,0.0324,0.013523,0.002678,0.000431,0.035258
5428000,0.0324,0.013523,0.002678,0.000431,0.038197
5429000,0.0324,0.013523,0.002678,0.000431,0.036669
5430000,0.0324,0.013523,0.002678,0.000431,0.036199
5431000,0.0324,0.013523,0.002678,0.000431,0.037256
5432000,0.0324,0.013523,0.002678,0.000431,0.038079
5433000,0.0324,0.013523,0.002678,0.000431,0.035846
5434000,0.0324,0.013523,0.002678,0.000431,0.035964
5435000,0.0324,0.013523,0.002678,0.000431,0.037139
5436000,0.0324,0.013523,0.002678,0.000431,0.037844
5437000,0.0324,0.013523,0.002678,0.000431,0.034201
5438000,0.0324,0.013523,0.002678,0.000431,0.038079
5439000,0.0324,0.013523,0.002678,0.000431,0.036199
5440000,0.0324,0.013523,0.002678,0.000431,0.038079
5441000,0.0324,0.013523,0.002678,0.000431,0.036316
5442000,0.0324,0.013523,0.002678,0.000431,0.038784
5443000,0.0324,0.013523,0.002678,0.000431,0.035846
5444000,0.0324,0.013523,0.002678,0.000431,0.037491
5445000,0.0324,0.013523,0.002678,0.000431,0.036669
5446000,0.0324,0.013523,0.002678,0.000431,0.036081
5447000,0.0324,0.013523,0.002678,0.000431,0.035141
5448000,0.0324,0.013523,0.002678,0.000431,0.036669
5449000,0.0324,0.013523,0.002678,0.000431,0.036199
5450000,0.0324,0.013523,0.002678,0.000431,0.033848
5451000,0.0324,0.013523,0.002678,0.000431,0.037609
5452000,0.0324,0.013523,0.002678,0.000431,0.036199
5453000,0.0324,0.013523,0.002678,0.000431,0.035494
5454000,0.0324,0.013523,0.002678,0.000431,0.035023
5455000,0.0324,0.013523,0.002678,0.000431,0.036786
5456000,0.0324,0.013523,0.002678,0.000431,0.035494
5457000,0.0324,0.013523,0.002678,0.000431,0.037139
5458000,0.0324,0.013523,0.002678,0.000431,0.035258
5459000,0.0324,0.013523,0.002678,0.000431,0.034788
5460000,0.0324,0.013523,0.002678,0.000431,0.034318
5461000,0.0324,0.013523,0.002678,0.000431,0.037021
5462000,0.0324,0.013523,0.002678,0.000431,0.035376
5463000,0.0324,0.013523,0.002678,0.000431,0.034201
5464000,0.0324,0.013523,0.002678,0.000431,0.031850
5465000,0.0324,0.013523,0.002678,0.000431,0.038432
5466000,0.0324,0.013523,0.002678,0.000431,0.035729
5467000,0.0324,0.013523,0.002678,0.000431,0.036316
5468000,0.0324,0.013523,0.002678,0.000431,0.037374
5469000,0.0324,0.013523,0.002678,0.000431,0.033731
5470000,0.0324,0.013523,0.002678,0.000431,0.034906
5471000,0.0324,0.013523,0.002678,0.000431,0.036669
5472000,0.0324,0.013523,0.002678,0.000431,0.034553
5473000,0.0324,0.013523,0.002678,0.000431,0.036551
5474000,0.0324,0.013523,0.002678,0.000431,0.036904
5475000,0.0324,0.013523,0.002678,0.000431,0.036081
5476000,0.0324,0.013523,0.002678,0.000431,0.036316
5477000,0.0324,0.013523,0.002678,0.000431,0.034671
5478000,0.0324,0.013523,0.002678,0.000431,0.037021
5479000,0.0324,0.013523,0.002678,0.000431,0.036434
5480000,0.0324,0.013523,0.002678,0.000431,0.031850
5481000,0.0324,0.013523,0.002678,0.000431,0.035729
5482000,0.0324,0.013523,0.002678,0.000431,0.035376
5483000,0.0324,0.013523,0.002678,0.000431,0.031380
5484000,0.0324,0.013523,0.002678,0.000431,0.036316
5485000,0.0324,0.013523,0.002678,0.000431,0.032673
5486000,0.0324,0.013523,0.002678,0.000431,0.036669
5487000,0.0324,0.013523,0.002678,0.000431,0.034201
5488000,0.0324,0.013523,0.002678,0.000431,0.032908
5489000,0.0324,0.013523,0.002678,0.000431,0.036904
5490000,0.0324,0.013523,0.002678,0.000431,0.034318
5491000,0.0324,0.013523,0.002678,0.000431,0.034553
5492000,0.0324,0.013523,0.002678,0.000431,0.035023
5493000,0.0324,0.013523,0.002678,0.000431,0.033966
5494000,0.0324,0.013523,0.002678,0.000431,0.033025
5495000,0.0324,0.013523,0.002678,0.000431,0.035964
5496000,0.0324,0.013523,0.002678,0.000431,0.034553
5497000,0.0324,0.013523,0.002678,0.000431,0.034788
5498000,0.0324,0.013523,0.002678,0.000431,0.036786
5499000,0.0324,0.013523,0.002678,0.000431,0.035494
5500000,0.0324,0.013523,0.002678,0.000431,0.032320
5501000,0.0324,0.013523,0.002678,0.000431,0.035258
5502000,0.0324,0.013523,0.002678,0.000431,0.033731
5503000,0.0324,0.013523,0.002678,0.000431,0.032438
5504000,0.0324,0.013523,0.002678,0.000431,0.033613
5505000,0.0324,0.013523,0.002678,0.000431,0.035141
5506000,0.0324,0.013523,0.002678,0.000431,0.032555
5507000,0.0324,0.013523,0.002678,0.000431,0.035023
5508000,0.0324,0.013523,0.002678,0.000431,0.033025
5509000,0.0324,0.013523,0.002678,0.000431,0.033260
5510000,0.0324,0.013523,0.002678,0.000431,0.034788
5511000,0.0324,0.013523,0.002678,0.000431,0.034671
5512000,0.0324,0.013523,0.002678,0.000431,0.032203
5513000,0.0324,0.013523,0.002678,0.000431,0.034436
5514000,0.0324,0.013523,0.002678,0.000431,0.033496
5515000,0.0324,0.013523,0.002678,0.000431,0.033143
5516000,0.0324,0.013523,0.002678,0.000431,0.035611
5517000,0.0324,0.013523,0.002678,0.000431,0.034553
5518000,0.0324,0.013523,0.002678,0.000431,0.033966
5519000,0.0324,0.013523,0.002678,0.000431,0.034318
5520000,0.0324,0.013523,0.002678,0.000431,0.033496
5521000,0.0324,0.013523,0.002678,0.000431,0.034201
5522000,0.0324,0.013523,0.002678,0.000431,0.034906
5523000,0.0324,0.013523,0.002678,0.000431,0.032203
5524000,0.0324,0.013523,0.002678,0.000431,0.034671
5525000,0.0324,0.013523,0.002678,0.000431,0.033731
5526000,0.0324,0.013523,0.002678,0.000431,0.033496
5527000,0.0324,0.013523,0.002678,0.000431,0.032085
5528000,0.0324,0.013523,0.002678,0.000431,0.033025
5529000,0.0324,0.013523,0.002678,0.000431,0.030910
5530000,0.0324,0.013523,0.002678,0.000431,0.033143
5531000,0.0324,0.013523,0.002678,0.000431,0.033613
5532000,0.0324,0.013523,0.002678,0.000431,0.033143
5533000,0.0324,0.013523,0.002678,0.000431,0.032555
5534000,0.0324,0.013523,0.002678,0.000431,0.033613
5535000,0.0324,0.013523,0.002678,0.000431,0.033378
5536000,0.0324,0.013523,0.002678,0.000431,0.033143
5537000,0.0324,0.013523,0.002678,0.000431,0.033731
5538000,0.0324,0.013523,0.002678,0.000431,0.034083
5539000,0.0324,0.013523,0.002678,0.000431,0.033966
5540000,0.0324,0.013523,0.002678,0.000431,0.031615
5541000,0.0324,0.013523,0.002678,0.000431,0.034671
5542000,0.0324,0.013523,0.002678,0.000431,0.033966
5543000,0.0324,0.013523,0.002678,0.000431,0.033848
5544000,0.0324,0.013523,0.002678,0.000431,0.033613
5545000,0.0324,0.013523,0.002678,0.000431,0.034318
5546000,0.0324,0.013523,0.002678,0.000431,0.032790
5547000,0.0324,0.013523,0.002678,0.000431,0.034318
5548000,0.0324,0.013523,0.002678,0.000431,0.031850
5549000,0.0324,0.013523,0.002678,0.000431,0.033613
5550000,0.0324,0.013523,0.002678,0.000431,0.033260
5551000,0.0324,0.013523,0.002678,0.000431,0.033260
5552000,0.0324,0.013523,0.002678,0.000431,0.034318
5553000,0.0324,0.013523,0.002678,0.000431,0.031850
5554000,0.0324,0.013523,0.002678,0.000431,0.034083
5555000,0.0324,0.013523,0.002678,0.000431,0.035023
5556000,0.0324,0.013523,0.002678,0.000431,0.033848
5557000,0.0324,0.013523,0.002678,0.000431,0.032908
5558000,0.0324,0.013523,0.002678,0.000431,0.034436
5559000,0.0324,0.013523,0.002678,0.000431,0.033496
5560000,0.0324,0.013523,0.002678,0.000431,0.033731
5561000,0.0324,0.013523,0.002678,0.000431,0.034436
5562000,0.0324,0.013523,0.002678,0.000431,0.035964
5563000,0.0324,0.013523,0.002678,0.000431,0.032673
5564000,0.0324,0.013523,0.002678,0.000431,0.032673
5565000,0.0324,0.013523,0.002678,0.000431,0.034436
5566000,0.0324,0.013523,0.002678,0.000431,0.033025
5567000,0.0324,0.013523,0.002678,0.000431,0.034436
5568000,0.0324,0.013523,0.002678,0.000431,0.032438
5569000,0.0324,0.013523,0.002678,0.000431,0.035376
5570000,0.0324,0.013523,0.002678,0.000431,0.031498
5571000,0.0324,0.013523,0.002678,0.000431,0.035141
5572000,0.0324,0.013523,0.002678,0.000431,0.034083
5573000,0.0324,0.013523,0.002678,0.000431,0.032673
5574000,0.0324,0.013523,0.002678,0.000431,0.032555
5575000,0.0324,0.013523,0.002678,0.000431,0.034318
5576000,0.0324,0.013523,0.002678,0.000431,0.033025
5577000,0.0324,0.013523,0.002678,0.000431,0.033966
5578000,0.0324,0.013523,0.002678,0.000431,0.033731
5579000,0.0324,0.013523,0.002678,0.000431,0.032908
5580000,0.0324,0.013523,0.002678,0.000431,0.033143
5581000,0.0324,0.013523,0.002678,0.000431,0.034318
5582000,0.0324,0.013523,0.002678,0.000431,0.034201
5583000,0.0324,0.013523,0.002678,0.000431,0.032320
5584000,0.0324,0.013523,0.002678,0.000431,0.033613
5585000,0.0324,0.013523,0.002678,0.000431,0.033260
5586000,0.0324,0.013523,0.002678,0.000431,0.034201
5587000,0.0324,0.013523,0.002678,0.000431,0.034553
5588000,0.0324,0.013523,0.002678,0.000431,0.033496
5589000,0.0324,0.013523,0.002678,0.000431,0.033143
5590000,0.0324,0.013523,0.002678,0.000431,0.034671
5591000,0.0324,0.013523,0.002678,0.000431,0.033848
5592000,0.0324,0.013523,0.002678,0.000431,0.034318
5593000,0.0324,0.013523,0.002678,0.000431,0.034436
5594000,0.0324,0.013523,0.002678,0.000431,0.034083
5595000,0.0324,0.013523,0.002678,0.000431,0.032438
5596000,0.0324,0.013523,0.002678,0.000431,0.035376
5597000,0.0324,0.013523,0.002678,0.000431,0.032203
5598000,0.0324,0.013523,0.002678,0.000431,0.033613
5599000,0.0324,0.013523,0.002678,0.000431,0.033260
5600000,0.0324,0.013523,0.002678,0.000431,0.031968
5601000,0.0324,0.013523,0.002678,0.000431,0.033496
5602000,0.0324,0.013523,0.002678,0.000431,0.033260
5603000,0.0324,0.013523,0.002678,0.000431,0.033496
5604000,0.0324,0.013523,0.002678,0.000431,0.033731
5605000,0.0324,0.013523,0.002678,0.000431,0.034318
5606000,0.0324,0.013523,0.002678,0.000431,0.032790
5607000,0.0324,0.013523,0.002678,0.000431,0.033848
5608000,0.0324,0.013523,0.002678,0.000431,0.033731
5609000,0.0324,0.013523,0.002678,0.000431,0.033260
5610000,0.0324,0.013523,0.002678,0.000431,0.033143
5611000,0.0324,0.013523,0.002678,0.000431,0.035494
5612000,0.0324,0.013523,0.002678,0.000431,0.034671
5613000,0.0324,0.013523,0.002678,0.000431,0.033025
5614000,0.0324,0.013523,0.002678,0.000431,0.034553
5615000,0.0324,0.013523,0.002678,0.000431,0.034083
5616000,0.0324,0.013523,0.002678,0.000431,0.033613
5617000,0.0324,0.013523,0.002678,0.000431,0.030910
5618000,0.0324,0.013523,0.002678,0.000431,0.034906
5619000,0.0324,0.013523,0.002678,0.000431,0.035023
5620000,0.0324,0.013523,0.002678,0.000431,0.033025
5621000,0.0324,0.013523,0.002678,0.000431,0.034083
5622000,0.0324,0.013523,0.002678,0.000431,0.035258
5623000,0.0324,0.013523,0.002678,0.000431,0.031262
5624000,0.0324,0.013523,0.002678,0.000431,0.033260
5625000,0.0324,0.013523,0.002678,0.000431,0.033613
5626000,0.0324,0.013523,0.002678,0.000431,0.034671
5627000,0.0324,0.013523,0.002678,0.000431,0.034201
5628000,0.0324,0.013523,0.002678,0.000431,0.034201
5629000,0.0324,0.013523,0.002678,0.000431,0.032555
5630000,0.0324,0.013523,0.002678,0.000431,0.033966
5631000,0.0324,0.013523,0.002678,0.000431,0.036551
5632000,0.0324,0.013523,0.002678,0.000431,0.033966
5633000,0.0324,0.013523,0.002678,0.000431,0.032908
5634000,0.0324,0.013523,0.002678,0.000431,0.034553
5635000,0.0324,0.013523,0.002678,0.000431,0.032085
5636000,0.0324,0.013523,0.002678,0.000431,0.033966
5637000,0.0324,0.013523,0.002678,0.000431,0.034436
5638000,0.0324,0.013523,0.002678,0.000431,0.033966
5639000,0.0324,0.013523,0.002678,0.000431,0.033613
5640000,0.0324,0.013523,0.002678,0.000431,0.031968
5641000,0.0324,0.013523,0.002678,0.000431,0.033143
5642000,0.0324,0.013523,0.002678,0.000431,0.034436
5643000,0.0324,0.013523,0.002678,0.000431,0.032438
5644000,0.0324,0.013523,0.002678,0.000431,0.033378
5645000,0.0324,0.013523,0.002678,0.000431,0.033731
5646000,0.0324,0.013523,0.002678,0.000431,0.033966
5647000,0.0324,0.013523,0.002678,0.000431,0.033496
5648000,0.0324,0.013523,0.002678,0.000431,0.034906
5649000,0.0324,0.013523,0.002678,0.000431,0.032438
5650000,0.0324,0.013523,0.002678,0.000431,0.035729
5651000,0.0324,0.013523,0.002678,0.000431,0.033260
5652000,0.0324,0.013523,0.002678,0.000431,0.033848
5653000,0.0324,0.013523,0.002678,0.000431,0.033260
5654000,0.0324,0.013523,0.002678,0.000431,0.032555
5655000,0.0324,0.013523,0.002678,0.000431,0.034788
5656000,0.0324,0.013523,0.002678,0.000431,0.033143
5657000,0.0324,0.013523,0.002678,0.000431,0.033966
5658000,0.0324,0.013523,0.002678,0.000431,0.032555
5659000,0.0324,0.013523,0.002678,0.000431,0.035023
5660000,0.0324,0.013523,0.002678,0.000431,0.034083
5661000,0.0324,0.013523,0.002678,0.000431,0.032908
5662000,0.0324,0.013523,0.002678,0.000431,0.032555
5663000,0.0324,0.013523,0.002678,0.000431,0.033025
5664000,0.0324,0.013523,0.002678,0.000431,0.034553
5665000,0.0324,0.013523,0.002678,0.000431,0.033848
5666000,0.0324,0.013523,0.002678,0.000431,0.033731
5667000,0.0324,0.013523,0.002678,0.000431,0.034201
5668000,0.0324,0.013523,0.002678,0.000431,0.034906
5669000,0.0324,0.013523,0.002678,0.000431,0.035258
5670000,0.0324,0.013523,0.002678,0.000431,0.032555
5671000,0.0324,0.013523,0.002678,0.000431,0.031380
5672000,0.0324,0.013523,0.002678,0.000431,0.036199
5673000,0.0324,0.013523,0.002678,0.000431,0.033260
5674000,0.0324,0.013523,0.002678,0.000431,0.033378
5675000,0.0324,0.013523,0.002678,0.000431,0.033966
5676000,0.0324,0.013523,0.002678,0.000431,0.035611
5677000,0.0324,0.013523,0.002678,0.000431,0.032908
5678000,0.0324,0.013523,0.002678,0.000431,0.033025
5679000,0.0324,0.013523,0.002678,0.000431,0.034083
5680000,0.0324,0.013523,0.002678,0.000431,0.034318
5681000,0.0324,0.013523,0.002678,0.000431,0.031380
5682000,0.0324,0.013523,0.002678,0.000431,0.034553
5683000,0.0324,0.013523,0.002678,0.000431,0.033848
5684000,0.0324,0.013523,0.002678,0.000431,0.034788
5685000,0.0324,0.013523,0.002678,0.000431,0.032203
5686000,0.0324,0.013523,0.002678,0.000431,0.034436
5687000,0.0324,0.013523,0.002678,0.000431,0.033143
5688000,0.0324,0.013523,0.002678,0.000431,0.033613
5689000,0.0324,0.013523,0.002678,0.000431,0.033260
5690000,0.0324,0.013523,0.002678,0.000431,0.034436
5691000,0.0324,0.013523,0.002678,0.000431,0.031850
5692000,0.0324,0.013523,0.002678,0.000431,0.034553
5693000,0.0324,0.013523,0.002678,0.000431,0.031968
5694000,0.0324,0.013523,0.002678,0.000431,0.032790
5695000,0.0324,0.013523,0.002678,0.000431,0.031145
5696000,0.0324,0.013523,0.002678,0.000431,0.031968
5697000,0.0324,0.013523,0.002678,0.000431,0.033731
5698000,0.0324,0.013523,0.002678,0.000431,0.031968
5699000,0.0324,0.013523,0.002678,0.000431,0.033731
5700000,0.0324,0.013523,0.002678,0.000431,0.032908
5701000,0.0324,0.013523,0.002678,0.000431,0.033143
5702000,0.0324,0.013523,0.002678,0.000431,0.034318
5703000,0.0324,0.013523,0.002678,0.000431,0.033613
5704000,0.0324,0.013523,0.002678,0.000431,0.031498
5705000,0.0324,0.013523,0.002678,0.000431,0.034553
5706000,0.0324,0.013523,0.002678,0.000431,0.033613
5707000,0.0324,0.013523,0.002678,0.000431,0.034201
5708000,0.0324,0.013523,0.002678,0.000431,0.031968
5709000,0.0324,0.013523,0.002678,0.000431,0.033143
5710000,0.0324,0.013523,0.002678,0.000431,0.031145
5711000,0.0324,0.013523,0.002678,0.000431,0.032790
5712000,0.0324,0.013523,0.002678,0.000431,0.033848
5713000,0.0324,0.013523,0.002678,0.000431,0.033378
5714000,0.0324,0.013523,0.002678,0.000431,0.033143
5715000,0.0324,0.013523,0.002678,0.000431,0.031968
5716000,0.0324,0.013523,0.002678,0.000431,0.033260
5717000,0.0324,0.013523,0.002678,0.000431,0.030322
5718000,0.0324,0.013523,0.002678,0.000431,0.032555
5719000,0.0324,0.013523,0.002678,0.000431,0.029852
5720000,0.0324,0.013523,0.002678,0.000431,0.032555
5721000,0.0324,0.013523,0.002678,0.000431,0.031145
5722000,0.0324,0.013523,0.002678,0.000431,0.035376
5723000,0.0324,0.013523,0.002678,0.000431,0.029500
5724000,0.0324,0.013523,0.002678,0.000431,0.033143
5725000,0.0324,0.013523,0.002678,0.000431,0.030557
5726000,0.0324,0.013523,0.002678,0.000431,0.032438
5727000,0.0324,0.013523,0.002678,0.000431,0.032555
5728000,0.0324,0.013523,0.002678,0.000431,0.031733
5729000,0.0324,0.013523,0.002678,0.000431,0.032320
5730000,0.0324,0.013523,0.002678,0.000431,0.032790
5731000,0.0324,0.013523,0.002678,0.000431,0.030087
5732000,0.0324,0.013523,0.002678,0.000431,0.032203
5733000,0.0324,0.013523,0.002678,0.000431,0.032203
5734000,0.0324,0.013523,0.002678,0.000431,0.031850
5735000,0.0324,0.013523,0.002678,0.000431,0.031850
5736000,0.0324,0.013523,0.002678,0.000431,0.033025
5737000,0.0324,0.013523,0.002678,0.000431,0.033143
5738000,0.0324,0.013523,0.002678,0.000431,0.031850
5739000,0.0324,0.013523,0.002678,0.000431,0.031262
5740000,0.0324,0.013523,0.002678,0.000431,0.032203
5741000,0.0324,0.013523,0.002678,0.000431,0.033378
5742000,0.0324,0.013523,0.002678,0.000431,0.030557
5743000,0.0324,0.013523,0.002678,0.000431,0.033731
5744000,0.0324,0.013523,0.002678,0.000431,0.033378
5745000,0.0324,0.013523,0.002678,0.000431,0.032320
5746000,0.0324,0.013523,0.002678,0.000431,0.031262
5747000,0.0324,0.013523,0.002678,0.000431,0.031968
5748000,0.0324,0.013523,0.002678,0.000431,0.031027
5749000,0.0324,0.013523,0.002678,0.000431,0.032438
5750000,0.0324,0.013523,0.002678,0.000431,0.030792
5751000,0.0324,0.013523,0.002678,0.000431,0.031498
5752000,0.0324,0.013523,0.002678,0.000431,0.031262
5753000,0.0324,0.013523,0.002678,0.000431,0.032908
5754000,0.0324,0.013523,0.002678,0.000431,0.028794
5755000,0.0324,0.013523,0.002678,0.000431,0.031380
5756000,0.0324,0.013523,0.002678,0.000431,0.030087
5757000,0.0324,0.013523,0.002678,0.000431,0.031968
5758000,0.0324,0.013523,0.002678,0.000431,0.027972
5759000,0.0324,0.013523,0.002678,0.000431,0.031027
5760000,0.0324,0.013523,0.002678,0.000431,0.029735
5761000,0.0324,0.013523,0.002678,0.000431,0.029147
5762000,0.0324,0.013523,0.002678,0.000431,0.030557
5763000,0.0324,0.013523,0.002678,0.000431,0.030440
5764000,0.0324,0.013523,0.002678,0.000431,0.029265
5765000,0.0324,0.013523,0.002678,0.000431,0.029265
5766000,0.0324,0.013523,0.002678,0.000431,0.033848
5767000,0.0324,0.013523,0.002678,0.000431,0.027854
5768000,0.0324,0.013523,0.002678,0.000431,0.030087
5769000,0.0324,0.013523,0.002678,0.000431,0.029265
5770000,0.0324,0.013523,0.002678,0.000431,0.030322
5771000,0.0324,0.013523,0.002678,0.000431,0.028794
5772000,0.0324,0.013523,0.002678,0.000431,0.030675
5773000,0.0324,0.013523,0.002678,0.000431,0.029382
5774000,0.0324,0.013523,0.002678,0.000431,0.032438
5775000,0.0324,0.013523,0.002678,0.000431,0.029147
5776000,0.0324,0.013523,0.002678,0.000431,0.031027
5777000,0.0324,0.013523,0.002678,0.000431,0.029970
5778000,0.0324,0.013523,0.002678,0.000431,0.029735
5779000,0.0324,0.013523,0.002678,0.000431,0.029970
5780000,0.0324,0.013523,0.002678,0.000431,0.028559
5781000,0.0324,0.013523,0.002678,0.000431,0.028794
5782000,0.0324,0.013523,0.002678,0.000431,0.029500
5783000,0.0324,0.013523,0.002678,0.000431,0.029617
5784000,0.0324,0.013523,0.002678,0.000431,0.030087
5785000,0.0324,0.013523,0.002678,0.000431,0.029029
5786000,0.0324,0.013523,0.002678,0.000431,0.028089
5787000,0.0324,0.013523,0.002678,0.000431,0.033260
5788000,0.0324,0.013523,0.002678,0.000431,0.030205
5789000,0.0324,0.013523,0.002678,0.000431,0.027619
5790000,0.0324,0.013523,0.002678,0.000431,0.029500
5791000,0.0324,0.013523,0.002678,0.000431,0.029382
5792000,0.0324,0.013523,0.002678,0.000431,0.028677
5793000,0.0324,0.013523,0.002678,0.000431,0.030087
5794000,0.0324,0.013523,0.002678,0.000431,0.028912
5795000,0.0324,0.013523,0.002678,0.000431,0.027267
5796000,0.0324,0.013523,0.002678,0.000431,0.030087
5797000,0.0324,0.013523,0.002678,0.000431,0.029617
5798000,0.0324,0.013523,0.002678,0.000431,0.029147
5799000,0.0324,0.013523,0.002678,0.000431,0.029500
5800000,0.0324,0.013523,0.002678,0.000431,0.027502
5801000,0.0324,0.013523,0.002678,0.000431,0.032555
5802000,0.0324,0.013523,0.002678,0.000431,0.030322
5803000,0.0324,0.013523,0.002678,0.000431,0.030205
5804000,0.0324,0.013523,0.002678,0.000431,0.029382
5805000,0.0324,0.013523,0.002678,0.000431,0.030557
5806000,0.0324,0.013523,0.002678,0.000431,0.029970
5807000,0.0324,0.013523,0.002678,0.000431,0.029852
5808000,0.0324,0.013523,0.002678,0.000431,0.027854
5809000,0.0324,0.013523,0.002678,0.000431,0.030557
5810000,0.0324,0.013523,0.002678,0.000431,0.030557
5811000,0.0324,0.013523,0.002678,0.000431,0.030792
5812000,0.0324,0.013523,0.002678,0.000431,0.028912
5813000,0.0324,0.013523,0.002678,0.000431,0.028207
5814000,0.0324,0.013523,0.002678,0.000431,0.031615
5815000,0.0324,0.013523,0.002678,0.000431,0.029500
5816000,0.0324,0.013523,0.002678,0.000431,0.032203
5817000,0.0324,0.013523,0.002678,0.000431,0.028677
5818000,0.0324,0.013523,0.002678,0.000431,0.029852
5819000,0.0324,0.013523,0.002678,0.000431,0.028559
5820000,0.0324,0.013523,0.002678,0.000431,0.029852
5821000,0.0324,0.013523,0.002678,0.000431,0.031615
5822000,0.0324,0.013523,0.002678,0.000431,0.028324
5823000,0.0324,0.013523,0.002678,0.000431,0.028794
5824000,0.0324,0.013523,0.002678,0.000431,0.027854
5825000,0.0324,0.013523,0.002678,0.000431,0.028794
5826000,0.0324,0.013523,0.002678,0.000431,0.029265
5827000,0.0324,0.013523,0.002678,0.000431,0.029617
5828000,0.0324,0.013523,0.002678,0.000431,0.028207
5829000,0.0324,0.013523,0.002678,0.000431,0.029617
5830000,0.0324,0.013523,0.002678,0.000431,0.030205
5831000,0.0324,0.013523,0.002678,0.000431,0.029617
5832000,0.0324,0.013523,0.002678,0.000431,0.028442
5833000,0.0324,0.013523,0.002678,0.000431,0.028207
5834000,0.0324,0.013523,0.002678,0.000431,0.029970
5835000,0.0324,0.013523,0.002678,0.000431,0.029265
5836000,0.0324,0.013523,0.002678,0.000431,0.029147
5837000,0.0324,0.013523,0.002678,0.000431,0.026679
5838000,0.0324,0.013523,0.002678,0.000431,0.027737
5839000,0.0324,0.013523,0.002678,0.000431,0.029500
5840000,0.0324,0.013523,0.002678,0.000431,0.030087
5841000,0.0324,0.013523,0.002678,0.000431,0.030087
5842000,0.0324,0.013523,0.002678,0.000431,0.026914
5843000,0.0324,0.013523,0.002678,0.000431,0.031145
5844000,0.0324,0.013523,0.002678,0.000431,0.029617
5845000,0.0324,0.013523,0.002678,0.000431,0.028794
5846000,0.0324,0.013523,0.002678,0.000431,0.029500
5847000,0.0324,0.013523,0.002678,0.000431,0.028912
5848000,0.0324,0.013523,0.002678,0.000431,0.027737
5849000,0.0324,0.013523,0.002678,0.000431,0.029382
5850000,0.0324,0.013523,0.002678,0.000431,0.029617
5851000,0.0324,0.013523,0.002678,0.000431,0.029735
5852000,0.0324,0.013523,0.002678,0.000431,0.029147
5853000,0.0324,0.013523,0.002678,0.000431,0.028912
5854000,0.0324,0.013523,0.002678,0.000431,0.028912
5855000,0.0324,0.013523,0.002678,0.000431,0.029029
5856000,0.0324,0.013523,0.002678,0.000431,0.029265
5857000,0.0324,0.013523,0.002678,0.000431,0.029265
5858000,0.0324,0.013523,0.002678,0.000431,0.028089
5859000,0.0324,0.013523,0.002678,0.000431,0.029735
5860000,0.0324,0.013523,0.002678,0.000431,0.027972
5861000,0.0324,0.013523,0.002678,0.000431,0.030205
5862000,0.0324,0.013523,0.002678,0.000431,0.028912
5863000,0.0324,0.013523,0.002678,0.000431,0.029029
5864000,0.0324,0.013523,0.002678,0.000431,0.027854
5865000,0.0324,0.013523,0.002678,0.000431,0.029147
5866000,0.0324,0.013523,0.002678,0.000431,0.029500
5867000,0.0324,0.013523,0.002678,0.000431,0.029617
5868000,0.0324,0.013523,0.002678,0.000431,0.028442
5869000,0.0324,0.013523,0.002678,0.000431,0.028794
5870000,0.0324,0.013523,0.002678,0.000431,0.027854
5871000,0.0324,0.013523,0.002678,0.000431,0.031262
5872000,0.0324,0.013523,0.002678,0.000431,0.028794
5873000,0.0324,0.013523,0.002678,0.000431,0.028677
5874000,0.0324,0.013523,0.002678,0.000431,0.030557
5875000,0.0324,0.013523,0.002678,0.000431,0.029970
5876000,0.0324,0.013523,0.002678,0.000431,0.028912
5877000,0.0324,0.013523,0.002678,0.000431,0.029265
5878000,0.0324,0.013523,0.002678,0.000431,0.028089
5879000,0.0324,0.013523,0.002678,0.000431,0.027619
5880000,0.0324,0.013523,0.002678,0.000431,0.027149
5881000,0.0324,0.013523,0.002678,0.000431,0.027267
5882000,0.0324,0.013523,0.002678,0.000431,0.027619
5883000,0.0324,0.013523,0.002678,0.000431,0.029029
5884000,0.0324,0.013523,0.002678,0.000431,0.027149
5885000,0.0324,0.013523,0.002678,0.000431,0.027972
5886000,0.0324,0.013523,0.002678,0.000431,0.028324
5887000,0.0324,0.013523,0.002678,0.000431,0.029500
5888000,0.0324,0.013523,0.002678,0.000431,0.028559
5889000,0.0324,0.013523,0.002678,0.000431,0.027031
5890000,0.0324,0.013523,0.002678,0.000431,0.028442
5891000,0.0324,0.013523,0.002678,0.000431,0.028559
5892000,0.0324,0.013523,0.002678,0.000431,0.029029
5893000,0.0324,0.013523,0.002678,0.000431,0.027854
5894000,0.0324,0.013523,0.002678,0.000431,0.028089
5895000,0.0324,0.013523,0.002678,0.000431,0.028324
5896000,0.0324,0.013523,0.002678,0.000431,0.028794
5897000,0.0324,0.013523,0.002678,0.000431,0.028207
5898000,0.0324,0.013523,0.002678,0.000431,0.028677
5899000,0.0324,0.013523,0.002678,0.000431,0.029265
5900000,0.0324,0.013523,0.002678,0.000431,0.028207
5901000,0.0324,0.013523,0.002678,0.000431,0.029970
5902000,0.0324,0.013523,0.002678,0.000431,0.027031
5903000,0.0324,0.013523,0.002678,0.000431,0.027149
5904000,0.0324,0.013523,0.002678,0.000431,0.028677
5905000,0.0324,0.013523,0.002678,0.000431,0.028324
5906000,0.0324,0.013523,0.002678,0.000431,0.029500
5907000,0.0324,0.013523,0.002678,0.000431,0.028677
5908000,0.0324,0.013523,0.002678,0.000431,0.027737
5909000,0.0324,0.013523,0.002678,0.000431,0.028442
5910000,0.0324,0.013523,0.002678,0.000431,0.028442
5911000,0.0324,0.013523,0.002678,0.000431,0.031380
5912000,0.0324,0.013523,0.002678,0.000431,0.026796
5913000,0.0324,0.013523,0.002678,0.000431,0.028442
5914000,0.0324,0.013523,0.002678,0.000431,0.027972
5915000,0.0324,0.013523,0.002678,0.000431,0.028442
5916000,0.0324,0.013523,0.002678,0.000431,0.028677
5917000,0.0324,0.013523,0.002678,0.000431,0.028442
5918000,0.0324,0.013523,0.002678,0.000431,0.027972
5919000,0.0324,0.013523,0.002678,0.000431,0.026679
5920000,0.0324,0.013523,0.002678,0.000431,0.029147
5921000,0.0324,0.013523,0.002678,0.000431,0.029265
5922000,0.0324,0.013523,0.002678,0.000431,0.028207
5923000,0.0324,0.013523,0.002678,0.000431,0.026444
5924000,0.0324,0.013523,0.002678,0.000431,0.029852
5925000,0.0324,0.013523,0.002678,0.000431,0.027972
5926000,0.0324,0.013523,0.002678,0.000431,0.027619
5927000,0.0324,0.013523,0.002678,0.000431,0.028207
5928000,0.0324,0.013523,0.002678,0.000431,0.027384
5929000,0.0324,0.013523,0.002678,0.000431,0.026679
5930000,0.0324,0.013523,0.002678,0.000431,0.029147
5931000,0.0324,0.013523,0.002678,0.000431,0.025739
5932000,0.0324,0.013523,0.002678,0.000431,0.029265
5933000,0.0324,0.013523,0.002678,0.000431,0.027502
5934000,0.0324,0.013523,0.002678,0.000431,0.026561
5935000,0.0324,0.013523,0.002678,0.000431,0.025034
5936000,0.0324,0.013523,0.002678,0.000431,0.028559
5937000,0.0324,0.013523,0.002678,0.000431,0.027737
5938000,0.0324,0.013523,0.002678,0.000431,0.026679
5939000,0.0324,0.013523,0.002678,0.000431,0.027619
5940000,0.0324,0.013523,0.002678,0.000431,0.026091
5941000,0.0324,0.013523,0.002678,0.000431,0.027031
5942000,0.0324,0.013523,0.002678,0.000431,0.029735
5943000,0.0324,0.013523,0.002678,0.000431,0.026209
5944000,0.0324,0.013523,0.002678,0.000431,0.028207
5945000,0.0324,0.013523,0.002678,0.000431,0.027972
5946000,0.0324,0.013523,0.002678,0.000431,0.027737
5947000,0.0324,0.013523,0.002678,0.000431,0.029147
5948000,0.0324,0.013523,0.002678,0.000431,0.029265
5949000,0.0324,0.013523,0.002678,0.000431,0.030087
5950000,0.0324,0.013523,0.002678,0.000431,0.025621
5951000,0.0324,0.013523,0.002678,0.000431,0.027854
5952000,0.0324,0.013523,0.002678,0.000431,0.027149
5953000,0.0324,0.013523,0.002678,0.000431,0.027737
5954000,0.0324,0.013523,0.002678,0.000431,0.026326
5955000,0.0324,0.013523,0.002678,0.000431,0.028324
5956000,0.0324,0.013523,0.002678,0.000431,0.028324
5957000,0.0324,0.013523,0.002678,0.000431,0.029265
5958000,0.0324,0.013523,0.002678,0.000431,0.026444
5959000,0.0324,0.013523,0.002678,0.000431,0.028089
5960000,0.0324,0.013523,0.002678,0.000431,0.027031
5961000,0.0324,0.013523,0.002678,0.000431,0.027267
5962000,0.0324,0.013523,0.002678,0.000431,0.029029
5963000,0.0324,0.013523,0.002678,0.000431,0.027619
5964000,0.0324,0.013523,0.002678,0.000431,0.026679
5965000,0.0324,0.013523,0.002678,0.000431,0.027737
5966000,0.0324,0.013523,0.002678,0.000431,0.027854
5967000,0.0324,0.013523,0.002678,0.000431,0.028442
5968000,0.0324,0.013523,0.002678,0.000431,0.027384
5969000,0.0324,0.013523,0.002678,0.000431,0.027619
5970000,0.0324,0.013523,0.002678,0.000431,0.028442
5971000,0.0324,0.013523,0.002678,0.000431,0.025739
5972000,0.0324,0.013523,0.002678,0.000431,0.028207
5973000,0.0324,0.013523,0.002678,0.000431,0.027619
5974000,0.0324,0.013523,0.002678,0.000431,0.027972
5975000,0.0324,0.013523,0.002678,0.000431,0.026209
5976000,0.0324,0.013523,0.002678,0.000431,0.028324
5977000,0.0324,0.013523,0.002678,0.000431,0.027384
5978000,0.0324,0.013523,0.002678,0.000431,0.028089
5979000,0.0324,0.013523,0.002678,0.000431,0.026326
5980000,0.0324,0.013523,0.002678,0.000431,0.026796
5981000,0.0324,0.013523,0.002678,0.000431,0.027149
5982000,0.0324,0.013523,0.002678,0.000431,0.029265
5983000,0.0324,0.013523,0.002678,0.000431,0.027031
5984000,0.0324,0.013523,0.002678,0.000431,0.026444
5985000,0.0324,0.013523,0.002678,0.000431,0.026326
5986000,0.0324,0.013523,0.002678,0.000431,0.027972
5987000,0.0324,0.013523,0.002678,0.000431,0.027972
5988000,0.0324,0.013523,0.002678,0.000431,0.026679
5989000,0.0324,0.013523,0.002678,0.000431,0.028677
5990000,0.0324,0.013523,0.002678,0.000431,0.027267
5991000,0.0324,0.013523,0.002678,0.000431,0.027737
5992000,0.0324,0.013523,0.002678,0.000431,0.027149
5993000,0.0324,0.013523,0.002678,0.000431,0.027619
5994000,0.0324,0.013523,0.002678,0.000431,0.025856
5995000,0.0324,0.013523,0.002678,0.000431,0.028559
5996000,0.0324,0.013523,0.002678,0.000431,0.028207
5997000,0.0324,0.013523,0.002678,0.000431,0.028442
5998000,0.0324,0.013523,0.002678,0.000431,0.028324
5999000,0.0324,0.013523,0.002678,0.000431,0.026679
