Cycle,Area(mm^2),PeakDynamic(W),SubthresholdLeakage(W),GateLeakage(W),RunTimeDynamic(W)
4000000,0.0324,0.013523,0.002678,0.000431,1.129563
4001000,0.0324,0.013523,0.002678,0.000431,1.056226
4002000,0.0324,0.013523,0.002678,0.000431,1.138848
4003000,0.0324,0.013523,0.002678,0.000431,1.288814
4004000,0.0324,0.013523,0.002678,0.000431,1.199258
4005000,0.0324,0.013523,0.002678,0.000431,1.268952
4006000,0.0324,0.013523,0.002678,0.000431,1.297394
4007000,0.0324,0.013523,0.002678,0.000431,1.245799
4008000,0.0324,0.013523,0.002678,0.000431,1.356510
4009000,0.0324,0.013523,0.002678,0.000431,1.278119
4010000,0.0324,0.013523,0.002678,0.000431,1.420328
4011000,0.0324,0.013523,0.002678,0.000431,1.256729
4012000,0.0324,0.013523,0.002678,0.000431,1.378606
4013000,0.0324,0.013523,0.002678,0.000431,1.429143
4014000,0.0324,0.013523,0.002678,0.000431,1.206074
4015000,0.0324,0.013523,0.002678,0.000431,1.195027
4016000,0.0324,0.013523,0.002678,0.000431,1.410456
4017000,0.0324,0.013523,0.002678,0.000431,1.366970
4018000,0.0324,0.013523,0.002678,0.000431,1.256376
4019000,0.0324,0.013523,0.002678,0.000431,1.221941
4020000,0.0324,0.013523,0.002678,0.000431,1.345110
4021000,0.0324,0.013523,0.002678,0.000431,1.346168
4022000,0.0324,0.013523,0.002678,0.000431,1.330772
4023000,0.0324,0.013523,0.002678,0.000431,1.475919
4024000,0.0324,0.013523,0.002678,0.000431,1.439015
4025000,0.0324,0.013523,0.002678,0.000431,1.403051
4026000,0.0324,0.013523,0.002678,0.000431,1.422091
4027000,0.0324,0.013523,0.002678,0.000431,1.344052
4028000,0.0324,0.013523,0.002678,0.000431,1.416332
4029000,0.0324,0.013523,0.002678,0.000431,1.419153
4030000,0.0324,0.013523,0.002678,0.000431,1.288109
4031000,0.0324,0.013523,0.002678,0.000431,1.321369
4032000,0.0324,0.013523,0.002678,0.000431,1.409751
4033000,0.0324,0.013523,0.002678,0.000431,1.318666
4034000,0.0324,0.013523,0.002678,0.000431,1.317961
4035000,0.0324,0.013523,0.002678,0.000431,1.287991
4036000,0.0324,0.013523,0.002678,0.000431,1.368146
4037000,0.0324,0.013523,0.002678,0.000431,1.341114
4038000,0.0324,0.013523,0.002678,0.000431,1.253438
4039000,0.0324,0.013523,0.002678,0.000431,1.354982
4040000,0.0324,0.013523,0.002678,0.000431,1.376843
4041000,0.0324,0.013523,0.002678,0.000431,1.410456
4042000,0.0324,0.013523,0.002678,0.000431,1.442188
4043000,0.0324,0.013523,0.002678,0.000431,1.366030
4044000,0.0324,0.013523,0.002678,0.000431,1.302565
4045000,0.0324,0.013523,0.002678,0.000431,1.301860
4046000,0.0324,0.013523,0.002678,0.000431,1.272243
4047000,0.0324,0.013523,0.002678,0.000431,1.194792
4048000,0.0324,0.013523,0.002678,0.000431,1.090309
4049000,0.0324,0.013523,0.002678,0.000431,1.130739
4050000,0.0324,0.013523,0.002678,0.000431,1.033073
4051000,0.0324,0.013523,0.002678,0.000431,1.177162
4052000,0.0324,0.013523,0.002678,0.000431,1.107821
4053000,0.0324,0.013523,0.002678,0.000431,1.075383
4054000,0.0324,0.013523,0.002678,0.000431,1.147545
4055000,0.0324,0.013523,0.002678,0.000431,1.064335
4056000,0.0324,0.013523,0.002678,0.000431,1.122629
4057000,0.0324,0.013523,0.002678,0.000431,1.081729
4058000,0.0324,0.013523,0.002678,0.000431,1.193851
4059000,0.0324,0.013523,0.002678,0.000431,1.210188
4060000,0.0324,0.013523,0.002678,0.000431,1.188680
4061000,0.0324,0.013523,0.002678,0.000431,1.219825
4062000,0.0324,0.013523,0.002678,0.000431,1.314200
4063000,0.0324,0.013523,0.002678,0.000431,1.273065
4064000,0.0324,0.013523,0.002678,0.000431,1.222058
4065000,0.0324,0.013523,0.002678,0.000431,1.286346
4066000,0.0324,0.013523,0.002678,0.000431,1.314083
4067000,0.0324,0.013523,0.002678,0.000431,1.234751
4068000,0.0324,0.013523,0.002678,0.000431,1.193499
4069000,0.0324,0.013523,0.002678,0.000431,1.158710
4070000,0.0324,0.013523,0.002678,0.000431,1.124627
4071000,0.0324,0.013523,0.002678,0.000431,1.076676
4072000,0.0324,0.013523,0.002678,0.000431,1.126508
4073000,0.0324,0.013523,0.002678,0.000431,1.071387
4074000,0.0324,0.013523,0.002678,0.000431,1.001105
4075000,0.0324,0.013523,0.002678,0.000431,0.977012
4076000,0.0324,0.013523,0.002678,0.000431,1.037891
4077000,0.0324,0.013523,0.002678,0.000431,1.012740
4078000,0.0324,0.013523,0.002678,0.000431,0.929883
4079000,0.0324,0.013523,0.002678,0.000431,0.897093
4080000,0.0324,0.013523,0.002678,0.000431,0.858661
4081000,0.0324,0.013523,0.002678,0.000431,0.810004
4082000,0.0324,0.013523,0.002678,0.000431,0.764168
4083000,0.0324,0.013523,0.002678,0.000431,0.831277
4084000,0.0324,0.013523,0.002678,0.000431,0.926710
4085000,0.0324,0.013523,0.002678,0.000431,0.868886
4086000,0.0324,0.013523,0.002678,0.000431,0.923654
4087000,0.0324,0.013523,0.002678,0.000431,0.934114
4088000,0.0324,0.013523,0.002678,0.000431,1.077851
4089000,0.0324,0.013523,0.002678,0.000431,1.032955
4090000,0.0324,0.013523,0.002678,0.000431,1.152951
4091000,0.0324,0.013523,0.002678,0.000431,1.112639
4092000,0.0324,0.013523,0.002678,0.000431,1.235104
4093000,0.0324,0.013523,0.002678,0.000431,1.138025
4094000,0.0324,0.013523,0.002678,0.000431,1.176457
4095000,0.0324,0.013523,0.002678,0.000431,1.260372
4096000,0.0324,0.013523,0.002678,0.000431,1.219825
4097000,0.0324,0.013523,0.002678,0.000431,1.053288
4098000,0.0324,0.013523,0.002678,0.000431,1.021085
4099000,0.0324,0.013523,0.002678,0.000431,1.019087
4100000,0.0324,0.013523,0.002678,0.000431,0.980773
4101000,0.0324,0.013523,0.002678,0.000431,0.875820
4102000,0.0324,0.013523,0.002678,0.000431,0.800720
4103000,0.0324,0.013523,0.002678,0.000431,0.767342
4104000,0.0324,0.013523,0.002678,0.000431,0.737724
4105000,0.0324,0.013523,0.002678,0.000431,0.799779
4106000,0.0324,0.013523,0.002678,0.000431,0.791082
4107000,0.0324,0.013523,0.002678,0.000431,0.735726
4108000,0.0324,0.013523,0.002678,0.000431,0.834568
4109000,0.0324,0.013523,0.002678,0.000431,0.827869
4110000,0.0324,0.013523,0.002678,0.000431,0.827516
4111000,0.0324,0.013523,0.002678,0.000431,0.967139
4112000,0.0324,0.013523,0.002678,0.000431,0.903439
4113000,0.0324,0.013523,0.002678,0.000431,0.944339
4114000,0.0324,0.013523,0.002678,0.000431,1.006746
4115000,0.0324,0.013523,0.002678,0.000431,1.006981
4116000,0.0324,0.013523,0.002678,0.000431,1.100886
4117000,0.0324,0.013523,0.002678,0.000431,1.098771
4118000,0.0324,0.013523,0.002678,0.000431,1.007334
4119000,0.0324,0.013523,0.002678,0.000431,1.320077
4120000,0.0324,0.013523,0.002678,0.000431,1.254966
4121000,0.0324,0.013523,0.002678,0.000431,1.270950
4122000,0.0324,0.013523,0.002678,0.000431,1.466047
4123000,0.0324,0.013523,0.002678,0.000431,1.447595
4124000,0.0324,0.013523,0.002678,0.000431,1.426087
4125000,0.0324,0.013523,0.002678,0.000431,1.462638
4126000,0.0324,0.013523,0.002678,0.000431,1.447830
4127000,0.0324,0.013523,0.002678,0.000431,1.562655
4128000,0.0324,0.013523,0.002678,0.000431,1.469572
4129000,0.0324,0.013523,0.002678,0.000431,1.385422
4130000,0.0324,0.013523,0.002678,0.000431,1.297864
4131000,0.0324,0.013523,0.002678,0.000431,1.439603
4132000,0.0324,0.013523,0.002678,0.000431,1.429965
4133000,0.0324,0.013523,0.002678,0.000431,1.415862
4134000,0.0324,0.013523,0.002678,0.000431,1.449122
4135000,0.0324,0.013523,0.002678,0.000431,1.312085
4136000,0.0324,0.013523,0.002678,0.000431,1.311967
4137000,0.0324,0.013523,0.002678,0.000431,1.230873
4138000,0.0324,0.013523,0.002678,0.000431,1.225584
4139000,0.0324,0.013523,0.002678,0.000431,1.123334
4140000,0.0324,0.013523,0.002678,0.000431,1.118751
4141000,0.0324,0.013523,0.002678,0.000431,1.204194
4142000,0.0324,0.013523,0.002678,0.000431,1.242390
4143000,0.0324,0.013523,0.002678,0.000431,1.091484
4144000,0.0324,0.013523,0.002678,0.000431,1.223938
4145000,0.0324,0.013523,0.002678,0.000431,1.213008
4146000,0.0324,0.013523,0.002678,0.000431,1.206779
4147000,0.0324,0.013523,0.002678,0.000431,1.121924
4148000,0.0324,0.013523,0.002678,0.000431,0.942929
4149000,0.0324,0.013523,0.002678,0.000431,0.908140
4150000,0.0324,0.013523,0.002678,0.000431,0.912019
4151000,0.0324,0.013523,0.002678,0.000431,0.980420
4152000,0.0324,0.013523,0.002678,0.000431,0.871354
4153000,0.0324,0.013523,0.002678,0.000431,0.931881
4154000,0.0324,0.013523,0.002678,0.000431,0.926592
4155000,0.0324,0.013523,0.002678,0.000431,0.878053
4156000,0.0324,0.013523,0.002678,0.000431,0.955269
4157000,0.0324,0.013523,0.002678,0.000431,1.030017
4158000,0.0324,0.013523,0.002678,0.000431,0.944692
4159000,0.0324,0.013523,0.002678,0.000431,1.026844
4160000,0.0324,0.013523,0.002678,0.000431,0.926945
4161000,0.0324,0.013523,0.002678,0.000431,0.877113
4162000,0.0324,0.013523,0.002678,0.000431,0.932939
4163000,0.0324,0.013523,0.002678,0.000431,0.905790
4164000,0.0324,0.013523,0.002678,0.000431,0.908493
4165000,0.0324,0.013523,0.002678,0.000431,0.954094
4166000,0.0324,0.013523,0.002678,0.000431,0.868416
4167000,0.0324,0.013523,0.002678,0.000431,0.981125
4168000,0.0324,0.013523,0.002678,0.000431,1.035893
4169000,0.0324,0.013523,0.002678,0.000431,1.024141
4170000,0.0324,0.013523,0.002678,0.000431,0.908140
4171000,0.0324,0.013523,0.002678,0.000431,0.963379
4172000,0.0324,0.013523,0.002678,0.000431,1.013916
4173000,0.0324,0.013523,0.002678,0.000431,1.010272
4174000,0.0324,0.013523,0.002678,0.000431,0.916955
4175000,0.0324,0.013523,0.002678,0.000431,0.901559
4176000,0.0324,0.013523,0.002678,0.000431,0.913194
4177000,0.0324,0.013523,0.002678,0.000431,0.913076
4178000,0.0324,0.013523,0.002678,0.000431,0.780622
4179000,0.0324,0.013523,0.002678,0.000431,0.654867
4180000,0.0324,0.013523,0.002678,0.000431,0.825165
4181000,0.0324,0.013523,0.002678,0.000431,0.797899
4182000,0.0324,0.013523,0.002678,0.000431,0.698352
4183000,0.0324,0.013523,0.002678,0.000431,0.780975
4184000,0.0324,0.013523,0.002678,0.000431,0.811415
4185000,0.0324,0.013523,0.002678,0.000431,0.910726
4186000,0.0324,0.013523,0.002678,0.000431,0.908963
4187000,0.0324,0.013523,0.002678,0.000431,0.886515
4188000,0.0324,0.013523,0.002678,0.000431,0.932939
4189000,0.0324,0.013523,0.002678,0.000431,0.974661
4190000,0.0324,0.013523,0.002678,0.000431,0.869826
4191000,0.0324,0.013523,0.002678,0.000431,0.839621
4192000,0.0324,0.013523,0.002678,0.000431,0.830454
4193000,0.0324,0.013523,0.002678,0.000431,0.835038
4194000,0.0324,0.013523,0.002678,0.000431,0.865830
4195000,0.0324,0.013523,0.002678,0.000431,0.901911
4196000,0.0324,0.013523,0.002678,0.000431,1.012035
4197000,0.0324,0.013523,0.002678,0.000431,1.071152
4198000,0.0324,0.013523,0.002678,0.000431,1.021555
4199000,0.0324,0.013523,0.002678,0.000431,0.919305
4200000,0.0324,0.013523,0.002678,0.000431,0.874527
4201000,0.0324,0.013523,0.002678,0.000431,0.859719
4202000,0.0324,0.013523,0.002678,0.000431,0.813413
4203000,0.0324,0.013523,0.002678,0.000431,0.738312
4204000,0.0324,0.013523,0.002678,0.000431,0.754296
4205000,0.0324,0.013523,0.002678,0.000431,0.748890
4206000,0.0324,0.013523,0.002678,0.000431,0.858778
4207000,0.0324,0.013523,0.002678,0.000431,0.971958
4208000,0.0324,0.013523,0.002678,0.000431,1.162119
4209000,0.0324,0.013523,0.002678,0.000431,1.373199
4210000,0.0324,0.013523,0.002678,0.000431,1.528924
4211000,0.0324,0.013523,0.002678,0.000431,1.539502
4212000,0.0324,0.013523,0.002678,0.000431,1.540794
4213000,0.0324,0.013523,0.002678,0.000431,1.679713
4214000,0.0324,0.013523,0.002678,0.000431,1.697577
4215000,0.0324,0.013523,0.002678,0.000431,1.801942
4216000,0.0324,0.013523,0.002678,0.000431,1.709800
4217000,0.0324,0.013523,0.002678,0.000431,1.676304
4218000,0.0324,0.013523,0.002678,0.000431,1.807466
4219000,0.0324,0.013523,0.002678,0.000431,1.686764
4220000,0.0324,0.013523,0.002678,0.000431,1.610724
4221000,0.0324,0.013523,0.002678,0.000431,1.586160
4222000,0.0324,0.013523,0.002678,0.000431,1.587101
4223000,0.0324,0.013523,0.002678,0.000431,1.470630
4224000,0.0324,0.013523,0.002678,0.000431,1.367323
4225000,0.0324,0.013523,0.002678,0.000431,1.363209
4226000,0.0324,0.013523,0.002678,0.000431,1.520227
4227000,0.0324,0.013523,0.002678,0.000431,1.337001
4228000,0.0324,0.013523,0.002678,0.000431,1.349694
4229000,0.0324,0.013523,0.002678,0.000431,1.314435
4230000,0.0324,0.013523,0.002678,0.000431,1.379781
4231000,0.0324,0.013523,0.002678,0.000431,1.272713
4232000,0.0324,0.013523,0.002678,0.000431,1.086195
4233000,0.0324,0.013523,0.002678,0.000431,0.936817
4234000,0.0324,0.013523,0.002678,0.000431,0.799897
4235000,0.0324,0.013523,0.002678,0.000431,0.712808
4236000,0.0324,0.013523,0.002678,0.000431,0.673789
4237000,0.0324,0.013523,0.002678,0.000431,0.700115
4238000,0.0324,0.013523,0.002678,0.000431,0.739135
4239000,0.0324,0.013523,0.002678,0.000431,0.731966
4240000,0.0324,0.013523,0.002678,0.000431,0.702113
4241000,0.0324,0.013523,0.002678,0.000431,0.742308
4242000,0.0324,0.013523,0.002678,0.000431,0.788026
4243000,0.0324,0.013523,0.002678,0.000431,0.795196
4244000,0.0324,0.013523,0.002678,0.000431,0.732788
4245000,0.0324,0.013523,0.002678,0.000431,0.797429
4246000,0.0324,0.013523,0.002678,0.000431,0.784266
4247000,0.0324,0.013523,0.002678,0.000431,0.832217
4248000,0.0324,0.013523,0.002678,0.000431,0.743601
4249000,0.0324,0.013523,0.002678,0.000431,0.759702
4250000,0.0324,0.013523,0.002678,0.000431,0.812707
4251000,0.0324,0.013523,0.002678,0.000431,0.748067
4252000,0.0324,0.013523,0.002678,0.000431,0.795431
4253000,0.0324,0.013523,0.002678,0.000431,0.825635
4254000,0.0324,0.013523,0.002678,0.000431,0.824460
4255000,0.0324,0.013523,0.002678,0.000431,0.938110
4256000,0.0324,0.013523,0.002678,0.000431,1.056813
4257000,0.0324,0.013523,0.002678,0.000431,1.099006
4258000,0.0324,0.013523,0.002678,0.000431,1.073502
4259000,0.0324,0.013523,0.002678,0.000431,1.053405
4260000,0.0324,0.013523,0.002678,0.000431,1.049174
4261000,0.0324,0.013523,0.002678,0.000431,0.979950
4262000,0.0324,0.013523,0.002678,0.000431,0.906612
4263000,0.0324,0.013523,0.002678,0.000431,0.946572
4264000,0.0324,0.013523,0.002678,0.000431,0.927415
4265000,0.0324,0.013523,0.002678,0.000431,0.943281
4266000,0.0324,0.013523,0.002678,0.000431,1.015679
4267000,0.0324,0.013523,0.002678,0.000431,1.032015
4268000,0.0324,0.013523,0.002678,0.000431,0.972546
4269000,0.0324,0.013523,0.002678,0.000431,0.973603
4270000,0.0324,0.013523,0.002678,0.000431,1.022025
4271000,0.0324,0.013523,0.002678,0.000431,1.016031
4272000,0.0324,0.013523,0.002678,0.000431,1.056813
4273000,0.0324,0.013523,0.002678,0.000431,1.026139
4274000,0.0324,0.013523,0.002678,0.000431,1.031780
4275000,0.0324,0.013523,0.002678,0.000431,1.022025
4276000,0.0324,0.013523,0.002678,0.000431,0.999225
4277000,0.0324,0.013523,0.002678,0.000431,1.027079
4278000,0.0324,0.013523,0.002678,0.000431,0.951273
4279000,0.0324,0.013523,0.002678,0.000431,0.955739
4280000,0.0324,0.013523,0.002678,0.000431,0.967727
4281000,0.0324,0.013523,0.002678,0.000431,0.876643
4282000,0.0324,0.013523,0.002678,0.000431,1.107821
4283000,0.0324,0.013523,0.002678,0.000431,1.148485
4284000,0.0324,0.013523,0.002678,0.000431,1.228757
4285000,0.0324,0.013523,0.002678,0.000431,1.081377
4286000,0.0324,0.013523,0.002678,0.000431,1.040477
4287000,0.0324,0.013523,0.002678,0.000431,1.088311
4288000,0.0324,0.013523,0.002678,0.000431,1.219002
4289000,0.0324,0.013523,0.002678,0.000431,1.099711
4290000,0.0324,0.013523,0.002678,0.000431,1.005454
4291000,0.0324,0.013523,0.002678,0.000431,1.056461
4292000,0.0324,0.013523,0.002678,0.000431,1.067626
4293000,0.0324,0.013523,0.002678,0.000431,1.011095
4294000,0.0324,0.013523,0.002678,0.000431,1.031545
4295000,0.0324,0.013523,0.002678,0.000431,1.086195
4296000,0.0324,0.013523,0.002678,0.000431,1.041535
4297000,0.0324,0.013523,0.002678,0.000431,1.142962
4298000,0.0324,0.013523,0.002678,0.000431,1.097126
4299000,0.0324,0.013523,0.002678,0.000431,1.055756
4300000,0.0324,0.013523,0.002678,0.000431,1.170933
4301000,0.0324,0.013523,0.002678,0.000431,1.220648
4302000,0.0324,0.013523,0.002678,0.000431,1.056931
4303000,0.0324,0.013523,0.002678,0.000431,1.053405
4304000,0.0324,0.013523,0.002678,0.000431,0.975484
4305000,0.0324,0.013523,0.002678,0.000431,0.941988
4306000,0.0324,0.013523,0.002678,0.000431,0.816703
4307000,0.0324,0.013523,0.002678,0.000431,0.910726
4308000,0.0324,0.013523,0.002678,0.000431,0.988882
4309000,0.0324,0.013523,0.002678,0.000431,1.003456
4310000,0.0324,0.013523,0.002678,0.000431,1.142609
4311000,0.0324,0.013523,0.002678,0.000431,1.068214
4312000,0.0324,0.013523,0.002678,0.000431,1.088546
4313000,0.0324,0.013523,0.002678,0.000431,1.149073
4314000,0.0324,0.013523,0.002678,0.000431,1.076088
4315000,0.0324,0.013523,0.002678,0.000431,0.937052
4316000,0.0324,0.013523,0.002678,0.000431,0.985356
4317000,0.0324,0.013523,0.002678,0.000431,0.991350
4318000,0.0324,0.013523,0.002678,0.000431,1.078791
4319000,0.0324,0.013523,0.002678,0.000431,1.141316
4320000,0.0324,0.013523,0.002678,0.000431,1.347343
4321000,0.0324,0.013523,0.002678,0.000431,1.225114
4322000,0.0324,0.013523,0.002678,0.000431,1.307619
4323000,0.0324,0.013523,0.002678,0.000431,1.307384
4324000,0.0324,0.013523,0.002678,0.000431,1.229932
4325000,0.0324,0.013523,0.002678,0.000431,1.267424
4326000,0.0324,0.013523,0.002678,0.000431,1.135322
4327000,0.0324,0.013523,0.002678,0.000431,1.092424
4328000,0.0324,0.013523,0.002678,0.000431,1.112874
4329000,0.0324,0.013523,0.002678,0.000431,1.200550
4330000,0.0324,0.013523,0.002678,0.000431,1.146252
4331000,0.0324,0.013523,0.002678,0.000431,1.075853
4332000,0.0324,0.013523,0.002678,0.000431,0.948805
4333000,0.0324,0.013523,0.002678,0.000431,0.992526
4334000,0.0324,0.013523,0.002678,0.000431,0.918600
4335000,0.0324,0.013523,0.002678,0.000431,0.936700
4336000,0.0324,0.013523,0.002678,0.000431,0.924477
4337000,0.0324,0.013523,0.002678,0.000431,0.819054
4338000,0.0324,0.013523,0.002678,0.000431,0.803540
4339000,0.0324,0.013523,0.002678,0.000431,0.909786
4340000,0.0324,0.013523,0.002678,0.000431,0.828809
4341000,0.0324,0.013523,0.002678,0.000431,0.765696
4342000,0.0324,0.013523,0.002678,0.000431,0.860541
4343000,0.0324,0.013523,0.002678,0.000431,0.884752
4344000,0.0324,0.013523,0.002678,0.000431,0.742543
4345000,0.0324,0.013523,0.002678,0.000431,0.817526
4346000,0.0324,0.013523,0.002678,0.000431,0.844910
4347000,0.0324,0.013523,0.002678,0.000431,0.661096
4348000,0.0324,0.013523,0.002678,0.000431,0.682604
4349000,0.0324,0.013523,0.002678,0.000431,0.780035
4350000,0.0324,0.013523,0.002678,0.000431,0.890746
4351000,0.0324,0.013523,0.002678,0.000431,0.830807
4352000,0.0324,0.013523,0.002678,0.000431,0.827986
4353000,0.0324,0.013523,0.002678,0.000431,0.805186
4354000,0.0324,0.013523,0.002678,0.000431,0.780035
4355000,0.0324,0.013523,0.002678,0.000431,0.660743
4356000,0.0324,0.013523,0.002678,0.000431,0.725972
4357000,0.0324,0.013523,0.002678,0.000431,0.765931
4358000,0.0324,0.013523,0.002678,0.000431,0.707285
4359000,0.0324,0.013523,0.002678,0.000431,0.812590
4360000,0.0324,0.013523,0.002678,0.000431,1.017559
4361000,0.0324,0.013523,0.002678,0.000431,0.771925
4362000,0.0324,0.013523,0.002678,0.000431,0.798839
4363000,0.0324,0.013523,0.002678,0.000431,0.802247
4364000,0.0324,0.013523,0.002678,0.000431,0.815411
4365000,0.0324,0.013523,0.002678,0.000431,0.739135
4366000,0.0324,0.013523,0.002678,0.000431,0.763110
4367000,0.0324,0.013523,0.002678,0.000431,0.719508
4368000,0.0324,0.013523,0.002678,0.000431,0.723386
4369000,0.0324,0.013523,0.002678,0.000431,0.664152
4370000,0.0324,0.013523,0.002678,0.000431,0.664504
4371000,0.0324,0.013523,0.002678,0.000431,0.566721
4372000,0.0324,0.013523,0.002678,0.000431,0.647228
4373000,0.0324,0.013523,0.002678,0.000431,0.621489
4374000,0.0324,0.013523,0.002678,0.000431,0.703641
4375000,0.0324,0.013523,0.002678,0.000431,0.850081
4376000,0.0324,0.013523,0.002678,0.000431,1.022613
4377000,0.0324,0.013523,0.002678,0.000431,1.094775
4378000,0.0324,0.013523,0.002678,0.000431,0.951743
4379000,0.0324,0.013523,0.002678,0.000431,1.048821
4380000,0.0324,0.013523,0.002678,0.000431,1.035306
4381000,0.0324,0.013523,0.002678,0.000431,0.776509
4382000,0.0324,0.013523,0.002678,0.000431,0.687775
4383000,0.0324,0.013523,0.002678,0.000431,0.915662
4384000,0.0324,0.013523,0.002678,0.000431,0.787204
4385000,0.0324,0.013523,0.002678,0.000431,0.698705
4386000,0.0324,0.013523,0.002678,0.000431,0.815528
4387000,0.0324,0.013523,0.002678,0.000431,0.931528
4388000,0.0324,0.013523,0.002678,0.000431,1.079614
4389000,0.0324,0.013523,0.002678,0.000431,0.926710
4390000,0.0324,0.013523,0.002678,0.000431,1.002515
4391000,0.0324,0.013523,0.002678,0.000431,0.985944
4392000,0.0324,0.013523,0.002678,0.000431,1.043180
4393000,0.0324,0.013523,0.002678,0.000431,1.044943
4394000,0.0324,0.013523,0.002678,0.000431,1.025551
4395000,0.0324,0.013523,0.002678,0.000431,1.033073
4396000,0.0324,0.013523,0.002678,0.000431,0.937640
4397000,0.0324,0.013523,0.002678,0.000431,1.006159
4398000,0.0324,0.013523,0.002678,0.000431,0.931176
4399000,0.0324,0.013523,0.002678,0.000431,0.855253
4400000,0.0324,0.013523,0.002678,0.000431,0.985944
4401000,0.0324,0.013523,0.002678,0.000431,0.984651
4402000,0.0324,0.013523,0.002678,0.000431,0.887220
4403000,0.0324,0.013523,0.002678,0.000431,0.879228
4404000,0.0324,0.013523,0.002678,0.000431,0.835860
4405000,0.0324,0.013523,0.002678,0.000431,0.867240
4406000,0.0324,0.013523,0.002678,0.000431,0.692946
4407000,0.0324,0.013523,0.002678,0.000431,0.642997
4408000,0.0324,0.013523,0.002678,0.000431,0.683074
4409000,0.0324,0.013523,0.002678,0.000431,0.649108
4410000,0.0324,0.013523,0.002678,0.000431,0.620431
4411000,0.0324,0.013523,0.002678,0.000431,0.639353
4412000,0.0324,0.013523,0.002678,0.000431,0.619609
4413000,0.0324,0.013523,0.002678,0.000431,0.769810
4414000,0.0324,0.013523,0.002678,0.000431,0.689890
4415000,0.0324,0.013523,0.002678,0.000431,0.667207
4416000,0.0324,0.013523,0.002678,0.000431,0.824460
4417000,0.0324,0.013523,0.002678,0.000431,0.592342
4418000,0.0324,0.013523,0.002678,0.000431,0.570834
4419000,0.0324,0.013523,0.002678,0.000431,0.689890
4420000,0.0324,0.013523,0.002678,0.000431,0.649813
4421000,0.0324,0.013523,0.002678,0.000431,0.544978
4422000,0.0324,0.013523,0.002678,0.000431,0.732906
4423000,0.0324,0.013523,0.002678,0.000431,0.838799
4424000,0.0324,0.013523,0.002678,0.000431,0.745599
4425000,0.0324,0.013523,0.002678,0.000431,0.995934
4426000,0.0324,0.013523,0.002678,0.000431,1.140729
4427000,0.0324,0.013523,0.002678,0.000431,1.029782
4428000,0.0324,0.013523,0.002678,0.000431,1.114167
4429000,0.0324,0.013523,0.002678,0.000431,1.091719
4430000,0.0324,0.013523,0.002678,0.000431,0.994406
4431000,0.0324,0.013523,0.002678,0.000431,0.984769
4432000,0.0324,0.013523,0.002678,0.000431,0.919540
4433000,0.0324,0.013523,0.002678,0.000431,0.800367
4434000,0.0324,0.013523,0.002678,0.000431,0.779329
4435000,0.0324,0.013523,0.002678,0.000431,0.761465
4436000,0.0324,0.013523,0.002678,0.000431,0.780387
4437000,0.0324,0.013523,0.002678,0.000431,0.671321
4438000,0.0324,0.013523,0.002678,0.000431,0.710458
4439000,0.0324,0.013523,0.002678,0.000431,0.646993
4440000,0.0324,0.013523,0.002678,0.000431,0.720683
4441000,0.0324,0.013523,0.002678,0.000431,0.729497
4442000,0.0324,0.013523,0.002678,0.000431,0.771337
4443000,0.0324,0.013523,0.002678,0.000431,0.736784
4444000,0.0324,0.013523,0.002678,0.000431,1.002398
4445000,0.0324,0.013523,0.002678,0.000431,0.863127
4446000,0.0324,0.013523,0.002678,0.000431,0.800132
4447000,0.0324,0.013523,0.002678,0.000431,0.794491
4448000,0.0324,0.013523,0.002678,0.000431,0.865125
4449000,0.0324,0.013523,0.002678,0.000431,0.793315
4450000,0.0324,0.013523,0.002678,0.000431,0.806949
4451000,0.0324,0.013523,0.002678,0.000431,0.857016
4452000,0.0324,0.013523,0.002678,0.000431,0.883459
4453000,0.0324,0.013523,0.002678,0.000431,0.815763
4454000,0.0324,0.013523,0.002678,0.000431,0.720565
4455000,0.0324,0.013523,0.002678,0.000431,0.736314
4456000,0.0324,0.013523,0.002678,0.000431,0.676492
4457000,0.0324,0.013523,0.002678,0.000431,0.519710
4458000,0.0324,0.013523,0.002678,0.000431,0.520767
4459000,0.0324,0.013523,0.002678,0.000431,0.396658
4460000,0.0324,0.013523,0.002678,0.000431,0.497262
4461000,0.0324,0.013523,0.002678,0.000431,0.637238
4462000,0.0324,0.013523,0.002678,0.000431,0.481395
4463000,0.0324,0.013523,0.002678,0.000431,0.565076
4464000,0.0324,0.013523,0.002678,0.000431,0.577651
4465000,0.0324,0.013523,0.002678,0.000431,0.669793
4466000,0.0324,0.013523,0.002678,0.000431,0.629481
4467000,0.0324,0.013523,0.002678,0.000431,0.768752
4468000,0.0324,0.013523,0.002678,0.000431,0.669205
4469000,0.0324,0.013523,0.002678,0.000431,0.607621
4470000,0.0324,0.013523,0.002678,0.000431,0.682251
4471000,0.0324,0.013523,0.002678,0.000431,0.709518
4472000,0.0324,0.013523,0.002678,0.000431,0.618198
4473000,0.0324,0.013523,0.002678,0.000431,0.571304
4474000,0.0324,0.013523,0.002678,0.000431,0.613262
4475000,0.0324,0.013523,0.002678,0.000431,0.648050
4476000,0.0324,0.013523,0.002678,0.000431,0.775686
4477000,0.0324,0.013523,0.002678,0.000431,0.855488
4478000,0.0324,0.013523,0.002678,0.000431,1.017206
4479000,0.0324,0.013523,0.002678,0.000431,1.104647
4480000,0.0324,0.013523,0.002678,0.000431,0.906142
4481000,0.0324,0.013523,0.002678,0.000431,0.931646
4482000,0.0324,0.013523,0.002678,0.000431,0.979832
4483000,0.0324,0.013523,0.002678,0.000431,0.959735
4484000,0.0324,0.013523,0.002678,0.000431,1.045413
4485000,0.0324,0.013523,0.002678,0.000431,1.184214
4486000,0.0324,0.013523,0.002678,0.000431,1.049527
4487000,0.0324,0.013523,0.002678,0.000431,0.983946
4488000,0.0324,0.013523,0.002678,0.000431,0.875467
4489000,0.0324,0.013523,0.002678,0.000431,0.764873
4490000,0.0324,0.013523,0.002678,0.000431,0.842677
4491000,0.0324,0.013523,0.002678,0.000431,0.884165
4492000,0.0324,0.013523,0.002678,0.000431,0.737489
4493000,0.0324,0.013523,0.002678,0.000431,0.634652
4494000,0.0324,0.013523,0.002678,0.000431,0.698588
4495000,0.0324,0.013523,0.002678,0.000431,0.918953
4496000,0.0324,0.013523,0.002678,0.000431,0.994053
4497000,0.0324,0.013523,0.002678,0.000431,0.851257
4498000,0.0324,0.013523,0.002678,0.000431,0.801425
4499000,0.0324,0.013523,0.002678,0.000431,0.799309
4500000,0.0324,0.013523,0.002678,0.000431,0.922361
4501000,0.0324,0.013523,0.002678,0.000431,0.811180
4502000,0.0324,0.013523,0.002678,0.000431,0.726912
4503000,0.0324,0.013523,0.002678,0.000431,0.747714
4504000,0.0324,0.013523,0.002678,0.000431,0.779447
4505000,0.0324,0.013523,0.002678,0.000431,0.630891
4506000,0.0324,0.013523,0.002678,0.000431,0.591637
4507000,0.0324,0.013523,0.002678,0.000431,0.745716
4508000,0.0324,0.013523,0.002678,0.000431,0.785441
4509000,0.0324,0.013523,0.002678,0.000431,0.844910
4510000,0.0324,0.013523,0.002678,0.000431,0.908963
4511000,0.0324,0.013523,0.002678,0.000431,0.783090
4512000,0.0324,0.013523,0.002678,0.000431,0.655337
4513000,0.0324,0.013523,0.002678,0.000431,0.705169
4514000,0.0324,0.013523,0.002678,0.000431,0.771102
4515000,0.0324,0.013523,0.002678,0.000431,0.823638
4516000,0.0324,0.013523,0.002678,0.000431,0.695414
4517000,0.0324,0.013523,0.002678,0.000431,0.735374
4518000,0.0324,0.013523,0.002678,0.000431,0.784971
4519000,0.0324,0.013523,0.002678,0.000431,0.616435
4520000,0.0324,0.013523,0.002678,0.000431,0.698470
4521000,0.0324,0.013523,0.002678,0.000431,0.708812
4522000,0.0324,0.013523,0.002678,0.000431,0.863480
4523000,0.0324,0.013523,0.002678,0.000431,1.021437
4524000,0.0324,0.013523,0.002678,0.000431,0.804833
4525000,0.0324,0.013523,0.002678,0.000431,0.924124
4526000,0.0324,0.013523,0.002678,0.000431,0.876995
4527000,0.0324,0.013523,0.002678,0.000431,0.961968
4528000,0.0324,0.013523,0.002678,0.000431,0.818231
4529000,0.0324,0.013523,0.002678,0.000431,0.890041
4530000,0.0324,0.013523,0.002678,0.000431,0.931411
4531000,0.0324,0.013523,0.002678,0.000431,0.713984
4532000,0.0324,0.013523,0.002678,0.000431,0.890981
4533000,0.0324,0.013523,0.002678,0.000431,0.744071
4534000,0.0324,0.013523,0.002678,0.000431,0.728910
4535000,0.0324,0.013523,0.002678,0.000431,0.869121
4536000,0.0324,0.013523,0.002678,0.000431,0.896975
4537000,0.0324,0.013523,0.002678,0.000431,0.747127
4538000,0.0324,0.013523,0.002678,0.000431,0.713161
4539000,0.0324,0.013523,0.002678,0.000431,0.735844
4540000,0.0324,0.013523,0.002678,0.000431,0.747479
4541000,0.0324,0.013523,0.002678,0.000431,0.787556
4542000,0.0324,0.013523,0.002678,0.000431,0.735374
4543000,0.0324,0.013523,0.002678,0.000431,0.661919
4544000,0.0324,0.013523,0.002678,0.000431,0.675905
4545000,0.0324,0.013523,0.002678,0.000431,0.875115
4546000,0.0324,0.013523,0.002678,0.000431,0.801777
4547000,0.0324,0.013523,0.002678,0.000431,0.740075
4548000,0.0324,0.013523,0.002678,0.000431,0.795078
4549000,0.0324,0.013523,0.002678,0.000431,0.851844
4550000,0.0324,0.013523,0.002678,0.000431,0.940696
4551000,0.0324,0.013523,0.002678,0.000431,0.799427
4552000,0.0324,0.013523,0.002678,0.000431,0.839151
4553000,0.0324,0.013523,0.002678,0.000431,0.753238
4554000,0.0324,0.013523,0.002678,0.000431,0.725501
4555000,0.0324,0.013523,0.002678,0.000431,0.716687
4556000,0.0324,0.013523,0.002678,0.000431,0.887338
4557000,0.0324,0.013523,0.002678,0.000431,1.037656
4558000,0.0324,0.013523,0.002678,0.000431,0.932939
4559000,0.0324,0.013523,0.002678,0.000431,0.938580
4560000,0.0324,0.013523,0.002678,0.000431,1.053288
4561000,0.0324,0.013523,0.002678,0.000431,1.032955
4562000,0.0324,0.013523,0.002678,0.000431,0.926122
4563000,0.0324,0.013523,0.002678,0.000431,0.748419
4564000,0.0324,0.013523,0.002678,0.000431,0.708577
4565000,0.0324,0.013523,0.002678,0.000431,0.719390
4566000,0.0324,0.013523,0.002678,0.000431,0.631126
4567000,0.0324,0.013523,0.002678,0.000431,0.729027
4568000,0.0324,0.013523,0.002678,0.000431,0.703759
4569000,0.0324,0.013523,0.002678,0.000431,0.826693
4570000,0.0324,0.013523,0.002678,0.000431,1.002750
4571000,0.0324,0.013523,0.002678,0.000431,0.912254
4572000,0.0324,0.013523,0.002678,0.000431,0.823990
4573000,0.0324,0.013523,0.002678,0.000431,0.986414
4574000,0.0324,0.013523,0.002678,0.000431,1.378606
4575000,0.0324,0.013523,0.002678,0.000431,1.360506
4576000,0.0324,0.013523,0.002678,0.000431,1.395060
4577000,0.0324,0.013523,0.002678,0.000431,1.389888
4578000,0.0324,0.013523,0.002678,0.000431,1.348048
4579000,0.0324,0.013523,0.002678,0.000431,1.176927
4580000,0.0324,0.013523,0.002678,0.000431,1.077616
4581000,0.0324,0.013523,0.002678,0.000431,1.040359
4582000,0.0324,0.013523,0.002678,0.000431,0.849846
4583000,0.0324,0.013523,0.002678,0.000431,0.919893
4584000,0.0324,0.013523,0.002678,0.000431,0.859484
4585000,0.0324,0.013523,0.002678,0.000431,0.932939
4586000,0.0324,0.013523,0.002678,0.000431,1.209600
4587000,0.0324,0.013523,0.002678,0.000431,1.253085
4588000,0.0324,0.013523,0.002678,0.000431,1.217474
4589000,0.0324,0.013523,0.002678,0.000431,1.221353
4590000,0.0324,0.013523,0.002678,0.000431,1.011800
4591000,0.0324,0.013523,0.002678,0.000431,1.047529
4592000,0.0324,0.013523,0.002678,0.000431,1.145782
4593000,0.0324,0.013523,0.002678,0.000431,1.074913
4594000,0.0324,0.013523,0.002678,0.000431,1.181628
4595000,0.0324,0.013523,0.002678,0.000431,1.414687
4596000,0.0324,0.013523,0.002678,0.000431,1.547376
4597000,0.0324,0.013523,0.002678,0.000431,1.442541
4598000,0.0324,0.013523,0.002678,0.000431,1.439015
4599000,0.0324,0.013523,0.002678,0.000431,1.361446
4600000,0.0324,0.013523,0.002678,0.000431,1.258727
4601000,0.0324,0.013523,0.002678,0.000431,1.144372
4602000,0.0324,0.013523,0.002678,0.000431,1.192206
4603000,0.0324,0.013523,0.002678,0.000431,1.184919
4604000,0.0324,0.013523,0.002678,0.000431,1.408340
4605000,0.0324,0.013523,0.002678,0.000431,1.386715
4606000,0.0324,0.013523,0.002678,0.000431,1.240980
4607000,0.0324,0.013523,0.002678,0.000431,1.303740
4608000,0.0324,0.013523,0.002678,0.000431,1.208190
4609000,0.0324,0.013523,0.002678,0.000431,0.984181
4610000,0.0324,0.013523,0.002678,0.000431,1.048704
4611000,0.0324,0.013523,0.002678,0.000431,1.309734
4612000,0.0324,0.013523,0.002678,0.000431,1.553840
4613000,0.0324,0.013523,0.002678,0.000431,1.499425
4614000,0.0324,0.013523,0.002678,0.000431,1.160356
4615000,0.0324,0.013523,0.002678,0.000431,1.053993
4616000,0.0324,0.013523,0.002678,0.000431,1.292575
4617000,0.0324,0.013523,0.002678,0.000431,1.448535
4618000,0.0324,0.013523,0.002678,0.000431,1.223468
4619000,0.0324,0.013523,0.002678,0.000431,1.172109
4620000,0.0324,0.013523,0.002678,0.000431,1.192794
4621000,0.0324,0.013523,0.002678,0.000431,1.171756
4622000,0.0324,0.013523,0.002678,0.000431,1.183039
4623000,0.0324,0.013523,0.002678,0.000431,1.190678
4624000,0.0324,0.013523,0.002678,0.000431,1.043533
4625000,0.0324,0.013523,0.002678,0.000431,1.134970
4626000,0.0324,0.013523,0.002678,0.000431,0.781915
4627000,0.0324,0.013523,0.002678,0.000431,0.195919
4628000,0.0324,0.013523,0.002678,0.000431,0.073925
4629000,0.0324,0.013523,0.002678,0.000431,0.064641
4630000,0.0324,0.013523,0.002678,0.000431,0.059469
4631000,0.0324,0.013523,0.002678,0.000431,0.053593
4632000,0.0324,0.013523,0.002678,0.000431,0.053593
4633000,0.0324,0.013523,0.002678,0.000431,0.051360
4634000,0.0324,0.013523,0.002678,0.000431,0.050537
4635000,0.0324,0.013523,0.002678,0.000431,0.049597
4636000,0.0324,0.013523,0.002678,0.000431,0.049949
4637000,0.0324,0.013523,0.002678,0.000431,0.050420
4638000,0.0324,0.013523,0.002678,0.000431,0.048187
4639000,0.0324,0.013523,0.002678,0.000431,0.049597
4640000,0.0324,0.013523,0.002678,0.000431,0.049362
4641000,0.0324,0.013523,0.002678,0.000431,0.049244
4642000,0.0324,0.013523,0.002678,0.000431,0.046071
4643000,0.0324,0.013523,0.002678,0.000431,0.047599
4644000,0.0324,0.013523,0.002678,0.000431,0.047246
4645000,0.0324,0.013523,0.002678,0.000431,0.047716
4646000,0.0324,0.013523,0.002678,0.000431,0.045601
4647000,0.0324,0.013523,0.002678,0.000431,0.046894
4648000,0.0324,0.013523,0.002678,0.000431,0.046776
4649000,0.0324,0.013523,0.002678,0.000431,0.045601
4650000,0.0324,0.013523,0.002678,0.000431,0.048774
4651000,0.0324,0.013523,0.002678,0.000431,0.048657
4652000,0.0324,0.013523,0.002678,0.000431,0.045954
4653000,0.0324,0.013523,0.002678,0.000431,0.048657
4654000,0.0324,0.013523,0.002678,0.000431,0.046776
4655000,0.0324,0.013523,0.002678,0.000431,0.046894
4656000,0.0324,0.013523,0.002678,0.000431,0.047716
4657000,0.0324,0.013523,0.002678,0.000431,0.048657
4658000,0.0324,0.013523,0.002678,0.000431,0.044308
4659000,0.0324,0.013523,0.002678,0.000431,0.047011
4660000,0.0324,0.013523,0.002678,0.000431,0.044073
4661000,0.0324,0.013523,0.002678,0.000431,0.049597
4662000,0.0324,0.013523,0.002678,0.000431,0.046424
4663000,0.0324,0.013523,0.002678,0.000431,0.045601
4664000,0.0324,0.013523,0.002678,0.000431,0.047951
4665000,0.0324,0.013523,0.002678,0.000431,0.047129
4666000,0.0324,0.013523,0.002678,0.000431,0.047834
4667000,0.0324,0.013523,0.002678,0.000431,0.046071
4668000,0.0324,0.013523,0.002678,0.000431,0.047599
4669000,0.0324,0.013523,0.002678,0.000431,0.046071
4670000,0.0324,0.013523,0.002678,0.000431,0.048187
4671000,0.0324,0.013523,0.002678,0.000431,0.044191
4672000,0.0324,0.013523,0.002678,0.000431,0.048422
4673000,0.0324,0.013523,0.002678,0.000431,0.047246
4674000,0.0324,0.013523,0.002678,0.000431,0.045718
4675000,0.0324,0.013523,0.002678,0.000431,0.042428
4676000,0.0324,0.013523,0.002678,0.000431,0.048187
4677000,0.0324,0.013523,0.002678,0.000431,0.046541
4678000,0.0324,0.013523,0.002678,0.000431,0.043838
4679000,0.0324,0.013523,0.002678,0.000431,0.048187
4680000,0.0324,0.013523,0.002678,0.000431,0.044896
4681000,0.0324,0.013523,0.002678,0.000431,0.046071
4682000,0.0324,0.013523,0.002678,0.000431,0.044661
4683000,0.0324,0.013523,0.002678,0.000431,0.042898
4684000,0.0324,0.013523,0.002678,0.000431,0.045131
4685000,0.0324,0.013523,0.002678,0.000431,0.044778
4686000,0.0324,0.013523,0.002678,0.000431,0.042780
4687000,0.0324,0.013523,0.002678,0.000431,0.046424
4688000,0.0324,0.013523,0.002678,0.000431,0.043015
4689000,0.0324,0.013523,0.002678,0.000431,0.044308
4690000,0.0324,0.013523,0.002678,0.000431,0.044426
4691000,0.0324,0.013523,0.002678,0.000431,0.045013
4692000,0.0324,0.013523,0.002678,0.000431,0.046071
4693000,0.0324,0.013523,0.002678,0.000431,0.042663
4694000,0.0324,0.013523,0.002678,0.000431,0.043485
4695000,0.0324,0.013523,0.002678,0.000431,0.044896
4696000,0.0324,0.013523,0.002678,0.000431,0.044778
4697000,0.0324,0.013523,0.002678,0.000431,0.044191
4698000,0.0324,0.013523,0.002678,0.000431,0.043720
4699000,0.0324,0.013523,0.002678,0.000431,0.043015
4700000,0.0324,0.013523,0.002678,0.000431,0.044191
4701000,0.0324,0.013523,0.002678,0.000431,0.046541
4702000,0.0324,0.013523,0.002678,0.000431,0.045601
4703000,0.0324,0.013523,0.002678,0.000431,0.043485
4704000,0.0324,0.013523,0.002678,0.000431,0.044778
4705000,0.0324,0.013523,0.002678,0.000431,0.045131
4706000,0.0324,0.013523,0.002678,0.000431,0.044661
4707000,0.0324,0.013523,0.002678,0.000431,0.043956
4708000,0.0324,0.013523,0.002678,0.000431,0.043720
4709000,0.0324,0.013523,0.002678,0.000431,0.044191
4710000,0.0324,0.013523,0.002678,0.000431,0.044426
4711000,0.0324,0.013523,0.002678,0.000431,0.041958
4712000,0.0324,0.013523,0.002678,0.000431,0.044426
4713000,0.0324,0.013523,0.002678,0.000431,0.042780
4714000,0.0324,0.013523,0.002678,0.000431,0.042898
4715000,0.0324,0.013523,0.002678,0.000431,0.043956
4716000,0.0324,0.013523,0.002678,0.000431,0.042780
4717000,0.0324,0.013523,0.002678,0.000431,0.045366
4718000,0.0324,0.013523,0.002678,0.000431,0.045013
4719000,0.0324,0.013523,0.002678,0.000431,0.043250
4720000,0.0324,0.013523,0.002678,0.000431,0.044661
4721000,0.0324,0.013523,0.002678,0.000431,0.045718
4722000,0.0324,0.013523,0.002678,0.000431,0.042075
4723000,0.0324,0.013523,0.002678,0.000431,0.045131
4724000,0.0324,0.013523,0.002678,0.000431,0.042545
4725000,0.0324,0.013523,0.002678,0.000431,0.043368
4726000,0.0324,0.013523,0.002678,0.000431,0.042075
4727000,0.0324,0.013523,0.002678,0.000431,0.045601
4728000,0.0324,0.013523,0.002678,0.000431,0.043368
4729000,0.0324,0.013523,0.002678,0.000431,0.045483
4730000,0.0324,0.013523,0.002678,0.000431,0.042310
4731000,0.0324,0.013523,0.002678,0.000431,0.044191
4732000,0.0324,0.013523,0.002678,0.000431,0.044896
4733000,0.0324,0.013523,0.002678,0.000431,0.044073
4734000,0.0324,0.013523,0.002678,0.000431,0.045483
4735000,0.0324,0.013523,0.002678,0.000431,0.043603
4736000,0.0324,0.013523,0.002678,0.000431,0.043485
4737000,0.0324,0.013523,0.002678,0.000431,0.045954
4738000,0.0324,0.013523,0.002678,0.000431,0.042075
4739000,0.0324,0.013523,0.002678,0.000431,0.042545
4740000,0.0324,0.013523,0.002678,0.000431,0.043956
4741000,0.0324,0.013523,0.002678,0.000431,0.042428
4742000,0.0324,0.013523,0.002678,0.000431,0.044543
4743000,0.0324,0.013523,0.002678,0.000431,0.044661
4744000,0.0324,0.013523,0.002678,0.000431,0.043956
4745000,0.0324,0.013523,0.002678,0.000431,0.041840
4746000,0.0324,0.013523,0.002678,0.000431,0.044308
4747000,0.0324,0.013523,0.002678,0.000431,0.045131
4748000,0.0324,0.013523,0.002678,0.000431,0.043603
4749000,0.0324,0.013523,0.002678,0.000431,0.041723
4750000,0.0324,0.013523,0.002678,0.000431,0.041487
4751000,0.0324,0.013523,0.002678,0.000431,0.046776
4752000,0.0324,0.013523,0.002678,0.000431,0.040900
4753000,0.0324,0.013523,0.002678,0.000431,0.044426
4754000,0.0324,0.013523,0.002678,0.000431,0.045013
4755000,0.0324,0.013523,0.002678,0.000431,0.041605
4756000,0.0324,0.013523,0.002678,0.000431,0.043250
4757000,0.0324,0.013523,0.002678,0.000431,0.043368
4758000,0.0324,0.013523,0.002678,0.000431,0.041605
4759000,0.0324,0.013523,0.002678,0.000431,0.044778
4760000,0.0324,0.013523,0.002678,0.000431,0.040900
4761000,0.0324,0.013523,0.002678,0.000431,0.041017
4762000,0.0324,0.013523,0.002678,0.000431,0.043838
4763000,0.0324,0.013523,0.002678,0.000431,0.041723
4764000,0.0324,0.013523,0.002678,0.000431,0.039960
4765000,0.0324,0.013523,0.002678,0.000431,0.041840
4766000,0.0324,0.013523,0.002678,0.000431,0.044661
4767000,0.0324,0.013523,0.002678,0.000431,0.042663
4768000,0.0324,0.013523,0.002678,0.000431,0.042663
4769000,0.0324,0.013523,0.002678,0.000431,0.041723
4770000,0.0324,0.013523,0.002678,0.000431,0.041723
4771000,0.0324,0.013523,0.002678,0.000431,0.041252
4772000,0.0324,0.013523,0.002678,0.000431,0.042310
4773000,0.0324,0.013523,0.002678,0.000431,0.043250
4774000,0.0324,0.013523,0.002678,0.000431,0.043133
4775000,0.0324,0.013523,0.002678,0.000431,0.042075
4776000,0.0324,0.013523,0.002678,0.000431,0.042428
4777000,0.0324,0.013523,0.002678,0.000431,0.041370
4778000,0.0324,0.013523,0.002678,0.000431,0.041135
4779000,0.0324,0.013523,0.002678,0.000431,0.043133
4780000,0.0324,0.013523,0.002678,0.000431,0.041487
4781000,0.0324,0.013523,0.002678,0.000431,0.041487
4782000,0.0324,0.013523,0.002678,0.000431,0.044308
4783000,0.0324,0.013523,0.002678,0.000431,0.043368
4784000,0.0324,0.013523,0.002678,0.000431,0.041605
4785000,0.0324,0.013523,0.002678,0.000431,0.044073
4786000,0.0324,0.013523,0.002678,0.000431,0.040312
4787000,0.0324,0.013523,0.002678,0.000431,0.046659
4788000,0.0324,0.013523,0.002678,0.000431,0.042193
4789000,0.0324,0.013523,0.002678,0.000431,0.042780
4790000,0.0324,0.013523,0.002678,0.000431,0.044426
4791000,0.0324,0.013523,0.002678,0.000431,0.042428
4792000,0.0324,0.013523,0.002678,0.000431,0.041370
4793000,0.0324,0.013523,0.002678,0.000431,0.042545
4794000,0.0324,0.013523,0.002678,0.000431,0.039842
4795000,0.0324,0.013523,0.002678,0.000431,0.041840
4796000,0.0324,0.013523,0.002678,0.000431,0.042428
4797000,0.0324,0.013523,0.002678,0.000431,0.042310
4798000,0.0324,0.013523,0.002678,0.000431,0.042193
4799000,0.0324,0.013523,0.002678,0.000431,0.042663
4800000,0.0324,0.013523,0.002678,0.000431,0.042193
4801000,0.0324,0.013523,0.002678,0.000431,0.042310
4802000,0.0324,0.013523,0.002678,0.000431,0.039607
4803000,0.0324,0.013523,0.002678,0.000431,0.045366
4804000,0.0324,0.013523,0.002678,0.000431,0.040665
4805000,0.0324,0.013523,0.002678,0.000431,0.042193
4806000,0.0324,0.013523,0.002678,0.000431,0.039372
4807000,0.0324,0.013523,0.002678,0.000431,0.043250
4808000,0.0324,0.013523,0.002678,0.000431,0.042545
4809000,0.0324,0.013523,0.002678,0.000431,0.040782
4810000,0.0324,0.013523,0.002678,0.000431,0.042428
4811000,0.0324,0.013523,0.002678,0.000431,0.040547
4812000,0.0324,0.013523,0.002678,0.000431,0.040900
4813000,0.0324,0.013523,0.002678,0.000431,0.042898
4814000,0.0324,0.013523,0.002678,0.000431,0.040430
4815000,0.0324,0.013523,0.002678,0.000431,0.041605
4816000,0.0324,0.013523,0.002678,0.000431,0.043133
4817000,0.0324,0.013523,0.002678,0.000431,0.039607
4818000,0.0324,0.013523,0.002678,0.000431,0.045013
4819000,0.0324,0.013523,0.002678,0.000431,0.040547
4820000,0.0324,0.013523,0.002678,0.000431,0.042898
4821000,0.0324,0.013523,0.002678,0.000431,0.042428
4822000,0.0324,0.013523,0.002678,0.000431,0.046071
4823000,0.0324,0.013523,0.002678,0.000431,0.043015
4824000,0.0324,0.013523,0.002678,0.000431,0.044778
4825000,0.0324,0.013523,0.002678,0.000431,0.041605
4826000,0.0324,0.013523,0.002678,0.000431,0.043720
4827000,0.0324,0.013523,0.002678,0.000431,0.042780
4828000,0.0324,0.013523,0.002678,0.000431,0.040665
4829000,0.0324,0.013523,0.002678,0.000431,0.044661
4830000,0.0324,0.013523,0.002678,0.000431,0.041252
4831000,0.0324,0.013523,0.002678,0.000431,0.040547
4832000,0.0324,0.013523,0.002678,0.000431,0.042075
4833000,0.0324,0.013523,0.002678,0.000431,0.043250
4834000,0.0324,0.013523,0.002678,0.000431,0.041723
4835000,0.0324,0.013523,0.002678,0.000431,0.042898
4836000,0.0324,0.013523,0.002678,0.000431,0.042780
4837000,0.0324,0.013523,0.002678,0.000431,0.043603
4838000,0.0324,0.013523,0.002678,0.000431,0.040782
4839000,0.0324,0.013523,0.002678,0.000431,0.041135
4840000,0.0324,0.013523,0.002678,0.000431,0.041487
4841000,0.0324,0.013523,0.002678,0.000431,0.043368
4842000,0.0324,0.013523,0.002678,0.000431,0.041017
4843000,0.0324,0.013523,0.002678,0.000431,0.042780
4844000,0.0324,0.013523,0.002678,0.000431,0.042545
4845000,0.0324,0.013523,0.002678,0.000431,0.039960
4846000,0.0324,0.013523,0.002678,0.000431,0.041135
4847000,0.0324,0.013523,0.002678,0.000431,0.042428
4848000,0.0324,0.013523,0.002678,0.000431,0.041958
4849000,0.0324,0.013523,0.002678,0.000431,0.043956
4850000,0.0324,0.013523,0.002678,0.000431,0.040547
4851000,0.0324,0.013523,0.002678,0.000431,0.043720
4852000,0.0324,0.013523,0.002678,0.000431,0.043485
4853000,0.0324,0.013523,0.002678,0.000431,0.041252
4854000,0.0324,0.013523,0.002678,0.000431,0.043603
4855000,0.0324,0.013523,0.002678,0.000431,0.041135
4856000,0.0324,0.013523,0.002678,0.000431,0.040782
4857000,0.0324,0.013523,0.002678,0.000431,0.043485
4858000,0.0324,0.013523,0.002678,0.000431,0.041605
4859000,0.0324,0.013523,0.002678,0.000431,0.040430
4860000,0.0324,0.013523,0.002678,0.000431,0.043133
4861000,0.0324,0.013523,0.002678,0.000431,0.041605
4862000,0.0324,0.013523,0.002678,0.000431,0.042428
4863000,0.0324,0.013523,0.002678,0.000431,0.041487
4864000,0.0324,0.013523,0.002678,0.000431,0.043838
4865000,0.0324,0.013523,0.002678,0.000431,0.040547
4866000,0.0324,0.013523,0.002678,0.000431,0.042545
4867000,0.0324,0.013523,0.002678,0.000431,0.040547
4868000,0.0324,0.013523,0.002678,0.000431,0.044896
4869000,0.0324,0.013523,0.002678,0.000431,0.041017
4870000,0.0324,0.013523,0.002678,0.000431,0.043368
4871000,0.0324,0.013523,0.002678,0.000431,0.041840
4872000,0.0324,0.013523,0.002678,0.000431,0.043838
4873000,0.0324,0.013523,0.002678,0.000431,0.042075
4874000,0.0324,0.013523,0.002678,0.000431,0.043368
4875000,0.0324,0.013523,0.002678,0.000431,0.041252
4876000,0.0324,0.013523,0.002678,0.000431,0.045836
4877000,0.0324,0.013523,0.002678,0.000431,0.041958
4878000,0.0324,0.013523,0.002678,0.000431,0.039489
4879000,0.0324,0.013523,0.002678,0.000431,0.041017
4880000,0.0324,0.013523,0.002678,0.000431,0.042428
4881000,0.0324,0.013523,0.002678,0.000431,0.042310
4882000,0.0324,0.013523,0.002678,0.000431,0.043015
4883000,0.0324,0.013523,0.002678,0.000431,0.041370
4884000,0.0324,0.013523,0.002678,0.000431,0.043956
4885000,0.0324,0.013523,0.002678,0.000431,0.044308
4886000,0.0324,0.013523,0.002678,0.000431,0.039842
4887000,0.0324,0.013523,0.002678,0.000431,0.041605
4888000,0.0324,0.013523,0.002678,0.000431,0.042428
4889000,0.0324,0.013523,0.002678,0.000431,0.042545
4890000,0.0324,0.013523,0.002678,0.000431,0.043720
4891000,0.0324,0.013523,0.002678,0.000431,0.041958
4892000,0.0324,0.013523,0.002678,0.000431,0.036551
4893000,0.0324,0.013523,0.002678,0.000431,0.046424
4894000,0.0324,0.013523,0.002678,0.000431,0.044543
4895000,0.0324,0.013523,0.002678,0.000431,0.041605
4896000,0.0324,0.013523,0.002678,0.000431,0.041487
4897000,0.0324,0.013523,0.002678,0.000431,0.041723
4898000,0.0324,0.013523,0.002678,0.000431,0.041840
4899000,0.0324,0.013523,0.002678,0.000431,0.042075
4900000,0.0324,0.013523,0.002678,0.000431,0.041605
4901000,0.0324,0.013523,0.002678,0.000431,0.042428
4902000,0.0324,0.013523,0.002678,0.000431,0.041840
4903000,0.0324,0.013523,0.002678,0.000431,0.041487
4904000,0.0324,0.013523,0.002678,0.000431,0.040430
4905000,0.0324,0.013523,0.002678,0.000431,0.042780
4906000,0.0324,0.013523,0.002678,0.000431,0.042428
4907000,0.0324,0.013523,0.002678,0.000431,0.043368
4908000,0.0324,0.013523,0.002678,0.000431,0.040195
4909000,0.0324,0.013523,0.002678,0.000431,0.042310
4910000,0.0324,0.013523,0.002678,0.000431,0.042780
4911000,0.0324,0.013523,0.002678,0.000431,0.039137
4912000,0.0324,0.013523,0.002678,0.000431,0.040900
4913000,0.0324,0.013523,0.002678,0.000431,0.042193
4914000,0.0324,0.013523,0.002678,0.000431,0.041840
4915000,0.0324,0.013523,0.002678,0.000431,0.040430
4916000,0.0324,0.013523,0.002678,0.000431,0.041252
4917000,0.0324,0.013523,0.002678,0.000431,0.041252
4918000,0.0324,0.013523,0.002678,0.000431,0.042193
4919000,0.0324,0.013523,0.002678,0.000431,0.040430
4920000,0.0324,0.013523,0.002678,0.000431,0.040312
4921000,0.0324,0.013523,0.002678,0.000431,0.040665
4922000,0.0324,0.013523,0.002678,0.000431,0.039019
4923000,0.0324,0.013523,0.002678,0.000431,0.039019
4924000,0.0324,0.013523,0.002678,0.000431,0.043603
4925000,0.0324,0.013523,0.002678,0.000431,0.039960
4926000,0.0324,0.013523,0.002678,0.000431,0.042310
4927000,0.0324,0.013523,0.002678,0.000431,0.040900
4928000,0.0324,0.013523,0.002678,0.000431,0.040195
4929000,0.0324,0.013523,0.002678,0.000431,0.040547
4930000,0.0324,0.013523,0.002678,0.000431,0.043250
4931000,0.0324,0.013523,0.002678,0.000431,0.042075
4932000,0.0324,0.013523,0.002678,0.000431,0.040077
4933000,0.0324,0.013523,0.002678,0.000431,0.042428
4934000,0.0324,0.013523,0.002678,0.000431,0.041370
4935000,0.0324,0.013523,0.002678,0.000431,0.041840
4936000,0.0324,0.013523,0.002678,0.000431,0.041605
4937000,0.0324,0.013523,0.002678,0.000431,0.039842
4938000,0.0324,0.013523,0.002678,0.000431,0.041017
4939000,0.0324,0.013523,0.002678,0.000431,0.041252
4940000,0.0324,0.013523,0.002678,0.000431,0.040195
4941000,0.0324,0.013523,0.002678,0.000431,0.041605
4942000,0.0324,0.013523,0.002678,0.000431,0.040312
4943000,0.0324,0.013523,0.002678,0.000431,0.043485
4944000,0.0324,0.013523,0.002678,0.000431,0.039725
4945000,0.0324,0.013523,0.002678,0.000431,0.040430
4946000,0.0324,0.013523,0.002678,0.000431,0.042193
4947000,0.0324,0.013523,0.002678,0.000431,0.043720
4948000,0.0324,0.013523,0.002678,0.000431,0.040195
4949000,0.0324,0.013523,0.002678,0.000431,0.042545
4950000,0.0324,0.013523,0.002678,0.000431,0.042780
4951000,0.0324,0.013523,0.002678,0.000431,0.039725
4952000,0.0324,0.013523,0.002678,0.000431,0.040547
4953000,0.0324,0.013523,0.002678,0.000431,0.041017
4954000,0.0324,0.013523,0.002678,0.000431,0.041017
4955000,0.0324,0.013523,0.002678,0.000431,0.041017
4956000,0.0324,0.013523,0.002678,0.000431,0.042193
4957000,0.0324,0.013523,0.002678,0.000431,0.041370
4958000,0.0324,0.013523,0.002678,0.000431,0.042310
4959000,0.0324,0.013523,0.002678,0.000431,0.040195
4960000,0.0324,0.013523,0.002678,0.000431,0.043956
4961000,0.0324,0.013523,0.002678,0.000431,0.039019
4962000,0.0324,0.013523,0.002678,0.000431,0.043956
4963000,0.0324,0.013523,0.002678,0.000431,0.042545
4964000,0.0324,0.013523,0.002678,0.000431,0.039725
4965000,0.0324,0.013523,0.002678,0.000431,0.041958
4966000,0.0324,0.013523,0.002678,0.000431,0.041840
4967000,0.0324,0.013523,0.002678,0.000431,0.043133
4968000,0.0324,0.013523,0.002678,0.000431,0.042663
4969000,0.0324,0.013523,0.002678,0.000431,0.041017
4970000,0.0324,0.013523,0.002678,0.000431,0.040547
4971000,0.0324,0.013523,0.002678,0.000431,0.040782
4972000,0.0324,0.013523,0.002678,0.000431,0.040312
4973000,0.0324,0.013523,0.002678,0.000431,0.040782
4974000,0.0324,0.013523,0.002678,0.000431,0.040430
4975000,0.0324,0.013523,0.002678,0.000431,0.040547
4976000,0.0324,0.013523,0.002678,0.000431,0.041958
4977000,0.0324,0.013523,0.002678,0.000431,0.041135
4978000,0.0324,0.013523,0.002678,0.000431,0.039607
4979000,0.0324,0.013523,0.002678,0.000431,0.041958
4980000,0.0324,0.013523,0.002678,0.000431,0.040782
4981000,0.0324,0.013523,0.002678,0.000431,0.041605
4982000,0.0324,0.013523,0.002678,0.000431,0.039254
4983000,0.0324,0.013523,0.002678,0.000431,0.040782
4984000,0.0324,0.013523,0.002678,0.000431,0.038432
4985000,0.0324,0.013523,0.002678,0.000431,0.041017
4986000,0.0324,0.013523,0.002678,0.000431,0.042310
4987000,0.0324,0.013523,0.002678,0.000431,0.041252
4988000,0.0324,0.013523,0.002678,0.000431,0.040665
4989000,0.0324,0.013523,0.002678,0.000431,0.040782
4990000,0.0324,0.013523,0.002678,0.000431,0.040900
4991000,0.0324,0.013523,0.002678,0.000431,0.041370
4992000,0.0324,0.013523,0.002678,0.000431,0.038784
4993000,0.0324,0.013523,0.002678,0.000431,0.043485
4994000,0.0324,0.013523,0.002678,0.000431,0.040547
4995000,0.0324,0.013523,0.002678,0.000431,0.040312
4996000,0.0324,0.013523,0.002678,0.000431,0.041487
4997000,0.0324,0.013523,0.002678,0.000431,0.039960
4998000,0.0324,0.013523,0.002678,0.000431,0.040430
4999000,0.0324,0.013523,0.002678,0.000431,0.041487
