Cycle,Area(mm^2),PeakDynamic(W),SubthresholdLeakage(W),GateLeakage(W),RunTimeDynamic(W)
8000000,0.0324,0.013523,0.002678,0.000431,0.017159
8001000,0.0324,0.013523,0.002678,0.000431,0.016454
8002000,0.0324,0.013523,0.002678,0.000431,0.016689
8003000,0.0324,0.013523,0.002678,0.000431,0.017394
8004000,0.0324,0.013523,0.002678,0.000431,0.014456
8005000,0.0324,0.013523,0.002678,0.000431,0.019510
8006000,0.0324,0.013523,0.002678,0.000431,0.014809
8007000,0.0324,0.013523,0.002678,0.000431,0.016336
8008000,0.0324,0.013523,0.002678,0.000431,0.016219
8009000,0.0324,0.013523,0.002678,0.000431,0.017512
8010000,0.0324,0.013523,0.002678,0.000431,0.015866
8011000,0.0324,0.013523,0.002678,0.000431,0.018217
8012000,0.0324,0.013523,0.002678,0.000431,0.014809
8013000,0.0324,0.013523,0.002678,0.000431,0.016336
8014000,0.0324,0.013523,0.002678,0.000431,0.015631
8015000,0.0324,0.013523,0.002678,0.000431,0.018099
8016000,0.0324,0.013523,0.002678,0.000431,0.015631
8017000,0.0324,0.013523,0.002678,0.000431,0.017277
8018000,0.0324,0.013523,0.002678,0.000431,0.016807
8019000,0.0324,0.013523,0.002678,0.000431,0.017394
8020000,0.0324,0.013523,0.002678,0.000431,0.017277
8021000,0.0324,0.013523,0.002678,0.000431,0.016571
8022000,0.0324,0.013523,0.002678,0.000431,0.015866
8023000,0.0324,0.013523,0.002678,0.000431,0.015749
8024000,0.0324,0.013523,0.002678,0.000431,0.016219
8025000,0.0324,0.013523,0.002678,0.000431,0.016807
8026000,0.0324,0.013523,0.002678,0.000431,0.016219
8027000,0.0324,0.013523,0.002678,0.000431,0.015396
8028000,0.0324,0.013523,0.002678,0.000431,0.016689
8029000,0.0324,0.013523,0.002678,0.000431,0.016924
8030000,0.0324,0.013523,0.002678,0.000431,0.017747
8031000,0.0324,0.013523,0.002678,0.000431,0.016101
8032000,0.0324,0.013523,0.002678,0.000431,0.017512
8033000,0.0324,0.013523,0.002678,0.000431,0.016219
8034000,0.0324,0.013523,0.002678,0.000431,0.016807
8035000,0.0324,0.013523,0.002678,0.000431,0.015866
8036000,0.0324,0.013523,0.002678,0.000431,0.016924
8037000,0.0324,0.013523,0.002678,0.000431,0.015749
8038000,0.0324,0.013523,0.002678,0.000431,0.017394
8039000,0.0324,0.013523,0.002678,0.000431,0.016454
8040000,0.0324,0.013523,0.002678,0.000431,0.016219
8041000,0.0324,0.013523,0.002678,0.000431,0.016454
8042000,0.0324,0.013523,0.002678,0.000431,0.016571
8043000,0.0324,0.013523,0.002678,0.000431,0.014926
8044000,0.0324,0.013523,0.002678,0.000431,0.017277
8045000,0.0324,0.013523,0.002678,0.000431,0.015984
8046000,0.0324,0.013523,0.002678,0.000431,0.017042
8047000,0.0324,0.013523,0.002678,0.000431,0.015866
8048000,0.0324,0.013523,0.002678,0.000431,0.016807
8049000,0.0324,0.013523,0.002678,0.000431,0.017394
8050000,0.0324,0.013523,0.002678,0.000431,0.015866
8051000,0.0324,0.013523,0.002678,0.000431,0.016571
8052000,0.0324,0.013523,0.002678,0.000431,0.016924
8053000,0.0324,0.013523,0.002678,0.000431,0.017512
8054000,0.0324,0.013523,0.002678,0.000431,0.016336
8055000,0.0324,0.013523,0.002678,0.000431,0.017394
8056000,0.0324,0.013523,0.002678,0.000431,0.015631
8057000,0.0324,0.013523,0.002678,0.000431,0.016807
8058000,0.0324,0.013523,0.002678,0.000431,0.015631
8059000,0.0324,0.013523,0.002678,0.000431,0.019157
8060000,0.0324,0.013523,0.002678,0.000431,0.016219
8061000,0.0324,0.013523,0.002678,0.000431,0.017159
8062000,0.0324,0.013523,0.002678,0.000431,0.015161
8063000,0.0324,0.013523,0.002678,0.000431,0.017747
8064000,0.0324,0.013523,0.002678,0.000431,0.015984
8065000,0.0324,0.013523,0.002678,0.000431,0.015749
8066000,0.0324,0.013523,0.002678,0.000431,0.016807
8067000,0.0324,0.013523,0.002678,0.000431,0.016336
8068000,0.0324,0.013523,0.002678,0.000431,0.017277
8069000,0.0324,0.013523,0.002678,0.000431,0.016924
8070000,0.0324,0.013523,0.002678,0.000431,0.015984
8071000,0.0324,0.013523,0.002678,0.000431,0.015984
8072000,0.0324,0.013523,0.002678,0.000431,0.017982
8073000,0.0324,0.013523,0.002678,0.000431,0.017042
8074000,0.0324,0.013523,0.002678,0.000431,0.016454
8075000,0.0324,0.013523,0.002678,0.000431,0.015631
8076000,0.0324,0.013523,0.002678,0.000431,0.017394
8077000,0.0324,0.013523,0.002678,0.000431,0.016924
8078000,0.0324,0.013523,0.002678,0.000431,0.017512
8079000,0.0324,0.013523,0.002678,0.000431,0.015396
8080000,0.0324,0.013523,0.002678,0.000431,0.017042
8081000,0.0324,0.013523,0.002678,0.000431,0.015749
8082000,0.0324,0.013523,0.002678,0.000431,0.017042
8083000,0.0324,0.013523,0.002678,0.000431,0.017629
8084000,0.0324,0.013523,0.002678,0.000431,0.016807
8085000,0.0324,0.013523,0.002678,0.000431,0.014926
8086000,0.0324,0.013523,0.002678,0.000431,0.017982
8087000,0.0324,0.013523,0.002678,0.000431,0.015749
8088000,0.0324,0.013523,0.002678,0.000431,0.015749
8089000,0.0324,0.013523,0.002678,0.000431,0.016101
8090000,0.0324,0.013523,0.002678,0.000431,0.016219
8091000,0.0324,0.013523,0.002678,0.000431,0.016454
8092000,0.0324,0.013523,0.002678,0.000431,0.016571
8093000,0.0324,0.013523,0.002678,0.000431,0.016571
8094000,0.0324,0.013523,0.002678,0.000431,0.017042
8095000,0.0324,0.013523,0.002678,0.000431,0.016101
8096000,0.0324,0.013523,0.002678,0.000431,0.016454
8097000,0.0324,0.013523,0.002678,0.000431,0.016924
8098000,0.0324,0.013523,0.002678,0.000431,0.014926
8099000,0.0324,0.013523,0.002678,0.000431,0.017629
8100000,0.0324,0.013523,0.002678,0.000431,0.015984
8101000,0.0324,0.013523,0.002678,0.000431,0.016454
8102000,0.0324,0.013523,0.002678,0.000431,0.015984
8103000,0.0324,0.013523,0.002678,0.000431,0.017747
8104000,0.0324,0.013523,0.002678,0.000431,0.014221
8105000,0.0324,0.013523,0.002678,0.000431,0.017747
8106000,0.0324,0.013523,0.002678,0.000431,0.016454
8107000,0.0324,0.013523,0.002678,0.000431,0.016924
8108000,0.0324,0.013523,0.002678,0.000431,0.016924
8109000,0.0324,0.013523,0.002678,0.000431,0.016689
8110000,0.0324,0.013523,0.002678,0.000431,0.016336
8111000,0.0324,0.013523,0.002678,0.000431,0.017159
8112000,0.0324,0.013523,0.002678,0.000431,0.015749
8113000,0.0324,0.013523,0.002678,0.000431,0.017512
8114000,0.0324,0.013523,0.002678,0.000431,0.016336
8115000,0.0324,0.013523,0.002678,0.000431,0.016807
8116000,0.0324,0.013523,0.002678,0.000431,0.017277
8117000,0.0324,0.013523,0.002678,0.000431,0.015631
8118000,0.0324,0.013523,0.002678,0.000431,0.017747
8119000,0.0324,0.013523,0.002678,0.000431,0.015396
8120000,0.0324,0.013523,0.002678,0.000431,0.016454
8121000,0.0324,0.013523,0.002678,0.000431,0.015749
8122000,0.0324,0.013523,0.002678,0.000431,0.017512
8123000,0.0324,0.013523,0.002678,0.000431,0.016454
8124000,0.0324,0.013523,0.002678,0.000431,0.016807
8125000,0.0324,0.013523,0.002678,0.000431,0.014926
8126000,0.0324,0.013523,0.002678,0.000431,0.016454
8127000,0.0324,0.013523,0.002678,0.000431,0.017394
8128000,0.0324,0.013523,0.002678,0.000431,0.016571
8129000,0.0324,0.013523,0.002678,0.000431,0.016219
8130000,0.0324,0.013523,0.002678,0.000431,0.017864
8131000,0.0324,0.013523,0.002678,0.000431,0.015984
8132000,0.0324,0.013523,0.002678,0.000431,0.016689
8133000,0.0324,0.013523,0.002678,0.000431,0.016571
8134000,0.0324,0.013523,0.002678,0.000431,0.015866
8135000,0.0324,0.013523,0.002678,0.000431,0.016571
8136000,0.0324,0.013523,0.002678,0.000431,0.016924
8137000,0.0324,0.013523,0.002678,0.000431,0.017747
8138000,0.0324,0.013523,0.002678,0.000431,0.015631
8139000,0.0324,0.013523,0.002678,0.000431,0.016689
8140000,0.0324,0.013523,0.002678,0.000431,0.016454
8141000,0.0324,0.013523,0.002678,0.000431,0.017277
8142000,0.0324,0.013523,0.002678,0.000431,0.017042
8143000,0.0324,0.013523,0.002678,0.000431,0.017394
8144000,0.0324,0.013523,0.002678,0.000431,0.015984
8145000,0.0324,0.013523,0.002678,0.000431,0.016454
8146000,0.0324,0.013523,0.002678,0.000431,0.015749
8147000,0.0324,0.013523,0.002678,0.000431,0.017277
8148000,0.0324,0.013523,0.002678,0.000431,0.015631
8149000,0.0324,0.013523,0.002678,0.000431,0.016689
8150000,0.0324,0.013523,0.002678,0.000431,0.017394
8151000,0.0324,0.013523,0.002678,0.000431,0.017159
8152000,0.0324,0.013523,0.002678,0.000431,0.016924
8153000,0.0324,0.013523,0.002678,0.000431,0.017042
8154000,0.0324,0.013523,0.002678,0.000431,0.016454
8155000,0.0324,0.013523,0.002678,0.000431,0.017394
8156000,0.0324,0.013523,0.002678,0.000431,0.015984
8157000,0.0324,0.013523,0.002678,0.000431,0.018099
8158000,0.0324,0.013523,0.002678,0.000431,0.016571
8159000,0.0324,0.013523,0.002678,0.000431,0.016807
8160000,0.0324,0.013523,0.002678,0.000431,0.015161
8161000,0.0324,0.013523,0.002678,0.000431,0.017629
8162000,0.0324,0.013523,0.002678,0.000431,0.016571
8163000,0.0324,0.013523,0.002678,0.000431,0.016454
8164000,0.0324,0.013523,0.002678,0.000431,0.016924
8165000,0.0324,0.013523,0.002678,0.000431,0.016336
8166000,0.0324,0.013523,0.002678,0.000431,0.016807
8167000,0.0324,0.013523,0.002678,0.000431,0.017277
8168000,0.0324,0.013523,0.002678,0.000431,0.016807
8169000,0.0324,0.013523,0.002678,0.000431,0.017159
8170000,0.0324,0.013523,0.002678,0.000431,0.016336
8171000,0.0324,0.013523,0.002678,0.000431,0.016219
8172000,0.0324,0.013523,0.002678,0.000431,0.018217
8173000,0.0324,0.013523,0.002678,0.000431,0.016571
8174000,0.0324,0.013523,0.002678,0.000431,0.017159
8175000,0.0324,0.013523,0.002678,0.000431,0.015749
8176000,0.0324,0.013523,0.002678,0.000431,0.018334
8177000,0.0324,0.013523,0.002678,0.000431,0.017042
8178000,0.0324,0.013523,0.002678,0.000431,0.016101
8179000,0.0324,0.013523,0.002678,0.000431,0.016219
8180000,0.0324,0.013523,0.002678,0.000431,0.015396
8181000,0.0324,0.013523,0.002678,0.000431,0.017042
8182000,0.0324,0.013523,0.002678,0.000431,0.016807
8183000,0.0324,0.013523,0.002678,0.000431,0.016219
8184000,0.0324,0.013523,0.002678,0.000431,0.016336
8185000,0.0324,0.013523,0.002678,0.000431,0.015866
8186000,0.0324,0.013523,0.002678,0.000431,0.016454
8187000,0.0324,0.013523,0.002678,0.000431,0.017394
8188000,0.0324,0.013523,0.002678,0.000431,0.015984
8189000,0.0324,0.013523,0.002678,0.000431,0.016807
8190000,0.0324,0.013523,0.002678,0.000431,0.016219
8191000,0.0324,0.013523,0.002678,0.000431,0.017394
8192000,0.0324,0.013523,0.002678,0.000431,0.017042
8193000,0.0324,0.013523,0.002678,0.000431,0.016101
8194000,0.0324,0.013523,0.002678,0.000431,0.017394
8195000,0.0324,0.013523,0.002678,0.000431,0.016101
8196000,0.0324,0.013523,0.002678,0.000431,0.015279
8197000,0.0324,0.013523,0.002678,0.000431,0.019157
8198000,0.0324,0.013523,0.002678,0.000431,0.014926
8199000,0.0324,0.013523,0.002678,0.000431,0.016807
8200000,0.0324,0.013523,0.002678,0.000431,0.015396
8201000,0.0324,0.013523,0.002678,0.000431,0.017864
8202000,0.0324,0.013523,0.002678,0.000431,0.016336
8203000,0.0324,0.013523,0.002678,0.000431,0.016924
8204000,0.0324,0.013523,0.002678,0.000431,0.016924
8205000,0.0324,0.013523,0.002678,0.000431,0.016807
8206000,0.0324,0.013523,0.002678,0.000431,0.016101
8207000,0.0324,0.013523,0.002678,0.000431,0.017629
8208000,0.0324,0.013523,0.002678,0.000431,0.015984
8209000,0.0324,0.013523,0.002678,0.000431,0.015866
8210000,0.0324,0.013523,0.002678,0.000431,0.016219
8211000,0.0324,0.013523,0.002678,0.000431,0.017042
8212000,0.0324,0.013523,0.002678,0.000431,0.017394
8213000,0.0324,0.013523,0.002678,0.000431,0.016219
8214000,0.0324,0.013523,0.002678,0.000431,0.017277
8215000,0.0324,0.013523,0.002678,0.000431,0.015396
8216000,0.0324,0.013523,0.002678,0.000431,0.017042
8217000,0.0324,0.013523,0.002678,0.000431,0.016571
8218000,0.0324,0.013523,0.002678,0.000431,0.017747
8219000,0.0324,0.013523,0.002678,0.000431,0.016571
8220000,0.0324,0.013523,0.002678,0.000431,0.017159
8221000,0.0324,0.013523,0.002678,0.000431,0.017159
8222000,0.0324,0.013523,0.002678,0.000431,0.016101
8223000,0.0324,0.013523,0.002678,0.000431,0.016101
8224000,0.0324,0.013523,0.002678,0.000431,0.017747
8225000,0.0324,0.013523,0.002678,0.000431,0.015984
8226000,0.0324,0.013523,0.002678,0.000431,0.017159
8227000,0.0324,0.013523,0.002678,0.000431,0.016454
8228000,0.0324,0.013523,0.002678,0.000431,0.015984
8229000,0.0324,0.013523,0.002678,0.000431,0.017042
8230000,0.0324,0.013523,0.002678,0.000431,0.015866
8231000,0.0324,0.013523,0.002678,0.000431,0.017864
8232000,0.0324,0.013523,0.002678,0.000431,0.017042
8233000,0.0324,0.013523,0.002678,0.000431,0.015866
8234000,0.0324,0.013523,0.002678,0.000431,0.017159
8235000,0.0324,0.013523,0.002678,0.000431,0.016336
8236000,0.0324,0.013523,0.002678,0.000431,0.016336
8237000,0.0324,0.013523,0.002678,0.000431,0.017864
8238000,0.0324,0.013523,0.002678,0.000431,0.017277
8239000,0.0324,0.013523,0.002678,0.000431,0.017629
8240000,0.0324,0.013523,0.002678,0.000431,0.015749
8241000,0.0324,0.013523,0.002678,0.000431,0.017512
8242000,0.0324,0.013523,0.002678,0.000431,0.016336
8243000,0.0324,0.013523,0.002678,0.000431,0.016101
8244000,0.0324,0.013523,0.002678,0.000431,0.015631
8245000,0.0324,0.013523,0.002678,0.000431,0.016571
8246000,0.0324,0.013523,0.002678,0.000431,0.017042
8247000,0.0324,0.013523,0.002678,0.000431,0.016689
8248000,0.0324,0.013523,0.002678,0.000431,0.015866
8249000,0.0324,0.013523,0.002678,0.000431,0.017629
8250000,0.0324,0.013523,0.002678,0.000431,0.016101
8251000,0.0324,0.013523,0.002678,0.000431,0.017864
8252000,0.0324,0.013523,0.002678,0.000431,0.016689
8253000,0.0324,0.013523,0.002678,0.000431,0.015984
8254000,0.0324,0.013523,0.002678,0.000431,0.015161
8255000,0.0324,0.013523,0.002678,0.000431,0.016454
8256000,0.0324,0.013523,0.002678,0.000431,0.016807
8257000,0.0324,0.013523,0.002678,0.000431,0.015631
8258000,0.0324,0.013523,0.002678,0.000431,0.016571
8259000,0.0324,0.013523,0.002678,0.000431,0.015631
8260000,0.0324,0.013523,0.002678,0.000431,0.017042
8261000,0.0324,0.013523,0.002678,0.000431,0.016571
8262000,0.0324,0.013523,0.002678,0.000431,0.016689
8263000,0.0324,0.013523,0.002678,0.000431,0.015161
8264000,0.0324,0.013523,0.002678,0.000431,0.015866
8265000,0.0324,0.013523,0.002678,0.000431,0.015984
8266000,0.0324,0.013523,0.002678,0.000431,0.017159
8267000,0.0324,0.013523,0.002678,0.000431,0.014926
8268000,0.0324,0.013523,0.002678,0.000431,0.017512
8269000,0.0324,0.013523,0.002678,0.000431,0.016101
8270000,0.0324,0.013523,0.002678,0.000431,0.016101
8271000,0.0324,0.013523,0.002678,0.000431,0.015866
8272000,0.0324,0.013523,0.002678,0.000431,0.016924
8273000,0.0324,0.013523,0.002678,0.000431,0.016219
8274000,0.0324,0.013523,0.002678,0.000431,0.015631
8275000,0.0324,0.013523,0.002678,0.000431,0.015984
8276000,0.0324,0.013523,0.002678,0.000431,0.016454
8277000,0.0324,0.013523,0.002678,0.000431,0.016101
8278000,0.0324,0.013523,0.002678,0.000431,0.016689
8279000,0.0324,0.013523,0.002678,0.000431,0.015866
8280000,0.0324,0.013523,0.002678,0.000431,0.015161
8281000,0.0324,0.013523,0.002678,0.000431,0.016807
8282000,0.0324,0.013523,0.002678,0.000431,0.015161
8283000,0.0324,0.013523,0.002678,0.000431,0.016101
8284000,0.0324,0.013523,0.002678,0.000431,0.016924
8285000,0.0324,0.013523,0.002678,0.000431,0.016924
8286000,0.0324,0.013523,0.002678,0.000431,0.017277
8287000,0.0324,0.013523,0.002678,0.000431,0.015161
8288000,0.0324,0.013523,0.002678,0.000431,0.015866
8289000,0.0324,0.013523,0.002678,0.000431,0.017394
8290000,0.0324,0.013523,0.002678,0.000431,0.015279
8291000,0.0324,0.013523,0.002678,0.000431,0.016219
8292000,0.0324,0.013523,0.002678,0.000431,0.016101
8293000,0.0324,0.013523,0.002678,0.000431,0.015866
8294000,0.0324,0.013523,0.002678,0.000431,0.015161
8295000,0.0324,0.013523,0.002678,0.000431,0.016454
8296000,0.0324,0.013523,0.002678,0.000431,0.016571
8297000,0.0324,0.013523,0.002678,0.000431,0.015631
8298000,0.0324,0.013523,0.002678,0.000431,0.015514
8299000,0.0324,0.013523,0.002678,0.000431,0.015984
8300000,0.0324,0.013523,0.002678,0.000431,0.016924
8301000,0.0324,0.013523,0.002678,0.000431,0.015749
8302000,0.0324,0.013523,0.002678,0.000431,0.016689
8303000,0.0324,0.013523,0.002678,0.000431,0.015984
8304000,0.0324,0.013523,0.002678,0.000431,0.015161
8305000,0.0324,0.013523,0.002678,0.000431,0.016454
8306000,0.0324,0.013523,0.002678,0.000431,0.016454
8307000,0.0324,0.013523,0.002678,0.000431,0.016454
8308000,0.0324,0.013523,0.002678,0.000431,0.014926
8309000,0.0324,0.013523,0.002678,0.000431,0.015866
8310000,0.0324,0.013523,0.002678,0.000431,0.016454
8311000,0.0324,0.013523,0.002678,0.000431,0.016454
8312000,0.0324,0.013523,0.002678,0.000431,0.015984
8313000,0.0324,0.013523,0.002678,0.000431,0.015514
8314000,0.0324,0.013523,0.002678,0.000431,0.017042
8315000,0.0324,0.013523,0.002678,0.000431,0.015749
8316000,0.0324,0.013523,0.002678,0.000431,0.017042
8317000,0.0324,0.013523,0.002678,0.000431,0.016101
8318000,0.0324,0.013523,0.002678,0.000431,0.016336
8319000,0.0324,0.013523,0.002678,0.000431,0.015984
8320000,0.0324,0.013523,0.002678,0.000431,0.016924
8321000,0.0324,0.013523,0.002678,0.000431,0.015984
8322000,0.0324,0.013523,0.002678,0.000431,0.016689
8323000,0.0324,0.013523,0.002678,0.000431,0.016336
8324000,0.0324,0.013523,0.002678,0.000431,0.016807
8325000,0.0324,0.013523,0.002678,0.000431,0.014691
8326000,0.0324,0.013523,0.002678,0.000431,0.017042
8327000,0.0324,0.013523,0.002678,0.000431,0.015514
8328000,0.0324,0.013523,0.002678,0.000431,0.015514
8329000,0.0324,0.013523,0.002678,0.000431,0.017042
8330000,0.0324,0.013523,0.002678,0.000431,0.015631
8331000,0.0324,0.013523,0.002678,0.000431,0.016571
8332000,0.0324,0.013523,0.002678,0.000431,0.016571
8333000,0.0324,0.013523,0.002678,0.000431,0.015161
8334000,0.0324,0.013523,0.002678,0.000431,0.016454
8335000,0.0324,0.013523,0.002678,0.000431,0.016101
8336000,0.0324,0.013523,0.002678,0.000431,0.016454
8337000,0.0324,0.013523,0.002678,0.000431,0.017159
8338000,0.0324,0.013523,0.002678,0.000431,0.015631
8339000,0.0324,0.013523,0.002678,0.000431,0.016571
8340000,0.0324,0.013523,0.002678,0.000431,0.015866
8341000,0.0324,0.013523,0.002678,0.000431,0.016454
8342000,0.0324,0.013523,0.002678,0.000431,0.015396
8343000,0.0324,0.013523,0.002678,0.000431,0.016101
8344000,0.0324,0.013523,0.002678,0.000431,0.015514
8345000,0.0324,0.013523,0.002678,0.000431,0.017277
8346000,0.0324,0.013523,0.002678,0.000431,0.015984
8347000,0.0324,0.013523,0.002678,0.000431,0.016924
8348000,0.0324,0.013523,0.002678,0.000431,0.015631
8349000,0.0324,0.013523,0.002678,0.000431,0.016454
8350000,0.0324,0.013523,0.002678,0.000431,0.015749
8351000,0.0324,0.013523,0.002678,0.000431,0.017042
8352000,0.0324,0.013523,0.002678,0.000431,0.015161
8353000,0.0324,0.013523,0.002678,0.000431,0.016571
8354000,0.0324,0.013523,0.002678,0.000431,0.016336
8355000,0.0324,0.013523,0.002678,0.000431,0.016807
8356000,0.0324,0.013523,0.002678,0.000431,0.015514
8357000,0.0324,0.013523,0.002678,0.000431,0.016571
8358000,0.0324,0.013523,0.002678,0.000431,0.016219
8359000,0.0324,0.013523,0.002678,0.000431,0.016689
8360000,0.0324,0.013523,0.002678,0.000431,0.015396
8361000,0.0324,0.013523,0.002678,0.000431,0.016101
8362000,0.0324,0.013523,0.002678,0.000431,0.016454
8363000,0.0324,0.013523,0.002678,0.000431,0.015161
8364000,0.0324,0.013523,0.002678,0.000431,0.017394
8365000,0.0324,0.013523,0.002678,0.000431,0.016807
8366000,0.0324,0.013523,0.002678,0.000431,0.016924
8367000,0.0324,0.013523,0.002678,0.000431,0.016101
8368000,0.0324,0.013523,0.002678,0.000431,0.015631
8369000,0.0324,0.013523,0.002678,0.000431,0.015279
8370000,0.0324,0.013523,0.002678,0.000431,0.016924
8371000,0.0324,0.013523,0.002678,0.000431,0.014926
8372000,0.0324,0.013523,0.002678,0.000431,0.017159
8373000,0.0324,0.013523,0.002678,0.000431,0.014691
8374000,0.0324,0.013523,0.002678,0.000431,0.018334
8375000,0.0324,0.013523,0.002678,0.000431,0.015514
8376000,0.0324,0.013523,0.002678,0.000431,0.015984
8377000,0.0324,0.013523,0.002678,0.000431,0.015514
8378000,0.0324,0.013523,0.002678,0.000431,0.016219
8379000,0.0324,0.013523,0.002678,0.000431,0.015514
8380000,0.0324,0.013523,0.002678,0.000431,0.016101
8381000,0.0324,0.013523,0.002678,0.000431,0.016807
8382000,0.0324,0.013523,0.002678,0.000431,0.015866
8383000,0.0324,0.013523,0.002678,0.000431,0.016101
8384000,0.0324,0.013523,0.002678,0.000431,0.015161
8385000,0.0324,0.013523,0.002678,0.000431,0.016571
8386000,0.0324,0.013523,0.002678,0.000431,0.015866
8387000,0.0324,0.013523,0.002678,0.000431,0.016807
8388000,0.0324,0.013523,0.002678,0.000431,0.015514
8389000,0.0324,0.013523,0.002678,0.000431,0.017159
8390000,0.0324,0.013523,0.002678,0.000431,0.014456
8391000,0.0324,0.013523,0.002678,0.000431,0.017747
8392000,0.0324,0.013523,0.002678,0.000431,0.015866
8393000,0.0324,0.013523,0.002678,0.000431,0.016101
8394000,0.0324,0.013523,0.002678,0.000431,0.015044
8395000,0.0324,0.013523,0.002678,0.000431,0.016454
8396000,0.0324,0.013523,0.002678,0.000431,0.015631
8397000,0.0324,0.013523,0.002678,0.000431,0.016689
8398000,0.0324,0.013523,0.002678,0.000431,0.015161
8399000,0.0324,0.013523,0.002678,0.000431,0.017747
8400000,0.0324,0.013523,0.002678,0.000431,0.016924
8401000,0.0324,0.013523,0.002678,0.000431,0.016101
8402000,0.0324,0.013523,0.002678,0.000431,0.015984
8403000,0.0324,0.013523,0.002678,0.000431,0.016689
8404000,0.0324,0.013523,0.002678,0.000431,0.016101
8405000,0.0324,0.013523,0.002678,0.000431,0.016807
8406000,0.0324,0.013523,0.002678,0.000431,0.016571
8407000,0.0324,0.013523,0.002678,0.000431,0.015631
8408000,0.0324,0.013523,0.002678,0.000431,0.016101
8409000,0.0324,0.013523,0.002678,0.000431,0.015749
8410000,0.0324,0.013523,0.002678,0.000431,0.015866
8411000,0.0324,0.013523,0.002678,0.000431,0.016101
8412000,0.0324,0.013523,0.002678,0.000431,0.016336
8413000,0.0324,0.013523,0.002678,0.000431,0.016336
8414000,0.0324,0.013523,0.002678,0.000431,0.016101
8415000,0.0324,0.013523,0.002678,0.000431,0.015866
8416000,0.0324,0.013523,0.002678,0.000431,0.016336
8417000,0.0324,0.013523,0.002678,0.000431,0.015514
8418000,0.0324,0.013523,0.002678,0.000431,0.016807
8419000,0.0324,0.013523,0.002678,0.000431,0.015984
8420000,0.0324,0.013523,0.002678,0.000431,0.017042
8421000,0.0324,0.013523,0.002678,0.000431,0.015749
8422000,0.0324,0.013523,0.002678,0.000431,0.017159
8423000,0.0324,0.013523,0.002678,0.000431,0.014691
8424000,0.0324,0.013523,0.002678,0.000431,0.016807
8425000,0.0324,0.013523,0.002678,0.000431,0.015514
8426000,0.0324,0.013523,0.002678,0.000431,0.017864
8427000,0.0324,0.013523,0.002678,0.000431,0.015044
8428000,0.0324,0.013523,0.002678,0.000431,0.016219
8429000,0.0324,0.013523,0.002678,0.000431,0.016571
8430000,0.0324,0.013523,0.002678,0.000431,0.016219
8431000,0.0324,0.013523,0.002678,0.000431,0.016454
8432000,0.0324,0.013523,0.002678,0.000431,0.016101
8433000,0.0324,0.013523,0.002678,0.000431,0.014691
8434000,0.0324,0.013523,0.002678,0.000431,0.016101
8435000,0.0324,0.013523,0.002678,0.000431,0.016336
8436000,0.0324,0.013523,0.002678,0.000431,0.015984
8437000,0.0324,0.013523,0.002678,0.000431,0.014691
8438000,0.0324,0.013523,0.002678,0.000431,0.016101
8439000,0.0324,0.013523,0.002678,0.000431,0.016689
8440000,0.0324,0.013523,0.002678,0.000431,0.014456
8441000,0.0324,0.013523,0.002678,0.000431,0.016571
8442000,0.0324,0.013523,0.002678,0.000431,0.016219
8443000,0.0324,0.013523,0.002678,0.000431,0.016454
8444000,0.0324,0.013523,0.002678,0.000431,0.013986
8445000,0.0324,0.013523,0.002678,0.000431,0.016689
8446000,0.0324,0.013523,0.002678,0.000431,0.016101
8447000,0.0324,0.013523,0.002678,0.000431,0.015161
8448000,0.0324,0.013523,0.002678,0.000431,0.017042
8449000,0.0324,0.013523,0.002678,0.000431,0.016101
8450000,0.0324,0.013523,0.002678,0.000431,0.015279
8451000,0.0324,0.013523,0.002678,0.000431,0.017864
8452000,0.0324,0.013523,0.002678,0.000431,0.015984
8453000,0.0324,0.013523,0.002678,0.000431,0.016454
8454000,0.0324,0.013523,0.002678,0.000431,0.016336
8455000,0.0324,0.013523,0.002678,0.000431,0.016336
8456000,0.0324,0.013523,0.002678,0.000431,0.016924
8457000,0.0324,0.013523,0.002678,0.000431,0.015749
8458000,0.0324,0.013523,0.002678,0.000431,0.015514
8459000,0.0324,0.013523,0.002678,0.000431,0.016571
8460000,0.0324,0.013523,0.002678,0.000431,0.015984
8461000,0.0324,0.013523,0.002678,0.000431,0.016101
8462000,0.0324,0.013523,0.002678,0.000431,0.017159
8463000,0.0324,0.013523,0.002678,0.000431,0.016689
8464000,0.0324,0.013523,0.002678,0.000431,0.015161
8465000,0.0324,0.013523,0.002678,0.000431,0.015749
8466000,0.0324,0.013523,0.002678,0.000431,0.017512
8467000,0.0324,0.013523,0.002678,0.000431,0.016807
8468000,0.0324,0.013523,0.002678,0.000431,0.016336
8469000,0.0324,0.013523,0.002678,0.000431,0.015984
8470000,0.0324,0.013523,0.002678,0.000431,0.016571
8471000,0.0324,0.013523,0.002678,0.000431,0.016336
8472000,0.0324,0.013523,0.002678,0.000431,0.017747
8473000,0.0324,0.013523,0.002678,0.000431,0.014221
8474000,0.0324,0.013523,0.002678,0.000431,0.016571
8475000,0.0324,0.013523,0.002678,0.000431,0.015396
8476000,0.0324,0.013523,0.002678,0.000431,0.017159
8477000,0.0324,0.013523,0.002678,0.000431,0.015984
8478000,0.0324,0.013523,0.002678,0.000431,0.015631
8479000,0.0324,0.013523,0.002678,0.000431,0.016336
8480000,0.0324,0.013523,0.002678,0.000431,0.015866
8481000,0.0324,0.013523,0.002678,0.000431,0.016571
8482000,0.0324,0.013523,0.002678,0.000431,0.017042
8483000,0.0324,0.013523,0.002678,0.000431,0.016336
8484000,0.0324,0.013523,0.002678,0.000431,0.015984
8485000,0.0324,0.013523,0.002678,0.000431,0.016219
8486000,0.0324,0.013523,0.002678,0.000431,0.018217
8487000,0.0324,0.013523,0.002678,0.000431,0.015044
8488000,0.0324,0.013523,0.002678,0.000431,0.015984
8489000,0.0324,0.013523,0.002678,0.000431,0.016689
8490000,0.0324,0.013523,0.002678,0.000431,0.015984
8491000,0.0324,0.013523,0.002678,0.000431,0.015984
8492000,0.0324,0.013523,0.002678,0.000431,0.015984
8493000,0.0324,0.013523,0.002678,0.000431,0.016924
8494000,0.0324,0.013523,0.002678,0.000431,0.015514
8495000,0.0324,0.013523,0.002678,0.000431,0.016219
8496000,0.0324,0.013523,0.002678,0.000431,0.016101
8497000,0.0324,0.013523,0.002678,0.000431,0.016924
8498000,0.0324,0.013523,0.002678,0.000431,0.015396
8499000,0.0324,0.013523,0.002678,0.000431,0.017042
8500000,0.0324,0.013523,0.002678,0.000431,0.015984
8501000,0.0324,0.013523,0.002678,0.000431,0.017864
8502000,0.0324,0.013523,0.002678,0.000431,0.016219
8503000,0.0324,0.013523,0.002678,0.000431,0.015984
8504000,0.0324,0.013523,0.002678,0.000431,0.016219
8505000,0.0324,0.013523,0.002678,0.000431,0.016101
8506000,0.0324,0.013523,0.002678,0.000431,0.015396
8507000,0.0324,0.013523,0.002678,0.000431,0.017042
8508000,0.0324,0.013523,0.002678,0.000431,0.016219
8509000,0.0324,0.013523,0.002678,0.000431,0.016454
8510000,0.0324,0.013523,0.002678,0.000431,0.015749
8511000,0.0324,0.013523,0.002678,0.000431,0.014926
8512000,0.0324,0.013523,0.002678,0.000431,0.016571
8513000,0.0324,0.013523,0.002678,0.000431,0.015866
8514000,0.0324,0.013523,0.002678,0.000431,0.015396
8515000,0.0324,0.013523,0.002678,0.000431,0.015984
8516000,0.0324,0.013523,0.002678,0.000431,0.016101
8517000,0.0324,0.013523,0.002678,0.000431,0.016924
8518000,0.0324,0.013523,0.002678,0.000431,0.016454
8519000,0.0324,0.013523,0.002678,0.000431,0.016571
8520000,0.0324,0.013523,0.002678,0.000431,0.016219
8521000,0.0324,0.013523,0.002678,0.000431,0.015514
8522000,0.0324,0.013523,0.002678,0.000431,0.016807
8523000,0.0324,0.013523,0.002678,0.000431,0.015631
8524000,0.0324,0.013523,0.002678,0.000431,0.016924
8525000,0.0324,0.013523,0.002678,0.000431,0.014221
8526000,0.0324,0.013523,0.002678,0.000431,0.017159
8527000,0.0324,0.013523,0.002678,0.000431,0.016454
8528000,0.0324,0.013523,0.002678,0.000431,0.015396
8529000,0.0324,0.013523,0.002678,0.000431,0.016571
8530000,0.0324,0.013523,0.002678,0.000431,0.015984
8531000,0.0324,0.013523,0.002678,0.000431,0.015161
8532000,0.0324,0.013523,0.002678,0.000431,0.017159
8533000,0.0324,0.013523,0.002678,0.000431,0.015631
8534000,0.0324,0.013523,0.002678,0.000431,0.016807
8535000,0.0324,0.013523,0.002678,0.000431,0.015279
8536000,0.0324,0.013523,0.002678,0.000431,0.015866
8537000,0.0324,0.013523,0.002678,0.000431,0.016807
8538000,0.0324,0.013523,0.002678,0.000431,0.015044
8539000,0.0324,0.013523,0.002678,0.000431,0.017042
8540000,0.0324,0.013523,0.002678,0.000431,0.015984
8541000,0.0324,0.013523,0.002678,0.000431,0.016336
8542000,0.0324,0.013523,0.002678,0.000431,0.017159
8543000,0.0324,0.013523,0.002678,0.000431,0.017042
8544000,0.0324,0.013523,0.002678,0.000431,0.016336
8545000,0.0324,0.013523,0.002678,0.000431,0.016454
8546000,0.0324,0.013523,0.002678,0.000431,0.015396
8547000,0.0324,0.013523,0.002678,0.000431,0.017277
8548000,0.0324,0.013523,0.002678,0.000431,0.016454
8549000,0.0324,0.013523,0.002678,0.000431,0.015631
8550000,0.0324,0.013523,0.002678,0.000431,0.016219
8551000,0.0324,0.013523,0.002678,0.000431,0.016924
8552000,0.0324,0.013523,0.002678,0.000431,0.016924
8553000,0.0324,0.013523,0.002678,0.000431,0.015984
8554000,0.0324,0.013523,0.002678,0.000431,0.016219
8555000,0.0324,0.013523,0.002678,0.000431,0.014456
8556000,0.0324,0.013523,0.002678,0.000431,0.016689
8557000,0.0324,0.013523,0.002678,0.000431,0.017159
8558000,0.0324,0.013523,0.002678,0.000431,0.016219
8559000,0.0324,0.013523,0.002678,0.000431,0.015044
8560000,0.0324,0.013523,0.002678,0.000431,0.016807
8561000,0.0324,0.013523,0.002678,0.000431,0.016219
8562000,0.0324,0.013523,0.002678,0.000431,0.016807
8563000,0.0324,0.013523,0.002678,0.000431,0.015279
8564000,0.0324,0.013523,0.002678,0.000431,0.017747
8565000,0.0324,0.013523,0.002678,0.000431,0.015396
8566000,0.0324,0.013523,0.002678,0.000431,0.015396
8567000,0.0324,0.013523,0.002678,0.000431,0.017159
8568000,0.0324,0.013523,0.002678,0.000431,0.016219
8569000,0.0324,0.013523,0.002678,0.000431,0.016101
8570000,0.0324,0.013523,0.002678,0.000431,0.016101
8571000,0.0324,0.013523,0.002678,0.000431,0.016807
8572000,0.0324,0.013523,0.002678,0.000431,0.017042
8573000,0.0324,0.013523,0.002678,0.000431,0.015749
8574000,0.0324,0.013523,0.002678,0.000431,0.017277
8575000,0.0324,0.013523,0.002678,0.000431,0.015044
8576000,0.0324,0.013523,0.002678,0.000431,0.016454
8577000,0.0324,0.013523,0.002678,0.000431,0.016807
8578000,0.0324,0.013523,0.002678,0.000431,0.015161
8579000,0.0324,0.013523,0.002678,0.000431,0.017159
8580000,0.0324,0.013523,0.002678,0.000431,0.015866
8581000,0.0324,0.013523,0.002678,0.000431,0.016219
8582000,0.0324,0.013523,0.002678,0.000431,0.016689
8583000,0.0324,0.013523,0.002678,0.000431,0.017747
8584000,0.0324,0.013523,0.002678,0.000431,0.015749
8585000,0.0324,0.013523,0.002678,0.000431,0.016807
8586000,0.0324,0.013523,0.002678,0.000431,0.015866
8587000,0.0324,0.013523,0.002678,0.000431,0.017277
8588000,0.0324,0.013523,0.002678,0.000431,0.015044
8589000,0.0324,0.013523,0.002678,0.000431,0.016924
8590000,0.0324,0.013523,0.002678,0.000431,0.016336
8591000,0.0324,0.013523,0.002678,0.000431,0.016571
8592000,0.0324,0.013523,0.002678,0.000431,0.016219
8593000,0.0324,0.013523,0.002678,0.000431,0.016219
8594000,0.0324,0.013523,0.002678,0.000431,0.016101
8595000,0.0324,0.013523,0.002678,0.000431,0.017159
8596000,0.0324,0.013523,0.002678,0.000431,0.015749
8597000,0.0324,0.013523,0.002678,0.000431,0.016101
8598000,0.0324,0.013523,0.002678,0.000431,0.016571
8599000,0.0324,0.013523,0.002678,0.000431,0.014573
8600000,0.0324,0.013523,0.002678,0.000431,0.017747
8601000,0.0324,0.013523,0.002678,0.000431,0.016101
8602000,0.0324,0.013523,0.002678,0.000431,0.016101
8603000,0.0324,0.013523,0.002678,0.000431,0.016807
8604000,0.0324,0.013523,0.002678,0.000431,0.016101
8605000,0.0324,0.013523,0.002678,0.000431,0.015984
8606000,0.0324,0.013523,0.002678,0.000431,0.017159
8607000,0.0324,0.013523,0.002678,0.000431,0.015749
8608000,0.0324,0.013523,0.002678,0.000431,0.016571
8609000,0.0324,0.013523,0.002678,0.000431,0.015984
8610000,0.0324,0.013523,0.002678,0.000431,0.016689
8611000,0.0324,0.013523,0.002678,0.000431,0.015749
8612000,0.0324,0.013523,0.002678,0.000431,0.016571
8613000,0.0324,0.013523,0.002678,0.000431,0.015514
8614000,0.0324,0.013523,0.002678,0.000431,0.015984
8615000,0.0324,0.013523,0.002678,0.000431,0.015749
8616000,0.0324,0.013523,0.002678,0.000431,0.017277
8617000,0.0324,0.013523,0.002678,0.000431,0.016571
8618000,0.0324,0.013523,0.002678,0.000431,0.015396
8619000,0.0324,0.013523,0.002678,0.000431,0.017394
8620000,0.0324,0.013523,0.002678,0.000431,0.015514
8621000,0.0324,0.013523,0.002678,0.000431,0.016924
8622000,0.0324,0.013523,0.002678,0.000431,0.015749
8623000,0.0324,0.013523,0.002678,0.000431,0.015631
8624000,0.0324,0.013523,0.002678,0.000431,0.014103
8625000,0.0324,0.013523,0.002678,0.000431,0.014103
8626000,0.0324,0.013523,0.002678,0.000431,0.014691
8627000,0.0324,0.013523,0.002678,0.000431,0.015984
8628000,0.0324,0.013523,0.002678,0.000431,0.013986
8629000,0.0324,0.013523,0.002678,0.000431,0.015631
8630000,0.0324,0.013523,0.002678,0.000431,0.013986
8631000,0.0324,0.013523,0.002678,0.000431,0.016219
8632000,0.0324,0.013523,0.002678,0.000431,0.013986
8633000,0.0324,0.013523,0.002678,0.000431,0.014926
8634000,0.0324,0.013523,0.002678,0.000431,0.015161
8635000,0.0324,0.013523,0.002678,0.000431,0.013986
8636000,0.0324,0.013523,0.002678,0.000431,0.015044
8637000,0.0324,0.013523,0.002678,0.000431,0.014691
8638000,0.0324,0.013523,0.002678,0.000431,0.015396
8639000,0.0324,0.013523,0.002678,0.000431,0.014926
8640000,0.0324,0.013523,0.002678,0.000431,0.014338
8641000,0.0324,0.013523,0.002678,0.000431,0.015749
8642000,0.0324,0.013523,0.002678,0.000431,0.015161
8643000,0.0324,0.013523,0.002678,0.000431,0.014926
8644000,0.0324,0.013523,0.002678,0.000431,0.014926
8645000,0.0324,0.013523,0.002678,0.000431,0.013986
8646000,0.0324,0.013523,0.002678,0.000431,0.016219
8647000,0.0324,0.013523,0.002678,0.000431,0.013868
8648000,0.0324,0.013523,0.002678,0.000431,0.015044
8649000,0.0324,0.013523,0.002678,0.000431,0.014809
8650000,0.0324,0.013523,0.002678,0.000431,0.015279
8651000,0.0324,0.013523,0.002678,0.000431,0.014809
8652000,0.0324,0.013523,0.002678,0.000431,0.014456
8653000,0.0324,0.013523,0.002678,0.000431,0.014221
8654000,0.0324,0.013523,0.002678,0.000431,0.015984
8655000,0.0324,0.013523,0.002678,0.000431,0.013986
8656000,0.0324,0.013523,0.002678,0.000431,0.016101
8657000,0.0324,0.013523,0.002678,0.000431,0.015631
8658000,0.0324,0.013523,0.002678,0.000431,0.014456
8659000,0.0324,0.013523,0.002678,0.000431,0.014456
8660000,0.0324,0.013523,0.002678,0.000431,0.014456
8661000,0.0324,0.013523,0.002678,0.000431,0.014926
8662000,0.0324,0.013523,0.002678,0.000431,0.015044
8663000,0.0324,0.013523,0.002678,0.000431,0.014103
8664000,0.0324,0.013523,0.002678,0.000431,0.014338
8665000,0.0324,0.013523,0.002678,0.000431,0.015161
8666000,0.0324,0.013523,0.002678,0.000431,0.015044
8667000,0.0324,0.013523,0.002678,0.000431,0.014573
8668000,0.0324,0.013523,0.002678,0.000431,0.014338
8669000,0.0324,0.013523,0.002678,0.000431,0.015631
8670000,0.0324,0.013523,0.002678,0.000431,0.013986
8671000,0.0324,0.013523,0.002678,0.000431,0.016454
8672000,0.0324,0.013523,0.002678,0.000431,0.013398
8673000,0.0324,0.013523,0.002678,0.000431,0.015044
8674000,0.0324,0.013523,0.002678,0.000431,0.013281
8675000,0.0324,0.013523,0.002678,0.000431,0.015631
8676000,0.0324,0.013523,0.002678,0.000431,0.015631
8677000,0.0324,0.013523,0.002678,0.000431,0.015749
8678000,0.0324,0.013523,0.002678,0.000431,0.013633
8679000,0.0324,0.013523,0.002678,0.000431,0.015749
8680000,0.0324,0.013523,0.002678,0.000431,0.014809
8681000,0.0324,0.013523,0.002678,0.000431,0.015161
8682000,0.0324,0.013523,0.002678,0.000431,0.014926
8683000,0.0324,0.013523,0.002678,0.000431,0.014809
8684000,0.0324,0.013523,0.002678,0.000431,0.014338
8685000,0.0324,0.013523,0.002678,0.000431,0.014809
8686000,0.0324,0.013523,0.002678,0.000431,0.015044
8687000,0.0324,0.013523,0.002678,0.000431,0.014573
8688000,0.0324,0.013523,0.002678,0.000431,0.015044
8689000,0.0324,0.013523,0.002678,0.000431,0.015161
8690000,0.0324,0.013523,0.002678,0.000431,0.014691
8691000,0.0324,0.013523,0.002678,0.000431,0.014691
8692000,0.0324,0.013523,0.002678,0.000431,0.014691
8693000,0.0324,0.013523,0.002678,0.000431,0.013986
8694000,0.0324,0.013523,0.002678,0.000431,0.015749
8695000,0.0324,0.013523,0.002678,0.000431,0.014103
8696000,0.0324,0.013523,0.002678,0.000431,0.015161
8697000,0.0324,0.013523,0.002678,0.000431,0.014103
8698000,0.0324,0.013523,0.002678,0.000431,0.015866
8699000,0.0324,0.013523,0.002678,0.000431,0.014103
8700000,0.0324,0.013523,0.002678,0.000431,0.015631
8701000,0.0324,0.013523,0.002678,0.000431,0.014103
8702000,0.0324,0.013523,0.002678,0.000431,0.016336
8703000,0.0324,0.013523,0.002678,0.000431,0.015279
8704000,0.0324,0.013523,0.002678,0.000431,0.014926
8705000,0.0324,0.013523,0.002678,0.000431,0.014809
8706000,0.0324,0.013523,0.002678,0.000431,0.015631
8707000,0.0324,0.013523,0.002678,0.000431,0.014103
8708000,0.0324,0.013523,0.002678,0.000431,0.014926
8709000,0.0324,0.013523,0.002678,0.000431,0.014456
8710000,0.0324,0.013523,0.002678,0.000431,0.016101
8711000,0.0324,0.013523,0.002678,0.000431,0.013986
8712000,0.0324,0.013523,0.002678,0.000431,0.014691
8713000,0.0324,0.013523,0.002678,0.000431,0.014691
8714000,0.0324,0.013523,0.002678,0.000431,0.014221
8715000,0.0324,0.013523,0.002678,0.000431,0.015749
8716000,0.0324,0.013523,0.002678,0.000431,0.015044
8717000,0.0324,0.013523,0.002678,0.000431,0.015631
8718000,0.0324,0.013523,0.002678,0.000431,0.013163
8719000,0.0324,0.013523,0.002678,0.000431,0.015396
8720000,0.0324,0.013523,0.002678,0.000431,0.014926
8721000,0.0324,0.013523,0.002678,0.000431,0.014926
8722000,0.0324,0.013523,0.002678,0.000431,0.013751
8723000,0.0324,0.013523,0.002678,0.000431,0.016101
8724000,0.0324,0.013523,0.002678,0.000431,0.013751
8725000,0.0324,0.013523,0.002678,0.000431,0.016336
8726000,0.0324,0.013523,0.002678,0.000431,0.014691
8727000,0.0324,0.013523,0.002678,0.000431,0.015631
8728000,0.0324,0.013523,0.002678,0.000431,0.014103
8729000,0.0324,0.013523,0.002678,0.000431,0.014691
8730000,0.0324,0.013523,0.002678,0.000431,0.016219
8731000,0.0324,0.013523,0.002678,0.000431,0.014221
8732000,0.0324,0.013523,0.002678,0.000431,0.015161
8733000,0.0324,0.013523,0.002678,0.000431,0.013163
8734000,0.0324,0.013523,0.002678,0.000431,0.015749
8735000,0.0324,0.013523,0.002678,0.000431,0.015161
8736000,0.0324,0.013523,0.002678,0.000431,0.014456
8737000,0.0324,0.013523,0.002678,0.000431,0.014926
8738000,0.0324,0.013523,0.002678,0.000431,0.015749
8739000,0.0324,0.013523,0.002678,0.000431,0.014809
8740000,0.0324,0.013523,0.002678,0.000431,0.014926
8741000,0.0324,0.013523,0.002678,0.000431,0.015749
8742000,0.0324,0.013523,0.002678,0.000431,0.015044
8743000,0.0324,0.013523,0.002678,0.000431,0.014103
8744000,0.0324,0.013523,0.002678,0.000431,0.015514
8745000,0.0324,0.013523,0.002678,0.000431,0.015749
8746000,0.0324,0.013523,0.002678,0.000431,0.015279
8747000,0.0324,0.013523,0.002678,0.000431,0.014691
8748000,0.0324,0.013523,0.002678,0.000431,0.014456
8749000,0.0324,0.013523,0.002678,0.000431,0.014338
8750000,0.0324,0.013523,0.002678,0.000431,0.016101
8751000,0.0324,0.013523,0.002678,0.000431,0.014103
8752000,0.0324,0.013523,0.002678,0.000431,0.014691
8753000,0.0324,0.013523,0.002678,0.000431,0.014573
8754000,0.0324,0.013523,0.002678,0.000431,0.014573
8755000,0.0324,0.013523,0.002678,0.000431,0.015631
8756000,0.0324,0.013523,0.002678,0.000431,0.013281
8757000,0.0324,0.013523,0.002678,0.000431,0.014691
8758000,0.0324,0.013523,0.002678,0.000431,0.014338
8759000,0.0324,0.013523,0.002678,0.000431,0.014809
8760000,0.0324,0.013523,0.002678,0.000431,0.015866
8761000,0.0324,0.013523,0.002678,0.000431,0.016219
8762000,0.0324,0.013523,0.002678,0.000431,0.014456
8763000,0.0324,0.013523,0.002678,0.000431,0.015161
8764000,0.0324,0.013523,0.002678,0.000431,0.013986
8765000,0.0324,0.013523,0.002678,0.000431,0.016101
8766000,0.0324,0.013523,0.002678,0.000431,0.014691
8767000,0.0324,0.013523,0.002678,0.000431,0.015279
8768000,0.0324,0.013523,0.002678,0.000431,0.014221
8769000,0.0324,0.013523,0.002678,0.000431,0.015044
8770000,0.0324,0.013523,0.002678,0.000431,0.014338
8771000,0.0324,0.013523,0.002678,0.000431,0.015396
8772000,0.0324,0.013523,0.002678,0.000431,0.014809
8773000,0.0324,0.013523,0.002678,0.000431,0.014809
8774000,0.0324,0.013523,0.002678,0.000431,0.015279
8775000,0.0324,0.013523,0.002678,0.000431,0.015749
8776000,0.0324,0.013523,0.002678,0.000431,0.014573
8777000,0.0324,0.013523,0.002678,0.000431,0.013986
8778000,0.0324,0.013523,0.002678,0.000431,0.015161
8779000,0.0324,0.013523,0.002678,0.000431,0.013986
8780000,0.0324,0.013523,0.002678,0.000431,0.015279
8781000,0.0324,0.013523,0.002678,0.000431,0.014456
8782000,0.0324,0.013523,0.002678,0.000431,0.015396
8783000,0.0324,0.013523,0.002678,0.000431,0.014338
8784000,0.0324,0.013523,0.002678,0.000431,0.015631
8785000,0.0324,0.013523,0.002678,0.000431,0.015514
8786000,0.0324,0.013523,0.002678,0.000431,0.015396
8787000,0.0324,0.013523,0.002678,0.000431,0.014573
8788000,0.0324,0.013523,0.002678,0.000431,0.015161
8789000,0.0324,0.013523,0.002678,0.000431,0.014221
8790000,0.0324,0.013523,0.002678,0.000431,0.015866
8791000,0.0324,0.013523,0.002678,0.000431,0.014456
8792000,0.0324,0.013523,0.002678,0.000431,0.015279
8793000,0.0324,0.013523,0.002678,0.000431,0.013281
8794000,0.0324,0.013523,0.002678,0.000431,0.015631
8795000,0.0324,0.013523,0.002678,0.000431,0.013986
8796000,0.0324,0.013523,0.002678,0.000431,0.014809
8797000,0.0324,0.013523,0.002678,0.000431,0.015984
8798000,0.0324,0.013523,0.002678,0.000431,0.013868
8799000,0.0324,0.013523,0.002678,0.000431,0.015044
8800000,0.0324,0.013523,0.002678,0.000431,0.015044
8801000,0.0324,0.013523,0.002678,0.000431,0.015866
8802000,0.0324,0.013523,0.002678,0.000431,0.013868
8803000,0.0324,0.013523,0.002678,0.000431,0.013751
8804000,0.0324,0.013523,0.002678,0.000431,0.015161
8805000,0.0324,0.013523,0.002678,0.000431,0.015514
8806000,0.0324,0.013523,0.002678,0.000431,0.014691
8807000,0.0324,0.013523,0.002678,0.000431,0.014338
8808000,0.0324,0.013523,0.002678,0.000431,0.014809
8809000,0.0324,0.013523,0.002678,0.000431,0.015161
8810000,0.0324,0.013523,0.002678,0.000431,0.014103
8811000,0.0324,0.013523,0.002678,0.000431,0.015866
8812000,0.0324,0.013523,0.002678,0.000431,0.013281
8813000,0.0324,0.013523,0.002678,0.000431,0.014809
8814000,0.0324,0.013523,0.002678,0.000431,0.014338
8815000,0.0324,0.013523,0.002678,0.000431,0.016219
8816000,0.0324,0.013523,0.002678,0.000431,0.015279
8817000,0.0324,0.013523,0.002678,0.000431,0.014573
8818000,0.0324,0.013523,0.002678,0.000431,0.014338
8819000,0.0324,0.013523,0.002678,0.000431,0.014809
8820000,0.0324,0.013523,0.002678,0.000431,0.014103
8821000,0.0324,0.013523,0.002678,0.000431,0.014691
8822000,0.0324,0.013523,0.002678,0.000431,0.014926
8823000,0.0324,0.013523,0.002678,0.000431,0.014456
8824000,0.0324,0.013523,0.002678,0.000431,0.015279
8825000,0.0324,0.013523,0.002678,0.000431,0.015044
8826000,0.0324,0.013523,0.002678,0.000431,0.015631
8827000,0.0324,0.013523,0.002678,0.000431,0.013986
8828000,0.0324,0.013523,0.002678,0.000431,0.013868
8829000,0.0324,0.013523,0.002678,0.000431,0.015044
8830000,0.0324,0.013523,0.002678,0.000431,0.015044
8831000,0.0324,0.013523,0.002678,0.000431,0.015044
8832000,0.0324,0.013523,0.002678,0.000431,0.015749
8833000,0.0324,0.013523,0.002678,0.000431,0.013751
8834000,0.0324,0.013523,0.002678,0.000431,0.014809
8835000,0.0324,0.013523,0.002678,0.000431,0.015279
8836000,0.0324,0.013523,0.002678,0.000431,0.014456
8837000,0.0324,0.013523,0.002678,0.000431,0.014456
8838000,0.0324,0.013523,0.002678,0.000431,0.014809
8839000,0.0324,0.013523,0.002678,0.000431,0.013986
8840000,0.0324,0.013523,0.002678,0.000431,0.015279
8841000,0.0324,0.013523,0.002678,0.000431,0.014691
8842000,0.0324,0.013523,0.002678,0.000431,0.015161
8843000,0.0324,0.013523,0.002678,0.000431,0.013281
8844000,0.0324,0.013523,0.002678,0.000431,0.014926
8845000,0.0324,0.013523,0.002678,0.000431,0.015514
8846000,0.0324,0.013523,0.002678,0.000431,0.015749
8847000,0.0324,0.013523,0.002678,0.000431,0.014103
8848000,0.0324,0.013523,0.002678,0.000431,0.014103
8849000,0.0324,0.013523,0.002678,0.000431,0.014221
8850000,0.0324,0.013523,0.002678,0.000431,0.015279
8851000,0.0324,0.013523,0.002678,0.000431,0.015631
8852000,0.0324,0.013523,0.002678,0.000431,0.013751
8853000,0.0324,0.013523,0.002678,0.000431,0.013751
8854000,0.0324,0.013523,0.002678,0.000431,0.013751
8855000,0.0324,0.013523,0.002678,0.000431,0.015161
8856000,0.0324,0.013523,0.002678,0.000431,0.014103
8857000,0.0324,0.013523,0.002678,0.000431,0.014691
8858000,0.0324,0.013523,0.002678,0.000431,0.014103
8859000,0.0324,0.013523,0.002678,0.000431,0.015631
8860000,0.0324,0.013523,0.002678,0.000431,0.014926
8861000,0.0324,0.013523,0.002678,0.000431,0.015044
8862000,0.0324,0.013523,0.002678,0.000431,0.015044
8863000,0.0324,0.013523,0.002678,0.000431,0.014103
8864000,0.0324,0.013523,0.002678,0.000431,0.013986
8865000,0.0324,0.013523,0.002678,0.000431,0.015866
8866000,0.0324,0.013523,0.002678,0.000431,0.013986
8867000,0.0324,0.013523,0.002678,0.000431,0.014809
8868000,0.0324,0.013523,0.002678,0.000431,0.013868
8869000,0.0324,0.013523,0.002678,0.000431,0.014809
8870000,0.0324,0.013523,0.002678,0.000431,0.015631
8871000,0.0324,0.013523,0.002678,0.000431,0.014691
8872000,0.0324,0.013523,0.002678,0.000431,0.014221
8873000,0.0324,0.013523,0.002678,0.000431,0.014456
8874000,0.0324,0.013523,0.002678,0.000431,0.013986
8875000,0.0324,0.013523,0.002678,0.000431,0.015866
8876000,0.0324,0.013523,0.002678,0.000431,0.014809
8877000,0.0324,0.013523,0.002678,0.000431,0.014221
8878000,0.0324,0.013523,0.002678,0.000431,0.014926
8879000,0.0324,0.013523,0.002678,0.000431,0.014691
8880000,0.0324,0.013523,0.002678,0.000431,0.014103
8881000,0.0324,0.013523,0.002678,0.000431,0.014809
8882000,0.0324,0.013523,0.002678,0.000431,0.014926
8883000,0.0324,0.013523,0.002678,0.000431,0.013163
8884000,0.0324,0.013523,0.002678,0.000431,0.015279
8885000,0.0324,0.013523,0.002678,0.000431,0.015161
8886000,0.0324,0.013523,0.002678,0.000431,0.014221
8887000,0.0324,0.013523,0.002678,0.000431,0.015161
8888000,0.0324,0.013523,0.002678,0.000431,0.014691
8889000,0.0324,0.013523,0.002678,0.000431,0.014338
8890000,0.0324,0.013523,0.002678,0.000431,0.016101
8891000,0.0324,0.013523,0.002678,0.000431,0.013516
8892000,0.0324,0.013523,0.002678,0.000431,0.015161
8893000,0.0324,0.013523,0.002678,0.000431,0.013868
8894000,0.0324,0.013523,0.002678,0.000431,0.013751
8895000,0.0324,0.013523,0.002678,0.000431,0.015279
8896000,0.0324,0.013523,0.002678,0.000431,0.014103
8897000,0.0324,0.013523,0.002678,0.000431,0.014809
8898000,0.0324,0.013523,0.002678,0.000431,0.014456
8899000,0.0324,0.013523,0.002678,0.000431,0.014926
8900000,0.0324,0.013523,0.002678,0.000431,0.015631
8901000,0.0324,0.013523,0.002678,0.000431,0.014221
8902000,0.0324,0.013523,0.002678,0.000431,0.014809
8903000,0.0324,0.013523,0.002678,0.000431,0.013986
8904000,0.0324,0.013523,0.002678,0.000431,0.015749
8905000,0.0324,0.013523,0.002678,0.000431,0.015044
8906000,0.0324,0.013523,0.002678,0.000431,0.014573
8907000,0.0324,0.013523,0.002678,0.000431,0.014926
8908000,0.0324,0.013523,0.002678,0.000431,0.013633
8909000,0.0324,0.013523,0.002678,0.000431,0.015631
8910000,0.0324,0.013523,0.002678,0.000431,0.015749
8911000,0.0324,0.013523,0.002678,0.000431,0.014691
8912000,0.0324,0.013523,0.002678,0.000431,0.013633
8913000,0.0324,0.013523,0.002678,0.000431,0.015279
8914000,0.0324,0.013523,0.002678,0.000431,0.014573
8915000,0.0324,0.013523,0.002678,0.000431,0.014926
8916000,0.0324,0.013523,0.002678,0.000431,0.014691
8917000,0.0324,0.013523,0.002678,0.000431,0.014809
8918000,0.0324,0.013523,0.002678,0.000431,0.014338
8919000,0.0324,0.013523,0.002678,0.000431,0.014573
8920000,0.0324,0.013523,0.002678,0.000431,0.015279
8921000,0.0324,0.013523,0.002678,0.000431,0.015044
8922000,0.0324,0.013523,0.002678,0.000431,0.015161
8923000,0.0324,0.013523,0.002678,0.000431,0.014926
8924000,0.0324,0.013523,0.002678,0.000431,0.013986
8925000,0.0324,0.013523,0.002678,0.000431,0.013398
8926000,0.0324,0.013523,0.002678,0.000431,0.013986
8927000,0.0324,0.013523,0.002678,0.000431,0.012928
8928000,0.0324,0.013523,0.002678,0.000431,0.013398
8929000,0.0324,0.013523,0.002678,0.000431,0.013398
8930000,0.0324,0.013523,0.002678,0.000431,0.015161
8931000,0.0324,0.013523,0.002678,0.000431,0.013633
8932000,0.0324,0.013523,0.002678,0.000431,0.013281
8933000,0.0324,0.013523,0.002678,0.000431,0.014926
8934000,0.0324,0.013523,0.002678,0.000431,0.014103
8935000,0.0324,0.013523,0.002678,0.000431,0.014456
8936000,0.0324,0.013523,0.002678,0.000431,0.013046
8937000,0.0324,0.013523,0.002678,0.000431,0.013751
8938000,0.0324,0.013523,0.002678,0.000431,0.013516
8939000,0.0324,0.013523,0.002678,0.000431,0.013868
8940000,0.0324,0.013523,0.002678,0.000431,0.014691
8941000,0.0324,0.013523,0.002678,0.000431,0.013516
8942000,0.0324,0.013523,0.002678,0.000431,0.013633
8943000,0.0324,0.013523,0.002678,0.000431,0.012928
8944000,0.0324,0.013523,0.002678,0.000431,0.014103
8945000,0.0324,0.013523,0.002678,0.000431,0.013751
8946000,0.0324,0.013523,0.002678,0.000431,0.013633
8947000,0.0324,0.013523,0.002678,0.000431,0.013633
8948000,0.0324,0.013523,0.002678,0.000431,0.013751
8949000,0.0324,0.013523,0.002678,0.000431,0.013868
8950000,0.0324,0.013523,0.002678,0.000431,0.014103
8951000,0.0324,0.013523,0.002678,0.000431,0.013046
8952000,0.0324,0.013523,0.002678,0.000431,0.014573
8953000,0.0324,0.013523,0.002678,0.000431,0.013633
8954000,0.0324,0.013523,0.002678,0.000431,0.014338
8955000,0.0324,0.013523,0.002678,0.000431,0.014221
8956000,0.0324,0.013523,0.002678,0.000431,0.013516
8957000,0.0324,0.013523,0.002678,0.000431,0.013751
8958000,0.0324,0.013523,0.002678,0.000431,0.013633
8959000,0.0324,0.013523,0.002678,0.000431,0.013398
8960000,0.0324,0.013523,0.002678,0.000431,0.014103
8961000,0.0324,0.013523,0.002678,0.000431,0.013868
8962000,0.0324,0.013523,0.002678,0.000431,0.013281
8963000,0.0324,0.013523,0.002678,0.000431,0.013868
8964000,0.0324,0.013523,0.002678,0.000431,0.014456
8965000,0.0324,0.013523,0.002678,0.000431,0.014456
8966000,0.0324,0.013523,0.002678,0.000431,0.013398
8967000,0.0324,0.013523,0.002678,0.000431,0.014103
8968000,0.0324,0.013523,0.002678,0.000431,0.012576
8969000,0.0324,0.013523,0.002678,0.000431,0.013398
8970000,0.0324,0.013523,0.002678,0.000431,0.014221
8971000,0.0324,0.013523,0.002678,0.000431,0.013398
8972000,0.0324,0.013523,0.002678,0.000431,0.013633
8973000,0.0324,0.013523,0.002678,0.000431,0.013868
8974000,0.0324,0.013523,0.002678,0.000431,0.012928
8975000,0.0324,0.013523,0.002678,0.000431,0.014691
8976000,0.0324,0.013523,0.002678,0.000431,0.013516
8977000,0.0324,0.013523,0.002678,0.000431,0.013633
8978000,0.0324,0.013523,0.002678,0.000431,0.014221
8979000,0.0324,0.013523,0.002678,0.000431,0.013516
8980000,0.0324,0.013523,0.002678,0.000431,0.014338
8981000,0.0324,0.013523,0.002678,0.000431,0.013868
8982000,0.0324,0.013523,0.002678,0.000431,0.013163
8983000,0.0324,0.013523,0.002678,0.000431,0.013751
8984000,0.0324,0.013523,0.002678,0.000431,0.013751
8985000,0.0324,0.013523,0.002678,0.000431,0.015514
8986000,0.0324,0.013523,0.002678,0.000431,0.013046
8987000,0.0324,0.013523,0.002678,0.000431,0.013163
8988000,0.0324,0.013523,0.002678,0.000431,0.013751
8989000,0.0324,0.013523,0.002678,0.000431,0.013398
8990000,0.0324,0.013523,0.002678,0.000431,0.014573
8991000,0.0324,0.013523,0.002678,0.000431,0.013398
8992000,0.0324,0.013523,0.002678,0.000431,0.013751
8993000,0.0324,0.013523,0.002678,0.000431,0.012340
8994000,0.0324,0.013523,0.002678,0.000431,0.014691
8995000,0.0324,0.013523,0.002678,0.000431,0.013633
8996000,0.0324,0.013523,0.002678,0.000431,0.013868
8997000,0.0324,0.013523,0.002678,0.000431,0.013751
8998000,0.0324,0.013523,0.002678,0.000431,0.013986
8999000,0.0324,0.013523,0.002678,0.000431,0.013868
