Cycle,Area(mm^2),PeakDynamic(W),SubthresholdLeakage(W),GateLeakage(W),RunTimeDynamic(W)
10000000,0.0324,0.013523,0.002678,0.000431,0.010225
10001000,0.0324,0.013523,0.002678,0.000431,0.011283
10002000,0.0324,0.013523,0.002678,0.000431,0.011165
10003000,0.0324,0.013523,0.002678,0.000431,0.011283
10004000,0.0324,0.013523,0.002678,0.000431,0.009755
10005000,0.0324,0.013523,0.002678,0.000431,0.011753
10006000,0.0324,0.013523,0.002678,0.000431,0.011635
10007000,0.0324,0.013523,0.002678,0.000431,0.010342
10008000,0.0324,0.013523,0.002678,0.000431,0.010107
10009000,0.0324,0.013523,0.002678,0.000431,0.011165
10010000,0.0324,0.013523,0.002678,0.000431,0.010695
10011000,0.0324,0.013523,0.002678,0.000431,0.010460
10012000,0.0324,0.013523,0.002678,0.000431,0.011048
10013000,0.0324,0.013523,0.002678,0.000431,0.011870
10014000,0.0324,0.013523,0.002678,0.000431,0.010813
10015000,0.0324,0.013523,0.002678,0.000431,0.010930
10016000,0.0324,0.013523,0.002678,0.000431,0.011048
10017000,0.0324,0.013523,0.002678,0.000431,0.011400
10018000,0.0324,0.013523,0.002678,0.000431,0.010107
10019000,0.0324,0.013523,0.002678,0.000431,0.011048
10020000,0.0324,0.013523,0.002678,0.000431,0.010930
10021000,0.0324,0.013523,0.002678,0.000431,0.010460
10022000,0.0324,0.013523,0.002678,0.000431,0.010460
10023000,0.0324,0.013523,0.002678,0.000431,0.010930
10024000,0.0324,0.013523,0.002678,0.000431,0.010225
10025000,0.0324,0.013523,0.002678,0.000431,0.010695
10026000,0.0324,0.013523,0.002678,0.000431,0.010930
10027000,0.0324,0.013523,0.002678,0.000431,0.010695
10028000,0.0324,0.013523,0.002678,0.000431,0.010813
10029000,0.0324,0.013523,0.002678,0.000431,0.010578
10030000,0.0324,0.013523,0.002678,0.000431,0.011753
10031000,0.0324,0.013523,0.002678,0.000431,0.010107
10032000,0.0324,0.013523,0.002678,0.000431,0.010813
10033000,0.0324,0.013523,0.002678,0.000431,0.011518
10034000,0.0324,0.013523,0.002678,0.000431,0.009755
10035000,0.0324,0.013523,0.002678,0.000431,0.010695
10036000,0.0324,0.013523,0.002678,0.000431,0.010813
10037000,0.0324,0.013523,0.002678,0.000431,0.011165
10038000,0.0324,0.013523,0.002678,0.000431,0.010225
10039000,0.0324,0.013523,0.002678,0.000431,0.011048
10040000,0.0324,0.013523,0.002678,0.000431,0.011048
10041000,0.0324,0.013523,0.002678,0.000431,0.010930
10042000,0.0324,0.013523,0.002678,0.000431,0.010695
10043000,0.0324,0.013523,0.002678,0.000431,0.010578
10044000,0.0324,0.013523,0.002678,0.000431,0.011635
10045000,0.0324,0.013523,0.002678,0.000431,0.010107
10046000,0.0324,0.013523,0.002678,0.000431,0.011283
10047000,0.0324,0.013523,0.002678,0.000431,0.010930
10048000,0.0324,0.013523,0.002678,0.000431,0.010460
10049000,0.0324,0.013523,0.002678,0.000431,0.011400
10050000,0.0324,0.013523,0.002678,0.000431,0.011048
10051000,0.0324,0.013523,0.002678,0.000431,0.010107
10052000,0.0324,0.013523,0.002678,0.000431,0.010460
10053000,0.0324,0.013523,0.002678,0.000431,0.011753
10054000,0.0324,0.013523,0.002678,0.000431,0.010813
10055000,0.0324,0.013523,0.002678,0.000431,0.010225
10056000,0.0324,0.013523,0.002678,0.000431,0.010695
10057000,0.0324,0.013523,0.002678,0.000431,0.011988
10058000,0.0324,0.013523,0.002678,0.000431,0.010813
10059000,0.0324,0.013523,0.002678,0.000431,0.010578
10060000,0.0324,0.013523,0.002678,0.000431,0.011988
10061000,0.0324,0.013523,0.002678,0.000431,0.010578
10062000,0.0324,0.013523,0.002678,0.000431,0.011165
10063000,0.0324,0.013523,0.002678,0.000431,0.011518
10064000,0.0324,0.013523,0.002678,0.000431,0.009755
10065000,0.0324,0.013523,0.002678,0.000431,0.011753
10066000,0.0324,0.013523,0.002678,0.000431,0.011400
10067000,0.0324,0.013523,0.002678,0.000431,0.009990
10068000,0.0324,0.013523,0.002678,0.000431,0.011048
10069000,0.0324,0.013523,0.002678,0.000431,0.011283
10070000,0.0324,0.013523,0.002678,0.000431,0.010930
10071000,0.0324,0.013523,0.002678,0.000431,0.010813
10072000,0.0324,0.013523,0.002678,0.000431,0.009520
10073000,0.0324,0.013523,0.002678,0.000431,0.011400
10074000,0.0324,0.013523,0.002678,0.000431,0.011048
10075000,0.0324,0.013523,0.002678,0.000431,0.010930
10076000,0.0324,0.013523,0.002678,0.000431,0.010107
10077000,0.0324,0.013523,0.002678,0.000431,0.011283
10078000,0.0324,0.013523,0.002678,0.000431,0.011048
10079000,0.0324,0.013523,0.002678,0.000431,0.010813
10080000,0.0324,0.013523,0.002678,0.000431,0.010813
10081000,0.0324,0.013523,0.002678,0.000431,0.011988
10082000,0.0324,0.013523,0.002678,0.000431,0.009872
10083000,0.0324,0.013523,0.002678,0.000431,0.010695
10084000,0.0324,0.013523,0.002678,0.000431,0.010342
10085000,0.0324,0.013523,0.002678,0.000431,0.010460
10086000,0.0324,0.013523,0.002678,0.000431,0.011753
10087000,0.0324,0.013523,0.002678,0.000431,0.011048
10088000,0.0324,0.013523,0.002678,0.000431,0.010460
10089000,0.0324,0.013523,0.002678,0.000431,0.010695
10090000,0.0324,0.013523,0.002678,0.000431,0.011753
10091000,0.0324,0.013523,0.002678,0.000431,0.011518
10092000,0.0324,0.013523,0.002678,0.000431,0.010460
10093000,0.0324,0.013523,0.002678,0.000431,0.010460
10094000,0.0324,0.013523,0.002678,0.000431,0.010578
10095000,0.0324,0.013523,0.002678,0.000431,0.011165
10096000,0.0324,0.013523,0.002678,0.000431,0.010930
10097000,0.0324,0.013523,0.002678,0.000431,0.010342
10098000,0.0324,0.013523,0.002678,0.000431,0.011283
10099000,0.0324,0.013523,0.002678,0.000431,0.010342
10100000,0.0324,0.013523,0.002678,0.000431,0.011165
10101000,0.0324,0.013523,0.002678,0.000431,0.011283
10102000,0.0324,0.013523,0.002678,0.000431,0.011048
10103000,0.0324,0.013523,0.002678,0.000431,0.011165
10104000,0.0324,0.013523,0.002678,0.000431,0.010342
10105000,0.0324,0.013523,0.002678,0.000431,0.011165
10106000,0.0324,0.013523,0.002678,0.000431,0.010578
10107000,0.0324,0.013523,0.002678,0.000431,0.011283
10108000,0.0324,0.013523,0.002678,0.000431,0.010695
10109000,0.0324,0.013523,0.002678,0.000431,0.010460
10110000,0.0324,0.013523,0.002678,0.000431,0.011283
10111000,0.0324,0.013523,0.002678,0.000431,0.010107
10112000,0.0324,0.013523,0.002678,0.000431,0.010460
10113000,0.0324,0.013523,0.002678,0.000431,0.010342
10114000,0.0324,0.013523,0.002678,0.000431,0.010578
10115000,0.0324,0.013523,0.002678,0.000431,0.011283
10116000,0.0324,0.013523,0.002678,0.000431,0.010930
10117000,0.0324,0.013523,0.002678,0.000431,0.010107
10118000,0.0324,0.013523,0.002678,0.000431,0.011635
10119000,0.0324,0.013523,0.002678,0.000431,0.010930
10120000,0.0324,0.013523,0.002678,0.000431,0.010695
10121000,0.0324,0.013523,0.002678,0.000431,0.010930
10122000,0.0324,0.013523,0.002678,0.000431,0.010695
10123000,0.0324,0.013523,0.002678,0.000431,0.011165
10124000,0.0324,0.013523,0.002678,0.000431,0.011283
10125000,0.0324,0.013523,0.002678,0.000431,0.010225
10126000,0.0324,0.013523,0.002678,0.000431,0.010107
10127000,0.0324,0.013523,0.002678,0.000431,0.011048
10128000,0.0324,0.013523,0.002678,0.000431,0.011518
10129000,0.0324,0.013523,0.002678,0.000431,0.010695
10130000,0.0324,0.013523,0.002678,0.000431,0.009872
10131000,0.0324,0.013523,0.002678,0.000431,0.012340
10132000,0.0324,0.013523,0.002678,0.000431,0.010578
10133000,0.0324,0.013523,0.002678,0.000431,0.011048
10134000,0.0324,0.013523,0.002678,0.000431,0.010813
10135000,0.0324,0.013523,0.002678,0.000431,0.011048
10136000,0.0324,0.013523,0.002678,0.000431,0.010342
10137000,0.0324,0.013523,0.002678,0.000431,0.009520
10138000,0.0324,0.013523,0.002678,0.000431,0.011400
10139000,0.0324,0.013523,0.002678,0.000431,0.010930
10140000,0.0324,0.013523,0.002678,0.000431,0.009755
10141000,0.0324,0.013523,0.002678,0.000431,0.010930
10142000,0.0324,0.013523,0.002678,0.000431,0.010578
10143000,0.0324,0.013523,0.002678,0.000431,0.010930
10144000,0.0324,0.013523,0.002678,0.000431,0.010578
10145000,0.0324,0.013523,0.002678,0.000431,0.010460
10146000,0.0324,0.013523,0.002678,0.000431,0.010460
10147000,0.0324,0.013523,0.002678,0.000431,0.011635
10148000,0.0324,0.013523,0.002678,0.000431,0.009520
10149000,0.0324,0.013523,0.002678,0.000431,0.011518
10150000,0.0324,0.013523,0.002678,0.000431,0.010460
10151000,0.0324,0.013523,0.002678,0.000431,0.011048
10152000,0.0324,0.013523,0.002678,0.000431,0.009990
10153000,0.0324,0.013523,0.002678,0.000431,0.011283
10154000,0.0324,0.013523,0.002678,0.000431,0.010107
10155000,0.0324,0.013523,0.002678,0.000431,0.011048
10156000,0.0324,0.013523,0.002678,0.000431,0.010578
10157000,0.0324,0.013523,0.002678,0.000431,0.010813
10158000,0.0324,0.013523,0.002678,0.000431,0.010578
10159000,0.0324,0.013523,0.002678,0.000431,0.011400
10160000,0.0324,0.013523,0.002678,0.000431,0.010460
10161000,0.0324,0.013523,0.002678,0.000431,0.010930
10162000,0.0324,0.013523,0.002678,0.000431,0.011988
10163000,0.0324,0.013523,0.002678,0.000431,0.010107
10164000,0.0324,0.013523,0.002678,0.000431,0.011400
10165000,0.0324,0.013523,0.002678,0.000431,0.010695
10166000,0.0324,0.013523,0.002678,0.000431,0.010813
10167000,0.0324,0.013523,0.002678,0.000431,0.010930
10168000,0.0324,0.013523,0.002678,0.000431,0.011048
10169000,0.0324,0.013523,0.002678,0.000431,0.010930
10170000,0.0324,0.013523,0.002678,0.000431,0.011283
10171000,0.0324,0.013523,0.002678,0.000431,0.010578
10172000,0.0324,0.013523,0.002678,0.000431,0.011400
10173000,0.0324,0.013523,0.002678,0.000431,0.009990
10174000,0.0324,0.013523,0.002678,0.000431,0.010930
10175000,0.0324,0.013523,0.002678,0.000431,0.011400
10176000,0.0324,0.013523,0.002678,0.000431,0.011400
10177000,0.0324,0.013523,0.002678,0.000431,0.009990
10178000,0.0324,0.013523,0.002678,0.000431,0.010813
10179000,0.0324,0.013523,0.002678,0.000431,0.010578
10180000,0.0324,0.013523,0.002678,0.000431,0.010578
10181000,0.0324,0.013523,0.002678,0.000431,0.010107
10182000,0.0324,0.013523,0.002678,0.000431,0.011753
10183000,0.0324,0.013523,0.002678,0.000431,0.011283
10184000,0.0324,0.013523,0.002678,0.000431,0.010578
10185000,0.0324,0.013523,0.002678,0.000431,0.009990
10186000,0.0324,0.013523,0.002678,0.000431,0.011165
10187000,0.0324,0.013523,0.002678,0.000431,0.011988
10188000,0.0324,0.013523,0.002678,0.000431,0.010107
10189000,0.0324,0.013523,0.002678,0.000431,0.011518
10190000,0.0324,0.013523,0.002678,0.000431,0.010578
10191000,0.0324,0.013523,0.002678,0.000431,0.010813
10192000,0.0324,0.013523,0.002678,0.000431,0.011165
10193000,0.0324,0.013523,0.002678,0.000431,0.009990
10194000,0.0324,0.013523,0.002678,0.000431,0.011635
10195000,0.0324,0.013523,0.002678,0.000431,0.009520
10196000,0.0324,0.013523,0.002678,0.000431,0.011988
10197000,0.0324,0.013523,0.002678,0.000431,0.011048
10198000,0.0324,0.013523,0.002678,0.000431,0.009402
10199000,0.0324,0.013523,0.002678,0.000431,0.011400
10200000,0.0324,0.013523,0.002678,0.000431,0.011518
10201000,0.0324,0.013523,0.002678,0.000431,0.009990
10202000,0.0324,0.013523,0.002678,0.000431,0.011753
10203000,0.0324,0.013523,0.002678,0.000431,0.010460
10204000,0.0324,0.013523,0.002678,0.000431,0.011165
10205000,0.0324,0.013523,0.002678,0.000431,0.010342
10206000,0.0324,0.013523,0.002678,0.000431,0.010695
10207000,0.0324,0.013523,0.002678,0.000431,0.011048
10208000,0.0324,0.013523,0.002678,0.000431,0.010695
10209000,0.0324,0.013523,0.002678,0.000431,0.010695
10210000,0.0324,0.013523,0.002678,0.000431,0.011400
10211000,0.0324,0.013523,0.002678,0.000431,0.010460
10212000,0.0324,0.013523,0.002678,0.000431,0.011400
10213000,0.0324,0.013523,0.002678,0.000431,0.010813
10214000,0.0324,0.013523,0.002678,0.000431,0.010930
10215000,0.0324,0.013523,0.002678,0.000431,0.010460
10216000,0.0324,0.013523,0.002678,0.000431,0.010930
10217000,0.0324,0.013523,0.002678,0.000431,0.010930
10218000,0.0324,0.013523,0.002678,0.000431,0.011283
10219000,0.0324,0.013523,0.002678,0.000431,0.009990
10220000,0.0324,0.013523,0.002678,0.000431,0.011400
10221000,0.0324,0.013523,0.002678,0.000431,0.010930
10222000,0.0324,0.013523,0.002678,0.000431,0.010695
10223000,0.0324,0.013523,0.002678,0.000431,0.010930
10224000,0.0324,0.013523,0.002678,0.000431,0.011283
10225000,0.0324,0.013523,0.002678,0.000431,0.009872
10226000,0.0324,0.013523,0.002678,0.000431,0.010578
10227000,0.0324,0.013523,0.002678,0.000431,0.011283
10228000,0.0324,0.013523,0.002678,0.000431,0.011283
10229000,0.0324,0.013523,0.002678,0.000431,0.011048
10230000,0.0324,0.013523,0.002678,0.000431,0.011048
10231000,0.0324,0.013523,0.002678,0.000431,0.011870
10232000,0.0324,0.013523,0.002678,0.000431,0.010342
10233000,0.0324,0.013523,0.002678,0.000431,0.011870
10234000,0.0324,0.013523,0.002678,0.000431,0.010695
10235000,0.0324,0.013523,0.002678,0.000431,0.010578
10236000,0.0324,0.013523,0.002678,0.000431,0.010695
10237000,0.0324,0.013523,0.002678,0.000431,0.011283
10238000,0.0324,0.013523,0.002678,0.000431,0.011165
10239000,0.0324,0.013523,0.002678,0.000431,0.010225
10240000,0.0324,0.013523,0.002678,0.000431,0.011400
10241000,0.0324,0.013523,0.002678,0.000431,0.010342
10242000,0.0324,0.013523,0.002678,0.000431,0.009637
10243000,0.0324,0.013523,0.002678,0.000431,0.010460
10244000,0.0324,0.013523,0.002678,0.000431,0.011635
10245000,0.0324,0.013523,0.002678,0.000431,0.009520
10246000,0.0324,0.013523,0.002678,0.000431,0.010930
10247000,0.0324,0.013523,0.002678,0.000431,0.011988
10248000,0.0324,0.013523,0.002678,0.000431,0.011048
10249000,0.0324,0.013523,0.002678,0.000431,0.009872
10250000,0.0324,0.013523,0.002678,0.000431,0.011283
10251000,0.0324,0.013523,0.002678,0.000431,0.010813
10252000,0.0324,0.013523,0.002678,0.000431,0.011165
10253000,0.0324,0.013523,0.002678,0.000431,0.011048
10254000,0.0324,0.013523,0.002678,0.000431,0.010695
10255000,0.0324,0.013523,0.002678,0.000431,0.010695
10256000,0.0324,0.013523,0.002678,0.000431,0.010342
10257000,0.0324,0.013523,0.002678,0.000431,0.010813
10258000,0.0324,0.013523,0.002678,0.000431,0.011165
10259000,0.0324,0.013523,0.002678,0.000431,0.010107
10260000,0.0324,0.013523,0.002678,0.000431,0.010578
10261000,0.0324,0.013523,0.002678,0.000431,0.011635
10262000,0.0324,0.013523,0.002678,0.000431,0.010578
10263000,0.0324,0.013523,0.002678,0.000431,0.010342
10264000,0.0324,0.013523,0.002678,0.000431,0.010695
10265000,0.0324,0.013523,0.002678,0.000431,0.010695
10266000,0.0324,0.013523,0.002678,0.000431,0.011048
10267000,0.0324,0.013523,0.002678,0.000431,0.010225
10268000,0.0324,0.013523,0.002678,0.000431,0.011283
10269000,0.0324,0.013523,0.002678,0.000431,0.010695
10270000,0.0324,0.013523,0.002678,0.000431,0.010460
10271000,0.0324,0.013523,0.002678,0.000431,0.010460
10272000,0.0324,0.013523,0.002678,0.000431,0.010225
10273000,0.0324,0.013523,0.002678,0.000431,0.010695
10274000,0.0324,0.013523,0.002678,0.000431,0.011988
10275000,0.0324,0.013523,0.002678,0.000431,0.010578
10276000,0.0324,0.013523,0.002678,0.000431,0.010930
10277000,0.0324,0.013523,0.002678,0.000431,0.010930
10278000,0.0324,0.013523,0.002678,0.000431,0.011518
10279000,0.0324,0.013523,0.002678,0.000431,0.011048
10280000,0.0324,0.013523,0.002678,0.000431,0.010225
10281000,0.0324,0.013523,0.002678,0.000431,0.012340
10282000,0.0324,0.013523,0.002678,0.000431,0.010342
10283000,0.0324,0.013523,0.002678,0.000431,0.010695
10284000,0.0324,0.013523,0.002678,0.000431,0.011048
10285000,0.0324,0.013523,0.002678,0.000431,0.011165
10286000,0.0324,0.013523,0.002678,0.000431,0.011048
10287000,0.0324,0.013523,0.002678,0.000431,0.010930
10288000,0.0324,0.013523,0.002678,0.000431,0.010460
10289000,0.0324,0.013523,0.002678,0.000431,0.011048
10290000,0.0324,0.013523,0.002678,0.000431,0.011283
10291000,0.0324,0.013523,0.002678,0.000431,0.011165
10292000,0.0324,0.013523,0.002678,0.000431,0.011400
10293000,0.0324,0.013523,0.002678,0.000431,0.010342
10294000,0.0324,0.013523,0.002678,0.000431,0.011400
10295000,0.0324,0.013523,0.002678,0.000431,0.010225
10296000,0.0324,0.013523,0.002678,0.000431,0.010695
10297000,0.0324,0.013523,0.002678,0.000431,0.010930
10298000,0.0324,0.013523,0.002678,0.000431,0.011048
10299000,0.0324,0.013523,0.002678,0.000431,0.010578
10300000,0.0324,0.013523,0.002678,0.000431,0.010695
10301000,0.0324,0.013523,0.002678,0.000431,0.010460
10302000,0.0324,0.013523,0.002678,0.000431,0.012105
10303000,0.0324,0.013523,0.002678,0.000431,0.009872
10304000,0.0324,0.013523,0.002678,0.000431,0.010225
10305000,0.0324,0.013523,0.002678,0.000431,0.010578
10306000,0.0324,0.013523,0.002678,0.000431,0.011753
10307000,0.0324,0.013523,0.002678,0.000431,0.010813
10308000,0.0324,0.013523,0.002678,0.000431,0.011635
10309000,0.0324,0.013523,0.002678,0.000431,0.010930
10310000,0.0324,0.013523,0.002678,0.000431,0.010342
10311000,0.0324,0.013523,0.002678,0.000431,0.011165
10312000,0.0324,0.013523,0.002678,0.000431,0.011635
10313000,0.0324,0.013523,0.002678,0.000431,0.010225
10314000,0.0324,0.013523,0.002678,0.000431,0.010695
10315000,0.0324,0.013523,0.002678,0.000431,0.010578
10316000,0.0324,0.013523,0.002678,0.000431,0.010578
10317000,0.0324,0.013523,0.002678,0.000431,0.010460
10318000,0.0324,0.013523,0.002678,0.000431,0.011283
10319000,0.0324,0.013523,0.002678,0.000431,0.011753
10320000,0.0324,0.013523,0.002678,0.000431,0.010930
10321000,0.0324,0.013523,0.002678,0.000431,0.010107
10322000,0.0324,0.013523,0.002678,0.000431,0.010813
10323000,0.0324,0.013523,0.002678,0.000431,0.011400
10324000,0.0324,0.013523,0.002678,0.000431,0.010813
10325000,0.0324,0.013523,0.002678,0.000431,0.010813
10326000,0.0324,0.013523,0.002678,0.000431,0.011400
10327000,0.0324,0.013523,0.002678,0.000431,0.011165
10328000,0.0324,0.013523,0.002678,0.000431,0.010460
10329000,0.0324,0.013523,0.002678,0.000431,0.010930
10330000,0.0324,0.013523,0.002678,0.000431,0.010342
10331000,0.0324,0.013523,0.002678,0.000431,0.010930
10332000,0.0324,0.013523,0.002678,0.000431,0.010930
10333000,0.0324,0.013523,0.002678,0.000431,0.010930
10334000,0.0324,0.013523,0.002678,0.000431,0.009990
10335000,0.0324,0.013523,0.002678,0.000431,0.011635
10336000,0.0324,0.013523,0.002678,0.000431,0.011518
10337000,0.0324,0.013523,0.002678,0.000431,0.010930
10338000,0.0324,0.013523,0.002678,0.000431,0.010930
10339000,0.0324,0.013523,0.002678,0.000431,0.010695
10340000,0.0324,0.013523,0.002678,0.000431,0.011400
10341000,0.0324,0.013523,0.002678,0.000431,0.010695
10342000,0.0324,0.013523,0.002678,0.000431,0.011048
10343000,0.0324,0.013523,0.002678,0.000431,0.011165
10344000,0.0324,0.013523,0.002678,0.000431,0.010578
10345000,0.0324,0.013523,0.002678,0.000431,0.010695
10346000,0.0324,0.013523,0.002678,0.000431,0.011165
10347000,0.0324,0.013523,0.002678,0.000431,0.010813
10348000,0.0324,0.013523,0.002678,0.000431,0.010342
10349000,0.0324,0.013523,0.002678,0.000431,0.011635
10350000,0.0324,0.013523,0.002678,0.000431,0.010460
10351000,0.0324,0.013523,0.002678,0.000431,0.010578
10352000,0.0324,0.013523,0.002678,0.000431,0.011518
10353000,0.0324,0.013523,0.002678,0.000431,0.010578
10354000,0.0324,0.013523,0.002678,0.000431,0.011283
10355000,0.0324,0.013523,0.002678,0.000431,0.011048
10356000,0.0324,0.013523,0.002678,0.000431,0.011165
10357000,0.0324,0.013523,0.002678,0.000431,0.010930
10358000,0.0324,0.013523,0.002678,0.000431,0.010460
10359000,0.0324,0.013523,0.002678,0.000431,0.010930
10360000,0.0324,0.013523,0.002678,0.000431,0.012105
10361000,0.0324,0.013523,0.002678,0.000431,0.010578
10362000,0.0324,0.013523,0.002678,0.000431,0.010695
10363000,0.0324,0.013523,0.002678,0.000431,0.010930
10364000,0.0324,0.013523,0.002678,0.000431,0.011400
10365000,0.0324,0.013523,0.002678,0.000431,0.010813
10366000,0.0324,0.013523,0.002678,0.000431,0.011283
10367000,0.0324,0.013523,0.002678,0.000431,0.010342
10368000,0.0324,0.013523,0.002678,0.000431,0.011048
10369000,0.0324,0.013523,0.002678,0.000431,0.010813
10370000,0.0324,0.013523,0.002678,0.000431,0.010930
10371000,0.0324,0.013523,0.002678,0.000431,0.010225
10372000,0.0324,0.013523,0.002678,0.000431,0.011048
10373000,0.0324,0.013523,0.002678,0.000431,0.010813
10374000,0.0324,0.013523,0.002678,0.000431,0.010813
10375000,0.0324,0.013523,0.002678,0.000431,0.010695
10376000,0.0324,0.013523,0.002678,0.000431,0.010225
10377000,0.0324,0.013523,0.002678,0.000431,0.011283
10378000,0.0324,0.013523,0.002678,0.000431,0.010460
10379000,0.0324,0.013523,0.002678,0.000431,0.010342
10380000,0.0324,0.013523,0.002678,0.000431,0.010460
10381000,0.0324,0.013523,0.002678,0.000431,0.011283
10382000,0.0324,0.013523,0.002678,0.000431,0.009990
10383000,0.0324,0.013523,0.002678,0.000431,0.010342
10384000,0.0324,0.013523,0.002678,0.000431,0.010813
10385000,0.0324,0.013523,0.002678,0.000431,0.009872
10386000,0.0324,0.013523,0.002678,0.000431,0.010695
10387000,0.0324,0.013523,0.002678,0.000431,0.011753
10388000,0.0324,0.013523,0.002678,0.000431,0.010342
10389000,0.0324,0.013523,0.002678,0.000431,0.010578
10390000,0.0324,0.013523,0.002678,0.000431,0.011048
10391000,0.0324,0.013523,0.002678,0.000431,0.011635
10392000,0.0324,0.013523,0.002678,0.000431,0.009872
10393000,0.0324,0.013523,0.002678,0.000431,0.010813
10394000,0.0324,0.013523,0.002678,0.000431,0.010695
10395000,0.0324,0.013523,0.002678,0.000431,0.010460
10396000,0.0324,0.013523,0.002678,0.000431,0.010695
10397000,0.0324,0.013523,0.002678,0.000431,0.010695
10398000,0.0324,0.013523,0.002678,0.000431,0.011283
10399000,0.0324,0.013523,0.002678,0.000431,0.011400
10400000,0.0324,0.013523,0.002678,0.000431,0.011048
10401000,0.0324,0.013523,0.002678,0.000431,0.011283
10402000,0.0324,0.013523,0.002678,0.000431,0.009990
10403000,0.0324,0.013523,0.002678,0.000431,0.010930
10404000,0.0324,0.013523,0.002678,0.000431,0.011048
10405000,0.0324,0.013523,0.002678,0.000431,0.010930
10406000,0.0324,0.013523,0.002678,0.000431,0.011283
10407000,0.0324,0.013523,0.002678,0.000431,0.011048
10408000,0.0324,0.013523,0.002678,0.000431,0.010578
10409000,0.0324,0.013523,0.002678,0.000431,0.010695
10410000,0.0324,0.013523,0.002678,0.000431,0.010460
10411000,0.0324,0.013523,0.002678,0.000431,0.012105
10412000,0.0324,0.013523,0.002678,0.000431,0.009520
10413000,0.0324,0.013523,0.002678,0.000431,0.010695
10414000,0.0324,0.013523,0.002678,0.000431,0.010578
10415000,0.0324,0.013523,0.002678,0.000431,0.011165
10416000,0.0324,0.013523,0.002678,0.000431,0.010695
10417000,0.0324,0.013523,0.002678,0.000431,0.010342
10418000,0.0324,0.013523,0.002678,0.000431,0.011753
10419000,0.0324,0.013523,0.002678,0.000431,0.010813
10420000,0.0324,0.013523,0.002678,0.000431,0.010695
10421000,0.0324,0.013523,0.002678,0.000431,0.010813
10422000,0.0324,0.013523,0.002678,0.000431,0.010930
10423000,0.0324,0.013523,0.002678,0.000431,0.010225
10424000,0.0324,0.013523,0.002678,0.000431,0.010695
10425000,0.0324,0.013523,0.002678,0.000431,0.010695
10426000,0.0324,0.013523,0.002678,0.000431,0.010578
10427000,0.0324,0.013523,0.002678,0.000431,0.010578
10428000,0.0324,0.013523,0.002678,0.000431,0.010578
10429000,0.0324,0.013523,0.002678,0.000431,0.010930
10430000,0.0324,0.013523,0.002678,0.000431,0.010578
10431000,0.0324,0.013523,0.002678,0.000431,0.010813
10432000,0.0324,0.013523,0.002678,0.000431,0.010578
10433000,0.0324,0.013523,0.002678,0.000431,0.011048
10434000,0.0324,0.013523,0.002678,0.000431,0.010578
10435000,0.0324,0.013523,0.002678,0.000431,0.011283
10436000,0.0324,0.013523,0.002678,0.000431,0.010930
10437000,0.0324,0.013523,0.002678,0.000431,0.010225
10438000,0.0324,0.013523,0.002678,0.000431,0.010813
10439000,0.0324,0.013523,0.002678,0.000431,0.010695
10440000,0.0324,0.013523,0.002678,0.000431,0.010695
10441000,0.0324,0.013523,0.002678,0.000431,0.010695
10442000,0.0324,0.013523,0.002678,0.000431,0.011518
10443000,0.0324,0.013523,0.002678,0.000431,0.010578
10444000,0.0324,0.013523,0.002678,0.000431,0.009990
10445000,0.0324,0.013523,0.002678,0.000431,0.010695
10446000,0.0324,0.013523,0.002678,0.000431,0.011165
10447000,0.0324,0.013523,0.002678,0.000431,0.010578
10448000,0.0324,0.013523,0.002678,0.000431,0.010578
10449000,0.0324,0.013523,0.002678,0.000431,0.011400
10450000,0.0324,0.013523,0.002678,0.000431,0.010342
10451000,0.0324,0.013523,0.002678,0.000431,0.010930
10452000,0.0324,0.013523,0.002678,0.000431,0.011518
10453000,0.0324,0.013523,0.002678,0.000431,0.009872
10454000,0.0324,0.013523,0.002678,0.000431,0.010930
10455000,0.0324,0.013523,0.002678,0.000431,0.010107
10456000,0.0324,0.013523,0.002678,0.000431,0.011400
10457000,0.0324,0.013523,0.002678,0.000431,0.010460
10458000,0.0324,0.013523,0.002678,0.000431,0.011988
10459000,0.0324,0.013523,0.002678,0.000431,0.010695
10460000,0.0324,0.013523,0.002678,0.000431,0.010930
10461000,0.0324,0.013523,0.002678,0.000431,0.010107
10462000,0.0324,0.013523,0.002678,0.000431,0.010813
10463000,0.0324,0.013523,0.002678,0.000431,0.010930
10464000,0.0324,0.013523,0.002678,0.000431,0.011518
10465000,0.0324,0.013523,0.002678,0.000431,0.010813
10466000,0.0324,0.013523,0.002678,0.000431,0.010695
10467000,0.0324,0.013523,0.002678,0.000431,0.009755
10468000,0.0324,0.013523,0.002678,0.000431,0.010813
10469000,0.0324,0.013523,0.002678,0.000431,0.010342
10470000,0.0324,0.013523,0.002678,0.000431,0.011400
10471000,0.0324,0.013523,0.002678,0.000431,0.010342
10472000,0.0324,0.013523,0.002678,0.000431,0.010578
10473000,0.0324,0.013523,0.002678,0.000431,0.010813
10474000,0.0324,0.013523,0.002678,0.000431,0.010342
10475000,0.0324,0.013523,0.002678,0.000431,0.011635
10476000,0.0324,0.013523,0.002678,0.000431,0.010342
10477000,0.0324,0.013523,0.002678,0.000431,0.011870
10478000,0.0324,0.013523,0.002678,0.000431,0.011048
10479000,0.0324,0.013523,0.002678,0.000431,0.010695
10480000,0.0324,0.013523,0.002678,0.000431,0.009872
10481000,0.0324,0.013523,0.002678,0.000431,0.010342
10482000,0.0324,0.013523,0.002678,0.000431,0.011165
10483000,0.0324,0.013523,0.002678,0.000431,0.011753
10484000,0.0324,0.013523,0.002678,0.000431,0.010342
10485000,0.0324,0.013523,0.002678,0.000431,0.010930
10486000,0.0324,0.013523,0.002678,0.000431,0.011165
10487000,0.0324,0.013523,0.002678,0.000431,0.010813
10488000,0.0324,0.013523,0.002678,0.000431,0.010225
10489000,0.0324,0.013523,0.002678,0.000431,0.011400
10490000,0.0324,0.013523,0.002678,0.000431,0.010695
10491000,0.0324,0.013523,0.002678,0.000431,0.010695
10492000,0.0324,0.013523,0.002678,0.000431,0.010578
10493000,0.0324,0.013523,0.002678,0.000431,0.010813
10494000,0.0324,0.013523,0.002678,0.000431,0.010695
10495000,0.0324,0.013523,0.002678,0.000431,0.011048
10496000,0.0324,0.013523,0.002678,0.000431,0.011518
10497000,0.0324,0.013523,0.002678,0.000431,0.011165
10498000,0.0324,0.013523,0.002678,0.000431,0.010578
10499000,0.0324,0.013523,0.002678,0.000431,0.011635
10500000,0.0324,0.013523,0.002678,0.000431,0.010695
10501000,0.0324,0.013523,0.002678,0.000431,0.010813
10502000,0.0324,0.013523,0.002678,0.000431,0.010695
10503000,0.0324,0.013523,0.002678,0.000431,0.011400
10504000,0.0324,0.013523,0.002678,0.000431,0.009990
10505000,0.0324,0.013523,0.002678,0.000431,0.011518
10506000,0.0324,0.013523,0.002678,0.000431,0.011283
10507000,0.0324,0.013523,0.002678,0.000431,0.011283
10508000,0.0324,0.013523,0.002678,0.000431,0.010342
10509000,0.0324,0.013523,0.002678,0.000431,0.010930
10510000,0.0324,0.013523,0.002678,0.000431,0.010225
10511000,0.0324,0.013523,0.002678,0.000431,0.011048
10512000,0.0324,0.013523,0.002678,0.000431,0.011400
10513000,0.0324,0.013523,0.002678,0.000431,0.011518
10514000,0.0324,0.013523,0.002678,0.000431,0.011165
10515000,0.0324,0.013523,0.002678,0.000431,0.011048
10516000,0.0324,0.013523,0.002678,0.000431,0.010695
10517000,0.0324,0.013523,0.002678,0.000431,0.011635
10518000,0.0324,0.013523,0.002678,0.000431,0.010342
10519000,0.0324,0.013523,0.002678,0.000431,0.011283
10520000,0.0324,0.013523,0.002678,0.000431,0.011048
10521000,0.0324,0.013523,0.002678,0.000431,0.010225
10522000,0.0324,0.013523,0.002678,0.000431,0.010813
10523000,0.0324,0.013523,0.002678,0.000431,0.010695
10524000,0.0324,0.013523,0.002678,0.000431,0.010460
10525000,0.0324,0.013523,0.002678,0.000431,0.011400
10526000,0.0324,0.013523,0.002678,0.000431,0.009637
10527000,0.0324,0.013523,0.002678,0.000431,0.010695
10528000,0.0324,0.013523,0.002678,0.000431,0.010578
10529000,0.0324,0.013523,0.002678,0.000431,0.011165
10530000,0.0324,0.013523,0.002678,0.000431,0.011518
10531000,0.0324,0.013523,0.002678,0.000431,0.010813
10532000,0.0324,0.013523,0.002678,0.000431,0.011165
10533000,0.0324,0.013523,0.002678,0.000431,0.010930
10534000,0.0324,0.013523,0.002678,0.000431,0.010930
10535000,0.0324,0.013523,0.002678,0.000431,0.010813
10536000,0.0324,0.013523,0.002678,0.000431,0.011048
10537000,0.0324,0.013523,0.002678,0.000431,0.009402
10538000,0.0324,0.013523,0.002678,0.000431,0.011400
10539000,0.0324,0.013523,0.002678,0.000431,0.010695
10540000,0.0324,0.013523,0.002678,0.000431,0.011518
10541000,0.0324,0.013523,0.002678,0.000431,0.010342
10542000,0.0324,0.013523,0.002678,0.000431,0.010930
10543000,0.0324,0.013523,0.002678,0.000431,0.010107
10544000,0.0324,0.013523,0.002678,0.000431,0.011165
10545000,0.0324,0.013523,0.002678,0.000431,0.010342
10546000,0.0324,0.013523,0.002678,0.000431,0.011988
10547000,0.0324,0.013523,0.002678,0.000431,0.010225
10548000,0.0324,0.013523,0.002678,0.000431,0.010578
10549000,0.0324,0.013523,0.002678,0.000431,0.010695
10550000,0.0324,0.013523,0.002678,0.000431,0.011048
10551000,0.0324,0.013523,0.002678,0.000431,0.011283
10552000,0.0324,0.013523,0.002678,0.000431,0.010695
10553000,0.0324,0.013523,0.002678,0.000431,0.011283
10554000,0.0324,0.013523,0.002678,0.000431,0.010813
10555000,0.0324,0.013523,0.002678,0.000431,0.011283
10556000,0.0324,0.013523,0.002678,0.000431,0.010813
10557000,0.0324,0.013523,0.002678,0.000431,0.011635
10558000,0.0324,0.013523,0.002678,0.000431,0.011048
10559000,0.0324,0.013523,0.002678,0.000431,0.010695
10560000,0.0324,0.013523,0.002678,0.000431,0.010695
10561000,0.0324,0.013523,0.002678,0.000431,0.010930
10562000,0.0324,0.013523,0.002678,0.000431,0.011048
10563000,0.0324,0.013523,0.002678,0.000431,0.011048
10564000,0.0324,0.013523,0.002678,0.000431,0.010695
10565000,0.0324,0.013523,0.002678,0.000431,0.010578
10566000,0.0324,0.013523,0.002678,0.000431,0.010813
10567000,0.0324,0.013523,0.002678,0.000431,0.009755
10568000,0.0324,0.013523,0.002678,0.000431,0.011048
10569000,0.0324,0.013523,0.002678,0.000431,0.010695
10570000,0.0324,0.013523,0.002678,0.000431,0.010460
10571000,0.0324,0.013523,0.002678,0.000431,0.012458
10572000,0.0324,0.013523,0.002678,0.000431,0.009990
10573000,0.0324,0.013523,0.002678,0.000431,0.011283
10574000,0.0324,0.013523,0.002678,0.000431,0.009637
10575000,0.0324,0.013523,0.002678,0.000431,0.010578
10576000,0.0324,0.013523,0.002678,0.000431,0.010342
10577000,0.0324,0.013523,0.002678,0.000431,0.010460
10578000,0.0324,0.013523,0.002678,0.000431,0.010695
10579000,0.0324,0.013523,0.002678,0.000431,0.010813
10580000,0.0324,0.013523,0.002678,0.000431,0.009755
10581000,0.0324,0.013523,0.002678,0.000431,0.011283
10582000,0.0324,0.013523,0.002678,0.000431,0.010813
10583000,0.0324,0.013523,0.002678,0.000431,0.010813
10584000,0.0324,0.013523,0.002678,0.000431,0.010578
10585000,0.0324,0.013523,0.002678,0.000431,0.011400
10586000,0.0324,0.013523,0.002678,0.000431,0.009990
10587000,0.0324,0.013523,0.002678,0.000431,0.010342
10588000,0.0324,0.013523,0.002678,0.000431,0.010342
10589000,0.0324,0.013523,0.002678,0.000431,0.010342
10590000,0.0324,0.013523,0.002678,0.000431,0.009990
10591000,0.0324,0.013523,0.002678,0.000431,0.010695
10592000,0.0324,0.013523,0.002678,0.000431,0.010342
10593000,0.0324,0.013523,0.002678,0.000431,0.010107
10594000,0.0324,0.013523,0.002678,0.000431,0.010930
10595000,0.0324,0.013523,0.002678,0.000431,0.010342
10596000,0.0324,0.013523,0.002678,0.000431,0.010460
10597000,0.0324,0.013523,0.002678,0.000431,0.010813
10598000,0.0324,0.013523,0.002678,0.000431,0.010695
10599000,0.0324,0.013523,0.002678,0.000431,0.011165
10600000,0.0324,0.013523,0.002678,0.000431,0.010578
10601000,0.0324,0.013523,0.002678,0.000431,0.010930
10602000,0.0324,0.013523,0.002678,0.000431,0.011048
10603000,0.0324,0.013523,0.002678,0.000431,0.010460
10604000,0.0324,0.013523,0.002678,0.000431,0.010460
10605000,0.0324,0.013523,0.002678,0.000431,0.010225
10606000,0.0324,0.013523,0.002678,0.000431,0.010342
10607000,0.0324,0.013523,0.002678,0.000431,0.010225
10608000,0.0324,0.013523,0.002678,0.000431,0.010695
10609000,0.0324,0.013523,0.002678,0.000431,0.011165
10610000,0.0324,0.013523,0.002678,0.000431,0.010342
10611000,0.0324,0.013523,0.002678,0.000431,0.009872
10612000,0.0324,0.013523,0.002678,0.000431,0.010578
10613000,0.0324,0.013523,0.002678,0.000431,0.010695
10614000,0.0324,0.013523,0.002678,0.000431,0.010225
10615000,0.0324,0.013523,0.002678,0.000431,0.011400
10616000,0.0324,0.013523,0.002678,0.000431,0.009990
10617000,0.0324,0.013523,0.002678,0.000431,0.009990
10618000,0.0324,0.013523,0.002678,0.000431,0.011283
10619000,0.0324,0.013523,0.002678,0.000431,0.010460
10620000,0.0324,0.013523,0.002678,0.000431,0.009990
10621000,0.0324,0.013523,0.002678,0.000431,0.010342
10622000,0.0324,0.013523,0.002678,0.000431,0.010695
10623000,0.0324,0.013523,0.002678,0.000431,0.010107
10624000,0.0324,0.013523,0.002678,0.000431,0.011165
10625000,0.0324,0.013523,0.002678,0.000431,0.009990
10626000,0.0324,0.013523,0.002678,0.000431,0.010930
10627000,0.0324,0.013523,0.002678,0.000431,0.010107
10628000,0.0324,0.013523,0.002678,0.000431,0.011165
10629000,0.0324,0.013523,0.002678,0.000431,0.011283
10630000,0.0324,0.013523,0.002678,0.000431,0.009637
10631000,0.0324,0.013523,0.002678,0.000431,0.011753
10632000,0.0324,0.013523,0.002678,0.000431,0.010578
10633000,0.0324,0.013523,0.002678,0.000431,0.010813
10634000,0.0324,0.013523,0.002678,0.000431,0.010107
10635000,0.0324,0.013523,0.002678,0.000431,0.010460
10636000,0.0324,0.013523,0.002678,0.000431,0.009990
10637000,0.0324,0.013523,0.002678,0.000431,0.010342
10638000,0.0324,0.013523,0.002678,0.000431,0.010225
10639000,0.0324,0.013523,0.002678,0.000431,0.010813
10640000,0.0324,0.013523,0.002678,0.000431,0.010930
10641000,0.0324,0.013523,0.002678,0.000431,0.009755
10642000,0.0324,0.013523,0.002678,0.000431,0.010695
10643000,0.0324,0.013523,0.002678,0.000431,0.011048
10644000,0.0324,0.013523,0.002678,0.000431,0.009402
10645000,0.0324,0.013523,0.002678,0.000431,0.010578
10646000,0.0324,0.013523,0.002678,0.000431,0.010342
10647000,0.0324,0.013523,0.002678,0.000431,0.009872
10648000,0.0324,0.013523,0.002678,0.000431,0.010225
10649000,0.0324,0.013523,0.002678,0.000431,0.010225
10650000,0.0324,0.013523,0.002678,0.000431,0.010813
10651000,0.0324,0.013523,0.002678,0.000431,0.009990
10652000,0.0324,0.013523,0.002678,0.000431,0.011165
10653000,0.0324,0.013523,0.002678,0.000431,0.010930
10654000,0.0324,0.013523,0.002678,0.000431,0.010930
10655000,0.0324,0.013523,0.002678,0.000431,0.010578
10656000,0.0324,0.013523,0.002678,0.000431,0.011400
10657000,0.0324,0.013523,0.002678,0.000431,0.010460
10658000,0.0324,0.013523,0.002678,0.000431,0.009990
10659000,0.0324,0.013523,0.002678,0.000431,0.011283
10660000,0.0324,0.013523,0.002678,0.000431,0.010578
10661000,0.0324,0.013523,0.002678,0.000431,0.010930
10662000,0.0324,0.013523,0.002678,0.000431,0.009050
10663000,0.0324,0.013523,0.002678,0.000431,0.010342
10664000,0.0324,0.013523,0.002678,0.000431,0.009520
10665000,0.0324,0.013523,0.002678,0.000431,0.009755
10666000,0.0324,0.013523,0.002678,0.000431,0.009755
10667000,0.0324,0.013523,0.002678,0.000431,0.010107
10668000,0.0324,0.013523,0.002678,0.000431,0.008815
10669000,0.0324,0.013523,0.002678,0.000431,0.010225
10670000,0.0324,0.013523,0.002678,0.000431,0.009755
10671000,0.0324,0.013523,0.002678,0.000431,0.009520
10672000,0.0324,0.013523,0.002678,0.000431,0.009755
10673000,0.0324,0.013523,0.002678,0.000431,0.010225
10674000,0.0324,0.013523,0.002678,0.000431,0.010225
10675000,0.0324,0.013523,0.002678,0.000431,0.009755
10676000,0.0324,0.013523,0.002678,0.000431,0.009402
10677000,0.0324,0.013523,0.002678,0.000431,0.009872
10678000,0.0324,0.013523,0.002678,0.000431,0.009990
10679000,0.0324,0.013523,0.002678,0.000431,0.009637
10680000,0.0324,0.013523,0.002678,0.000431,0.009990
10681000,0.0324,0.013523,0.002678,0.000431,0.009402
10682000,0.0324,0.013523,0.002678,0.000431,0.009520
10683000,0.0324,0.013523,0.002678,0.000431,0.009637
10684000,0.0324,0.013523,0.002678,0.000431,0.010225
10685000,0.0324,0.013523,0.002678,0.000431,0.009637
10686000,0.0324,0.013523,0.002678,0.000431,0.009402
10687000,0.0324,0.013523,0.002678,0.000431,0.009637
10688000,0.0324,0.013523,0.002678,0.000431,0.009990
10689000,0.0324,0.013523,0.002678,0.000431,0.009520
10690000,0.0324,0.013523,0.002678,0.000431,0.010342
10691000,0.0324,0.013523,0.002678,0.000431,0.009520
10692000,0.0324,0.013523,0.002678,0.000431,0.010225
10693000,0.0324,0.013523,0.002678,0.000431,0.009755
10694000,0.0324,0.013523,0.002678,0.000431,0.010460
10695000,0.0324,0.013523,0.002678,0.000431,0.009520
10696000,0.0324,0.013523,0.002678,0.000431,0.009167
10697000,0.0324,0.013523,0.002678,0.000431,0.009990
10698000,0.0324,0.013523,0.002678,0.000431,0.009285
10699000,0.0324,0.013523,0.002678,0.000431,0.009990
10700000,0.0324,0.013523,0.002678,0.000431,0.009872
10701000,0.0324,0.013523,0.002678,0.000431,0.010107
10702000,0.0324,0.013523,0.002678,0.000431,0.009872
10703000,0.0324,0.013523,0.002678,0.000431,0.009167
10704000,0.0324,0.013523,0.002678,0.000431,0.010460
10705000,0.0324,0.013523,0.002678,0.000431,0.009285
10706000,0.0324,0.013523,0.002678,0.000431,0.009872
10707000,0.0324,0.013523,0.002678,0.000431,0.009990
10708000,0.0324,0.013523,0.002678,0.000431,0.010460
10709000,0.0324,0.013523,0.002678,0.000431,0.009520
10710000,0.0324,0.013523,0.002678,0.000431,0.009520
10711000,0.0324,0.013523,0.002678,0.000431,0.010578
10712000,0.0324,0.013523,0.002678,0.000431,0.009402
10713000,0.0324,0.013523,0.002678,0.000431,0.009755
10714000,0.0324,0.013523,0.002678,0.000431,0.009872
10715000,0.0324,0.013523,0.002678,0.000431,0.010107
10716000,0.0324,0.013523,0.002678,0.000431,0.009402
10717000,0.0324,0.013523,0.002678,0.000431,0.009990
10718000,0.0324,0.013523,0.002678,0.000431,0.009755
10719000,0.0324,0.013523,0.002678,0.000431,0.009637
10720000,0.0324,0.013523,0.002678,0.000431,0.010342
10721000,0.0324,0.013523,0.002678,0.000431,0.009872
10722000,0.0324,0.013523,0.002678,0.000431,0.010107
10723000,0.0324,0.013523,0.002678,0.000431,0.009637
10724000,0.0324,0.013523,0.002678,0.000431,0.010107
10725000,0.0324,0.013523,0.002678,0.000431,0.009637
10726000,0.0324,0.013523,0.002678,0.000431,0.009167
10727000,0.0324,0.013523,0.002678,0.000431,0.010107
10728000,0.0324,0.013523,0.002678,0.000431,0.009755
10729000,0.0324,0.013523,0.002678,0.000431,0.009402
10730000,0.0324,0.013523,0.002678,0.000431,0.009050
10731000,0.0324,0.013523,0.002678,0.000431,0.009990
10732000,0.0324,0.013523,0.002678,0.000431,0.009167
10733000,0.0324,0.013523,0.002678,0.000431,0.009402
10734000,0.0324,0.013523,0.002678,0.000431,0.009990
10735000,0.0324,0.013523,0.002678,0.000431,0.009637
10736000,0.0324,0.013523,0.002678,0.000431,0.009755
10737000,0.0324,0.013523,0.002678,0.000431,0.009520
10738000,0.0324,0.013523,0.002678,0.000431,0.009520
10739000,0.0324,0.013523,0.002678,0.000431,0.009637
10740000,0.0324,0.013523,0.002678,0.000431,0.010107
10741000,0.0324,0.013523,0.002678,0.000431,0.009285
10742000,0.0324,0.013523,0.002678,0.000431,0.009872
10743000,0.0324,0.013523,0.002678,0.000431,0.009755
10744000,0.0324,0.013523,0.002678,0.000431,0.009520
10745000,0.0324,0.013523,0.002678,0.000431,0.009990
10746000,0.0324,0.013523,0.002678,0.000431,0.009167
10747000,0.0324,0.013523,0.002678,0.000431,0.009167
10748000,0.0324,0.013523,0.002678,0.000431,0.009050
10749000,0.0324,0.013523,0.002678,0.000431,0.008580
10750000,0.0324,0.013523,0.002678,0.000431,0.010342
10751000,0.0324,0.013523,0.002678,0.000431,0.009402
10752000,0.0324,0.013523,0.002678,0.000431,0.009285
10753000,0.0324,0.013523,0.002678,0.000431,0.008815
10754000,0.0324,0.013523,0.002678,0.000431,0.009050
10755000,0.0324,0.013523,0.002678,0.000431,0.009520
10756000,0.0324,0.013523,0.002678,0.000431,0.009402
10757000,0.0324,0.013523,0.002678,0.000431,0.009402
10758000,0.0324,0.013523,0.002678,0.000431,0.009755
10759000,0.0324,0.013523,0.002678,0.000431,0.009520
10760000,0.0324,0.013523,0.002678,0.000431,0.009755
10761000,0.0324,0.013523,0.002678,0.000431,0.009520
10762000,0.0324,0.013523,0.002678,0.000431,0.009872
10763000,0.0324,0.013523,0.002678,0.000431,0.009755
10764000,0.0324,0.013523,0.002678,0.000431,0.009872
10765000,0.0324,0.013523,0.002678,0.000431,0.009402
10766000,0.0324,0.013523,0.002678,0.000431,0.010107
10767000,0.0324,0.013523,0.002678,0.000431,0.009050
10768000,0.0324,0.013523,0.002678,0.000431,0.009755
10769000,0.0324,0.013523,0.002678,0.000431,0.009990
10770000,0.0324,0.013523,0.002678,0.000431,0.009637
10771000,0.0324,0.013523,0.002678,0.000431,0.009872
10772000,0.0324,0.013523,0.002678,0.000431,0.009637
10773000,0.0324,0.013523,0.002678,0.000431,0.009167
10774000,0.0324,0.013523,0.002678,0.000431,0.009872
10775000,0.0324,0.013523,0.002678,0.000431,0.009050
10776000,0.0324,0.013523,0.002678,0.000431,0.008815
10777000,0.0324,0.013523,0.002678,0.000431,0.010225
10778000,0.0324,0.013523,0.002678,0.000431,0.009285
10779000,0.0324,0.013523,0.002678,0.000431,0.009637
10780000,0.0324,0.013523,0.002678,0.000431,0.009050
10781000,0.0324,0.013523,0.002678,0.000431,0.009167
10782000,0.0324,0.013523,0.002678,0.000431,0.010107
10783000,0.0324,0.013523,0.002678,0.000431,0.009990
10784000,0.0324,0.013523,0.002678,0.000431,0.009050
10785000,0.0324,0.013523,0.002678,0.000431,0.009520
10786000,0.0324,0.013523,0.002678,0.000431,0.009285
10787000,0.0324,0.013523,0.002678,0.000431,0.009872
10788000,0.0324,0.013523,0.002678,0.000431,0.009990
10789000,0.0324,0.013523,0.002678,0.000431,0.009872
10790000,0.0324,0.013523,0.002678,0.000431,0.009520
10791000,0.0324,0.013523,0.002678,0.000431,0.009402
10792000,0.0324,0.013523,0.002678,0.000431,0.010107
10793000,0.0324,0.013523,0.002678,0.000431,0.010225
10794000,0.0324,0.013523,0.002678,0.000431,0.009285
10795000,0.0324,0.013523,0.002678,0.000431,0.009167
10796000,0.0324,0.013523,0.002678,0.000431,0.009637
10797000,0.0324,0.013523,0.002678,0.000431,0.009285
10798000,0.0324,0.013523,0.002678,0.000431,0.009637
10799000,0.0324,0.013523,0.002678,0.000431,0.009872
10800000,0.0324,0.013523,0.002678,0.000431,0.008932
10801000,0.0324,0.013523,0.002678,0.000431,0.008697
10802000,0.0324,0.013523,0.002678,0.000431,0.009990
10803000,0.0324,0.013523,0.002678,0.000431,0.009050
10804000,0.0324,0.013523,0.002678,0.000431,0.009990
10805000,0.0324,0.013523,0.002678,0.000431,0.008932
10806000,0.0324,0.013523,0.002678,0.000431,0.009520
10807000,0.0324,0.013523,0.002678,0.000431,0.009872
10808000,0.0324,0.013523,0.002678,0.000431,0.009050
10809000,0.0324,0.013523,0.002678,0.000431,0.009167
10810000,0.0324,0.013523,0.002678,0.000431,0.009285
10811000,0.0324,0.013523,0.002678,0.000431,0.009167
10812000,0.0324,0.013523,0.002678,0.000431,0.009285
10813000,0.0324,0.013523,0.002678,0.000431,0.009872
10814000,0.0324,0.013523,0.002678,0.000431,0.008227
10815000,0.0324,0.013523,0.002678,0.000431,0.009167
10816000,0.0324,0.013523,0.002678,0.000431,0.009050
10817000,0.0324,0.013523,0.002678,0.000431,0.008815
10818000,0.0324,0.013523,0.002678,0.000431,0.008345
10819000,0.0324,0.013523,0.002678,0.000431,0.008815
10820000,0.0324,0.013523,0.002678,0.000431,0.009755
10821000,0.0324,0.013523,0.002678,0.000431,0.008345
10822000,0.0324,0.013523,0.002678,0.000431,0.008697
10823000,0.0324,0.013523,0.002678,0.000431,0.008697
10824000,0.0324,0.013523,0.002678,0.000431,0.008697
10825000,0.0324,0.013523,0.002678,0.000431,0.007874
10826000,0.0324,0.013523,0.002678,0.000431,0.008815
10827000,0.0324,0.013523,0.002678,0.000431,0.008462
10828000,0.0324,0.013523,0.002678,0.000431,0.009167
10829000,0.0324,0.013523,0.002678,0.000431,0.008932
10830000,0.0324,0.013523,0.002678,0.000431,0.009637
10831000,0.0324,0.013523,0.002678,0.000431,0.007169
10832000,0.0324,0.013523,0.002678,0.000431,0.007757
10833000,0.0324,0.013523,0.002678,0.000431,0.007404
10834000,0.0324,0.013523,0.002678,0.000431,0.008227
10835000,0.0324,0.013523,0.002678,0.000431,0.007639
10836000,0.0324,0.013523,0.002678,0.000431,0.008227
10837000,0.0324,0.013523,0.002678,0.000431,0.007639
10838000,0.0324,0.013523,0.002678,0.000431,0.007522
10839000,0.0324,0.013523,0.002678,0.000431,0.007639
10840000,0.0324,0.013523,0.002678,0.000431,0.007757
10841000,0.0324,0.013523,0.002678,0.000431,0.007052
10842000,0.0324,0.013523,0.002678,0.000431,0.007874
10843000,0.0324,0.013523,0.002678,0.000431,0.007757
10844000,0.0324,0.013523,0.002678,0.000431,0.007757
10845000,0.0324,0.013523,0.002678,0.000431,0.008227
10846000,0.0324,0.013523,0.002678,0.000431,0.008345
10847000,0.0324,0.013523,0.002678,0.000431,0.008227
10848000,0.0324,0.013523,0.002678,0.000431,0.007169
10849000,0.0324,0.013523,0.002678,0.000431,0.007992
10850000,0.0324,0.013523,0.002678,0.000431,0.007757
10851000,0.0324,0.013523,0.002678,0.000431,0.007757
10852000,0.0324,0.013523,0.002678,0.000431,0.008815
10853000,0.0324,0.013523,0.002678,0.000431,0.008815
10854000,0.0324,0.013523,0.002678,0.000431,0.008345
10855000,0.0324,0.013523,0.002678,0.000431,0.007757
10856000,0.0324,0.013523,0.002678,0.000431,0.007992
10857000,0.0324,0.013523,0.002678,0.000431,0.008227
10858000,0.0324,0.013523,0.002678,0.000431,0.007992
10859000,0.0324,0.013523,0.002678,0.000431,0.008109
10860000,0.0324,0.013523,0.002678,0.000431,0.007992
10861000,0.0324,0.013523,0.002678,0.000431,0.008109
10862000,0.0324,0.013523,0.002678,0.000431,0.007287
10863000,0.0324,0.013523,0.002678,0.000431,0.008815
10864000,0.0324,0.013523,0.002678,0.000431,0.007757
10865000,0.0324,0.013523,0.002678,0.000431,0.007639
10866000,0.0324,0.013523,0.002678,0.000431,0.007992
10867000,0.0324,0.013523,0.002678,0.000431,0.007757
10868000,0.0324,0.013523,0.002678,0.000431,0.007874
10869000,0.0324,0.013523,0.002678,0.000431,0.007757
10870000,0.0324,0.013523,0.002678,0.000431,0.008462
10871000,0.0324,0.013523,0.002678,0.000431,0.007992
10872000,0.0324,0.013523,0.002678,0.000431,0.007757
10873000,0.0324,0.013523,0.002678,0.000431,0.008109
10874000,0.0324,0.013523,0.002678,0.000431,0.007522
10875000,0.0324,0.013523,0.002678,0.000431,0.007874
10876000,0.0324,0.013523,0.002678,0.000431,0.008345
10877000,0.0324,0.013523,0.002678,0.000431,0.008227
10878000,0.0324,0.013523,0.002678,0.000431,0.008345
10879000,0.0324,0.013523,0.002678,0.000431,0.008109
10880000,0.0324,0.013523,0.002678,0.000431,0.007404
10881000,0.0324,0.013523,0.002678,0.000431,0.009637
10882000,0.0324,0.013523,0.002678,0.000431,0.006582
10883000,0.0324,0.013523,0.002678,0.000431,0.005759
10884000,0.0324,0.013523,0.002678,0.000431,0.006934
10885000,0.0324,0.013523,0.002678,0.000431,0.006934
10886000,0.0324,0.013523,0.002678,0.000431,0.007052
10887000,0.0324,0.013523,0.002678,0.000431,0.006699
10888000,0.0324,0.013523,0.002678,0.000431,0.006347
10889000,0.0324,0.013523,0.002678,0.000431,0.007169
10890000,0.0324,0.013523,0.002678,0.000431,0.007287
10891000,0.0324,0.013523,0.002678,0.000431,0.007522
10892000,0.0324,0.013523,0.002678,0.000431,0.006817
10893000,0.0324,0.013523,0.002678,0.000431,0.006699
10894000,0.0324,0.013523,0.002678,0.000431,0.007169
10895000,0.0324,0.013523,0.002678,0.000431,0.006934
10896000,0.0324,0.013523,0.002678,0.000431,0.007287
10897000,0.0324,0.013523,0.002678,0.000431,0.006934
10898000,0.0324,0.013523,0.002678,0.000431,0.007169
10899000,0.0324,0.013523,0.002678,0.000431,0.006347
10900000,0.0324,0.013523,0.002678,0.000431,0.007052
10901000,0.0324,0.013523,0.002678,0.000431,0.007522
10902000,0.0324,0.013523,0.002678,0.000431,0.007052
10903000,0.0324,0.013523,0.002678,0.000431,0.006229
10904000,0.0324,0.013523,0.002678,0.000431,0.007404
10905000,0.0324,0.013523,0.002678,0.000431,0.007169
10906000,0.0324,0.013523,0.002678,0.000431,0.006817
10907000,0.0324,0.013523,0.002678,0.000431,0.008109
10908000,0.0324,0.013523,0.002678,0.000431,0.006934
10909000,0.0324,0.013523,0.002678,0.000431,0.007522
10910000,0.0324,0.013523,0.002678,0.000431,0.006347
10911000,0.0324,0.013523,0.002678,0.000431,0.007052
10912000,0.0324,0.013523,0.002678,0.000431,0.007639
10913000,0.0324,0.013523,0.002678,0.000431,0.006934
10914000,0.0324,0.013523,0.002678,0.000431,0.006934
10915000,0.0324,0.013523,0.002678,0.000431,0.007287
10916000,0.0324,0.013523,0.002678,0.000431,0.006582
10917000,0.0324,0.013523,0.002678,0.000431,0.006699
10918000,0.0324,0.013523,0.002678,0.000431,0.006464
10919000,0.0324,0.013523,0.002678,0.000431,0.007404
10920000,0.0324,0.013523,0.002678,0.000431,0.007287
10921000,0.0324,0.013523,0.002678,0.000431,0.006934
10922000,0.0324,0.013523,0.002678,0.000431,0.006934
10923000,0.0324,0.013523,0.002678,0.000431,0.006699
10924000,0.0324,0.013523,0.002678,0.000431,0.007639
10925000,0.0324,0.013523,0.002678,0.000431,0.007404
10926000,0.0324,0.013523,0.002678,0.000431,0.007052
10927000,0.0324,0.013523,0.002678,0.000431,0.007169
10928000,0.0324,0.013523,0.002678,0.000431,0.006111
10929000,0.0324,0.013523,0.002678,0.000431,0.007287
10930000,0.0324,0.013523,0.002678,0.000431,0.006582
10931000,0.0324,0.013523,0.002678,0.000431,0.006934
10932000,0.0324,0.013523,0.002678,0.000431,0.006699
10933000,0.0324,0.013523,0.002678,0.000431,0.007522
10934000,0.0324,0.013523,0.002678,0.000431,0.006699
10935000,0.0324,0.013523,0.002678,0.000431,0.006934
10936000,0.0324,0.013523,0.002678,0.000431,0.006582
10937000,0.0324,0.013523,0.002678,0.000431,0.007757
10938000,0.0324,0.013523,0.002678,0.000431,0.007287
10939000,0.0324,0.013523,0.002678,0.000431,0.007287
10940000,0.0324,0.013523,0.002678,0.000431,0.006817
10941000,0.0324,0.013523,0.002678,0.000431,0.006934
10942000,0.0324,0.013523,0.002678,0.000431,0.007169
10943000,0.0324,0.013523,0.002678,0.000431,0.006464
10944000,0.0324,0.013523,0.002678,0.000431,0.007052
10945000,0.0324,0.013523,0.002678,0.000431,0.007169
10946000,0.0324,0.013523,0.002678,0.000431,0.007052
10947000,0.0324,0.013523,0.002678,0.000431,0.006934
10948000,0.0324,0.013523,0.002678,0.000431,0.007169
10949000,0.0324,0.013523,0.002678,0.000431,0.007639
10950000,0.0324,0.013523,0.002678,0.000431,0.006934
10951000,0.0324,0.013523,0.002678,0.000431,0.007169
10952000,0.0324,0.013523,0.002678,0.000431,0.006934
10953000,0.0324,0.013523,0.002678,0.000431,0.007169
10954000,0.0324,0.013523,0.002678,0.000431,0.007052
10955000,0.0324,0.013523,0.002678,0.000431,0.006934
10956000,0.0324,0.013523,0.002678,0.000431,0.007404
10957000,0.0324,0.013523,0.002678,0.000431,0.006347
10958000,0.0324,0.013523,0.002678,0.000431,0.006699
10959000,0.0324,0.013523,0.002678,0.000431,0.007522
10960000,0.0324,0.013523,0.002678,0.000431,0.007404
10961000,0.0324,0.013523,0.002678,0.000431,0.007522
10962000,0.0324,0.013523,0.002678,0.000431,0.007287
10963000,0.0324,0.013523,0.002678,0.000431,0.007404
10964000,0.0324,0.013523,0.002678,0.000431,0.007522
10965000,0.0324,0.013523,0.002678,0.000431,0.006817
10966000,0.0324,0.013523,0.002678,0.000431,0.007287
10967000,0.0324,0.013523,0.002678,0.000431,0.007169
10968000,0.0324,0.013523,0.002678,0.000431,0.006699
10969000,0.0324,0.013523,0.002678,0.000431,0.006934
10970000,0.0324,0.013523,0.002678,0.000431,0.006934
10971000,0.0324,0.013523,0.002678,0.000431,0.006817
10972000,0.0324,0.013523,0.002678,0.000431,0.007404
10973000,0.0324,0.013523,0.002678,0.000431,0.007639
10974000,0.0324,0.013523,0.002678,0.000431,0.006347
10975000,0.0324,0.013523,0.002678,0.000431,0.006699
10976000,0.0324,0.013523,0.002678,0.000431,0.007404
10977000,0.0324,0.013523,0.002678,0.000431,0.006934
10978000,0.0324,0.013523,0.002678,0.000431,0.007404
10979000,0.0324,0.013523,0.002678,0.000431,0.007169
10980000,0.0324,0.013523,0.002678,0.000431,0.007874
10981000,0.0324,0.013523,0.002678,0.000431,0.006347
10982000,0.0324,0.013523,0.002678,0.000431,0.007874
10983000,0.0324,0.013523,0.002678,0.000431,0.007052
10984000,0.0324,0.013523,0.002678,0.000431,0.007169
10985000,0.0324,0.013523,0.002678,0.000431,0.007404
10986000,0.0324,0.013523,0.002678,0.000431,0.007404
10987000,0.0324,0.013523,0.002678,0.000431,0.007639
10988000,0.0324,0.013523,0.002678,0.000431,0.006464
10989000,0.0324,0.013523,0.002678,0.000431,0.006934
10990000,0.0324,0.013523,0.002678,0.000431,0.007639
10991000,0.0324,0.013523,0.002678,0.000431,0.006817
10992000,0.0324,0.013523,0.002678,0.000431,0.007169
10993000,0.0324,0.013523,0.002678,0.000431,0.007169
10994000,0.0324,0.013523,0.002678,0.000431,0.006817
10995000,0.0324,0.013523,0.002678,0.000431,0.007052
10996000,0.0324,0.013523,0.002678,0.000431,0.007287
10997000,0.0324,0.013523,0.002678,0.000431,0.007404
10998000,0.0324,0.013523,0.002678,0.000431,0.006934
10999000,0.0324,0.013523,0.002678,0.000431,0.007052
