Cycle,Area(mm^2),PeakDynamic(W),SubthresholdLeakage(W),GateLeakage(W),RunTimeDynamic(W)
4000000,0.0324,0.013523,0.002678,0.000431,2.019369
4001000,0.0324,0.013523,0.002678,0.000431,1.920528
4002000,0.0324,0.013523,0.002678,0.000431,2.113862
4003000,0.0324,0.013523,0.002678,0.000431,2.016549
4004000,0.0324,0.013523,0.002678,0.000431,2.146065
4005000,0.0324,0.013523,0.002678,0.000431,2.064265
4006000,0.0324,0.013523,0.002678,0.000431,2.038409
4007000,0.0324,0.013523,0.002678,0.000431,2.153469
4008000,0.0324,0.013523,0.002678,0.000431,1.995629
4009000,0.0324,0.013523,0.002678,0.000431,1.952613
4010000,0.0324,0.013523,0.002678,0.000431,1.972005
4011000,0.0324,0.013523,0.002678,0.000431,2.084832
4012000,0.0324,0.013523,0.002678,0.000431,1.867758
4013000,0.0324,0.013523,0.002678,0.000431,2.025481
4014000,0.0324,0.013523,0.002678,0.000431,2.081777
4015000,0.0324,0.013523,0.002678,0.000431,1.955904
4016000,0.0324,0.013523,0.002678,0.000431,1.958490
4017000,0.0324,0.013523,0.002678,0.000431,1.852949
4018000,0.0324,0.013523,0.002678,0.000431,2.024188
4019000,0.0324,0.013523,0.002678,0.000431,1.795831
4020000,0.0324,0.013523,0.002678,0.000431,1.869403
4021000,0.0324,0.013523,0.002678,0.000431,1.999624
4022000,0.0324,0.013523,0.002678,0.000431,1.894672
4023000,0.0324,0.013523,0.002678,0.000431,1.782667
4024000,0.0324,0.013523,0.002678,0.000431,1.928520
4025000,0.0324,0.013523,0.002678,0.000431,1.979762
4026000,0.0324,0.013523,0.002678,0.000431,1.884447
4027000,0.0324,0.013523,0.002678,0.000431,1.959195
4028000,0.0324,0.013523,0.002678,0.000431,2.041700
4029000,0.0324,0.013523,0.002678,0.000431,1.917237
4030000,0.0324,0.013523,0.002678,0.000431,1.877630
4031000,0.0324,0.013523,0.002678,0.000431,1.822157
4032000,0.0324,0.013523,0.002678,0.000431,1.890793
4033000,0.0324,0.013523,0.002678,0.000431,1.865290
4034000,0.0324,0.013523,0.002678,0.000431,1.932868
4035000,0.0324,0.013523,0.002678,0.000431,1.932516
4036000,0.0324,0.013523,0.002678,0.000431,1.767506
4037000,0.0324,0.013523,0.002678,0.000431,1.913124
4038000,0.0324,0.013523,0.002678,0.000431,1.675834
4039000,0.0324,0.013523,0.002678,0.000431,1.863174
4040000,0.0324,0.013523,0.002678,0.000431,1.742355
4041000,0.0324,0.013523,0.002678,0.000431,1.798299
4042000,0.0324,0.013523,0.002678,0.000431,1.877278
4043000,0.0324,0.013523,0.002678,0.000431,1.787956
4044000,0.0324,0.013523,0.002678,0.000431,1.785723
4045000,0.0324,0.013523,0.002678,0.000431,1.698400
4046000,0.0324,0.013523,0.002678,0.000431,1.924759
4047000,0.0324,0.013523,0.002678,0.000431,1.889383
4048000,0.0324,0.013523,0.002678,0.000431,1.896670
4049000,0.0324,0.013523,0.002678,0.000431,1.861999
4050000,0.0324,0.013523,0.002678,0.000431,1.847543
4051000,0.0324,0.013523,0.002678,0.000431,1.991750
4052000,0.0324,0.013523,0.002678,0.000431,1.822039
4053000,0.0324,0.013523,0.002678,0.000431,1.833792
4054000,0.0324,0.013523,0.002678,0.000431,1.840374
4055000,0.0324,0.013523,0.002678,0.000431,1.676540
4056000,0.0324,0.013523,0.002678,0.000431,1.730367
4057000,0.0324,0.013523,0.002678,0.000431,1.708625
4058000,0.0324,0.013523,0.002678,0.000431,1.736714
4059000,0.0324,0.013523,0.002678,0.000431,1.759162
4060000,0.0324,0.013523,0.002678,0.000431,1.631644
4061000,0.0324,0.013523,0.002678,0.000431,1.749995
4062000,0.0324,0.013523,0.002678,0.000431,1.897375
4063000,0.0324,0.013523,0.002678,0.000431,1.923466
4064000,0.0324,0.013523,0.002678,0.000431,1.851186
4065000,0.0324,0.013523,0.002678,0.000431,1.893732
4066000,0.0324,0.013523,0.002678,0.000431,1.773148
4067000,0.0324,0.013523,0.002678,0.000431,1.979175
4068000,0.0324,0.013523,0.002678,0.000431,1.950263
4069000,0.0324,0.013523,0.002678,0.000431,2.063325
4070000,0.0324,0.013523,0.002678,0.000431,2.021837
4071000,0.0324,0.013523,0.002678,0.000431,1.833675
4072000,0.0324,0.013523,0.002678,0.000431,1.850011
4073000,0.0324,0.013523,0.002678,0.000431,2.023953
4074000,0.0324,0.013523,0.002678,0.000431,1.825095
4075000,0.0324,0.013523,0.002678,0.000431,1.897493
4076000,0.0324,0.013523,0.002678,0.000431,1.792540
4077000,0.0324,0.013523,0.002678,0.000431,1.771502
4078000,0.0324,0.013523,0.002678,0.000431,1.732130
4079000,0.0324,0.013523,0.002678,0.000431,1.974238
4080000,0.0324,0.013523,0.002678,0.000431,1.689585
4081000,0.0324,0.013523,0.002678,0.000431,1.615072
4082000,0.0324,0.013523,0.002678,0.000431,1.581577
4083000,0.0324,0.013523,0.002678,0.000431,1.948852
4084000,0.0324,0.013523,0.002678,0.000431,1.954376
4085000,0.0324,0.013523,0.002678,0.000431,2.010790
4086000,0.0324,0.013523,0.002678,0.000431,1.788074
4087000,0.0324,0.013523,0.002678,0.000431,1.991985
4088000,0.0324,0.013523,0.002678,0.000431,2.106223
4089000,0.0324,0.013523,0.002678,0.000431,1.966246
4090000,0.0324,0.013523,0.002678,0.000431,1.881391
4091000,0.0324,0.013523,0.002678,0.000431,2.086595
4092000,0.0324,0.013523,0.002678,0.000431,2.104812
4093000,0.0324,0.013523,0.002678,0.000431,1.913241
4094000,0.0324,0.013523,0.002678,0.000431,2.173096
4095000,0.0324,0.013523,0.002678,0.000431,2.092824
4096000,0.0324,0.013523,0.002678,0.000431,2.130433
4097000,0.0324,0.013523,0.002678,0.000431,2.065440
4098000,0.0324,0.013523,0.002678,0.000431,2.012200
4099000,0.0324,0.013523,0.002678,0.000431,2.042170
4100000,0.0324,0.013523,0.002678,0.000431,2.011495
4101000,0.0324,0.013523,0.002678,0.000431,2.032532
4102000,0.0324,0.013523,0.002678,0.000431,1.829091
4103000,0.0324,0.013523,0.002678,0.000431,2.003620
4104000,0.0324,0.013523,0.002678,0.000431,1.868933
4105000,0.0324,0.013523,0.002678,0.000431,1.943564
4106000,0.0324,0.013523,0.002678,0.000431,1.917825
4107000,0.0324,0.013523,0.002678,0.000431,1.760690
4108000,0.0324,0.013523,0.002678,0.000431,1.659968
4109000,0.0324,0.013523,0.002678,0.000431,2.169453
4110000,0.0324,0.013523,0.002678,0.000431,1.924642
4111000,0.0324,0.013523,0.002678,0.000431,2.092002
4112000,0.0324,0.013523,0.002678,0.000431,2.027126
4113000,0.0324,0.013523,0.002678,0.000431,2.131491
4114000,0.0324,0.013523,0.002678,0.000431,2.106693
4115000,0.0324,0.013523,0.002678,0.000431,2.077428
4116000,0.0324,0.013523,0.002678,0.000431,1.934984
4117000,0.0324,0.013523,0.002678,0.000431,1.948500
4118000,0.0324,0.013523,0.002678,0.000431,1.838963
4119000,0.0324,0.013523,0.002678,0.000431,2.005383
4120000,0.0324,0.013523,0.002678,0.000431,1.918648
4121000,0.0324,0.013523,0.002678,0.000431,2.070141
4122000,0.0324,0.013523,0.002678,0.000431,2.012670
4123000,0.0324,0.013523,0.002678,0.000431,1.954024
4124000,0.0324,0.013523,0.002678,0.000431,1.743531
4125000,0.0324,0.013523,0.002678,0.000431,1.947677
4126000,0.0324,0.013523,0.002678,0.000431,1.980467
4127000,0.0324,0.013523,0.002678,0.000431,2.001622
4128000,0.0324,0.013523,0.002678,0.000431,1.998567
4129000,0.0324,0.013523,0.002678,0.000431,1.972475
4130000,0.0324,0.013523,0.002678,0.000431,2.054510
4131000,0.0324,0.013523,0.002678,0.000431,1.960370
4132000,0.0324,0.013523,0.002678,0.000431,1.957667
4133000,0.0324,0.013523,0.002678,0.000431,1.950145
4134000,0.0324,0.013523,0.002678,0.000431,1.808406
4135000,0.0324,0.013523,0.002678,0.000431,1.995746
4136000,0.0324,0.013523,0.002678,0.000431,1.966011
4137000,0.0324,0.013523,0.002678,0.000431,2.054393
4138000,0.0324,0.013523,0.002678,0.000431,2.053687
4139000,0.0324,0.013523,0.002678,0.000431,1.995629
4140000,0.0324,0.013523,0.002678,0.000431,1.848131
4141000,0.0324,0.013523,0.002678,0.000431,1.882096
4142000,0.0324,0.013523,0.002678,0.000431,1.673719
4143000,0.0324,0.013523,0.002678,0.000431,1.768682
4144000,0.0324,0.013523,0.002678,0.000431,1.647745
4145000,0.0324,0.013523,0.002678,0.000431,1.836378
4146000,0.0324,0.013523,0.002678,0.000431,1.720965
4147000,0.0324,0.013523,0.002678,0.000431,2.136310
4148000,0.0324,0.013523,0.002678,0.000431,1.739535
4149000,0.0324,0.013523,0.002678,0.000431,1.930400
4150000,0.0324,0.013523,0.002678,0.000431,1.764098
4151000,0.0324,0.013523,0.002678,0.000431,1.862352
4152000,0.0324,0.013523,0.002678,0.000431,1.949675
4153000,0.0324,0.013523,0.002678,0.000431,1.784548
4154000,0.0324,0.013523,0.002678,0.000431,1.866230
4155000,0.0324,0.013523,0.002678,0.000431,1.807701
4156000,0.0324,0.013523,0.002678,0.000431,1.854712
4157000,0.0324,0.013523,0.002678,0.000431,1.918413
4158000,0.0324,0.013523,0.002678,0.000431,1.814047
4159000,0.0324,0.013523,0.002678,0.000431,1.894084
4160000,0.0324,0.013523,0.002678,0.000431,1.818514
4161000,0.0324,0.013523,0.002678,0.000431,1.743648
4162000,0.0324,0.013523,0.002678,0.000431,1.700868
4163000,0.0324,0.013523,0.002678,0.000431,1.673719
4164000,0.0324,0.013523,0.002678,0.000431,1.520815
4165000,0.0324,0.013523,0.002678,0.000431,1.758222
4166000,0.0324,0.013523,0.002678,0.000431,1.828856
4167000,0.0324,0.013523,0.002678,0.000431,1.797358
4168000,0.0324,0.013523,0.002678,0.000431,1.769857
4169000,0.0324,0.013523,0.002678,0.000431,1.561479
4170000,0.0324,0.013523,0.002678,0.000431,1.688527
4171000,0.0324,0.013523,0.002678,0.000431,1.708155
4172000,0.0324,0.013523,0.002678,0.000431,1.811932
4173000,0.0324,0.013523,0.002678,0.000431,1.845192
4174000,0.0324,0.013523,0.002678,0.000431,1.808171
4175000,0.0324,0.013523,0.002678,0.000431,1.915592
4176000,0.0324,0.013523,0.002678,0.000431,1.953789
4177000,0.0324,0.013523,0.002678,0.000431,1.632584
4178000,0.0324,0.013523,0.002678,0.000431,1.955434
4179000,0.0324,0.013523,0.002678,0.000431,1.799592
4180000,0.0324,0.013523,0.002678,0.000431,1.714736
4181000,0.0324,0.013523,0.002678,0.000431,1.688175
4182000,0.0324,0.013523,0.002678,0.000431,1.709330
4183000,0.0324,0.013523,0.002678,0.000431,1.734363
4184000,0.0324,0.013523,0.002678,0.000431,1.733541
4185000,0.0324,0.013523,0.002678,0.000431,1.833087
4186000,0.0324,0.013523,0.002678,0.000431,1.857650
4187000,0.0324,0.013523,0.002678,0.000431,1.578521
4188000,0.0324,0.013523,0.002678,0.000431,1.681593
4189000,0.0324,0.013523,0.002678,0.000431,1.882331
4190000,0.0324,0.013523,0.002678,0.000431,1.905249
4191000,0.0324,0.013523,0.002678,0.000431,1.956492
4192000,0.0324,0.013523,0.002678,0.000431,2.010085
4193000,0.0324,0.013523,0.002678,0.000431,1.903016
4194000,0.0324,0.013523,0.002678,0.000431,1.949440
4195000,0.0324,0.013523,0.002678,0.000431,2.084010
4196000,0.0324,0.013523,0.002678,0.000431,1.941213
4197000,0.0324,0.013523,0.002678,0.000431,2.028771
4198000,0.0324,0.013523,0.002678,0.000431,1.940508
4199000,0.0324,0.013523,0.002678,0.000431,2.022190
4200000,0.0324,0.013523,0.002678,0.000431,1.818396
4201000,0.0324,0.013523,0.002678,0.000431,1.705922
4202000,0.0324,0.013523,0.002678,0.000431,2.182381
4203000,0.0324,0.013523,0.002678,0.000431,1.949910
4204000,0.0324,0.013523,0.002678,0.000431,2.065440
4205000,0.0324,0.013523,0.002678,0.000431,1.887855
4206000,0.0324,0.013523,0.002678,0.000431,1.823215
4207000,0.0324,0.013523,0.002678,0.000431,1.924289
4208000,0.0324,0.013523,0.002678,0.000431,1.975884
4209000,0.0324,0.013523,0.002678,0.000431,1.926404
4210000,0.0324,0.013523,0.002678,0.000431,1.939333
4211000,0.0324,0.013523,0.002678,0.000431,1.661261
4212000,0.0324,0.013523,0.002678,0.000431,2.001152
4213000,0.0324,0.013523,0.002678,0.000431,1.913476
4214000,0.0324,0.013523,0.002678,0.000431,1.784665
4215000,0.0324,0.013523,0.002678,0.000431,1.760337
4216000,0.0324,0.013523,0.002678,0.000431,1.669958
4217000,0.0324,0.013523,0.002678,0.000431,1.769387
4218000,0.0324,0.013523,0.002678,0.000431,1.708742
4219000,0.0324,0.013523,0.002678,0.000431,1.895259
4220000,0.0324,0.013523,0.002678,0.000431,1.704864
4221000,0.0324,0.013523,0.002678,0.000431,1.925347
4222000,0.0324,0.013523,0.002678,0.000431,1.658440
4223000,0.0324,0.013523,0.002678,0.000431,1.660321
4224000,0.0324,0.013523,0.002678,0.000431,1.811579
4225000,0.0324,0.013523,0.002678,0.000431,1.786781
4226000,0.0324,0.013523,0.002678,0.000431,1.901606
4227000,0.0324,0.013523,0.002678,0.000431,1.902311
4228000,0.0324,0.013523,0.002678,0.000431,1.919705
4229000,0.0324,0.013523,0.002678,0.000431,1.960958
4230000,0.0324,0.013523,0.002678,0.000431,1.892321
4231000,0.0324,0.013523,0.002678,0.000431,1.904662
4232000,0.0324,0.013523,0.002678,0.000431,1.776438
4233000,0.0324,0.013523,0.002678,0.000431,1.754696
4234000,0.0324,0.013523,0.002678,0.000431,1.819336
4235000,0.0324,0.013523,0.002678,0.000431,1.787369
4236000,0.0324,0.013523,0.002678,0.000431,1.867405
4237000,0.0324,0.013523,0.002678,0.000431,1.947912
4238000,0.0324,0.013523,0.002678,0.000431,1.850246
4239000,0.0324,0.013523,0.002678,0.000431,1.785723
4240000,0.0324,0.013523,0.002678,0.000431,1.923584
4241000,0.0324,0.013523,0.002678,0.000431,1.918295
4242000,0.0324,0.013523,0.002678,0.000431,1.966011
4243000,0.0324,0.013523,0.002678,0.000431,2.002093
4244000,0.0324,0.013523,0.002678,0.000431,2.055333
4245000,0.0324,0.013523,0.002678,0.000431,1.777379
4246000,0.0324,0.013523,0.002678,0.000431,1.987989
4247000,0.0324,0.013523,0.002678,0.000431,1.954494
4248000,0.0324,0.013523,0.002678,0.000431,2.014786
4249000,0.0324,0.013523,0.002678,0.000431,1.915592
4250000,0.0324,0.013523,0.002678,0.000431,2.065675
4251000,0.0324,0.013523,0.002678,0.000431,1.813342
4252000,0.0324,0.013523,0.002678,0.000431,2.043227
4253000,0.0324,0.013523,0.002678,0.000431,2.038174
4254000,0.0324,0.013523,0.002678,0.000431,1.965071
4255000,0.0324,0.013523,0.002678,0.000431,2.102462
4256000,0.0324,0.013523,0.002678,0.000431,1.993160
4257000,0.0324,0.013523,0.002678,0.000431,2.065793
4258000,0.0324,0.013523,0.002678,0.000431,2.048986
4259000,0.0324,0.013523,0.002678,0.000431,1.935924
4260000,0.0324,0.013523,0.002678,0.000431,1.895847
4261000,0.0324,0.013523,0.002678,0.000431,1.855770
4262000,0.0324,0.013523,0.002678,0.000431,1.978117
4263000,0.0324,0.013523,0.002678,0.000431,2.140541
4264000,0.0324,0.013523,0.002678,0.000431,2.001858
4265000,0.0324,0.013523,0.002678,0.000431,2.009262
4266000,0.0324,0.013523,0.002678,0.000431,2.091061
4267000,0.0324,0.013523,0.002678,0.000431,1.860589
4268000,0.0324,0.013523,0.002678,0.000431,1.993278
4269000,0.0324,0.013523,0.002678,0.000431,1.915357
4270000,0.0324,0.013523,0.002678,0.000431,1.833910
4271000,0.0324,0.013523,0.002678,0.000431,1.720495
4272000,0.0324,0.013523,0.002678,0.000431,1.817338
4273000,0.0324,0.013523,0.002678,0.000431,1.702043
4274000,0.0324,0.013523,0.002678,0.000431,1.848483
4275000,0.0324,0.013523,0.002678,0.000431,1.759044
4276000,0.0324,0.013523,0.002678,0.000431,1.895730
4277000,0.0324,0.013523,0.002678,0.000431,1.839669
4278000,0.0324,0.013523,0.002678,0.000431,1.879746
4279000,0.0324,0.013523,0.002678,0.000431,1.984463
4280000,0.0324,0.013523,0.002678,0.000431,1.880686
4281000,0.0324,0.013523,0.002678,0.000431,1.682181
4282000,0.0324,0.013523,0.002678,0.000431,1.756341
4283000,0.0324,0.013523,0.002678,0.000431,1.866818
4284000,0.0324,0.013523,0.002678,0.000431,1.813577
4285000,0.0324,0.013523,0.002678,0.000431,2.076253
4286000,0.0324,0.013523,0.002678,0.000431,2.045578
4287000,0.0324,0.013523,0.002678,0.000431,2.042757
4288000,0.0324,0.013523,0.002678,0.000431,1.941801
4289000,0.0324,0.013523,0.002678,0.000431,1.917590
4290000,0.0324,0.013523,0.002678,0.000431,1.983758
4291000,0.0324,0.013523,0.002678,0.000431,1.918295
4292000,0.0324,0.013523,0.002678,0.000431,2.182028
4293000,0.0324,0.013523,0.002678,0.000431,2.004678
4294000,0.0324,0.013523,0.002678,0.000431,2.009027
4295000,0.0324,0.013523,0.002678,0.000431,2.073667
4296000,0.0324,0.013523,0.002678,0.000431,2.028889
4297000,0.0324,0.013523,0.002678,0.000431,1.989282
4298000,0.0324,0.013523,0.002678,0.000431,1.913241
4299000,0.0324,0.013523,0.002678,0.000431,2.084715
4300000,0.0324,0.013523,0.002678,0.000431,1.973533
4301000,0.0324,0.013523,0.002678,0.000431,2.007851
4302000,0.0324,0.013523,0.002678,0.000431,1.947912
4303000,0.0324,0.013523,0.002678,0.000431,2.102109
4304000,0.0324,0.013523,0.002678,0.000431,2.139601
4305000,0.0324,0.013523,0.002678,0.000431,2.036763
4306000,0.0324,0.013523,0.002678,0.000431,1.995041
4307000,0.0324,0.013523,0.002678,0.000431,2.110924
4308000,0.0324,0.013523,0.002678,0.000431,1.977412
4309000,0.0324,0.013523,0.002678,0.000431,2.006559
4310000,0.0324,0.013523,0.002678,0.000431,1.893849
4311000,0.0324,0.013523,0.002678,0.000431,1.941331
4312000,0.0324,0.013523,0.002678,0.000431,2.010320
4313000,0.0324,0.013523,0.002678,0.000431,1.872577
4314000,0.0324,0.013523,0.002678,0.000431,1.891028
4315000,0.0324,0.013523,0.002678,0.000431,2.009379
4316000,0.0324,0.013523,0.002678,0.000431,2.162519
4317000,0.0324,0.013523,0.002678,0.000431,1.885857
4318000,0.0324,0.013523,0.002678,0.000431,2.024070
4319000,0.0324,0.013523,0.002678,0.000431,1.913711
4320000,0.0324,0.013523,0.002678,0.000431,2.086595
4321000,0.0324,0.013523,0.002678,0.000431,1.834615
4322000,0.0324,0.013523,0.002678,0.000431,1.867640
4323000,0.0324,0.013523,0.002678,0.000431,1.598383
4324000,0.0324,0.013523,0.002678,0.000431,1.824155
4325000,0.0324,0.013523,0.002678,0.000431,1.667842
4326000,0.0324,0.013523,0.002678,0.000431,1.777966
4327000,0.0324,0.013523,0.002678,0.000431,1.574055
4328000,0.0324,0.013523,0.002678,0.000431,1.576523
4329000,0.0324,0.013523,0.002678,0.000431,1.507887
4330000,0.0324,0.013523,0.002678,0.000431,1.689820
4331000,0.0324,0.013523,0.002678,0.000431,1.642809
4332000,0.0324,0.013523,0.002678,0.000431,1.583810
4333000,0.0324,0.013523,0.002678,0.000431,1.674071
4334000,0.0324,0.013523,0.002678,0.000431,1.484381
4335000,0.0324,0.013523,0.002678,0.000431,1.808406
4336000,0.0324,0.013523,0.002678,0.000431,1.669605
4337000,0.0324,0.013523,0.002678,0.000431,1.678655
4338000,0.0324,0.013523,0.002678,0.000431,1.665022
4339000,0.0324,0.013523,0.002678,0.000431,1.890323
4340000,0.0324,0.013523,0.002678,0.000431,1.717792
4341000,0.0324,0.013523,0.002678,0.000431,1.763275
4342000,0.0324,0.013523,0.002678,0.000431,1.813225
4343000,0.0324,0.013523,0.002678,0.000431,1.789602
4344000,0.0324,0.013523,0.002678,0.000431,1.723903
4345000,0.0324,0.013523,0.002678,0.000431,1.634935
4346000,0.0324,0.013523,0.002678,0.000431,1.710035
4347000,0.0324,0.013523,0.002678,0.000431,1.701573
4348000,0.0324,0.013523,0.002678,0.000431,1.873164
4349000,0.0324,0.013523,0.002678,0.000431,1.751523
4350000,0.0324,0.013523,0.002678,0.000431,1.776203
4351000,0.0324,0.013523,0.002678,0.000431,1.638460
4352000,0.0324,0.013523,0.002678,0.000431,1.584750
4353000,0.0324,0.013523,0.002678,0.000431,1.705569
4354000,0.0324,0.013523,0.002678,0.000431,1.838023
4355000,0.0324,0.013523,0.002678,0.000431,1.811344
4356000,0.0324,0.013523,0.002678,0.000431,1.730015
4357000,0.0324,0.013523,0.002678,0.000431,1.728017
4358000,0.0324,0.013523,0.002678,0.000431,1.751287
4359000,0.0324,0.013523,0.002678,0.000431,1.684061
4360000,0.0324,0.013523,0.002678,0.000431,1.883859
4361000,0.0324,0.013523,0.002678,0.000431,1.766096
4362000,0.0324,0.013523,0.002678,0.000431,1.856593
4363000,0.0324,0.013523,0.002678,0.000431,1.756694
4364000,0.0324,0.013523,0.002678,0.000431,1.847778
4365000,0.0324,0.013523,0.002678,0.000431,1.779142
4366000,0.0324,0.013523,0.002678,0.000431,1.836613
4367000,0.0324,0.013523,0.002678,0.000431,1.961428
4368000,0.0324,0.013523,0.002678,0.000431,1.831207
4369000,0.0324,0.013523,0.002678,0.000431,1.740710
4370000,0.0324,0.013523,0.002678,0.000431,1.710623
4371000,0.0324,0.013523,0.002678,0.000431,1.929930
4372000,0.0324,0.013523,0.002678,0.000431,1.678655
4373000,0.0324,0.013523,0.002678,0.000431,1.641281
4374000,0.0324,0.013523,0.002678,0.000431,1.758692
4375000,0.0324,0.013523,0.002678,0.000431,1.820512
4376000,0.0324,0.013523,0.002678,0.000431,1.813342
4377000,0.0324,0.013523,0.002678,0.000431,1.715676
4378000,0.0324,0.013523,0.002678,0.000431,1.868228
4379000,0.0324,0.013523,0.002678,0.000431,1.742238
4380000,0.0324,0.013523,0.002678,0.000431,1.889618
4381000,0.0324,0.013523,0.002678,0.000431,1.925347
4382000,0.0324,0.013523,0.002678,0.000431,2.122794
4383000,0.0324,0.013523,0.002678,0.000431,1.884447
4384000,0.0324,0.013523,0.002678,0.000431,1.910773
4385000,0.0324,0.013523,0.002678,0.000431,1.877160
4386000,0.0324,0.013523,0.002678,0.000431,1.969420
4387000,0.0324,0.013523,0.002678,0.000431,2.083187
4388000,0.0324,0.013523,0.002678,0.000431,1.721788
4389000,0.0324,0.013523,0.002678,0.000431,2.085773
4390000,0.0324,0.013523,0.002678,0.000431,1.907130
4391000,0.0324,0.013523,0.002678,0.000431,1.987167
4392000,0.0324,0.013523,0.002678,0.000431,1.937335
4393000,0.0324,0.013523,0.002678,0.000431,1.874222
4394000,0.0324,0.013523,0.002678,0.000431,1.848483
4395000,0.0324,0.013523,0.002678,0.000431,1.864350
4396000,0.0324,0.013523,0.002678,0.000431,1.863762
4397000,0.0324,0.013523,0.002678,0.000431,1.952026
4398000,0.0324,0.013523,0.002678,0.000431,1.968832
4399000,0.0324,0.013523,0.002678,0.000431,1.831912
4400000,0.0324,0.013523,0.002678,0.000431,1.773030
4401000,0.0324,0.013523,0.002678,0.000431,1.933221
4402000,0.0324,0.013523,0.002678,0.000431,1.830619
4403000,0.0324,0.013523,0.002678,0.000431,1.907600
4404000,0.0324,0.013523,0.002678,0.000431,1.843782
4405000,0.0324,0.013523,0.002678,0.000431,1.952848
4406000,0.0324,0.013523,0.002678,0.000431,1.852244
4407000,0.0324,0.013523,0.002678,0.000431,1.848953
4408000,0.0324,0.013523,0.002678,0.000431,1.707802
4409000,0.0324,0.013523,0.002678,0.000431,1.783020
4410000,0.0324,0.013523,0.002678,0.000431,1.807113
4411000,0.0324,0.013523,0.002678,0.000431,1.908540
4412000,0.0324,0.013523,0.002678,0.000431,1.744236
4413000,0.0324,0.013523,0.002678,0.000431,1.862822
4414000,0.0324,0.013523,0.002678,0.000431,1.635522
4415000,0.0324,0.013523,0.002678,0.000431,1.695697
4416000,0.0324,0.013523,0.002678,0.000431,1.823450
4417000,0.0324,0.013523,0.002678,0.000431,1.755636
4418000,0.0324,0.013523,0.002678,0.000431,1.727077
4419000,0.0324,0.013523,0.002678,0.000431,1.602732
4420000,0.0324,0.013523,0.002678,0.000431,1.606728
4421000,0.0324,0.013523,0.002678,0.000431,1.495076
4422000,0.0324,0.013523,0.002678,0.000431,1.772560
4423000,0.0324,0.013523,0.002678,0.000431,1.519757
4424000,0.0324,0.013523,0.002678,0.000431,1.691701
4425000,0.0324,0.013523,0.002678,0.000431,1.538914
4426000,0.0324,0.013523,0.002678,0.000431,1.746821
4427000,0.0324,0.013523,0.002678,0.000431,1.536093
4428000,0.0324,0.013523,0.002678,0.000431,1.839199
4429000,0.0324,0.013523,0.002678,0.000431,1.792657
4430000,0.0324,0.013523,0.002678,0.000431,1.757751
4431000,0.0324,0.013523,0.002678,0.000431,1.649978
4432000,0.0324,0.013523,0.002678,0.000431,1.613309
4433000,0.0324,0.013523,0.002678,0.000431,1.509767
4434000,0.0324,0.013523,0.002678,0.000431,1.288814
4435000,0.0324,0.013523,0.002678,0.000431,1.557954
4436000,0.0324,0.013523,0.002678,0.000431,1.635757
4437000,0.0324,0.013523,0.002678,0.000431,1.765861
4438000,0.0324,0.013523,0.002678,0.000431,1.668900
4439000,0.0324,0.013523,0.002678,0.000431,1.695814
4440000,0.0324,0.013523,0.002678,0.000431,1.686059
4441000,0.0324,0.013523,0.002678,0.000431,1.730132
4442000,0.0324,0.013523,0.002678,0.000431,1.736714
4443000,0.0324,0.013523,0.002678,0.000431,1.719907
4444000,0.0324,0.013523,0.002678,0.000431,1.848483
4445000,0.0324,0.013523,0.002678,0.000431,1.858708
4446000,0.0324,0.013523,0.002678,0.000431,1.726489
4447000,0.0324,0.013523,0.002678,0.000431,1.839551
4448000,0.0324,0.013523,0.002678,0.000431,1.904192
4449000,0.0324,0.013523,0.002678,0.000431,1.970007
4450000,0.0324,0.013523,0.002678,0.000431,1.860589
4451000,0.0324,0.013523,0.002678,0.000431,1.826035
4452000,0.0324,0.013523,0.002678,0.000431,1.750935
4453000,0.0324,0.013523,0.002678,0.000431,1.945444
4454000,0.0324,0.013523,0.002678,0.000431,1.806878
4455000,0.0324,0.013523,0.002678,0.000431,1.850364
4456000,0.0324,0.013523,0.002678,0.000431,1.926169
4457000,0.0324,0.013523,0.002678,0.000431,1.942036
4458000,0.0324,0.013523,0.002678,0.000431,1.811109
4459000,0.0324,0.013523,0.002678,0.000431,1.745764
4460000,0.0324,0.013523,0.002678,0.000431,1.806056
4461000,0.0324,0.013523,0.002678,0.000431,1.907247
4462000,0.0324,0.013523,0.002678,0.000431,1.918060
4463000,0.0324,0.013523,0.002678,0.000431,1.821687
4464000,0.0324,0.013523,0.002678,0.000431,1.913946
4465000,0.0324,0.013523,0.002678,0.000431,1.953083
4466000,0.0324,0.013523,0.002678,0.000431,1.932281
4467000,0.0324,0.013523,0.002678,0.000431,1.922644
4468000,0.0324,0.013523,0.002678,0.000431,2.100699
4469000,0.0324,0.013523,0.002678,0.000431,1.867640
4470000,0.0324,0.013523,0.002678,0.000431,1.870814
4471000,0.0324,0.013523,0.002678,0.000431,1.759632
4472000,0.0324,0.013523,0.002678,0.000431,1.770445
4473000,0.0324,0.013523,0.002678,0.000431,1.970125
4474000,0.0324,0.013523,0.002678,0.000431,1.678773
4475000,0.0324,0.013523,0.002678,0.000431,1.908775
4476000,0.0324,0.013523,0.002678,0.000431,1.920998
4477000,0.0324,0.013523,0.002678,0.000431,1.674894
4478000,0.0324,0.013523,0.002678,0.000431,1.942741
4479000,0.0324,0.013523,0.002678,0.000431,1.735186
4480000,0.0324,0.013523,0.002678,0.000431,1.867993
4481000,0.0324,0.013523,0.002678,0.000431,1.804645
4482000,0.0324,0.013523,0.002678,0.000431,1.859178
4483000,0.0324,0.013523,0.002678,0.000431,1.767271
4484000,0.0324,0.013523,0.002678,0.000431,1.864702
4485000,0.0324,0.013523,0.002678,0.000431,1.879041
4486000,0.0324,0.013523,0.002678,0.000431,1.810169
4487000,0.0324,0.013523,0.002678,0.000431,1.895965
4488000,0.0324,0.013523,0.002678,0.000431,1.891851
4489000,0.0324,0.013523,0.002678,0.000431,1.778672
4490000,0.0324,0.013523,0.002678,0.000431,1.767859
4491000,0.0324,0.013523,0.002678,0.000431,1.745881
4492000,0.0324,0.013523,0.002678,0.000431,1.784313
4493000,0.0324,0.013523,0.002678,0.000431,1.895847
4494000,0.0324,0.013523,0.002678,0.000431,1.769387
4495000,0.0324,0.013523,0.002678,0.000431,1.653622
4496000,0.0324,0.013523,0.002678,0.000431,1.669135
4497000,0.0324,0.013523,0.002678,0.000431,1.857063
4498000,0.0324,0.013523,0.002678,0.000431,1.698047
4499000,0.0324,0.013523,0.002678,0.000431,1.770915
4500000,0.0324,0.013523,0.002678,0.000431,1.753638
4501000,0.0324,0.013523,0.002678,0.000431,1.742825
4502000,0.0324,0.013523,0.002678,0.000431,1.685002
4503000,0.0324,0.013523,0.002678,0.000431,1.658675
4504000,0.0324,0.013523,0.002678,0.000431,1.709682
4505000,0.0324,0.013523,0.002678,0.000431,1.698165
4506000,0.0324,0.013523,0.002678,0.000431,1.531862
4507000,0.0324,0.013523,0.002678,0.000431,1.496134
4508000,0.0324,0.013523,0.002678,0.000431,1.561832
4509000,0.0324,0.013523,0.002678,0.000431,1.611781
4510000,0.0324,0.013523,0.002678,0.000431,1.706274
4511000,0.0324,0.013523,0.002678,0.000431,1.687000
4512000,0.0324,0.013523,0.002678,0.000431,1.660438
4513000,0.0324,0.013523,0.002678,0.000431,1.607080
4514000,0.0324,0.013523,0.002678,0.000431,1.690643
4515000,0.0324,0.013523,0.002678,0.000431,1.944856
4516000,0.0324,0.013523,0.002678,0.000431,1.838963
4517000,0.0324,0.013523,0.002678,0.000431,1.843900
4518000,0.0324,0.013523,0.002678,0.000431,1.782197
4519000,0.0324,0.013523,0.002678,0.000431,2.024776
4520000,0.0324,0.013523,0.002678,0.000431,1.768799
4521000,0.0324,0.013523,0.002678,0.000431,1.766919
4522000,0.0324,0.013523,0.002678,0.000431,1.862469
4523000,0.0324,0.013523,0.002678,0.000431,1.929930
4524000,0.0324,0.013523,0.002678,0.000431,1.750465
4525000,0.0324,0.013523,0.002678,0.000431,1.762335
4526000,0.0324,0.013523,0.002678,0.000431,1.726607
4527000,0.0324,0.013523,0.002678,0.000431,1.944739
4528000,0.0324,0.013523,0.002678,0.000431,1.957314
4529000,0.0324,0.013523,0.002678,0.000431,1.916650
4530000,0.0324,0.013523,0.002678,0.000431,1.856240
4531000,0.0324,0.013523,0.002678,0.000431,1.909010
4532000,0.0324,0.013523,0.002678,0.000431,1.838376
4533000,0.0324,0.013523,0.002678,0.000431,1.850834
4534000,0.0324,0.013523,0.002678,0.000431,1.892086
4535000,0.0324,0.013523,0.002678,0.000431,1.989635
4536000,0.0324,0.013523,0.002678,0.000431,2.110924
4537000,0.0324,0.013523,0.002678,0.000431,2.065675
4538000,0.0324,0.013523,0.002678,0.000431,2.115507
4539000,0.0324,0.013523,0.002678,0.000431,2.026891
4540000,0.0324,0.013523,0.002678,0.000431,1.969890
4541000,0.0324,0.013523,0.002678,0.000431,2.073550
4542000,0.0324,0.013523,0.002678,0.000431,1.946502
4543000,0.0324,0.013523,0.002678,0.000431,1.988929
4544000,0.0324,0.013523,0.002678,0.000431,1.896787
4545000,0.0324,0.013523,0.002678,0.000431,1.766214
4546000,0.0324,0.013523,0.002678,0.000431,1.981290
4547000,0.0324,0.013523,0.002678,0.000431,2.009614
4548000,0.0324,0.013523,0.002678,0.000431,2.108338
4549000,0.0324,0.013523,0.002678,0.000431,2.137485
4550000,0.0324,0.013523,0.002678,0.000431,1.967774
4551000,0.0324,0.013523,0.002678,0.000431,2.029124
4552000,0.0324,0.013523,0.002678,0.000431,1.967539
4553000,0.0324,0.013523,0.002678,0.000431,1.840609
4554000,0.0324,0.013523,0.002678,0.000431,1.887620
4555000,0.0324,0.013523,0.002678,0.000431,1.992103
4556000,0.0324,0.013523,0.002678,0.000431,2.133959
4557000,0.0324,0.013523,0.002678,0.000431,1.914769
4558000,0.0324,0.013523,0.002678,0.000431,2.002798
4559000,0.0324,0.013523,0.002678,0.000431,2.011260
4560000,0.0324,0.013523,0.002678,0.000431,2.082834
4561000,0.0324,0.013523,0.002678,0.000431,1.792422
4562000,0.0324,0.013523,0.002678,0.000431,1.915122
4563000,0.0324,0.013523,0.002678,0.000431,1.998684
4564000,0.0324,0.013523,0.002678,0.000431,2.008909
4565000,0.0324,0.013523,0.002678,0.000431,1.986461
4566000,0.0324,0.013523,0.002678,0.000431,2.130081
4567000,0.0324,0.013523,0.002678,0.000431,2.014668
4568000,0.0324,0.013523,0.002678,0.000431,1.955199
4569000,0.0324,0.013523,0.002678,0.000431,2.082129
4570000,0.0324,0.013523,0.002678,0.000431,1.944856
4571000,0.0324,0.013523,0.002678,0.000431,2.098583
4572000,0.0324,0.013523,0.002678,0.000431,2.080719
4573000,0.0324,0.013523,0.002678,0.000431,2.094235
4574000,0.0324,0.013523,0.002678,0.000431,2.004091
4575000,0.0324,0.013523,0.002678,0.000431,2.056743
4576000,0.0324,0.013523,0.002678,0.000431,2.106458
4577000,0.0324,0.013523,0.002678,0.000431,2.035471
4578000,0.0324,0.013523,0.002678,0.000431,2.023013
4579000,0.0324,0.013523,0.002678,0.000431,1.981055
4580000,0.0324,0.013523,0.002678,0.000431,1.843547
4581000,0.0324,0.013523,0.002678,0.000431,1.859413
4582000,0.0324,0.013523,0.002678,0.000431,1.988812
4583000,0.0324,0.013523,0.002678,0.000431,1.921116
4584000,0.0324,0.013523,0.002678,0.000431,1.955199
4585000,0.0324,0.013523,0.002678,0.000431,1.842842
4586000,0.0324,0.013523,0.002678,0.000431,1.924759
4587000,0.0324,0.013523,0.002678,0.000431,1.783960
4588000,0.0324,0.013523,0.002678,0.000431,1.925817
4589000,0.0324,0.013523,0.002678,0.000431,2.027009
4590000,0.0324,0.013523,0.002678,0.000431,1.955786
4591000,0.0324,0.013523,0.002678,0.000431,1.866935
4592000,0.0324,0.013523,0.002678,0.000431,1.910538
4593000,0.0324,0.013523,0.002678,0.000431,1.802765
4594000,0.0324,0.013523,0.002678,0.000431,1.996216
4595000,0.0324,0.013523,0.002678,0.000431,1.773618
4596000,0.0324,0.013523,0.002678,0.000431,1.824625
4597000,0.0324,0.013523,0.002678,0.000431,1.933339
4598000,0.0324,0.013523,0.002678,0.000431,1.826505
4599000,0.0324,0.013523,0.002678,0.000431,1.862822
4600000,0.0324,0.013523,0.002678,0.000431,1.662554
4601000,0.0324,0.013523,0.002678,0.000431,1.846838
4602000,0.0324,0.013523,0.002678,0.000431,1.917002
4603000,0.0324,0.013523,0.002678,0.000431,2.056743
4604000,0.0324,0.013523,0.002678,0.000431,1.711328
4605000,0.0324,0.013523,0.002678,0.000431,1.975766
4606000,0.0324,0.013523,0.002678,0.000431,1.943681
4607000,0.0324,0.013523,0.002678,0.000431,2.078016
4608000,0.0324,0.013523,0.002678,0.000431,2.027009
4609000,0.0324,0.013523,0.002678,0.000431,2.138308
4610000,0.0324,0.013523,0.002678,0.000431,2.166632
4611000,0.0324,0.013523,0.002678,0.000431,2.204006
4612000,0.0324,0.013523,0.002678,0.000431,2.120443
4613000,0.0324,0.013523,0.002678,0.000431,1.966011
4614000,0.0324,0.013523,0.002678,0.000431,1.911478
4615000,0.0324,0.013523,0.002678,0.000431,2.054275
4616000,0.0324,0.013523,0.002678,0.000431,2.146535
4617000,0.0324,0.013523,0.002678,0.000431,2.309194
4618000,0.0324,0.013523,0.002678,0.000431,2.039702
4619000,0.0324,0.013523,0.002678,0.000431,2.315423
4620000,0.0324,0.013523,0.002678,0.000431,2.136897
4621000,0.0324,0.013523,0.002678,0.000431,2.283573
4622000,0.0324,0.013523,0.002678,0.000431,2.114450
4623000,0.0324,0.013523,0.002678,0.000431,2.142304
4624000,0.0324,0.013523,0.002678,0.000431,2.212233
4625000,0.0324,0.013523,0.002678,0.000431,2.220577
4626000,0.0324,0.013523,0.002678,0.000431,2.312837
4627000,0.0324,0.013523,0.002678,0.000431,2.229392
4628000,0.0324,0.013523,0.002678,0.000431,2.422961
4629000,0.0324,0.013523,0.002678,0.000431,2.241262
4630000,0.0324,0.013523,0.002678,0.000431,2.149590
4631000,0.0324,0.013523,0.002678,0.000431,2.072374
4632000,0.0324,0.013523,0.002678,0.000431,2.450463
4633000,0.0324,0.013523,0.002678,0.000431,2.310604
4634000,0.0324,0.013523,0.002678,0.000431,2.421668
4635000,0.0324,0.013523,0.002678,0.000431,2.183086
4636000,0.0324,0.013523,0.002678,0.000431,2.180735
4637000,0.0324,0.013523,0.002678,0.000431,2.136780
4638000,0.0324,0.013523,0.002678,0.000431,2.348801
4639000,0.0324,0.013523,0.002678,0.000431,2.267119
4640000,0.0324,0.013523,0.002678,0.000431,2.222575
4641000,0.0324,0.013523,0.002678,0.000431,1.908775
4642000,0.0324,0.013523,0.002678,0.000431,2.091061
4643000,0.0324,0.013523,0.002678,0.000431,2.254191
4644000,0.0324,0.013523,0.002678,0.000431,2.025481
4645000,0.0324,0.013523,0.002678,0.000431,2.135840
4646000,0.0324,0.013523,0.002678,0.000431,2.028654
4647000,0.0324,0.013523,0.002678,0.000431,2.038291
4648000,0.0324,0.013523,0.002678,0.000431,1.999389
4649000,0.0324,0.013523,0.002678,0.000431,2.311192
4650000,0.0324,0.013523,0.002678,0.000431,2.094705
4651000,0.0324,0.013523,0.002678,0.000431,2.234563
4652000,0.0324,0.013523,0.002678,0.000431,2.268999
4653000,0.0324,0.013523,0.002678,0.000431,2.004678
4654000,0.0324,0.013523,0.002678,0.000431,1.871284
4655000,0.0324,0.013523,0.002678,0.000431,2.277344
4656000,0.0324,0.013523,0.002678,0.000431,2.286511
4657000,0.0324,0.013523,0.002678,0.000431,2.099053
4658000,0.0324,0.013523,0.002678,0.000431,2.040054
4659000,0.0324,0.013523,0.002678,0.000431,2.302612
4660000,0.0324,0.013523,0.002678,0.000431,2.162048
4661000,0.0324,0.013523,0.002678,0.000431,2.104460
4662000,0.0324,0.013523,0.002678,0.000431,2.030887
4663000,0.0324,0.013523,0.002678,0.000431,2.362199
4664000,0.0324,0.013523,0.002678,0.000431,2.066616
4665000,0.0324,0.013523,0.002678,0.000431,2.137485
4666000,0.0324,0.013523,0.002678,0.000431,2.204241
4667000,0.0324,0.013523,0.002678,0.000431,2.066968
4668000,0.0324,0.013523,0.002678,0.000431,2.188140
4669000,0.0324,0.013523,0.002678,0.000431,2.140188
4670000,0.0324,0.013523,0.002678,0.000431,1.957784
4671000,0.0324,0.013523,0.002678,0.000431,2.045696
4672000,0.0324,0.013523,0.002678,0.000431,2.158052
4673000,0.0324,0.013523,0.002678,0.000431,2.088946
4674000,0.0324,0.013523,0.002678,0.000431,2.017489
4675000,0.0324,0.013523,0.002678,0.000431,1.981525
4676000,0.0324,0.013523,0.002678,0.000431,2.113039
4677000,0.0324,0.013523,0.002678,0.000431,1.986226
4678000,0.0324,0.013523,0.002678,0.000431,2.015961
4679000,0.0324,0.013523,0.002678,0.000431,2.195426
4680000,0.0324,0.013523,0.002678,0.000431,2.119386
4681000,0.0324,0.013523,0.002678,0.000431,2.094235
4682000,0.0324,0.013523,0.002678,0.000431,2.134782
4683000,0.0324,0.013523,0.002678,0.000431,2.061209
4684000,0.0324,0.013523,0.002678,0.000431,2.171921
4685000,0.0324,0.013523,0.002678,0.000431,2.202361
4686000,0.0324,0.013523,0.002678,0.000431,2.148298
4687000,0.0324,0.013523,0.002678,0.000431,2.112452
4688000,0.0324,0.013523,0.002678,0.000431,2.119738
4689000,0.0324,0.013523,0.002678,0.000431,2.338458
4690000,0.0324,0.013523,0.002678,0.000431,2.241145
4691000,0.0324,0.013523,0.002678,0.000431,2.162048
4692000,0.0324,0.013523,0.002678,0.000431,2.018547
4693000,0.0324,0.013523,0.002678,0.000431,2.168865
4694000,0.0324,0.013523,0.002678,0.000431,2.352327
4695000,0.0324,0.013523,0.002678,0.000431,2.336695
4696000,0.0324,0.013523,0.002678,0.000431,2.489952
4697000,0.0324,0.013523,0.002678,0.000431,2.263358
4698000,0.0324,0.013523,0.002678,0.000431,2.489952
4699000,0.0324,0.013523,0.002678,0.000431,2.358438
4700000,0.0324,0.013523,0.002678,0.000431,2.434244
4701000,0.0324,0.013523,0.002678,0.000431,2.378770
4702000,0.0324,0.013523,0.002678,0.000431,2.368781
4703000,0.0324,0.013523,0.002678,0.000431,2.398398
4704000,0.0324,0.013523,0.002678,0.000431,2.406625
4705000,0.0324,0.013523,0.002678,0.000431,2.283455
4706000,0.0324,0.013523,0.002678,0.000431,2.339398
4707000,0.0324,0.013523,0.002678,0.000431,2.351739
4708000,0.0324,0.013523,0.002678,0.000431,2.384059
4709000,0.0324,0.013523,0.002678,0.000431,2.336578
4710000,0.0324,0.013523,0.002678,0.000431,2.295443
4711000,0.0324,0.013523,0.002678,0.000431,2.362434
4712000,0.0324,0.013523,0.002678,0.000431,2.253603
4713000,0.0324,0.013523,0.002678,0.000431,2.200245
4714000,0.0324,0.013523,0.002678,0.000431,2.291329
4715000,0.0324,0.013523,0.002678,0.000431,2.212703
4716000,0.0324,0.013523,0.002678,0.000431,2.259009
4717000,0.0324,0.013523,0.002678,0.000431,2.181088
4718000,0.0324,0.013523,0.002678,0.000431,2.007851
4719000,0.0324,0.013523,0.002678,0.000431,2.190490
4720000,0.0324,0.013523,0.002678,0.000431,2.181088
4721000,0.0324,0.013523,0.002678,0.000431,2.166867
4722000,0.0324,0.013523,0.002678,0.000431,2.133019
4723000,0.0324,0.013523,0.002678,0.000431,2.046166
4724000,0.0324,0.013523,0.002678,0.000431,2.073667
4725000,0.0324,0.013523,0.002678,0.000431,2.175799
4726000,0.0324,0.013523,0.002678,0.000431,2.139836
4727000,0.0324,0.013523,0.002678,0.000431,2.219990
4728000,0.0324,0.013523,0.002678,0.000431,2.003738
4729000,0.0324,0.013523,0.002678,0.000431,2.020074
4730000,0.0324,0.013523,0.002678,0.000431,2.081542
4731000,0.0324,0.013523,0.002678,0.000431,2.077311
4732000,0.0324,0.013523,0.002678,0.000431,2.053923
4733000,0.0324,0.013523,0.002678,0.000431,2.118798
4734000,0.0324,0.013523,0.002678,0.000431,2.039467
4735000,0.0324,0.013523,0.002678,0.000431,2.023130
4736000,0.0324,0.013523,0.002678,0.000431,2.054628
4737000,0.0324,0.013523,0.002678,0.000431,1.981878
4738000,0.0324,0.013523,0.002678,0.000431,1.985756
4739000,0.0324,0.013523,0.002678,0.000431,1.965424
4740000,0.0324,0.013523,0.002678,0.000431,1.966129
4741000,0.0324,0.013523,0.002678,0.000431,2.014433
4742000,0.0324,0.013523,0.002678,0.000431,1.990340
4743000,0.0324,0.013523,0.002678,0.000431,1.919118
4744000,0.0324,0.013523,0.002678,0.000431,1.917707
4745000,0.0324,0.013523,0.002678,0.000431,2.019839
4746000,0.0324,0.013523,0.002678,0.000431,1.840844
4747000,0.0324,0.013523,0.002678,0.000431,1.961545
4748000,0.0324,0.013523,0.002678,0.000431,1.975531
4749000,0.0324,0.013523,0.002678,0.000431,2.019487
4750000,0.0324,0.013523,0.002678,0.000431,1.980702
4751000,0.0324,0.013523,0.002678,0.000431,1.955316
4752000,0.0324,0.013523,0.002678,0.000431,2.020780
4753000,0.0324,0.013523,0.002678,0.000431,2.147945
4754000,0.0324,0.013523,0.002678,0.000431,2.132901
4755000,0.0324,0.013523,0.002678,0.000431,2.124674
4756000,0.0324,0.013523,0.002678,0.000431,2.166279
4757000,0.0324,0.013523,0.002678,0.000431,2.072374
4758000,0.0324,0.013523,0.002678,0.000431,2.072492
4759000,0.0324,0.013523,0.002678,0.000431,2.074020
4760000,0.0324,0.013523,0.002678,0.000431,2.051689
4761000,0.0324,0.013523,0.002678,0.000431,2.095998
4762000,0.0324,0.013523,0.002678,0.000431,2.178267
4763000,0.0324,0.013523,0.002678,0.000431,2.056391
4764000,0.0324,0.013523,0.002678,0.000431,2.109631
4765000,0.0324,0.013523,0.002678,0.000431,2.122089
4766000,0.0324,0.013523,0.002678,0.000431,2.070259
4767000,0.0324,0.013523,0.002678,0.000431,2.123029
4768000,0.0324,0.013523,0.002678,0.000431,2.210000
4769000,0.0324,0.013523,0.002678,0.000431,2.155467
4770000,0.0324,0.013523,0.002678,0.000431,2.175212
4771000,0.0324,0.013523,0.002678,0.000431,2.251958
4772000,0.0324,0.013523,0.002678,0.000431,2.021837
4773000,0.0324,0.013523,0.002678,0.000431,2.133724
4774000,0.0324,0.013523,0.002678,0.000431,2.167337
4775000,0.0324,0.013523,0.002678,0.000431,2.241733
4776000,0.0324,0.013523,0.002678,0.000431,2.154292
4777000,0.0324,0.013523,0.002678,0.000431,2.199540
4778000,0.0324,0.013523,0.002678,0.000431,2.233858
4779000,0.0324,0.013523,0.002678,0.000431,2.142539
4780000,0.0324,0.013523,0.002678,0.000431,2.152529
4781000,0.0324,0.013523,0.002678,0.000431,2.133372
4782000,0.0324,0.013523,0.002678,0.000431,2.112452
4783000,0.0324,0.013523,0.002678,0.000431,2.130903
4784000,0.0324,0.013523,0.002678,0.000431,2.109748
4785000,0.0324,0.013523,0.002678,0.000431,2.013258
4786000,0.0324,0.013523,0.002678,0.000431,1.985169
4787000,0.0324,0.013523,0.002678,0.000431,1.887973
4788000,0.0324,0.013523,0.002678,0.000431,2.092707
4789000,0.0324,0.013523,0.002678,0.000431,2.116095
4790000,0.0324,0.013523,0.002678,0.000431,2.064265
4791000,0.0324,0.013523,0.002678,0.000431,2.139366
4792000,0.0324,0.013523,0.002678,0.000431,2.145124
4793000,0.0324,0.013523,0.002678,0.000431,2.104460
4794000,0.0324,0.013523,0.002678,0.000431,2.087418
4795000,0.0324,0.013523,0.002678,0.000431,2.146182
4796000,0.0324,0.013523,0.002678,0.000431,2.224808
4797000,0.0324,0.013523,0.002678,0.000431,2.230215
4798000,0.0324,0.013523,0.002678,0.000431,2.224691
4799000,0.0324,0.013523,0.002678,0.000431,2.222223
4800000,0.0324,0.013523,0.002678,0.000431,2.212821
4801000,0.0324,0.013523,0.002678,0.000431,2.328586
4802000,0.0324,0.013523,0.002678,0.000431,2.397692
4803000,0.0324,0.013523,0.002678,0.000431,2.252193
4804000,0.0324,0.013523,0.002678,0.000431,2.156172
4805000,0.0324,0.013523,0.002678,0.000431,2.263123
4806000,0.0324,0.013523,0.002678,0.000431,2.336695
4807000,0.0324,0.013523,0.002678,0.000431,2.313307
4808000,0.0324,0.013523,0.002678,0.000431,2.265708
4809000,0.0324,0.013523,0.002678,0.000431,2.337871
4810000,0.0324,0.013523,0.002678,0.000431,2.303317
4811000,0.0324,0.013523,0.002678,0.000431,2.340456
4812000,0.0324,0.013523,0.002678,0.000431,2.219167
4813000,0.0324,0.013523,0.002678,0.000431,2.214936
4814000,0.0324,0.013523,0.002678,0.000431,2.255601
4815000,0.0324,0.013523,0.002678,0.000431,2.211293
4816000,0.0324,0.013523,0.002678,0.000431,2.320359
4817000,0.0324,0.013523,0.002678,0.000431,2.353619
4818000,0.0324,0.013523,0.002678,0.000431,2.183791
4819000,0.0324,0.013523,0.002678,0.000431,2.242438
4820000,0.0324,0.013523,0.002678,0.000431,2.343512
4821000,0.0324,0.013523,0.002678,0.000431,2.251487
4822000,0.0324,0.013523,0.002678,0.000431,2.188257
4823000,0.0324,0.013523,0.002678,0.000431,2.163106
4824000,0.0324,0.013523,0.002678,0.000431,2.170510
4825000,0.0324,0.013523,0.002678,0.000431,2.212115
4826000,0.0324,0.013523,0.002678,0.000431,2.160873
4827000,0.0324,0.013523,0.002678,0.000431,2.153939
4828000,0.0324,0.013523,0.002678,0.000431,2.065793
4829000,0.0324,0.013523,0.002678,0.000431,2.022542
4830000,0.0324,0.013523,0.002678,0.000431,1.972123
4831000,0.0324,0.013523,0.002678,0.000431,2.040054
4832000,0.0324,0.013523,0.002678,0.000431,2.004796
4833000,0.0324,0.013523,0.002678,0.000431,2.034060
4834000,0.0324,0.013523,0.002678,0.000431,1.987519
4835000,0.0324,0.013523,0.002678,0.000431,1.951438
4836000,0.0324,0.013523,0.002678,0.000431,1.944034
4837000,0.0324,0.013523,0.002678,0.000431,1.983288
4838000,0.0324,0.013523,0.002678,0.000431,2.020074
4839000,0.0324,0.013523,0.002678,0.000431,2.024658
4840000,0.0324,0.013523,0.002678,0.000431,2.020897
4841000,0.0324,0.013523,0.002678,0.000431,2.025128
4842000,0.0324,0.013523,0.002678,0.000431,2.081542
4843000,0.0324,0.013523,0.002678,0.000431,2.117388
4844000,0.0324,0.013523,0.002678,0.000431,2.072962
4845000,0.0324,0.013523,0.002678,0.000431,2.159580
4846000,0.0324,0.013523,0.002678,0.000431,2.117270
4847000,0.0324,0.013523,0.002678,0.000431,2.176739
4848000,0.0324,0.013523,0.002678,0.000431,2.273348
4849000,0.0324,0.013523,0.002678,0.000431,2.314600
4850000,0.0324,0.013523,0.002678,0.000431,2.320594
4851000,0.0324,0.013523,0.002678,0.000431,2.246434
4852000,0.0324,0.013523,0.002678,0.000431,2.272642
4853000,0.0324,0.013523,0.002678,0.000431,2.250195
4854000,0.0324,0.013523,0.002678,0.000431,2.343159
4855000,0.0324,0.013523,0.002678,0.000431,2.315658
4856000,0.0324,0.013523,0.002678,0.000431,2.184261
4857000,0.0324,0.013523,0.002678,0.000431,2.231390
4858000,0.0324,0.013523,0.002678,0.000431,2.107163
4859000,0.0324,0.013523,0.002678,0.000431,2.275698
4860000,0.0324,0.013523,0.002678,0.000431,2.291682
4861000,0.0324,0.013523,0.002678,0.000431,2.366430
4862000,0.0324,0.013523,0.002678,0.000431,2.293445
4863000,0.0324,0.013523,0.002678,0.000431,2.306373
4864000,0.0324,0.013523,0.002678,0.000431,2.289096
4865000,0.0324,0.013523,0.002678,0.000431,2.361259
4866000,0.0324,0.013523,0.002678,0.000431,2.274758
4867000,0.0324,0.013523,0.002678,0.000431,2.268764
4868000,0.0324,0.013523,0.002678,0.000431,2.272525
4869000,0.0324,0.013523,0.002678,0.000431,2.301084
4870000,0.0324,0.013523,0.002678,0.000431,2.358085
4871000,0.0324,0.013523,0.002678,0.000431,2.302495
4872000,0.0324,0.013523,0.002678,0.000431,2.261007
4873000,0.0324,0.013523,0.002678,0.000431,2.280869
4874000,0.0324,0.013523,0.002678,0.000431,2.193311
4875000,0.0324,0.013523,0.002678,0.000431,2.259127
4876000,0.0324,0.013523,0.002678,0.000431,2.256189
4877000,0.0324,0.013523,0.002678,0.000431,2.263828
4878000,0.0324,0.013523,0.002678,0.000431,2.275816
4879000,0.0324,0.013523,0.002678,0.000431,2.300732
4880000,0.0324,0.013523,0.002678,0.000431,2.452226
4881000,0.0324,0.013523,0.002678,0.000431,2.281222
4882000,0.0324,0.013523,0.002678,0.000431,2.379123
4883000,0.0324,0.013523,0.002678,0.000431,2.344805
4884000,0.0324,0.013523,0.002678,0.000431,2.335403
4885000,0.0324,0.013523,0.002678,0.000431,2.346920
4886000,0.0324,0.013523,0.002678,0.000431,2.261830
4887000,0.0324,0.013523,0.002678,0.000431,2.275698
4888000,0.0324,0.013523,0.002678,0.000431,2.342572
4889000,0.0324,0.013523,0.002678,0.000431,2.333757
4890000,0.0324,0.013523,0.002678,0.000431,2.171098
4891000,0.0324,0.013523,0.002678,0.000431,2.244318
4892000,0.0324,0.013523,0.002678,0.000431,2.226101
4893000,0.0324,0.013523,0.002678,0.000431,2.163341
4894000,0.0324,0.013523,0.002678,0.000431,2.255248
4895000,0.0324,0.013523,0.002678,0.000431,2.121149
4896000,0.0324,0.013523,0.002678,0.000431,2.129141
4897000,0.0324,0.013523,0.002678,0.000431,1.877748
4898000,0.0324,0.013523,0.002678,0.000431,2.165574
4899000,0.0324,0.013523,0.002678,0.000431,2.222693
4900000,0.0324,0.013523,0.002678,0.000431,2.199070
4901000,0.0324,0.013523,0.002678,0.000431,2.171098
4902000,0.0324,0.013523,0.002678,0.000431,2.223281
4903000,0.0324,0.013523,0.002678,0.000431,2.151118
4904000,0.0324,0.013523,0.002678,0.000431,2.042875
4905000,0.0324,0.013523,0.002678,0.000431,1.894554
4906000,0.0324,0.013523,0.002678,0.000431,1.986109
4907000,0.0324,0.013523,0.002678,0.000431,2.052277
4908000,0.0324,0.013523,0.002678,0.000431,2.174506
4909000,0.0324,0.013523,0.002678,0.000431,1.992925
4910000,0.0324,0.013523,0.002678,0.000431,1.796301
4911000,0.0324,0.013523,0.002678,0.000431,1.637638
4912000,0.0324,0.013523,0.002678,0.000431,1.858473
4913000,0.0324,0.013523,0.002678,0.000431,2.005148
4914000,0.0324,0.013523,0.002678,0.000431,2.090474
4915000,0.0324,0.013523,0.002678,0.000431,1.974003
4916000,0.0324,0.013523,0.002678,0.000431,1.991162
4917000,0.0324,0.013523,0.002678,0.000431,2.043580
4918000,0.0324,0.013523,0.002678,0.000431,2.075783
4919000,0.0324,0.013523,0.002678,0.000431,2.170746
4920000,0.0324,0.013523,0.002678,0.000431,2.149826
4921000,0.0324,0.013523,0.002678,0.000431,2.079544
4922000,0.0324,0.013523,0.002678,0.000431,1.919823
4923000,0.0324,0.013523,0.002678,0.000431,1.895024
4924000,0.0324,0.013523,0.002678,0.000431,2.114450
4925000,0.0324,0.013523,0.002678,0.000431,1.993396
4926000,0.0324,0.013523,0.002678,0.000431,2.164046
4927000,0.0324,0.013523,0.002678,0.000431,2.044638
4928000,0.0324,0.013523,0.002678,0.000431,2.152411
4929000,0.0324,0.013523,0.002678,0.000431,2.078838
4930000,0.0324,0.013523,0.002678,0.000431,2.227394
4931000,0.0324,0.013523,0.002678,0.000431,1.943093
4932000,0.0324,0.013523,0.002678,0.000431,2.047341
4933000,0.0324,0.013523,0.002678,0.000431,2.167220
4934000,0.0324,0.013523,0.002678,0.000431,2.257716
4935000,0.0324,0.013523,0.002678,0.000431,2.209060
4936000,0.0324,0.013523,0.002678,0.000431,2.163576
4937000,0.0324,0.013523,0.002678,0.000431,1.952731
4938000,0.0324,0.013523,0.002678,0.000431,2.053452
4939000,0.0324,0.013523,0.002678,0.000431,2.280164
4940000,0.0324,0.013523,0.002678,0.000431,2.096233
4941000,0.0324,0.013523,0.002678,0.000431,2.172861
4942000,0.0324,0.013523,0.002678,0.000431,2.177210
4943000,0.0324,0.013523,0.002678,0.000431,2.036293
4944000,0.0324,0.013523,0.002678,0.000431,2.206592
4945000,0.0324,0.013523,0.002678,0.000431,1.986696
4946000,0.0324,0.013523,0.002678,0.000431,2.209060
4947000,0.0324,0.013523,0.002678,0.000431,2.105988
4948000,0.0324,0.013523,0.002678,0.000431,1.951791
4949000,0.0324,0.013523,0.002678,0.000431,1.964836
4950000,0.0324,0.013523,0.002678,0.000431,1.986344
4951000,0.0324,0.013523,0.002678,0.000431,2.008557
4952000,0.0324,0.013523,0.002678,0.000431,1.996804
4953000,0.0324,0.013523,0.002678,0.000431,2.097878
4954000,0.0324,0.013523,0.002678,0.000431,2.060152
4955000,0.0324,0.013523,0.002678,0.000431,2.089534
4956000,0.0324,0.013523,0.002678,0.000431,2.031592
4957000,0.0324,0.013523,0.002678,0.000431,2.233388
4958000,0.0324,0.013523,0.002678,0.000431,2.146652
4959000,0.0324,0.013523,0.002678,0.000431,2.110806
4960000,0.0324,0.013523,0.002678,0.000431,1.952143
4961000,0.0324,0.013523,0.002678,0.000431,2.161226
4962000,0.0324,0.013523,0.002678,0.000431,2.088241
4963000,0.0324,0.013523,0.002678,0.000431,2.053805
4964000,0.0324,0.013523,0.002678,0.000431,2.002680
4965000,0.0324,0.013523,0.002678,0.000431,1.825330
4966000,0.0324,0.013523,0.002678,0.000431,2.011495
4967000,0.0324,0.013523,0.002678,0.000431,1.952613
4968000,0.0324,0.013523,0.002678,0.000431,2.035118
4969000,0.0324,0.013523,0.002678,0.000431,1.755636
4970000,0.0324,0.013523,0.002678,0.000431,1.964366
4971000,0.0324,0.013523,0.002678,0.000431,1.788896
4972000,0.0324,0.013523,0.002678,0.000431,1.912536
4973000,0.0324,0.013523,0.002678,0.000431,1.808406
4974000,0.0324,0.013523,0.002678,0.000431,1.800179
4975000,0.0324,0.013523,0.002678,0.000431,1.902194
4976000,0.0324,0.013523,0.002678,0.000431,1.929578
4977000,0.0324,0.013523,0.002678,0.000431,1.836025
4978000,0.0324,0.013523,0.002678,0.000431,1.639283
4979000,0.0324,0.013523,0.002678,0.000431,1.873399
4980000,0.0324,0.013523,0.002678,0.000431,1.805350
4981000,0.0324,0.013523,0.002678,0.000431,1.865407
4982000,0.0324,0.013523,0.002678,0.000431,1.712738
4983000,0.0324,0.013523,0.002678,0.000431,1.970830
4984000,0.0324,0.013523,0.002678,0.000431,1.979292
4985000,0.0324,0.013523,0.002678,0.000431,1.894789
4986000,0.0324,0.013523,0.002678,0.000431,2.061562
4987000,0.0324,0.013523,0.002678,0.000431,1.944386
4988000,0.0324,0.013523,0.002678,0.000431,1.890088
4989000,0.0324,0.013523,0.002678,0.000431,1.943681
4990000,0.0324,0.013523,0.002678,0.000431,1.904427
4991000,0.0324,0.013523,0.002678,0.000431,1.959782
4992000,0.0324,0.013523,0.002678,0.000431,1.851421
4993000,0.0324,0.013523,0.002678,0.000431,1.717674
4994000,0.0324,0.013523,0.002678,0.000431,1.815458
4995000,0.0324,0.013523,0.002678,0.000431,1.754461
4996000,0.0324,0.013523,0.002678,0.000431,1.792187
4997000,0.0324,0.013523,0.002678,0.000431,1.788309
4998000,0.0324,0.013523,0.002678,0.000431,1.661378
4999000,0.0324,0.013523,0.002678,0.000431,1.806291
