Cycle,Area(mm^2),PeakDynamic(W),SubthresholdLeakage(W),GateLeakage(W),RunTimeDynamic(W)
9000000,0.0324,0.013523,0.002678,0.000431,1.793127
9001000,0.0324,0.013523,0.002678,0.000431,1.885857
9002000,0.0324,0.013523,0.002678,0.000431,1.866112
9003000,0.0324,0.013523,0.002678,0.000431,1.786311
9004000,0.0324,0.013523,0.002678,0.000431,1.835085
9005000,0.0324,0.013523,0.002678,0.000431,1.854595
9006000,0.0324,0.013523,0.002678,0.000431,1.808289
9007000,0.0324,0.013523,0.002678,0.000431,1.777261
9008000,0.0324,0.013523,0.002678,0.000431,1.595680
9009000,0.0324,0.013523,0.002678,0.000431,1.836495
9010000,0.0324,0.013523,0.002678,0.000431,1.597326
9011000,0.0324,0.013523,0.002678,0.000431,1.588511
9012000,0.0324,0.013523,0.002678,0.000431,1.715324
9013000,0.0324,0.013523,0.002678,0.000431,1.618363
9014000,0.0324,0.013523,0.002678,0.000431,1.688175
9015000,0.0324,0.013523,0.002678,0.000431,1.699928
9016000,0.0324,0.013523,0.002678,0.000431,1.658793
9017000,0.0324,0.013523,0.002678,0.000431,1.660086
9018000,0.0324,0.013523,0.002678,0.000431,1.848718
9019000,0.0324,0.013523,0.002678,0.000431,1.641516
9020000,0.0324,0.013523,0.002678,0.000431,1.994101
9021000,0.0324,0.013523,0.002678,0.000431,1.964484
9022000,0.0324,0.013523,0.002678,0.000431,1.895259
9023000,0.0324,0.013523,0.002678,0.000431,1.808289
9024000,0.0324,0.013523,0.002678,0.000431,1.677480
9025000,0.0324,0.013523,0.002678,0.000431,1.917590
9026000,0.0324,0.013523,0.002678,0.000431,1.686177
9027000,0.0324,0.013523,0.002678,0.000431,1.765156
9028000,0.0324,0.013523,0.002678,0.000431,2.066028
9029000,0.0324,0.013523,0.002678,0.000431,1.870931
9030000,0.0324,0.013523,0.002678,0.000431,1.986579
9031000,0.0324,0.013523,0.002678,0.000431,1.929695
9032000,0.0324,0.013523,0.002678,0.000431,1.880686
9033000,0.0324,0.013523,0.002678,0.000431,1.830384
9034000,0.0324,0.013523,0.002678,0.000431,2.056391
9035000,0.0324,0.013523,0.002678,0.000431,2.063795
9036000,0.0324,0.013523,0.002678,0.000431,1.987167
9037000,0.0324,0.013523,0.002678,0.000431,2.008792
9038000,0.0324,0.013523,0.002678,0.000431,1.549139
9039000,0.0324,0.013523,0.002678,0.000431,1.667490
9040000,0.0324,0.013523,0.002678,0.000431,1.952496
9041000,0.0324,0.013523,0.002678,0.000431,2.021837
9042000,0.0324,0.013523,0.002678,0.000431,1.942036
9043000,0.0324,0.013523,0.002678,0.000431,2.005266
9044000,0.0324,0.013523,0.002678,0.000431,2.079191
9045000,0.0324,0.013523,0.002678,0.000431,2.126320
9046000,0.0324,0.013523,0.002678,0.000431,2.040524
9047000,0.0324,0.013523,0.002678,0.000431,1.880921
9048000,0.0324,0.013523,0.002678,0.000431,2.207179
9049000,0.0324,0.013523,0.002678,0.000431,1.859296
9050000,0.0324,0.013523,0.002678,0.000431,2.004208
9051000,0.0324,0.013523,0.002678,0.000431,1.972005
9052000,0.0324,0.013523,0.002678,0.000431,2.328821
9053000,0.0324,0.013523,0.002678,0.000431,1.659145
9054000,0.0324,0.013523,0.002678,0.000431,1.811227
9055000,0.0324,0.013523,0.002678,0.000431,2.015608
9056000,0.0324,0.013523,0.002678,0.000431,2.040289
9057000,0.0324,0.013523,0.002678,0.000431,2.083540
9058000,0.0324,0.013523,0.002678,0.000431,1.859648
9059000,0.0324,0.013523,0.002678,0.000431,1.993160
9060000,0.0324,0.013523,0.002678,0.000431,2.045696
9061000,0.0324,0.013523,0.002678,0.000431,2.129611
9062000,0.0324,0.013523,0.002678,0.000431,1.839199
9063000,0.0324,0.013523,0.002678,0.000431,1.811697
9064000,0.0324,0.013523,0.002678,0.000431,2.037234
9065000,0.0324,0.013523,0.002678,0.000431,2.021485
9066000,0.0324,0.013523,0.002678,0.000431,1.976824
9067000,0.0324,0.013523,0.002678,0.000431,1.779024
9068000,0.0324,0.013523,0.002678,0.000431,1.822627
9069000,0.0324,0.013523,0.002678,0.000431,1.842959
9070000,0.0324,0.013523,0.002678,0.000431,2.050044
9071000,0.0324,0.013523,0.002678,0.000431,2.074020
9072000,0.0324,0.013523,0.002678,0.000431,1.991398
9073000,0.0324,0.013523,0.002678,0.000431,1.825448
9074000,0.0324,0.013523,0.002678,0.000431,1.803587
9075000,0.0324,0.013523,0.002678,0.000431,2.121619
9076000,0.0324,0.013523,0.002678,0.000431,1.826153
9077000,0.0324,0.013523,0.002678,0.000431,1.738594
9078000,0.0324,0.013523,0.002678,0.000431,1.803235
9079000,0.0324,0.013523,0.002678,0.000431,2.126672
9080000,0.0324,0.013523,0.002678,0.000431,1.967422
9081000,0.0324,0.013523,0.002678,0.000431,1.805115
9082000,0.0324,0.013523,0.002678,0.000431,1.923466
9083000,0.0324,0.013523,0.002678,0.000431,1.981878
9084000,0.0324,0.013523,0.002678,0.000431,1.774676
9085000,0.0324,0.013523,0.002678,0.000431,2.004091
9086000,0.0324,0.013523,0.002678,0.000431,1.851186
9087000,0.0324,0.013523,0.002678,0.000431,1.701808
9088000,0.0324,0.013523,0.002678,0.000431,2.013728
9089000,0.0324,0.013523,0.002678,0.000431,1.761395
9090000,0.0324,0.013523,0.002678,0.000431,1.732130
9091000,0.0324,0.013523,0.002678,0.000431,1.827916
9092000,0.0324,0.013523,0.002678,0.000431,1.804058
9093000,0.0324,0.013523,0.002678,0.000431,1.878100
9094000,0.0324,0.013523,0.002678,0.000431,1.848013
9095000,0.0324,0.013523,0.002678,0.000431,1.757869
9096000,0.0324,0.013523,0.002678,0.000431,1.880451
9097000,0.0324,0.013523,0.002678,0.000431,1.785136
9098000,0.0324,0.013523,0.002678,0.000431,1.938862
9099000,0.0324,0.013523,0.002678,0.000431,1.930518
9100000,0.0324,0.013523,0.002678,0.000431,1.889853
9101000,0.0324,0.013523,0.002678,0.000431,1.825565
9102000,0.0324,0.013523,0.002678,0.000431,1.744471
9103000,0.0324,0.013523,0.002678,0.000431,1.649626
9104000,0.0324,0.013523,0.002678,0.000431,1.795596
9105000,0.0324,0.013523,0.002678,0.000431,1.910186
9106000,0.0324,0.013523,0.002678,0.000431,1.861411
9107000,0.0324,0.013523,0.002678,0.000431,1.881979
9108000,0.0324,0.013523,0.002678,0.000431,1.755636
9109000,0.0324,0.013523,0.002678,0.000431,1.906425
9110000,0.0324,0.013523,0.002678,0.000431,1.741768
9111000,0.0324,0.013523,0.002678,0.000431,1.911831
9112000,0.0324,0.013523,0.002678,0.000431,2.008792
9113000,0.0324,0.013523,0.002678,0.000431,1.758339
9114000,0.0324,0.013523,0.002678,0.000431,1.921938
9115000,0.0324,0.013523,0.002678,0.000431,1.657500
9116000,0.0324,0.013523,0.002678,0.000431,1.846133
9117000,0.0324,0.013523,0.002678,0.000431,1.575583
9118000,0.0324,0.013523,0.002678,0.000431,1.734716
9119000,0.0324,0.013523,0.002678,0.000431,1.817808
9120000,0.0324,0.013523,0.002678,0.000431,1.869286
9121000,0.0324,0.013523,0.002678,0.000431,1.869521
9122000,0.0324,0.013523,0.002678,0.000431,1.920411
9123000,0.0324,0.013523,0.002678,0.000431,1.874104
9124000,0.0324,0.013523,0.002678,0.000431,1.832734
9125000,0.0324,0.013523,0.002678,0.000431,1.911126
9126000,0.0324,0.013523,0.002678,0.000431,1.725666
9127000,0.0324,0.013523,0.002678,0.000431,1.816751
9128000,0.0324,0.013523,0.002678,0.000431,1.721318
9129000,0.0324,0.013523,0.002678,0.000431,1.909128
9130000,0.0324,0.013523,0.002678,0.000431,1.832264
9131000,0.0324,0.013523,0.002678,0.000431,1.771385
9132000,0.0324,0.013523,0.002678,0.000431,1.708977
9133000,0.0324,0.013523,0.002678,0.000431,1.661848
9134000,0.0324,0.013523,0.002678,0.000431,1.897022
9135000,0.0324,0.013523,0.002678,0.000431,1.691348
9136000,0.0324,0.013523,0.002678,0.000431,1.827681
9137000,0.0324,0.013523,0.002678,0.000431,1.751640
9138000,0.0324,0.013523,0.002678,0.000431,1.864820
9139000,0.0324,0.013523,0.002678,0.000431,1.700280
9140000,0.0324,0.013523,0.002678,0.000431,1.706274
9141000,0.0324,0.013523,0.002678,0.000431,1.693229
9142000,0.0324,0.013523,0.002678,0.000431,1.583457
9143000,0.0324,0.013523,0.002678,0.000431,1.694169
9144000,0.0324,0.013523,0.002678,0.000431,1.601439
9145000,0.0324,0.013523,0.002678,0.000431,1.685002
9146000,0.0324,0.013523,0.002678,0.000431,1.591802
9147000,0.0324,0.013523,0.002678,0.000431,1.817573
9148000,0.0324,0.013523,0.002678,0.000431,1.676540
9149000,0.0324,0.013523,0.002678,0.000431,1.863057
9150000,0.0324,0.013523,0.002678,0.000431,1.706157
9151000,0.0324,0.013523,0.002678,0.000431,1.586983
9152000,0.0324,0.013523,0.002678,0.000431,1.636815
9153000,0.0324,0.013523,0.002678,0.000431,1.616953
9154000,0.0324,0.013523,0.002678,0.000431,1.733423
9155000,0.0324,0.013523,0.002678,0.000431,1.780787
9156000,0.0324,0.013523,0.002678,0.000431,1.812167
9157000,0.0324,0.013523,0.002678,0.000431,1.840844
9158000,0.0324,0.013523,0.002678,0.000431,1.800532
9159000,0.0324,0.013523,0.002678,0.000431,1.687470
9160000,0.0324,0.013523,0.002678,0.000431,1.824155
9161000,0.0324,0.013523,0.002678,0.000431,1.777731
9162000,0.0324,0.013523,0.002678,0.000431,1.720378
9163000,0.0324,0.013523,0.002678,0.000431,1.718967
9164000,0.0324,0.013523,0.002678,0.000431,1.679830
9165000,0.0324,0.013523,0.002678,0.000431,1.770680
9166000,0.0324,0.013523,0.002678,0.000431,1.755048
9167000,0.0324,0.013523,0.002678,0.000431,1.634935
9168000,0.0324,0.013523,0.002678,0.000431,1.694286
9169000,0.0324,0.013523,0.002678,0.000431,1.624357
9170000,0.0324,0.013523,0.002678,0.000431,1.600734
9171000,0.0324,0.013523,0.002678,0.000431,1.706627
9172000,0.0324,0.013523,0.002678,0.000431,1.694639
9173000,0.0324,0.013523,0.002678,0.000431,1.584985
9174000,0.0324,0.013523,0.002678,0.000431,1.594622
9175000,0.0324,0.013523,0.002678,0.000431,1.638460
9176000,0.0324,0.013523,0.002678,0.000431,1.535271
9177000,0.0324,0.013523,0.002678,0.000431,1.903721
9178000,0.0324,0.013523,0.002678,0.000431,1.643162
9179000,0.0324,0.013523,0.002678,0.000431,1.594505
9180000,0.0324,0.013523,0.002678,0.000431,1.628000
9181000,0.0324,0.013523,0.002678,0.000431,1.585690
9182000,0.0324,0.013523,0.002678,0.000431,1.681476
9183000,0.0324,0.013523,0.002678,0.000431,1.553252
9184000,0.0324,0.013523,0.002678,0.000431,1.705451
9185000,0.0324,0.013523,0.002678,0.000431,1.619773
9186000,0.0324,0.013523,0.002678,0.000431,1.681241
9187000,0.0324,0.013523,0.002678,0.000431,1.962838
9188000,0.0324,0.013523,0.002678,0.000431,1.805350
9189000,0.0324,0.013523,0.002678,0.000431,1.774088
9190000,0.0324,0.013523,0.002678,0.000431,1.808876
9191000,0.0324,0.013523,0.002678,0.000431,1.958960
9192000,0.0324,0.013523,0.002678,0.000431,2.021250
9193000,0.0324,0.013523,0.002678,0.000431,1.936159
9194000,0.0324,0.013523,0.002678,0.000431,1.869521
9195000,0.0324,0.013523,0.002678,0.000431,1.923114
9196000,0.0324,0.013523,0.002678,0.000431,1.945914
9197000,0.0324,0.013523,0.002678,0.000431,2.027596
9198000,0.0324,0.013523,0.002678,0.000431,1.904662
9199000,0.0324,0.013523,0.002678,0.000431,2.073315
9200000,0.0324,0.013523,0.002678,0.000431,2.133137
9201000,0.0324,0.013523,0.002678,0.000431,2.098818
9202000,0.0324,0.013523,0.002678,0.000431,2.093294
9203000,0.0324,0.013523,0.002678,0.000431,1.887503
9204000,0.0324,0.013523,0.002678,0.000431,2.022425
9205000,0.0324,0.013523,0.002678,0.000431,2.107280
9206000,0.0324,0.013523,0.002678,0.000431,2.136427
9207000,0.0324,0.013523,0.002678,0.000431,2.045460
9208000,0.0324,0.013523,0.002678,0.000431,1.846720
9209000,0.0324,0.013523,0.002678,0.000431,2.043227
9210000,0.0324,0.013523,0.002678,0.000431,2.018547
9211000,0.0324,0.013523,0.002678,0.000431,2.097878
9212000,0.0324,0.013523,0.002678,0.000431,1.881744
9213000,0.0324,0.013523,0.002678,0.000431,1.842842
9214000,0.0324,0.013523,0.002678,0.000431,1.949322
9215000,0.0324,0.013523,0.002678,0.000431,1.763158
9216000,0.0324,0.013523,0.002678,0.000431,1.921586
9217000,0.0324,0.013523,0.002678,0.000431,1.964013
9218000,0.0324,0.013523,0.002678,0.000431,1.727664
9219000,0.0324,0.013523,0.002678,0.000431,1.980820
9220000,0.0324,0.013523,0.002678,0.000431,2.147357
9221000,0.0324,0.013523,0.002678,0.000431,1.830854
9222000,0.0324,0.013523,0.002678,0.000431,1.974356
9223000,0.0324,0.013523,0.002678,0.000431,1.849071
9224000,0.0324,0.013523,0.002678,0.000431,1.946032
9225000,0.0324,0.013523,0.002678,0.000431,1.970713
9226000,0.0324,0.013523,0.002678,0.000431,2.184614
9227000,0.0324,0.013523,0.002678,0.000431,1.998802
9228000,0.0324,0.013523,0.002678,0.000431,1.997274
9229000,0.0324,0.013523,0.002678,0.000431,2.097055
9230000,0.0324,0.013523,0.002678,0.000431,1.934044
9231000,0.0324,0.013523,0.002678,0.000431,1.966011
9232000,0.0324,0.013523,0.002678,0.000431,2.105635
9233000,0.0324,0.013523,0.002678,0.000431,1.881391
9234000,0.0324,0.013523,0.002678,0.000431,1.736949
9235000,0.0324,0.013523,0.002678,0.000431,1.758222
9236000,0.0324,0.013523,0.002678,0.000431,1.969302
9237000,0.0324,0.013523,0.002678,0.000431,2.003620
9238000,0.0324,0.013523,0.002678,0.000431,1.906895
9239000,0.0324,0.013523,0.002678,0.000431,1.816986
9240000,0.0324,0.013523,0.002678,0.000431,1.868228
9241000,0.0324,0.013523,0.002678,0.000431,2.019722
9242000,0.0324,0.013523,0.002678,0.000431,1.876808
9243000,0.0324,0.013523,0.002678,0.000431,1.734951
9244000,0.0324,0.013523,0.002678,0.000431,1.819101
9245000,0.0324,0.013523,0.002678,0.000431,1.896200
9246000,0.0324,0.013523,0.002678,0.000431,1.685237
9247000,0.0324,0.013523,0.002678,0.000431,1.794890
9248000,0.0324,0.013523,0.002678,0.000431,1.575113
9249000,0.0324,0.013523,0.002678,0.000431,1.625062
9250000,0.0324,0.013523,0.002678,0.000431,1.858591
9251000,0.0324,0.013523,0.002678,0.000431,1.738124
9252000,0.0324,0.013523,0.002678,0.000431,1.649038
9253000,0.0324,0.013523,0.002678,0.000431,1.628118
9254000,0.0324,0.013523,0.002678,0.000431,1.663846
9255000,0.0324,0.013523,0.002678,0.000431,1.611781
9256000,0.0324,0.013523,0.002678,0.000431,1.616483
9257000,0.0324,0.013523,0.002678,0.000431,1.649273
9258000,0.0324,0.013523,0.002678,0.000431,1.515526
9259000,0.0324,0.013523,0.002678,0.000431,1.529512
9260000,0.0324,0.013523,0.002678,0.000431,1.328656
9261000,0.0324,0.013523,0.002678,0.000431,1.720260
9262000,0.0324,0.013523,0.002678,0.000431,1.604260
9263000,0.0324,0.013523,0.002678,0.000431,1.426204
9264000,0.0324,0.013523,0.002678,0.000431,1.535858
9265000,0.0324,0.013523,0.002678,0.000431,1.536328
9266000,0.0324,0.013523,0.002678,0.000431,1.575700
9267000,0.0324,0.013523,0.002678,0.000431,1.551254
9268000,0.0324,0.013523,0.002678,0.000431,1.547259
9269000,0.0324,0.013523,0.002678,0.000431,1.610959
9270000,0.0324,0.013523,0.002678,0.000431,1.486026
9271000,0.0324,0.013523,0.002678,0.000431,1.349576
9272000,0.0324,0.013523,0.002678,0.000431,1.532920
9273000,0.0324,0.013523,0.002678,0.000431,1.472040
9274000,0.0324,0.013523,0.002678,0.000431,1.293633
9275000,0.0324,0.013523,0.002678,0.000431,1.300332
9276000,0.0324,0.013523,0.002678,0.000431,1.407400
9277000,0.0324,0.013523,0.002678,0.000431,1.271302
9278000,0.0324,0.013523,0.002678,0.000431,1.274123
9279000,0.0324,0.013523,0.002678,0.000431,1.346755
9280000,0.0324,0.013523,0.002678,0.000431,1.401524
9281000,0.0324,0.013523,0.002678,0.000431,1.470630
9282000,0.0324,0.013523,0.002678,0.000431,1.423031
9283000,0.0324,0.013523,0.002678,0.000431,1.430200
9284000,0.0324,0.013523,0.002678,0.000431,1.344170
9285000,0.0324,0.013523,0.002678,0.000431,1.263193
9286000,0.0324,0.013523,0.002678,0.000431,1.249325
9287000,0.0324,0.013523,0.002678,0.000431,1.449240
9288000,0.0324,0.013523,0.002678,0.000431,1.347108
9289000,0.0324,0.013523,0.002678,0.000431,1.222646
9290000,0.0324,0.013523,0.002678,0.000431,1.094422
9291000,0.0324,0.013523,0.002678,0.000431,1.372729
9292000,0.0324,0.013523,0.002678,0.000431,1.185977
9293000,0.0324,0.013523,0.002678,0.000431,1.104530
9294000,0.0324,0.013523,0.002678,0.000431,1.234398
9295000,0.0324,0.013523,0.002678,0.000431,1.179865
9296000,0.0324,0.013523,0.002678,0.000431,1.386010
9297000,0.0324,0.013523,0.002678,0.000431,1.209247
9298000,0.0324,0.013523,0.002678,0.000431,1.155420
9299000,0.0324,0.013523,0.002678,0.000431,1.186212
9300000,0.0324,0.013523,0.002678,0.000431,1.042945
9301000,0.0324,0.013523,0.002678,0.000431,1.168700
9302000,0.0324,0.013523,0.002678,0.000431,1.218062
9303000,0.0324,0.013523,0.002678,0.000431,1.257199
9304000,0.0324,0.013523,0.002678,0.000431,1.204781
9305000,0.0324,0.013523,0.002678,0.000431,1.239100
9306000,0.0324,0.013523,0.002678,0.000431,1.148603
9307000,0.0324,0.013523,0.002678,0.000431,1.139318
9308000,0.0324,0.013523,0.002678,0.000431,1.167407
9309000,0.0324,0.013523,0.002678,0.000431,1.259785
9310000,0.0324,0.013523,0.002678,0.000431,1.178690
9311000,0.0324,0.013523,0.002678,0.000431,1.252615
9312000,0.0324,0.013523,0.002678,0.000431,1.357098
9313000,0.0324,0.013523,0.002678,0.000431,1.292928
9314000,0.0324,0.013523,0.002678,0.000431,1.277649
9315000,0.0324,0.013523,0.002678,0.000431,1.248384
9316000,0.0324,0.013523,0.002678,0.000431,1.245094
9317000,0.0324,0.013523,0.002678,0.000431,1.368616
9318000,0.0324,0.013523,0.002678,0.000431,1.318196
9319000,0.0324,0.013523,0.002678,0.000431,1.411631
9320000,0.0324,0.013523,0.002678,0.000431,1.444304
9321000,0.0324,0.013523,0.002678,0.000431,1.282115
9322000,0.0324,0.013523,0.002678,0.000431,1.196672
9323000,0.0324,0.013523,0.002678,0.000431,1.328304
9324000,0.0324,0.013523,0.002678,0.000431,1.301742
9325000,0.0324,0.013523,0.002678,0.000431,1.315023
9326000,0.0324,0.013523,0.002678,0.000431,1.147310
9327000,0.0324,0.013523,0.002678,0.000431,1.318079
9328000,0.0324,0.013523,0.002678,0.000431,1.250500
9329000,0.0324,0.013523,0.002678,0.000431,1.238865
9330000,0.0324,0.013523,0.002678,0.000431,1.163529
9331000,0.0324,0.013523,0.002678,0.000431,1.163999
9332000,0.0324,0.013523,0.002678,0.000431,1.213243
9333000,0.0324,0.013523,0.002678,0.000431,1.286346
9334000,0.0324,0.013523,0.002678,0.000431,1.236632
9335000,0.0324,0.013523,0.002678,0.000431,1.330184
9336000,0.0324,0.013523,0.002678,0.000431,1.258609
9337000,0.0324,0.013523,0.002678,0.000431,1.055873
9338000,0.0324,0.013523,0.002678,0.000431,1.094775
9339000,0.0324,0.013523,0.002678,0.000431,1.234516
9340000,0.0324,0.013523,0.002678,0.000431,1.250147
9341000,0.0324,0.013523,0.002678,0.000431,1.164234
9342000,0.0324,0.013523,0.002678,0.000431,1.379076
9343000,0.0324,0.013523,0.002678,0.000431,1.260372
9344000,0.0324,0.013523,0.002678,0.000431,1.253791
9345000,0.0324,0.013523,0.002678,0.000431,1.237219
9346000,0.0324,0.013523,0.002678,0.000431,1.160238
9347000,0.0324,0.013523,0.002678,0.000431,1.324660
9348000,0.0324,0.013523,0.002678,0.000431,1.289989
9349000,0.0324,0.013523,0.002678,0.000431,1.274241
9350000,0.0324,0.013523,0.002678,0.000431,1.312085
9351000,0.0324,0.013523,0.002678,0.000431,1.337706
9352000,0.0324,0.013523,0.002678,0.000431,1.182098
9353000,0.0324,0.013523,0.002678,0.000431,1.144842
9354000,0.0324,0.013523,0.002678,0.000431,1.287639
9355000,0.0324,0.013523,0.002678,0.000431,1.265191
9356000,0.0324,0.013523,0.002678,0.000431,1.267189
9357000,0.0324,0.013523,0.002678,0.000431,1.224526
9358000,0.0324,0.013523,0.002678,0.000431,1.072445
9359000,0.0324,0.013523,0.002678,0.000431,1.103590
9360000,0.0324,0.013523,0.002678,0.000431,1.173636
9361000,0.0324,0.013523,0.002678,0.000431,1.250147
9362000,0.0324,0.013523,0.002678,0.000431,1.199610
9363000,0.0324,0.013523,0.002678,0.000431,1.204076
9364000,0.0324,0.013523,0.002678,0.000431,1.207014
9365000,0.0324,0.013523,0.002678,0.000431,1.154009
9366000,0.0324,0.013523,0.002678,0.000431,1.253085
9367000,0.0324,0.013523,0.002678,0.000431,1.130856
9368000,0.0324,0.013523,0.002678,0.000431,1.257434
9369000,0.0324,0.013523,0.002678,0.000431,1.291635
9370000,0.0324,0.013523,0.002678,0.000431,1.308089
9371000,0.0324,0.013523,0.002678,0.000431,1.169758
9372000,0.0324,0.013523,0.002678,0.000431,1.136262
9373000,0.0324,0.013523,0.002678,0.000431,1.134147
9374000,0.0324,0.013523,0.002678,0.000431,1.118633
9375000,0.0324,0.013523,0.002678,0.000431,1.128035
9376000,0.0324,0.013523,0.002678,0.000431,1.280352
9377000,0.0324,0.013523,0.002678,0.000431,1.359801
9378000,0.0324,0.013523,0.002678,0.000431,1.297864
9379000,0.0324,0.013523,0.002678,0.000431,1.321604
9380000,0.0324,0.013523,0.002678,0.000431,1.251323
9381000,0.0324,0.013523,0.002678,0.000431,1.359096
9382000,0.0324,0.013523,0.002678,0.000431,1.260372
9383000,0.0324,0.013523,0.002678,0.000431,1.149426
9384000,0.0324,0.013523,0.002678,0.000431,1.115460
9385000,0.0324,0.013523,0.002678,0.000431,1.223703
9386000,0.0324,0.013523,0.002678,0.000431,1.297746
9387000,0.0324,0.013523,0.002678,0.000431,1.281527
9388000,0.0324,0.013523,0.002678,0.000431,1.270832
9389000,0.0324,0.013523,0.002678,0.000431,1.121689
9390000,0.0324,0.013523,0.002678,0.000431,1.179043
9391000,0.0324,0.013523,0.002678,0.000431,1.139671
9392000,0.0324,0.013523,0.002678,0.000431,1.237689
9393000,0.0324,0.013523,0.002678,0.000431,1.116400
9394000,0.0324,0.013523,0.002678,0.000431,1.177515
9395000,0.0324,0.013523,0.002678,0.000431,1.276474
9396000,0.0324,0.013523,0.002678,0.000431,1.237454
9397000,0.0324,0.013523,0.002678,0.000431,1.129211
9398000,0.0324,0.013523,0.002678,0.000431,1.155890
9399000,0.0324,0.013523,0.002678,0.000431,1.219472
9400000,0.0324,0.013523,0.002678,0.000431,1.135910
9401000,0.0324,0.013523,0.002678,0.000431,1.151894
9402000,0.0324,0.013523,0.002678,0.000431,1.296453
9403000,0.0324,0.013523,0.002678,0.000431,1.107821
9404000,0.0324,0.013523,0.002678,0.000431,1.233576
9405000,0.0324,0.013523,0.002678,0.000431,1.331007
9406000,0.0324,0.013523,0.002678,0.000431,1.272478
9407000,0.0324,0.013523,0.002678,0.000431,1.192676
9408000,0.0324,0.013523,0.002678,0.000431,1.322545
9409000,0.0324,0.013523,0.002678,0.000431,1.226994
9410000,0.0324,0.013523,0.002678,0.000431,1.246856
9411000,0.0324,0.013523,0.002678,0.000431,1.238042
9412000,0.0324,0.013523,0.002678,0.000431,1.393179
9413000,0.0324,0.013523,0.002678,0.000431,1.293750
9414000,0.0324,0.013523,0.002678,0.000431,1.297276
9415000,0.0324,0.013523,0.002678,0.000431,1.347578
9416000,0.0324,0.013523,0.002678,0.000431,1.249325
9417000,0.0324,0.013523,0.002678,0.000431,1.148368
9418000,0.0324,0.013523,0.002678,0.000431,1.231225
9419000,0.0324,0.013523,0.002678,0.000431,1.251205
9420000,0.0324,0.013523,0.002678,0.000431,1.296571
9421000,0.0324,0.013523,0.002678,0.000431,1.168230
9422000,0.0324,0.013523,0.002678,0.000431,1.134852
9423000,0.0324,0.013523,0.002678,0.000431,1.407047
9424000,0.0324,0.013523,0.002678,0.000431,1.292457
9425000,0.0324,0.013523,0.002678,0.000431,1.205839
9426000,0.0324,0.013523,0.002678,0.000431,1.344522
9427000,0.0324,0.013523,0.002678,0.000431,1.409280
9428000,0.0324,0.013523,0.002678,0.000431,1.409868
9429000,0.0324,0.013523,0.002678,0.000431,1.321722
9430000,0.0324,0.013523,0.002678,0.000431,1.445009
9431000,0.0324,0.013523,0.002678,0.000431,1.374022
9432000,0.0324,0.013523,0.002678,0.000431,1.198787
9433000,0.0324,0.013523,0.002678,0.000431,1.303270
9434000,0.0324,0.013523,0.002678,0.000431,1.349694
9435000,0.0324,0.013523,0.002678,0.000431,1.402346
9436000,0.0324,0.013523,0.002678,0.000431,1.310557
9437000,0.0324,0.013523,0.002678,0.000431,1.351339
9438000,0.0324,0.013523,0.002678,0.000431,1.347813
9439000,0.0324,0.013523,0.002678,0.000431,1.320547
9440000,0.0324,0.013523,0.002678,0.000431,1.390946
9441000,0.0324,0.013523,0.002678,0.000431,1.400113
9442000,0.0324,0.013523,0.002678,0.000431,1.471688
9443000,0.0324,0.013523,0.002678,0.000431,1.353925
9444000,0.0324,0.013523,0.002678,0.000431,1.462638
9445000,0.0324,0.013523,0.002678,0.000431,1.340174
9446000,0.0324,0.013523,0.002678,0.000431,1.416920
9447000,0.0324,0.013523,0.002678,0.000431,1.417978
9448000,0.0324,0.013523,0.002678,0.000431,1.480385
9449000,0.0324,0.013523,0.002678,0.000431,1.509532
9450000,0.0324,0.013523,0.002678,0.000431,1.515996
9451000,0.0324,0.013523,0.002678,0.000431,1.533978
9452000,0.0324,0.013523,0.002678,0.000431,1.587101
9453000,0.0324,0.013523,0.002678,0.000431,1.656677
9454000,0.0324,0.013523,0.002678,0.000431,1.617775
9455000,0.0324,0.013523,0.002678,0.000431,1.558424
9456000,0.0324,0.013523,0.002678,0.000431,1.481913
9457000,0.0324,0.013523,0.002678,0.000431,1.360859
9458000,0.0324,0.013523,0.002678,0.000431,1.306796
9459000,0.0324,0.013523,0.002678,0.000431,1.454529
9460000,0.0324,0.013523,0.002678,0.000431,1.611076
9461000,0.0324,0.013523,0.002678,0.000431,1.621889
9462000,0.0324,0.013523,0.002678,0.000431,1.698987
9463000,0.0324,0.013523,0.002678,0.000431,1.722493
9464000,0.0324,0.013523,0.002678,0.000431,1.800414
9465000,0.0324,0.013523,0.002678,0.000431,1.811462
9466000,0.0324,0.013523,0.002678,0.000431,1.835790
9467000,0.0324,0.013523,0.002678,0.000431,1.861881
9468000,0.0324,0.013523,0.002678,0.000431,1.760220
9469000,0.0324,0.013523,0.002678,0.000431,1.856828
9470000,0.0324,0.013523,0.002678,0.000431,1.900548
9471000,0.0324,0.013523,0.002678,0.000431,1.839904
9472000,0.0324,0.013523,0.002678,0.000431,1.976354
9473000,0.0324,0.013523,0.002678,0.000431,1.899020
9474000,0.0324,0.013523,0.002678,0.000431,1.874927
9475000,0.0324,0.013523,0.002678,0.000431,1.930165
9476000,0.0324,0.013523,0.002678,0.000431,1.885505
9477000,0.0324,0.013523,0.002678,0.000431,1.852597
9478000,0.0324,0.013523,0.002678,0.000431,1.999389
9479000,0.0324,0.013523,0.002678,0.000431,1.842019
9480000,0.0324,0.013523,0.002678,0.000431,1.847896
9481000,0.0324,0.013523,0.002678,0.000431,1.897022
9482000,0.0324,0.013523,0.002678,0.000431,1.773500
9483000,0.0324,0.013523,0.002678,0.000431,1.942036
9484000,0.0324,0.013523,0.002678,0.000431,2.040877
9485000,0.0324,0.013523,0.002678,0.000431,1.832264
9486000,0.0324,0.013523,0.002678,0.000431,1.928520
9487000,0.0324,0.013523,0.002678,0.000431,1.969772
9488000,0.0324,0.013523,0.002678,0.000431,2.082364
9489000,0.0324,0.013523,0.002678,0.000431,1.894202
9490000,0.0324,0.013523,0.002678,0.000431,1.976001
9491000,0.0324,0.013523,0.002678,0.000431,1.791365
9492000,0.0324,0.013523,0.002678,0.000431,1.910068
9493000,0.0324,0.013523,0.002678,0.000431,1.795948
9494000,0.0324,0.013523,0.002678,0.000431,1.890441
9495000,0.0324,0.013523,0.002678,0.000431,1.827563
9496000,0.0324,0.013523,0.002678,0.000431,1.915592
9497000,0.0324,0.013523,0.002678,0.000431,1.892086
9498000,0.0324,0.013523,0.002678,0.000431,1.764568
9499000,0.0324,0.013523,0.002678,0.000431,1.903134
9500000,0.0324,0.013523,0.002678,0.000431,1.824508
9501000,0.0324,0.013523,0.002678,0.000431,1.752110
9502000,0.0324,0.013523,0.002678,0.000431,1.863879
9503000,0.0324,0.013523,0.002678,0.000431,1.810639
9504000,0.0324,0.013523,0.002678,0.000431,1.721083
9505000,0.0324,0.013523,0.002678,0.000431,1.773030
9506000,0.0324,0.013523,0.002678,0.000431,1.796771
9507000,0.0324,0.013523,0.002678,0.000431,1.791129
9508000,0.0324,0.013523,0.002678,0.000431,1.712033
9509000,0.0324,0.013523,0.002678,0.000431,1.733541
9510000,0.0324,0.013523,0.002678,0.000431,1.582987
9511000,0.0324,0.013523,0.002678,0.000431,1.681241
9512000,0.0324,0.013523,0.002678,0.000431,1.644689
9513000,0.0324,0.013523,0.002678,0.000431,1.629528
9514000,0.0324,0.013523,0.002678,0.000431,1.523753
9515000,0.0324,0.013523,0.002678,0.000431,1.427732
9516000,0.0324,0.013523,0.002678,0.000431,1.441248
9517000,0.0324,0.013523,0.002678,0.000431,1.424207
9518000,0.0324,0.013523,0.002678,0.000431,1.467339
9519000,0.0324,0.013523,0.002678,0.000431,1.537504
9520000,0.0324,0.013523,0.002678,0.000431,1.487319
9521000,0.0324,0.013523,0.002678,0.000431,1.446184
9522000,0.0324,0.013523,0.002678,0.000431,1.487084
9523000,0.0324,0.013523,0.002678,0.000431,1.432198
9524000,0.0324,0.013523,0.002678,0.000431,1.568766
9525000,0.0324,0.013523,0.002678,0.000431,1.595563
9526000,0.0324,0.013523,0.002678,0.000431,1.574525
9527000,0.0324,0.013523,0.002678,0.000431,1.664552
9528000,0.0324,0.013523,0.002678,0.000431,1.646100
9529000,0.0324,0.013523,0.002678,0.000431,1.664317
9530000,0.0324,0.013523,0.002678,0.000431,1.733541
9531000,0.0324,0.013523,0.002678,0.000431,1.711093
9532000,0.0324,0.013523,0.002678,0.000431,1.686764
9533000,0.0324,0.013523,0.002678,0.000431,1.840139
9534000,0.0324,0.013523,0.002678,0.000431,1.792422
9535000,0.0324,0.013523,0.002678,0.000431,1.987049
9536000,0.0324,0.013523,0.002678,0.000431,1.930635
9537000,0.0324,0.013523,0.002678,0.000431,1.842254
9538000,0.0324,0.013523,0.002678,0.000431,1.829796
9539000,0.0324,0.013523,0.002678,0.000431,1.833440
9540000,0.0324,0.013523,0.002678,0.000431,1.940860
9541000,0.0324,0.013523,0.002678,0.000431,1.725549
9542000,0.0324,0.013523,0.002678,0.000431,1.888208
9543000,0.0324,0.013523,0.002678,0.000431,1.836260
9544000,0.0324,0.013523,0.002678,0.000431,1.912771
9545000,0.0324,0.013523,0.002678,0.000431,1.813460
9546000,0.0324,0.013523,0.002678,0.000431,1.692406
9547000,0.0324,0.013523,0.002678,0.000431,1.698635
9548000,0.0324,0.013523,0.002678,0.000431,1.640928
9549000,0.0324,0.013523,0.002678,0.000431,1.682298
9550000,0.0324,0.013523,0.002678,0.000431,1.811697
9551000,0.0324,0.013523,0.002678,0.000431,1.728605
9552000,0.0324,0.013523,0.002678,0.000431,1.821334
9553000,0.0324,0.013523,0.002678,0.000431,1.866465
9554000,0.0324,0.013523,0.002678,0.000431,1.752345
9555000,0.0324,0.013523,0.002678,0.000431,1.775263
9556000,0.0324,0.013523,0.002678,0.000431,1.824037
9557000,0.0324,0.013523,0.002678,0.000431,1.833205
9558000,0.0324,0.013523,0.002678,0.000431,1.770680
9559000,0.0324,0.013523,0.002678,0.000431,2.020662
9560000,0.0324,0.013523,0.002678,0.000431,1.807819
9561000,0.0324,0.013523,0.002678,0.000431,1.922526
9562000,0.0324,0.013523,0.002678,0.000431,1.999389
9563000,0.0324,0.013523,0.002678,0.000431,1.959782
9564000,0.0324,0.013523,0.002678,0.000431,1.900666
9565000,0.0324,0.013523,0.002678,0.000431,2.077898
9566000,0.0324,0.013523,0.002678,0.000431,2.063325
9567000,0.0324,0.013523,0.002678,0.000431,1.907247
9568000,0.0324,0.013523,0.002678,0.000431,2.044520
9569000,0.0324,0.013523,0.002678,0.000431,2.108103
9570000,0.0324,0.013523,0.002678,0.000431,1.851186
9571000,0.0324,0.013523,0.002678,0.000431,1.850246
9572000,0.0324,0.013523,0.002678,0.000431,2.036176
9573000,0.0324,0.013523,0.002678,0.000431,1.929578
9574000,0.0324,0.013523,0.002678,0.000431,2.101992
9575000,0.0324,0.013523,0.002678,0.000431,2.054980
9576000,0.0324,0.013523,0.002678,0.000431,1.936277
9577000,0.0324,0.013523,0.002678,0.000431,1.942741
9578000,0.0324,0.013523,0.002678,0.000431,2.036998
9579000,0.0324,0.013523,0.002678,0.000431,1.981760
9580000,0.0324,0.013523,0.002678,0.000431,1.947324
9581000,0.0324,0.013523,0.002678,0.000431,1.973651
9582000,0.0324,0.013523,0.002678,0.000431,2.136545
9583000,0.0324,0.013523,0.002678,0.000431,1.977999
9584000,0.0324,0.013523,0.002678,0.000431,2.132549
9585000,0.0324,0.013523,0.002678,0.000431,2.190255
9586000,0.0324,0.013523,0.002678,0.000431,2.075548
9587000,0.0324,0.013523,0.002678,0.000431,2.092119
9588000,0.0324,0.013523,0.002678,0.000431,1.806761
9589000,0.0324,0.013523,0.002678,0.000431,1.815928
9590000,0.0324,0.013523,0.002678,0.000431,1.901136
9591000,0.0324,0.013523,0.002678,0.000431,2.076370
9592000,0.0324,0.013523,0.002678,0.000431,1.920998
9593000,0.0324,0.013523,0.002678,0.000431,1.911243
9594000,0.0324,0.013523,0.002678,0.000431,1.940273
9595000,0.0324,0.013523,0.002678,0.000431,1.957549
9596000,0.0324,0.013523,0.002678,0.000431,1.852832
9597000,0.0324,0.013523,0.002678,0.000431,2.064970
9598000,0.0324,0.013523,0.002678,0.000431,1.765743
9599000,0.0324,0.013523,0.002678,0.000431,1.980585
9600000,0.0324,0.013523,0.002678,0.000431,1.909833
9601000,0.0324,0.013523,0.002678,0.000431,1.895142
9602000,0.0324,0.013523,0.002678,0.000431,1.829679
9603000,0.0324,0.013523,0.002678,0.000431,1.855417
9604000,0.0324,0.013523,0.002678,0.000431,1.858356
9605000,0.0324,0.013523,0.002678,0.000431,1.856710
9606000,0.0324,0.013523,0.002678,0.000431,1.890206
9607000,0.0324,0.013523,0.002678,0.000431,1.842019
9608000,0.0324,0.013523,0.002678,0.000431,1.777144
9609000,0.0324,0.013523,0.002678,0.000431,1.694051
9610000,0.0324,0.013523,0.002678,0.000431,1.718732
9611000,0.0324,0.013523,0.002678,0.000431,1.703453
9612000,0.0324,0.013523,0.002678,0.000431,1.888090
9613000,0.0324,0.013523,0.002678,0.000431,1.698047
9614000,0.0324,0.013523,0.002678,0.000431,1.620596
9615000,0.0324,0.013523,0.002678,0.000431,1.712033
9616000,0.0324,0.013523,0.002678,0.000431,1.736714
9617000,0.0324,0.013523,0.002678,0.000431,1.687470
9618000,0.0324,0.013523,0.002678,0.000431,1.775263
9619000,0.0324,0.013523,0.002678,0.000431,1.875280
9620000,0.0324,0.013523,0.002678,0.000431,1.861529
9621000,0.0324,0.013523,0.002678,0.000431,1.810757
9622000,0.0324,0.013523,0.002678,0.000431,1.904192
9623000,0.0324,0.013523,0.002678,0.000431,1.805938
9624000,0.0324,0.013523,0.002678,0.000431,1.880098
9625000,0.0324,0.013523,0.002678,0.000431,2.024658
9626000,0.0324,0.013523,0.002678,0.000431,1.872224
9627000,0.0324,0.013523,0.002678,0.000431,1.788426
9628000,0.0324,0.013523,0.002678,0.000431,1.834732
9629000,0.0324,0.013523,0.002678,0.000431,1.856593
9630000,0.0324,0.013523,0.002678,0.000431,1.812402
9631000,0.0324,0.013523,0.002678,0.000431,1.568766
9632000,0.0324,0.013523,0.002678,0.000431,1.802412
9633000,0.0324,0.013523,0.002678,0.000431,1.642691
9634000,0.0324,0.013523,0.002678,0.000431,1.707097
9635000,0.0324,0.013523,0.002678,0.000431,1.816868
9636000,0.0324,0.013523,0.002678,0.000431,1.895377
9637000,0.0324,0.013523,0.002678,0.000431,1.768917
9638000,0.0324,0.013523,0.002678,0.000431,1.654562
9639000,0.0324,0.013523,0.002678,0.000431,1.663494
9640000,0.0324,0.013523,0.002678,0.000431,1.593447
9641000,0.0324,0.013523,0.002678,0.000431,1.730367
9642000,0.0324,0.013523,0.002678,0.000431,1.661026
9643000,0.0324,0.013523,0.002678,0.000431,1.726254
9644000,0.0324,0.013523,0.002678,0.000431,1.878923
9645000,0.0324,0.013523,0.002678,0.000431,1.840726
9646000,0.0324,0.013523,0.002678,0.000431,1.796771
9647000,0.0324,0.013523,0.002678,0.000431,1.849423
9648000,0.0324,0.013523,0.002678,0.000431,1.884212
9649000,0.0324,0.013523,0.002678,0.000431,2.101404
9650000,0.0324,0.013523,0.002678,0.000431,1.843782
9651000,0.0324,0.013523,0.002678,0.000431,1.893732
9652000,0.0324,0.013523,0.002678,0.000431,1.792070
9653000,0.0324,0.013523,0.002678,0.000431,2.055920
9654000,0.0324,0.013523,0.002678,0.000431,1.895847
9655000,0.0324,0.013523,0.002678,0.000431,2.055803
9656000,0.0324,0.013523,0.002678,0.000431,2.088006
9657000,0.0324,0.013523,0.002678,0.000431,1.997391
9658000,0.0324,0.013523,0.002678,0.000431,2.023013
9659000,0.0324,0.013523,0.002678,0.000431,1.846485
9660000,0.0324,0.013523,0.002678,0.000431,1.825095
9661000,0.0324,0.013523,0.002678,0.000431,1.998802
9662000,0.0324,0.013523,0.002678,0.000431,1.914769
9663000,0.0324,0.013523,0.002678,0.000431,2.048399
9664000,0.0324,0.013523,0.002678,0.000431,2.027714
9665000,0.0324,0.013523,0.002678,0.000431,2.058036
9666000,0.0324,0.013523,0.002678,0.000431,1.991868
9667000,0.0324,0.013523,0.002678,0.000431,1.952378
9668000,0.0324,0.013523,0.002678,0.000431,1.905955
9669000,0.0324,0.013523,0.002678,0.000431,1.770445
9670000,0.0324,0.013523,0.002678,0.000431,1.840726
9671000,0.0324,0.013523,0.002678,0.000431,1.797946
9672000,0.0324,0.013523,0.002678,0.000431,1.723433
9673000,0.0324,0.013523,0.002678,0.000431,1.666197
9674000,0.0324,0.013523,0.002678,0.000431,1.718262
9675000,0.0324,0.013523,0.002678,0.000431,1.764098
9676000,0.0324,0.013523,0.002678,0.000431,1.798064
9677000,0.0324,0.013523,0.002678,0.000431,1.957432
9678000,0.0324,0.013523,0.002678,0.000431,1.723433
9679000,0.0324,0.013523,0.002678,0.000431,1.651976
9680000,0.0324,0.013523,0.002678,0.000431,1.625767
9681000,0.0324,0.013523,0.002678,0.000431,1.710270
9682000,0.0324,0.013523,0.002678,0.000431,1.715324
9683000,0.0324,0.013523,0.002678,0.000431,1.749877
9684000,0.0324,0.013523,0.002678,0.000431,1.855652
9685000,0.0324,0.013523,0.002678,0.000431,1.907835
9686000,0.0324,0.013523,0.002678,0.000431,1.767976
9687000,0.0324,0.013523,0.002678,0.000431,1.726489
9688000,0.0324,0.013523,0.002678,0.000431,1.932751
9689000,0.0324,0.013523,0.002678,0.000431,2.119738
9690000,0.0324,0.013523,0.002678,0.000431,2.025951
9691000,0.0324,0.013523,0.002678,0.000431,1.852597
9692000,0.0324,0.013523,0.002678,0.000431,1.822980
9693000,0.0324,0.013523,0.002678,0.000431,1.779964
9694000,0.0324,0.013523,0.002678,0.000431,2.227394
9695000,0.0324,0.013523,0.002678,0.000431,2.065793
9696000,0.0324,0.013523,0.002678,0.000431,1.839551
9697000,0.0324,0.013523,0.002678,0.000431,1.884682
9698000,0.0324,0.013523,0.002678,0.000431,2.037586
9699000,0.0324,0.013523,0.002678,0.000431,2.104812
9700000,0.0324,0.013523,0.002678,0.000431,2.026068
9701000,0.0324,0.013523,0.002678,0.000431,1.991045
9702000,0.0324,0.013523,0.002678,0.000431,1.990810
9703000,0.0324,0.013523,0.002678,0.000431,2.241262
9704000,0.0324,0.013523,0.002678,0.000431,1.918648
9705000,0.0324,0.013523,0.002678,0.000431,1.789837
9706000,0.0324,0.013523,0.002678,0.000431,1.629058
9707000,0.0324,0.013523,0.002678,0.000431,1.767506
9708000,0.0324,0.013523,0.002678,0.000431,2.007381
9709000,0.0324,0.013523,0.002678,0.000431,1.827798
9710000,0.0324,0.013523,0.002678,0.000431,1.842842
9711000,0.0324,0.013523,0.002678,0.000431,1.972005
9712000,0.0324,0.013523,0.002678,0.000431,1.947324
9713000,0.0324,0.013523,0.002678,0.000431,2.116565
9714000,0.0324,0.013523,0.002678,0.000431,1.852832
9715000,0.0324,0.013523,0.002678,0.000431,1.912536
9716000,0.0324,0.013523,0.002678,0.000431,1.709212
9717000,0.0324,0.013523,0.002678,0.000431,1.743296
9718000,0.0324,0.013523,0.002678,0.000431,1.975414
9719000,0.0324,0.013523,0.002678,0.000431,1.832734
9720000,0.0324,0.013523,0.002678,0.000431,1.906425
9721000,0.0324,0.013523,0.002678,0.000431,1.976001
9722000,0.0324,0.013523,0.002678,0.000431,1.924642
9723000,0.0324,0.013523,0.002678,0.000431,1.943916
9724000,0.0324,0.013523,0.002678,0.000431,1.863409
9725000,0.0324,0.013523,0.002678,0.000431,1.890793
9726000,0.0324,0.013523,0.002678,0.000431,1.948500
9727000,0.0324,0.013523,0.002678,0.000431,1.933574
9728000,0.0324,0.013523,0.002678,0.000431,1.912771
9729000,0.0324,0.013523,0.002678,0.000431,2.048869
9730000,0.0324,0.013523,0.002678,0.000431,1.953553
9731000,0.0324,0.013523,0.002678,0.000431,1.872577
9732000,0.0324,0.013523,0.002678,0.000431,2.025363
9733000,0.0324,0.013523,0.002678,0.000431,1.979645
9734000,0.0324,0.013523,0.002678,0.000431,1.997156
9735000,0.0324,0.013523,0.002678,0.000431,1.997627
9736000,0.0324,0.013523,0.002678,0.000431,1.867053
9737000,0.0324,0.013523,0.002678,0.000431,1.816398
9738000,0.0324,0.013523,0.002678,0.000431,1.739182
9739000,0.0324,0.013523,0.002678,0.000431,1.810992
9740000,0.0324,0.013523,0.002678,0.000431,1.938745
9741000,0.0324,0.013523,0.002678,0.000431,1.843430
9742000,0.0324,0.013523,0.002678,0.000431,1.945091
9743000,0.0324,0.013523,0.002678,0.000431,1.978822
9744000,0.0324,0.013523,0.002678,0.000431,1.910421
9745000,0.0324,0.013523,0.002678,0.000431,2.029242
9746000,0.0324,0.013523,0.002678,0.000431,1.900431
9747000,0.0324,0.013523,0.002678,0.000431,1.814988
9748000,0.0324,0.013523,0.002678,0.000431,1.801119
9749000,0.0324,0.013523,0.002678,0.000431,1.894084
9750000,0.0324,0.013523,0.002678,0.000431,1.817456
9751000,0.0324,0.013523,0.002678,0.000431,1.665492
9752000,0.0324,0.013523,0.002678,0.000431,1.881744
9753000,0.0324,0.013523,0.002678,0.000431,1.711680
9754000,0.0324,0.013523,0.002678,0.000431,1.755048
9755000,0.0324,0.013523,0.002678,0.000431,1.874339
9756000,0.0324,0.013523,0.002678,0.000431,1.718615
9757000,0.0324,0.013523,0.002678,0.000431,1.803823
9758000,0.0324,0.013523,0.002678,0.000431,1.816516
9759000,0.0324,0.013523,0.002678,0.000431,1.833557
9760000,0.0324,0.013523,0.002678,0.000431,1.843194
9761000,0.0324,0.013523,0.002678,0.000431,1.696284
9762000,0.0324,0.013523,0.002678,0.000431,1.684649
9763000,0.0324,0.013523,0.002678,0.000431,1.782197
9764000,0.0324,0.013523,0.002678,0.000431,1.761630
9765000,0.0324,0.013523,0.002678,0.000431,1.667725
9766000,0.0324,0.013523,0.002678,0.000431,1.650918
9767000,0.0324,0.013523,0.002678,0.000431,1.633994
9768000,0.0324,0.013523,0.002678,0.000431,1.453706
9769000,0.0324,0.013523,0.002678,0.000431,1.850246
9770000,0.0324,0.013523,0.002678,0.000431,1.547964
9771000,0.0324,0.013523,0.002678,0.000431,1.818043
9772000,0.0324,0.013523,0.002678,0.000431,1.690525
9773000,0.0324,0.013523,0.002678,0.000431,1.703689
9774000,0.0324,0.013523,0.002678,0.000431,1.789837
9775000,0.0324,0.013523,0.002678,0.000431,1.789719
9776000,0.0324,0.013523,0.002678,0.000431,1.765861
9777000,0.0324,0.013523,0.002678,0.000431,1.721788
9778000,0.0324,0.013523,0.002678,0.000431,1.799356
9779000,0.0324,0.013523,0.002678,0.000431,1.746586
9780000,0.0324,0.013523,0.002678,0.000431,1.779377
9781000,0.0324,0.013523,0.002678,0.000431,1.760572
9782000,0.0324,0.013523,0.002678,0.000431,1.835673
9783000,0.0324,0.013523,0.002678,0.000431,1.712973
9784000,0.0324,0.013523,0.002678,0.000431,1.676422
9785000,0.0324,0.013523,0.002678,0.000431,1.635170
9786000,0.0324,0.013523,0.002678,0.000431,1.684766
9787000,0.0324,0.013523,0.002678,0.000431,1.682063
9788000,0.0324,0.013523,0.002678,0.000431,1.780552
9789000,0.0324,0.013523,0.002678,0.000431,1.701338
9790000,0.0324,0.013523,0.002678,0.000431,1.685119
9791000,0.0324,0.013523,0.002678,0.000431,1.737184
9792000,0.0324,0.013523,0.002678,0.000431,1.729545
9793000,0.0324,0.013523,0.002678,0.000431,1.871284
9794000,0.0324,0.013523,0.002678,0.000431,1.896787
9795000,0.0324,0.013523,0.002678,0.000431,1.916179
9796000,0.0324,0.013523,0.002678,0.000431,1.733658
9797000,0.0324,0.013523,0.002678,0.000431,1.541030
9798000,0.0324,0.013523,0.002678,0.000431,1.611194
9799000,0.0324,0.013523,0.002678,0.000431,1.741062
9800000,0.0324,0.013523,0.002678,0.000431,1.681006
9801000,0.0324,0.013523,0.002678,0.000431,1.802647
9802000,0.0324,0.013523,0.002678,0.000431,2.001740
9803000,0.0324,0.013523,0.002678,0.000431,1.672779
9804000,0.0324,0.013523,0.002678,0.000431,1.715206
9805000,0.0324,0.013523,0.002678,0.000431,1.785253
9806000,0.0324,0.013523,0.002678,0.000431,1.830972
9807000,0.0324,0.013523,0.002678,0.000431,1.825565
9808000,0.0324,0.013523,0.002678,0.000431,1.715441
9809000,0.0324,0.013523,0.002678,0.000431,2.089181
9810000,0.0324,0.013523,0.002678,0.000431,2.092002
9811000,0.0324,0.013523,0.002678,0.000431,1.708625
9812000,0.0324,0.013523,0.002678,0.000431,1.721788
9813000,0.0324,0.013523,0.002678,0.000431,1.790424
9814000,0.0324,0.013523,0.002678,0.000431,1.793715
9815000,0.0324,0.013523,0.002678,0.000431,2.092824
9816000,0.0324,0.013523,0.002678,0.000431,1.950498
9817000,0.0324,0.013523,0.002678,0.000431,2.027831
9818000,0.0324,0.013523,0.002678,0.000431,1.803000
9819000,0.0324,0.013523,0.002678,0.000431,2.045696
9820000,0.0324,0.013523,0.002678,0.000431,1.917355
9821000,0.0324,0.013523,0.002678,0.000431,1.766566
9822000,0.0324,0.013523,0.002678,0.000431,1.666667
9823000,0.0324,0.013523,0.002678,0.000431,1.816281
9824000,0.0324,0.013523,0.002678,0.000431,1.939803
9825000,0.0324,0.013523,0.002678,0.000431,1.925934
9826000,0.0324,0.013523,0.002678,0.000431,1.893261
9827000,0.0324,0.013523,0.002678,0.000431,1.769857
9828000,0.0324,0.013523,0.002678,0.000431,1.823567
9829000,0.0324,0.013523,0.002678,0.000431,1.999860
9830000,0.0324,0.013523,0.002678,0.000431,1.860119
9831000,0.0324,0.013523,0.002678,0.000431,1.859648
9832000,0.0324,0.013523,0.002678,0.000431,1.793598
9833000,0.0324,0.013523,0.002678,0.000431,1.867640
9834000,0.0324,0.013523,0.002678,0.000431,1.791717
9835000,0.0324,0.013523,0.002678,0.000431,1.773030
9836000,0.0324,0.013523,0.002678,0.000431,1.649155
9837000,0.0324,0.013523,0.002678,0.000431,1.695109
9838000,0.0324,0.013523,0.002678,0.000431,1.855535
9839000,0.0324,0.013523,0.002678,0.000431,1.801119
9840000,0.0324,0.013523,0.002678,0.000431,1.810052
9841000,0.0324,0.013523,0.002678,0.000431,1.688175
9842000,0.0324,0.013523,0.002678,0.000431,1.821569
9843000,0.0324,0.013523,0.002678,0.000431,1.637873
9844000,0.0324,0.013523,0.002678,0.000431,1.905014
9845000,0.0324,0.013523,0.002678,0.000431,1.740357
9846000,0.0324,0.013523,0.002678,0.000431,1.786781
9847000,0.0324,0.013523,0.002678,0.000431,1.620479
9848000,0.0324,0.013523,0.002678,0.000431,1.713796
9849000,0.0324,0.013523,0.002678,0.000431,1.728487
9850000,0.0324,0.013523,0.002678,0.000431,1.771385
9851000,0.0324,0.013523,0.002678,0.000431,1.650801
9852000,0.0324,0.013523,0.002678,0.000431,1.601086
9853000,0.0324,0.013523,0.002678,0.000431,1.722023
9854000,0.0324,0.013523,0.002678,0.000431,1.805115
9855000,0.0324,0.013523,0.002678,0.000431,1.714031
9856000,0.0324,0.013523,0.002678,0.000431,1.699693
9857000,0.0324,0.013523,0.002678,0.000431,1.836025
9858000,0.0324,0.013523,0.002678,0.000431,1.964013
9859000,0.0324,0.013523,0.002678,0.000431,1.881979
9860000,0.0324,0.013523,0.002678,0.000431,1.738594
9861000,0.0324,0.013523,0.002678,0.000431,1.940743
9862000,0.0324,0.013523,0.002678,0.000431,1.583692
9863000,0.0324,0.013523,0.002678,0.000431,1.792775
9864000,0.0324,0.013523,0.002678,0.000431,1.857650
9865000,0.0324,0.013523,0.002678,0.000431,1.999977
9866000,0.0324,0.013523,0.002678,0.000431,1.775616
9867000,0.0324,0.013523,0.002678,0.000431,1.814283
9868000,0.0324,0.013523,0.002678,0.000431,1.795125
9869000,0.0324,0.013523,0.002678,0.000431,1.590979
9870000,0.0324,0.013523,0.002678,0.000431,1.971888
9871000,0.0324,0.013523,0.002678,0.000431,1.897375
9872000,0.0324,0.013523,0.002678,0.000431,1.846485
9873000,0.0324,0.013523,0.002678,0.000431,1.764333
9874000,0.0324,0.013523,0.002678,0.000431,1.770092
9875000,0.0324,0.013523,0.002678,0.000431,1.638108
9876000,0.0324,0.013523,0.002678,0.000431,1.488377
9877000,0.0324,0.013523,0.002678,0.000431,1.710153
9878000,0.0324,0.013523,0.002678,0.000431,1.752580
9879000,0.0324,0.013523,0.002678,0.000431,1.834732
9880000,0.0324,0.013523,0.002678,0.000431,1.883154
9881000,0.0324,0.013523,0.002678,0.000431,2.006794
9882000,0.0324,0.013523,0.002678,0.000431,1.879981
9883000,0.0324,0.013523,0.002678,0.000431,1.848718
9884000,0.0324,0.013523,0.002678,0.000431,1.919823
9885000,0.0324,0.013523,0.002678,0.000431,1.955551
9886000,0.0324,0.013523,0.002678,0.000431,1.833440
9887000,0.0324,0.013523,0.002678,0.000431,1.912184
9888000,0.0324,0.013523,0.002678,0.000431,1.961310
9889000,0.0324,0.013523,0.002678,0.000431,1.875397
9890000,0.0324,0.013523,0.002678,0.000431,1.635992
9891000,0.0324,0.013523,0.002678,0.000431,1.855300
9892000,0.0324,0.013523,0.002678,0.000431,2.019604
9893000,0.0324,0.013523,0.002678,0.000431,1.900313
9894000,0.0324,0.013523,0.002678,0.000431,1.880686
9895000,0.0324,0.013523,0.002678,0.000431,1.762688
9896000,0.0324,0.013523,0.002678,0.000431,1.954376
9897000,0.0324,0.013523,0.002678,0.000431,1.747644
9898000,0.0324,0.013523,0.002678,0.000431,1.767506
9899000,0.0324,0.013523,0.002678,0.000431,2.103990
9900000,0.0324,0.013523,0.002678,0.000431,1.763863
9901000,0.0324,0.013523,0.002678,0.000431,1.895847
9902000,0.0324,0.013523,0.002678,0.000431,1.748349
9903000,0.0324,0.013523,0.002678,0.000431,1.841549
9904000,0.0324,0.013523,0.002678,0.000431,1.866230
9905000,0.0324,0.013523,0.002678,0.000431,2.003268
9906000,0.0324,0.013523,0.002678,0.000431,2.047694
9907000,0.0324,0.013523,0.002678,0.000431,1.909363
9908000,0.0324,0.013523,0.002678,0.000431,2.041700
9909000,0.0324,0.013523,0.002678,0.000431,1.906895
9910000,0.0324,0.013523,0.002678,0.000431,1.896200
9911000,0.0324,0.013523,0.002678,0.000431,1.916062
9912000,0.0324,0.013523,0.002678,0.000431,2.020309
9913000,0.0324,0.013523,0.002678,0.000431,1.874810
9914000,0.0324,0.013523,0.002678,0.000431,2.019722
9915000,0.0324,0.013523,0.002678,0.000431,1.864232
9916000,0.0324,0.013523,0.002678,0.000431,1.878570
9917000,0.0324,0.013523,0.002678,0.000431,1.968127
9918000,0.0324,0.013523,0.002678,0.000431,1.899138
9919000,0.0324,0.013523,0.002678,0.000431,1.832147
9920000,0.0324,0.013523,0.002678,0.000431,1.942741
9921000,0.0324,0.013523,0.002678,0.000431,1.966952
9922000,0.0324,0.013523,0.002678,0.000431,2.060387
9923000,0.0324,0.013523,0.002678,0.000431,2.054040
9924000,0.0324,0.013523,0.002678,0.000431,2.184379
9925000,0.0324,0.013523,0.002678,0.000431,2.078721
9926000,0.0324,0.013523,0.002678,0.000431,2.143479
9927000,0.0324,0.013523,0.002678,0.000431,2.032885
9928000,0.0324,0.013523,0.002678,0.000431,2.035000
9929000,0.0324,0.013523,0.002678,0.000431,1.955904
9930000,0.0324,0.013523,0.002678,0.000431,1.808759
9931000,0.0324,0.013523,0.002678,0.000431,1.803117
9932000,0.0324,0.013523,0.002678,0.000431,1.993748
9933000,0.0324,0.013523,0.002678,0.000431,2.031240
9934000,0.0324,0.013523,0.002678,0.000431,2.026421
9935000,0.0324,0.013523,0.002678,0.000431,1.998802
9936000,0.0324,0.013523,0.002678,0.000431,2.050397
9937000,0.0324,0.013523,0.002678,0.000431,1.928050
9938000,0.0324,0.013523,0.002678,0.000431,1.673131
9939000,0.0324,0.013523,0.002678,0.000431,1.825683
9940000,0.0324,0.013523,0.002678,0.000431,1.864467
9941000,0.0324,0.013523,0.002678,0.000431,1.810639
9942000,0.0324,0.013523,0.002678,0.000431,1.872224
9943000,0.0324,0.013523,0.002678,0.000431,1.711916
9944000,0.0324,0.013523,0.002678,0.000431,1.755871
9945000,0.0324,0.013523,0.002678,0.000431,1.783373
9946000,0.0324,0.013523,0.002678,0.000431,1.819924
9947000,0.0324,0.013523,0.002678,0.000431,1.772795
9948000,0.0324,0.013523,0.002678,0.000431,1.861529
9949000,0.0324,0.013523,0.002678,0.000431,1.874810
9950000,0.0324,0.013523,0.002678,0.000431,1.865995
9951000,0.0324,0.013523,0.002678,0.000431,1.692523
9952000,0.0324,0.013523,0.002678,0.000431,1.649273
9953000,0.0324,0.013523,0.002678,0.000431,1.890558
9954000,0.0324,0.013523,0.002678,0.000431,1.802647
9955000,0.0324,0.013523,0.002678,0.000431,1.599676
9956000,0.0324,0.013523,0.002678,0.000431,1.791952
9957000,0.0324,0.013523,0.002678,0.000431,1.897963
9958000,0.0324,0.013523,0.002678,0.000431,1.600381
9959000,0.0324,0.013523,0.002678,0.000431,1.753638
9960000,0.0324,0.013523,0.002678,0.000431,1.722493
9961000,0.0324,0.013523,0.002678,0.000431,1.900901
9962000,0.0324,0.013523,0.002678,0.000431,1.803823
9963000,0.0324,0.013523,0.002678,0.000431,1.877748
9964000,0.0324,0.013523,0.002678,0.000431,1.917355
9965000,0.0324,0.013523,0.002678,0.000431,1.901136
9966000,0.0324,0.013523,0.002678,0.000431,1.825800
9967000,0.0324,0.013523,0.002678,0.000431,1.819924
9968000,0.0324,0.013523,0.002678,0.000431,1.733893
9969000,0.0324,0.013523,0.002678,0.000431,1.799356
9970000,0.0324,0.013523,0.002678,0.000431,1.947089
9971000,0.0324,0.013523,0.002678,0.000431,2.032062
9972000,0.0324,0.013523,0.002678,0.000431,2.049221
9973000,0.0324,0.013523,0.002678,0.000431,2.123499
9974000,0.0324,0.013523,0.002678,0.000431,1.922761
9975000,0.0324,0.013523,0.002678,0.000431,1.993631
9976000,0.0324,0.013523,0.002678,0.000431,2.121736
9977000,0.0324,0.013523,0.002678,0.000431,2.072374
9978000,0.0324,0.013523,0.002678,0.000431,1.928873
9979000,0.0324,0.013523,0.002678,0.000431,2.201655
9980000,0.0324,0.013523,0.002678,0.000431,2.285688
9981000,0.0324,0.013523,0.002678,0.000431,2.016078
9982000,0.0324,0.013523,0.002678,0.000431,2.283925
9983000,0.0324,0.013523,0.002678,0.000431,2.241380
9984000,0.0324,0.013523,0.002678,0.000431,2.064265
9985000,0.0324,0.013523,0.002678,0.000431,2.269939
9986000,0.0324,0.013523,0.002678,0.000431,2.190608
9987000,0.0324,0.013523,0.002678,0.000431,2.309546
9988000,0.0324,0.013523,0.002678,0.000431,2.190843
9989000,0.0324,0.013523,0.002678,0.000431,2.190725
9990000,0.0324,0.013523,0.002678,0.000431,2.217639
9991000,0.0324,0.013523,0.002678,0.000431,2.260420
9992000,0.0324,0.013523,0.002678,0.000431,2.164752
9993000,0.0324,0.013523,0.002678,0.000431,2.246434
9994000,0.0324,0.013523,0.002678,0.000431,2.035118
9995000,0.0324,0.013523,0.002678,0.000431,2.024893
9996000,0.0324,0.013523,0.002678,0.000431,1.933809
9997000,0.0324,0.013523,0.002678,0.000431,2.052982
9998000,0.0324,0.013523,0.002678,0.000431,1.964131
9999000,0.0324,0.013523,0.002678,0.000431,1.972828
