Cycle,Area(mm^2),PeakDynamic(W),SubthresholdLeakage(W),GateLeakage(W),RunTimeDynamic(W)
7000000,0.0324,0.013523,0.002678,0.000431,0.639706
7001000,0.0324,0.013523,0.002678,0.000431,0.631361
7002000,0.0324,0.013523,0.002678,0.000431,0.635240
7003000,0.0324,0.013523,0.002678,0.000431,0.627130
7004000,0.0324,0.013523,0.002678,0.000431,0.626660
7005000,0.0324,0.013523,0.002678,0.000431,0.620196
7006000,0.0324,0.013523,0.002678,0.000431,0.616553
7007000,0.0324,0.013523,0.002678,0.000431,0.630539
7008000,0.0324,0.013523,0.002678,0.000431,0.630891
7009000,0.0324,0.013523,0.002678,0.000431,0.626425
7010000,0.0324,0.013523,0.002678,0.000431,0.619491
7011000,0.0324,0.013523,0.002678,0.000431,0.627718
7012000,0.0324,0.013523,0.002678,0.000431,0.632654
7013000,0.0324,0.013523,0.002678,0.000431,0.633007
7014000,0.0324,0.013523,0.002678,0.000431,0.625720
7015000,0.0324,0.013523,0.002678,0.000431,0.647933
7016000,0.0324,0.013523,0.002678,0.000431,0.629716
7017000,0.0324,0.013523,0.002678,0.000431,0.639941
7018000,0.0324,0.013523,0.002678,0.000431,0.642056
7019000,0.0324,0.013523,0.002678,0.000431,0.637943
7020000,0.0324,0.013523,0.002678,0.000431,0.640411
7021000,0.0324,0.013523,0.002678,0.000431,0.619256
7022000,0.0324,0.013523,0.002678,0.000431,0.649578
7023000,0.0324,0.013523,0.002678,0.000431,0.612204
7024000,0.0324,0.013523,0.002678,0.000431,0.643937
7025000,0.0324,0.013523,0.002678,0.000431,0.621607
7026000,0.0324,0.013523,0.002678,0.000431,0.635592
7027000,0.0324,0.013523,0.002678,0.000431,0.639471
7028000,0.0324,0.013523,0.002678,0.000431,0.627248
7029000,0.0324,0.013523,0.002678,0.000431,0.646875
7030000,0.0324,0.013523,0.002678,0.000431,0.637003
7031000,0.0324,0.013523,0.002678,0.000431,0.629363
7032000,0.0324,0.013523,0.002678,0.000431,0.635005
7033000,0.0324,0.013523,0.002678,0.000431,0.628658
7034000,0.0324,0.013523,0.002678,0.000431,0.651459
7035000,0.0324,0.013523,0.002678,0.000431,0.629128
7036000,0.0324,0.013523,0.002678,0.000431,0.638178
7037000,0.0324,0.013523,0.002678,0.000431,0.627365
7038000,0.0324,0.013523,0.002678,0.000431,0.625132
7039000,0.0324,0.013523,0.002678,0.000431,0.630421
7040000,0.0324,0.013523,0.002678,0.000431,0.632537
7041000,0.0324,0.013523,0.002678,0.000431,0.635357
7042000,0.0324,0.013523,0.002678,0.000431,0.637590
7043000,0.0324,0.013523,0.002678,0.000431,0.642056
7044000,0.0324,0.013523,0.002678,0.000431,0.621607
7045000,0.0324,0.013523,0.002678,0.000431,0.650871
7046000,0.0324,0.013523,0.002678,0.000431,0.626425
7047000,0.0324,0.013523,0.002678,0.000431,0.624780
7048000,0.0324,0.013523,0.002678,0.000431,0.618316
7049000,0.0324,0.013523,0.002678,0.000431,0.619138
7050000,0.0324,0.013523,0.002678,0.000431,0.636298
7051000,0.0324,0.013523,0.002678,0.000431,0.645465
7052000,0.0324,0.013523,0.002678,0.000431,0.637473
7053000,0.0324,0.013523,0.002678,0.000431,0.636650
7054000,0.0324,0.013523,0.002678,0.000431,0.629246
7055000,0.0324,0.013523,0.002678,0.000431,0.628541
7056000,0.0324,0.013523,0.002678,0.000431,0.640999
7057000,0.0324,0.013523,0.002678,0.000431,0.644642
7058000,0.0324,0.013523,0.002678,0.000431,0.639353
7059000,0.0324,0.013523,0.002678,0.000431,0.638648
7060000,0.0324,0.013523,0.002678,0.000431,0.634300
7061000,0.0324,0.013523,0.002678,0.000431,0.623369
7062000,0.0324,0.013523,0.002678,0.000431,0.641116
7063000,0.0324,0.013523,0.002678,0.000431,0.636063
7064000,0.0324,0.013523,0.002678,0.000431,0.647110
7065000,0.0324,0.013523,0.002678,0.000431,0.633359
7066000,0.0324,0.013523,0.002678,0.000431,0.627248
7067000,0.0324,0.013523,0.002678,0.000431,0.636180
7068000,0.0324,0.013523,0.002678,0.000431,0.627836
7069000,0.0324,0.013523,0.002678,0.000431,0.621959
7070000,0.0324,0.013523,0.002678,0.000431,0.611969
7071000,0.0324,0.013523,0.002678,0.000431,0.637355
7072000,0.0324,0.013523,0.002678,0.000431,0.623840
7073000,0.0324,0.013523,0.002678,0.000431,0.644407
7074000,0.0324,0.013523,0.002678,0.000431,0.626073
7075000,0.0324,0.013523,0.002678,0.000431,0.624075
7076000,0.0324,0.013523,0.002678,0.000431,0.646758
7077000,0.0324,0.013523,0.002678,0.000431,0.621254
7078000,0.0324,0.013523,0.002678,0.000431,0.617963
7079000,0.0324,0.013523,0.002678,0.000431,0.624897
7080000,0.0324,0.013523,0.002678,0.000431,0.632067
7081000,0.0324,0.013523,0.002678,0.000431,0.640646
7082000,0.0324,0.013523,0.002678,0.000431,0.637708
7083000,0.0324,0.013523,0.002678,0.000431,0.642056
7084000,0.0324,0.013523,0.002678,0.000431,0.646640
7085000,0.0324,0.013523,0.002678,0.000431,0.649931
7086000,0.0324,0.013523,0.002678,0.000431,0.634535
7087000,0.0324,0.013523,0.002678,0.000431,0.635945
7088000,0.0324,0.013523,0.002678,0.000431,0.615143
7089000,0.0324,0.013523,0.002678,0.000431,0.635945
7090000,0.0324,0.013523,0.002678,0.000431,0.626190
7091000,0.0324,0.013523,0.002678,0.000431,0.625838
7092000,0.0324,0.013523,0.002678,0.000431,0.621136
7093000,0.0324,0.013523,0.002678,0.000431,0.635710
7094000,0.0324,0.013523,0.002678,0.000431,0.642879
7095000,0.0324,0.013523,0.002678,0.000431,0.632067
7096000,0.0324,0.013523,0.002678,0.000431,0.631596
7097000,0.0324,0.013523,0.002678,0.000431,0.646052
7098000,0.0324,0.013523,0.002678,0.000431,0.657805
7099000,0.0324,0.013523,0.002678,0.000431,0.650166
7100000,0.0324,0.013523,0.002678,0.000431,0.654162
7101000,0.0324,0.013523,0.002678,0.000431,0.634300
7102000,0.0324,0.013523,0.002678,0.000431,0.645700
7103000,0.0324,0.013523,0.002678,0.000431,0.641116
7104000,0.0324,0.013523,0.002678,0.000431,0.646758
7105000,0.0324,0.013523,0.002678,0.000431,0.621372
7106000,0.0324,0.013523,0.002678,0.000431,0.632889
7107000,0.0324,0.013523,0.002678,0.000431,0.646523
7108000,0.0324,0.013523,0.002678,0.000431,0.629481
7109000,0.0324,0.013523,0.002678,0.000431,0.639236
7110000,0.0324,0.013523,0.002678,0.000431,0.645700
7111000,0.0324,0.013523,0.002678,0.000431,0.633007
7112000,0.0324,0.013523,0.002678,0.000431,0.646993
7113000,0.0324,0.013523,0.002678,0.000431,0.627836
7114000,0.0324,0.013523,0.002678,0.000431,0.627483
7115000,0.0324,0.013523,0.002678,0.000431,0.657805
7116000,0.0324,0.013523,0.002678,0.000431,0.647463
7117000,0.0324,0.013523,0.002678,0.000431,0.628776
7118000,0.0324,0.013523,0.002678,0.000431,0.625132
7119000,0.0324,0.013523,0.002678,0.000431,0.633712
7120000,0.0324,0.013523,0.002678,0.000431,0.606093
7121000,0.0324,0.013523,0.002678,0.000431,0.629598
7122000,0.0324,0.013523,0.002678,0.000431,0.606328
7123000,0.0324,0.013523,0.002678,0.000431,0.619844
7124000,0.0324,0.013523,0.002678,0.000431,0.623957
7125000,0.0324,0.013523,0.002678,0.000431,0.637708
7126000,0.0324,0.013523,0.002678,0.000431,0.619021
7127000,0.0324,0.013523,0.002678,0.000431,0.647228
7128000,0.0324,0.013523,0.002678,0.000431,0.639588
7129000,0.0324,0.013523,0.002678,0.000431,0.641586
7130000,0.0324,0.013523,0.002678,0.000431,0.638061
7131000,0.0324,0.013523,0.002678,0.000431,0.636768
7132000,0.0324,0.013523,0.002678,0.000431,0.619491
7133000,0.0324,0.013523,0.002678,0.000431,0.630304
7134000,0.0324,0.013523,0.002678,0.000431,0.623252
7135000,0.0324,0.013523,0.002678,0.000431,0.633594
7136000,0.0324,0.013523,0.002678,0.000431,0.623957
7137000,0.0324,0.013523,0.002678,0.000431,0.613615
7138000,0.0324,0.013523,0.002678,0.000431,0.638061
7139000,0.0324,0.013523,0.002678,0.000431,0.653809
7140000,0.0324,0.013523,0.002678,0.000431,0.654985
7141000,0.0324,0.013523,0.002678,0.000431,0.641116
7142000,0.0324,0.013523,0.002678,0.000431,0.638648
7143000,0.0324,0.013523,0.002678,0.000431,0.627600
7144000,0.0324,0.013523,0.002678,0.000431,0.625838
7145000,0.0324,0.013523,0.002678,0.000431,0.636650
7146000,0.0324,0.013523,0.002678,0.000431,0.621372
7147000,0.0324,0.013523,0.002678,0.000431,0.635240
7148000,0.0324,0.013523,0.002678,0.000431,0.614437
7149000,0.0324,0.013523,0.002678,0.000431,0.640646
7150000,0.0324,0.013523,0.002678,0.000431,0.636298
7151000,0.0324,0.013523,0.002678,0.000431,0.626778
7152000,0.0324,0.013523,0.002678,0.000431,0.623487
7153000,0.0324,0.013523,0.002678,0.000431,0.618551
7154000,0.0324,0.013523,0.002678,0.000431,0.640999
7155000,0.0324,0.013523,0.002678,0.000431,0.632302
7156000,0.0324,0.013523,0.002678,0.000431,0.628071
7157000,0.0324,0.013523,0.002678,0.000431,0.629128
7158000,0.0324,0.013523,0.002678,0.000431,0.636650
7159000,0.0324,0.013523,0.002678,0.000431,0.638178
7160000,0.0324,0.013523,0.002678,0.000431,0.633124
7161000,0.0324,0.013523,0.002678,0.000431,0.642409
7162000,0.0324,0.013523,0.002678,0.000431,0.643819
7163000,0.0324,0.013523,0.002678,0.000431,0.638648
7164000,0.0324,0.013523,0.002678,0.000431,0.628188
7165000,0.0324,0.013523,0.002678,0.000431,0.632184
7166000,0.0324,0.013523,0.002678,0.000431,0.626190
7167000,0.0324,0.013523,0.002678,0.000431,0.637708
7168000,0.0324,0.013523,0.002678,0.000431,0.630186
7169000,0.0324,0.013523,0.002678,0.000431,0.632772
7170000,0.0324,0.013523,0.002678,0.000431,0.635240
7171000,0.0324,0.013523,0.002678,0.000431,0.641351
7172000,0.0324,0.013523,0.002678,0.000431,0.623134
7173000,0.0324,0.013523,0.002678,0.000431,0.650166
7174000,0.0324,0.013523,0.002678,0.000431,0.652869
7175000,0.0324,0.013523,0.002678,0.000431,0.633477
7176000,0.0324,0.013523,0.002678,0.000431,0.627130
7177000,0.0324,0.013523,0.002678,0.000431,0.646287
7178000,0.0324,0.013523,0.002678,0.000431,0.636180
7179000,0.0324,0.013523,0.002678,0.000431,0.625955
7180000,0.0324,0.013523,0.002678,0.000431,0.629128
7181000,0.0324,0.013523,0.002678,0.000431,0.635827
7182000,0.0324,0.013523,0.002678,0.000431,0.629598
7183000,0.0324,0.013523,0.002678,0.000431,0.614790
7184000,0.0324,0.013523,0.002678,0.000431,0.627836
7185000,0.0324,0.013523,0.002678,0.000431,0.619491
7186000,0.0324,0.013523,0.002678,0.000431,0.632537
7187000,0.0324,0.013523,0.002678,0.000431,0.642762
7188000,0.0324,0.013523,0.002678,0.000431,0.633007
7189000,0.0324,0.013523,0.002678,0.000431,0.633829
7190000,0.0324,0.013523,0.002678,0.000431,0.631949
7191000,0.0324,0.013523,0.002678,0.000431,0.637473
7192000,0.0324,0.013523,0.002678,0.000431,0.652634
7193000,0.0324,0.013523,0.002678,0.000431,0.639823
7194000,0.0324,0.013523,0.002678,0.000431,0.636885
7195000,0.0324,0.013523,0.002678,0.000431,0.612322
7196000,0.0324,0.013523,0.002678,0.000431,0.629598
7197000,0.0324,0.013523,0.002678,0.000431,0.619609
7198000,0.0324,0.013523,0.002678,0.000431,0.637003
7199000,0.0324,0.013523,0.002678,0.000431,0.626190
7200000,0.0324,0.013523,0.002678,0.000431,0.623252
7201000,0.0324,0.013523,0.002678,0.000431,0.630304
7202000,0.0324,0.013523,0.002678,0.000431,0.638296
7203000,0.0324,0.013523,0.002678,0.000431,0.632654
7204000,0.0324,0.013523,0.002678,0.000431,0.641586
7205000,0.0324,0.013523,0.002678,0.000431,0.645935
7206000,0.0324,0.013523,0.002678,0.000431,0.624780
7207000,0.0324,0.013523,0.002678,0.000431,0.624075
7208000,0.0324,0.013523,0.002678,0.000431,0.630304
7209000,0.0324,0.013523,0.002678,0.000431,0.634417
7210000,0.0324,0.013523,0.002678,0.000431,0.646052
7211000,0.0324,0.013523,0.002678,0.000431,0.631126
7212000,0.0324,0.013523,0.002678,0.000431,0.624545
7213000,0.0324,0.013523,0.002678,0.000431,0.642997
7214000,0.0324,0.013523,0.002678,0.000431,0.630069
7215000,0.0324,0.013523,0.002678,0.000431,0.627483
7216000,0.0324,0.013523,0.002678,0.000431,0.625367
7217000,0.0324,0.013523,0.002678,0.000431,0.622429
7218000,0.0324,0.013523,0.002678,0.000431,0.618081
7219000,0.0324,0.013523,0.002678,0.000431,0.625132
7220000,0.0324,0.013523,0.002678,0.000431,0.628893
7221000,0.0324,0.013523,0.002678,0.000431,0.628071
7222000,0.0324,0.013523,0.002678,0.000431,0.613262
7223000,0.0324,0.013523,0.002678,0.000431,0.649696
7224000,0.0324,0.013523,0.002678,0.000431,0.620666
7225000,0.0324,0.013523,0.002678,0.000431,0.618551
7226000,0.0324,0.013523,0.002678,0.000431,0.623605
7227000,0.0324,0.013523,0.002678,0.000431,0.625838
7228000,0.0324,0.013523,0.002678,0.000431,0.635475
7229000,0.0324,0.013523,0.002678,0.000431,0.619609
7230000,0.0324,0.013523,0.002678,0.000431,0.629363
7231000,0.0324,0.013523,0.002678,0.000431,0.640764
7232000,0.0324,0.013523,0.002678,0.000431,0.632654
7233000,0.0324,0.013523,0.002678,0.000431,0.625250
7234000,0.0324,0.013523,0.002678,0.000431,0.601979
7235000,0.0324,0.013523,0.002678,0.000431,0.622547
7236000,0.0324,0.013523,0.002678,0.000431,0.612439
7237000,0.0324,0.013523,0.002678,0.000431,0.624545
7238000,0.0324,0.013523,0.002678,0.000431,0.642056
7239000,0.0324,0.013523,0.002678,0.000431,0.611617
7240000,0.0324,0.013523,0.002678,0.000431,0.629834
7241000,0.0324,0.013523,0.002678,0.000431,0.634417
7242000,0.0324,0.013523,0.002678,0.000431,0.624897
7243000,0.0324,0.013523,0.002678,0.000431,0.633007
7244000,0.0324,0.013523,0.002678,0.000431,0.622547
7245000,0.0324,0.013523,0.002678,0.000431,0.618433
7246000,0.0324,0.013523,0.002678,0.000431,0.616905
7247000,0.0324,0.013523,0.002678,0.000431,0.635122
7248000,0.0324,0.013523,0.002678,0.000431,0.627953
7249000,0.0324,0.013523,0.002678,0.000431,0.633242
7250000,0.0324,0.013523,0.002678,0.000431,0.633594
7251000,0.0324,0.013523,0.002678,0.000431,0.625955
7252000,0.0324,0.013523,0.002678,0.000431,0.638061
7253000,0.0324,0.013523,0.002678,0.000431,0.629363
7254000,0.0324,0.013523,0.002678,0.000431,0.622664
7255000,0.0324,0.013523,0.002678,0.000431,0.638648
7256000,0.0324,0.013523,0.002678,0.000431,0.634182
7257000,0.0324,0.013523,0.002678,0.000431,0.613732
7258000,0.0324,0.013523,0.002678,0.000431,0.630304
7259000,0.0324,0.013523,0.002678,0.000431,0.632537
7260000,0.0324,0.013523,0.002678,0.000431,0.626543
7261000,0.0324,0.013523,0.002678,0.000431,0.626425
7262000,0.0324,0.013523,0.002678,0.000431,0.616670
7263000,0.0324,0.013523,0.002678,0.000431,0.653457
7264000,0.0324,0.013523,0.002678,0.000431,0.621724
7265000,0.0324,0.013523,0.002678,0.000431,0.616435
7266000,0.0324,0.013523,0.002678,0.000431,0.644407
7267000,0.0324,0.013523,0.002678,0.000431,0.632419
7268000,0.0324,0.013523,0.002678,0.000431,0.624545
7269000,0.0324,0.013523,0.002678,0.000431,0.633477
7270000,0.0324,0.013523,0.002678,0.000431,0.628306
7271000,0.0324,0.013523,0.002678,0.000431,0.635357
7272000,0.0324,0.013523,0.002678,0.000431,0.631596
7273000,0.0324,0.013523,0.002678,0.000431,0.643937
7274000,0.0324,0.013523,0.002678,0.000431,0.631714
7275000,0.0324,0.013523,0.002678,0.000431,0.635357
7276000,0.0324,0.013523,0.002678,0.000431,0.639471
7277000,0.0324,0.013523,0.002678,0.000431,0.641469
7278000,0.0324,0.013523,0.002678,0.000431,0.630421
7279000,0.0324,0.013523,0.002678,0.000431,0.637590
7280000,0.0324,0.013523,0.002678,0.000431,0.627600
7281000,0.0324,0.013523,0.002678,0.000431,0.619726
7282000,0.0324,0.013523,0.002678,0.000431,0.639706
7283000,0.0324,0.013523,0.002678,0.000431,0.644642
7284000,0.0324,0.013523,0.002678,0.000431,0.625720
7285000,0.0324,0.013523,0.002678,0.000431,0.641586
7286000,0.0324,0.013523,0.002678,0.000431,0.622194
7287000,0.0324,0.013523,0.002678,0.000431,0.647933
7288000,0.0324,0.013523,0.002678,0.000431,0.640176
7289000,0.0324,0.013523,0.002678,0.000431,0.636180
7290000,0.0324,0.013523,0.002678,0.000431,0.624427
7291000,0.0324,0.013523,0.002678,0.000431,0.644407
7292000,0.0324,0.013523,0.002678,0.000431,0.641116
7293000,0.0324,0.013523,0.002678,0.000431,0.638648
7294000,0.0324,0.013523,0.002678,0.000431,0.648050
7295000,0.0324,0.013523,0.002678,0.000431,0.640411
7296000,0.0324,0.013523,0.002678,0.000431,0.640294
7297000,0.0324,0.013523,0.002678,0.000431,0.638766
7298000,0.0324,0.013523,0.002678,0.000431,0.626308
7299000,0.0324,0.013523,0.002678,0.000431,0.618551
7300000,0.0324,0.013523,0.002678,0.000431,0.646875
7301000,0.0324,0.013523,0.002678,0.000431,0.621959
7302000,0.0324,0.013523,0.002678,0.000431,0.626190
7303000,0.0324,0.013523,0.002678,0.000431,0.618551
7304000,0.0324,0.013523,0.002678,0.000431,0.625838
7305000,0.0324,0.013523,0.002678,0.000431,0.631714
7306000,0.0324,0.013523,0.002678,0.000431,0.647228
7307000,0.0324,0.013523,0.002678,0.000431,0.630304
7308000,0.0324,0.013523,0.002678,0.000431,0.645582
7309000,0.0324,0.013523,0.002678,0.000431,0.624075
7310000,0.0324,0.013523,0.002678,0.000431,0.625603
7311000,0.0324,0.013523,0.002678,0.000431,0.636063
7312000,0.0324,0.013523,0.002678,0.000431,0.623722
7313000,0.0324,0.013523,0.002678,0.000431,0.631009
7314000,0.0324,0.013523,0.002678,0.000431,0.626073
7315000,0.0324,0.013523,0.002678,0.000431,0.619491
7316000,0.0324,0.013523,0.002678,0.000431,0.628423
7317000,0.0324,0.013523,0.002678,0.000431,0.620079
7318000,0.0324,0.013523,0.002678,0.000431,0.624780
7319000,0.0324,0.013523,0.002678,0.000431,0.624192
7320000,0.0324,0.013523,0.002678,0.000431,0.611617
7321000,0.0324,0.013523,0.002678,0.000431,0.632302
7322000,0.0324,0.013523,0.002678,0.000431,0.635122
7323000,0.0324,0.013523,0.002678,0.000431,0.619491
7324000,0.0324,0.013523,0.002678,0.000431,0.621842
7325000,0.0324,0.013523,0.002678,0.000431,0.627365
7326000,0.0324,0.013523,0.002678,0.000431,0.617493
7327000,0.0324,0.013523,0.002678,0.000431,0.607621
7328000,0.0324,0.013523,0.002678,0.000431,0.615965
7329000,0.0324,0.013523,0.002678,0.000431,0.632302
7330000,0.0324,0.013523,0.002678,0.000431,0.601509
7331000,0.0324,0.013523,0.002678,0.000431,0.619256
7332000,0.0324,0.013523,0.002678,0.000431,0.616435
7333000,0.0324,0.013523,0.002678,0.000431,0.605975
7334000,0.0324,0.013523,0.002678,0.000431,0.615613
7335000,0.0324,0.013523,0.002678,0.000431,0.630774
7336000,0.0324,0.013523,0.002678,0.000431,0.630069
7337000,0.0324,0.013523,0.002678,0.000431,0.632654
7338000,0.0324,0.013523,0.002678,0.000431,0.627013
7339000,0.0324,0.013523,0.002678,0.000431,0.618316
7340000,0.0324,0.013523,0.002678,0.000431,0.647580
7341000,0.0324,0.013523,0.002678,0.000431,0.629834
7342000,0.0324,0.013523,0.002678,0.000431,0.605623
7343000,0.0324,0.013523,0.002678,0.000431,0.608796
7344000,0.0324,0.013523,0.002678,0.000431,0.622782
7345000,0.0324,0.013523,0.002678,0.000431,0.607973
7346000,0.0324,0.013523,0.002678,0.000431,0.610441
7347000,0.0324,0.013523,0.002678,0.000431,0.624780
7348000,0.0324,0.013523,0.002678,0.000431,0.604800
7349000,0.0324,0.013523,0.002678,0.000431,0.610794
7350000,0.0324,0.013523,0.002678,0.000431,0.625955
7351000,0.0324,0.013523,0.002678,0.000431,0.617728
7352000,0.0324,0.013523,0.002678,0.000431,0.615613
7353000,0.0324,0.013523,0.002678,0.000431,0.630069
7354000,0.0324,0.013523,0.002678,0.000431,0.629128
7355000,0.0324,0.013523,0.002678,0.000431,0.633124
7356000,0.0324,0.013523,0.002678,0.000431,0.630539
7357000,0.0324,0.013523,0.002678,0.000431,0.623605
7358000,0.0324,0.013523,0.002678,0.000431,0.613027
7359000,0.0324,0.013523,0.002678,0.000431,0.635827
7360000,0.0324,0.013523,0.002678,0.000431,0.633947
7361000,0.0324,0.013523,0.002678,0.000431,0.644642
7362000,0.0324,0.013523,0.002678,0.000431,0.621489
7363000,0.0324,0.013523,0.002678,0.000431,0.618316
7364000,0.0324,0.013523,0.002678,0.000431,0.630186
7365000,0.0324,0.013523,0.002678,0.000431,0.625955
7366000,0.0324,0.013523,0.002678,0.000431,0.629598
7367000,0.0324,0.013523,0.002678,0.000431,0.631361
7368000,0.0324,0.013523,0.002678,0.000431,0.618786
7369000,0.0324,0.013523,0.002678,0.000431,0.621842
7370000,0.0324,0.013523,0.002678,0.000431,0.635240
7371000,0.0324,0.013523,0.002678,0.000431,0.628306
7372000,0.0324,0.013523,0.002678,0.000431,0.616670
7373000,0.0324,0.013523,0.002678,0.000431,0.630539
7374000,0.0324,0.013523,0.002678,0.000431,0.615025
7375000,0.0324,0.013523,0.002678,0.000431,0.609031
7376000,0.0324,0.013523,0.002678,0.000431,0.608796
7377000,0.0324,0.013523,0.002678,0.000431,0.622899
7378000,0.0324,0.013523,0.002678,0.000431,0.636885
7379000,0.0324,0.013523,0.002678,0.000431,0.637590
7380000,0.0324,0.013523,0.002678,0.000431,0.635475
7381000,0.0324,0.013523,0.002678,0.000431,0.629363
7382000,0.0324,0.013523,0.002678,0.000431,0.632184
7383000,0.0324,0.013523,0.002678,0.000431,0.607268
7384000,0.0324,0.013523,0.002678,0.000431,0.611852
7385000,0.0324,0.013523,0.002678,0.000431,0.622194
7386000,0.0324,0.013523,0.002678,0.000431,0.625485
7387000,0.0324,0.013523,0.002678,0.000431,0.617258
7388000,0.0324,0.013523,0.002678,0.000431,0.603860
7389000,0.0324,0.013523,0.002678,0.000431,0.629598
7390000,0.0324,0.013523,0.002678,0.000431,0.617258
7391000,0.0324,0.013523,0.002678,0.000431,0.617258
7392000,0.0324,0.013523,0.002678,0.000431,0.616788
7393000,0.0324,0.013523,0.002678,0.000431,0.627130
7394000,0.0324,0.013523,0.002678,0.000431,0.629716
7395000,0.0324,0.013523,0.002678,0.000431,0.612087
7396000,0.0324,0.013523,0.002678,0.000431,0.634300
7397000,0.0324,0.013523,0.002678,0.000431,0.642997
7398000,0.0324,0.013523,0.002678,0.000431,0.622782
7399000,0.0324,0.013523,0.002678,0.000431,0.622899
7400000,0.0324,0.013523,0.002678,0.000431,0.620549
7401000,0.0324,0.013523,0.002678,0.000431,0.603272
7402000,0.0324,0.013523,0.002678,0.000431,0.624192
7403000,0.0324,0.013523,0.002678,0.000431,0.631126
7404000,0.0324,0.013523,0.002678,0.000431,0.625485
7405000,0.0324,0.013523,0.002678,0.000431,0.633477
7406000,0.0324,0.013523,0.002678,0.000431,0.654162
7407000,0.0324,0.013523,0.002678,0.000431,0.641469
7408000,0.0324,0.013523,0.002678,0.000431,0.627718
7409000,0.0324,0.013523,0.002678,0.000431,0.632889
7410000,0.0324,0.013523,0.002678,0.000431,0.621842
7411000,0.0324,0.013523,0.002678,0.000431,0.627365
7412000,0.0324,0.013523,0.002678,0.000431,0.624192
7413000,0.0324,0.013523,0.002678,0.000431,0.615495
7414000,0.0324,0.013523,0.002678,0.000431,0.632889
7415000,0.0324,0.013523,0.002678,0.000431,0.637590
7416000,0.0324,0.013523,0.002678,0.000431,0.618198
7417000,0.0324,0.013523,0.002678,0.000431,0.617258
7418000,0.0324,0.013523,0.002678,0.000431,0.623722
7419000,0.0324,0.013523,0.002678,0.000431,0.623605
7420000,0.0324,0.013523,0.002678,0.000431,0.627130
7421000,0.0324,0.013523,0.002678,0.000431,0.606328
7422000,0.0324,0.013523,0.002678,0.000431,0.630539
7423000,0.0324,0.013523,0.002678,0.000431,0.621842
7424000,0.0324,0.013523,0.002678,0.000431,0.616318
7425000,0.0324,0.013523,0.002678,0.000431,0.635592
7426000,0.0324,0.013523,0.002678,0.000431,0.620784
7427000,0.0324,0.013523,0.002678,0.000431,0.634300
7428000,0.0324,0.013523,0.002678,0.000431,0.622077
7429000,0.0324,0.013523,0.002678,0.000431,0.613262
7430000,0.0324,0.013523,0.002678,0.000431,0.623487
7431000,0.0324,0.013523,0.002678,0.000431,0.626425
7432000,0.0324,0.013523,0.002678,0.000431,0.621254
7433000,0.0324,0.013523,0.002678,0.000431,0.622194
7434000,0.0324,0.013523,0.002678,0.000431,0.608914
7435000,0.0324,0.013523,0.002678,0.000431,0.627130
7436000,0.0324,0.013523,0.002678,0.000431,0.610089
7437000,0.0324,0.013523,0.002678,0.000431,0.627718
7438000,0.0324,0.013523,0.002678,0.000431,0.618081
7439000,0.0324,0.013523,0.002678,0.000431,0.612322
7440000,0.0324,0.013523,0.002678,0.000431,0.620901
7441000,0.0324,0.013523,0.002678,0.000431,0.617611
7442000,0.0324,0.013523,0.002678,0.000431,0.626190
7443000,0.0324,0.013523,0.002678,0.000431,0.616435
7444000,0.0324,0.013523,0.002678,0.000431,0.608208
7445000,0.0324,0.013523,0.002678,0.000431,0.609149
7446000,0.0324,0.013523,0.002678,0.000431,0.634300
7447000,0.0324,0.013523,0.002678,0.000431,0.607621
7448000,0.0324,0.013523,0.002678,0.000431,0.624897
7449000,0.0324,0.013523,0.002678,0.000431,0.634535
7450000,0.0324,0.013523,0.002678,0.000431,0.622312
7451000,0.0324,0.013523,0.002678,0.000431,0.616788
7452000,0.0324,0.013523,0.002678,0.000431,0.621489
7453000,0.0324,0.013523,0.002678,0.000431,0.628188
7454000,0.0324,0.013523,0.002678,0.000431,0.612439
7455000,0.0324,0.013523,0.002678,0.000431,0.633712
7456000,0.0324,0.013523,0.002678,0.000431,0.619609
7457000,0.0324,0.013523,0.002678,0.000431,0.628893
7458000,0.0324,0.013523,0.002678,0.000431,0.627130
7459000,0.0324,0.013523,0.002678,0.000431,0.624545
7460000,0.0324,0.013523,0.002678,0.000431,0.622429
7461000,0.0324,0.013523,0.002678,0.000431,0.625603
7462000,0.0324,0.013523,0.002678,0.000431,0.624192
7463000,0.0324,0.013523,0.002678,0.000431,0.623369
7464000,0.0324,0.013523,0.002678,0.000431,0.608443
7465000,0.0324,0.013523,0.002678,0.000431,0.629011
7466000,0.0324,0.013523,0.002678,0.000431,0.613850
7467000,0.0324,0.013523,0.002678,0.000431,0.611147
7468000,0.0324,0.013523,0.002678,0.000431,0.619726
7469000,0.0324,0.013523,0.002678,0.000431,0.626895
7470000,0.0324,0.013523,0.002678,0.000431,0.607386
7471000,0.0324,0.013523,0.002678,0.000431,0.619491
7472000,0.0324,0.013523,0.002678,0.000431,0.619021
7473000,0.0324,0.013523,0.002678,0.000431,0.608678
7474000,0.0324,0.013523,0.002678,0.000431,0.616905
7475000,0.0324,0.013523,0.002678,0.000431,0.617963
7476000,0.0324,0.013523,0.002678,0.000431,0.635357
7477000,0.0324,0.013523,0.002678,0.000431,0.628658
7478000,0.0324,0.013523,0.002678,0.000431,0.623369
7479000,0.0324,0.013523,0.002678,0.000431,0.617493
7480000,0.0324,0.013523,0.002678,0.000431,0.603507
7481000,0.0324,0.013523,0.002678,0.000431,0.620431
7482000,0.0324,0.013523,0.002678,0.000431,0.625955
7483000,0.0324,0.013523,0.002678,0.000431,0.628188
7484000,0.0324,0.013523,0.002678,0.000431,0.608326
7485000,0.0324,0.013523,0.002678,0.000431,0.611147
7486000,0.0324,0.013523,0.002678,0.000431,0.625955
7487000,0.0324,0.013523,0.002678,0.000431,0.635710
7488000,0.0324,0.013523,0.002678,0.000431,0.629951
7489000,0.0324,0.013523,0.002678,0.000431,0.621136
7490000,0.0324,0.013523,0.002678,0.000431,0.628071
7491000,0.0324,0.013523,0.002678,0.000431,0.636063
7492000,0.0324,0.013523,0.002678,0.000431,0.612792
7493000,0.0324,0.013523,0.002678,0.000431,0.622899
7494000,0.0324,0.013523,0.002678,0.000431,0.596691
7495000,0.0324,0.013523,0.002678,0.000431,0.607033
7496000,0.0324,0.013523,0.002678,0.000431,0.622664
7497000,0.0324,0.013523,0.002678,0.000431,0.625132
7498000,0.0324,0.013523,0.002678,0.000431,0.626190
7499000,0.0324,0.013523,0.002678,0.000431,0.618786
7500000,0.0324,0.013523,0.002678,0.000431,0.614437
7501000,0.0324,0.013523,0.002678,0.000431,0.612439
7502000,0.0324,0.013523,0.002678,0.000431,0.597631
7503000,0.0324,0.013523,0.002678,0.000431,0.632889
7504000,0.0324,0.013523,0.002678,0.000431,0.609384
7505000,0.0324,0.013523,0.002678,0.000431,0.630304
7506000,0.0324,0.013523,0.002678,0.000431,0.625132
7507000,0.0324,0.013523,0.002678,0.000431,0.624897
7508000,0.0324,0.013523,0.002678,0.000431,0.627365
7509000,0.0324,0.013523,0.002678,0.000431,0.612557
7510000,0.0324,0.013523,0.002678,0.000431,0.618198
7511000,0.0324,0.013523,0.002678,0.000431,0.612557
7512000,0.0324,0.013523,0.002678,0.000431,0.628071
7513000,0.0324,0.013523,0.002678,0.000431,0.629011
7514000,0.0324,0.013523,0.002678,0.000431,0.614437
7515000,0.0324,0.013523,0.002678,0.000431,0.622664
7516000,0.0324,0.013523,0.002678,0.000431,0.617493
7517000,0.0324,0.013523,0.002678,0.000431,0.612792
7518000,0.0324,0.013523,0.002678,0.000431,0.610911
7519000,0.0324,0.013523,0.002678,0.000431,0.622194
7520000,0.0324,0.013523,0.002678,0.000431,0.626425
7521000,0.0324,0.013523,0.002678,0.000431,0.611147
7522000,0.0324,0.013523,0.002678,0.000431,0.616200
7523000,0.0324,0.013523,0.002678,0.000431,0.623017
7524000,0.0324,0.013523,0.002678,0.000431,0.631596
7525000,0.0324,0.013523,0.002678,0.000431,0.621842
7526000,0.0324,0.013523,0.002678,0.000431,0.633359
7527000,0.0324,0.013523,0.002678,0.000431,0.619256
7528000,0.0324,0.013523,0.002678,0.000431,0.610911
7529000,0.0324,0.013523,0.002678,0.000431,0.611617
7530000,0.0324,0.013523,0.002678,0.000431,0.598101
7531000,0.0324,0.013523,0.002678,0.000431,0.629128
7532000,0.0324,0.013523,0.002678,0.000431,0.598689
7533000,0.0324,0.013523,0.002678,0.000431,0.594810
7534000,0.0324,0.013523,0.002678,0.000431,0.603977
7535000,0.0324,0.013523,0.002678,0.000431,0.615143
7536000,0.0324,0.013523,0.002678,0.000431,0.610794
7537000,0.0324,0.013523,0.002678,0.000431,0.611969
7538000,0.0324,0.013523,0.002678,0.000431,0.618668
7539000,0.0324,0.013523,0.002678,0.000431,0.626778
7540000,0.0324,0.013523,0.002678,0.000431,0.613732
7541000,0.0324,0.013523,0.002678,0.000431,0.602567
7542000,0.0324,0.013523,0.002678,0.000431,0.615965
7543000,0.0324,0.013523,0.002678,0.000431,0.581647
7544000,0.0324,0.013523,0.002678,0.000431,0.604565
7545000,0.0324,0.013523,0.002678,0.000431,0.611147
7546000,0.0324,0.013523,0.002678,0.000431,0.597748
7547000,0.0324,0.013523,0.002678,0.000431,0.615730
7548000,0.0324,0.013523,0.002678,0.000431,0.629598
7549000,0.0324,0.013523,0.002678,0.000431,0.611147
7550000,0.0324,0.013523,0.002678,0.000431,0.605975
7551000,0.0324,0.013523,0.002678,0.000431,0.627483
7552000,0.0324,0.013523,0.002678,0.000431,0.598571
7553000,0.0324,0.013523,0.002678,0.000431,0.605388
7554000,0.0324,0.013523,0.002678,0.000431,0.610206
7555000,0.0324,0.013523,0.002678,0.000431,0.604330
7556000,0.0324,0.013523,0.002678,0.000431,0.590462
7557000,0.0324,0.013523,0.002678,0.000431,0.621724
7558000,0.0324,0.013523,0.002678,0.000431,0.621724
7559000,0.0324,0.013523,0.002678,0.000431,0.606916
7560000,0.0324,0.013523,0.002678,0.000431,0.597866
7561000,0.0324,0.013523,0.002678,0.000431,0.628071
7562000,0.0324,0.013523,0.002678,0.000431,0.596103
7563000,0.0324,0.013523,0.002678,0.000431,0.597983
7564000,0.0324,0.013523,0.002678,0.000431,0.600099
7565000,0.0324,0.013523,0.002678,0.000431,0.612792
7566000,0.0324,0.013523,0.002678,0.000431,0.632654
7567000,0.0324,0.013523,0.002678,0.000431,0.619138
7568000,0.0324,0.013523,0.002678,0.000431,0.636533
7569000,0.0324,0.013523,0.002678,0.000431,0.621019
7570000,0.0324,0.013523,0.002678,0.000431,0.597513
7571000,0.0324,0.013523,0.002678,0.000431,0.605270
7572000,0.0324,0.013523,0.002678,0.000431,0.618081
7573000,0.0324,0.013523,0.002678,0.000431,0.614320
7574000,0.0324,0.013523,0.002678,0.000431,0.608326
7575000,0.0324,0.013523,0.002678,0.000431,0.627836
7576000,0.0324,0.013523,0.002678,0.000431,0.615143
7577000,0.0324,0.013523,0.002678,0.000431,0.603037
7578000,0.0324,0.013523,0.002678,0.000431,0.615025
7579000,0.0324,0.013523,0.002678,0.000431,0.617023
7580000,0.0324,0.013523,0.002678,0.000431,0.592107
7581000,0.0324,0.013523,0.002678,0.000431,0.648873
7582000,0.0324,0.013523,0.002678,0.000431,0.628893
7583000,0.0324,0.013523,0.002678,0.000431,0.617728
7584000,0.0324,0.013523,0.002678,0.000431,0.604565
7585000,0.0324,0.013523,0.002678,0.000431,0.618668
7586000,0.0324,0.013523,0.002678,0.000431,0.624662
7587000,0.0324,0.013523,0.002678,0.000431,0.619609
7588000,0.0324,0.013523,0.002678,0.000431,0.639236
7589000,0.0324,0.013523,0.002678,0.000431,0.640646
7590000,0.0324,0.013523,0.002678,0.000431,0.616905
7591000,0.0324,0.013523,0.002678,0.000431,0.633477
7592000,0.0324,0.013523,0.002678,0.000431,0.630186
7593000,0.0324,0.013523,0.002678,0.000431,0.626543
7594000,0.0324,0.013523,0.002678,0.000431,0.613380
7595000,0.0324,0.013523,0.002678,0.000431,0.600099
7596000,0.0324,0.013523,0.002678,0.000431,0.598806
7597000,0.0324,0.013523,0.002678,0.000431,0.608678
7598000,0.0324,0.013523,0.002678,0.000431,0.608561
7599000,0.0324,0.013523,0.002678,0.000431,0.600451
7600000,0.0324,0.013523,0.002678,0.000431,0.624780
7601000,0.0324,0.013523,0.002678,0.000431,0.596220
7602000,0.0324,0.013523,0.002678,0.000431,0.641234
7603000,0.0324,0.013523,0.002678,0.000431,0.618668
7604000,0.0324,0.013523,0.002678,0.000431,0.620314
7605000,0.0324,0.013523,0.002678,0.000431,0.633712
7606000,0.0324,0.013523,0.002678,0.000431,0.640881
7607000,0.0324,0.013523,0.002678,0.000431,0.612909
7608000,0.0324,0.013523,0.002678,0.000431,0.621489
7609000,0.0324,0.013523,0.002678,0.000431,0.620784
7610000,0.0324,0.013523,0.002678,0.000431,0.605858
7611000,0.0324,0.013523,0.002678,0.000431,0.599746
7612000,0.0324,0.013523,0.002678,0.000431,0.615848
7613000,0.0324,0.013523,0.002678,0.000431,0.600687
7614000,0.0324,0.013523,0.002678,0.000431,0.619138
7615000,0.0324,0.013523,0.002678,0.000431,0.617611
7616000,0.0324,0.013523,0.002678,0.000431,0.612674
7617000,0.0324,0.013523,0.002678,0.000431,0.628423
7618000,0.0324,0.013523,0.002678,0.000431,0.613497
7619000,0.0324,0.013523,0.002678,0.000431,0.633947
7620000,0.0324,0.013523,0.002678,0.000431,0.625485
7621000,0.0324,0.013523,0.002678,0.000431,0.620901
7622000,0.0324,0.013523,0.002678,0.000431,0.597866
7623000,0.0324,0.013523,0.002678,0.000431,0.618198
7624000,0.0324,0.013523,0.002678,0.000431,0.610676
7625000,0.0324,0.013523,0.002678,0.000431,0.611852
7626000,0.0324,0.013523,0.002678,0.000431,0.607151
7627000,0.0324,0.013523,0.002678,0.000431,0.602920
7628000,0.0324,0.013523,0.002678,0.000431,0.618668
7629000,0.0324,0.013523,0.002678,0.000431,0.632067
7630000,0.0324,0.013523,0.002678,0.000431,0.619844
7631000,0.0324,0.013523,0.002678,0.000431,0.610441
7632000,0.0324,0.013523,0.002678,0.000431,0.632184
7633000,0.0324,0.013523,0.002678,0.000431,0.617258
7634000,0.0324,0.013523,0.002678,0.000431,0.599629
7635000,0.0324,0.013523,0.002678,0.000431,0.614790
7636000,0.0324,0.013523,0.002678,0.000431,0.612792
7637000,0.0324,0.013523,0.002678,0.000431,0.606798
7638000,0.0324,0.013523,0.002678,0.000431,0.645817
7639000,0.0324,0.013523,0.002678,0.000431,0.628306
7640000,0.0324,0.013523,0.002678,0.000431,0.609854
7641000,0.0324,0.013523,0.002678,0.000431,0.616788
7642000,0.0324,0.013523,0.002678,0.000431,0.633947
7643000,0.0324,0.013523,0.002678,0.000431,0.624310
7644000,0.0324,0.013523,0.002678,0.000431,0.632302
7645000,0.0324,0.013523,0.002678,0.000431,0.605740
7646000,0.0324,0.013523,0.002678,0.000431,0.609031
7647000,0.0324,0.013523,0.002678,0.000431,0.603155
7648000,0.0324,0.013523,0.002678,0.000431,0.610089
7649000,0.0324,0.013523,0.002678,0.000431,0.597161
7650000,0.0324,0.013523,0.002678,0.000431,0.613497
7651000,0.0324,0.013523,0.002678,0.000431,0.599511
7652000,0.0324,0.013523,0.002678,0.000431,0.595985
7653000,0.0324,0.013523,0.002678,0.000431,0.594575
7654000,0.0324,0.013523,0.002678,0.000431,0.609266
7655000,0.0324,0.013523,0.002678,0.000431,0.627483
7656000,0.0324,0.013523,0.002678,0.000431,0.640999
7657000,0.0324,0.013523,0.002678,0.000431,0.630774
7658000,0.0324,0.013523,0.002678,0.000431,0.602567
7659000,0.0324,0.013523,0.002678,0.000431,0.606093
7660000,0.0324,0.013523,0.002678,0.000431,0.607856
7661000,0.0324,0.013523,0.002678,0.000431,0.623134
7662000,0.0324,0.013523,0.002678,0.000431,0.608208
7663000,0.0324,0.013523,0.002678,0.000431,0.609266
7664000,0.0324,0.013523,0.002678,0.000431,0.608208
7665000,0.0324,0.013523,0.002678,0.000431,0.605740
7666000,0.0324,0.013523,0.002678,0.000431,0.616905
7667000,0.0324,0.013523,0.002678,0.000431,0.615260
7668000,0.0324,0.013523,0.002678,0.000431,0.616788
7669000,0.0324,0.013523,0.002678,0.000431,0.614085
7670000,0.0324,0.013523,0.002678,0.000431,0.618198
7671000,0.0324,0.013523,0.002678,0.000431,0.636768
7672000,0.0324,0.013523,0.002678,0.000431,0.603742
7673000,0.0324,0.013523,0.002678,0.000431,0.623840
7674000,0.0324,0.013523,0.002678,0.000431,0.618433
7675000,0.0324,0.013523,0.002678,0.000431,0.603390
7676000,0.0324,0.013523,0.002678,0.000431,0.611734
7677000,0.0324,0.013523,0.002678,0.000431,0.615143
7678000,0.0324,0.013523,0.002678,0.000431,0.603507
7679000,0.0324,0.013523,0.002678,0.000431,0.637355
7680000,0.0324,0.013523,0.002678,0.000431,0.589051
7681000,0.0324,0.013523,0.002678,0.000431,0.590227
7682000,0.0324,0.013523,0.002678,0.000431,0.595280
7683000,0.0324,0.013523,0.002678,0.000431,0.618433
7684000,0.0324,0.013523,0.002678,0.000431,0.615848
7685000,0.0324,0.013523,0.002678,0.000431,0.607151
7686000,0.0324,0.013523,0.002678,0.000431,0.607856
7687000,0.0324,0.013523,0.002678,0.000431,0.625015
7688000,0.0324,0.013523,0.002678,0.000431,0.615495
7689000,0.0324,0.013523,0.002678,0.000431,0.609149
7690000,0.0324,0.013523,0.002678,0.000431,0.615143
7691000,0.0324,0.013523,0.002678,0.000431,0.632419
7692000,0.0324,0.013523,0.002678,0.000431,0.608678
7693000,0.0324,0.013523,0.002678,0.000431,0.628188
7694000,0.0324,0.013523,0.002678,0.000431,0.619491
7695000,0.0324,0.013523,0.002678,0.000431,0.622429
7696000,0.0324,0.013523,0.002678,0.000431,0.619726
7697000,0.0324,0.013523,0.002678,0.000431,0.622547
7698000,0.0324,0.013523,0.002678,0.000431,0.627600
7699000,0.0324,0.013523,0.002678,0.000431,0.635240
7700000,0.0324,0.013523,0.002678,0.000431,0.603037
7701000,0.0324,0.013523,0.002678,0.000431,0.625485
7702000,0.0324,0.013523,0.002678,0.000431,0.586818
7703000,0.0324,0.013523,0.002678,0.000431,0.621607
7704000,0.0324,0.013523,0.002678,0.000431,0.611734
7705000,0.0324,0.013523,0.002678,0.000431,0.617728
7706000,0.0324,0.013523,0.002678,0.000431,0.594575
7707000,0.0324,0.013523,0.002678,0.000431,0.595280
7708000,0.0324,0.013523,0.002678,0.000431,0.607973
7709000,0.0324,0.013523,0.002678,0.000431,0.605505
7710000,0.0324,0.013523,0.002678,0.000431,0.600804
7711000,0.0324,0.013523,0.002678,0.000431,0.634887
7712000,0.0324,0.013523,0.002678,0.000431,0.635945
7713000,0.0324,0.013523,0.002678,0.000431,0.618903
7714000,0.0324,0.013523,0.002678,0.000431,0.636180
7715000,0.0324,0.013523,0.002678,0.000431,0.618081
7716000,0.0324,0.013523,0.002678,0.000431,0.629246
7717000,0.0324,0.013523,0.002678,0.000431,0.622077
7718000,0.0324,0.013523,0.002678,0.000431,0.616083
7719000,0.0324,0.013523,0.002678,0.000431,0.627953
7720000,0.0324,0.013523,0.002678,0.000431,0.632654
7721000,0.0324,0.013523,0.002678,0.000431,0.619844
7722000,0.0324,0.013523,0.002678,0.000431,0.613027
7723000,0.0324,0.013523,0.002678,0.000431,0.604330
7724000,0.0324,0.013523,0.002678,0.000431,0.613380
7725000,0.0324,0.013523,0.002678,0.000431,0.624545
7726000,0.0324,0.013523,0.002678,0.000431,0.610206
7727000,0.0324,0.013523,0.002678,0.000431,0.622194
7728000,0.0324,0.013523,0.002678,0.000431,0.631832
7729000,0.0324,0.013523,0.002678,0.000431,0.637238
7730000,0.0324,0.013523,0.002678,0.000431,0.619844
7731000,0.0324,0.013523,0.002678,0.000431,0.619256
7732000,0.0324,0.013523,0.002678,0.000431,0.624192
7733000,0.0324,0.013523,0.002678,0.000431,0.626660
7734000,0.0324,0.013523,0.002678,0.000431,0.607856
7735000,0.0324,0.013523,0.002678,0.000431,0.612557
7736000,0.0324,0.013523,0.002678,0.000431,0.616670
7737000,0.0324,0.013523,0.002678,0.000431,0.601157
7738000,0.0324,0.013523,0.002678,0.000431,0.627836
7739000,0.0324,0.013523,0.002678,0.000431,0.604095
7740000,0.0324,0.013523,0.002678,0.000431,0.624310
7741000,0.0324,0.013523,0.002678,0.000431,0.615025
7742000,0.0324,0.013523,0.002678,0.000431,0.630891
7743000,0.0324,0.013523,0.002678,0.000431,0.630069
7744000,0.0324,0.013523,0.002678,0.000431,0.629481
7745000,0.0324,0.013523,0.002678,0.000431,0.622194
7746000,0.0324,0.013523,0.002678,0.000431,0.618433
7747000,0.0324,0.013523,0.002678,0.000431,0.610089
7748000,0.0324,0.013523,0.002678,0.000431,0.617493
7749000,0.0324,0.013523,0.002678,0.000431,0.600099
7750000,0.0324,0.013523,0.002678,0.000431,0.617728
7751000,0.0324,0.013523,0.002678,0.000431,0.606445
7752000,0.0324,0.013523,0.002678,0.000431,0.612674
7753000,0.0324,0.013523,0.002678,0.000431,0.598571
7754000,0.0324,0.013523,0.002678,0.000431,0.626190
7755000,0.0324,0.013523,0.002678,0.000431,0.611617
7756000,0.0324,0.013523,0.002678,0.000431,0.622782
7757000,0.0324,0.013523,0.002678,0.000431,0.604447
7758000,0.0324,0.013523,0.002678,0.000431,0.612087
7759000,0.0324,0.013523,0.002678,0.000431,0.610441
7760000,0.0324,0.013523,0.002678,0.000431,0.606798
7761000,0.0324,0.013523,0.002678,0.000431,0.616905
7762000,0.0324,0.013523,0.002678,0.000431,0.599746
7763000,0.0324,0.013523,0.002678,0.000431,0.625955
7764000,0.0324,0.013523,0.002678,0.000431,0.606210
7765000,0.0324,0.013523,0.002678,0.000431,0.605505
7766000,0.0324,0.013523,0.002678,0.000431,0.628658
7767000,0.0324,0.013523,0.002678,0.000431,0.609854
7768000,0.0324,0.013523,0.002678,0.000431,0.614320
7769000,0.0324,0.013523,0.002678,0.000431,0.616435
7770000,0.0324,0.013523,0.002678,0.000431,0.610794
7771000,0.0324,0.013523,0.002678,0.000431,0.635357
7772000,0.0324,0.013523,0.002678,0.000431,0.631361
7773000,0.0324,0.013523,0.002678,0.000431,0.625955
7774000,0.0324,0.013523,0.002678,0.000431,0.615260
7775000,0.0324,0.013523,0.002678,0.000431,0.618786
7776000,0.0324,0.013523,0.002678,0.000431,0.611147
7777000,0.0324,0.013523,0.002678,0.000431,0.614437
7778000,0.0324,0.013523,0.002678,0.000431,0.616083
7779000,0.0324,0.013523,0.002678,0.000431,0.616788
7780000,0.0324,0.013523,0.002678,0.000431,0.599276
7781000,0.0324,0.013523,0.002678,0.000431,0.626660
7782000,0.0324,0.013523,0.002678,0.000431,0.614672
7783000,0.0324,0.013523,0.002678,0.000431,0.620079
7784000,0.0324,0.013523,0.002678,0.000431,0.610559
7785000,0.0324,0.013523,0.002678,0.000431,0.613732
7786000,0.0324,0.013523,0.002678,0.000431,0.629481
7787000,0.0324,0.013523,0.002678,0.000431,0.607151
7788000,0.0324,0.013523,0.002678,0.000431,0.618081
7789000,0.0324,0.013523,0.002678,0.000431,0.619844
7790000,0.0324,0.013523,0.002678,0.000431,0.619374
7791000,0.0324,0.013523,0.002678,0.000431,0.608914
7792000,0.0324,0.013523,0.002678,0.000431,0.622077
7793000,0.0324,0.013523,0.002678,0.000431,0.602214
7794000,0.0324,0.013523,0.002678,0.000431,0.603155
7795000,0.0324,0.013523,0.002678,0.000431,0.605975
7796000,0.0324,0.013523,0.002678,0.000431,0.604212
7797000,0.0324,0.013523,0.002678,0.000431,0.608561
7798000,0.0324,0.013523,0.002678,0.000431,0.597748
7799000,0.0324,0.013523,0.002678,0.000431,0.629246
7800000,0.0324,0.013523,0.002678,0.000431,0.609971
7801000,0.0324,0.013523,0.002678,0.000431,0.608914
7802000,0.0324,0.013523,0.002678,0.000431,0.627953
7803000,0.0324,0.013523,0.002678,0.000431,0.631126
7804000,0.0324,0.013523,0.002678,0.000431,0.617728
7805000,0.0324,0.013523,0.002678,0.000431,0.609736
7806000,0.0324,0.013523,0.002678,0.000431,0.622899
7807000,0.0324,0.013523,0.002678,0.000431,0.609149
7808000,0.0324,0.013523,0.002678,0.000431,0.612322
7809000,0.0324,0.013523,0.002678,0.000431,0.624192
7810000,0.0324,0.013523,0.002678,0.000431,0.622194
7811000,0.0324,0.013523,0.002678,0.000431,0.626308
7812000,0.0324,0.013523,0.002678,0.000431,0.606798
7813000,0.0324,0.013523,0.002678,0.000431,0.627483
7814000,0.0324,0.013523,0.002678,0.000431,0.616435
7815000,0.0324,0.013523,0.002678,0.000431,0.626073
7816000,0.0324,0.013523,0.002678,0.000431,0.606328
7817000,0.0324,0.013523,0.002678,0.000431,0.633124
7818000,0.0324,0.013523,0.002678,0.000431,0.625250
7819000,0.0324,0.013523,0.002678,0.000431,0.611264
7820000,0.0324,0.013523,0.002678,0.000431,0.622077
7821000,0.0324,0.013523,0.002678,0.000431,0.644525
7822000,0.0324,0.013523,0.002678,0.000431,0.620549
7823000,0.0324,0.013523,0.002678,0.000431,0.629481
7824000,0.0324,0.013523,0.002678,0.000431,0.625250
7825000,0.0324,0.013523,0.002678,0.000431,0.635005
7826000,0.0324,0.013523,0.002678,0.000431,0.603390
7827000,0.0324,0.013523,0.002678,0.000431,0.630304
7828000,0.0324,0.013523,0.002678,0.000431,0.619961
7829000,0.0324,0.013523,0.002678,0.000431,0.623252
7830000,0.0324,0.013523,0.002678,0.000431,0.632184
7831000,0.0324,0.013523,0.002678,0.000431,0.616318
7832000,0.0324,0.013523,0.002678,0.000431,0.639353
7833000,0.0324,0.013523,0.002678,0.000431,0.625720
7834000,0.0324,0.013523,0.002678,0.000431,0.637943
7835000,0.0324,0.013523,0.002678,0.000431,0.628893
7836000,0.0324,0.013523,0.002678,0.000431,0.640294
7837000,0.0324,0.013523,0.002678,0.000431,0.621724
7838000,0.0324,0.013523,0.002678,0.000431,0.616200
7839000,0.0324,0.013523,0.002678,0.000431,0.606798
7840000,0.0324,0.013523,0.002678,0.000431,0.628541
7841000,0.0324,0.013523,0.002678,0.000431,0.601744
7842000,0.0324,0.013523,0.002678,0.000431,0.606445
7843000,0.0324,0.013523,0.002678,0.000431,0.610324
7844000,0.0324,0.013523,0.002678,0.000431,0.605975
7845000,0.0324,0.013523,0.002678,0.000431,0.622899
7846000,0.0324,0.013523,0.002678,0.000431,0.612322
7847000,0.0324,0.013523,0.002678,0.000431,0.623840
7848000,0.0324,0.013523,0.002678,0.000431,0.629363
7849000,0.0324,0.013523,0.002678,0.000431,0.600922
7850000,0.0324,0.013523,0.002678,0.000431,0.617140
7851000,0.0324,0.013523,0.002678,0.000431,0.607151
7852000,0.0324,0.013523,0.002678,0.000431,0.615613
7853000,0.0324,0.013523,0.002678,0.000431,0.612322
7854000,0.0324,0.013523,0.002678,0.000431,0.609031
7855000,0.0324,0.013523,0.002678,0.000431,0.624780
7856000,0.0324,0.013523,0.002678,0.000431,0.603037
7857000,0.0324,0.013523,0.002678,0.000431,0.608678
7858000,0.0324,0.013523,0.002678,0.000431,0.602920
7859000,0.0324,0.013523,0.002678,0.000431,0.616200
7860000,0.0324,0.013523,0.002678,0.000431,0.619256
7861000,0.0324,0.013523,0.002678,0.000431,0.611382
7862000,0.0324,0.013523,0.002678,0.000431,0.587758
7863000,0.0324,0.013523,0.002678,0.000431,0.614437
7864000,0.0324,0.013523,0.002678,0.000431,0.600687
7865000,0.0324,0.013523,0.002678,0.000431,0.602920
7866000,0.0324,0.013523,0.002678,0.000431,0.601979
7867000,0.0324,0.013523,0.002678,0.000431,0.604918
7868000,0.0324,0.013523,0.002678,0.000431,0.611499
7869000,0.0324,0.013523,0.002678,0.000431,0.607503
7870000,0.0324,0.013523,0.002678,0.000431,0.594340
7871000,0.0324,0.013523,0.002678,0.000431,0.609971
7872000,0.0324,0.013523,0.002678,0.000431,0.595163
7873000,0.0324,0.013523,0.002678,0.000431,0.613732
7874000,0.0324,0.013523,0.002678,0.000431,0.614672
7875000,0.0324,0.013523,0.002678,0.000431,0.637943
7876000,0.0324,0.013523,0.002678,0.000431,0.617258
7877000,0.0324,0.013523,0.002678,0.000431,0.645230
7878000,0.0324,0.013523,0.002678,0.000431,0.620314
7879000,0.0324,0.013523,0.002678,0.000431,0.617963
7880000,0.0324,0.013523,0.002678,0.000431,0.622899
7881000,0.0324,0.013523,0.002678,0.000431,0.628306
7882000,0.0324,0.013523,0.002678,0.000431,0.604095
7883000,0.0324,0.013523,0.002678,0.000431,0.631126
7884000,0.0324,0.013523,0.002678,0.000431,0.612439
7885000,0.0324,0.013523,0.002678,0.000431,0.612557
7886000,0.0324,0.013523,0.002678,0.000431,0.599511
7887000,0.0324,0.013523,0.002678,0.000431,0.629951
7888000,0.0324,0.013523,0.002678,0.000431,0.610676
7889000,0.0324,0.013523,0.002678,0.000431,0.614085
7890000,0.0324,0.013523,0.002678,0.000431,0.617258
7891000,0.0324,0.013523,0.002678,0.000431,0.608091
7892000,0.0324,0.013523,0.002678,0.000431,0.605858
7893000,0.0324,0.013523,0.002678,0.000431,0.596926
7894000,0.0324,0.013523,0.002678,0.000431,0.613262
7895000,0.0324,0.013523,0.002678,0.000431,0.615025
7896000,0.0324,0.013523,0.002678,0.000431,0.590227
7897000,0.0324,0.013523,0.002678,0.000431,0.605623
7898000,0.0324,0.013523,0.002678,0.000431,0.590697
7899000,0.0324,0.013523,0.002678,0.000431,0.601039
7900000,0.0324,0.013523,0.002678,0.000431,0.585290
7901000,0.0324,0.013523,0.002678,0.000431,0.577181
7902000,0.0324,0.013523,0.002678,0.000431,0.595280
7903000,0.0324,0.013523,0.002678,0.000431,0.622782
7904000,0.0324,0.013523,0.002678,0.000431,0.614672
7905000,0.0324,0.013523,0.002678,0.000431,0.610676
7906000,0.0324,0.013523,0.002678,0.000431,0.606916
7907000,0.0324,0.013523,0.002678,0.000431,0.592812
7908000,0.0324,0.013523,0.002678,0.000431,0.608796
7909000,0.0324,0.013523,0.002678,0.000431,0.606093
7910000,0.0324,0.013523,0.002678,0.000431,0.611029
7911000,0.0324,0.013523,0.002678,0.000431,0.625720
7912000,0.0324,0.013523,0.002678,0.000431,0.642409
7913000,0.0324,0.013523,0.002678,0.000431,0.633007
7914000,0.0324,0.013523,0.002678,0.000431,0.625367
7915000,0.0324,0.013523,0.002678,0.000431,0.621372
7916000,0.0324,0.013523,0.002678,0.000431,0.619491
7917000,0.0324,0.013523,0.002678,0.000431,0.619021
7918000,0.0324,0.013523,0.002678,0.000431,0.621254
7919000,0.0324,0.013523,0.002678,0.000431,0.606680
7920000,0.0324,0.013523,0.002678,0.000431,0.580589
7921000,0.0324,0.013523,0.002678,0.000431,0.598924
7922000,0.0324,0.013523,0.002678,0.000431,0.588229
7923000,0.0324,0.013523,0.002678,0.000431,0.610441
7924000,0.0324,0.013523,0.002678,0.000431,0.614202
7925000,0.0324,0.013523,0.002678,0.000431,0.611734
7926000,0.0324,0.013523,0.002678,0.000431,0.593635
7927000,0.0324,0.013523,0.002678,0.000431,0.611617
7928000,0.0324,0.013523,0.002678,0.000431,0.584938
7929000,0.0324,0.013523,0.002678,0.000431,0.585525
7930000,0.0324,0.013523,0.002678,0.000431,0.589756
7931000,0.0324,0.013523,0.002678,0.000431,0.612322
7932000,0.0324,0.013523,0.002678,0.000431,0.585525
7933000,0.0324,0.013523,0.002678,0.000431,0.576476
7934000,0.0324,0.013523,0.002678,0.000431,0.590932
7935000,0.0324,0.013523,0.002678,0.000431,0.599629
7936000,0.0324,0.013523,0.002678,0.000431,0.599276
7937000,0.0324,0.013523,0.002678,0.000431,0.589639
7938000,0.0324,0.013523,0.002678,0.000431,0.594105
7939000,0.0324,0.013523,0.002678,0.000431,0.596103
7940000,0.0324,0.013523,0.002678,0.000431,0.608914
7941000,0.0324,0.013523,0.002678,0.000431,0.598454
7942000,0.0324,0.013523,0.002678,0.000431,0.598336
7943000,0.0324,0.013523,0.002678,0.000431,0.599511
7944000,0.0324,0.013523,0.002678,0.000431,0.602802
7945000,0.0324,0.013523,0.002678,0.000431,0.601509
7946000,0.0324,0.013523,0.002678,0.000431,0.627483
7947000,0.0324,0.013523,0.002678,0.000431,0.590932
7948000,0.0324,0.013523,0.002678,0.000431,0.602097
7949000,0.0324,0.013523,0.002678,0.000431,0.604918
7950000,0.0324,0.013523,0.002678,0.000431,0.622077
7951000,0.0324,0.013523,0.002678,0.000431,0.628306
7952000,0.0324,0.013523,0.002678,0.000431,0.638178
7953000,0.0324,0.013523,0.002678,0.000431,0.647580
7954000,0.0324,0.013523,0.002678,0.000431,0.638531
7955000,0.0324,0.013523,0.002678,0.000431,0.645230
7956000,0.0324,0.013523,0.002678,0.000431,0.630891
7957000,0.0324,0.013523,0.002678,0.000431,0.611029
7958000,0.0324,0.013523,0.002678,0.000431,0.610089
7959000,0.0324,0.013523,0.002678,0.000431,0.618551
7960000,0.0324,0.013523,0.002678,0.000431,0.590932
7961000,0.0324,0.013523,0.002678,0.000431,0.565311
7962000,0.0324,0.013523,0.002678,0.000431,0.627013
7963000,0.0324,0.013523,0.002678,0.000431,0.642409
7964000,0.0324,0.013523,0.002678,0.000431,0.623957
7965000,0.0324,0.013523,0.002678,0.000431,0.586466
7966000,0.0324,0.013523,0.002678,0.000431,0.626425
7967000,0.0324,0.013523,0.002678,0.000431,0.643937
7968000,0.0324,0.013523,0.002678,0.000431,0.648403
7969000,0.0324,0.013523,0.002678,0.000431,0.623840
7970000,0.0324,0.013523,0.002678,0.000431,0.622664
7971000,0.0324,0.013523,0.002678,0.000431,0.605858
7972000,0.0324,0.013523,0.002678,0.000431,0.636885
7973000,0.0324,0.013523,0.002678,0.000431,0.646875
7974000,0.0324,0.013523,0.002678,0.000431,0.632537
7975000,0.0324,0.013523,0.002678,0.000431,0.623252
7976000,0.0324,0.013523,0.002678,0.000431,0.649813
7977000,0.0324,0.013523,0.002678,0.000431,0.593047
7978000,0.0324,0.013523,0.002678,0.000431,0.604330
7979000,0.0324,0.013523,0.002678,0.000431,0.604212
7980000,0.0324,0.013523,0.002678,0.000431,0.630774
7981000,0.0324,0.013523,0.002678,0.000431,0.640294
7982000,0.0324,0.013523,0.002678,0.000431,0.580589
7983000,0.0324,0.013523,0.002678,0.000431,0.610676
7984000,0.0324,0.013523,0.002678,0.000431,0.585408
7985000,0.0324,0.013523,0.002678,0.000431,0.606210
7986000,0.0324,0.013523,0.002678,0.000431,0.632067
7987000,0.0324,0.013523,0.002678,0.000431,0.634300
7988000,0.0324,0.013523,0.002678,0.000431,0.614437
7989000,0.0324,0.013523,0.002678,0.000431,0.611264
7990000,0.0324,0.013523,0.002678,0.000431,0.588111
7991000,0.0324,0.013523,0.002678,0.000431,0.605035
7992000,0.0324,0.013523,0.002678,0.000431,0.572715
7993000,0.0324,0.013523,0.002678,0.000431,0.614202
7994000,0.0324,0.013523,0.002678,0.000431,0.604447
7995000,0.0324,0.013523,0.002678,0.000431,0.590227
7996000,0.0324,0.013523,0.002678,0.000431,0.578474
7997000,0.0324,0.013523,0.002678,0.000431,0.619021
7998000,0.0324,0.013523,0.002678,0.000431,0.609384
7999000,0.0324,0.013523,0.002678,0.000431,0.623134
