Cycle,Area(mm^2),PeakDynamic(W),SubthresholdLeakage(W),GateLeakage(W),RunTimeDynamic(W)
1000000,0.0324,0.013523,0.002678,0.000431,0.715512
1001000,0.0324,0.013523,0.002678,0.000431,0.728910
1002000,0.0324,0.013523,0.002678,0.000431,0.743483
1003000,0.0324,0.013523,0.002678,0.000431,0.684367
1004000,0.0324,0.013523,0.002678,0.000431,0.724326
1005000,0.0324,0.013523,0.002678,0.000431,0.750065
1006000,0.0324,0.013523,0.002678,0.000431,0.741368
1007000,0.0324,0.013523,0.002678,0.000431,0.653339
1008000,0.0324,0.013523,0.002678,0.000431,0.680018
1009000,0.0324,0.013523,0.002678,0.000431,0.781797
1010000,0.0324,0.013523,0.002678,0.000431,0.714689
1011000,0.0324,0.013523,0.002678,0.000431,0.729380
1012000,0.0324,0.013523,0.002678,0.000431,0.692594
1013000,0.0324,0.013523,0.002678,0.000431,0.748302
1014000,0.0324,0.013523,0.002678,0.000431,0.747832
1015000,0.0324,0.013523,0.002678,0.000431,0.733023
1016000,0.0324,0.013523,0.002678,0.000431,0.728322
1017000,0.0324,0.013523,0.002678,0.000431,0.724679
1018000,0.0324,0.013523,0.002678,0.000431,0.709870
1019000,0.0324,0.013523,0.002678,0.000431,0.688010
1020000,0.0324,0.013523,0.002678,0.000431,0.794608
1021000,0.0324,0.013523,0.002678,0.000431,0.764873
1022000,0.0324,0.013523,0.002678,0.000431,0.750300
1023000,0.0324,0.013523,0.002678,0.000431,0.735139
1024000,0.0324,0.013523,0.002678,0.000431,0.739135
1025000,0.0324,0.013523,0.002678,0.000431,0.753238
1026000,0.0324,0.013523,0.002678,0.000431,0.735374
1027000,0.0324,0.013523,0.002678,0.000431,0.809417
1028000,0.0324,0.013523,0.002678,0.000431,0.738782
1029000,0.0324,0.013523,0.002678,0.000431,0.743601
1030000,0.0324,0.013523,0.002678,0.000431,0.756176
1031000,0.0324,0.013523,0.002678,0.000431,0.740545
1032000,0.0324,0.013523,0.002678,0.000431,0.756176
1033000,0.0324,0.013523,0.002678,0.000431,0.724561
1034000,0.0324,0.013523,0.002678,0.000431,0.733023
1035000,0.0324,0.013523,0.002678,0.000431,0.707285
1036000,0.0324,0.013523,0.002678,0.000431,0.739722
1037000,0.0324,0.013523,0.002678,0.000431,0.731143
1038000,0.0324,0.013523,0.002678,0.000431,0.676962
1039000,0.0324,0.013523,0.002678,0.000431,0.725854
1040000,0.0324,0.013523,0.002678,0.000431,0.719743
1041000,0.0324,0.013523,0.002678,0.000431,0.746421
1042000,0.0324,0.013523,0.002678,0.000431,0.730673
1043000,0.0324,0.013523,0.002678,0.000431,0.710575
1044000,0.0324,0.013523,0.002678,0.000431,0.717745
1045000,0.0324,0.013523,0.002678,0.000431,0.715982
1046000,0.0324,0.013523,0.002678,0.000431,0.719390
1047000,0.0324,0.013523,0.002678,0.000431,0.701526
1048000,0.0324,0.013523,0.002678,0.000431,0.705287
1049000,0.0324,0.013523,0.002678,0.000431,0.738782
1050000,0.0324,0.013523,0.002678,0.000431,0.722916
1051000,0.0324,0.013523,0.002678,0.000431,0.712573
1052000,0.0324,0.013523,0.002678,0.000431,0.692594
1053000,0.0324,0.013523,0.002678,0.000431,0.715159
1054000,0.0324,0.013523,0.002678,0.000431,0.711986
1055000,0.0324,0.013523,0.002678,0.000431,0.751593
1056000,0.0324,0.013523,0.002678,0.000431,0.737254
1057000,0.0324,0.013523,0.002678,0.000431,0.745481
1058000,0.0324,0.013523,0.002678,0.000431,0.758409
1059000,0.0324,0.013523,0.002678,0.000431,0.758997
1060000,0.0324,0.013523,0.002678,0.000431,0.761230
1061000,0.0324,0.013523,0.002678,0.000431,0.702819
1062000,0.0324,0.013523,0.002678,0.000431,0.725737
1063000,0.0324,0.013523,0.002678,0.000431,0.731848
1064000,0.0324,0.013523,0.002678,0.000431,0.718450
1065000,0.0324,0.013523,0.002678,0.000431,0.709165
1066000,0.0324,0.013523,0.002678,0.000431,0.733141
1067000,0.0324,0.013523,0.002678,0.000431,0.728440
1068000,0.0324,0.013523,0.002678,0.000431,0.723503
1069000,0.0324,0.013523,0.002678,0.000431,0.683779
1070000,0.0324,0.013523,0.002678,0.000431,0.708225
1071000,0.0324,0.013523,0.002678,0.000431,0.733493
1072000,0.0324,0.013523,0.002678,0.000431,0.708225
1073000,0.0324,0.013523,0.002678,0.000431,0.737959
1074000,0.0324,0.013523,0.002678,0.000431,0.745716
1075000,0.0324,0.013523,0.002678,0.000431,0.767694
1076000,0.0324,0.013523,0.002678,0.000431,0.723503
1077000,0.0324,0.013523,0.002678,0.000431,0.714689
1078000,0.0324,0.013523,0.002678,0.000431,0.749360
1079000,0.0324,0.013523,0.002678,0.000431,0.754766
1080000,0.0324,0.013523,0.002678,0.000431,0.755471
1081000,0.0324,0.013523,0.002678,0.000431,0.766989
1082000,0.0324,0.013523,0.002678,0.000431,0.738312
1083000,0.0324,0.013523,0.002678,0.000431,0.736197
1084000,0.0324,0.013523,0.002678,0.000431,0.744541
1085000,0.0324,0.013523,0.002678,0.000431,0.709165
1086000,0.0324,0.013523,0.002678,0.000431,0.713043
1087000,0.0324,0.013523,0.002678,0.000431,0.726912
1088000,0.0324,0.013523,0.002678,0.000431,0.732788
1089000,0.0324,0.013523,0.002678,0.000431,0.719390
1090000,0.0324,0.013523,0.002678,0.000431,0.752533
1091000,0.0324,0.013523,0.002678,0.000431,0.739722
1092000,0.0324,0.013523,0.002678,0.000431,0.749712
1093000,0.0324,0.013523,0.002678,0.000431,0.720683
1094000,0.0324,0.013523,0.002678,0.000431,0.698705
1095000,0.0324,0.013523,0.002678,0.000431,0.698588
1096000,0.0324,0.013523,0.002678,0.000431,0.710693
1097000,0.0324,0.013523,0.002678,0.000431,0.737019
1098000,0.0324,0.013523,0.002678,0.000431,0.708225
1099000,0.0324,0.013523,0.002678,0.000431,0.733963
1100000,0.0324,0.013523,0.002678,0.000431,0.727852
1101000,0.0324,0.013523,0.002678,0.000431,0.734316
1102000,0.0324,0.013523,0.002678,0.000431,0.709400
1103000,0.0324,0.013523,0.002678,0.000431,0.722681
1104000,0.0324,0.013523,0.002678,0.000431,0.744188
1105000,0.0324,0.013523,0.002678,0.000431,0.710340
1106000,0.0324,0.013523,0.002678,0.000431,0.714571
1107000,0.0324,0.013523,0.002678,0.000431,0.730203
1108000,0.0324,0.013523,0.002678,0.000431,0.733611
1109000,0.0324,0.013523,0.002678,0.000431,0.725972
1110000,0.0324,0.013523,0.002678,0.000431,0.723151
1111000,0.0324,0.013523,0.002678,0.000431,0.747479
1112000,0.0324,0.013523,0.002678,0.000431,0.727382
1113000,0.0324,0.013523,0.002678,0.000431,0.695884
1114000,0.0324,0.013523,0.002678,0.000431,0.686482
1115000,0.0324,0.013523,0.002678,0.000431,0.725031
1116000,0.0324,0.013523,0.002678,0.000431,0.694239
1117000,0.0324,0.013523,0.002678,0.000431,0.725031
1118000,0.0324,0.013523,0.002678,0.000431,0.724444
1119000,0.0324,0.013523,0.002678,0.000431,0.708930
1120000,0.0324,0.013523,0.002678,0.000431,0.718685
1121000,0.0324,0.013523,0.002678,0.000431,0.726912
1122000,0.0324,0.013523,0.002678,0.000431,0.696942
1123000,0.0324,0.013523,0.002678,0.000431,0.708695
1124000,0.0324,0.013523,0.002678,0.000431,0.739017
1125000,0.0324,0.013523,0.002678,0.000431,0.745364
1126000,0.0324,0.013523,0.002678,0.000431,0.725149
1127000,0.0324,0.013523,0.002678,0.000431,0.724914
1128000,0.0324,0.013523,0.002678,0.000431,0.719390
1129000,0.0324,0.013523,0.002678,0.000431,0.715041
1130000,0.0324,0.013523,0.002678,0.000431,0.712456
1131000,0.0324,0.013523,0.002678,0.000431,0.704817
1132000,0.0324,0.013523,0.002678,0.000431,0.743483
1133000,0.0324,0.013523,0.002678,0.000431,0.744659
1134000,0.0324,0.013523,0.002678,0.000431,0.735139
1135000,0.0324,0.013523,0.002678,0.000431,0.697060
1136000,0.0324,0.013523,0.002678,0.000431,0.731966
1137000,0.0324,0.013523,0.002678,0.000431,0.714336
1138000,0.0324,0.013523,0.002678,0.000431,0.707167
1139000,0.0324,0.013523,0.002678,0.000431,0.713279
1140000,0.0324,0.013523,0.002678,0.000431,0.671086
1141000,0.0324,0.013523,0.002678,0.000431,0.723151
1142000,0.0324,0.013523,0.002678,0.000431,0.692241
1143000,0.0324,0.013523,0.002678,0.000431,0.701291
1144000,0.0324,0.013523,0.002678,0.000431,0.698940
1145000,0.0324,0.013523,0.002678,0.000431,0.697295
1146000,0.0324,0.013523,0.002678,0.000431,0.723386
1147000,0.0324,0.013523,0.002678,0.000431,0.692594
1148000,0.0324,0.013523,0.002678,0.000431,0.709283
1149000,0.0324,0.013523,0.002678,0.000431,0.710458
1150000,0.0324,0.013523,0.002678,0.000431,0.698000
1151000,0.0324,0.013523,0.002678,0.000431,0.704934
1152000,0.0324,0.013523,0.002678,0.000431,0.694004
1153000,0.0324,0.013523,0.002678,0.000431,0.689185
1154000,0.0324,0.013523,0.002678,0.000431,0.672144
1155000,0.0324,0.013523,0.002678,0.000431,0.668265
1156000,0.0324,0.013523,0.002678,0.000431,0.702583
1157000,0.0324,0.013523,0.002678,0.000431,0.714571
1158000,0.0324,0.013523,0.002678,0.000431,0.738430
1159000,0.0324,0.013523,0.002678,0.000431,0.710575
1160000,0.0324,0.013523,0.002678,0.000431,0.735844
1161000,0.0324,0.013523,0.002678,0.000431,0.711751
1162000,0.0324,0.013523,0.002678,0.000431,0.698470
1163000,0.0324,0.013523,0.002678,0.000431,0.745951
1164000,0.0324,0.013523,0.002678,0.000431,0.723503
1165000,0.0324,0.013523,0.002678,0.000431,0.712808
1166000,0.0324,0.013523,0.002678,0.000431,0.678373
1167000,0.0324,0.013523,0.002678,0.000431,0.712103
1168000,0.0324,0.013523,0.002678,0.000431,0.680253
1169000,0.0324,0.013523,0.002678,0.000431,0.699763
1170000,0.0324,0.013523,0.002678,0.000431,0.727264
1171000,0.0324,0.013523,0.002678,0.000431,0.744306
1172000,0.0324,0.013523,0.002678,0.000431,0.714571
1173000,0.0324,0.013523,0.002678,0.000431,0.692359
1174000,0.0324,0.013523,0.002678,0.000431,0.685659
1175000,0.0324,0.013523,0.002678,0.000431,0.661801
1176000,0.0324,0.013523,0.002678,0.000431,0.674259
1177000,0.0324,0.013523,0.002678,0.000431,0.706109
1178000,0.0324,0.013523,0.002678,0.000431,0.695532
1179000,0.0324,0.013523,0.002678,0.000431,0.678138
1180000,0.0324,0.013523,0.002678,0.000431,0.702936
1181000,0.0324,0.013523,0.002678,0.000431,0.675787
1182000,0.0324,0.013523,0.002678,0.000431,0.695062
1183000,0.0324,0.013523,0.002678,0.000431,0.700468
1184000,0.0324,0.013523,0.002678,0.000431,0.709165
1185000,0.0324,0.013523,0.002678,0.000431,0.721976
1186000,0.0324,0.013523,0.002678,0.000431,0.754296
1187000,0.0324,0.013523,0.002678,0.000431,0.709518
1188000,0.0324,0.013523,0.002678,0.000431,0.716569
1189000,0.0324,0.013523,0.002678,0.000431,0.720095
1190000,0.0324,0.013523,0.002678,0.000431,0.684719
1191000,0.0324,0.013523,0.002678,0.000431,0.712573
1192000,0.0324,0.013523,0.002678,0.000431,0.707520
1193000,0.0324,0.013523,0.002678,0.000431,0.704346
1194000,0.0324,0.013523,0.002678,0.000431,0.732436
1195000,0.0324,0.013523,0.002678,0.000431,0.707050
1196000,0.0324,0.013523,0.002678,0.000431,0.698940
1197000,0.0324,0.013523,0.002678,0.000431,0.701408
1198000,0.0324,0.013523,0.002678,0.000431,0.676845
1199000,0.0324,0.013523,0.002678,0.000431,0.724679
1200000,0.0324,0.013523,0.002678,0.000431,0.691536
1201000,0.0324,0.013523,0.002678,0.000431,0.685659
1202000,0.0324,0.013523,0.002678,0.000431,0.727499
1203000,0.0324,0.013523,0.002678,0.000431,0.712103
1204000,0.0324,0.013523,0.002678,0.000431,0.697765
1205000,0.0324,0.013523,0.002678,0.000431,0.712808
1206000,0.0324,0.013523,0.002678,0.000431,0.741955
1207000,0.0324,0.013523,0.002678,0.000431,0.713749
1208000,0.0324,0.013523,0.002678,0.000431,0.731260
1209000,0.0324,0.013523,0.002678,0.000431,0.720800
1210000,0.0324,0.013523,0.002678,0.000431,0.713866
1211000,0.0324,0.013523,0.002678,0.000431,0.641116
1212000,0.0324,0.013523,0.002678,0.000431,0.731025
1213000,0.0324,0.013523,0.002678,0.000431,0.716804
1214000,0.0324,0.013523,0.002678,0.000431,0.722681
1215000,0.0324,0.013523,0.002678,0.000431,0.696825
1216000,0.0324,0.013523,0.002678,0.000431,0.729262
1217000,0.0324,0.013523,0.002678,0.000431,0.731143
1218000,0.0324,0.013523,0.002678,0.000431,0.731848
1219000,0.0324,0.013523,0.002678,0.000431,0.725737
1220000,0.0324,0.013523,0.002678,0.000431,0.727264
1221000,0.0324,0.013523,0.002678,0.000431,0.706109
1222000,0.0324,0.013523,0.002678,0.000431,0.709988
1223000,0.0324,0.013523,0.002678,0.000431,0.714806
1224000,0.0324,0.013523,0.002678,0.000431,0.747714
1225000,0.0324,0.013523,0.002678,0.000431,0.716804
1226000,0.0324,0.013523,0.002678,0.000431,0.696707
1227000,0.0324,0.013523,0.002678,0.000431,0.660156
1228000,0.0324,0.013523,0.002678,0.000431,0.668735
1229000,0.0324,0.013523,0.002678,0.000431,0.700233
1230000,0.0324,0.013523,0.002678,0.000431,0.725619
1231000,0.0324,0.013523,0.002678,0.000431,0.746421
1232000,0.0324,0.013523,0.002678,0.000431,0.716922
1233000,0.0324,0.013523,0.002678,0.000431,0.712691
1234000,0.0324,0.013523,0.002678,0.000431,0.714219
1235000,0.0324,0.013523,0.002678,0.000431,0.722328
1236000,0.0324,0.013523,0.002678,0.000431,0.736902
1237000,0.0324,0.013523,0.002678,0.000431,0.717745
1238000,0.0324,0.013523,0.002678,0.000431,0.717157
1239000,0.0324,0.013523,0.002678,0.000431,0.698705
1240000,0.0324,0.013523,0.002678,0.000431,0.680253
1241000,0.0324,0.013523,0.002678,0.000431,0.700115
1242000,0.0324,0.013523,0.002678,0.000431,0.715982
1243000,0.0324,0.013523,0.002678,0.000431,0.699528
1244000,0.0324,0.013523,0.002678,0.000431,0.690125
1245000,0.0324,0.013523,0.002678,0.000431,0.713514
1246000,0.0324,0.013523,0.002678,0.000431,0.707872
1247000,0.0324,0.013523,0.002678,0.000431,0.699645
1248000,0.0324,0.013523,0.002678,0.000431,0.684602
1249000,0.0324,0.013523,0.002678,0.000431,0.691418
1250000,0.0324,0.013523,0.002678,0.000431,0.681076
1251000,0.0324,0.013523,0.002678,0.000431,0.720565
1252000,0.0324,0.013523,0.002678,0.000431,0.708225
1253000,0.0324,0.013523,0.002678,0.000431,0.728322
1254000,0.0324,0.013523,0.002678,0.000431,0.744894
1255000,0.0324,0.013523,0.002678,0.000431,0.712338
1256000,0.0324,0.013523,0.002678,0.000431,0.698235
1257000,0.0324,0.013523,0.002678,0.000431,0.703054
1258000,0.0324,0.013523,0.002678,0.000431,0.705992
1259000,0.0324,0.013523,0.002678,0.000431,0.706227
1260000,0.0324,0.013523,0.002678,0.000431,0.703406
1261000,0.0324,0.013523,0.002678,0.000431,0.723151
1262000,0.0324,0.013523,0.002678,0.000431,0.711163
1263000,0.0324,0.013523,0.002678,0.000431,0.705757
1264000,0.0324,0.013523,0.002678,0.000431,0.700821
1265000,0.0324,0.013523,0.002678,0.000431,0.714336
1266000,0.0324,0.013523,0.002678,0.000431,0.703289
1267000,0.0324,0.013523,0.002678,0.000431,0.692006
1268000,0.0324,0.013523,0.002678,0.000431,0.699998
1269000,0.0324,0.013523,0.002678,0.000431,0.708812
1270000,0.0324,0.013523,0.002678,0.000431,0.693416
1271000,0.0324,0.013523,0.002678,0.000431,0.693181
1272000,0.0324,0.013523,0.002678,0.000431,0.725149
1273000,0.0324,0.013523,0.002678,0.000431,0.728557
1274000,0.0324,0.013523,0.002678,0.000431,0.686012
1275000,0.0324,0.013523,0.002678,0.000431,0.685072
1276000,0.0324,0.013523,0.002678,0.000431,0.691888
1277000,0.0324,0.013523,0.002678,0.000431,0.700233
1278000,0.0324,0.013523,0.002678,0.000431,0.700233
1279000,0.0324,0.013523,0.002678,0.000431,0.691536
1280000,0.0324,0.013523,0.002678,0.000431,0.722328
1281000,0.0324,0.013523,0.002678,0.000431,0.731143
1282000,0.0324,0.013523,0.002678,0.000431,0.725266
1283000,0.0324,0.013523,0.002678,0.000431,0.701173
1284000,0.0324,0.013523,0.002678,0.000431,0.679195
1285000,0.0324,0.013523,0.002678,0.000431,0.703171
1286000,0.0324,0.013523,0.002678,0.000431,0.700233
1287000,0.0324,0.013523,0.002678,0.000431,0.734316
1288000,0.0324,0.013523,0.002678,0.000431,0.703406
1289000,0.0324,0.013523,0.002678,0.000431,0.693769
1290000,0.0324,0.013523,0.002678,0.000431,0.696472
1291000,0.0324,0.013523,0.002678,0.000431,0.675199
1292000,0.0324,0.013523,0.002678,0.000431,0.685542
1293000,0.0324,0.013523,0.002678,0.000431,0.690831
1294000,0.0324,0.013523,0.002678,0.000431,0.704346
1295000,0.0324,0.013523,0.002678,0.000431,0.707990
1296000,0.0324,0.013523,0.002678,0.000431,0.732318
1297000,0.0324,0.013523,0.002678,0.000431,0.714101
1298000,0.0324,0.013523,0.002678,0.000431,0.693886
1299000,0.0324,0.013523,0.002678,0.000431,0.676375
1300000,0.0324,0.013523,0.002678,0.000431,0.692594
1301000,0.0324,0.013523,0.002678,0.000431,0.712456
1302000,0.0324,0.013523,0.002678,0.000431,0.700468
1303000,0.0324,0.013523,0.002678,0.000431,0.698588
1304000,0.0324,0.013523,0.002678,0.000431,0.679313
1305000,0.0324,0.013523,0.002678,0.000431,0.691888
1306000,0.0324,0.013523,0.002678,0.000431,0.690596
1307000,0.0324,0.013523,0.002678,0.000431,0.713161
1308000,0.0324,0.013523,0.002678,0.000431,0.710810
1309000,0.0324,0.013523,0.002678,0.000431,0.682369
1310000,0.0324,0.013523,0.002678,0.000431,0.700233
1311000,0.0324,0.013523,0.002678,0.000431,0.706227
1312000,0.0324,0.013523,0.002678,0.000431,0.723974
1313000,0.0324,0.013523,0.002678,0.000431,0.686247
1314000,0.0324,0.013523,0.002678,0.000431,0.698588
1315000,0.0324,0.013523,0.002678,0.000431,0.684719
1316000,0.0324,0.013523,0.002678,0.000431,0.694121
1317000,0.0324,0.013523,0.002678,0.000431,0.711281
1318000,0.0324,0.013523,0.002678,0.000431,0.706932
1319000,0.0324,0.013523,0.002678,0.000431,0.706697
1320000,0.0324,0.013523,0.002678,0.000431,0.707050
1321000,0.0324,0.013523,0.002678,0.000431,0.703876
1322000,0.0324,0.013523,0.002678,0.000431,0.686717
1323000,0.0324,0.013523,0.002678,0.000431,0.666620
1324000,0.0324,0.013523,0.002678,0.000431,0.699880
1325000,0.0324,0.013523,0.002678,0.000431,0.731730
1326000,0.0324,0.013523,0.002678,0.000431,0.738195
1327000,0.0324,0.013523,0.002678,0.000431,0.699410
1328000,0.0324,0.013523,0.002678,0.000431,0.705169
1329000,0.0324,0.013523,0.002678,0.000431,0.687775
1330000,0.0324,0.013523,0.002678,0.000431,0.715159
1331000,0.0324,0.013523,0.002678,0.000431,0.708225
1332000,0.0324,0.013523,0.002678,0.000431,0.725031
1333000,0.0324,0.013523,0.002678,0.000431,0.706697
1334000,0.0324,0.013523,0.002678,0.000431,0.719508
1335000,0.0324,0.013523,0.002678,0.000431,0.709870
1336000,0.0324,0.013523,0.002678,0.000431,0.675317
1337000,0.0324,0.013523,0.002678,0.000431,0.683544
1338000,0.0324,0.013523,0.002678,0.000431,0.716099
1339000,0.0324,0.013523,0.002678,0.000431,0.715629
1340000,0.0324,0.013523,0.002678,0.000431,0.702819
1341000,0.0324,0.013523,0.002678,0.000431,0.714924
1342000,0.0324,0.013523,0.002678,0.000431,0.708342
1343000,0.0324,0.013523,0.002678,0.000431,0.701996
1344000,0.0324,0.013523,0.002678,0.000431,0.699998
1345000,0.0324,0.013523,0.002678,0.000431,0.703759
1346000,0.0324,0.013523,0.002678,0.000431,0.699058
1347000,0.0324,0.013523,0.002678,0.000431,0.721741
1348000,0.0324,0.013523,0.002678,0.000431,0.705639
1349000,0.0324,0.013523,0.002678,0.000431,0.707167
1350000,0.0324,0.013523,0.002678,0.000431,0.711163
1351000,0.0324,0.013523,0.002678,0.000431,0.709283
1352000,0.0324,0.013523,0.002678,0.000431,0.717274
1353000,0.0324,0.013523,0.002678,0.000431,0.706697
1354000,0.0324,0.013523,0.002678,0.000431,0.691301
1355000,0.0324,0.013523,0.002678,0.000431,0.721858
1356000,0.0324,0.013523,0.002678,0.000431,0.708225
1357000,0.0324,0.013523,0.002678,0.000431,0.714571
1358000,0.0324,0.013523,0.002678,0.000431,0.691536
1359000,0.0324,0.013523,0.002678,0.000431,0.697177
1360000,0.0324,0.013523,0.002678,0.000431,0.699410
1361000,0.0324,0.013523,0.002678,0.000431,0.698117
1362000,0.0324,0.013523,0.002678,0.000431,0.712808
1363000,0.0324,0.013523,0.002678,0.000431,0.701761
1364000,0.0324,0.013523,0.002678,0.000431,0.713279
1365000,0.0324,0.013523,0.002678,0.000431,0.745364
1366000,0.0324,0.013523,0.002678,0.000431,0.712573
1367000,0.0324,0.013523,0.002678,0.000431,0.695414
1368000,0.0324,0.013523,0.002678,0.000431,0.718450
1369000,0.0324,0.013523,0.002678,0.000431,0.721976
1370000,0.0324,0.013523,0.002678,0.000431,0.723974
1371000,0.0324,0.013523,0.002678,0.000431,0.734551
1372000,0.0324,0.013523,0.002678,0.000431,0.743483
1373000,0.0324,0.013523,0.002678,0.000431,0.698235
1374000,0.0324,0.013523,0.002678,0.000431,0.683074
1375000,0.0324,0.013523,0.002678,0.000431,0.720213
1376000,0.0324,0.013523,0.002678,0.000431,0.726794
1377000,0.0324,0.013523,0.002678,0.000431,0.720095
1378000,0.0324,0.013523,0.002678,0.000431,0.695767
1379000,0.0324,0.013523,0.002678,0.000431,0.662036
1380000,0.0324,0.013523,0.002678,0.000431,0.672731
1381000,0.0324,0.013523,0.002678,0.000431,0.706697
1382000,0.0324,0.013523,0.002678,0.000431,0.724796
1383000,0.0324,0.013523,0.002678,0.000431,0.681076
1384000,0.0324,0.013523,0.002678,0.000431,0.690008
1385000,0.0324,0.013523,0.002678,0.000431,0.681781
1386000,0.0324,0.013523,0.002678,0.000431,0.680136
1387000,0.0324,0.013523,0.002678,0.000431,0.686835
1388000,0.0324,0.013523,0.002678,0.000431,0.680723
1389000,0.0324,0.013523,0.002678,0.000431,0.712808
1390000,0.0324,0.013523,0.002678,0.000431,0.692359
1391000,0.0324,0.013523,0.002678,0.000431,0.694592
1392000,0.0324,0.013523,0.002678,0.000431,0.708107
1393000,0.0324,0.013523,0.002678,0.000431,0.707755
1394000,0.0324,0.013523,0.002678,0.000431,0.713396
1395000,0.0324,0.013523,0.002678,0.000431,0.714101
1396000,0.0324,0.013523,0.002678,0.000431,0.721153
1397000,0.0324,0.013523,0.002678,0.000431,0.703994
1398000,0.0324,0.013523,0.002678,0.000431,0.704346
1399000,0.0324,0.013523,0.002678,0.000431,0.706579
1400000,0.0324,0.013523,0.002678,0.000431,0.693064
1401000,0.0324,0.013523,0.002678,0.000431,0.716687
1402000,0.0324,0.013523,0.002678,0.000431,0.723386
1403000,0.0324,0.013523,0.002678,0.000431,0.704346
1404000,0.0324,0.013523,0.002678,0.000431,0.676140
1405000,0.0324,0.013523,0.002678,0.000431,0.694827
1406000,0.0324,0.013523,0.002678,0.000431,0.680606
1407000,0.0324,0.013523,0.002678,0.000431,0.694709
1408000,0.0324,0.013523,0.002678,0.000431,0.709283
1409000,0.0324,0.013523,0.002678,0.000431,0.706697
1410000,0.0324,0.013523,0.002678,0.000431,0.681546
1411000,0.0324,0.013523,0.002678,0.000431,0.670733
1412000,0.0324,0.013523,0.002678,0.000431,0.684367
1413000,0.0324,0.013523,0.002678,0.000431,0.706344
1414000,0.0324,0.013523,0.002678,0.000431,0.686247
1415000,0.0324,0.013523,0.002678,0.000431,0.700468
1416000,0.0324,0.013523,0.002678,0.000431,0.670851
1417000,0.0324,0.013523,0.002678,0.000431,0.691418
1418000,0.0324,0.013523,0.002678,0.000431,0.688363
1419000,0.0324,0.013523,0.002678,0.000431,0.701643
1420000,0.0324,0.013523,0.002678,0.000431,0.682251
1421000,0.0324,0.013523,0.002678,0.000431,0.664034
1422000,0.0324,0.013523,0.002678,0.000431,0.668265
1423000,0.0324,0.013523,0.002678,0.000431,0.694592
1424000,0.0324,0.013523,0.002678,0.000431,0.706697
1425000,0.0324,0.013523,0.002678,0.000431,0.690008
1426000,0.0324,0.013523,0.002678,0.000431,0.659803
1427000,0.0324,0.013523,0.002678,0.000431,0.706814
1428000,0.0324,0.013523,0.002678,0.000431,0.716334
1429000,0.0324,0.013523,0.002678,0.000431,0.676375
1430000,0.0324,0.013523,0.002678,0.000431,0.707520
1431000,0.0324,0.013523,0.002678,0.000431,0.703171
1432000,0.0324,0.013523,0.002678,0.000431,0.697647
1433000,0.0324,0.013523,0.002678,0.000431,0.707520
1434000,0.0324,0.013523,0.002678,0.000431,0.682134
1435000,0.0324,0.013523,0.002678,0.000431,0.667090
1436000,0.0324,0.013523,0.002678,0.000431,0.681311
1437000,0.0324,0.013523,0.002678,0.000431,0.713161
1438000,0.0324,0.013523,0.002678,0.000431,0.697530
1439000,0.0324,0.013523,0.002678,0.000431,0.680606
1440000,0.0324,0.013523,0.002678,0.000431,0.690008
1441000,0.0324,0.013523,0.002678,0.000431,0.671439
1442000,0.0324,0.013523,0.002678,0.000431,0.672496
1443000,0.0324,0.013523,0.002678,0.000431,0.686482
1444000,0.0324,0.013523,0.002678,0.000431,0.666032
1445000,0.0324,0.013523,0.002678,0.000431,0.680723
1446000,0.0324,0.013523,0.002678,0.000431,0.701056
1447000,0.0324,0.013523,0.002678,0.000431,0.677667
1448000,0.0324,0.013523,0.002678,0.000431,0.672261
1449000,0.0324,0.013523,0.002678,0.000431,0.673436
1450000,0.0324,0.013523,0.002678,0.000431,0.688363
1451000,0.0324,0.013523,0.002678,0.000431,0.681428
1452000,0.0324,0.013523,0.002678,0.000431,0.656983
1453000,0.0324,0.013523,0.002678,0.000431,0.686247
1454000,0.0324,0.013523,0.002678,0.000431,0.646523
1455000,0.0324,0.013523,0.002678,0.000431,0.672731
1456000,0.0324,0.013523,0.002678,0.000431,0.668030
1457000,0.0324,0.013523,0.002678,0.000431,0.671674
1458000,0.0324,0.013523,0.002678,0.000431,0.685542
1459000,0.0324,0.013523,0.002678,0.000431,0.667795
1460000,0.0324,0.013523,0.002678,0.000431,0.667913
1461000,0.0324,0.013523,0.002678,0.000431,0.685894
1462000,0.0324,0.013523,0.002678,0.000431,0.674377
1463000,0.0324,0.013523,0.002678,0.000431,0.690125
1464000,0.0324,0.013523,0.002678,0.000431,0.669558
1465000,0.0324,0.013523,0.002678,0.000431,0.701291
1466000,0.0324,0.013523,0.002678,0.000431,0.684484
1467000,0.0324,0.013523,0.002678,0.000431,0.671791
1468000,0.0324,0.013523,0.002678,0.000431,0.666502
1469000,0.0324,0.013523,0.002678,0.000431,0.674377
1470000,0.0324,0.013523,0.002678,0.000431,0.707285
1471000,0.0324,0.013523,0.002678,0.000431,0.684837
1472000,0.0324,0.013523,0.002678,0.000431,0.662624
1473000,0.0324,0.013523,0.002678,0.000431,0.681076
1474000,0.0324,0.013523,0.002678,0.000431,0.668500
1475000,0.0324,0.013523,0.002678,0.000431,0.651224
1476000,0.0324,0.013523,0.002678,0.000431,0.661331
1477000,0.0324,0.013523,0.002678,0.000431,0.671556
1478000,0.0324,0.013523,0.002678,0.000431,0.675199
1479000,0.0324,0.013523,0.002678,0.000431,0.665327
1480000,0.0324,0.013523,0.002678,0.000431,0.662154
1481000,0.0324,0.013523,0.002678,0.000431,0.697295
1482000,0.0324,0.013523,0.002678,0.000431,0.672849
1483000,0.0324,0.013523,0.002678,0.000431,0.718567
1484000,0.0324,0.013523,0.002678,0.000431,0.790730
1485000,0.0324,0.013523,0.002678,0.000431,0.752180
1486000,0.0324,0.013523,0.002678,0.000431,0.722093
1487000,0.0324,0.013523,0.002678,0.000431,0.763110
1488000,0.0324,0.013523,0.002678,0.000431,0.733376
1489000,0.0324,0.013523,0.002678,0.000431,0.753121
1490000,0.0324,0.013523,0.002678,0.000431,0.764403
1491000,0.0324,0.013523,0.002678,0.000431,0.786146
1492000,0.0324,0.013523,0.002678,0.000431,0.727264
1493000,0.0324,0.013523,0.002678,0.000431,0.790730
1494000,0.0324,0.013523,0.002678,0.000431,0.768047
1495000,0.0324,0.013523,0.002678,0.000431,0.793315
1496000,0.0324,0.013523,0.002678,0.000431,0.754884
1497000,0.0324,0.013523,0.002678,0.000431,0.759115
1498000,0.0324,0.013523,0.002678,0.000431,0.755119
1499000,0.0324,0.013523,0.002678,0.000431,0.752768
1500000,0.0324,0.013523,0.002678,0.000431,0.757469
1501000,0.0324,0.013523,0.002678,0.000431,0.750300
1502000,0.0324,0.013523,0.002678,0.000431,0.742190
1503000,0.0324,0.013523,0.002678,0.000431,0.742073
1504000,0.0324,0.013523,0.002678,0.000431,0.735021
1505000,0.0324,0.013523,0.002678,0.000431,0.711046
1506000,0.0324,0.013523,0.002678,0.000431,0.719978
1507000,0.0324,0.013523,0.002678,0.000431,0.732553
1508000,0.0324,0.013523,0.002678,0.000431,0.741133
1509000,0.0324,0.013523,0.002678,0.000431,0.738900
1510000,0.0324,0.013523,0.002678,0.000431,0.715512
1511000,0.0324,0.013523,0.002678,0.000431,0.764403
1512000,0.0324,0.013523,0.002678,0.000431,0.746069
1513000,0.0324,0.013523,0.002678,0.000431,0.750417
1514000,0.0324,0.013523,0.002678,0.000431,0.716217
1515000,0.0324,0.013523,0.002678,0.000431,0.727970
1516000,0.0324,0.013523,0.002678,0.000431,0.728910
1517000,0.0324,0.013523,0.002678,0.000431,0.729145
1518000,0.0324,0.013523,0.002678,0.000431,0.726912
1519000,0.0324,0.013523,0.002678,0.000431,0.731025
1520000,0.0324,0.013523,0.002678,0.000431,0.758292
1521000,0.0324,0.013523,0.002678,0.000431,0.756411
1522000,0.0324,0.013523,0.002678,0.000431,0.730438
1523000,0.0324,0.013523,0.002678,0.000431,0.728205
1524000,0.0324,0.013523,0.002678,0.000431,0.727264
1525000,0.0324,0.013523,0.002678,0.000431,0.711751
1526000,0.0324,0.013523,0.002678,0.000431,0.688598
1527000,0.0324,0.013523,0.002678,0.000431,0.712926
1528000,0.0324,0.013523,0.002678,0.000431,0.742896
1529000,0.0324,0.013523,0.002678,0.000431,0.751005
1530000,0.0324,0.013523,0.002678,0.000431,0.766636
1531000,0.0324,0.013523,0.002678,0.000431,0.791200
1532000,0.0324,0.013523,0.002678,0.000431,0.773218
1533000,0.0324,0.013523,0.002678,0.000431,0.788497
1534000,0.0324,0.013523,0.002678,0.000431,0.721153
1535000,0.0324,0.013523,0.002678,0.000431,0.761935
1536000,0.0324,0.013523,0.002678,0.000431,0.753826
1537000,0.0324,0.013523,0.002678,0.000431,0.759702
1538000,0.0324,0.013523,0.002678,0.000431,0.756646
1539000,0.0324,0.013523,0.002678,0.000431,0.754061
1540000,0.0324,0.013523,0.002678,0.000431,0.745481
1541000,0.0324,0.013523,0.002678,0.000431,0.756529
1542000,0.0324,0.013523,0.002678,0.000431,0.724796
1543000,0.0324,0.013523,0.002678,0.000431,0.725854
1544000,0.0324,0.013523,0.002678,0.000431,0.726442
1545000,0.0324,0.013523,0.002678,0.000431,0.743483
1546000,0.0324,0.013523,0.002678,0.000431,0.766754
1547000,0.0324,0.013523,0.002678,0.000431,0.752886
1548000,0.0324,0.013523,0.002678,0.000431,0.749477
1549000,0.0324,0.013523,0.002678,0.000431,0.728087
1550000,0.0324,0.013523,0.002678,0.000431,0.721270
1551000,0.0324,0.013523,0.002678,0.000431,0.729262
1552000,0.0324,0.013523,0.002678,0.000431,0.729027
1553000,0.0324,0.013523,0.002678,0.000431,0.751475
1554000,0.0324,0.013523,0.002678,0.000431,0.741368
1555000,0.0324,0.013523,0.002678,0.000431,0.736079
1556000,0.0324,0.013523,0.002678,0.000431,0.768164
1557000,0.0324,0.013523,0.002678,0.000431,0.736549
1558000,0.0324,0.013523,0.002678,0.000431,0.746539
1559000,0.0324,0.013523,0.002678,0.000431,0.738900
1560000,0.0324,0.013523,0.002678,0.000431,0.720095
1561000,0.0324,0.013523,0.002678,0.000431,0.736432
1562000,0.0324,0.013523,0.002678,0.000431,0.715629
1563000,0.0324,0.013523,0.002678,0.000431,0.735021
1564000,0.0324,0.013523,0.002678,0.000431,0.742543
1565000,0.0324,0.013523,0.002678,0.000431,0.730673
1566000,0.0324,0.013523,0.002678,0.000431,0.740780
1567000,0.0324,0.013523,0.002678,0.000431,0.730790
1568000,0.0324,0.013523,0.002678,0.000431,0.754413
1569000,0.0324,0.013523,0.002678,0.000431,0.720213
1570000,0.0324,0.013523,0.002678,0.000431,0.733376
1571000,0.0324,0.013523,0.002678,0.000431,0.734081
1572000,0.0324,0.013523,0.002678,0.000431,0.768164
1573000,0.0324,0.013523,0.002678,0.000431,0.716334
1574000,0.0324,0.013523,0.002678,0.000431,0.703876
1575000,0.0324,0.013523,0.002678,0.000431,0.722446
1576000,0.0324,0.013523,0.002678,0.000431,0.706462
1577000,0.0324,0.013523,0.002678,0.000431,0.743953
1578000,0.0324,0.013523,0.002678,0.000431,0.705052
1579000,0.0324,0.013523,0.002678,0.000431,0.701643
1580000,0.0324,0.013523,0.002678,0.000431,0.696590
1581000,0.0324,0.013523,0.002678,0.000431,0.721858
1582000,0.0324,0.013523,0.002678,0.000431,0.716569
1583000,0.0324,0.013523,0.002678,0.000431,0.716569
1584000,0.0324,0.013523,0.002678,0.000431,0.719743
1585000,0.0324,0.013523,0.002678,0.000431,0.697882
1586000,0.0324,0.013523,0.002678,0.000431,0.746186
1587000,0.0324,0.013523,0.002678,0.000431,0.748655
1588000,0.0324,0.013523,0.002678,0.000431,0.742661
1589000,0.0324,0.013523,0.002678,0.000431,0.731260
1590000,0.0324,0.013523,0.002678,0.000431,0.737019
1591000,0.0324,0.013523,0.002678,0.000431,0.775568
1592000,0.0324,0.013523,0.002678,0.000431,0.741015
1593000,0.0324,0.013523,0.002678,0.000431,0.736314
1594000,0.0324,0.013523,0.002678,0.000431,0.680606
1595000,0.0324,0.013523,0.002678,0.000431,0.694004
1596000,0.0324,0.013523,0.002678,0.000431,0.735726
1597000,0.0324,0.013523,0.002678,0.000431,0.723268
1598000,0.0324,0.013523,0.002678,0.000431,0.766401
1599000,0.0324,0.013523,0.002678,0.000431,0.706697
1600000,0.0324,0.013523,0.002678,0.000431,0.740898
1601000,0.0324,0.013523,0.002678,0.000431,0.725619
1602000,0.0324,0.013523,0.002678,0.000431,0.717862
1603000,0.0324,0.013523,0.002678,0.000431,0.703289
1604000,0.0324,0.013523,0.002678,0.000431,0.715747
1605000,0.0324,0.013523,0.002678,0.000431,0.734904
1606000,0.0324,0.013523,0.002678,0.000431,0.730320
1607000,0.0324,0.013523,0.002678,0.000431,0.726559
1608000,0.0324,0.013523,0.002678,0.000431,0.721741
1609000,0.0324,0.013523,0.002678,0.000431,0.747479
1610000,0.0324,0.013523,0.002678,0.000431,0.782503
1611000,0.0324,0.013523,0.002678,0.000431,0.736314
1612000,0.0324,0.013523,0.002678,0.000431,0.748184
1613000,0.0324,0.013523,0.002678,0.000431,0.742308
1614000,0.0324,0.013523,0.002678,0.000431,0.719978
1615000,0.0324,0.013523,0.002678,0.000431,0.736549
1616000,0.0324,0.013523,0.002678,0.000431,0.735491
1617000,0.0324,0.013523,0.002678,0.000431,0.725972
1618000,0.0324,0.013523,0.002678,0.000431,0.729262
1619000,0.0324,0.013523,0.002678,0.000431,0.717862
1620000,0.0324,0.013523,0.002678,0.000431,0.736432
1621000,0.0324,0.013523,0.002678,0.000431,0.726559
1622000,0.0324,0.013523,0.002678,0.000431,0.704934
1623000,0.0324,0.013523,0.002678,0.000431,0.741603
1624000,0.0324,0.013523,0.002678,0.000431,0.724679
1625000,0.0324,0.013523,0.002678,0.000431,0.717510
1626000,0.0324,0.013523,0.002678,0.000431,0.697412
1627000,0.0324,0.013523,0.002678,0.000431,0.692829
1628000,0.0324,0.013523,0.002678,0.000431,0.716922
1629000,0.0324,0.013523,0.002678,0.000431,0.730790
1630000,0.0324,0.013523,0.002678,0.000431,0.723386
1631000,0.0324,0.013523,0.002678,0.000431,0.706227
1632000,0.0324,0.013523,0.002678,0.000431,0.735021
1633000,0.0324,0.013523,0.002678,0.000431,0.742308
1634000,0.0324,0.013523,0.002678,0.000431,0.743013
1635000,0.0324,0.013523,0.002678,0.000431,0.726089
1636000,0.0324,0.013523,0.002678,0.000431,0.738312
1637000,0.0324,0.013523,0.002678,0.000431,0.724209
1638000,0.0324,0.013523,0.002678,0.000431,0.711281
1639000,0.0324,0.013523,0.002678,0.000431,0.684014
1640000,0.0324,0.013523,0.002678,0.000431,0.706227
1641000,0.0324,0.013523,0.002678,0.000431,0.705169
1642000,0.0324,0.013523,0.002678,0.000431,0.741955
1643000,0.0324,0.013523,0.002678,0.000431,0.729145
1644000,0.0324,0.013523,0.002678,0.000431,0.743483
1645000,0.0324,0.013523,0.002678,0.000431,0.738077
1646000,0.0324,0.013523,0.002678,0.000431,0.743366
1647000,0.0324,0.013523,0.002678,0.000431,0.735491
1648000,0.0324,0.013523,0.002678,0.000431,0.733963
1649000,0.0324,0.013523,0.002678,0.000431,0.730673
1650000,0.0324,0.013523,0.002678,0.000431,0.742190
1651000,0.0324,0.013523,0.002678,0.000431,0.733728
1652000,0.0324,0.013523,0.002678,0.000431,0.755706
1653000,0.0324,0.013523,0.002678,0.000431,0.739252
1654000,0.0324,0.013523,0.002678,0.000431,0.750182
1655000,0.0324,0.013523,0.002678,0.000431,0.736902
1656000,0.0324,0.013523,0.002678,0.000431,0.745951
1657000,0.0324,0.013523,0.002678,0.000431,0.734199
1658000,0.0324,0.013523,0.002678,0.000431,0.739487
1659000,0.0324,0.013523,0.002678,0.000431,0.743131
1660000,0.0324,0.013523,0.002678,0.000431,0.728322
1661000,0.0324,0.013523,0.002678,0.000431,0.718450
1662000,0.0324,0.013523,0.002678,0.000431,0.735726
1663000,0.0324,0.013523,0.002678,0.000431,0.746421
1664000,0.0324,0.013523,0.002678,0.000431,0.761113
1665000,0.0324,0.013523,0.002678,0.000431,0.749947
1666000,0.0324,0.013523,0.002678,0.000431,0.710458
1667000,0.0324,0.013523,0.002678,0.000431,0.729968
1668000,0.0324,0.013523,0.002678,0.000431,0.732201
1669000,0.0324,0.013523,0.002678,0.000431,0.752063
1670000,0.0324,0.013523,0.002678,0.000431,0.759232
1671000,0.0324,0.013523,0.002678,0.000431,0.721976
1672000,0.0324,0.013523,0.002678,0.000431,0.703759
1673000,0.0324,0.013523,0.002678,0.000431,0.739017
1674000,0.0324,0.013523,0.002678,0.000431,0.708577
1675000,0.0324,0.013523,0.002678,0.000431,0.680723
1676000,0.0324,0.013523,0.002678,0.000431,0.697177
1677000,0.0324,0.013523,0.002678,0.000431,0.720448
1678000,0.0324,0.013523,0.002678,0.000431,0.734669
1679000,0.0324,0.013523,0.002678,0.000431,0.727029
1680000,0.0324,0.013523,0.002678,0.000431,0.725501
1681000,0.0324,0.013523,0.002678,0.000431,0.747949
1682000,0.0324,0.013523,0.002678,0.000431,0.725854
1683000,0.0324,0.013523,0.002678,0.000431,0.713043
1684000,0.0324,0.013523,0.002678,0.000431,0.722093
1685000,0.0324,0.013523,0.002678,0.000431,0.741485
1686000,0.0324,0.013523,0.002678,0.000431,0.711398
1687000,0.0324,0.013523,0.002678,0.000431,0.710810
1688000,0.0324,0.013523,0.002678,0.000431,0.716569
1689000,0.0324,0.013523,0.002678,0.000431,0.731495
1690000,0.0324,0.013523,0.002678,0.000431,0.746774
1691000,0.0324,0.013523,0.002678,0.000431,0.720800
1692000,0.0324,0.013523,0.002678,0.000431,0.698823
1693000,0.0324,0.013523,0.002678,0.000431,0.754884
1694000,0.0324,0.013523,0.002678,0.000431,0.721623
1695000,0.0324,0.013523,0.002678,0.000431,0.713396
1696000,0.0324,0.013523,0.002678,0.000431,0.712691
1697000,0.0324,0.013523,0.002678,0.000431,0.703994
1698000,0.0324,0.013523,0.002678,0.000431,0.683191
1699000,0.0324,0.013523,0.002678,0.000431,0.696119
1700000,0.0324,0.013523,0.002678,0.000431,0.712808
1701000,0.0324,0.013523,0.002678,0.000431,0.714454
1702000,0.0324,0.013523,0.002678,0.000431,0.765226
1703000,0.0324,0.013523,0.002678,0.000431,0.707167
1704000,0.0324,0.013523,0.002678,0.000431,0.711986
1705000,0.0324,0.013523,0.002678,0.000431,0.739487
1706000,0.0324,0.013523,0.002678,0.000431,0.714454
1707000,0.0324,0.013523,0.002678,0.000431,0.706109
1708000,0.0324,0.013523,0.002678,0.000431,0.694944
1709000,0.0324,0.013523,0.002678,0.000431,0.715041
1710000,0.0324,0.013523,0.002678,0.000431,0.698705
1711000,0.0324,0.013523,0.002678,0.000431,0.767224
1712000,0.0324,0.013523,0.002678,0.000431,0.745951
1713000,0.0324,0.013523,0.002678,0.000431,0.740780
1714000,0.0324,0.013523,0.002678,0.000431,0.735844
1715000,0.0324,0.013523,0.002678,0.000431,0.706462
1716000,0.0324,0.013523,0.002678,0.000431,0.713631
1717000,0.0324,0.013523,0.002678,0.000431,0.707990
1718000,0.0324,0.013523,0.002678,0.000431,0.752533
1719000,0.0324,0.013523,0.002678,0.000431,0.728440
1720000,0.0324,0.013523,0.002678,0.000431,0.702113
1721000,0.0324,0.013523,0.002678,0.000431,0.669793
1722000,0.0324,0.013523,0.002678,0.000431,0.682134
1723000,0.0324,0.013523,0.002678,0.000431,0.692359
1724000,0.0324,0.013523,0.002678,0.000431,0.719860
1725000,0.0324,0.013523,0.002678,0.000431,0.701996
1726000,0.0324,0.013523,0.002678,0.000431,0.685894
1727000,0.0324,0.013523,0.002678,0.000431,0.695532
1728000,0.0324,0.013523,0.002678,0.000431,0.698470
1729000,0.0324,0.013523,0.002678,0.000431,0.657570
1730000,0.0324,0.013523,0.002678,0.000431,0.687305
1731000,0.0324,0.013523,0.002678,0.000431,0.694357
1732000,0.0324,0.013523,0.002678,0.000431,0.675905
1733000,0.0324,0.013523,0.002678,0.000431,0.688715
1734000,0.0324,0.013523,0.002678,0.000431,0.718802
1735000,0.0324,0.013523,0.002678,0.000431,0.719508
1736000,0.0324,0.013523,0.002678,0.000431,0.728792
1737000,0.0324,0.013523,0.002678,0.000431,0.691653
1738000,0.0324,0.013523,0.002678,0.000431,0.699645
1739000,0.0324,0.013523,0.002678,0.000431,0.727852
1740000,0.0324,0.013523,0.002678,0.000431,0.684719
1741000,0.0324,0.013523,0.002678,0.000431,0.725501
1742000,0.0324,0.013523,0.002678,0.000431,0.721035
1743000,0.0324,0.013523,0.002678,0.000431,0.725031
1744000,0.0324,0.013523,0.002678,0.000431,0.702701
1745000,0.0324,0.013523,0.002678,0.000431,0.724326
1746000,0.0324,0.013523,0.002678,0.000431,0.749242
1747000,0.0324,0.013523,0.002678,0.000431,0.737372
1748000,0.0324,0.013523,0.002678,0.000431,0.739957
1749000,0.0324,0.013523,0.002678,0.000431,0.710810
1750000,0.0324,0.013523,0.002678,0.000431,0.718685
1751000,0.0324,0.013523,0.002678,0.000431,0.735726
1752000,0.0324,0.013523,0.002678,0.000431,0.724914
1753000,0.0324,0.013523,0.002678,0.000431,0.735961
1754000,0.0324,0.013523,0.002678,0.000431,0.750065
1755000,0.0324,0.013523,0.002678,0.000431,0.711633
1756000,0.0324,0.013523,0.002678,0.000431,0.703289
1757000,0.0324,0.013523,0.002678,0.000431,0.709283
1758000,0.0324,0.013523,0.002678,0.000431,0.729497
1759000,0.0324,0.013523,0.002678,0.000431,0.712456
1760000,0.0324,0.013523,0.002678,0.000431,0.728087
1761000,0.0324,0.013523,0.002678,0.000431,0.721270
1762000,0.0324,0.013523,0.002678,0.000431,0.724796
1763000,0.0324,0.013523,0.002678,0.000431,0.728792
1764000,0.0324,0.013523,0.002678,0.000431,0.709635
1765000,0.0324,0.013523,0.002678,0.000431,0.706109
1766000,0.0324,0.013523,0.002678,0.000431,0.706109
1767000,0.0324,0.013523,0.002678,0.000431,0.711751
1768000,0.0324,0.013523,0.002678,0.000431,0.708107
1769000,0.0324,0.013523,0.002678,0.000431,0.709753
1770000,0.0324,0.013523,0.002678,0.000431,0.697060
1771000,0.0324,0.013523,0.002678,0.000431,0.700585
1772000,0.0324,0.013523,0.002678,0.000431,0.687070
1773000,0.0324,0.013523,0.002678,0.000431,0.706697
1774000,0.0324,0.013523,0.002678,0.000431,0.721270
1775000,0.0324,0.013523,0.002678,0.000431,0.727264
1776000,0.0324,0.013523,0.002678,0.000431,0.723503
1777000,0.0324,0.013523,0.002678,0.000431,0.702466
1778000,0.0324,0.013523,0.002678,0.000431,0.691183
1779000,0.0324,0.013523,0.002678,0.000431,0.702583
1780000,0.0324,0.013523,0.002678,0.000431,0.713396
1781000,0.0324,0.013523,0.002678,0.000431,0.717745
1782000,0.0324,0.013523,0.002678,0.000431,0.734551
1783000,0.0324,0.013523,0.002678,0.000431,0.736902
1784000,0.0324,0.013523,0.002678,0.000431,0.721976
1785000,0.0324,0.013523,0.002678,0.000431,0.703171
1786000,0.0324,0.013523,0.002678,0.000431,0.722093
1787000,0.0324,0.013523,0.002678,0.000431,0.677315
1788000,0.0324,0.013523,0.002678,0.000431,0.658510
1789000,0.0324,0.013523,0.002678,0.000431,0.687540
1790000,0.0324,0.013523,0.002678,0.000431,0.705639
1791000,0.0324,0.013523,0.002678,0.000431,0.710340
1792000,0.0324,0.013523,0.002678,0.000431,0.725972
1793000,0.0324,0.013523,0.002678,0.000431,0.689420
1794000,0.0324,0.013523,0.002678,0.000431,0.661801
1795000,0.0324,0.013523,0.002678,0.000431,0.699175
1796000,0.0324,0.013523,0.002678,0.000431,0.719978
1797000,0.0324,0.013523,0.002678,0.000431,0.725854
1798000,0.0324,0.013523,0.002678,0.000431,0.709400
1799000,0.0324,0.013523,0.002678,0.000431,0.700703
1800000,0.0324,0.013523,0.002678,0.000431,0.697882
1801000,0.0324,0.013523,0.002678,0.000431,0.707167
1802000,0.0324,0.013523,0.002678,0.000431,0.700585
1803000,0.0324,0.013523,0.002678,0.000431,0.705404
1804000,0.0324,0.013523,0.002678,0.000431,0.738312
1805000,0.0324,0.013523,0.002678,0.000431,0.723268
1806000,0.0324,0.013523,0.002678,0.000431,0.727735
1807000,0.0324,0.013523,0.002678,0.000431,0.714571
1808000,0.0324,0.013523,0.002678,0.000431,0.698117
1809000,0.0324,0.013523,0.002678,0.000431,0.703641
1810000,0.0324,0.013523,0.002678,0.000431,0.711633
1811000,0.0324,0.013523,0.002678,0.000431,0.709870
1812000,0.0324,0.013523,0.002678,0.000431,0.692946
1813000,0.0324,0.013523,0.002678,0.000431,0.690831
1814000,0.0324,0.013523,0.002678,0.000431,0.718920
1815000,0.0324,0.013523,0.002678,0.000431,0.693181
1816000,0.0324,0.013523,0.002678,0.000431,0.712338
1817000,0.0324,0.013523,0.002678,0.000431,0.741955
1818000,0.0324,0.013523,0.002678,0.000431,0.725737
1819000,0.0324,0.013523,0.002678,0.000431,0.732436
1820000,0.0324,0.013523,0.002678,0.000431,0.705287
1821000,0.0324,0.013523,0.002678,0.000431,0.712338
1822000,0.0324,0.013523,0.002678,0.000431,0.717980
1823000,0.0324,0.013523,0.002678,0.000431,0.703994
1824000,0.0324,0.013523,0.002678,0.000431,0.737137
1825000,0.0324,0.013523,0.002678,0.000431,0.697177
1826000,0.0324,0.013523,0.002678,0.000431,0.724326
1827000,0.0324,0.013523,0.002678,0.000431,0.711633
1828000,0.0324,0.013523,0.002678,0.000431,0.722211
1829000,0.0324,0.013523,0.002678,0.000431,0.712456
1830000,0.0324,0.013523,0.002678,0.000431,0.736549
1831000,0.0324,0.013523,0.002678,0.000431,0.749830
1832000,0.0324,0.013523,0.002678,0.000431,0.731025
1833000,0.0324,0.013523,0.002678,0.000431,0.712926
1834000,0.0324,0.013523,0.002678,0.000431,0.718215
1835000,0.0324,0.013523,0.002678,0.000431,0.729380
1836000,0.0324,0.013523,0.002678,0.000431,0.733728
1837000,0.0324,0.013523,0.002678,0.000431,0.712573
1838000,0.0324,0.013523,0.002678,0.000431,0.707167
1839000,0.0324,0.013523,0.002678,0.000431,0.693534
1840000,0.0324,0.013523,0.002678,0.000431,0.722093
1841000,0.0324,0.013523,0.002678,0.000431,0.718567
1842000,0.0324,0.013523,0.002678,0.000431,0.744541
1843000,0.0324,0.013523,0.002678,0.000431,0.753238
1844000,0.0324,0.013523,0.002678,0.000431,0.728087
1845000,0.0324,0.013523,0.002678,0.000431,0.688598
1846000,0.0324,0.013523,0.002678,0.000431,0.716687
1847000,0.0324,0.013523,0.002678,0.000431,0.718215
1848000,0.0324,0.013523,0.002678,0.000431,0.715277
1849000,0.0324,0.013523,0.002678,0.000431,0.715159
1850000,0.0324,0.013523,0.002678,0.000431,0.705639
1851000,0.0324,0.013523,0.002678,0.000431,0.705169
1852000,0.0324,0.013523,0.002678,0.000431,0.706227
1853000,0.0324,0.013523,0.002678,0.000431,0.708812
1854000,0.0324,0.013523,0.002678,0.000431,0.726677
1855000,0.0324,0.013523,0.002678,0.000431,0.712808
1856000,0.0324,0.013523,0.002678,0.000431,0.711163
1857000,0.0324,0.013523,0.002678,0.000431,0.707872
1858000,0.0324,0.013523,0.002678,0.000431,0.721035
1859000,0.0324,0.013523,0.002678,0.000431,0.701996
1860000,0.0324,0.013523,0.002678,0.000431,0.702348
1861000,0.0324,0.013523,0.002678,0.000431,0.719978
1862000,0.0324,0.013523,0.002678,0.000431,0.728205
1863000,0.0324,0.013523,0.002678,0.000431,0.705639
1864000,0.0324,0.013523,0.002678,0.000431,0.705404
1865000,0.0324,0.013523,0.002678,0.000431,0.697060
1866000,0.0324,0.013523,0.002678,0.000431,0.682251
1867000,0.0324,0.013523,0.002678,0.000431,0.705874
1868000,0.0324,0.013523,0.002678,0.000431,0.685307
1869000,0.0324,0.013523,0.002678,0.000431,0.712103
1870000,0.0324,0.013523,0.002678,0.000431,0.720800
1871000,0.0324,0.013523,0.002678,0.000431,0.709165
1872000,0.0324,0.013523,0.002678,0.000431,0.703641
1873000,0.0324,0.013523,0.002678,0.000431,0.705639
1874000,0.0324,0.013523,0.002678,0.000431,0.726324
1875000,0.0324,0.013523,0.002678,0.000431,0.690831
1876000,0.0324,0.013523,0.002678,0.000431,0.703759
1877000,0.0324,0.013523,0.002678,0.000431,0.686012
1878000,0.0324,0.013523,0.002678,0.000431,0.699880
1879000,0.0324,0.013523,0.002678,0.000431,0.704934
1880000,0.0324,0.013523,0.002678,0.000431,0.708342
1881000,0.0324,0.013523,0.002678,0.000431,0.718215
1882000,0.0324,0.013523,0.002678,0.000431,0.740310
1883000,0.0324,0.013523,0.002678,0.000431,0.735726
1884000,0.0324,0.013523,0.002678,0.000431,0.700938
1885000,0.0324,0.013523,0.002678,0.000431,0.705992
1886000,0.0324,0.013523,0.002678,0.000431,0.716452
1887000,0.0324,0.013523,0.002678,0.000431,0.686600
1888000,0.0324,0.013523,0.002678,0.000431,0.689185
1889000,0.0324,0.013523,0.002678,0.000431,0.723503
1890000,0.0324,0.013523,0.002678,0.000431,0.682486
1891000,0.0324,0.013523,0.002678,0.000431,0.713161
1892000,0.0324,0.013523,0.002678,0.000431,0.732318
1893000,0.0324,0.013523,0.002678,0.000431,0.719860
1894000,0.0324,0.013523,0.002678,0.000431,0.697295
1895000,0.0324,0.013523,0.002678,0.000431,0.732201
1896000,0.0324,0.013523,0.002678,0.000431,0.692594
1897000,0.0324,0.013523,0.002678,0.000431,0.733023
1898000,0.0324,0.013523,0.002678,0.000431,0.723386
1899000,0.0324,0.013523,0.002678,0.000431,0.697412
1900000,0.0324,0.013523,0.002678,0.000431,0.692006
1901000,0.0324,0.013523,0.002678,0.000431,0.720800
1902000,0.0324,0.013523,0.002678,0.000431,0.697647
1903000,0.0324,0.013523,0.002678,0.000431,0.721623
1904000,0.0324,0.013523,0.002678,0.000431,0.712456
1905000,0.0324,0.013523,0.002678,0.000431,0.680018
1906000,0.0324,0.013523,0.002678,0.000431,0.697647
1907000,0.0324,0.013523,0.002678,0.000431,0.714454
1908000,0.0324,0.013523,0.002678,0.000431,0.728440
1909000,0.0324,0.013523,0.002678,0.000431,0.716804
1910000,0.0324,0.013523,0.002678,0.000431,0.719390
1911000,0.0324,0.013523,0.002678,0.000431,0.724091
1912000,0.0324,0.013523,0.002678,0.000431,0.686717
1913000,0.0324,0.013523,0.002678,0.000431,0.689420
1914000,0.0324,0.013523,0.002678,0.000431,0.711751
1915000,0.0324,0.013523,0.002678,0.000431,0.728792
1916000,0.0324,0.013523,0.002678,0.000431,0.706932
1917000,0.0324,0.013523,0.002678,0.000431,0.691888
1918000,0.0324,0.013523,0.002678,0.000431,0.732788
1919000,0.0324,0.013523,0.002678,0.000431,0.713161
1920000,0.0324,0.013523,0.002678,0.000431,0.705757
1921000,0.0324,0.013523,0.002678,0.000431,0.698470
1922000,0.0324,0.013523,0.002678,0.000431,0.696825
1923000,0.0324,0.013523,0.002678,0.000431,0.717392
1924000,0.0324,0.013523,0.002678,0.000431,0.704934
1925000,0.0324,0.013523,0.002678,0.000431,0.709400
1926000,0.0324,0.013523,0.002678,0.000431,0.700938
1927000,0.0324,0.013523,0.002678,0.000431,0.704111
1928000,0.0324,0.013523,0.002678,0.000431,0.712221
1929000,0.0324,0.013523,0.002678,0.000431,0.705522
1930000,0.0324,0.013523,0.002678,0.000431,0.704229
1931000,0.0324,0.013523,0.002678,0.000431,0.683779
1932000,0.0324,0.013523,0.002678,0.000431,0.706697
1933000,0.0324,0.013523,0.002678,0.000431,0.679313
1934000,0.0324,0.013523,0.002678,0.000431,0.687070
1935000,0.0324,0.013523,0.002678,0.000431,0.675317
1936000,0.0324,0.013523,0.002678,0.000431,0.683661
1937000,0.0324,0.013523,0.002678,0.000431,0.710810
1938000,0.0324,0.013523,0.002678,0.000431,0.680723
1939000,0.0324,0.013523,0.002678,0.000431,0.680958
1940000,0.0324,0.013523,0.002678,0.000431,0.702583
1941000,0.0324,0.013523,0.002678,0.000431,0.700233
1942000,0.0324,0.013523,0.002678,0.000431,0.699528
1943000,0.0324,0.013523,0.002678,0.000431,0.705052
1944000,0.0324,0.013523,0.002678,0.000431,0.653222
1945000,0.0324,0.013523,0.002678,0.000431,0.674259
1946000,0.0324,0.013523,0.002678,0.000431,0.666385
1947000,0.0324,0.013523,0.002678,0.000431,0.684367
1948000,0.0324,0.013523,0.002678,0.000431,0.702466
1949000,0.0324,0.013523,0.002678,0.000431,0.711163
1950000,0.0324,0.013523,0.002678,0.000431,0.701173
1951000,0.0324,0.013523,0.002678,0.000431,0.690125
1952000,0.0324,0.013523,0.002678,0.000431,0.692241
1953000,0.0324,0.013523,0.002678,0.000431,0.713631
1954000,0.0324,0.013523,0.002678,0.000431,0.682016
1955000,0.0324,0.013523,0.002678,0.000431,0.707285
1956000,0.0324,0.013523,0.002678,0.000431,0.720213
1957000,0.0324,0.013523,0.002678,0.000431,0.680018
1958000,0.0324,0.013523,0.002678,0.000431,0.707285
1959000,0.0324,0.013523,0.002678,0.000431,0.690125
1960000,0.0324,0.013523,0.002678,0.000431,0.711516
1961000,0.0324,0.013523,0.002678,0.000431,0.723621
1962000,0.0324,0.013523,0.002678,0.000431,0.705404
1963000,0.0324,0.013523,0.002678,0.000431,0.691301
1964000,0.0324,0.013523,0.002678,0.000431,0.688128
1965000,0.0324,0.013523,0.002678,0.000431,0.705287
1966000,0.0324,0.013523,0.002678,0.000431,0.700821
1967000,0.0324,0.013523,0.002678,0.000431,0.697412
1968000,0.0324,0.013523,0.002678,0.000431,0.685189
1969000,0.0324,0.013523,0.002678,0.000431,0.706814
1970000,0.0324,0.013523,0.002678,0.000431,0.714219
1971000,0.0324,0.013523,0.002678,0.000431,0.720683
1972000,0.0324,0.013523,0.002678,0.000431,0.678020
1973000,0.0324,0.013523,0.002678,0.000431,0.668970
1974000,0.0324,0.013523,0.002678,0.000431,0.715512
1975000,0.0324,0.013523,0.002678,0.000431,0.705287
1976000,0.0324,0.013523,0.002678,0.000431,0.671086
1977000,0.0324,0.013523,0.002678,0.000431,0.698588
1978000,0.0324,0.013523,0.002678,0.000431,0.698705
1979000,0.0324,0.013523,0.002678,0.000431,0.723503
1980000,0.0324,0.013523,0.002678,0.000431,0.682721
1981000,0.0324,0.013523,0.002678,0.000431,0.706579
1982000,0.0324,0.013523,0.002678,0.000431,0.728675
1983000,0.0324,0.013523,0.002678,0.000431,0.711281
1984000,0.0324,0.013523,0.002678,0.000431,0.711868
1985000,0.0324,0.013523,0.002678,0.000431,0.679783
1986000,0.0324,0.013523,0.002678,0.000431,0.688363
1987000,0.0324,0.013523,0.002678,0.000431,0.673672
1988000,0.0324,0.013523,0.002678,0.000431,0.672144
1989000,0.0324,0.013523,0.002678,0.000431,0.680488
1990000,0.0324,0.013523,0.002678,0.000431,0.652869
1991000,0.0324,0.013523,0.002678,0.000431,0.705287
1992000,0.0324,0.013523,0.002678,0.000431,0.692476
1993000,0.0324,0.013523,0.002678,0.000431,0.689890
1994000,0.0324,0.013523,0.002678,0.000431,0.701173
1995000,0.0324,0.013523,0.002678,0.000431,0.713514
1996000,0.0324,0.013523,0.002678,0.000431,0.683661
1997000,0.0324,0.013523,0.002678,0.000431,0.684954
1998000,0.0324,0.013523,0.002678,0.000431,0.665680
1999000,0.0324,0.013523,0.002678,0.000431,0.669323
