Cycle,Area(mm^2),PeakDynamic(W),SubthresholdLeakage(W),GateLeakage(W),RunTimeDynamic(W)
6000000,0.0324,0.013523,0.002678,0.000431,0.657688
6001000,0.0324,0.013523,0.002678,0.000431,0.675670
6002000,0.0324,0.013523,0.002678,0.000431,0.640294
6003000,0.0324,0.013523,0.002678,0.000431,0.656395
6004000,0.0324,0.013523,0.002678,0.000431,0.680723
6005000,0.0324,0.013523,0.002678,0.000431,0.654279
6006000,0.0324,0.013523,0.002678,0.000431,0.644054
6007000,0.0324,0.013523,0.002678,0.000431,0.652869
6008000,0.0324,0.013523,0.002678,0.000431,0.634182
6009000,0.0324,0.013523,0.002678,0.000431,0.660743
6010000,0.0324,0.013523,0.002678,0.000431,0.655690
6011000,0.0324,0.013523,0.002678,0.000431,0.621372
6012000,0.0324,0.013523,0.002678,0.000431,0.661919
6013000,0.0324,0.013523,0.002678,0.000431,0.640529
6014000,0.0324,0.013523,0.002678,0.000431,0.657923
6015000,0.0324,0.013523,0.002678,0.000431,0.659686
6016000,0.0324,0.013523,0.002678,0.000431,0.664152
6017000,0.0324,0.013523,0.002678,0.000431,0.657688
6018000,0.0324,0.013523,0.002678,0.000431,0.659216
6019000,0.0324,0.013523,0.002678,0.000431,0.633242
6020000,0.0324,0.013523,0.002678,0.000431,0.633007
6021000,0.0324,0.013523,0.002678,0.000431,0.658040
6022000,0.0324,0.013523,0.002678,0.000431,0.650283
6023000,0.0324,0.013523,0.002678,0.000431,0.642997
6024000,0.0324,0.013523,0.002678,0.000431,0.646875
6025000,0.0324,0.013523,0.002678,0.000431,0.646052
6026000,0.0324,0.013523,0.002678,0.000431,0.648521
6027000,0.0324,0.013523,0.002678,0.000431,0.634065
6028000,0.0324,0.013523,0.002678,0.000431,0.640294
6029000,0.0324,0.013523,0.002678,0.000431,0.636180
6030000,0.0324,0.013523,0.002678,0.000431,0.641351
6031000,0.0324,0.013523,0.002678,0.000431,0.652516
6032000,0.0324,0.013523,0.002678,0.000431,0.658158
6033000,0.0324,0.013523,0.002678,0.000431,0.650989
6034000,0.0324,0.013523,0.002678,0.000431,0.654044
6035000,0.0324,0.013523,0.002678,0.000431,0.640529
6036000,0.0324,0.013523,0.002678,0.000431,0.652399
6037000,0.0324,0.013523,0.002678,0.000431,0.642527
6038000,0.0324,0.013523,0.002678,0.000431,0.658628
6039000,0.0324,0.013523,0.002678,0.000431,0.636533
6040000,0.0324,0.013523,0.002678,0.000431,0.639941
6041000,0.0324,0.013523,0.002678,0.000431,0.645700
6042000,0.0324,0.013523,0.002678,0.000431,0.659921
6043000,0.0324,0.013523,0.002678,0.000431,0.630304
6044000,0.0324,0.013523,0.002678,0.000431,0.634065
6045000,0.0324,0.013523,0.002678,0.000431,0.641586
6046000,0.0324,0.013523,0.002678,0.000431,0.656042
6047000,0.0324,0.013523,0.002678,0.000431,0.649931
6048000,0.0324,0.013523,0.002678,0.000431,0.634535
6049000,0.0324,0.013523,0.002678,0.000431,0.643114
6050000,0.0324,0.013523,0.002678,0.000431,0.643232
6051000,0.0324,0.013523,0.002678,0.000431,0.644407
6052000,0.0324,0.013523,0.002678,0.000431,0.637825
6053000,0.0324,0.013523,0.002678,0.000431,0.642409
6054000,0.0324,0.013523,0.002678,0.000431,0.641939
6055000,0.0324,0.013523,0.002678,0.000431,0.640294
6056000,0.0324,0.013523,0.002678,0.000431,0.663564
6057000,0.0324,0.013523,0.002678,0.000431,0.666150
6058000,0.0324,0.013523,0.002678,0.000431,0.650989
6059000,0.0324,0.013523,0.002678,0.000431,0.652516
6060000,0.0324,0.013523,0.002678,0.000431,0.628658
6061000,0.0324,0.013523,0.002678,0.000431,0.648873
6062000,0.0324,0.013523,0.002678,0.000431,0.645817
6063000,0.0324,0.013523,0.002678,0.000431,0.630539
6064000,0.0324,0.013523,0.002678,0.000431,0.636768
6065000,0.0324,0.013523,0.002678,0.000431,0.628776
6066000,0.0324,0.013523,0.002678,0.000431,0.651106
6067000,0.0324,0.013523,0.002678,0.000431,0.623605
6068000,0.0324,0.013523,0.002678,0.000431,0.659921
6069000,0.0324,0.013523,0.002678,0.000431,0.658393
6070000,0.0324,0.013523,0.002678,0.000431,0.657805
6071000,0.0324,0.013523,0.002678,0.000431,0.622077
6072000,0.0324,0.013523,0.002678,0.000431,0.627836
6073000,0.0324,0.013523,0.002678,0.000431,0.626425
6074000,0.0324,0.013523,0.002678,0.000431,0.642056
6075000,0.0324,0.013523,0.002678,0.000431,0.621372
6076000,0.0324,0.013523,0.002678,0.000431,0.649578
6077000,0.0324,0.013523,0.002678,0.000431,0.651341
6078000,0.0324,0.013523,0.002678,0.000431,0.647815
6079000,0.0324,0.013523,0.002678,0.000431,0.652164
6080000,0.0324,0.013523,0.002678,0.000431,0.628893
6081000,0.0324,0.013523,0.002678,0.000431,0.659686
6082000,0.0324,0.013523,0.002678,0.000431,0.658863
6083000,0.0324,0.013523,0.002678,0.000431,0.649696
6084000,0.0324,0.013523,0.002678,0.000431,0.658863
6085000,0.0324,0.013523,0.002678,0.000431,0.654044
6086000,0.0324,0.013523,0.002678,0.000431,0.637238
6087000,0.0324,0.013523,0.002678,0.000431,0.643584
6088000,0.0324,0.013523,0.002678,0.000431,0.659216
6089000,0.0324,0.013523,0.002678,0.000431,0.658158
6090000,0.0324,0.013523,0.002678,0.000431,0.638178
6091000,0.0324,0.013523,0.002678,0.000431,0.640294
6092000,0.0324,0.013523,0.002678,0.000431,0.626895
6093000,0.0324,0.013523,0.002678,0.000431,0.650166
6094000,0.0324,0.013523,0.002678,0.000431,0.660978
6095000,0.0324,0.013523,0.002678,0.000431,0.644642
6096000,0.0324,0.013523,0.002678,0.000431,0.649461
6097000,0.0324,0.013523,0.002678,0.000431,0.637825
6098000,0.0324,0.013523,0.002678,0.000431,0.660626
6099000,0.0324,0.013523,0.002678,0.000431,0.653457
6100000,0.0324,0.013523,0.002678,0.000431,0.658510
6101000,0.0324,0.013523,0.002678,0.000431,0.642409
6102000,0.0324,0.013523,0.002678,0.000431,0.623017
6103000,0.0324,0.013523,0.002678,0.000431,0.666972
6104000,0.0324,0.013523,0.002678,0.000431,0.657100
6105000,0.0324,0.013523,0.002678,0.000431,0.655337
6106000,0.0324,0.013523,0.002678,0.000431,0.668148
6107000,0.0324,0.013523,0.002678,0.000431,0.642527
6108000,0.0324,0.013523,0.002678,0.000431,0.657453
6109000,0.0324,0.013523,0.002678,0.000431,0.663799
6110000,0.0324,0.013523,0.002678,0.000431,0.646170
6111000,0.0324,0.013523,0.002678,0.000431,0.639941
6112000,0.0324,0.013523,0.002678,0.000431,0.654514
6113000,0.0324,0.013523,0.002678,0.000431,0.674142
6114000,0.0324,0.013523,0.002678,0.000431,0.646052
6115000,0.0324,0.013523,0.002678,0.000431,0.659686
6116000,0.0324,0.013523,0.002678,0.000431,0.642644
6117000,0.0324,0.013523,0.002678,0.000431,0.665915
6118000,0.0324,0.013523,0.002678,0.000431,0.648756
6119000,0.0324,0.013523,0.002678,0.000431,0.644642
6120000,0.0324,0.013523,0.002678,0.000431,0.644525
6121000,0.0324,0.013523,0.002678,0.000431,0.657335
6122000,0.0324,0.013523,0.002678,0.000431,0.641234
6123000,0.0324,0.013523,0.002678,0.000431,0.630656
6124000,0.0324,0.013523,0.002678,0.000431,0.649931
6125000,0.0324,0.013523,0.002678,0.000431,0.648285
6126000,0.0324,0.013523,0.002678,0.000431,0.663682
6127000,0.0324,0.013523,0.002678,0.000431,0.646758
6128000,0.0324,0.013523,0.002678,0.000431,0.643114
6129000,0.0324,0.013523,0.002678,0.000431,0.638531
6130000,0.0324,0.013523,0.002678,0.000431,0.631832
6131000,0.0324,0.013523,0.002678,0.000431,0.628541
6132000,0.0324,0.013523,0.002678,0.000431,0.654397
6133000,0.0324,0.013523,0.002678,0.000431,0.671556
6134000,0.0324,0.013523,0.002678,0.000431,0.655337
6135000,0.0324,0.013523,0.002678,0.000431,0.650166
6136000,0.0324,0.013523,0.002678,0.000431,0.664152
6137000,0.0324,0.013523,0.002678,0.000431,0.645347
6138000,0.0324,0.013523,0.002678,0.000431,0.660273
6139000,0.0324,0.013523,0.002678,0.000431,0.645347
6140000,0.0324,0.013523,0.002678,0.000431,0.666855
6141000,0.0324,0.013523,0.002678,0.000431,0.655455
6142000,0.0324,0.013523,0.002678,0.000431,0.670968
6143000,0.0324,0.013523,0.002678,0.000431,0.673319
6144000,0.0324,0.013523,0.002678,0.000431,0.664152
6145000,0.0324,0.013523,0.002678,0.000431,0.656042
6146000,0.0324,0.013523,0.002678,0.000431,0.649696
6147000,0.0324,0.013523,0.002678,0.000431,0.657100
6148000,0.0324,0.013523,0.002678,0.000431,0.665680
6149000,0.0324,0.013523,0.002678,0.000431,0.654514
6150000,0.0324,0.013523,0.002678,0.000431,0.643467
6151000,0.0324,0.013523,0.002678,0.000431,0.639118
6152000,0.0324,0.013523,0.002678,0.000431,0.681546
6153000,0.0324,0.013523,0.002678,0.000431,0.647110
6154000,0.0324,0.013523,0.002678,0.000431,0.660508
6155000,0.0324,0.013523,0.002678,0.000431,0.641586
6156000,0.0324,0.013523,0.002678,0.000431,0.640411
6157000,0.0324,0.013523,0.002678,0.000431,0.678138
6158000,0.0324,0.013523,0.002678,0.000431,0.666620
6159000,0.0324,0.013523,0.002678,0.000431,0.644407
6160000,0.0324,0.013523,0.002678,0.000431,0.626660
6161000,0.0324,0.013523,0.002678,0.000431,0.651341
6162000,0.0324,0.013523,0.002678,0.000431,0.665327
6163000,0.0324,0.013523,0.002678,0.000431,0.662154
6164000,0.0324,0.013523,0.002678,0.000431,0.644289
6165000,0.0324,0.013523,0.002678,0.000431,0.633947
6166000,0.0324,0.013523,0.002678,0.000431,0.636415
6167000,0.0324,0.013523,0.002678,0.000431,0.647110
6168000,0.0324,0.013523,0.002678,0.000431,0.653574
6169000,0.0324,0.013523,0.002678,0.000431,0.642174
6170000,0.0324,0.013523,0.002678,0.000431,0.646523
6171000,0.0324,0.013523,0.002678,0.000431,0.658745
6172000,0.0324,0.013523,0.002678,0.000431,0.629011
6173000,0.0324,0.013523,0.002678,0.000431,0.604447
6174000,0.0324,0.013523,0.002678,0.000431,0.601039
6175000,0.0324,0.013523,0.002678,0.000431,0.590344
6176000,0.0324,0.013523,0.002678,0.000431,0.622664
6177000,0.0324,0.013523,0.002678,0.000431,0.623017
6178000,0.0324,0.013523,0.002678,0.000431,0.641234
6179000,0.0324,0.013523,0.002678,0.000431,0.629363
6180000,0.0324,0.013523,0.002678,0.000431,0.660508
6181000,0.0324,0.013523,0.002678,0.000431,0.661214
6182000,0.0324,0.013523,0.002678,0.000431,0.651576
6183000,0.0324,0.013523,0.002678,0.000431,0.652516
6184000,0.0324,0.013523,0.002678,0.000431,0.657923
6185000,0.0324,0.013523,0.002678,0.000431,0.653104
6186000,0.0324,0.013523,0.002678,0.000431,0.682486
6187000,0.0324,0.013523,0.002678,0.000431,0.647698
6188000,0.0324,0.013523,0.002678,0.000431,0.639941
6189000,0.0324,0.013523,0.002678,0.000431,0.641351
6190000,0.0324,0.013523,0.002678,0.000431,0.654632
6191000,0.0324,0.013523,0.002678,0.000431,0.639118
6192000,0.0324,0.013523,0.002678,0.000431,0.639706
6193000,0.0324,0.013523,0.002678,0.000431,0.645817
6194000,0.0324,0.013523,0.002678,0.000431,0.643584
6195000,0.0324,0.013523,0.002678,0.000431,0.644289
6196000,0.0324,0.013523,0.002678,0.000431,0.646758
6197000,0.0324,0.013523,0.002678,0.000431,0.621607
6198000,0.0324,0.013523,0.002678,0.000431,0.630539
6199000,0.0324,0.013523,0.002678,0.000431,0.646640
6200000,0.0324,0.013523,0.002678,0.000431,0.638766
6201000,0.0324,0.013523,0.002678,0.000431,0.647815
6202000,0.0324,0.013523,0.002678,0.000431,0.657805
6203000,0.0324,0.013523,0.002678,0.000431,0.653457
6204000,0.0324,0.013523,0.002678,0.000431,0.654044
6205000,0.0324,0.013523,0.002678,0.000431,0.646993
6206000,0.0324,0.013523,0.002678,0.000431,0.632772
6207000,0.0324,0.013523,0.002678,0.000431,0.641234
6208000,0.0324,0.013523,0.002678,0.000431,0.651459
6209000,0.0324,0.013523,0.002678,0.000431,0.652046
6210000,0.0324,0.013523,0.002678,0.000431,0.624427
6211000,0.0324,0.013523,0.002678,0.000431,0.635827
6212000,0.0324,0.013523,0.002678,0.000431,0.636533
6213000,0.0324,0.013523,0.002678,0.000431,0.648638
6214000,0.0324,0.013523,0.002678,0.000431,0.644054
6215000,0.0324,0.013523,0.002678,0.000431,0.634417
6216000,0.0324,0.013523,0.002678,0.000431,0.639706
6217000,0.0324,0.013523,0.002678,0.000431,0.648756
6218000,0.0324,0.013523,0.002678,0.000431,0.657805
6219000,0.0324,0.013523,0.002678,0.000431,0.643584
6220000,0.0324,0.013523,0.002678,0.000431,0.649578
6221000,0.0324,0.013523,0.002678,0.000431,0.625838
6222000,0.0324,0.013523,0.002678,0.000431,0.630539
6223000,0.0324,0.013523,0.002678,0.000431,0.634300
6224000,0.0324,0.013523,0.002678,0.000431,0.628541
6225000,0.0324,0.013523,0.002678,0.000431,0.654044
6226000,0.0324,0.013523,0.002678,0.000431,0.642644
6227000,0.0324,0.013523,0.002678,0.000431,0.650401
6228000,0.0324,0.013523,0.002678,0.000431,0.650754
6229000,0.0324,0.013523,0.002678,0.000431,0.652399
6230000,0.0324,0.013523,0.002678,0.000431,0.645347
6231000,0.0324,0.013523,0.002678,0.000431,0.653809
6232000,0.0324,0.013523,0.002678,0.000431,0.650518
6233000,0.0324,0.013523,0.002678,0.000431,0.667795
6234000,0.0324,0.013523,0.002678,0.000431,0.673201
6235000,0.0324,0.013523,0.002678,0.000431,0.637355
6236000,0.0324,0.013523,0.002678,0.000431,0.645230
6237000,0.0324,0.013523,0.002678,0.000431,0.635827
6238000,0.0324,0.013523,0.002678,0.000431,0.636180
6239000,0.0324,0.013523,0.002678,0.000431,0.652516
6240000,0.0324,0.013523,0.002678,0.000431,0.631009
6241000,0.0324,0.013523,0.002678,0.000431,0.637003
6242000,0.0324,0.013523,0.002678,0.000431,0.656395
6243000,0.0324,0.013523,0.002678,0.000431,0.650871
6244000,0.0324,0.013523,0.002678,0.000431,0.645935
6245000,0.0324,0.013523,0.002678,0.000431,0.654750
6246000,0.0324,0.013523,0.002678,0.000431,0.660861
6247000,0.0324,0.013523,0.002678,0.000431,0.634065
6248000,0.0324,0.013523,0.002678,0.000431,0.649813
6249000,0.0324,0.013523,0.002678,0.000431,0.643467
6250000,0.0324,0.013523,0.002678,0.000431,0.626543
6251000,0.0324,0.013523,0.002678,0.000431,0.630774
6252000,0.0324,0.013523,0.002678,0.000431,0.642762
6253000,0.0324,0.013523,0.002678,0.000431,0.664152
6254000,0.0324,0.013523,0.002678,0.000431,0.642762
6255000,0.0324,0.013523,0.002678,0.000431,0.645582
6256000,0.0324,0.013523,0.002678,0.000431,0.651341
6257000,0.0324,0.013523,0.002678,0.000431,0.646405
6258000,0.0324,0.013523,0.002678,0.000431,0.654867
6259000,0.0324,0.013523,0.002678,0.000431,0.631479
6260000,0.0324,0.013523,0.002678,0.000431,0.636063
6261000,0.0324,0.013523,0.002678,0.000431,0.633007
6262000,0.0324,0.013523,0.002678,0.000431,0.648756
6263000,0.0324,0.013523,0.002678,0.000431,0.663329
6264000,0.0324,0.013523,0.002678,0.000431,0.655455
6265000,0.0324,0.013523,0.002678,0.000431,0.638766
6266000,0.0324,0.013523,0.002678,0.000431,0.658628
6267000,0.0324,0.013523,0.002678,0.000431,0.657688
6268000,0.0324,0.013523,0.002678,0.000431,0.649578
6269000,0.0324,0.013523,0.002678,0.000431,0.638413
6270000,0.0324,0.013523,0.002678,0.000431,0.648521
6271000,0.0324,0.013523,0.002678,0.000431,0.642292
6272000,0.0324,0.013523,0.002678,0.000431,0.618668
6273000,0.0324,0.013523,0.002678,0.000431,0.646287
6274000,0.0324,0.013523,0.002678,0.000431,0.629834
6275000,0.0324,0.013523,0.002678,0.000431,0.628071
6276000,0.0324,0.013523,0.002678,0.000431,0.647228
6277000,0.0324,0.013523,0.002678,0.000431,0.635122
6278000,0.0324,0.013523,0.002678,0.000431,0.638531
6279000,0.0324,0.013523,0.002678,0.000431,0.649696
6280000,0.0324,0.013523,0.002678,0.000431,0.642762
6281000,0.0324,0.013523,0.002678,0.000431,0.664504
6282000,0.0324,0.013523,0.002678,0.000431,0.636533
6283000,0.0324,0.013523,0.002678,0.000431,0.643467
6284000,0.0324,0.013523,0.002678,0.000431,0.653692
6285000,0.0324,0.013523,0.002678,0.000431,0.629363
6286000,0.0324,0.013523,0.002678,0.000431,0.634652
6287000,0.0324,0.013523,0.002678,0.000431,0.642174
6288000,0.0324,0.013523,0.002678,0.000431,0.645700
6289000,0.0324,0.013523,0.002678,0.000431,0.647463
6290000,0.0324,0.013523,0.002678,0.000431,0.656395
6291000,0.0324,0.013523,0.002678,0.000431,0.659098
6292000,0.0324,0.013523,0.002678,0.000431,0.651694
6293000,0.0324,0.013523,0.002678,0.000431,0.661331
6294000,0.0324,0.013523,0.002678,0.000431,0.653457
6295000,0.0324,0.013523,0.002678,0.000431,0.659333
6296000,0.0324,0.013523,0.002678,0.000431,0.652987
6297000,0.0324,0.013523,0.002678,0.000431,0.632889
6298000,0.0324,0.013523,0.002678,0.000431,0.650871
6299000,0.0324,0.013523,0.002678,0.000431,0.641234
6300000,0.0324,0.013523,0.002678,0.000431,0.641469
6301000,0.0324,0.013523,0.002678,0.000431,0.663094
6302000,0.0324,0.013523,0.002678,0.000431,0.654162
6303000,0.0324,0.013523,0.002678,0.000431,0.644407
6304000,0.0324,0.013523,0.002678,0.000431,0.652399
6305000,0.0324,0.013523,0.002678,0.000431,0.661214
6306000,0.0324,0.013523,0.002678,0.000431,0.649578
6307000,0.0324,0.013523,0.002678,0.000431,0.647228
6308000,0.0324,0.013523,0.002678,0.000431,0.641939
6309000,0.0324,0.013523,0.002678,0.000431,0.662624
6310000,0.0324,0.013523,0.002678,0.000431,0.629363
6311000,0.0324,0.013523,0.002678,0.000431,0.633124
6312000,0.0324,0.013523,0.002678,0.000431,0.636650
6313000,0.0324,0.013523,0.002678,0.000431,0.632067
6314000,0.0324,0.013523,0.002678,0.000431,0.643819
6315000,0.0324,0.013523,0.002678,0.000431,0.638883
6316000,0.0324,0.013523,0.002678,0.000431,0.642879
6317000,0.0324,0.013523,0.002678,0.000431,0.654985
6318000,0.0324,0.013523,0.002678,0.000431,0.643467
6319000,0.0324,0.013523,0.002678,0.000431,0.661919
6320000,0.0324,0.013523,0.002678,0.000431,0.646993
6321000,0.0324,0.013523,0.002678,0.000431,0.659216
6322000,0.0324,0.013523,0.002678,0.000431,0.656747
6323000,0.0324,0.013523,0.002678,0.000431,0.641234
6324000,0.0324,0.013523,0.002678,0.000431,0.638648
6325000,0.0324,0.013523,0.002678,0.000431,0.662741
6326000,0.0324,0.013523,0.002678,0.000431,0.656983
6327000,0.0324,0.013523,0.002678,0.000431,0.649696
6328000,0.0324,0.013523,0.002678,0.000431,0.647698
6329000,0.0324,0.013523,0.002678,0.000431,0.653927
6330000,0.0324,0.013523,0.002678,0.000431,0.654397
6331000,0.0324,0.013523,0.002678,0.000431,0.637825
6332000,0.0324,0.013523,0.002678,0.000431,0.640058
6333000,0.0324,0.013523,0.002678,0.000431,0.645465
6334000,0.0324,0.013523,0.002678,0.000431,0.646170
6335000,0.0324,0.013523,0.002678,0.000431,0.631479
6336000,0.0324,0.013523,0.002678,0.000431,0.648521
6337000,0.0324,0.013523,0.002678,0.000431,0.634535
6338000,0.0324,0.013523,0.002678,0.000431,0.644760
6339000,0.0324,0.013523,0.002678,0.000431,0.651224
6340000,0.0324,0.013523,0.002678,0.000431,0.630304
6341000,0.0324,0.013523,0.002678,0.000431,0.636180
6342000,0.0324,0.013523,0.002678,0.000431,0.642997
6343000,0.0324,0.013523,0.002678,0.000431,0.651224
6344000,0.0324,0.013523,0.002678,0.000431,0.631479
6345000,0.0324,0.013523,0.002678,0.000431,0.635592
6346000,0.0324,0.013523,0.002678,0.000431,0.650166
6347000,0.0324,0.013523,0.002678,0.000431,0.636298
6348000,0.0324,0.013523,0.002678,0.000431,0.646875
6349000,0.0324,0.013523,0.002678,0.000431,0.660626
6350000,0.0324,0.013523,0.002678,0.000431,0.637238
6351000,0.0324,0.013523,0.002678,0.000431,0.653222
6352000,0.0324,0.013523,0.002678,0.000431,0.638531
6353000,0.0324,0.013523,0.002678,0.000431,0.646523
6354000,0.0324,0.013523,0.002678,0.000431,0.641939
6355000,0.0324,0.013523,0.002678,0.000431,0.660978
6356000,0.0324,0.013523,0.002678,0.000431,0.658745
6357000,0.0324,0.013523,0.002678,0.000431,0.652752
6358000,0.0324,0.013523,0.002678,0.000431,0.641704
6359000,0.0324,0.013523,0.002678,0.000431,0.661684
6360000,0.0324,0.013523,0.002678,0.000431,0.635240
6361000,0.0324,0.013523,0.002678,0.000431,0.639941
6362000,0.0324,0.013523,0.002678,0.000431,0.652281
6363000,0.0324,0.013523,0.002678,0.000431,0.668970
6364000,0.0324,0.013523,0.002678,0.000431,0.642056
6365000,0.0324,0.013523,0.002678,0.000431,0.658745
6366000,0.0324,0.013523,0.002678,0.000431,0.663682
6367000,0.0324,0.013523,0.002678,0.000431,0.646405
6368000,0.0324,0.013523,0.002678,0.000431,0.650636
6369000,0.0324,0.013523,0.002678,0.000431,0.647698
6370000,0.0324,0.013523,0.002678,0.000431,0.644760
6371000,0.0324,0.013523,0.002678,0.000431,0.654750
6372000,0.0324,0.013523,0.002678,0.000431,0.647228
6373000,0.0324,0.013523,0.002678,0.000431,0.649696
6374000,0.0324,0.013523,0.002678,0.000431,0.653104
6375000,0.0324,0.013523,0.002678,0.000431,0.658158
6376000,0.0324,0.013523,0.002678,0.000431,0.653574
6377000,0.0324,0.013523,0.002678,0.000431,0.662506
6378000,0.0324,0.013523,0.002678,0.000431,0.644642
6379000,0.0324,0.013523,0.002678,0.000431,0.639588
6380000,0.0324,0.013523,0.002678,0.000431,0.661919
6381000,0.0324,0.013523,0.002678,0.000431,0.651224
6382000,0.0324,0.013523,0.002678,0.000431,0.628776
6383000,0.0324,0.013523,0.002678,0.000431,0.641939
6384000,0.0324,0.013523,0.002678,0.000431,0.626895
6385000,0.0324,0.013523,0.002678,0.000431,0.625955
6386000,0.0324,0.013523,0.002678,0.000431,0.654044
6387000,0.0324,0.013523,0.002678,0.000431,0.642527
6388000,0.0324,0.013523,0.002678,0.000431,0.656630
6389000,0.0324,0.013523,0.002678,0.000431,0.642644
6390000,0.0324,0.013523,0.002678,0.000431,0.646758
6391000,0.0324,0.013523,0.002678,0.000431,0.650518
6392000,0.0324,0.013523,0.002678,0.000431,0.655572
6393000,0.0324,0.013523,0.002678,0.000431,0.670616
6394000,0.0324,0.013523,0.002678,0.000431,0.652046
6395000,0.0324,0.013523,0.002678,0.000431,0.639118
6396000,0.0324,0.013523,0.002678,0.000431,0.646287
6397000,0.0324,0.013523,0.002678,0.000431,0.643114
6398000,0.0324,0.013523,0.002678,0.000431,0.649696
6399000,0.0324,0.013523,0.002678,0.000431,0.629011
6400000,0.0324,0.013523,0.002678,0.000431,0.635005
6401000,0.0324,0.013523,0.002678,0.000431,0.649343
6402000,0.0324,0.013523,0.002678,0.000431,0.637943
6403000,0.0324,0.013523,0.002678,0.000431,0.652046
6404000,0.0324,0.013523,0.002678,0.000431,0.668148
6405000,0.0324,0.013523,0.002678,0.000431,0.644289
6406000,0.0324,0.013523,0.002678,0.000431,0.648403
6407000,0.0324,0.013523,0.002678,0.000431,0.648285
6408000,0.0324,0.013523,0.002678,0.000431,0.659921
6409000,0.0324,0.013523,0.002678,0.000431,0.649226
6410000,0.0324,0.013523,0.002678,0.000431,0.616553
6411000,0.0324,0.013523,0.002678,0.000431,0.646405
6412000,0.0324,0.013523,0.002678,0.000431,0.634770
6413000,0.0324,0.013523,0.002678,0.000431,0.649696
6414000,0.0324,0.013523,0.002678,0.000431,0.643232
6415000,0.0324,0.013523,0.002678,0.000431,0.652046
6416000,0.0324,0.013523,0.002678,0.000431,0.643349
6417000,0.0324,0.013523,0.002678,0.000431,0.648168
6418000,0.0324,0.013523,0.002678,0.000431,0.650283
6419000,0.0324,0.013523,0.002678,0.000431,0.649226
6420000,0.0324,0.013523,0.002678,0.000431,0.644407
6421000,0.0324,0.013523,0.002678,0.000431,0.628658
6422000,0.0324,0.013523,0.002678,0.000431,0.656042
6423000,0.0324,0.013523,0.002678,0.000431,0.646640
6424000,0.0324,0.013523,0.002678,0.000431,0.660626
6425000,0.0324,0.013523,0.002678,0.000431,0.644877
6426000,0.0324,0.013523,0.002678,0.000431,0.648638
6427000,0.0324,0.013523,0.002678,0.000431,0.637473
6428000,0.0324,0.013523,0.002678,0.000431,0.653809
6429000,0.0324,0.013523,0.002678,0.000431,0.653457
6430000,0.0324,0.013523,0.002678,0.000431,0.638648
6431000,0.0324,0.013523,0.002678,0.000431,0.633594
6432000,0.0324,0.013523,0.002678,0.000431,0.629716
6433000,0.0324,0.013523,0.002678,0.000431,0.631126
6434000,0.0324,0.013523,0.002678,0.000431,0.656042
6435000,0.0324,0.013523,0.002678,0.000431,0.645465
6436000,0.0324,0.013523,0.002678,0.000431,0.649226
6437000,0.0324,0.013523,0.002678,0.000431,0.644877
6438000,0.0324,0.013523,0.002678,0.000431,0.634182
6439000,0.0324,0.013523,0.002678,0.000431,0.637238
6440000,0.0324,0.013523,0.002678,0.000431,0.628306
6441000,0.0324,0.013523,0.002678,0.000431,0.617493
6442000,0.0324,0.013523,0.002678,0.000431,0.631244
6443000,0.0324,0.013523,0.002678,0.000431,0.653457
6444000,0.0324,0.013523,0.002678,0.000431,0.658863
6445000,0.0324,0.013523,0.002678,0.000431,0.651224
6446000,0.0324,0.013523,0.002678,0.000431,0.644642
6447000,0.0324,0.013523,0.002678,0.000431,0.636063
6448000,0.0324,0.013523,0.002678,0.000431,0.636533
6449000,0.0324,0.013523,0.002678,0.000431,0.652046
6450000,0.0324,0.013523,0.002678,0.000431,0.635475
6451000,0.0324,0.013523,0.002678,0.000431,0.620079
6452000,0.0324,0.013523,0.002678,0.000431,0.644407
6453000,0.0324,0.013523,0.002678,0.000431,0.610324
6454000,0.0324,0.013523,0.002678,0.000431,0.630539
6455000,0.0324,0.013523,0.002678,0.000431,0.631009
6456000,0.0324,0.013523,0.002678,0.000431,0.633007
6457000,0.0324,0.013523,0.002678,0.000431,0.648403
6458000,0.0324,0.013523,0.002678,0.000431,0.624545
6459000,0.0324,0.013523,0.002678,0.000431,0.628071
6460000,0.0324,0.013523,0.002678,0.000431,0.654632
6461000,0.0324,0.013523,0.002678,0.000431,0.641586
6462000,0.0324,0.013523,0.002678,0.000431,0.644407
6463000,0.0324,0.013523,0.002678,0.000431,0.644172
6464000,0.0324,0.013523,0.002678,0.000431,0.645700
6465000,0.0324,0.013523,0.002678,0.000431,0.633477
6466000,0.0324,0.013523,0.002678,0.000431,0.637708
6467000,0.0324,0.013523,0.002678,0.000431,0.635710
6468000,0.0324,0.013523,0.002678,0.000431,0.653339
6469000,0.0324,0.013523,0.002678,0.000431,0.640646
6470000,0.0324,0.013523,0.002678,0.000431,0.644760
6471000,0.0324,0.013523,0.002678,0.000431,0.641704
6472000,0.0324,0.013523,0.002678,0.000431,0.661331
6473000,0.0324,0.013523,0.002678,0.000431,0.637473
6474000,0.0324,0.013523,0.002678,0.000431,0.649343
6475000,0.0324,0.013523,0.002678,0.000431,0.617023
6476000,0.0324,0.013523,0.002678,0.000431,0.624897
6477000,0.0324,0.013523,0.002678,0.000431,0.645465
6478000,0.0324,0.013523,0.002678,0.000431,0.635005
6479000,0.0324,0.013523,0.002678,0.000431,0.629716
6480000,0.0324,0.013523,0.002678,0.000431,0.620784
6481000,0.0324,0.013523,0.002678,0.000431,0.650518
6482000,0.0324,0.013523,0.002678,0.000431,0.630774
6483000,0.0324,0.013523,0.002678,0.000431,0.646052
6484000,0.0324,0.013523,0.002678,0.000431,0.637473
6485000,0.0324,0.013523,0.002678,0.000431,0.639001
6486000,0.0324,0.013523,0.002678,0.000431,0.635827
6487000,0.0324,0.013523,0.002678,0.000431,0.614085
6488000,0.0324,0.013523,0.002678,0.000431,0.634652
6489000,0.0324,0.013523,0.002678,0.000431,0.627248
6490000,0.0324,0.013523,0.002678,0.000431,0.633124
6491000,0.0324,0.013523,0.002678,0.000431,0.639706
6492000,0.0324,0.013523,0.002678,0.000431,0.608796
6493000,0.0324,0.013523,0.002678,0.000431,0.635710
6494000,0.0324,0.013523,0.002678,0.000431,0.636885
6495000,0.0324,0.013523,0.002678,0.000431,0.635475
6496000,0.0324,0.013523,0.002678,0.000431,0.660156
6497000,0.0324,0.013523,0.002678,0.000431,0.652634
6498000,0.0324,0.013523,0.002678,0.000431,0.648285
6499000,0.0324,0.013523,0.002678,0.000431,0.631479
6500000,0.0324,0.013523,0.002678,0.000431,0.646405
6501000,0.0324,0.013523,0.002678,0.000431,0.646052
6502000,0.0324,0.013523,0.002678,0.000431,0.637003
6503000,0.0324,0.013523,0.002678,0.000431,0.647698
6504000,0.0324,0.013523,0.002678,0.000431,0.633242
6505000,0.0324,0.013523,0.002678,0.000431,0.637003
6506000,0.0324,0.013523,0.002678,0.000431,0.622429
6507000,0.0324,0.013523,0.002678,0.000431,0.634652
6508000,0.0324,0.013523,0.002678,0.000431,0.654397
6509000,0.0324,0.013523,0.002678,0.000431,0.651929
6510000,0.0324,0.013523,0.002678,0.000431,0.651341
6511000,0.0324,0.013523,0.002678,0.000431,0.646052
6512000,0.0324,0.013523,0.002678,0.000431,0.649578
6513000,0.0324,0.013523,0.002678,0.000431,0.646287
6514000,0.0324,0.013523,0.002678,0.000431,0.631126
6515000,0.0324,0.013523,0.002678,0.000431,0.647345
6516000,0.0324,0.013523,0.002678,0.000431,0.635240
6517000,0.0324,0.013523,0.002678,0.000431,0.647463
6518000,0.0324,0.013523,0.002678,0.000431,0.644407
6519000,0.0324,0.013523,0.002678,0.000431,0.648756
6520000,0.0324,0.013523,0.002678,0.000431,0.643232
6521000,0.0324,0.013523,0.002678,0.000431,0.645230
6522000,0.0324,0.013523,0.002678,0.000431,0.642997
6523000,0.0324,0.013523,0.002678,0.000431,0.660743
6524000,0.0324,0.013523,0.002678,0.000431,0.633359
6525000,0.0324,0.013523,0.002678,0.000431,0.634535
6526000,0.0324,0.013523,0.002678,0.000431,0.651341
6527000,0.0324,0.013523,0.002678,0.000431,0.617493
6528000,0.0324,0.013523,0.002678,0.000431,0.630186
6529000,0.0324,0.013523,0.002678,0.000431,0.623487
6530000,0.0324,0.013523,0.002678,0.000431,0.631361
6531000,0.0324,0.013523,0.002678,0.000431,0.634417
6532000,0.0324,0.013523,0.002678,0.000431,0.614907
6533000,0.0324,0.013523,0.002678,0.000431,0.641351
6534000,0.0324,0.013523,0.002678,0.000431,0.627130
6535000,0.0324,0.013523,0.002678,0.000431,0.637238
6536000,0.0324,0.013523,0.002678,0.000431,0.636768
6537000,0.0324,0.013523,0.002678,0.000431,0.638766
6538000,0.0324,0.013523,0.002678,0.000431,0.636415
6539000,0.0324,0.013523,0.002678,0.000431,0.654044
6540000,0.0324,0.013523,0.002678,0.000431,0.640529
6541000,0.0324,0.013523,0.002678,0.000431,0.631479
6542000,0.0324,0.013523,0.002678,0.000431,0.641234
6543000,0.0324,0.013523,0.002678,0.000431,0.648403
6544000,0.0324,0.013523,0.002678,0.000431,0.628658
6545000,0.0324,0.013523,0.002678,0.000431,0.648756
6546000,0.0324,0.013523,0.002678,0.000431,0.642644
6547000,0.0324,0.013523,0.002678,0.000431,0.635005
6548000,0.0324,0.013523,0.002678,0.000431,0.637473
6549000,0.0324,0.013523,0.002678,0.000431,0.650754
6550000,0.0324,0.013523,0.002678,0.000431,0.639001
6551000,0.0324,0.013523,0.002678,0.000431,0.646640
6552000,0.0324,0.013523,0.002678,0.000431,0.632302
6553000,0.0324,0.013523,0.002678,0.000431,0.643232
6554000,0.0324,0.013523,0.002678,0.000431,0.659333
6555000,0.0324,0.013523,0.002678,0.000431,0.642292
6556000,0.0324,0.013523,0.002678,0.000431,0.624310
6557000,0.0324,0.013523,0.002678,0.000431,0.619256
6558000,0.0324,0.013523,0.002678,0.000431,0.610559
6559000,0.0324,0.013523,0.002678,0.000431,0.635005
6560000,0.0324,0.013523,0.002678,0.000431,0.640646
6561000,0.0324,0.013523,0.002678,0.000431,0.622312
6562000,0.0324,0.013523,0.002678,0.000431,0.634300
6563000,0.0324,0.013523,0.002678,0.000431,0.632067
6564000,0.0324,0.013523,0.002678,0.000431,0.632302
6565000,0.0324,0.013523,0.002678,0.000431,0.629481
6566000,0.0324,0.013523,0.002678,0.000431,0.623840
6567000,0.0324,0.013523,0.002678,0.000431,0.633594
6568000,0.0324,0.013523,0.002678,0.000431,0.630304
6569000,0.0324,0.013523,0.002678,0.000431,0.615965
6570000,0.0324,0.013523,0.002678,0.000431,0.635710
6571000,0.0324,0.013523,0.002678,0.000431,0.637120
6572000,0.0324,0.013523,0.002678,0.000431,0.649813
6573000,0.0324,0.013523,0.002678,0.000431,0.637473
6574000,0.0324,0.013523,0.002678,0.000431,0.617258
6575000,0.0324,0.013523,0.002678,0.000431,0.613262
6576000,0.0324,0.013523,0.002678,0.000431,0.648403
6577000,0.0324,0.013523,0.002678,0.000431,0.624897
6578000,0.0324,0.013523,0.002678,0.000431,0.633477
6579000,0.0324,0.013523,0.002678,0.000431,0.627365
6580000,0.0324,0.013523,0.002678,0.000431,0.634770
6581000,0.0324,0.013523,0.002678,0.000431,0.639118
6582000,0.0324,0.013523,0.002678,0.000431,0.625250
6583000,0.0324,0.013523,0.002678,0.000431,0.624662
6584000,0.0324,0.013523,0.002678,0.000431,0.621959
6585000,0.0324,0.013523,0.002678,0.000431,0.603977
6586000,0.0324,0.013523,0.002678,0.000431,0.632419
6587000,0.0324,0.013523,0.002678,0.000431,0.632654
6588000,0.0324,0.013523,0.002678,0.000431,0.630186
6589000,0.0324,0.013523,0.002678,0.000431,0.614320
6590000,0.0324,0.013523,0.002678,0.000431,0.613732
6591000,0.0324,0.013523,0.002678,0.000431,0.617023
6592000,0.0324,0.013523,0.002678,0.000431,0.638766
6593000,0.0324,0.013523,0.002678,0.000431,0.614202
6594000,0.0324,0.013523,0.002678,0.000431,0.638766
6595000,0.0324,0.013523,0.002678,0.000431,0.645112
6596000,0.0324,0.013523,0.002678,0.000431,0.653809
6597000,0.0324,0.013523,0.002678,0.000431,0.639353
6598000,0.0324,0.013523,0.002678,0.000431,0.639941
6599000,0.0324,0.013523,0.002678,0.000431,0.633712
6600000,0.0324,0.013523,0.002678,0.000431,0.674964
6601000,0.0324,0.013523,0.002678,0.000431,0.659803
6602000,0.0324,0.013523,0.002678,0.000431,0.649226
6603000,0.0324,0.013523,0.002678,0.000431,0.637590
6604000,0.0324,0.013523,0.002678,0.000431,0.636768
6605000,0.0324,0.013523,0.002678,0.000431,0.642997
6606000,0.0324,0.013523,0.002678,0.000431,0.647698
6607000,0.0324,0.013523,0.002678,0.000431,0.637120
6608000,0.0324,0.013523,0.002678,0.000431,0.647580
6609000,0.0324,0.013523,0.002678,0.000431,0.644995
6610000,0.0324,0.013523,0.002678,0.000431,0.616670
6611000,0.0324,0.013523,0.002678,0.000431,0.634652
6612000,0.0324,0.013523,0.002678,0.000431,0.631596
6613000,0.0324,0.013523,0.002678,0.000431,0.634417
6614000,0.0324,0.013523,0.002678,0.000431,0.629481
6615000,0.0324,0.013523,0.002678,0.000431,0.646052
6616000,0.0324,0.013523,0.002678,0.000431,0.630891
6617000,0.0324,0.013523,0.002678,0.000431,0.654397
6618000,0.0324,0.013523,0.002678,0.000431,0.627130
6619000,0.0324,0.013523,0.002678,0.000431,0.633359
6620000,0.0324,0.013523,0.002678,0.000431,0.630656
6621000,0.0324,0.013523,0.002678,0.000431,0.637238
6622000,0.0324,0.013523,0.002678,0.000431,0.624780
6623000,0.0324,0.013523,0.002678,0.000431,0.632537
6624000,0.0324,0.013523,0.002678,0.000431,0.648285
6625000,0.0324,0.013523,0.002678,0.000431,0.640058
6626000,0.0324,0.013523,0.002678,0.000431,0.640999
6627000,0.0324,0.013523,0.002678,0.000431,0.633124
6628000,0.0324,0.013523,0.002678,0.000431,0.639353
6629000,0.0324,0.013523,0.002678,0.000431,0.646170
6630000,0.0324,0.013523,0.002678,0.000431,0.633829
6631000,0.0324,0.013523,0.002678,0.000431,0.635945
6632000,0.0324,0.013523,0.002678,0.000431,0.640646
6633000,0.0324,0.013523,0.002678,0.000431,0.637355
6634000,0.0324,0.013523,0.002678,0.000431,0.639118
6635000,0.0324,0.013523,0.002678,0.000431,0.604212
6636000,0.0324,0.013523,0.002678,0.000431,0.626895
6637000,0.0324,0.013523,0.002678,0.000431,0.625367
6638000,0.0324,0.013523,0.002678,0.000431,0.613967
6639000,0.0324,0.013523,0.002678,0.000431,0.629481
6640000,0.0324,0.013523,0.002678,0.000431,0.634182
6641000,0.0324,0.013523,0.002678,0.000431,0.646523
6642000,0.0324,0.013523,0.002678,0.000431,0.641234
6643000,0.0324,0.013523,0.002678,0.000431,0.644877
6644000,0.0324,0.013523,0.002678,0.000431,0.638061
6645000,0.0324,0.013523,0.002678,0.000431,0.628658
6646000,0.0324,0.013523,0.002678,0.000431,0.609031
6647000,0.0324,0.013523,0.002678,0.000431,0.629246
6648000,0.0324,0.013523,0.002678,0.000431,0.639706
6649000,0.0324,0.013523,0.002678,0.000431,0.625250
6650000,0.0324,0.013523,0.002678,0.000431,0.628893
6651000,0.0324,0.013523,0.002678,0.000431,0.642056
6652000,0.0324,0.013523,0.002678,0.000431,0.646523
6653000,0.0324,0.013523,0.002678,0.000431,0.641704
6654000,0.0324,0.013523,0.002678,0.000431,0.630069
6655000,0.0324,0.013523,0.002678,0.000431,0.633359
6656000,0.0324,0.013523,0.002678,0.000431,0.629834
6657000,0.0324,0.013523,0.002678,0.000431,0.634770
6658000,0.0324,0.013523,0.002678,0.000431,0.634417
6659000,0.0324,0.013523,0.002678,0.000431,0.626308
6660000,0.0324,0.013523,0.002678,0.000431,0.650518
6661000,0.0324,0.013523,0.002678,0.000431,0.627013
6662000,0.0324,0.013523,0.002678,0.000431,0.618786
6663000,0.0324,0.013523,0.002678,0.000431,0.637590
6664000,0.0324,0.013523,0.002678,0.000431,0.627248
6665000,0.0324,0.013523,0.002678,0.000431,0.641586
6666000,0.0324,0.013523,0.002678,0.000431,0.628071
6667000,0.0324,0.013523,0.002678,0.000431,0.651694
6668000,0.0324,0.013523,0.002678,0.000431,0.648991
6669000,0.0324,0.013523,0.002678,0.000431,0.649696
6670000,0.0324,0.013523,0.002678,0.000431,0.611734
6671000,0.0324,0.013523,0.002678,0.000431,0.640176
6672000,0.0324,0.013523,0.002678,0.000431,0.632772
6673000,0.0324,0.013523,0.002678,0.000431,0.625720
6674000,0.0324,0.013523,0.002678,0.000431,0.620784
6675000,0.0324,0.013523,0.002678,0.000431,0.645582
6676000,0.0324,0.013523,0.002678,0.000431,0.642879
6677000,0.0324,0.013523,0.002678,0.000431,0.632302
6678000,0.0324,0.013523,0.002678,0.000431,0.650871
6679000,0.0324,0.013523,0.002678,0.000431,0.639236
6680000,0.0324,0.013523,0.002678,0.000431,0.647933
6681000,0.0324,0.013523,0.002678,0.000431,0.637708
6682000,0.0324,0.013523,0.002678,0.000431,0.641234
6683000,0.0324,0.013523,0.002678,0.000431,0.649578
6684000,0.0324,0.013523,0.002678,0.000431,0.617963
6685000,0.0324,0.013523,0.002678,0.000431,0.632419
6686000,0.0324,0.013523,0.002678,0.000431,0.664622
6687000,0.0324,0.013523,0.002678,0.000431,0.645582
6688000,0.0324,0.013523,0.002678,0.000431,0.638883
6689000,0.0324,0.013523,0.002678,0.000431,0.637003
6690000,0.0324,0.013523,0.002678,0.000431,0.638413
6691000,0.0324,0.013523,0.002678,0.000431,0.653222
6692000,0.0324,0.013523,0.002678,0.000431,0.624427
6693000,0.0324,0.013523,0.002678,0.000431,0.639706
6694000,0.0324,0.013523,0.002678,0.000431,0.627718
6695000,0.0324,0.013523,0.002678,0.000431,0.634535
6696000,0.0324,0.013523,0.002678,0.000431,0.645347
6697000,0.0324,0.013523,0.002678,0.000431,0.628541
6698000,0.0324,0.013523,0.002678,0.000431,0.633242
6699000,0.0324,0.013523,0.002678,0.000431,0.629834
6700000,0.0324,0.013523,0.002678,0.000431,0.633007
6701000,0.0324,0.013523,0.002678,0.000431,0.641234
6702000,0.0324,0.013523,0.002678,0.000431,0.633712
6703000,0.0324,0.013523,0.002678,0.000431,0.630539
6704000,0.0324,0.013523,0.002678,0.000431,0.647345
6705000,0.0324,0.013523,0.002678,0.000431,0.621254
6706000,0.0324,0.013523,0.002678,0.000431,0.623017
6707000,0.0324,0.013523,0.002678,0.000431,0.630774
6708000,0.0324,0.013523,0.002678,0.000431,0.627953
6709000,0.0324,0.013523,0.002678,0.000431,0.645465
6710000,0.0324,0.013523,0.002678,0.000431,0.644289
6711000,0.0324,0.013523,0.002678,0.000431,0.640999
6712000,0.0324,0.013523,0.002678,0.000431,0.633007
6713000,0.0324,0.013523,0.002678,0.000431,0.632302
6714000,0.0324,0.013523,0.002678,0.000431,0.643584
6715000,0.0324,0.013523,0.002678,0.000431,0.636768
6716000,0.0324,0.013523,0.002678,0.000431,0.652634
6717000,0.0324,0.013523,0.002678,0.000431,0.664739
6718000,0.0324,0.013523,0.002678,0.000431,0.640529
6719000,0.0324,0.013523,0.002678,0.000431,0.642997
6720000,0.0324,0.013523,0.002678,0.000431,0.619138
6721000,0.0324,0.013523,0.002678,0.000431,0.625367
6722000,0.0324,0.013523,0.002678,0.000431,0.622312
6723000,0.0324,0.013523,0.002678,0.000431,0.644172
6724000,0.0324,0.013523,0.002678,0.000431,0.644289
6725000,0.0324,0.013523,0.002678,0.000431,0.625367
6726000,0.0324,0.013523,0.002678,0.000431,0.638296
6727000,0.0324,0.013523,0.002678,0.000431,0.630421
6728000,0.0324,0.013523,0.002678,0.000431,0.642409
6729000,0.0324,0.013523,0.002678,0.000431,0.647815
6730000,0.0324,0.013523,0.002678,0.000431,0.650636
6731000,0.0324,0.013523,0.002678,0.000431,0.642879
6732000,0.0324,0.013523,0.002678,0.000431,0.647110
6733000,0.0324,0.013523,0.002678,0.000431,0.657570
6734000,0.0324,0.013523,0.002678,0.000431,0.647698
6735000,0.0324,0.013523,0.002678,0.000431,0.620314
6736000,0.0324,0.013523,0.002678,0.000431,0.650283
6737000,0.0324,0.013523,0.002678,0.000431,0.649578
6738000,0.0324,0.013523,0.002678,0.000431,0.638413
6739000,0.0324,0.013523,0.002678,0.000431,0.639706
6740000,0.0324,0.013523,0.002678,0.000431,0.625603
6741000,0.0324,0.013523,0.002678,0.000431,0.640058
6742000,0.0324,0.013523,0.002678,0.000431,0.634182
6743000,0.0324,0.013523,0.002678,0.000431,0.639001
6744000,0.0324,0.013523,0.002678,0.000431,0.636180
6745000,0.0324,0.013523,0.002678,0.000431,0.648638
6746000,0.0324,0.013523,0.002678,0.000431,0.651459
6747000,0.0324,0.013523,0.002678,0.000431,0.653339
6748000,0.0324,0.013523,0.002678,0.000431,0.639588
6749000,0.0324,0.013523,0.002678,0.000431,0.636885
6750000,0.0324,0.013523,0.002678,0.000431,0.638413
6751000,0.0324,0.013523,0.002678,0.000431,0.635945
6752000,0.0324,0.013523,0.002678,0.000431,0.635592
6753000,0.0324,0.013523,0.002678,0.000431,0.647580
6754000,0.0324,0.013523,0.002678,0.000431,0.636650
6755000,0.0324,0.013523,0.002678,0.000431,0.628893
6756000,0.0324,0.013523,0.002678,0.000431,0.636650
6757000,0.0324,0.013523,0.002678,0.000431,0.630421
6758000,0.0324,0.013523,0.002678,0.000431,0.651929
6759000,0.0324,0.013523,0.002678,0.000431,0.640881
6760000,0.0324,0.013523,0.002678,0.000431,0.641821
6761000,0.0324,0.013523,0.002678,0.000431,0.642879
6762000,0.0324,0.013523,0.002678,0.000431,0.640999
6763000,0.0324,0.013523,0.002678,0.000431,0.640646
6764000,0.0324,0.013523,0.002678,0.000431,0.645112
6765000,0.0324,0.013523,0.002678,0.000431,0.612792
6766000,0.0324,0.013523,0.002678,0.000431,0.627130
6767000,0.0324,0.013523,0.002678,0.000431,0.627836
6768000,0.0324,0.013523,0.002678,0.000431,0.631361
6769000,0.0324,0.013523,0.002678,0.000431,0.639941
6770000,0.0324,0.013523,0.002678,0.000431,0.631361
6771000,0.0324,0.013523,0.002678,0.000431,0.635240
6772000,0.0324,0.013523,0.002678,0.000431,0.645465
6773000,0.0324,0.013523,0.002678,0.000431,0.634770
6774000,0.0324,0.013523,0.002678,0.000431,0.624897
6775000,0.0324,0.013523,0.002678,0.000431,0.654867
6776000,0.0324,0.013523,0.002678,0.000431,0.631596
6777000,0.0324,0.013523,0.002678,0.000431,0.644995
6778000,0.0324,0.013523,0.002678,0.000431,0.642879
6779000,0.0324,0.013523,0.002678,0.000431,0.656160
6780000,0.0324,0.013523,0.002678,0.000431,0.637355
6781000,0.0324,0.013523,0.002678,0.000431,0.637825
6782000,0.0324,0.013523,0.002678,0.000431,0.642527
6783000,0.0324,0.013523,0.002678,0.000431,0.615378
6784000,0.0324,0.013523,0.002678,0.000431,0.643937
6785000,0.0324,0.013523,0.002678,0.000431,0.645465
6786000,0.0324,0.013523,0.002678,0.000431,0.642292
6787000,0.0324,0.013523,0.002678,0.000431,0.636415
6788000,0.0324,0.013523,0.002678,0.000431,0.646405
6789000,0.0324,0.013523,0.002678,0.000431,0.631244
6790000,0.0324,0.013523,0.002678,0.000431,0.631479
6791000,0.0324,0.013523,0.002678,0.000431,0.644642
6792000,0.0324,0.013523,0.002678,0.000431,0.635945
6793000,0.0324,0.013523,0.002678,0.000431,0.632772
6794000,0.0324,0.013523,0.002678,0.000431,0.622664
6795000,0.0324,0.013523,0.002678,0.000431,0.628776
6796000,0.0324,0.013523,0.002678,0.000431,0.633947
6797000,0.0324,0.013523,0.002678,0.000431,0.649578
6798000,0.0324,0.013523,0.002678,0.000431,0.646640
6799000,0.0324,0.013523,0.002678,0.000431,0.642879
6800000,0.0324,0.013523,0.002678,0.000431,0.641586
6801000,0.0324,0.013523,0.002678,0.000431,0.627483
6802000,0.0324,0.013523,0.002678,0.000431,0.641939
6803000,0.0324,0.013523,0.002678,0.000431,0.624897
6804000,0.0324,0.013523,0.002678,0.000431,0.652634
6805000,0.0324,0.013523,0.002678,0.000431,0.643467
6806000,0.0324,0.013523,0.002678,0.000431,0.639353
6807000,0.0324,0.013523,0.002678,0.000431,0.631832
6808000,0.0324,0.013523,0.002678,0.000431,0.627248
6809000,0.0324,0.013523,0.002678,0.000431,0.631714
6810000,0.0324,0.013523,0.002678,0.000431,0.641234
6811000,0.0324,0.013523,0.002678,0.000431,0.646758
6812000,0.0324,0.013523,0.002678,0.000431,0.623487
6813000,0.0324,0.013523,0.002678,0.000431,0.648050
6814000,0.0324,0.013523,0.002678,0.000431,0.647698
6815000,0.0324,0.013523,0.002678,0.000431,0.633359
6816000,0.0324,0.013523,0.002678,0.000431,0.640529
6817000,0.0324,0.013523,0.002678,0.000431,0.632889
6818000,0.0324,0.013523,0.002678,0.000431,0.631596
6819000,0.0324,0.013523,0.002678,0.000431,0.630421
6820000,0.0324,0.013523,0.002678,0.000431,0.620784
6821000,0.0324,0.013523,0.002678,0.000431,0.641704
6822000,0.0324,0.013523,0.002678,0.000431,0.627836
6823000,0.0324,0.013523,0.002678,0.000431,0.635240
6824000,0.0324,0.013523,0.002678,0.000431,0.629598
6825000,0.0324,0.013523,0.002678,0.000431,0.636650
6826000,0.0324,0.013523,0.002678,0.000431,0.652869
6827000,0.0324,0.013523,0.002678,0.000431,0.642292
6828000,0.0324,0.013523,0.002678,0.000431,0.651459
6829000,0.0324,0.013523,0.002678,0.000431,0.624545
6830000,0.0324,0.013523,0.002678,0.000431,0.628188
6831000,0.0324,0.013523,0.002678,0.000431,0.647345
6832000,0.0324,0.013523,0.002678,0.000431,0.652869
6833000,0.0324,0.013523,0.002678,0.000431,0.618081
6834000,0.0324,0.013523,0.002678,0.000431,0.652399
6835000,0.0324,0.013523,0.002678,0.000431,0.653692
6836000,0.0324,0.013523,0.002678,0.000431,0.636768
6837000,0.0324,0.013523,0.002678,0.000431,0.649226
6838000,0.0324,0.013523,0.002678,0.000431,0.641469
6839000,0.0324,0.013523,0.002678,0.000431,0.646287
6840000,0.0324,0.013523,0.002678,0.000431,0.644525
6841000,0.0324,0.013523,0.002678,0.000431,0.648050
6842000,0.0324,0.013523,0.002678,0.000431,0.629716
6843000,0.0324,0.013523,0.002678,0.000431,0.635475
6844000,0.0324,0.013523,0.002678,0.000431,0.637943
6845000,0.0324,0.013523,0.002678,0.000431,0.641469
6846000,0.0324,0.013523,0.002678,0.000431,0.636298
6847000,0.0324,0.013523,0.002678,0.000431,0.649931
6848000,0.0324,0.013523,0.002678,0.000431,0.646052
6849000,0.0324,0.013523,0.002678,0.000431,0.647815
6850000,0.0324,0.013523,0.002678,0.000431,0.625015
6851000,0.0324,0.013523,0.002678,0.000431,0.643702
6852000,0.0324,0.013523,0.002678,0.000431,0.647110
6853000,0.0324,0.013523,0.002678,0.000431,0.646170
6854000,0.0324,0.013523,0.002678,0.000431,0.649108
6855000,0.0324,0.013523,0.002678,0.000431,0.637943
6856000,0.0324,0.013523,0.002678,0.000431,0.632419
6857000,0.0324,0.013523,0.002678,0.000431,0.637943
6858000,0.0324,0.013523,0.002678,0.000431,0.638413
6859000,0.0324,0.013523,0.002678,0.000431,0.658158
6860000,0.0324,0.013523,0.002678,0.000431,0.658393
6861000,0.0324,0.013523,0.002678,0.000431,0.655337
6862000,0.0324,0.013523,0.002678,0.000431,0.653222
6863000,0.0324,0.013523,0.002678,0.000431,0.641234
6864000,0.0324,0.013523,0.002678,0.000431,0.652752
6865000,0.0324,0.013523,0.002678,0.000431,0.644172
6866000,0.0324,0.013523,0.002678,0.000431,0.660508
6867000,0.0324,0.013523,0.002678,0.000431,0.656512
6868000,0.0324,0.013523,0.002678,0.000431,0.653809
6869000,0.0324,0.013523,0.002678,0.000431,0.632654
6870000,0.0324,0.013523,0.002678,0.000431,0.646405
6871000,0.0324,0.013523,0.002678,0.000431,0.641234
6872000,0.0324,0.013523,0.002678,0.000431,0.638531
6873000,0.0324,0.013523,0.002678,0.000431,0.635710
6874000,0.0324,0.013523,0.002678,0.000431,0.647228
6875000,0.0324,0.013523,0.002678,0.000431,0.643937
6876000,0.0324,0.013523,0.002678,0.000431,0.656512
6877000,0.0324,0.013523,0.002678,0.000431,0.651576
6878000,0.0324,0.013523,0.002678,0.000431,0.652752
6879000,0.0324,0.013523,0.002678,0.000431,0.644054
6880000,0.0324,0.013523,0.002678,0.000431,0.648991
6881000,0.0324,0.013523,0.002678,0.000431,0.636885
6882000,0.0324,0.013523,0.002678,0.000431,0.641821
6883000,0.0324,0.013523,0.002678,0.000431,0.622547
6884000,0.0324,0.013523,0.002678,0.000431,0.639236
6885000,0.0324,0.013523,0.002678,0.000431,0.659333
6886000,0.0324,0.013523,0.002678,0.000431,0.645347
6887000,0.0324,0.013523,0.002678,0.000431,0.650871
6888000,0.0324,0.013523,0.002678,0.000431,0.639706
6889000,0.0324,0.013523,0.002678,0.000431,0.639236
6890000,0.0324,0.013523,0.002678,0.000431,0.631596
6891000,0.0324,0.013523,0.002678,0.000431,0.650518
6892000,0.0324,0.013523,0.002678,0.000431,0.650871
6893000,0.0324,0.013523,0.002678,0.000431,0.655455
6894000,0.0324,0.013523,0.002678,0.000431,0.642409
6895000,0.0324,0.013523,0.002678,0.000431,0.636180
6896000,0.0324,0.013523,0.002678,0.000431,0.632067
6897000,0.0324,0.013523,0.002678,0.000431,0.638413
6898000,0.0324,0.013523,0.002678,0.000431,0.628306
6899000,0.0324,0.013523,0.002678,0.000431,0.655337
6900000,0.0324,0.013523,0.002678,0.000431,0.656042
6901000,0.0324,0.013523,0.002678,0.000431,0.622077
6902000,0.0324,0.013523,0.002678,0.000431,0.623017
6903000,0.0324,0.013523,0.002678,0.000431,0.627013
6904000,0.0324,0.013523,0.002678,0.000431,0.645582
6905000,0.0324,0.013523,0.002678,0.000431,0.641939
6906000,0.0324,0.013523,0.002678,0.000431,0.613145
6907000,0.0324,0.013523,0.002678,0.000431,0.633594
6908000,0.0324,0.013523,0.002678,0.000431,0.636533
6909000,0.0324,0.013523,0.002678,0.000431,0.640294
6910000,0.0324,0.013523,0.002678,0.000431,0.639236
6911000,0.0324,0.013523,0.002678,0.000431,0.616083
6912000,0.0324,0.013523,0.002678,0.000431,0.617728
6913000,0.0324,0.013523,0.002678,0.000431,0.625955
6914000,0.0324,0.013523,0.002678,0.000431,0.653809
6915000,0.0324,0.013523,0.002678,0.000431,0.626660
6916000,0.0324,0.013523,0.002678,0.000431,0.625838
6917000,0.0324,0.013523,0.002678,0.000431,0.633712
6918000,0.0324,0.013523,0.002678,0.000431,0.641821
6919000,0.0324,0.013523,0.002678,0.000431,0.655807
6920000,0.0324,0.013523,0.002678,0.000431,0.646405
6921000,0.0324,0.013523,0.002678,0.000431,0.635945
6922000,0.0324,0.013523,0.002678,0.000431,0.635005
6923000,0.0324,0.013523,0.002678,0.000431,0.615378
6924000,0.0324,0.013523,0.002678,0.000431,0.643232
6925000,0.0324,0.013523,0.002678,0.000431,0.654162
6926000,0.0324,0.013523,0.002678,0.000431,0.641234
6927000,0.0324,0.013523,0.002678,0.000431,0.634065
6928000,0.0324,0.013523,0.002678,0.000431,0.652046
6929000,0.0324,0.013523,0.002678,0.000431,0.633594
6930000,0.0324,0.013523,0.002678,0.000431,0.652046
6931000,0.0324,0.013523,0.002678,0.000431,0.644289
6932000,0.0324,0.013523,0.002678,0.000431,0.642527
6933000,0.0324,0.013523,0.002678,0.000431,0.643114
6934000,0.0324,0.013523,0.002678,0.000431,0.629246
6935000,0.0324,0.013523,0.002678,0.000431,0.622194
6936000,0.0324,0.013523,0.002678,0.000431,0.631479
6937000,0.0324,0.013523,0.002678,0.000431,0.636063
6938000,0.0324,0.013523,0.002678,0.000431,0.618081
6939000,0.0324,0.013523,0.002678,0.000431,0.633007
6940000,0.0324,0.013523,0.002678,0.000431,0.637355
6941000,0.0324,0.013523,0.002678,0.000431,0.654867
6942000,0.0324,0.013523,0.002678,0.000431,0.630891
6943000,0.0324,0.013523,0.002678,0.000431,0.647110
6944000,0.0324,0.013523,0.002678,0.000431,0.626543
6945000,0.0324,0.013523,0.002678,0.000431,0.631009
6946000,0.0324,0.013523,0.002678,0.000431,0.645935
6947000,0.0324,0.013523,0.002678,0.000431,0.629834
6948000,0.0324,0.013523,0.002678,0.000431,0.636415
6949000,0.0324,0.013523,0.002678,0.000431,0.642997
6950000,0.0324,0.013523,0.002678,0.000431,0.639118
6951000,0.0324,0.013523,0.002678,0.000431,0.635827
6952000,0.0324,0.013523,0.002678,0.000431,0.623957
6953000,0.0324,0.013523,0.002678,0.000431,0.634417
6954000,0.0324,0.013523,0.002678,0.000431,0.645230
6955000,0.0324,0.013523,0.002678,0.000431,0.637120
6956000,0.0324,0.013523,0.002678,0.000431,0.648873
6957000,0.0324,0.013523,0.002678,0.000431,0.641234
6958000,0.0324,0.013523,0.002678,0.000431,0.624192
6959000,0.0324,0.013523,0.002678,0.000431,0.628423
6960000,0.0324,0.013523,0.002678,0.000431,0.655455
6961000,0.0324,0.013523,0.002678,0.000431,0.630539
6962000,0.0324,0.013523,0.002678,0.000431,0.638883
6963000,0.0324,0.013523,0.002678,0.000431,0.621959
6964000,0.0324,0.013523,0.002678,0.000431,0.628423
6965000,0.0324,0.013523,0.002678,0.000431,0.618903
6966000,0.0324,0.013523,0.002678,0.000431,0.631361
6967000,0.0324,0.013523,0.002678,0.000431,0.630421
6968000,0.0324,0.013523,0.002678,0.000431,0.647815
6969000,0.0324,0.013523,0.002678,0.000431,0.634417
6970000,0.0324,0.013523,0.002678,0.000431,0.626308
6971000,0.0324,0.013523,0.002678,0.000431,0.639236
6972000,0.0324,0.013523,0.002678,0.000431,0.643349
6973000,0.0324,0.013523,0.002678,0.000431,0.647698
6974000,0.0324,0.013523,0.002678,0.000431,0.648521
6975000,0.0324,0.013523,0.002678,0.000431,0.641351
6976000,0.0324,0.013523,0.002678,0.000431,0.643937
6977000,0.0324,0.013523,0.002678,0.000431,0.643349
6978000,0.0324,0.013523,0.002678,0.000431,0.643349
6979000,0.0324,0.013523,0.002678,0.000431,0.638178
6980000,0.0324,0.013523,0.002678,0.000431,0.623134
6981000,0.0324,0.013523,0.002678,0.000431,0.642292
6982000,0.0324,0.013523,0.002678,0.000431,0.639236
6983000,0.0324,0.013523,0.002678,0.000431,0.638413
6984000,0.0324,0.013523,0.002678,0.000431,0.621372
6985000,0.0324,0.013523,0.002678,0.000431,0.626190
6986000,0.0324,0.013523,0.002678,0.000431,0.629011
6987000,0.0324,0.013523,0.002678,0.000431,0.643349
6988000,0.0324,0.013523,0.002678,0.000431,0.627365
6989000,0.0324,0.013523,0.002678,0.000431,0.642997
6990000,0.0324,0.013523,0.002678,0.000431,0.629716
6991000,0.0324,0.013523,0.002678,0.000431,0.648403
6992000,0.0324,0.013523,0.002678,0.000431,0.627365
6993000,0.0324,0.013523,0.002678,0.000431,0.623840
6994000,0.0324,0.013523,0.002678,0.000431,0.647815
6995000,0.0324,0.013523,0.002678,0.000431,0.639588
6996000,0.0324,0.013523,0.002678,0.000431,0.621489
6997000,0.0324,0.013523,0.002678,0.000431,0.633007
6998000,0.0324,0.013523,0.002678,0.000431,0.621489
6999000,0.0324,0.013523,0.002678,0.000431,0.632537
