Cycle,Area(mm^2),PeakDynamic(W),SubthresholdLeakage(W),GateLeakage(W),RunTimeDynamic(W)
3000000,0.0324,0.013523,0.002678,0.000431,0.668500
3001000,0.0324,0.013523,0.002678,0.000431,0.661684
3002000,0.0324,0.013523,0.002678,0.000431,0.661449
3003000,0.0324,0.013523,0.002678,0.000431,0.701173
3004000,0.0324,0.013523,0.002678,0.000431,0.679548
3005000,0.0324,0.013523,0.002678,0.000431,0.681781
3006000,0.0324,0.013523,0.002678,0.000431,0.654279
3007000,0.0324,0.013523,0.002678,0.000431,0.667443
3008000,0.0324,0.013523,0.002678,0.000431,0.697647
3009000,0.0324,0.013523,0.002678,0.000431,0.681311
3010000,0.0324,0.013523,0.002678,0.000431,0.680136
3011000,0.0324,0.013523,0.002678,0.000431,0.675787
3012000,0.0324,0.013523,0.002678,0.000431,0.670616
3013000,0.0324,0.013523,0.002678,0.000431,0.686717
3014000,0.0324,0.013523,0.002678,0.000431,0.680723
3015000,0.0324,0.013523,0.002678,0.000431,0.671909
3016000,0.0324,0.013523,0.002678,0.000431,0.684954
3017000,0.0324,0.013523,0.002678,0.000431,0.658628
3018000,0.0324,0.013523,0.002678,0.000431,0.651694
3019000,0.0324,0.013523,0.002678,0.000431,0.663682
3020000,0.0324,0.013523,0.002678,0.000431,0.650283
3021000,0.0324,0.013523,0.002678,0.000431,0.681428
3022000,0.0324,0.013523,0.002678,0.000431,0.680253
3023000,0.0324,0.013523,0.002678,0.000431,0.678490
3024000,0.0324,0.013523,0.002678,0.000431,0.689185
3025000,0.0324,0.013523,0.002678,0.000431,0.686600
3026000,0.0324,0.013523,0.002678,0.000431,0.688010
3027000,0.0324,0.013523,0.002678,0.000431,0.675317
3028000,0.0324,0.013523,0.002678,0.000431,0.662976
3029000,0.0324,0.013523,0.002678,0.000431,0.667207
3030000,0.0324,0.013523,0.002678,0.000431,0.659803
3031000,0.0324,0.013523,0.002678,0.000431,0.668853
3032000,0.0324,0.013523,0.002678,0.000431,0.667678
3033000,0.0324,0.013523,0.002678,0.000431,0.666385
3034000,0.0324,0.013523,0.002678,0.000431,0.665327
3035000,0.0324,0.013523,0.002678,0.000431,0.678255
3036000,0.0324,0.013523,0.002678,0.000431,0.662271
3037000,0.0324,0.013523,0.002678,0.000431,0.661919
3038000,0.0324,0.013523,0.002678,0.000431,0.652046
3039000,0.0324,0.013523,0.002678,0.000431,0.705639
3040000,0.0324,0.013523,0.002678,0.000431,0.689185
3041000,0.0324,0.013523,0.002678,0.000431,0.651224
3042000,0.0324,0.013523,0.002678,0.000431,0.681428
3043000,0.0324,0.013523,0.002678,0.000431,0.686600
3044000,0.0324,0.013523,0.002678,0.000431,0.701408
3045000,0.0324,0.013523,0.002678,0.000431,0.690243
3046000,0.0324,0.013523,0.002678,0.000431,0.676257
3047000,0.0324,0.013523,0.002678,0.000431,0.688833
3048000,0.0324,0.013523,0.002678,0.000431,0.702819
3049000,0.0324,0.013523,0.002678,0.000431,0.685307
3050000,0.0324,0.013523,0.002678,0.000431,0.662624
3051000,0.0324,0.013523,0.002678,0.000431,0.669205
3052000,0.0324,0.013523,0.002678,0.000431,0.706227
3053000,0.0324,0.013523,0.002678,0.000431,0.644995
3054000,0.0324,0.013523,0.002678,0.000431,0.668735
3055000,0.0324,0.013523,0.002678,0.000431,0.636768
3056000,0.0324,0.013523,0.002678,0.000431,0.675787
3057000,0.0324,0.013523,0.002678,0.000431,0.660038
3058000,0.0324,0.013523,0.002678,0.000431,0.680018
3059000,0.0324,0.013523,0.002678,0.000431,0.659686
3060000,0.0324,0.013523,0.002678,0.000431,0.674964
3061000,0.0324,0.013523,0.002678,0.000431,0.684014
3062000,0.0324,0.013523,0.002678,0.000431,0.666620
3063000,0.0324,0.013523,0.002678,0.000431,0.652164
3064000,0.0324,0.013523,0.002678,0.000431,0.701291
3065000,0.0324,0.013523,0.002678,0.000431,0.664034
3066000,0.0324,0.013523,0.002678,0.000431,0.665092
3067000,0.0324,0.013523,0.002678,0.000431,0.663799
3068000,0.0324,0.013523,0.002678,0.000431,0.672731
3069000,0.0324,0.013523,0.002678,0.000431,0.682134
3070000,0.0324,0.013523,0.002678,0.000431,0.671321
3071000,0.0324,0.013523,0.002678,0.000431,0.694827
3072000,0.0324,0.013523,0.002678,0.000431,0.653574
3073000,0.0324,0.013523,0.002678,0.000431,0.656865
3074000,0.0324,0.013523,0.002678,0.000431,0.655690
3075000,0.0324,0.013523,0.002678,0.000431,0.642056
3076000,0.0324,0.013523,0.002678,0.000431,0.655572
3077000,0.0324,0.013523,0.002678,0.000431,0.661331
3078000,0.0324,0.013523,0.002678,0.000431,0.665092
3079000,0.0324,0.013523,0.002678,0.000431,0.674377
3080000,0.0324,0.013523,0.002678,0.000431,0.683896
3081000,0.0324,0.013523,0.002678,0.000431,0.679195
3082000,0.0324,0.013523,0.002678,0.000431,0.665210
3083000,0.0324,0.013523,0.002678,0.000431,0.686600
3084000,0.0324,0.013523,0.002678,0.000431,0.682721
3085000,0.0324,0.013523,0.002678,0.000431,0.674964
3086000,0.0324,0.013523,0.002678,0.000431,0.654632
3087000,0.0324,0.013523,0.002678,0.000431,0.671909
3088000,0.0324,0.013523,0.002678,0.000431,0.660626
3089000,0.0324,0.013523,0.002678,0.000431,0.639941
3090000,0.0324,0.013523,0.002678,0.000431,0.669205
3091000,0.0324,0.013523,0.002678,0.000431,0.673436
3092000,0.0324,0.013523,0.002678,0.000431,0.700938
3093000,0.0324,0.013523,0.002678,0.000431,0.677903
3094000,0.0324,0.013523,0.002678,0.000431,0.659568
3095000,0.0324,0.013523,0.002678,0.000431,0.652164
3096000,0.0324,0.013523,0.002678,0.000431,0.649578
3097000,0.0324,0.013523,0.002678,0.000431,0.670968
3098000,0.0324,0.013523,0.002678,0.000431,0.661331
3099000,0.0324,0.013523,0.002678,0.000431,0.668970
3100000,0.0324,0.013523,0.002678,0.000431,0.664739
3101000,0.0324,0.013523,0.002678,0.000431,0.681428
3102000,0.0324,0.013523,0.002678,0.000431,0.647580
3103000,0.0324,0.013523,0.002678,0.000431,0.689890
3104000,0.0324,0.013523,0.002678,0.000431,0.671439
3105000,0.0324,0.013523,0.002678,0.000431,0.652516
3106000,0.0324,0.013523,0.002678,0.000431,0.660508
3107000,0.0324,0.013523,0.002678,0.000431,0.671556
3108000,0.0324,0.013523,0.002678,0.000431,0.679901
3109000,0.0324,0.013523,0.002678,0.000431,0.666032
3110000,0.0324,0.013523,0.002678,0.000431,0.660156
3111000,0.0324,0.013523,0.002678,0.000431,0.656395
3112000,0.0324,0.013523,0.002678,0.000431,0.663682
3113000,0.0324,0.013523,0.002678,0.000431,0.665680
3114000,0.0324,0.013523,0.002678,0.000431,0.655572
3115000,0.0324,0.013523,0.002678,0.000431,0.663917
3116000,0.0324,0.013523,0.002678,0.000431,0.665210
3117000,0.0324,0.013523,0.002678,0.000431,0.689185
3118000,0.0324,0.013523,0.002678,0.000431,0.658510
3119000,0.0324,0.013523,0.002678,0.000431,0.646640
3120000,0.0324,0.013523,0.002678,0.000431,0.662154
3121000,0.0324,0.013523,0.002678,0.000431,0.654044
3122000,0.0324,0.013523,0.002678,0.000431,0.686012
3123000,0.0324,0.013523,0.002678,0.000431,0.666737
3124000,0.0324,0.013523,0.002678,0.000431,0.677080
3125000,0.0324,0.013523,0.002678,0.000431,0.656395
3126000,0.0324,0.013523,0.002678,0.000431,0.668148
3127000,0.0324,0.013523,0.002678,0.000431,0.654514
3128000,0.0324,0.013523,0.002678,0.000431,0.708695
3129000,0.0324,0.013523,0.002678,0.000431,0.682251
3130000,0.0324,0.013523,0.002678,0.000431,0.674494
3131000,0.0324,0.013523,0.002678,0.000431,0.647463
3132000,0.0324,0.013523,0.002678,0.000431,0.678490
3133000,0.0324,0.013523,0.002678,0.000431,0.662741
3134000,0.0324,0.013523,0.002678,0.000431,0.659451
3135000,0.0324,0.013523,0.002678,0.000431,0.648991
3136000,0.0324,0.013523,0.002678,0.000431,0.664974
3137000,0.0324,0.013523,0.002678,0.000431,0.653457
3138000,0.0324,0.013523,0.002678,0.000431,0.671321
3139000,0.0324,0.013523,0.002678,0.000431,0.662271
3140000,0.0324,0.013523,0.002678,0.000431,0.679313
3141000,0.0324,0.013523,0.002678,0.000431,0.662624
3142000,0.0324,0.013523,0.002678,0.000431,0.668265
3143000,0.0324,0.013523,0.002678,0.000431,0.658158
3144000,0.0324,0.013523,0.002678,0.000431,0.677667
3145000,0.0324,0.013523,0.002678,0.000431,0.677550
3146000,0.0324,0.013523,0.002678,0.000431,0.664857
3147000,0.0324,0.013523,0.002678,0.000431,0.655572
3148000,0.0324,0.013523,0.002678,0.000431,0.672026
3149000,0.0324,0.013523,0.002678,0.000431,0.692359
3150000,0.0324,0.013523,0.002678,0.000431,0.667325
3151000,0.0324,0.013523,0.002678,0.000431,0.659803
3152000,0.0324,0.013523,0.002678,0.000431,0.667325
3153000,0.0324,0.013523,0.002678,0.000431,0.724679
3154000,0.0324,0.013523,0.002678,0.000431,0.686600
3155000,0.0324,0.013523,0.002678,0.000431,0.683309
3156000,0.0324,0.013523,0.002678,0.000431,0.658510
3157000,0.0324,0.013523,0.002678,0.000431,0.670146
3158000,0.0324,0.013523,0.002678,0.000431,0.700468
3159000,0.0324,0.013523,0.002678,0.000431,0.648050
3160000,0.0324,0.013523,0.002678,0.000431,0.651811
3161000,0.0324,0.013523,0.002678,0.000431,0.675552
3162000,0.0324,0.013523,0.002678,0.000431,0.623134
3163000,0.0324,0.013523,0.002678,0.000431,0.631832
3164000,0.0324,0.013523,0.002678,0.000431,0.638061
3165000,0.0324,0.013523,0.002678,0.000431,0.662389
3166000,0.0324,0.013523,0.002678,0.000431,0.652516
3167000,0.0324,0.013523,0.002678,0.000431,0.652869
3168000,0.0324,0.013523,0.002678,0.000431,0.640999
3169000,0.0324,0.013523,0.002678,0.000431,0.670968
3170000,0.0324,0.013523,0.002678,0.000431,0.643819
3171000,0.0324,0.013523,0.002678,0.000431,0.651811
3172000,0.0324,0.013523,0.002678,0.000431,0.664504
3173000,0.0324,0.013523,0.002678,0.000431,0.658393
3174000,0.0324,0.013523,0.002678,0.000431,0.658275
3175000,0.0324,0.013523,0.002678,0.000431,0.649696
3176000,0.0324,0.013523,0.002678,0.000431,0.683779
3177000,0.0324,0.013523,0.002678,0.000431,0.685307
3178000,0.0324,0.013523,0.002678,0.000431,0.691301
3179000,0.0324,0.013523,0.002678,0.000431,0.676610
3180000,0.0324,0.013523,0.002678,0.000431,0.666502
3181000,0.0324,0.013523,0.002678,0.000431,0.664857
3182000,0.0324,0.013523,0.002678,0.000431,0.662741
3183000,0.0324,0.013523,0.002678,0.000431,0.645465
3184000,0.0324,0.013523,0.002678,0.000431,0.658275
3185000,0.0324,0.013523,0.002678,0.000431,0.677550
3186000,0.0324,0.013523,0.002678,0.000431,0.680371
3187000,0.0324,0.013523,0.002678,0.000431,0.673084
3188000,0.0324,0.013523,0.002678,0.000431,0.652281
3189000,0.0324,0.013523,0.002678,0.000431,0.673672
3190000,0.0324,0.013523,0.002678,0.000431,0.670028
3191000,0.0324,0.013523,0.002678,0.000431,0.646405
3192000,0.0324,0.013523,0.002678,0.000431,0.645582
3193000,0.0324,0.013523,0.002678,0.000431,0.691536
3194000,0.0324,0.013523,0.002678,0.000431,0.657100
3195000,0.0324,0.013523,0.002678,0.000431,0.660861
3196000,0.0324,0.013523,0.002678,0.000431,0.642056
3197000,0.0324,0.013523,0.002678,0.000431,0.670616
3198000,0.0324,0.013523,0.002678,0.000431,0.658158
3199000,0.0324,0.013523,0.002678,0.000431,0.671674
3200000,0.0324,0.013523,0.002678,0.000431,0.649226
3201000,0.0324,0.013523,0.002678,0.000431,0.643584
3202000,0.0324,0.013523,0.002678,0.000431,0.677080
3203000,0.0324,0.013523,0.002678,0.000431,0.686600
3204000,0.0324,0.013523,0.002678,0.000431,0.699880
3205000,0.0324,0.013523,0.002678,0.000431,0.677667
3206000,0.0324,0.013523,0.002678,0.000431,0.673672
3207000,0.0324,0.013523,0.002678,0.000431,0.683896
3208000,0.0324,0.013523,0.002678,0.000431,0.673084
3209000,0.0324,0.013523,0.002678,0.000431,0.665327
3210000,0.0324,0.013523,0.002678,0.000431,0.660038
3211000,0.0324,0.013523,0.002678,0.000431,0.644995
3212000,0.0324,0.013523,0.002678,0.000431,0.653339
3213000,0.0324,0.013523,0.002678,0.000431,0.680488
3214000,0.0324,0.013523,0.002678,0.000431,0.649578
3215000,0.0324,0.013523,0.002678,0.000431,0.656630
3216000,0.0324,0.013523,0.002678,0.000431,0.657923
3217000,0.0324,0.013523,0.002678,0.000431,0.653339
3218000,0.0324,0.013523,0.002678,0.000431,0.652987
3219000,0.0324,0.013523,0.002678,0.000431,0.662859
3220000,0.0324,0.013523,0.002678,0.000431,0.657335
3221000,0.0324,0.013523,0.002678,0.000431,0.660273
3222000,0.0324,0.013523,0.002678,0.000431,0.648991
3223000,0.0324,0.013523,0.002678,0.000431,0.675552
3224000,0.0324,0.013523,0.002678,0.000431,0.647698
3225000,0.0324,0.013523,0.002678,0.000431,0.672261
3226000,0.0324,0.013523,0.002678,0.000431,0.663799
3227000,0.0324,0.013523,0.002678,0.000431,0.684132
3228000,0.0324,0.013523,0.002678,0.000431,0.680371
3229000,0.0324,0.013523,0.002678,0.000431,0.669676
3230000,0.0324,0.013523,0.002678,0.000431,0.648521
3231000,0.0324,0.013523,0.002678,0.000431,0.626543
3232000,0.0324,0.013523,0.002678,0.000431,0.686012
3233000,0.0324,0.013523,0.002678,0.000431,0.657570
3234000,0.0324,0.013523,0.002678,0.000431,0.659098
3235000,0.0324,0.013523,0.002678,0.000431,0.662271
3236000,0.0324,0.013523,0.002678,0.000431,0.686952
3237000,0.0324,0.013523,0.002678,0.000431,0.644877
3238000,0.0324,0.013523,0.002678,0.000431,0.646523
3239000,0.0324,0.013523,0.002678,0.000431,0.646523
3240000,0.0324,0.013523,0.002678,0.000431,0.638178
3241000,0.0324,0.013523,0.002678,0.000431,0.630774
3242000,0.0324,0.013523,0.002678,0.000431,0.668148
3243000,0.0324,0.013523,0.002678,0.000431,0.680958
3244000,0.0324,0.013523,0.002678,0.000431,0.659686
3245000,0.0324,0.013523,0.002678,0.000431,0.676140
3246000,0.0324,0.013523,0.002678,0.000431,0.663799
3247000,0.0324,0.013523,0.002678,0.000431,0.668383
3248000,0.0324,0.013523,0.002678,0.000431,0.656160
3249000,0.0324,0.013523,0.002678,0.000431,0.663212
3250000,0.0324,0.013523,0.002678,0.000431,0.667443
3251000,0.0324,0.013523,0.002678,0.000431,0.675317
3252000,0.0324,0.013523,0.002678,0.000431,0.660861
3253000,0.0324,0.013523,0.002678,0.000431,0.646523
3254000,0.0324,0.013523,0.002678,0.000431,0.656042
3255000,0.0324,0.013523,0.002678,0.000431,0.665562
3256000,0.0324,0.013523,0.002678,0.000431,0.647110
3257000,0.0324,0.013523,0.002678,0.000431,0.662506
3258000,0.0324,0.013523,0.002678,0.000431,0.655220
3259000,0.0324,0.013523,0.002678,0.000431,0.641116
3260000,0.0324,0.013523,0.002678,0.000431,0.640764
3261000,0.0324,0.013523,0.002678,0.000431,0.633124
3262000,0.0324,0.013523,0.002678,0.000431,0.650518
3263000,0.0324,0.013523,0.002678,0.000431,0.626308
3264000,0.0324,0.013523,0.002678,0.000431,0.638061
3265000,0.0324,0.013523,0.002678,0.000431,0.682134
3266000,0.0324,0.013523,0.002678,0.000431,0.676727
3267000,0.0324,0.013523,0.002678,0.000431,0.669558
3268000,0.0324,0.013523,0.002678,0.000431,0.674024
3269000,0.0324,0.013523,0.002678,0.000431,0.649931
3270000,0.0324,0.013523,0.002678,0.000431,0.627130
3271000,0.0324,0.013523,0.002678,0.000431,0.627248
3272000,0.0324,0.013523,0.002678,0.000431,0.639471
3273000,0.0324,0.013523,0.002678,0.000431,0.632184
3274000,0.0324,0.013523,0.002678,0.000431,0.626543
3275000,0.0324,0.013523,0.002678,0.000431,0.625955
3276000,0.0324,0.013523,0.002678,0.000431,0.667678
3277000,0.0324,0.013523,0.002678,0.000431,0.669088
3278000,0.0324,0.013523,0.002678,0.000431,0.656042
3279000,0.0324,0.013523,0.002678,0.000431,0.641469
3280000,0.0324,0.013523,0.002678,0.000431,0.626190
3281000,0.0324,0.013523,0.002678,0.000431,0.640294
3282000,0.0324,0.013523,0.002678,0.000431,0.650754
3283000,0.0324,0.013523,0.002678,0.000431,0.635005
3284000,0.0324,0.013523,0.002678,0.000431,0.651106
3285000,0.0324,0.013523,0.002678,0.000431,0.670028
3286000,0.0324,0.013523,0.002678,0.000431,0.658393
3287000,0.0324,0.013523,0.002678,0.000431,0.653104
3288000,0.0324,0.013523,0.002678,0.000431,0.658628
3289000,0.0324,0.013523,0.002678,0.000431,0.657218
3290000,0.0324,0.013523,0.002678,0.000431,0.682486
3291000,0.0324,0.013523,0.002678,0.000431,0.673436
3292000,0.0324,0.013523,0.002678,0.000431,0.652164
3293000,0.0324,0.013523,0.002678,0.000431,0.653222
3294000,0.0324,0.013523,0.002678,0.000431,0.647463
3295000,0.0324,0.013523,0.002678,0.000431,0.643937
3296000,0.0324,0.013523,0.002678,0.000431,0.662506
3297000,0.0324,0.013523,0.002678,0.000431,0.663682
3298000,0.0324,0.013523,0.002678,0.000431,0.658745
3299000,0.0324,0.013523,0.002678,0.000431,0.666620
3300000,0.0324,0.013523,0.002678,0.000431,0.650048
3301000,0.0324,0.013523,0.002678,0.000431,0.675434
3302000,0.0324,0.013523,0.002678,0.000431,0.629128
3303000,0.0324,0.013523,0.002678,0.000431,0.667090
3304000,0.0324,0.013523,0.002678,0.000431,0.658393
3305000,0.0324,0.013523,0.002678,0.000431,0.644289
3306000,0.0324,0.013523,0.002678,0.000431,0.643584
3307000,0.0324,0.013523,0.002678,0.000431,0.630891
3308000,0.0324,0.013523,0.002678,0.000431,0.644407
3309000,0.0324,0.013523,0.002678,0.000431,0.654397
3310000,0.0324,0.013523,0.002678,0.000431,0.657688
3311000,0.0324,0.013523,0.002678,0.000431,0.669088
3312000,0.0324,0.013523,0.002678,0.000431,0.656630
3313000,0.0324,0.013523,0.002678,0.000431,0.662859
3314000,0.0324,0.013523,0.002678,0.000431,0.651106
3315000,0.0324,0.013523,0.002678,0.000431,0.672144
3316000,0.0324,0.013523,0.002678,0.000431,0.669911
3317000,0.0324,0.013523,0.002678,0.000431,0.661331
3318000,0.0324,0.013523,0.002678,0.000431,0.680841
3319000,0.0324,0.013523,0.002678,0.000431,0.672026
3320000,0.0324,0.013523,0.002678,0.000431,0.680136
3321000,0.0324,0.013523,0.002678,0.000431,0.676375
3322000,0.0324,0.013523,0.002678,0.000431,0.667207
3323000,0.0324,0.013523,0.002678,0.000431,0.663682
3324000,0.0324,0.013523,0.002678,0.000431,0.639706
3325000,0.0324,0.013523,0.002678,0.000431,0.627953
3326000,0.0324,0.013523,0.002678,0.000431,0.658040
3327000,0.0324,0.013523,0.002678,0.000431,0.672496
3328000,0.0324,0.013523,0.002678,0.000431,0.647110
3329000,0.0324,0.013523,0.002678,0.000431,0.660038
3330000,0.0324,0.013523,0.002678,0.000431,0.692123
3331000,0.0324,0.013523,0.002678,0.000431,0.631126
3332000,0.0324,0.013523,0.002678,0.000431,0.640176
3333000,0.0324,0.013523,0.002678,0.000431,0.660038
3334000,0.0324,0.013523,0.002678,0.000431,0.647110
3335000,0.0324,0.013523,0.002678,0.000431,0.640529
3336000,0.0324,0.013523,0.002678,0.000431,0.662036
3337000,0.0324,0.013523,0.002678,0.000431,0.659451
3338000,0.0324,0.013523,0.002678,0.000431,0.657570
3339000,0.0324,0.013523,0.002678,0.000431,0.621842
3340000,0.0324,0.013523,0.002678,0.000431,0.649931
3341000,0.0324,0.013523,0.002678,0.000431,0.633477
3342000,0.0324,0.013523,0.002678,0.000431,0.649578
3343000,0.0324,0.013523,0.002678,0.000431,0.661801
3344000,0.0324,0.013523,0.002678,0.000431,0.677903
3345000,0.0324,0.013523,0.002678,0.000431,0.644289
3346000,0.0324,0.013523,0.002678,0.000431,0.640176
3347000,0.0324,0.013523,0.002678,0.000431,0.655572
3348000,0.0324,0.013523,0.002678,0.000431,0.654750
3349000,0.0324,0.013523,0.002678,0.000431,0.631714
3350000,0.0324,0.013523,0.002678,0.000431,0.636885
3351000,0.0324,0.013523,0.002678,0.000431,0.638531
3352000,0.0324,0.013523,0.002678,0.000431,0.644054
3353000,0.0324,0.013523,0.002678,0.000431,0.676727
3354000,0.0324,0.013523,0.002678,0.000431,0.650048
3355000,0.0324,0.013523,0.002678,0.000431,0.636298
3356000,0.0324,0.013523,0.002678,0.000431,0.644877
3357000,0.0324,0.013523,0.002678,0.000431,0.652164
3358000,0.0324,0.013523,0.002678,0.000431,0.653574
3359000,0.0324,0.013523,0.002678,0.000431,0.660391
3360000,0.0324,0.013523,0.002678,0.000431,0.642174
3361000,0.0324,0.013523,0.002678,0.000431,0.641586
3362000,0.0324,0.013523,0.002678,0.000431,0.633477
3363000,0.0324,0.013523,0.002678,0.000431,0.627248
3364000,0.0324,0.013523,0.002678,0.000431,0.630186
3365000,0.0324,0.013523,0.002678,0.000431,0.644172
3366000,0.0324,0.013523,0.002678,0.000431,0.662859
3367000,0.0324,0.013523,0.002678,0.000431,0.654867
3368000,0.0324,0.013523,0.002678,0.000431,0.646758
3369000,0.0324,0.013523,0.002678,0.000431,0.652752
3370000,0.0324,0.013523,0.002678,0.000431,0.658981
3371000,0.0324,0.013523,0.002678,0.000431,0.646640
3372000,0.0324,0.013523,0.002678,0.000431,0.682486
3373000,0.0324,0.013523,0.002678,0.000431,0.653457
3374000,0.0324,0.013523,0.002678,0.000431,0.648521
3375000,0.0324,0.013523,0.002678,0.000431,0.680371
3376000,0.0324,0.013523,0.002678,0.000431,0.674024
3377000,0.0324,0.013523,0.002678,0.000431,0.659921
3378000,0.0324,0.013523,0.002678,0.000431,0.660038
3379000,0.0324,0.013523,0.002678,0.000431,0.642762
3380000,0.0324,0.013523,0.002678,0.000431,0.651694
3381000,0.0324,0.013523,0.002678,0.000431,0.633947
3382000,0.0324,0.013523,0.002678,0.000431,0.652281
3383000,0.0324,0.013523,0.002678,0.000431,0.671203
3384000,0.0324,0.013523,0.002678,0.000431,0.660508
3385000,0.0324,0.013523,0.002678,0.000431,0.657100
3386000,0.0324,0.013523,0.002678,0.000431,0.665680
3387000,0.0324,0.013523,0.002678,0.000431,0.646993
3388000,0.0324,0.013523,0.002678,0.000431,0.629598
3389000,0.0324,0.013523,0.002678,0.000431,0.615025
3390000,0.0324,0.013523,0.002678,0.000431,0.666737
3391000,0.0324,0.013523,0.002678,0.000431,0.650401
3392000,0.0324,0.013523,0.002678,0.000431,0.674847
3393000,0.0324,0.013523,0.002678,0.000431,0.657453
3394000,0.0324,0.013523,0.002678,0.000431,0.659921
3395000,0.0324,0.013523,0.002678,0.000431,0.618316
3396000,0.0324,0.013523,0.002678,0.000431,0.674142
3397000,0.0324,0.013523,0.002678,0.000431,0.679548
3398000,0.0324,0.013523,0.002678,0.000431,0.667678
3399000,0.0324,0.013523,0.002678,0.000431,0.657688
3400000,0.0324,0.013523,0.002678,0.000431,0.649931
3401000,0.0324,0.013523,0.002678,0.000431,0.652752
3402000,0.0324,0.013523,0.002678,0.000431,0.666502
3403000,0.0324,0.013523,0.002678,0.000431,0.670851
3404000,0.0324,0.013523,0.002678,0.000431,0.657453
3405000,0.0324,0.013523,0.002678,0.000431,0.663682
3406000,0.0324,0.013523,0.002678,0.000431,0.684249
3407000,0.0324,0.013523,0.002678,0.000431,0.666972
3408000,0.0324,0.013523,0.002678,0.000431,0.668030
3409000,0.0324,0.013523,0.002678,0.000431,0.654514
3410000,0.0324,0.013523,0.002678,0.000431,0.646875
3411000,0.0324,0.013523,0.002678,0.000431,0.674377
3412000,0.0324,0.013523,0.002678,0.000431,0.667207
3413000,0.0324,0.013523,0.002678,0.000431,0.665915
3414000,0.0324,0.013523,0.002678,0.000431,0.687657
3415000,0.0324,0.013523,0.002678,0.000431,0.681899
3416000,0.0324,0.013523,0.002678,0.000431,0.692711
3417000,0.0324,0.013523,0.002678,0.000431,0.668970
3418000,0.0324,0.013523,0.002678,0.000431,0.664857
3419000,0.0324,0.013523,0.002678,0.000431,0.679665
3420000,0.0324,0.013523,0.002678,0.000431,0.672144
3421000,0.0324,0.013523,0.002678,0.000431,0.686482
3422000,0.0324,0.013523,0.002678,0.000431,0.673554
3423000,0.0324,0.013523,0.002678,0.000431,0.665327
3424000,0.0324,0.013523,0.002678,0.000431,0.667325
3425000,0.0324,0.013523,0.002678,0.000431,0.681193
3426000,0.0324,0.013523,0.002678,0.000431,0.696237
3427000,0.0324,0.013523,0.002678,0.000431,0.678960
3428000,0.0324,0.013523,0.002678,0.000431,0.647933
3429000,0.0324,0.013523,0.002678,0.000431,0.658628
3430000,0.0324,0.013523,0.002678,0.000431,0.662976
3431000,0.0324,0.013523,0.002678,0.000431,0.654632
3432000,0.0324,0.013523,0.002678,0.000431,0.671556
3433000,0.0324,0.013523,0.002678,0.000431,0.660156
3434000,0.0324,0.013523,0.002678,0.000431,0.654750
3435000,0.0324,0.013523,0.002678,0.000431,0.681428
3436000,0.0324,0.013523,0.002678,0.000431,0.694709
3437000,0.0324,0.013523,0.002678,0.000431,0.698705
3438000,0.0324,0.013523,0.002678,0.000431,0.664739
3439000,0.0324,0.013523,0.002678,0.000431,0.674729
3440000,0.0324,0.013523,0.002678,0.000431,0.674142
3441000,0.0324,0.013523,0.002678,0.000431,0.674612
3442000,0.0324,0.013523,0.002678,0.000431,0.631009
3443000,0.0324,0.013523,0.002678,0.000431,0.706579
3444000,0.0324,0.013523,0.002678,0.000431,0.691771
3445000,0.0324,0.013523,0.002678,0.000431,0.664504
3446000,0.0324,0.013523,0.002678,0.000431,0.678020
3447000,0.0324,0.013523,0.002678,0.000431,0.657688
3448000,0.0324,0.013523,0.002678,0.000431,0.648285
3449000,0.0324,0.013523,0.002678,0.000431,0.650518
3450000,0.0324,0.013523,0.002678,0.000431,0.653222
3451000,0.0324,0.013523,0.002678,0.000431,0.671556
3452000,0.0324,0.013523,0.002678,0.000431,0.656395
3453000,0.0324,0.013523,0.002678,0.000431,0.660038
3454000,0.0324,0.013523,0.002678,0.000431,0.657688
3455000,0.0324,0.013523,0.002678,0.000431,0.626190
3456000,0.0324,0.013523,0.002678,0.000431,0.653692
3457000,0.0324,0.013523,0.002678,0.000431,0.645582
3458000,0.0324,0.013523,0.002678,0.000431,0.671674
3459000,0.0324,0.013523,0.002678,0.000431,0.669441
3460000,0.0324,0.013523,0.002678,0.000431,0.674142
3461000,0.0324,0.013523,0.002678,0.000431,0.667795
3462000,0.0324,0.013523,0.002678,0.000431,0.679901
3463000,0.0324,0.013523,0.002678,0.000431,0.670851
3464000,0.0324,0.013523,0.002678,0.000431,0.670028
3465000,0.0324,0.013523,0.002678,0.000431,0.664152
3466000,0.0324,0.013523,0.002678,0.000431,0.631832
3467000,0.0324,0.013523,0.002678,0.000431,0.663329
3468000,0.0324,0.013523,0.002678,0.000431,0.654279
3469000,0.0324,0.013523,0.002678,0.000431,0.659568
3470000,0.0324,0.013523,0.002678,0.000431,0.673084
3471000,0.0324,0.013523,0.002678,0.000431,0.660273
3472000,0.0324,0.013523,0.002678,0.000431,0.638883
3473000,0.0324,0.013523,0.002678,0.000431,0.660978
3474000,0.0324,0.013523,0.002678,0.000431,0.657923
3475000,0.0324,0.013523,0.002678,0.000431,0.676022
3476000,0.0324,0.013523,0.002678,0.000431,0.668500
3477000,0.0324,0.013523,0.002678,0.000431,0.664974
3478000,0.0324,0.013523,0.002678,0.000431,0.658510
3479000,0.0324,0.013523,0.002678,0.000431,0.666855
3480000,0.0324,0.013523,0.002678,0.000431,0.640176
3481000,0.0324,0.013523,0.002678,0.000431,0.662389
3482000,0.0324,0.013523,0.002678,0.000431,0.639353
3483000,0.0324,0.013523,0.002678,0.000431,0.652752
3484000,0.0324,0.013523,0.002678,0.000431,0.674024
3485000,0.0324,0.013523,0.002678,0.000431,0.669793
3486000,0.0324,0.013523,0.002678,0.000431,0.657453
3487000,0.0324,0.013523,0.002678,0.000431,0.674377
3488000,0.0324,0.013523,0.002678,0.000431,0.672379
3489000,0.0324,0.013523,0.002678,0.000431,0.653927
3490000,0.0324,0.013523,0.002678,0.000431,0.664387
3491000,0.0324,0.013523,0.002678,0.000431,0.676022
3492000,0.0324,0.013523,0.002678,0.000431,0.665680
3493000,0.0324,0.013523,0.002678,0.000431,0.646758
3494000,0.0324,0.013523,0.002678,0.000431,0.622899
3495000,0.0324,0.013523,0.002678,0.000431,0.634417
3496000,0.0324,0.013523,0.002678,0.000431,0.678255
3497000,0.0324,0.013523,0.002678,0.000431,0.653809
3498000,0.0324,0.013523,0.002678,0.000431,0.652869
3499000,0.0324,0.013523,0.002678,0.000431,0.647933
3500000,0.0324,0.013523,0.002678,0.000431,0.644407
3501000,0.0324,0.013523,0.002678,0.000431,0.665680
3502000,0.0324,0.013523,0.002678,0.000431,0.654044
3503000,0.0324,0.013523,0.002678,0.000431,0.670498
3504000,0.0324,0.013523,0.002678,0.000431,0.662741
3505000,0.0324,0.013523,0.002678,0.000431,0.653574
3506000,0.0324,0.013523,0.002678,0.000431,0.662154
3507000,0.0324,0.013523,0.002678,0.000431,0.673672
3508000,0.0324,0.013523,0.002678,0.000431,0.664034
3509000,0.0324,0.013523,0.002678,0.000431,0.659333
3510000,0.0324,0.013523,0.002678,0.000431,0.676492
3511000,0.0324,0.013523,0.002678,0.000431,0.657570
3512000,0.0324,0.013523,0.002678,0.000431,0.645817
3513000,0.0324,0.013523,0.002678,0.000431,0.651929
3514000,0.0324,0.013523,0.002678,0.000431,0.663917
3515000,0.0324,0.013523,0.002678,0.000431,0.656747
3516000,0.0324,0.013523,0.002678,0.000431,0.677432
3517000,0.0324,0.013523,0.002678,0.000431,0.651106
3518000,0.0324,0.013523,0.002678,0.000431,0.677903
3519000,0.0324,0.013523,0.002678,0.000431,0.638296
3520000,0.0324,0.013523,0.002678,0.000431,0.651224
3521000,0.0324,0.013523,0.002678,0.000431,0.654162
3522000,0.0324,0.013523,0.002678,0.000431,0.677197
3523000,0.0324,0.013523,0.002678,0.000431,0.662859
3524000,0.0324,0.013523,0.002678,0.000431,0.669911
3525000,0.0324,0.013523,0.002678,0.000431,0.660508
3526000,0.0324,0.013523,0.002678,0.000431,0.652164
3527000,0.0324,0.013523,0.002678,0.000431,0.675317
3528000,0.0324,0.013523,0.002678,0.000431,0.664269
3529000,0.0324,0.013523,0.002678,0.000431,0.677197
3530000,0.0324,0.013523,0.002678,0.000431,0.657923
3531000,0.0324,0.013523,0.002678,0.000431,0.653339
3532000,0.0324,0.013523,0.002678,0.000431,0.687187
3533000,0.0324,0.013523,0.002678,0.000431,0.679313
3534000,0.0324,0.013523,0.002678,0.000431,0.673201
3535000,0.0324,0.013523,0.002678,0.000431,0.657218
3536000,0.0324,0.013523,0.002678,0.000431,0.652752
3537000,0.0324,0.013523,0.002678,0.000431,0.651929
3538000,0.0324,0.013523,0.002678,0.000431,0.650518
3539000,0.0324,0.013523,0.002678,0.000431,0.673672
3540000,0.0324,0.013523,0.002678,0.000431,0.646170
3541000,0.0324,0.013523,0.002678,0.000431,0.673789
3542000,0.0324,0.013523,0.002678,0.000431,0.700115
3543000,0.0324,0.013523,0.002678,0.000431,0.686130
3544000,0.0324,0.013523,0.002678,0.000431,0.658158
3545000,0.0324,0.013523,0.002678,0.000431,0.658863
3546000,0.0324,0.013523,0.002678,0.000431,0.685659
3547000,0.0324,0.013523,0.002678,0.000431,0.677550
3548000,0.0324,0.013523,0.002678,0.000431,0.668735
3549000,0.0324,0.013523,0.002678,0.000431,0.662154
3550000,0.0324,0.013523,0.002678,0.000431,0.668735
3551000,0.0324,0.013523,0.002678,0.000431,0.661801
3552000,0.0324,0.013523,0.002678,0.000431,0.673436
3553000,0.0324,0.013523,0.002678,0.000431,0.680958
3554000,0.0324,0.013523,0.002678,0.000431,0.665327
3555000,0.0324,0.013523,0.002678,0.000431,0.666972
3556000,0.0324,0.013523,0.002678,0.000431,0.670498
3557000,0.0324,0.013523,0.002678,0.000431,0.674024
3558000,0.0324,0.013523,0.002678,0.000431,0.680606
3559000,0.0324,0.013523,0.002678,0.000431,0.673084
3560000,0.0324,0.013523,0.002678,0.000431,0.678020
3561000,0.0324,0.013523,0.002678,0.000431,0.675317
3562000,0.0324,0.013523,0.002678,0.000431,0.672261
3563000,0.0324,0.013523,0.002678,0.000431,0.678255
3564000,0.0324,0.013523,0.002678,0.000431,0.670968
3565000,0.0324,0.013523,0.002678,0.000431,0.656865
3566000,0.0324,0.013523,0.002678,0.000431,0.662036
3567000,0.0324,0.013523,0.002678,0.000431,0.656630
3568000,0.0324,0.013523,0.002678,0.000431,0.684132
3569000,0.0324,0.013523,0.002678,0.000431,0.700703
3570000,0.0324,0.013523,0.002678,0.000431,0.662741
3571000,0.0324,0.013523,0.002678,0.000431,0.662741
3572000,0.0324,0.013523,0.002678,0.000431,0.668265
3573000,0.0324,0.013523,0.002678,0.000431,0.679313
3574000,0.0324,0.013523,0.002678,0.000431,0.668500
3575000,0.0324,0.013523,0.002678,0.000431,0.686130
3576000,0.0324,0.013523,0.002678,0.000431,0.662859
3577000,0.0324,0.013523,0.002678,0.000431,0.684719
3578000,0.0324,0.013523,0.002678,0.000431,0.665210
3579000,0.0324,0.013523,0.002678,0.000431,0.647698
3580000,0.0324,0.013523,0.002678,0.000431,0.635005
3581000,0.0324,0.013523,0.002678,0.000431,0.658981
3582000,0.0324,0.013523,0.002678,0.000431,0.627836
3583000,0.0324,0.013523,0.002678,0.000431,0.656042
3584000,0.0324,0.013523,0.002678,0.000431,0.639823
3585000,0.0324,0.013523,0.002678,0.000431,0.662976
3586000,0.0324,0.013523,0.002678,0.000431,0.675317
3587000,0.0324,0.013523,0.002678,0.000431,0.686365
3588000,0.0324,0.013523,0.002678,0.000431,0.630069
3589000,0.0324,0.013523,0.002678,0.000431,0.668853
3590000,0.0324,0.013523,0.002678,0.000431,0.652869
3591000,0.0324,0.013523,0.002678,0.000431,0.650754
3592000,0.0324,0.013523,0.002678,0.000431,0.662271
3593000,0.0324,0.013523,0.002678,0.000431,0.675317
3594000,0.0324,0.013523,0.002678,0.000431,0.651694
3595000,0.0324,0.013523,0.002678,0.000431,0.633477
3596000,0.0324,0.013523,0.002678,0.000431,0.665562
3597000,0.0324,0.013523,0.002678,0.000431,0.658863
3598000,0.0324,0.013523,0.002678,0.000431,0.689068
3599000,0.0324,0.013523,0.002678,0.000431,0.675552
3600000,0.0324,0.013523,0.002678,0.000431,0.657453
3601000,0.0324,0.013523,0.002678,0.000431,0.650283
3602000,0.0324,0.013523,0.002678,0.000431,0.663212
3603000,0.0324,0.013523,0.002678,0.000431,0.644642
3604000,0.0324,0.013523,0.002678,0.000431,0.648756
3605000,0.0324,0.013523,0.002678,0.000431,0.651224
3606000,0.0324,0.013523,0.002678,0.000431,0.636298
3607000,0.0324,0.013523,0.002678,0.000431,0.665210
3608000,0.0324,0.013523,0.002678,0.000431,0.674377
3609000,0.0324,0.013523,0.002678,0.000431,0.678373
3610000,0.0324,0.013523,0.002678,0.000431,0.665797
3611000,0.0324,0.013523,0.002678,0.000431,0.678960
3612000,0.0324,0.013523,0.002678,0.000431,0.684132
3613000,0.0324,0.013523,0.002678,0.000431,0.654632
3614000,0.0324,0.013523,0.002678,0.000431,0.620901
3615000,0.0324,0.013523,0.002678,0.000431,0.655337
3616000,0.0324,0.013523,0.002678,0.000431,0.669441
3617000,0.0324,0.013523,0.002678,0.000431,0.663447
3618000,0.0324,0.013523,0.002678,0.000431,0.684719
3619000,0.0324,0.013523,0.002678,0.000431,0.637003
3620000,0.0324,0.013523,0.002678,0.000431,0.666150
3621000,0.0324,0.013523,0.002678,0.000431,0.654985
3622000,0.0324,0.013523,0.002678,0.000431,0.654514
3623000,0.0324,0.013523,0.002678,0.000431,0.649813
3624000,0.0324,0.013523,0.002678,0.000431,0.670733
3625000,0.0324,0.013523,0.002678,0.000431,0.672496
3626000,0.0324,0.013523,0.002678,0.000431,0.683191
3627000,0.0324,0.013523,0.002678,0.000431,0.698588
3628000,0.0324,0.013523,0.002678,0.000431,0.675787
3629000,0.0324,0.013523,0.002678,0.000431,0.663212
3630000,0.0324,0.013523,0.002678,0.000431,0.641351
3631000,0.0324,0.013523,0.002678,0.000431,0.672144
3632000,0.0324,0.013523,0.002678,0.000431,0.669205
3633000,0.0324,0.013523,0.002678,0.000431,0.638178
3634000,0.0324,0.013523,0.002678,0.000431,0.649813
3635000,0.0324,0.013523,0.002678,0.000431,0.644289
3636000,0.0324,0.013523,0.002678,0.000431,0.633124
3637000,0.0324,0.013523,0.002678,0.000431,0.660743
3638000,0.0324,0.013523,0.002678,0.000431,0.668735
3639000,0.0324,0.013523,0.002678,0.000431,0.665445
3640000,0.0324,0.013523,0.002678,0.000431,0.669088
3641000,0.0324,0.013523,0.002678,0.000431,0.690361
3642000,0.0324,0.013523,0.002678,0.000431,0.656630
3643000,0.0324,0.013523,0.002678,0.000431,0.658510
3644000,0.0324,0.013523,0.002678,0.000431,0.669088
3645000,0.0324,0.013523,0.002678,0.000431,0.625955
3646000,0.0324,0.013523,0.002678,0.000431,0.652752
3647000,0.0324,0.013523,0.002678,0.000431,0.633947
3648000,0.0324,0.013523,0.002678,0.000431,0.653809
3649000,0.0324,0.013523,0.002678,0.000431,0.637825
3650000,0.0324,0.013523,0.002678,0.000431,0.656512
3651000,0.0324,0.013523,0.002678,0.000431,0.657923
3652000,0.0324,0.013523,0.002678,0.000431,0.658745
3653000,0.0324,0.013523,0.002678,0.000431,0.634535
3654000,0.0324,0.013523,0.002678,0.000431,0.644407
3655000,0.0324,0.013523,0.002678,0.000431,0.658745
3656000,0.0324,0.013523,0.002678,0.000431,0.631244
3657000,0.0324,0.013523,0.002678,0.000431,0.657923
3658000,0.0324,0.013523,0.002678,0.000431,0.649931
3659000,0.0324,0.013523,0.002678,0.000431,0.661449
3660000,0.0324,0.013523,0.002678,0.000431,0.651341
3661000,0.0324,0.013523,0.002678,0.000431,0.655337
3662000,0.0324,0.013523,0.002678,0.000431,0.663799
3663000,0.0324,0.013523,0.002678,0.000431,0.655455
3664000,0.0324,0.013523,0.002678,0.000431,0.666972
3665000,0.0324,0.013523,0.002678,0.000431,0.663329
3666000,0.0324,0.013523,0.002678,0.000431,0.666737
3667000,0.0324,0.013523,0.002678,0.000431,0.675434
3668000,0.0324,0.013523,0.002678,0.000431,0.647698
3669000,0.0324,0.013523,0.002678,0.000431,0.672261
3670000,0.0324,0.013523,0.002678,0.000431,0.656512
3671000,0.0324,0.013523,0.002678,0.000431,0.670028
3672000,0.0324,0.013523,0.002678,0.000431,0.643114
3673000,0.0324,0.013523,0.002678,0.000431,0.640176
3674000,0.0324,0.013523,0.002678,0.000431,0.656747
3675000,0.0324,0.013523,0.002678,0.000431,0.664857
3676000,0.0324,0.013523,0.002678,0.000431,0.654750
3677000,0.0324,0.013523,0.002678,0.000431,0.662859
3678000,0.0324,0.013523,0.002678,0.000431,0.678255
3679000,0.0324,0.013523,0.002678,0.000431,0.690361
3680000,0.0324,0.013523,0.002678,0.000431,0.679548
3681000,0.0324,0.013523,0.002678,0.000431,0.698235
3682000,0.0324,0.013523,0.002678,0.000431,0.693299
3683000,0.0324,0.013523,0.002678,0.000431,0.659686
3684000,0.0324,0.013523,0.002678,0.000431,0.670733
3685000,0.0324,0.013523,0.002678,0.000431,0.657805
3686000,0.0324,0.013523,0.002678,0.000431,0.675082
3687000,0.0324,0.013523,0.002678,0.000431,0.681076
3688000,0.0324,0.013523,0.002678,0.000431,0.653927
3689000,0.0324,0.013523,0.002678,0.000431,0.670733
3690000,0.0324,0.013523,0.002678,0.000431,0.648521
3691000,0.0324,0.013523,0.002678,0.000431,0.653809
3692000,0.0324,0.013523,0.002678,0.000431,0.658628
3693000,0.0324,0.013523,0.002678,0.000431,0.656512
3694000,0.0324,0.013523,0.002678,0.000431,0.661566
3695000,0.0324,0.013523,0.002678,0.000431,0.634535
3696000,0.0324,0.013523,0.002678,0.000431,0.652516
3697000,0.0324,0.013523,0.002678,0.000431,0.663329
3698000,0.0324,0.013523,0.002678,0.000431,0.628306
3699000,0.0324,0.013523,0.002678,0.000431,0.653574
3700000,0.0324,0.013523,0.002678,0.000431,0.626895
3701000,0.0324,0.013523,0.002678,0.000431,0.657688
3702000,0.0324,0.013523,0.002678,0.000431,0.656160
3703000,0.0324,0.013523,0.002678,0.000431,0.662154
3704000,0.0324,0.013523,0.002678,0.000431,0.673201
3705000,0.0324,0.013523,0.002678,0.000431,0.679430
3706000,0.0324,0.013523,0.002678,0.000431,0.677903
3707000,0.0324,0.013523,0.002678,0.000431,0.676375
3708000,0.0324,0.013523,0.002678,0.000431,0.676845
3709000,0.0324,0.013523,0.002678,0.000431,0.656160
3710000,0.0324,0.013523,0.002678,0.000431,0.642527
3711000,0.0324,0.013523,0.002678,0.000431,0.672614
3712000,0.0324,0.013523,0.002678,0.000431,0.652752
3713000,0.0324,0.013523,0.002678,0.000431,0.663799
3714000,0.0324,0.013523,0.002678,0.000431,0.658628
3715000,0.0324,0.013523,0.002678,0.000431,0.651811
3716000,0.0324,0.013523,0.002678,0.000431,0.660743
3717000,0.0324,0.013523,0.002678,0.000431,0.682604
3718000,0.0324,0.013523,0.002678,0.000431,0.671556
3719000,0.0324,0.013523,0.002678,0.000431,0.661449
3720000,0.0324,0.013523,0.002678,0.000431,0.673672
3721000,0.0324,0.013523,0.002678,0.000431,0.686247
3722000,0.0324,0.013523,0.002678,0.000431,0.667678
3723000,0.0324,0.013523,0.002678,0.000431,0.648638
3724000,0.0324,0.013523,0.002678,0.000431,0.668853
3725000,0.0324,0.013523,0.002678,0.000431,0.695884
3726000,0.0324,0.013523,0.002678,0.000431,0.652046
3727000,0.0324,0.013523,0.002678,0.000431,0.652516
3728000,0.0324,0.013523,0.002678,0.000431,0.674494
3729000,0.0324,0.013523,0.002678,0.000431,0.647345
3730000,0.0324,0.013523,0.002678,0.000431,0.678020
3731000,0.0324,0.013523,0.002678,0.000431,0.660156
3732000,0.0324,0.013523,0.002678,0.000431,0.666267
3733000,0.0324,0.013523,0.002678,0.000431,0.688128
3734000,0.0324,0.013523,0.002678,0.000431,0.703289
3735000,0.0324,0.013523,0.002678,0.000431,0.687187
3736000,0.0324,0.013523,0.002678,0.000431,0.671321
3737000,0.0324,0.013523,0.002678,0.000431,0.672379
3738000,0.0324,0.013523,0.002678,0.000431,0.674847
3739000,0.0324,0.013523,0.002678,0.000431,0.653457
3740000,0.0324,0.013523,0.002678,0.000431,0.640294
3741000,0.0324,0.013523,0.002678,0.000431,0.648050
3742000,0.0324,0.013523,0.002678,0.000431,0.653339
3743000,0.0324,0.013523,0.002678,0.000431,0.665445
3744000,0.0324,0.013523,0.002678,0.000431,0.652752
3745000,0.0324,0.013523,0.002678,0.000431,0.659921
3746000,0.0324,0.013523,0.002678,0.000431,0.660508
3747000,0.0324,0.013523,0.002678,0.000431,0.670851
3748000,0.0324,0.013523,0.002678,0.000431,0.655690
3749000,0.0324,0.013523,0.002678,0.000431,0.669088
3750000,0.0324,0.013523,0.002678,0.000431,0.670968
3751000,0.0324,0.013523,0.002678,0.000431,0.681311
3752000,0.0324,0.013523,0.002678,0.000431,0.656512
3753000,0.0324,0.013523,0.002678,0.000431,0.669676
3754000,0.0324,0.013523,0.002678,0.000431,0.656160
3755000,0.0324,0.013523,0.002678,0.000431,0.662036
3756000,0.0324,0.013523,0.002678,0.000431,0.662389
3757000,0.0324,0.013523,0.002678,0.000431,0.684837
3758000,0.0324,0.013523,0.002678,0.000431,0.642997
3759000,0.0324,0.013523,0.002678,0.000431,0.679078
3760000,0.0324,0.013523,0.002678,0.000431,0.657218
3761000,0.0324,0.013523,0.002678,0.000431,0.661919
3762000,0.0324,0.013523,0.002678,0.000431,0.675552
3763000,0.0324,0.013523,0.002678,0.000431,0.667325
3764000,0.0324,0.013523,0.002678,0.000431,0.662389
3765000,0.0324,0.013523,0.002678,0.000431,0.650283
3766000,0.0324,0.013523,0.002678,0.000431,0.654750
3767000,0.0324,0.013523,0.002678,0.000431,0.678020
3768000,0.0324,0.013523,0.002678,0.000431,0.669088
3769000,0.0324,0.013523,0.002678,0.000431,0.664152
3770000,0.0324,0.013523,0.002678,0.000431,0.677315
3771000,0.0324,0.013523,0.002678,0.000431,0.642056
3772000,0.0324,0.013523,0.002678,0.000431,0.666620
3773000,0.0324,0.013523,0.002678,0.000431,0.675199
3774000,0.0324,0.013523,0.002678,0.000431,0.661214
3775000,0.0324,0.013523,0.002678,0.000431,0.671556
3776000,0.0324,0.013523,0.002678,0.000431,0.670381
3777000,0.0324,0.013523,0.002678,0.000431,0.658745
3778000,0.0324,0.013523,0.002678,0.000431,0.671674
3779000,0.0324,0.013523,0.002678,0.000431,0.674494
3780000,0.0324,0.013523,0.002678,0.000431,0.687305
3781000,0.0324,0.013523,0.002678,0.000431,0.667207
3782000,0.0324,0.013523,0.002678,0.000431,0.638413
3783000,0.0324,0.013523,0.002678,0.000431,0.662154
3784000,0.0324,0.013523,0.002678,0.000431,0.653692
3785000,0.0324,0.013523,0.002678,0.000431,0.644525
3786000,0.0324,0.013523,0.002678,0.000431,0.647228
3787000,0.0324,0.013523,0.002678,0.000431,0.646170
3788000,0.0324,0.013523,0.002678,0.000431,0.642292
3789000,0.0324,0.013523,0.002678,0.000431,0.659451
3790000,0.0324,0.013523,0.002678,0.000431,0.662036
3791000,0.0324,0.013523,0.002678,0.000431,0.677197
3792000,0.0324,0.013523,0.002678,0.000431,0.647815
3793000,0.0324,0.013523,0.002678,0.000431,0.671556
3794000,0.0324,0.013523,0.002678,0.000431,0.665915
3795000,0.0324,0.013523,0.002678,0.000431,0.664034
3796000,0.0324,0.013523,0.002678,0.000431,0.661096
3797000,0.0324,0.013523,0.002678,0.000431,0.656042
3798000,0.0324,0.013523,0.002678,0.000431,0.666502
3799000,0.0324,0.013523,0.002678,0.000431,0.658863
3800000,0.0324,0.013523,0.002678,0.000431,0.660743
3801000,0.0324,0.013523,0.002678,0.000431,0.641939
3802000,0.0324,0.013523,0.002678,0.000431,0.651106
3803000,0.0324,0.013523,0.002678,0.000431,0.667678
3804000,0.0324,0.013523,0.002678,0.000431,0.673084
3805000,0.0324,0.013523,0.002678,0.000431,0.674847
3806000,0.0324,0.013523,0.002678,0.000431,0.674259
3807000,0.0324,0.013523,0.002678,0.000431,0.661449
3808000,0.0324,0.013523,0.002678,0.000431,0.639823
3809000,0.0324,0.013523,0.002678,0.000431,0.662389
3810000,0.0324,0.013523,0.002678,0.000431,0.637120
3811000,0.0324,0.013523,0.002678,0.000431,0.643584
3812000,0.0324,0.013523,0.002678,0.000431,0.655455
3813000,0.0324,0.013523,0.002678,0.000431,0.657688
3814000,0.0324,0.013523,0.002678,0.000431,0.633007
3815000,0.0324,0.013523,0.002678,0.000431,0.654985
3816000,0.0324,0.013523,0.002678,0.000431,0.647815
3817000,0.0324,0.013523,0.002678,0.000431,0.660978
3818000,0.0324,0.013523,0.002678,0.000431,0.663564
3819000,0.0324,0.013523,0.002678,0.000431,0.676140
3820000,0.0324,0.013523,0.002678,0.000431,0.653222
3821000,0.0324,0.013523,0.002678,0.000431,0.635122
3822000,0.0324,0.013523,0.002678,0.000431,0.638531
3823000,0.0324,0.013523,0.002678,0.000431,0.639706
3824000,0.0324,0.013523,0.002678,0.000431,0.637238
3825000,0.0324,0.013523,0.002678,0.000431,0.650636
3826000,0.0324,0.013523,0.002678,0.000431,0.642292
3827000,0.0324,0.013523,0.002678,0.000431,0.646052
3828000,0.0324,0.013523,0.002678,0.000431,0.628188
3829000,0.0324,0.013523,0.002678,0.000431,0.644995
3830000,0.0324,0.013523,0.002678,0.000431,0.663917
3831000,0.0324,0.013523,0.002678,0.000431,0.639001
3832000,0.0324,0.013523,0.002678,0.000431,0.672614
3833000,0.0324,0.013523,0.002678,0.000431,0.644289
3834000,0.0324,0.013523,0.002678,0.000431,0.692123
3835000,0.0324,0.013523,0.002678,0.000431,0.694944
3836000,0.0324,0.013523,0.002678,0.000431,0.668383
3837000,0.0324,0.013523,0.002678,0.000431,0.638296
3838000,0.0324,0.013523,0.002678,0.000431,0.664269
3839000,0.0324,0.013523,0.002678,0.000431,0.650166
3840000,0.0324,0.013523,0.002678,0.000431,0.674847
3841000,0.0324,0.013523,0.002678,0.000431,0.656512
3842000,0.0324,0.013523,0.002678,0.000431,0.667207
3843000,0.0324,0.013523,0.002678,0.000431,0.654632
3844000,0.0324,0.013523,0.002678,0.000431,0.635357
3845000,0.0324,0.013523,0.002678,0.000431,0.684014
3846000,0.0324,0.013523,0.002678,0.000431,0.679430
3847000,0.0324,0.013523,0.002678,0.000431,0.652516
3848000,0.0324,0.013523,0.002678,0.000431,0.653104
3849000,0.0324,0.013523,0.002678,0.000431,0.676140
3850000,0.0324,0.013523,0.002678,0.000431,0.668735
3851000,0.0324,0.013523,0.002678,0.000431,0.659568
3852000,0.0324,0.013523,0.002678,0.000431,0.648050
3853000,0.0324,0.013523,0.002678,0.000431,0.633712
3854000,0.0324,0.013523,0.002678,0.000431,0.635945
3855000,0.0324,0.013523,0.002678,0.000431,0.694121
3856000,0.0324,0.013523,0.002678,0.000431,0.663212
3857000,0.0324,0.013523,0.002678,0.000431,0.685072
3858000,0.0324,0.013523,0.002678,0.000431,0.668265
3859000,0.0324,0.013523,0.002678,0.000431,0.642762
3860000,0.0324,0.013523,0.002678,0.000431,0.658158
3861000,0.0324,0.013523,0.002678,0.000431,0.647463
3862000,0.0324,0.013523,0.002678,0.000431,0.665327
3863000,0.0324,0.013523,0.002678,0.000431,0.642762
3864000,0.0324,0.013523,0.002678,0.000431,0.664739
3865000,0.0324,0.013523,0.002678,0.000431,0.681428
3866000,0.0324,0.013523,0.002678,0.000431,0.676610
3867000,0.0324,0.013523,0.002678,0.000431,0.670381
3868000,0.0324,0.013523,0.002678,0.000431,0.658158
3869000,0.0324,0.013523,0.002678,0.000431,0.647933
3870000,0.0324,0.013523,0.002678,0.000431,0.662154
3871000,0.0324,0.013523,0.002678,0.000431,0.663799
3872000,0.0324,0.013523,0.002678,0.000431,0.664034
3873000,0.0324,0.013523,0.002678,0.000431,0.670028
3874000,0.0324,0.013523,0.002678,0.000431,0.685894
3875000,0.0324,0.013523,0.002678,0.000431,0.652281
3876000,0.0324,0.013523,0.002678,0.000431,0.656395
3877000,0.0324,0.013523,0.002678,0.000431,0.660038
3878000,0.0324,0.013523,0.002678,0.000431,0.645935
3879000,0.0324,0.013523,0.002678,0.000431,0.662624
3880000,0.0324,0.013523,0.002678,0.000431,0.674024
3881000,0.0324,0.013523,0.002678,0.000431,0.665797
3882000,0.0324,0.013523,0.002678,0.000431,0.681899
3883000,0.0324,0.013523,0.002678,0.000431,0.650518
3884000,0.0324,0.013523,0.002678,0.000431,0.651341
3885000,0.0324,0.013523,0.002678,0.000431,0.640764
3886000,0.0324,0.013523,0.002678,0.000431,0.667325
3887000,0.0324,0.013523,0.002678,0.000431,0.647110
3888000,0.0324,0.013523,0.002678,0.000431,0.650048
3889000,0.0324,0.013523,0.002678,0.000431,0.658745
3890000,0.0324,0.013523,0.002678,0.000431,0.672849
3891000,0.0324,0.013523,0.002678,0.000431,0.660038
3892000,0.0324,0.013523,0.002678,0.000431,0.657570
3893000,0.0324,0.013523,0.002678,0.000431,0.654750
3894000,0.0324,0.013523,0.002678,0.000431,0.646875
3895000,0.0324,0.013523,0.002678,0.000431,0.660508
3896000,0.0324,0.013523,0.002678,0.000431,0.644407
3897000,0.0324,0.013523,0.002678,0.000431,0.637590
3898000,0.0324,0.013523,0.002678,0.000431,0.642879
3899000,0.0324,0.013523,0.002678,0.000431,0.658863
3900000,0.0324,0.013523,0.002678,0.000431,0.616435
3901000,0.0324,0.013523,0.002678,0.000431,0.642879
3902000,0.0324,0.013523,0.002678,0.000431,0.632654
3903000,0.0324,0.013523,0.002678,0.000431,0.652164
3904000,0.0324,0.013523,0.002678,0.000431,0.680606
3905000,0.0324,0.013523,0.002678,0.000431,0.672379
3906000,0.0324,0.013523,0.002678,0.000431,0.700115
3907000,0.0324,0.013523,0.002678,0.000431,0.658158
3908000,0.0324,0.013523,0.002678,0.000431,0.665445
3909000,0.0324,0.013523,0.002678,0.000431,0.678138
3910000,0.0324,0.013523,0.002678,0.000431,0.651694
3911000,0.0324,0.013523,0.002678,0.000431,0.664739
3912000,0.0324,0.013523,0.002678,0.000431,0.651459
3913000,0.0324,0.013523,0.002678,0.000431,0.680841
3914000,0.0324,0.013523,0.002678,0.000431,0.644407
3915000,0.0324,0.013523,0.002678,0.000431,0.640294
3916000,0.0324,0.013523,0.002678,0.000431,0.637708
3917000,0.0324,0.013523,0.002678,0.000431,0.636768
3918000,0.0324,0.013523,0.002678,0.000431,0.642527
3919000,0.0324,0.013523,0.002678,0.000431,0.640411
3920000,0.0324,0.013523,0.002678,0.000431,0.655572
3921000,0.0324,0.013523,0.002678,0.000431,0.650166
3922000,0.0324,0.013523,0.002678,0.000431,0.632184
3923000,0.0324,0.013523,0.002678,0.000431,0.650754
3924000,0.0324,0.013523,0.002678,0.000431,0.643819
3925000,0.0324,0.013523,0.002678,0.000431,0.665562
3926000,0.0324,0.013523,0.002678,0.000431,0.648403
3927000,0.0324,0.013523,0.002678,0.000431,0.638413
3928000,0.0324,0.013523,0.002678,0.000431,0.666972
3929000,0.0324,0.013523,0.002678,0.000431,0.640176
3930000,0.0324,0.013523,0.002678,0.000431,0.638296
3931000,0.0324,0.013523,0.002678,0.000431,0.654514
3932000,0.0324,0.013523,0.002678,0.000431,0.659568
3933000,0.0324,0.013523,0.002678,0.000431,0.641939
3934000,0.0324,0.013523,0.002678,0.000431,0.644877
3935000,0.0324,0.013523,0.002678,0.000431,0.637355
3936000,0.0324,0.013523,0.002678,0.000431,0.629128
3937000,0.0324,0.013523,0.002678,0.000431,0.623017
3938000,0.0324,0.013523,0.002678,0.000431,0.641821
3939000,0.0324,0.013523,0.002678,0.000431,0.665210
3940000,0.0324,0.013523,0.002678,0.000431,0.650871
3941000,0.0324,0.013523,0.002678,0.000431,0.660626
3942000,0.0324,0.013523,0.002678,0.000431,0.637355
3943000,0.0324,0.013523,0.002678,0.000431,0.632889
3944000,0.0324,0.013523,0.002678,0.000431,0.676727
3945000,0.0324,0.013523,0.002678,0.000431,0.644877
3946000,0.0324,0.013523,0.002678,0.000431,0.656042
3947000,0.0324,0.013523,0.002678,0.000431,0.655925
3948000,0.0324,0.013523,0.002678,0.000431,0.664152
3949000,0.0324,0.013523,0.002678,0.000431,0.679313
3950000,0.0324,0.013523,0.002678,0.000431,0.667913
3951000,0.0324,0.013523,0.002678,0.000431,0.673789
3952000,0.0324,0.013523,0.002678,0.000431,0.665092
3953000,0.0324,0.013523,0.002678,0.000431,0.670263
3954000,0.0324,0.013523,0.002678,0.000431,0.654632
3955000,0.0324,0.013523,0.002678,0.000431,0.641351
3956000,0.0324,0.013523,0.002678,0.000431,0.670851
3957000,0.0324,0.013523,0.002678,0.000431,0.664857
3958000,0.0324,0.013523,0.002678,0.000431,0.670616
3959000,0.0324,0.013523,0.002678,0.000431,0.660273
3960000,0.0324,0.013523,0.002678,0.000431,0.645935
3961000,0.0324,0.013523,0.002678,0.000431,0.660391
3962000,0.0324,0.013523,0.002678,0.000431,0.671203
3963000,0.0324,0.013523,0.002678,0.000431,0.669676
3964000,0.0324,0.013523,0.002678,0.000431,0.666855
3965000,0.0324,0.013523,0.002678,0.000431,0.636768
3966000,0.0324,0.013523,0.002678,0.000431,0.660861
3967000,0.0324,0.013523,0.002678,0.000431,0.671791
3968000,0.0324,0.013523,0.002678,0.000431,0.663447
3969000,0.0324,0.013523,0.002678,0.000431,0.649931
3970000,0.0324,0.013523,0.002678,0.000431,0.637943
3971000,0.0324,0.013523,0.002678,0.000431,0.649226
3972000,0.0324,0.013523,0.002678,0.000431,0.646875
3973000,0.0324,0.013523,0.002678,0.000431,0.647815
3974000,0.0324,0.013523,0.002678,0.000431,0.664387
3975000,0.0324,0.013523,0.002678,0.000431,0.676962
3976000,0.0324,0.013523,0.002678,0.000431,0.653927
3977000,0.0324,0.013523,0.002678,0.000431,0.669088
3978000,0.0324,0.013523,0.002678,0.000431,0.685659
3979000,0.0324,0.013523,0.002678,0.000431,0.657805
3980000,0.0324,0.013523,0.002678,0.000431,0.653339
3981000,0.0324,0.013523,0.002678,0.000431,0.641821
3982000,0.0324,0.013523,0.002678,0.000431,0.645817
3983000,0.0324,0.013523,0.002678,0.000431,0.622312
3984000,0.0324,0.013523,0.002678,0.000431,0.663329
3985000,0.0324,0.013523,0.002678,0.000431,0.657688
3986000,0.0324,0.013523,0.002678,0.000431,0.665680
3987000,0.0324,0.013523,0.002678,0.000431,0.673789
3988000,0.0324,0.013523,0.002678,0.000431,0.663094
3989000,0.0324,0.013523,0.002678,0.000431,0.635945
3990000,0.0324,0.013523,0.002678,0.000431,0.648991
3991000,0.0324,0.013523,0.002678,0.000431,0.631009
3992000,0.0324,0.013523,0.002678,0.000431,0.645935
3993000,0.0324,0.013523,0.002678,0.000431,0.649461
3994000,0.0324,0.013523,0.002678,0.000431,0.647463
3995000,0.0324,0.013523,0.002678,0.000431,0.662976
3996000,0.0324,0.013523,0.002678,0.000431,0.643467
3997000,0.0324,0.013523,0.002678,0.000431,0.653692
3998000,0.0324,0.013523,0.002678,0.000431,0.678960
3999000,0.0324,0.013523,0.002678,0.000431,0.662036
