Cycle,Area(mm^2),PeakDynamic(W),SubthresholdLeakage(W),GateLeakage(W),RunTimeDynamic(W)
5000000,0.0324,0.013523,0.002678,0.000431,0.628071
5001000,0.0324,0.013523,0.002678,0.000431,0.634887
5002000,0.0324,0.013523,0.002678,0.000431,0.624427
5003000,0.0324,0.013523,0.002678,0.000431,0.640764
5004000,0.0324,0.013523,0.002678,0.000431,0.633947
5005000,0.0324,0.013523,0.002678,0.000431,0.683191
5006000,0.0324,0.013523,0.002678,0.000431,0.656865
5007000,0.0324,0.013523,0.002678,0.000431,0.628541
5008000,0.0324,0.013523,0.002678,0.000431,0.638413
5009000,0.0324,0.013523,0.002678,0.000431,0.642292
5010000,0.0324,0.013523,0.002678,0.000431,0.608796
5011000,0.0324,0.013523,0.002678,0.000431,0.651341
5012000,0.0324,0.013523,0.002678,0.000431,0.645700
5013000,0.0324,0.013523,0.002678,0.000431,0.633712
5014000,0.0324,0.013523,0.002678,0.000431,0.640881
5015000,0.0324,0.013523,0.002678,0.000431,0.661684
5016000,0.0324,0.013523,0.002678,0.000431,0.635945
5017000,0.0324,0.013523,0.002678,0.000431,0.653104
5018000,0.0324,0.013523,0.002678,0.000431,0.679313
5019000,0.0324,0.013523,0.002678,0.000431,0.629951
5020000,0.0324,0.013523,0.002678,0.000431,0.621842
5021000,0.0324,0.013523,0.002678,0.000431,0.646523
5022000,0.0324,0.013523,0.002678,0.000431,0.675552
5023000,0.0324,0.013523,0.002678,0.000431,0.649931
5024000,0.0324,0.013523,0.002678,0.000431,0.644760
5025000,0.0324,0.013523,0.002678,0.000431,0.648050
5026000,0.0324,0.013523,0.002678,0.000431,0.616905
5027000,0.0324,0.013523,0.002678,0.000431,0.656747
5028000,0.0324,0.013523,0.002678,0.000431,0.647345
5029000,0.0324,0.013523,0.002678,0.000431,0.607386
5030000,0.0324,0.013523,0.002678,0.000431,0.627953
5031000,0.0324,0.013523,0.002678,0.000431,0.623957
5032000,0.0324,0.013523,0.002678,0.000431,0.609854
5033000,0.0324,0.013523,0.002678,0.000431,0.646052
5034000,0.0324,0.013523,0.002678,0.000431,0.646758
5035000,0.0324,0.013523,0.002678,0.000431,0.641351
5036000,0.0324,0.013523,0.002678,0.000431,0.618903
5037000,0.0324,0.013523,0.002678,0.000431,0.635475
5038000,0.0324,0.013523,0.002678,0.000431,0.656042
5039000,0.0324,0.013523,0.002678,0.000431,0.646170
5040000,0.0324,0.013523,0.002678,0.000431,0.651929
5041000,0.0324,0.013523,0.002678,0.000431,0.649461
5042000,0.0324,0.013523,0.002678,0.000431,0.635710
5043000,0.0324,0.013523,0.002678,0.000431,0.631714
5044000,0.0324,0.013523,0.002678,0.000431,0.625132
5045000,0.0324,0.013523,0.002678,0.000431,0.619374
5046000,0.0324,0.013523,0.002678,0.000431,0.640176
5047000,0.0324,0.013523,0.002678,0.000431,0.629363
5048000,0.0324,0.013523,0.002678,0.000431,0.642762
5049000,0.0324,0.013523,0.002678,0.000431,0.636063
5050000,0.0324,0.013523,0.002678,0.000431,0.621959
5051000,0.0324,0.013523,0.002678,0.000431,0.643467
5052000,0.0324,0.013523,0.002678,0.000431,0.635005
5053000,0.0324,0.013523,0.002678,0.000431,0.633124
5054000,0.0324,0.013523,0.002678,0.000431,0.618433
5055000,0.0324,0.013523,0.002678,0.000431,0.650283
5056000,0.0324,0.013523,0.002678,0.000431,0.631126
5057000,0.0324,0.013523,0.002678,0.000431,0.620196
5058000,0.0324,0.013523,0.002678,0.000431,0.632184
5059000,0.0324,0.013523,0.002678,0.000431,0.621136
5060000,0.0324,0.013523,0.002678,0.000431,0.642292
5061000,0.0324,0.013523,0.002678,0.000431,0.645582
5062000,0.0324,0.013523,0.002678,0.000431,0.658158
5063000,0.0324,0.013523,0.002678,0.000431,0.661801
5064000,0.0324,0.013523,0.002678,0.000431,0.652281
5065000,0.0324,0.013523,0.002678,0.000431,0.653104
5066000,0.0324,0.013523,0.002678,0.000431,0.646052
5067000,0.0324,0.013523,0.002678,0.000431,0.629246
5068000,0.0324,0.013523,0.002678,0.000431,0.603272
5069000,0.0324,0.013523,0.002678,0.000431,0.613027
5070000,0.0324,0.013523,0.002678,0.000431,0.629951
5071000,0.0324,0.013523,0.002678,0.000431,0.631832
5072000,0.0324,0.013523,0.002678,0.000431,0.628893
5073000,0.0324,0.013523,0.002678,0.000431,0.624545
5074000,0.0324,0.013523,0.002678,0.000431,0.624310
5075000,0.0324,0.013523,0.002678,0.000431,0.636885
5076000,0.0324,0.013523,0.002678,0.000431,0.629011
5077000,0.0324,0.013523,0.002678,0.000431,0.643702
5078000,0.0324,0.013523,0.002678,0.000431,0.644525
5079000,0.0324,0.013523,0.002678,0.000431,0.613967
5080000,0.0324,0.013523,0.002678,0.000431,0.619844
5081000,0.0324,0.013523,0.002678,0.000431,0.640294
5082000,0.0324,0.013523,0.002678,0.000431,0.624545
5083000,0.0324,0.013523,0.002678,0.000431,0.624780
5084000,0.0324,0.013523,0.002678,0.000431,0.644054
5085000,0.0324,0.013523,0.002678,0.000431,0.624310
5086000,0.0324,0.013523,0.002678,0.000431,0.608091
5087000,0.0324,0.013523,0.002678,0.000431,0.609384
5088000,0.0324,0.013523,0.002678,0.000431,0.633007
5089000,0.0324,0.013523,0.002678,0.000431,0.634065
5090000,0.0324,0.013523,0.002678,0.000431,0.639236
5091000,0.0324,0.013523,0.002678,0.000431,0.627248
5092000,0.0324,0.013523,0.002678,0.000431,0.613497
5093000,0.0324,0.013523,0.002678,0.000431,0.622782
5094000,0.0324,0.013523,0.002678,0.000431,0.638883
5095000,0.0324,0.013523,0.002678,0.000431,0.663564
5096000,0.0324,0.013523,0.002678,0.000431,0.634182
5097000,0.0324,0.013523,0.002678,0.000431,0.645465
5098000,0.0324,0.013523,0.002678,0.000431,0.637003
5099000,0.0324,0.013523,0.002678,0.000431,0.621372
5100000,0.0324,0.013523,0.002678,0.000431,0.630539
5101000,0.0324,0.013523,0.002678,0.000431,0.645582
5102000,0.0324,0.013523,0.002678,0.000431,0.636180
5103000,0.0324,0.013523,0.002678,0.000431,0.649461
5104000,0.0324,0.013523,0.002678,0.000431,0.629951
5105000,0.0324,0.013523,0.002678,0.000431,0.617611
5106000,0.0324,0.013523,0.002678,0.000431,0.625250
5107000,0.0324,0.013523,0.002678,0.000431,0.665327
5108000,0.0324,0.013523,0.002678,0.000431,0.646523
5109000,0.0324,0.013523,0.002678,0.000431,0.655337
5110000,0.0324,0.013523,0.002678,0.000431,0.624310
5111000,0.0324,0.013523,0.002678,0.000431,0.629011
5112000,0.0324,0.013523,0.002678,0.000431,0.596220
5113000,0.0324,0.013523,0.002678,0.000431,0.619726
5114000,0.0324,0.013523,0.002678,0.000431,0.642762
5115000,0.0324,0.013523,0.002678,0.000431,0.619021
5116000,0.0324,0.013523,0.002678,0.000431,0.621372
5117000,0.0324,0.013523,0.002678,0.000431,0.656512
5118000,0.0324,0.013523,0.002678,0.000431,0.622899
5119000,0.0324,0.013523,0.002678,0.000431,0.656042
5120000,0.0324,0.013523,0.002678,0.000431,0.660861
5121000,0.0324,0.013523,0.002678,0.000431,0.648285
5122000,0.0324,0.013523,0.002678,0.000431,0.677903
5123000,0.0324,0.013523,0.002678,0.000431,0.684719
5124000,0.0324,0.013523,0.002678,0.000431,0.663682
5125000,0.0324,0.013523,0.002678,0.000431,0.684132
5126000,0.0324,0.013523,0.002678,0.000431,0.672731
5127000,0.0324,0.013523,0.002678,0.000431,0.640764
5128000,0.0324,0.013523,0.002678,0.000431,0.597278
5129000,0.0324,0.013523,0.002678,0.000431,0.657923
5130000,0.0324,0.013523,0.002678,0.000431,0.696354
5131000,0.0324,0.013523,0.002678,0.000431,0.639588
5132000,0.0324,0.013523,0.002678,0.000431,0.670381
5133000,0.0324,0.013523,0.002678,0.000431,0.612792
5134000,0.0324,0.013523,0.002678,0.000431,0.654867
5135000,0.0324,0.013523,0.002678,0.000431,0.622664
5136000,0.0324,0.013523,0.002678,0.000431,0.636885
5137000,0.0324,0.013523,0.002678,0.000431,0.633359
5138000,0.0324,0.013523,0.002678,0.000431,0.641586
5139000,0.0324,0.013523,0.002678,0.000431,0.654867
5140000,0.0324,0.013523,0.002678,0.000431,0.623017
5141000,0.0324,0.013523,0.002678,0.000431,0.633829
5142000,0.0324,0.013523,0.002678,0.000431,0.635710
5143000,0.0324,0.013523,0.002678,0.000431,0.635592
5144000,0.0324,0.013523,0.002678,0.000431,0.621254
5145000,0.0324,0.013523,0.002678,0.000431,0.648756
5146000,0.0324,0.013523,0.002678,0.000431,0.630539
5147000,0.0324,0.013523,0.002678,0.000431,0.641821
5148000,0.0324,0.013523,0.002678,0.000431,0.642292
5149000,0.0324,0.013523,0.002678,0.000431,0.654985
5150000,0.0324,0.013523,0.002678,0.000431,0.651459
5151000,0.0324,0.013523,0.002678,0.000431,0.611382
5152000,0.0324,0.013523,0.002678,0.000431,0.624780
5153000,0.0324,0.013523,0.002678,0.000431,0.636298
5154000,0.0324,0.013523,0.002678,0.000431,0.631949
5155000,0.0324,0.013523,0.002678,0.000431,0.636415
5156000,0.0324,0.013523,0.002678,0.000431,0.646758
5157000,0.0324,0.013523,0.002678,0.000431,0.655925
5158000,0.0324,0.013523,0.002678,0.000431,0.642644
5159000,0.0324,0.013523,0.002678,0.000431,0.641586
5160000,0.0324,0.013523,0.002678,0.000431,0.645817
5161000,0.0324,0.013523,0.002678,0.000431,0.648991
5162000,0.0324,0.013523,0.002678,0.000431,0.641704
5163000,0.0324,0.013523,0.002678,0.000431,0.651224
5164000,0.0324,0.013523,0.002678,0.000431,0.607386
5165000,0.0324,0.013523,0.002678,0.000431,0.558376
5166000,0.0324,0.013523,0.002678,0.000431,0.642292
5167000,0.0324,0.013523,0.002678,0.000431,0.669205
5168000,0.0324,0.013523,0.002678,0.000431,0.655925
5169000,0.0324,0.013523,0.002678,0.000431,0.632302
5170000,0.0324,0.013523,0.002678,0.000431,0.659803
5171000,0.0324,0.013523,0.002678,0.000431,0.619726
5172000,0.0324,0.013523,0.002678,0.000431,0.636885
5173000,0.0324,0.013523,0.002678,0.000431,0.627836
5174000,0.0324,0.013523,0.002678,0.000431,0.607268
5175000,0.0324,0.013523,0.002678,0.000431,0.595045
5176000,0.0324,0.013523,0.002678,0.000431,0.616670
5177000,0.0324,0.013523,0.002678,0.000431,0.629951
5178000,0.0324,0.013523,0.002678,0.000431,0.620901
5179000,0.0324,0.013523,0.002678,0.000431,0.679078
5180000,0.0324,0.013523,0.002678,0.000431,0.681076
5181000,0.0324,0.013523,0.002678,0.000431,0.664622
5182000,0.0324,0.013523,0.002678,0.000431,0.650871
5183000,0.0324,0.013523,0.002678,0.000431,0.638766
5184000,0.0324,0.013523,0.002678,0.000431,0.639588
5185000,0.0324,0.013523,0.002678,0.000431,0.618786
5186000,0.0324,0.013523,0.002678,0.000431,0.632889
5187000,0.0324,0.013523,0.002678,0.000431,0.622429
5188000,0.0324,0.013523,0.002678,0.000431,0.639001
5189000,0.0324,0.013523,0.002678,0.000431,0.625955
5190000,0.0324,0.013523,0.002678,0.000431,0.627953
5191000,0.0324,0.013523,0.002678,0.000431,0.658393
5192000,0.0324,0.013523,0.002678,0.000431,0.655807
5193000,0.0324,0.013523,0.002678,0.000431,0.665797
5194000,0.0324,0.013523,0.002678,0.000431,0.614437
5195000,0.0324,0.013523,0.002678,0.000431,0.639001
5196000,0.0324,0.013523,0.002678,0.000431,0.643467
5197000,0.0324,0.013523,0.002678,0.000431,0.648168
5198000,0.0324,0.013523,0.002678,0.000431,0.642409
5199000,0.0324,0.013523,0.002678,0.000431,0.633007
5200000,0.0324,0.013523,0.002678,0.000431,0.624310
5201000,0.0324,0.013523,0.002678,0.000431,0.621136
5202000,0.0324,0.013523,0.002678,0.000431,0.645935
5203000,0.0324,0.013523,0.002678,0.000431,0.630539
5204000,0.0324,0.013523,0.002678,0.000431,0.642292
5205000,0.0324,0.013523,0.002678,0.000431,0.663094
5206000,0.0324,0.013523,0.002678,0.000431,0.655572
5207000,0.0324,0.013523,0.002678,0.000431,0.642644
5208000,0.0324,0.013523,0.002678,0.000431,0.615025
5209000,0.0324,0.013523,0.002678,0.000431,0.661331
5210000,0.0324,0.013523,0.002678,0.000431,0.658745
5211000,0.0324,0.013523,0.002678,0.000431,0.657100
5212000,0.0324,0.013523,0.002678,0.000431,0.637943
5213000,0.0324,0.013523,0.002678,0.000431,0.673084
5214000,0.0324,0.013523,0.002678,0.000431,0.705052
5215000,0.0324,0.013523,0.002678,0.000431,0.661801
5216000,0.0324,0.013523,0.002678,0.000431,0.644054
5217000,0.0324,0.013523,0.002678,0.000431,0.626190
5218000,0.0324,0.013523,0.002678,0.000431,0.631949
5219000,0.0324,0.013523,0.002678,0.000431,0.624192
5220000,0.0324,0.013523,0.002678,0.000431,0.625367
5221000,0.0324,0.013523,0.002678,0.000431,0.632419
5222000,0.0324,0.013523,0.002678,0.000431,0.622312
5223000,0.0324,0.013523,0.002678,0.000431,0.667325
5224000,0.0324,0.013523,0.002678,0.000431,0.650636
5225000,0.0324,0.013523,0.002678,0.000431,0.638648
5226000,0.0324,0.013523,0.002678,0.000431,0.626895
5227000,0.0324,0.013523,0.002678,0.000431,0.607268
5228000,0.0324,0.013523,0.002678,0.000431,0.633359
5229000,0.0324,0.013523,0.002678,0.000431,0.629834
5230000,0.0324,0.013523,0.002678,0.000431,0.671203
5231000,0.0324,0.013523,0.002678,0.000431,0.661096
5232000,0.0324,0.013523,0.002678,0.000431,0.647698
5233000,0.0324,0.013523,0.002678,0.000431,0.621136
5234000,0.0324,0.013523,0.002678,0.000431,0.627953
5235000,0.0324,0.013523,0.002678,0.000431,0.623722
5236000,0.0324,0.013523,0.002678,0.000431,0.634417
5237000,0.0324,0.013523,0.002678,0.000431,0.635240
5238000,0.0324,0.013523,0.002678,0.000431,0.671674
5239000,0.0324,0.013523,0.002678,0.000431,0.635005
5240000,0.0324,0.013523,0.002678,0.000431,0.646993
5241000,0.0324,0.013523,0.002678,0.000431,0.622664
5242000,0.0324,0.013523,0.002678,0.000431,0.639118
5243000,0.0324,0.013523,0.002678,0.000431,0.626425
5244000,0.0324,0.013523,0.002678,0.000431,0.617493
5245000,0.0324,0.013523,0.002678,0.000431,0.591402
5246000,0.0324,0.013523,0.002678,0.000431,0.603625
5247000,0.0324,0.013523,0.002678,0.000431,0.631244
5248000,0.0324,0.013523,0.002678,0.000431,0.620314
5249000,0.0324,0.013523,0.002678,0.000431,0.623017
5250000,0.0324,0.013523,0.002678,0.000431,0.598454
5251000,0.0324,0.013523,0.002678,0.000431,0.643937
5252000,0.0324,0.013523,0.002678,0.000431,0.619491
5253000,0.0324,0.013523,0.002678,0.000431,0.621842
5254000,0.0324,0.013523,0.002678,0.000431,0.626895
5255000,0.0324,0.013523,0.002678,0.000431,0.639236
5256000,0.0324,0.013523,0.002678,0.000431,0.614790
5257000,0.0324,0.013523,0.002678,0.000431,0.629834
5258000,0.0324,0.013523,0.002678,0.000431,0.620901
5259000,0.0324,0.013523,0.002678,0.000431,0.603742
5260000,0.0324,0.013523,0.002678,0.000431,0.638413
5261000,0.0324,0.013523,0.002678,0.000431,0.613145
5262000,0.0324,0.013523,0.002678,0.000431,0.632302
5263000,0.0324,0.013523,0.002678,0.000431,0.598454
5264000,0.0324,0.013523,0.002678,0.000431,0.610324
5265000,0.0324,0.013523,0.002678,0.000431,0.654632
5266000,0.0324,0.013523,0.002678,0.000431,0.604565
5267000,0.0324,0.013523,0.002678,0.000431,0.624310
5268000,0.0324,0.013523,0.002678,0.000431,0.620314
5269000,0.0324,0.013523,0.002678,0.000431,0.630421
5270000,0.0324,0.013523,0.002678,0.000431,0.644877
5271000,0.0324,0.013523,0.002678,0.000431,0.627248
5272000,0.0324,0.013523,0.002678,0.000431,0.620784
5273000,0.0324,0.013523,0.002678,0.000431,0.642409
5274000,0.0324,0.013523,0.002678,0.000431,0.627365
5275000,0.0324,0.013523,0.002678,0.000431,0.633712
5276000,0.0324,0.013523,0.002678,0.000431,0.616553
5277000,0.0324,0.013523,0.002678,0.000431,0.612674
5278000,0.0324,0.013523,0.002678,0.000431,0.615143
5279000,0.0324,0.013523,0.002678,0.000431,0.621254
5280000,0.0324,0.013523,0.002678,0.000431,0.623605
5281000,0.0324,0.013523,0.002678,0.000431,0.635945
5282000,0.0324,0.013523,0.002678,0.000431,0.646170
5283000,0.0324,0.013523,0.002678,0.000431,0.633124
5284000,0.0324,0.013523,0.002678,0.000431,0.627718
5285000,0.0324,0.013523,0.002678,0.000431,0.622547
5286000,0.0324,0.013523,0.002678,0.000431,0.653927
5287000,0.0324,0.013523,0.002678,0.000431,0.664269
5288000,0.0324,0.013523,0.002678,0.000431,0.630656
5289000,0.0324,0.013523,0.002678,0.000431,0.623722
5290000,0.0324,0.013523,0.002678,0.000431,0.606680
5291000,0.0324,0.013523,0.002678,0.000431,0.591167
5292000,0.0324,0.013523,0.002678,0.000431,0.637943
5293000,0.0324,0.013523,0.002678,0.000431,0.629011
5294000,0.0324,0.013523,0.002678,0.000431,0.622547
5295000,0.0324,0.013523,0.002678,0.000431,0.632537
5296000,0.0324,0.013523,0.002678,0.000431,0.627718
5297000,0.0324,0.013523,0.002678,0.000431,0.647933
5298000,0.0324,0.013523,0.002678,0.000431,0.673672
5299000,0.0324,0.013523,0.002678,0.000431,0.669205
5300000,0.0324,0.013523,0.002678,0.000431,0.621959
5301000,0.0324,0.013523,0.002678,0.000431,0.626543
5302000,0.0324,0.013523,0.002678,0.000431,0.638648
5303000,0.0324,0.013523,0.002678,0.000431,0.623017
5304000,0.0324,0.013523,0.002678,0.000431,0.616435
5305000,0.0324,0.013523,0.002678,0.000431,0.638648
5306000,0.0324,0.013523,0.002678,0.000431,0.605035
5307000,0.0324,0.013523,0.002678,0.000431,0.640294
5308000,0.0324,0.013523,0.002678,0.000431,0.604682
5309000,0.0324,0.013523,0.002678,0.000431,0.644995
5310000,0.0324,0.013523,0.002678,0.000431,0.635122
5311000,0.0324,0.013523,0.002678,0.000431,0.613967
5312000,0.0324,0.013523,0.002678,0.000431,0.660156
5313000,0.0324,0.013523,0.002678,0.000431,0.639941
5314000,0.0324,0.013523,0.002678,0.000431,0.630891
5315000,0.0324,0.013523,0.002678,0.000431,0.642409
5316000,0.0324,0.013523,0.002678,0.000431,0.639706
5317000,0.0324,0.013523,0.002678,0.000431,0.606093
5318000,0.0324,0.013523,0.002678,0.000431,0.600451
5319000,0.0324,0.013523,0.002678,0.000431,0.629363
5320000,0.0324,0.013523,0.002678,0.000431,0.633829
5321000,0.0324,0.013523,0.002678,0.000431,0.623369
5322000,0.0324,0.013523,0.002678,0.000431,0.668030
5323000,0.0324,0.013523,0.002678,0.000431,0.627365
5324000,0.0324,0.013523,0.002678,0.000431,0.629598
5325000,0.0324,0.013523,0.002678,0.000431,0.650754
5326000,0.0324,0.013523,0.002678,0.000431,0.630656
5327000,0.0324,0.013523,0.002678,0.000431,0.649696
5328000,0.0324,0.013523,0.002678,0.000431,0.635240
5329000,0.0324,0.013523,0.002678,0.000431,0.645700
5330000,0.0324,0.013523,0.002678,0.000431,0.648873
5331000,0.0324,0.013523,0.002678,0.000431,0.655220
5332000,0.0324,0.013523,0.002678,0.000431,0.643819
5333000,0.0324,0.013523,0.002678,0.000431,0.638531
5334000,0.0324,0.013523,0.002678,0.000431,0.654397
5335000,0.0324,0.013523,0.002678,0.000431,0.613262
5336000,0.0324,0.013523,0.002678,0.000431,0.653809
5337000,0.0324,0.013523,0.002678,0.000431,0.658981
5338000,0.0324,0.013523,0.002678,0.000431,0.632889
5339000,0.0324,0.013523,0.002678,0.000431,0.642997
5340000,0.0324,0.013523,0.002678,0.000431,0.656160
5341000,0.0324,0.013523,0.002678,0.000431,0.645230
5342000,0.0324,0.013523,0.002678,0.000431,0.634300
5343000,0.0324,0.013523,0.002678,0.000431,0.659098
5344000,0.0324,0.013523,0.002678,0.000431,0.645582
5345000,0.0324,0.013523,0.002678,0.000431,0.606798
5346000,0.0324,0.013523,0.002678,0.000431,0.628541
5347000,0.0324,0.013523,0.002678,0.000431,0.639823
5348000,0.0324,0.013523,0.002678,0.000431,0.627953
5349000,0.0324,0.013523,0.002678,0.000431,0.589404
5350000,0.0324,0.013523,0.002678,0.000431,0.617258
5351000,0.0324,0.013523,0.002678,0.000431,0.635122
5352000,0.0324,0.013523,0.002678,0.000431,0.628776
5353000,0.0324,0.013523,0.002678,0.000431,0.640999
5354000,0.0324,0.013523,0.002678,0.000431,0.622547
5355000,0.0324,0.013523,0.002678,0.000431,0.641939
5356000,0.0324,0.013523,0.002678,0.000431,0.685894
5357000,0.0324,0.013523,0.002678,0.000431,0.619609
5358000,0.0324,0.013523,0.002678,0.000431,0.622429
5359000,0.0324,0.013523,0.002678,0.000431,0.626308
5360000,0.0324,0.013523,0.002678,0.000431,0.639823
5361000,0.0324,0.013523,0.002678,0.000431,0.607151
5362000,0.0324,0.013523,0.002678,0.000431,0.611499
5363000,0.0324,0.013523,0.002678,0.000431,0.646993
5364000,0.0324,0.013523,0.002678,0.000431,0.639941
5365000,0.0324,0.013523,0.002678,0.000431,0.617846
5366000,0.0324,0.013523,0.002678,0.000431,0.636885
5367000,0.0324,0.013523,0.002678,0.000431,0.641116
5368000,0.0324,0.013523,0.002678,0.000431,0.653927
5369000,0.0324,0.013523,0.002678,0.000431,0.630656
5370000,0.0324,0.013523,0.002678,0.000431,0.643937
5371000,0.0324,0.013523,0.002678,0.000431,0.652634
5372000,0.0324,0.013523,0.002678,0.000431,0.661684
5373000,0.0324,0.013523,0.002678,0.000431,0.634300
5374000,0.0324,0.013523,0.002678,0.000431,0.657100
5375000,0.0324,0.013523,0.002678,0.000431,0.634065
5376000,0.0324,0.013523,0.002678,0.000431,0.615848
5377000,0.0324,0.013523,0.002678,0.000431,0.605388
5378000,0.0324,0.013523,0.002678,0.000431,0.642644
5379000,0.0324,0.013523,0.002678,0.000431,0.624662
5380000,0.0324,0.013523,0.002678,0.000431,0.609031
5381000,0.0324,0.013523,0.002678,0.000431,0.628306
5382000,0.0324,0.013523,0.002678,0.000431,0.625367
5383000,0.0324,0.013523,0.002678,0.000431,0.648873
5384000,0.0324,0.013523,0.002678,0.000431,0.628306
5385000,0.0324,0.013523,0.002678,0.000431,0.637943
5386000,0.0324,0.013523,0.002678,0.000431,0.625955
5387000,0.0324,0.013523,0.002678,0.000431,0.638413
5388000,0.0324,0.013523,0.002678,0.000431,0.678960
5389000,0.0324,0.013523,0.002678,0.000431,0.644760
5390000,0.0324,0.013523,0.002678,0.000431,0.661331
5391000,0.0324,0.013523,0.002678,0.000431,0.631244
5392000,0.0324,0.013523,0.002678,0.000431,0.635475
5393000,0.0324,0.013523,0.002678,0.000431,0.618433
5394000,0.0324,0.013523,0.002678,0.000431,0.598571
5395000,0.0324,0.013523,0.002678,0.000431,0.621607
5396000,0.0324,0.013523,0.002678,0.000431,0.653104
5397000,0.0324,0.013523,0.002678,0.000431,0.642762
5398000,0.0324,0.013523,0.002678,0.000431,0.645935
5399000,0.0324,0.013523,0.002678,0.000431,0.651224
5400000,0.0324,0.013523,0.002678,0.000431,0.648756
5401000,0.0324,0.013523,0.002678,0.000431,0.660978
5402000,0.0324,0.013523,0.002678,0.000431,0.667325
5403000,0.0324,0.013523,0.002678,0.000431,0.652281
5404000,0.0324,0.013523,0.002678,0.000431,0.609266
5405000,0.0324,0.013523,0.002678,0.000431,0.636650
5406000,0.0324,0.013523,0.002678,0.000431,0.653104
5407000,0.0324,0.013523,0.002678,0.000431,0.653222
5408000,0.0324,0.013523,0.002678,0.000431,0.651459
5409000,0.0324,0.013523,0.002678,0.000431,0.651694
5410000,0.0324,0.013523,0.002678,0.000431,0.628541
5411000,0.0324,0.013523,0.002678,0.000431,0.643114
5412000,0.0324,0.013523,0.002678,0.000431,0.673319
5413000,0.0324,0.013523,0.002678,0.000431,0.677550
5414000,0.0324,0.013523,0.002678,0.000431,0.637120
5415000,0.0324,0.013523,0.002678,0.000431,0.666972
5416000,0.0324,0.013523,0.002678,0.000431,0.675787
5417000,0.0324,0.013523,0.002678,0.000431,0.665797
5418000,0.0324,0.013523,0.002678,0.000431,0.632184
5419000,0.0324,0.013523,0.002678,0.000431,0.666032
5420000,0.0324,0.013523,0.002678,0.000431,0.624897
5421000,0.0324,0.013523,0.002678,0.000431,0.672966
5422000,0.0324,0.013523,0.002678,0.000431,0.625720
5423000,0.0324,0.013523,0.002678,0.000431,0.655925
5424000,0.0324,0.013523,0.002678,0.000431,0.656747
5425000,0.0324,0.013523,0.002678,0.000431,0.640764
5426000,0.0324,0.013523,0.002678,0.000431,0.634887
5427000,0.0324,0.013523,0.002678,0.000431,0.635005
5428000,0.0324,0.013523,0.002678,0.000431,0.625838
5429000,0.0324,0.013523,0.002678,0.000431,0.660743
5430000,0.0324,0.013523,0.002678,0.000431,0.644289
5431000,0.0324,0.013523,0.002678,0.000431,0.637355
5432000,0.0324,0.013523,0.002678,0.000431,0.637355
5433000,0.0324,0.013523,0.002678,0.000431,0.614320
5434000,0.0324,0.013523,0.002678,0.000431,0.625720
5435000,0.0324,0.013523,0.002678,0.000431,0.629951
5436000,0.0324,0.013523,0.002678,0.000431,0.617611
5437000,0.0324,0.013523,0.002678,0.000431,0.638296
5438000,0.0324,0.013523,0.002678,0.000431,0.624310
5439000,0.0324,0.013523,0.002678,0.000431,0.610559
5440000,0.0324,0.013523,0.002678,0.000431,0.668618
5441000,0.0324,0.013523,0.002678,0.000431,0.644642
5442000,0.0324,0.013523,0.002678,0.000431,0.659568
5443000,0.0324,0.013523,0.002678,0.000431,0.631361
5444000,0.0324,0.013523,0.002678,0.000431,0.659686
5445000,0.0324,0.013523,0.002678,0.000431,0.623017
5446000,0.0324,0.013523,0.002678,0.000431,0.622782
5447000,0.0324,0.013523,0.002678,0.000431,0.644877
5448000,0.0324,0.013523,0.002678,0.000431,0.634535
5449000,0.0324,0.013523,0.002678,0.000431,0.656512
5450000,0.0324,0.013523,0.002678,0.000431,0.623252
5451000,0.0324,0.013523,0.002678,0.000431,0.620901
5452000,0.0324,0.013523,0.002678,0.000431,0.623369
5453000,0.0324,0.013523,0.002678,0.000431,0.637708
5454000,0.0324,0.013523,0.002678,0.000431,0.655220
5455000,0.0324,0.013523,0.002678,0.000431,0.626425
5456000,0.0324,0.013523,0.002678,0.000431,0.621842
5457000,0.0324,0.013523,0.002678,0.000431,0.618316
5458000,0.0324,0.013523,0.002678,0.000431,0.656865
5459000,0.0324,0.013523,0.002678,0.000431,0.620901
5460000,0.0324,0.013523,0.002678,0.000431,0.645465
5461000,0.0324,0.013523,0.002678,0.000431,0.650048
5462000,0.0324,0.013523,0.002678,0.000431,0.620314
5463000,0.0324,0.013523,0.002678,0.000431,0.620666
5464000,0.0324,0.013523,0.002678,0.000431,0.612204
5465000,0.0324,0.013523,0.002678,0.000431,0.637825
5466000,0.0324,0.013523,0.002678,0.000431,0.636533
5467000,0.0324,0.013523,0.002678,0.000431,0.603155
5468000,0.0324,0.013523,0.002678,0.000431,0.638766
5469000,0.0324,0.013523,0.002678,0.000431,0.594340
5470000,0.0324,0.013523,0.002678,0.000431,0.652399
5471000,0.0324,0.013523,0.002678,0.000431,0.625485
5472000,0.0324,0.013523,0.002678,0.000431,0.628658
5473000,0.0324,0.013523,0.002678,0.000431,0.634300
5474000,0.0324,0.013523,0.002678,0.000431,0.653222
5475000,0.0324,0.013523,0.002678,0.000431,0.635357
5476000,0.0324,0.013523,0.002678,0.000431,0.606093
5477000,0.0324,0.013523,0.002678,0.000431,0.625838
5478000,0.0324,0.013523,0.002678,0.000431,0.631244
5479000,0.0324,0.013523,0.002678,0.000431,0.646170
5480000,0.0324,0.013523,0.002678,0.000431,0.636063
5481000,0.0324,0.013523,0.002678,0.000431,0.654985
5482000,0.0324,0.013523,0.002678,0.000431,0.612557
5483000,0.0324,0.013523,0.002678,0.000431,0.632184
5484000,0.0324,0.013523,0.002678,0.000431,0.629598
5485000,0.0324,0.013523,0.002678,0.000431,0.584468
5486000,0.0324,0.013523,0.002678,0.000431,0.635827
5487000,0.0324,0.013523,0.002678,0.000431,0.613380
5488000,0.0324,0.013523,0.002678,0.000431,0.640529
5489000,0.0324,0.013523,0.002678,0.000431,0.635240
5490000,0.0324,0.013523,0.002678,0.000431,0.664739
5491000,0.0324,0.013523,0.002678,0.000431,0.660156
5492000,0.0324,0.013523,0.002678,0.000431,0.629011
5493000,0.0324,0.013523,0.002678,0.000431,0.621254
5494000,0.0324,0.013523,0.002678,0.000431,0.631714
5495000,0.0324,0.013523,0.002678,0.000431,0.622429
5496000,0.0324,0.013523,0.002678,0.000431,0.659568
5497000,0.0324,0.013523,0.002678,0.000431,0.636063
5498000,0.0324,0.013523,0.002678,0.000431,0.661331
5499000,0.0324,0.013523,0.002678,0.000431,0.633829
5500000,0.0324,0.013523,0.002678,0.000431,0.605740
5501000,0.0324,0.013523,0.002678,0.000431,0.637590
5502000,0.0324,0.013523,0.002678,0.000431,0.638296
5503000,0.0324,0.013523,0.002678,0.000431,0.629481
5504000,0.0324,0.013523,0.002678,0.000431,0.658981
5505000,0.0324,0.013523,0.002678,0.000431,0.638883
5506000,0.0324,0.013523,0.002678,0.000431,0.622664
5507000,0.0324,0.013523,0.002678,0.000431,0.616788
5508000,0.0324,0.013523,0.002678,0.000431,0.621489
5509000,0.0324,0.013523,0.002678,0.000431,0.596220
5510000,0.0324,0.013523,0.002678,0.000431,0.601039
5511000,0.0324,0.013523,0.002678,0.000431,0.612439
5512000,0.0324,0.013523,0.002678,0.000431,0.642644
5513000,0.0324,0.013523,0.002678,0.000431,0.629716
5514000,0.0324,0.013523,0.002678,0.000431,0.644525
5515000,0.0324,0.013523,0.002678,0.000431,0.619256
5516000,0.0324,0.013523,0.002678,0.000431,0.640529
5517000,0.0324,0.013523,0.002678,0.000431,0.652281
5518000,0.0324,0.013523,0.002678,0.000431,0.636768
5519000,0.0324,0.013523,0.002678,0.000431,0.615260
5520000,0.0324,0.013523,0.002678,0.000431,0.613967
5521000,0.0324,0.013523,0.002678,0.000431,0.625838
5522000,0.0324,0.013523,0.002678,0.000431,0.616788
5523000,0.0324,0.013523,0.002678,0.000431,0.641234
5524000,0.0324,0.013523,0.002678,0.000431,0.589169
5525000,0.0324,0.013523,0.002678,0.000431,0.593282
5526000,0.0324,0.013523,0.002678,0.000431,0.595985
5527000,0.0324,0.013523,0.002678,0.000431,0.607503
5528000,0.0324,0.013523,0.002678,0.000431,0.627365
5529000,0.0324,0.013523,0.002678,0.000431,0.658158
5530000,0.0324,0.013523,0.002678,0.000431,0.662859
5531000,0.0324,0.013523,0.002678,0.000431,0.635005
5532000,0.0324,0.013523,0.002678,0.000431,0.648991
5533000,0.0324,0.013523,0.002678,0.000431,0.671791
5534000,0.0324,0.013523,0.002678,0.000431,0.635592
5535000,0.0324,0.013523,0.002678,0.000431,0.602097
5536000,0.0324,0.013523,0.002678,0.000431,0.614672
5537000,0.0324,0.013523,0.002678,0.000431,0.607268
5538000,0.0324,0.013523,0.002678,0.000431,0.602214
5539000,0.0324,0.013523,0.002678,0.000431,0.619138
5540000,0.0324,0.013523,0.002678,0.000431,0.636063
5541000,0.0324,0.013523,0.002678,0.000431,0.574595
5542000,0.0324,0.013523,0.002678,0.000431,0.607033
5543000,0.0324,0.013523,0.002678,0.000431,0.616200
5544000,0.0324,0.013523,0.002678,0.000431,0.645465
5545000,0.0324,0.013523,0.002678,0.000431,0.635475
5546000,0.0324,0.013523,0.002678,0.000431,0.610559
5547000,0.0324,0.013523,0.002678,0.000431,0.614085
5548000,0.0324,0.013523,0.002678,0.000431,0.615495
5549000,0.0324,0.013523,0.002678,0.000431,0.625838
5550000,0.0324,0.013523,0.002678,0.000431,0.597748
5551000,0.0324,0.013523,0.002678,0.000431,0.614907
5552000,0.0324,0.013523,0.002678,0.000431,0.613027
5553000,0.0324,0.013523,0.002678,0.000431,0.635475
5554000,0.0324,0.013523,0.002678,0.000431,0.610794
5555000,0.0324,0.013523,0.002678,0.000431,0.625015
5556000,0.0324,0.013523,0.002678,0.000431,0.622077
5557000,0.0324,0.013523,0.002678,0.000431,0.630656
5558000,0.0324,0.013523,0.002678,0.000431,0.619138
5559000,0.0324,0.013523,0.002678,0.000431,0.613967
5560000,0.0324,0.013523,0.002678,0.000431,0.605035
5561000,0.0324,0.013523,0.002678,0.000431,0.614320
5562000,0.0324,0.013523,0.002678,0.000431,0.608796
5563000,0.0324,0.013523,0.002678,0.000431,0.615965
5564000,0.0324,0.013523,0.002678,0.000431,0.618198
5565000,0.0324,0.013523,0.002678,0.000431,0.624427
5566000,0.0324,0.013523,0.002678,0.000431,0.633007
5567000,0.0324,0.013523,0.002678,0.000431,0.625720
5568000,0.0324,0.013523,0.002678,0.000431,0.626308
5569000,0.0324,0.013523,0.002678,0.000431,0.626073
5570000,0.0324,0.013523,0.002678,0.000431,0.645230
5571000,0.0324,0.013523,0.002678,0.000431,0.612439
5572000,0.0324,0.013523,0.002678,0.000431,0.646287
5573000,0.0324,0.013523,0.002678,0.000431,0.622899
5574000,0.0324,0.013523,0.002678,0.000431,0.625132
5575000,0.0324,0.013523,0.002678,0.000431,0.610324
5576000,0.0324,0.013523,0.002678,0.000431,0.640529
5577000,0.0324,0.013523,0.002678,0.000431,0.627836
5578000,0.0324,0.013523,0.002678,0.000431,0.647228
5579000,0.0324,0.013523,0.002678,0.000431,0.626778
5580000,0.0324,0.013523,0.002678,0.000431,0.657805
5581000,0.0324,0.013523,0.002678,0.000431,0.672731
5582000,0.0324,0.013523,0.002678,0.000431,0.611147
5583000,0.0324,0.013523,0.002678,0.000431,0.649931
5584000,0.0324,0.013523,0.002678,0.000431,0.611382
5585000,0.0324,0.013523,0.002678,0.000431,0.644877
5586000,0.0324,0.013523,0.002678,0.000431,0.621842
5587000,0.0324,0.013523,0.002678,0.000431,0.624662
5588000,0.0324,0.013523,0.002678,0.000431,0.617376
5589000,0.0324,0.013523,0.002678,0.000431,0.640058
5590000,0.0324,0.013523,0.002678,0.000431,0.626543
5591000,0.0324,0.013523,0.002678,0.000431,0.616670
5592000,0.0324,0.013523,0.002678,0.000431,0.613967
5593000,0.0324,0.013523,0.002678,0.000431,0.641469
5594000,0.0324,0.013523,0.002678,0.000431,0.620431
5595000,0.0324,0.013523,0.002678,0.000431,0.651929
5596000,0.0324,0.013523,0.002678,0.000431,0.594928
5597000,0.0324,0.013523,0.002678,0.000431,0.588111
5598000,0.0324,0.013523,0.002678,0.000431,0.621842
5599000,0.0324,0.013523,0.002678,0.000431,0.630656
5600000,0.0324,0.013523,0.002678,0.000431,0.635710
5601000,0.0324,0.013523,0.002678,0.000431,0.647933
5602000,0.0324,0.013523,0.002678,0.000431,0.636768
5603000,0.0324,0.013523,0.002678,0.000431,0.633007
5604000,0.0324,0.013523,0.002678,0.000431,0.628423
5605000,0.0324,0.013523,0.002678,0.000431,0.640881
5606000,0.0324,0.013523,0.002678,0.000431,0.648991
5607000,0.0324,0.013523,0.002678,0.000431,0.639118
5608000,0.0324,0.013523,0.002678,0.000431,0.638413
5609000,0.0324,0.013523,0.002678,0.000431,0.606210
5610000,0.0324,0.013523,0.002678,0.000431,0.606445
5611000,0.0324,0.013523,0.002678,0.000431,0.645465
5612000,0.0324,0.013523,0.002678,0.000431,0.628541
5613000,0.0324,0.013523,0.002678,0.000431,0.650636
5614000,0.0324,0.013523,0.002678,0.000431,0.615495
5615000,0.0324,0.013523,0.002678,0.000431,0.641704
5616000,0.0324,0.013523,0.002678,0.000431,0.639118
5617000,0.0324,0.013523,0.002678,0.000431,0.626778
5618000,0.0324,0.013523,0.002678,0.000431,0.619256
5619000,0.0324,0.013523,0.002678,0.000431,0.622194
5620000,0.0324,0.013523,0.002678,0.000431,0.640176
5621000,0.0324,0.013523,0.002678,0.000431,0.630774
5622000,0.0324,0.013523,0.002678,0.000431,0.638648
5623000,0.0324,0.013523,0.002678,0.000431,0.629481
5624000,0.0324,0.013523,0.002678,0.000431,0.629246
5625000,0.0324,0.013523,0.002678,0.000431,0.646993
5626000,0.0324,0.013523,0.002678,0.000431,0.625603
5627000,0.0324,0.013523,0.002678,0.000431,0.646523
5628000,0.0324,0.013523,0.002678,0.000431,0.617376
5629000,0.0324,0.013523,0.002678,0.000431,0.643937
5630000,0.0324,0.013523,0.002678,0.000431,0.622429
5631000,0.0324,0.013523,0.002678,0.000431,0.624075
5632000,0.0324,0.013523,0.002678,0.000431,0.624075
5633000,0.0324,0.013523,0.002678,0.000431,0.653927
5634000,0.0324,0.013523,0.002678,0.000431,0.632537
5635000,0.0324,0.013523,0.002678,0.000431,0.613850
5636000,0.0324,0.013523,0.002678,0.000431,0.593282
5637000,0.0324,0.013523,0.002678,0.000431,0.630539
5638000,0.0324,0.013523,0.002678,0.000431,0.636180
5639000,0.0324,0.013523,0.002678,0.000431,0.642056
5640000,0.0324,0.013523,0.002678,0.000431,0.617140
5641000,0.0324,0.013523,0.002678,0.000431,0.621607
5642000,0.0324,0.013523,0.002678,0.000431,0.622899
5643000,0.0324,0.013523,0.002678,0.000431,0.633007
5644000,0.0324,0.013523,0.002678,0.000431,0.615025
5645000,0.0324,0.013523,0.002678,0.000431,0.646052
5646000,0.0324,0.013523,0.002678,0.000431,0.622782
5647000,0.0324,0.013523,0.002678,0.000431,0.631126
5648000,0.0324,0.013523,0.002678,0.000431,0.633007
5649000,0.0324,0.013523,0.002678,0.000431,0.628893
5650000,0.0324,0.013523,0.002678,0.000431,0.627483
5651000,0.0324,0.013523,0.002678,0.000431,0.622194
5652000,0.0324,0.013523,0.002678,0.000431,0.652987
5653000,0.0324,0.013523,0.002678,0.000431,0.633242
5654000,0.0324,0.013523,0.002678,0.000431,0.651811
5655000,0.0324,0.013523,0.002678,0.000431,0.640294
5656000,0.0324,0.013523,0.002678,0.000431,0.616435
5657000,0.0324,0.013523,0.002678,0.000431,0.611734
5658000,0.0324,0.013523,0.002678,0.000431,0.643467
5659000,0.0324,0.013523,0.002678,0.000431,0.620431
5660000,0.0324,0.013523,0.002678,0.000431,0.608443
5661000,0.0324,0.013523,0.002678,0.000431,0.608326
5662000,0.0324,0.013523,0.002678,0.000431,0.597748
5663000,0.0324,0.013523,0.002678,0.000431,0.622194
5664000,0.0324,0.013523,0.002678,0.000431,0.625132
5665000,0.0324,0.013523,0.002678,0.000431,0.621724
5666000,0.0324,0.013523,0.002678,0.000431,0.613967
5667000,0.0324,0.013523,0.002678,0.000431,0.629246
5668000,0.0324,0.013523,0.002678,0.000431,0.643114
5669000,0.0324,0.013523,0.002678,0.000431,0.628188
5670000,0.0324,0.013523,0.002678,0.000431,0.638061
5671000,0.0324,0.013523,0.002678,0.000431,0.644642
5672000,0.0324,0.013523,0.002678,0.000431,0.651106
5673000,0.0324,0.013523,0.002678,0.000431,0.646523
5674000,0.0324,0.013523,0.002678,0.000431,0.648285
5675000,0.0324,0.013523,0.002678,0.000431,0.637825
5676000,0.0324,0.013523,0.002678,0.000431,0.616318
5677000,0.0324,0.013523,0.002678,0.000431,0.634887
5678000,0.0324,0.013523,0.002678,0.000431,0.627365
5679000,0.0324,0.013523,0.002678,0.000431,0.619138
5680000,0.0324,0.013523,0.002678,0.000431,0.638648
5681000,0.0324,0.013523,0.002678,0.000431,0.638296
5682000,0.0324,0.013523,0.002678,0.000431,0.635357
5683000,0.0324,0.013523,0.002678,0.000431,0.621959
5684000,0.0324,0.013523,0.002678,0.000431,0.639941
5685000,0.0324,0.013523,0.002678,0.000431,0.612792
5686000,0.0324,0.013523,0.002678,0.000431,0.625015
5687000,0.0324,0.013523,0.002678,0.000431,0.627953
5688000,0.0324,0.013523,0.002678,0.000431,0.621607
5689000,0.0324,0.013523,0.002678,0.000431,0.616553
5690000,0.0324,0.013523,0.002678,0.000431,0.620196
5691000,0.0324,0.013523,0.002678,0.000431,0.620549
5692000,0.0324,0.013523,0.002678,0.000431,0.623605
5693000,0.0324,0.013523,0.002678,0.000431,0.633829
5694000,0.0324,0.013523,0.002678,0.000431,0.617728
5695000,0.0324,0.013523,0.002678,0.000431,0.649108
5696000,0.0324,0.013523,0.002678,0.000431,0.617493
5697000,0.0324,0.013523,0.002678,0.000431,0.636063
5698000,0.0324,0.013523,0.002678,0.000431,0.640529
5699000,0.0324,0.013523,0.002678,0.000431,0.626660
5700000,0.0324,0.013523,0.002678,0.000431,0.642644
5701000,0.0324,0.013523,0.002678,0.000431,0.605388
5702000,0.0324,0.013523,0.002678,0.000431,0.612439
5703000,0.0324,0.013523,0.002678,0.000431,0.614672
5704000,0.0324,0.013523,0.002678,0.000431,0.629951
5705000,0.0324,0.013523,0.002678,0.000431,0.604918
5706000,0.0324,0.013523,0.002678,0.000431,0.606563
5707000,0.0324,0.013523,0.002678,0.000431,0.624075
5708000,0.0324,0.013523,0.002678,0.000431,0.614555
5709000,0.0324,0.013523,0.002678,0.000431,0.626778
5710000,0.0324,0.013523,0.002678,0.000431,0.618081
5711000,0.0324,0.013523,0.002678,0.000431,0.622194
5712000,0.0324,0.013523,0.002678,0.000431,0.603037
5713000,0.0324,0.013523,0.002678,0.000431,0.594575
5714000,0.0324,0.013523,0.002678,0.000431,0.632537
5715000,0.0324,0.013523,0.002678,0.000431,0.616083
5716000,0.0324,0.013523,0.002678,0.000431,0.601274
5717000,0.0324,0.013523,0.002678,0.000431,0.595985
5718000,0.0324,0.013523,0.002678,0.000431,0.610441
5719000,0.0324,0.013523,0.002678,0.000431,0.589991
5720000,0.0324,0.013523,0.002678,0.000431,0.632067
5721000,0.0324,0.013523,0.002678,0.000431,0.603037
5722000,0.0324,0.013523,0.002678,0.000431,0.630069
5723000,0.0324,0.013523,0.002678,0.000431,0.613615
5724000,0.0324,0.013523,0.002678,0.000431,0.627248
5725000,0.0324,0.013523,0.002678,0.000431,0.641821
5726000,0.0324,0.013523,0.002678,0.000431,0.614437
5727000,0.0324,0.013523,0.002678,0.000431,0.628071
5728000,0.0324,0.013523,0.002678,0.000431,0.630186
5729000,0.0324,0.013523,0.002678,0.000431,0.624075
5730000,0.0324,0.013523,0.002678,0.000431,0.608796
5731000,0.0324,0.013523,0.002678,0.000431,0.612087
5732000,0.0324,0.013523,0.002678,0.000431,0.598454
5733000,0.0324,0.013523,0.002678,0.000431,0.615378
5734000,0.0324,0.013523,0.002678,0.000431,0.634887
5735000,0.0324,0.013523,0.002678,0.000431,0.602802
5736000,0.0324,0.013523,0.002678,0.000431,0.627248
5737000,0.0324,0.013523,0.002678,0.000431,0.614790
5738000,0.0324,0.013523,0.002678,0.000431,0.633124
5739000,0.0324,0.013523,0.002678,0.000431,0.584703
5740000,0.0324,0.013523,0.002678,0.000431,0.606680
5741000,0.0324,0.013523,0.002678,0.000431,0.609971
5742000,0.0324,0.013523,0.002678,0.000431,0.617376
5743000,0.0324,0.013523,0.002678,0.000431,0.620784
5744000,0.0324,0.013523,0.002678,0.000431,0.639353
5745000,0.0324,0.013523,0.002678,0.000431,0.599394
5746000,0.0324,0.013523,0.002678,0.000431,0.568249
5747000,0.0324,0.013523,0.002678,0.000431,0.584233
5748000,0.0324,0.013523,0.002678,0.000431,0.599276
5749000,0.0324,0.013523,0.002678,0.000431,0.613497
5750000,0.0324,0.013523,0.002678,0.000431,0.598806
5751000,0.0324,0.013523,0.002678,0.000431,0.614907
5752000,0.0324,0.013523,0.002678,0.000431,0.638531
5753000,0.0324,0.013523,0.002678,0.000431,0.624310
5754000,0.0324,0.013523,0.002678,0.000431,0.625955
5755000,0.0324,0.013523,0.002678,0.000431,0.633829
5756000,0.0324,0.013523,0.002678,0.000431,0.638531
5757000,0.0324,0.013523,0.002678,0.000431,0.643819
5758000,0.0324,0.013523,0.002678,0.000431,0.637238
5759000,0.0324,0.013523,0.002678,0.000431,0.605505
5760000,0.0324,0.013523,0.002678,0.000431,0.627365
5761000,0.0324,0.013523,0.002678,0.000431,0.657218
5762000,0.0324,0.013523,0.002678,0.000431,0.619961
5763000,0.0324,0.013523,0.002678,0.000431,0.621489
5764000,0.0324,0.013523,0.002678,0.000431,0.608443
5765000,0.0324,0.013523,0.002678,0.000431,0.608796
5766000,0.0324,0.013523,0.002678,0.000431,0.635475
5767000,0.0324,0.013523,0.002678,0.000431,0.610676
5768000,0.0324,0.013523,0.002678,0.000431,0.620431
5769000,0.0324,0.013523,0.002678,0.000431,0.614907
5770000,0.0324,0.013523,0.002678,0.000431,0.617258
5771000,0.0324,0.013523,0.002678,0.000431,0.620901
5772000,0.0324,0.013523,0.002678,0.000431,0.658393
5773000,0.0324,0.013523,0.002678,0.000431,0.619256
5774000,0.0324,0.013523,0.002678,0.000431,0.635357
5775000,0.0324,0.013523,0.002678,0.000431,0.652399
5776000,0.0324,0.013523,0.002678,0.000431,0.576006
5777000,0.0324,0.013523,0.002678,0.000431,0.618786
5778000,0.0324,0.013523,0.002678,0.000431,0.615143
5779000,0.0324,0.013523,0.002678,0.000431,0.644407
5780000,0.0324,0.013523,0.002678,0.000431,0.634770
5781000,0.0324,0.013523,0.002678,0.000431,0.619609
5782000,0.0324,0.013523,0.002678,0.000431,0.611147
5783000,0.0324,0.013523,0.002678,0.000431,0.614320
5784000,0.0324,0.013523,0.002678,0.000431,0.613380
5785000,0.0324,0.013523,0.002678,0.000431,0.629363
5786000,0.0324,0.013523,0.002678,0.000431,0.585643
5787000,0.0324,0.013523,0.002678,0.000431,0.620549
5788000,0.0324,0.013523,0.002678,0.000431,0.642174
5789000,0.0324,0.013523,0.002678,0.000431,0.635240
5790000,0.0324,0.013523,0.002678,0.000431,0.641469
5791000,0.0324,0.013523,0.002678,0.000431,0.604565
5792000,0.0324,0.013523,0.002678,0.000431,0.645935
5793000,0.0324,0.013523,0.002678,0.000431,0.618551
5794000,0.0324,0.013523,0.002678,0.000431,0.629246
5795000,0.0324,0.013523,0.002678,0.000431,0.629834
5796000,0.0324,0.013523,0.002678,0.000431,0.617728
5797000,0.0324,0.013523,0.002678,0.000431,0.628776
5798000,0.0324,0.013523,0.002678,0.000431,0.616905
5799000,0.0324,0.013523,0.002678,0.000431,0.618786
5800000,0.0324,0.013523,0.002678,0.000431,0.621254
5801000,0.0324,0.013523,0.002678,0.000431,0.619021
5802000,0.0324,0.013523,0.002678,0.000431,0.592342
5803000,0.0324,0.013523,0.002678,0.000431,0.625250
5804000,0.0324,0.013523,0.002678,0.000431,0.606563
5805000,0.0324,0.013523,0.002678,0.000431,0.615730
5806000,0.0324,0.013523,0.002678,0.000431,0.604447
5807000,0.0324,0.013523,0.002678,0.000431,0.626543
5808000,0.0324,0.013523,0.002678,0.000431,0.612087
5809000,0.0324,0.013523,0.002678,0.000431,0.609736
5810000,0.0324,0.013523,0.002678,0.000431,0.608443
5811000,0.0324,0.013523,0.002678,0.000431,0.603977
5812000,0.0324,0.013523,0.002678,0.000431,0.608091
5813000,0.0324,0.013523,0.002678,0.000431,0.608208
5814000,0.0324,0.013523,0.002678,0.000431,0.635710
5815000,0.0324,0.013523,0.002678,0.000431,0.608443
5816000,0.0324,0.013523,0.002678,0.000431,0.621842
5817000,0.0324,0.013523,0.002678,0.000431,0.622899
5818000,0.0324,0.013523,0.002678,0.000431,0.626190
5819000,0.0324,0.013523,0.002678,0.000431,0.598806
5820000,0.0324,0.013523,0.002678,0.000431,0.628423
5821000,0.0324,0.013523,0.002678,0.000431,0.582235
5822000,0.0324,0.013523,0.002678,0.000431,0.613027
5823000,0.0324,0.013523,0.002678,0.000431,0.595633
5824000,0.0324,0.013523,0.002678,0.000431,0.634065
5825000,0.0324,0.013523,0.002678,0.000431,0.614320
5826000,0.0324,0.013523,0.002678,0.000431,0.628306
5827000,0.0324,0.013523,0.002678,0.000431,0.605388
5828000,0.0324,0.013523,0.002678,0.000431,0.596103
5829000,0.0324,0.013523,0.002678,0.000431,0.608561
5830000,0.0324,0.013523,0.002678,0.000431,0.601157
5831000,0.0324,0.013523,0.002678,0.000431,0.604682
5832000,0.0324,0.013523,0.002678,0.000431,0.624662
5833000,0.0324,0.013523,0.002678,0.000431,0.642056
5834000,0.0324,0.013523,0.002678,0.000431,0.620314
5835000,0.0324,0.013523,0.002678,0.000431,0.631949
5836000,0.0324,0.013523,0.002678,0.000431,0.617611
5837000,0.0324,0.013523,0.002678,0.000431,0.622312
5838000,0.0324,0.013523,0.002678,0.000431,0.625603
5839000,0.0324,0.013523,0.002678,0.000431,0.618903
5840000,0.0324,0.013523,0.002678,0.000431,0.607503
5841000,0.0324,0.013523,0.002678,0.000431,0.597278
5842000,0.0324,0.013523,0.002678,0.000431,0.593987
5843000,0.0324,0.013523,0.002678,0.000431,0.609736
5844000,0.0324,0.013523,0.002678,0.000431,0.619491
5845000,0.0324,0.013523,0.002678,0.000431,0.626778
5846000,0.0324,0.013523,0.002678,0.000431,0.659451
5847000,0.0324,0.013523,0.002678,0.000431,0.602802
5848000,0.0324,0.013523,0.002678,0.000431,0.634300
5849000,0.0324,0.013523,0.002678,0.000431,0.614555
5850000,0.0324,0.013523,0.002678,0.000431,0.629598
5851000,0.0324,0.013523,0.002678,0.000431,0.652164
5852000,0.0324,0.013523,0.002678,0.000431,0.668265
5853000,0.0324,0.013523,0.002678,0.000431,0.663917
5854000,0.0324,0.013523,0.002678,0.000431,0.671439
5855000,0.0324,0.013523,0.002678,0.000431,0.673319
5856000,0.0324,0.013523,0.002678,0.000431,0.682486
5857000,0.0324,0.013523,0.002678,0.000431,0.646758
5858000,0.0324,0.013523,0.002678,0.000431,0.683896
5859000,0.0324,0.013523,0.002678,0.000431,0.675317
5860000,0.0324,0.013523,0.002678,0.000431,0.680606
5861000,0.0324,0.013523,0.002678,0.000431,0.669441
5862000,0.0324,0.013523,0.002678,0.000431,0.694827
5863000,0.0324,0.013523,0.002678,0.000431,0.694357
5864000,0.0324,0.013523,0.002678,0.000431,0.652516
5865000,0.0324,0.013523,0.002678,0.000431,0.668500
5866000,0.0324,0.013523,0.002678,0.000431,0.655455
5867000,0.0324,0.013523,0.002678,0.000431,0.647815
5868000,0.0324,0.013523,0.002678,0.000431,0.640294
5869000,0.0324,0.013523,0.002678,0.000431,0.653692
5870000,0.0324,0.013523,0.002678,0.000431,0.668265
5871000,0.0324,0.013523,0.002678,0.000431,0.674612
5872000,0.0324,0.013523,0.002678,0.000431,0.655337
5873000,0.0324,0.013523,0.002678,0.000431,0.657805
5874000,0.0324,0.013523,0.002678,0.000431,0.651341
5875000,0.0324,0.013523,0.002678,0.000431,0.660391
5876000,0.0324,0.013523,0.002678,0.000431,0.658628
5877000,0.0324,0.013523,0.002678,0.000431,0.637825
5878000,0.0324,0.013523,0.002678,0.000431,0.653104
5879000,0.0324,0.013523,0.002678,0.000431,0.672966
5880000,0.0324,0.013523,0.002678,0.000431,0.659568
5881000,0.0324,0.013523,0.002678,0.000431,0.665797
5882000,0.0324,0.013523,0.002678,0.000431,0.652399
5883000,0.0324,0.013523,0.002678,0.000431,0.657688
5884000,0.0324,0.013523,0.002678,0.000431,0.660038
5885000,0.0324,0.013523,0.002678,0.000431,0.679901
5886000,0.0324,0.013523,0.002678,0.000431,0.640294
5887000,0.0324,0.013523,0.002678,0.000431,0.665915
5888000,0.0324,0.013523,0.002678,0.000431,0.661214
5889000,0.0324,0.013523,0.002678,0.000431,0.660038
5890000,0.0324,0.013523,0.002678,0.000431,0.632067
5891000,0.0324,0.013523,0.002678,0.000431,0.669558
5892000,0.0324,0.013523,0.002678,0.000431,0.652752
5893000,0.0324,0.013523,0.002678,0.000431,0.673672
5894000,0.0324,0.013523,0.002678,0.000431,0.655337
5895000,0.0324,0.013523,0.002678,0.000431,0.668030
5896000,0.0324,0.013523,0.002678,0.000431,0.653574
5897000,0.0324,0.013523,0.002678,0.000431,0.670498
5898000,0.0324,0.013523,0.002678,0.000431,0.664504
5899000,0.0324,0.013523,0.002678,0.000431,0.661214
5900000,0.0324,0.013523,0.002678,0.000431,0.664739
5901000,0.0324,0.013523,0.002678,0.000431,0.646993
5902000,0.0324,0.013523,0.002678,0.000431,0.650871
5903000,0.0324,0.013523,0.002678,0.000431,0.659568
5904000,0.0324,0.013523,0.002678,0.000431,0.655102
5905000,0.0324,0.013523,0.002678,0.000431,0.676492
5906000,0.0324,0.013523,0.002678,0.000431,0.654162
5907000,0.0324,0.013523,0.002678,0.000431,0.662506
5908000,0.0324,0.013523,0.002678,0.000431,0.653574
5909000,0.0324,0.013523,0.002678,0.000431,0.662389
5910000,0.0324,0.013523,0.002678,0.000431,0.672026
5911000,0.0324,0.013523,0.002678,0.000431,0.647228
5912000,0.0324,0.013523,0.002678,0.000431,0.650754
5913000,0.0324,0.013523,0.002678,0.000431,0.640058
5914000,0.0324,0.013523,0.002678,0.000431,0.637708
5915000,0.0324,0.013523,0.002678,0.000431,0.652869
5916000,0.0324,0.013523,0.002678,0.000431,0.647345
5917000,0.0324,0.013523,0.002678,0.000431,0.677667
5918000,0.0324,0.013523,0.002678,0.000431,0.661331
5919000,0.0324,0.013523,0.002678,0.000431,0.656865
5920000,0.0324,0.013523,0.002678,0.000431,0.650401
5921000,0.0324,0.013523,0.002678,0.000431,0.671439
5922000,0.0324,0.013523,0.002678,0.000431,0.650989
5923000,0.0324,0.013523,0.002678,0.000431,0.650166
5924000,0.0324,0.013523,0.002678,0.000431,0.670733
5925000,0.0324,0.013523,0.002678,0.000431,0.651694
5926000,0.0324,0.013523,0.002678,0.000431,0.664622
5927000,0.0324,0.013523,0.002678,0.000431,0.670733
5928000,0.0324,0.013523,0.002678,0.000431,0.651459
5929000,0.0324,0.013523,0.002678,0.000431,0.654514
5930000,0.0324,0.013523,0.002678,0.000431,0.661449
5931000,0.0324,0.013523,0.002678,0.000431,0.655807
5932000,0.0324,0.013523,0.002678,0.000431,0.659686
5933000,0.0324,0.013523,0.002678,0.000431,0.657805
5934000,0.0324,0.013523,0.002678,0.000431,0.663564
5935000,0.0324,0.013523,0.002678,0.000431,0.645935
5936000,0.0324,0.013523,0.002678,0.000431,0.675082
5937000,0.0324,0.013523,0.002678,0.000431,0.656630
5938000,0.0324,0.013523,0.002678,0.000431,0.637590
5939000,0.0324,0.013523,0.002678,0.000431,0.652516
5940000,0.0324,0.013523,0.002678,0.000431,0.656395
5941000,0.0324,0.013523,0.002678,0.000431,0.655455
5942000,0.0324,0.013523,0.002678,0.000431,0.654279
5943000,0.0324,0.013523,0.002678,0.000431,0.668265
5944000,0.0324,0.013523,0.002678,0.000431,0.657688
5945000,0.0324,0.013523,0.002678,0.000431,0.642056
5946000,0.0324,0.013523,0.002678,0.000431,0.646875
5947000,0.0324,0.013523,0.002678,0.000431,0.678138
5948000,0.0324,0.013523,0.002678,0.000431,0.706227
5949000,0.0324,0.013523,0.002678,0.000431,0.703876
5950000,0.0324,0.013523,0.002678,0.000431,0.656042
5951000,0.0324,0.013523,0.002678,0.000431,0.668148
5952000,0.0324,0.013523,0.002678,0.000431,0.635475
5953000,0.0324,0.013523,0.002678,0.000431,0.652634
5954000,0.0324,0.013523,0.002678,0.000431,0.623605
5955000,0.0324,0.013523,0.002678,0.000431,0.628423
5956000,0.0324,0.013523,0.002678,0.000431,0.642997
5957000,0.0324,0.013523,0.002678,0.000431,0.647463
5958000,0.0324,0.013523,0.002678,0.000431,0.652516
5959000,0.0324,0.013523,0.002678,0.000431,0.645230
5960000,0.0324,0.013523,0.002678,0.000431,0.658275
5961000,0.0324,0.013523,0.002678,0.000431,0.670263
5962000,0.0324,0.013523,0.002678,0.000431,0.662624
5963000,0.0324,0.013523,0.002678,0.000431,0.650636
5964000,0.0324,0.013523,0.002678,0.000431,0.633124
5965000,0.0324,0.013523,0.002678,0.000431,0.648285
5966000,0.0324,0.013523,0.002678,0.000431,0.645112
5967000,0.0324,0.013523,0.002678,0.000431,0.645465
5968000,0.0324,0.013523,0.002678,0.000431,0.657923
5969000,0.0324,0.013523,0.002678,0.000431,0.648285
5970000,0.0324,0.013523,0.002678,0.000431,0.653222
5971000,0.0324,0.013523,0.002678,0.000431,0.627013
5972000,0.0324,0.013523,0.002678,0.000431,0.637943
5973000,0.0324,0.013523,0.002678,0.000431,0.663212
5974000,0.0324,0.013523,0.002678,0.000431,0.669088
5975000,0.0324,0.013523,0.002678,0.000431,0.666972
5976000,0.0324,0.013523,0.002678,0.000431,0.659568
5977000,0.0324,0.013523,0.002678,0.000431,0.666855
5978000,0.0324,0.013523,0.002678,0.000431,0.655572
5979000,0.0324,0.013523,0.002678,0.000431,0.666150
5980000,0.0324,0.013523,0.002678,0.000431,0.658628
5981000,0.0324,0.013523,0.002678,0.000431,0.636415
5982000,0.0324,0.013523,0.002678,0.000431,0.632537
5983000,0.0324,0.013523,0.002678,0.000431,0.642174
5984000,0.0324,0.013523,0.002678,0.000431,0.658040
5985000,0.0324,0.013523,0.002678,0.000431,0.665915
5986000,0.0324,0.013523,0.002678,0.000431,0.637708
5987000,0.0324,0.013523,0.002678,0.000431,0.640881
5988000,0.0324,0.013523,0.002678,0.000431,0.659098
5989000,0.0324,0.013523,0.002678,0.000431,0.650166
5990000,0.0324,0.013523,0.002678,0.000431,0.665327
5991000,0.0324,0.013523,0.002678,0.000431,0.664622
5992000,0.0324,0.013523,0.002678,0.000431,0.663682
5993000,0.0324,0.013523,0.002678,0.000431,0.643819
5994000,0.0324,0.013523,0.002678,0.000431,0.662506
5995000,0.0324,0.013523,0.002678,0.000431,0.663682
5996000,0.0324,0.013523,0.002678,0.000431,0.656865
5997000,0.0324,0.013523,0.002678,0.000431,0.659451
5998000,0.0324,0.013523,0.002678,0.000431,0.631714
5999000,0.0324,0.013523,0.002678,0.000431,0.664857
