Cycle,Area(mm^2),PeakDynamic(W),SubthresholdLeakage(W),GateLeakage(W),RunTimeDynamic(W)
4000000,0.0324,0.013523,0.002678,0.000431,0.653457
4001000,0.0324,0.013523,0.002678,0.000431,0.667207
4002000,0.0324,0.013523,0.002678,0.000431,0.660743
4003000,0.0324,0.013523,0.002678,0.000431,0.720213
4004000,0.0324,0.013523,0.002678,0.000431,0.672379
4005000,0.0324,0.013523,0.002678,0.000431,0.669323
4006000,0.0324,0.013523,0.002678,0.000431,0.671321
4007000,0.0324,0.013523,0.002678,0.000431,0.652046
4008000,0.0324,0.013523,0.002678,0.000431,0.656983
4009000,0.0324,0.013523,0.002678,0.000431,0.668500
4010000,0.0324,0.013523,0.002678,0.000431,0.681546
4011000,0.0324,0.013523,0.002678,0.000431,0.648403
4012000,0.0324,0.013523,0.002678,0.000431,0.647580
4013000,0.0324,0.013523,0.002678,0.000431,0.647228
4014000,0.0324,0.013523,0.002678,0.000431,0.652987
4015000,0.0324,0.013523,0.002678,0.000431,0.650989
4016000,0.0324,0.013523,0.002678,0.000431,0.678255
4017000,0.0324,0.013523,0.002678,0.000431,0.678960
4018000,0.0324,0.013523,0.002678,0.000431,0.672144
4019000,0.0324,0.013523,0.002678,0.000431,0.652164
4020000,0.0324,0.013523,0.002678,0.000431,0.648638
4021000,0.0324,0.013523,0.002678,0.000431,0.669558
4022000,0.0324,0.013523,0.002678,0.000431,0.654750
4023000,0.0324,0.013523,0.002678,0.000431,0.668148
4024000,0.0324,0.013523,0.002678,0.000431,0.660273
4025000,0.0324,0.013523,0.002678,0.000431,0.671203
4026000,0.0324,0.013523,0.002678,0.000431,0.673084
4027000,0.0324,0.013523,0.002678,0.000431,0.641351
4028000,0.0324,0.013523,0.002678,0.000431,0.634887
4029000,0.0324,0.013523,0.002678,0.000431,0.645112
4030000,0.0324,0.013523,0.002678,0.000431,0.659686
4031000,0.0324,0.013523,0.002678,0.000431,0.641821
4032000,0.0324,0.013523,0.002678,0.000431,0.656630
4033000,0.0324,0.013523,0.002678,0.000431,0.666267
4034000,0.0324,0.013523,0.002678,0.000431,0.689890
4035000,0.0324,0.013523,0.002678,0.000431,0.658981
4036000,0.0324,0.013523,0.002678,0.000431,0.674964
4037000,0.0324,0.013523,0.002678,0.000431,0.651929
4038000,0.0324,0.013523,0.002678,0.000431,0.664857
4039000,0.0324,0.013523,0.002678,0.000431,0.656747
4040000,0.0324,0.013523,0.002678,0.000431,0.658393
4041000,0.0324,0.013523,0.002678,0.000431,0.640529
4042000,0.0324,0.013523,0.002678,0.000431,0.673084
4043000,0.0324,0.013523,0.002678,0.000431,0.664034
4044000,0.0324,0.013523,0.002678,0.000431,0.637473
4045000,0.0324,0.013523,0.002678,0.000431,0.641116
4046000,0.0324,0.013523,0.002678,0.000431,0.653457
4047000,0.0324,0.013523,0.002678,0.000431,0.627365
4048000,0.0324,0.013523,0.002678,0.000431,0.640764
4049000,0.0324,0.013523,0.002678,0.000431,0.635592
4050000,0.0324,0.013523,0.002678,0.000431,0.671556
4051000,0.0324,0.013523,0.002678,0.000431,0.648638
4052000,0.0324,0.013523,0.002678,0.000431,0.669323
4053000,0.0324,0.013523,0.002678,0.000431,0.651811
4054000,0.0324,0.013523,0.002678,0.000431,0.637825
4055000,0.0324,0.013523,0.002678,0.000431,0.653927
4056000,0.0324,0.013523,0.002678,0.000431,0.695297
4057000,0.0324,0.013523,0.002678,0.000431,0.662271
4058000,0.0324,0.013523,0.002678,0.000431,0.670733
4059000,0.0324,0.013523,0.002678,0.000431,0.647463
4060000,0.0324,0.013523,0.002678,0.000431,0.656983
4061000,0.0324,0.013523,0.002678,0.000431,0.659921
4062000,0.0324,0.013523,0.002678,0.000431,0.662389
4063000,0.0324,0.013523,0.002678,0.000431,0.659686
4064000,0.0324,0.013523,0.002678,0.000431,0.655572
4065000,0.0324,0.013523,0.002678,0.000431,0.670968
4066000,0.0324,0.013523,0.002678,0.000431,0.634652
4067000,0.0324,0.013523,0.002678,0.000431,0.643232
4068000,0.0324,0.013523,0.002678,0.000431,0.653809
4069000,0.0324,0.013523,0.002678,0.000431,0.659686
4070000,0.0324,0.013523,0.002678,0.000431,0.650989
4071000,0.0324,0.013523,0.002678,0.000431,0.648873
4072000,0.0324,0.013523,0.002678,0.000431,0.661684
4073000,0.0324,0.013523,0.002678,0.000431,0.667795
4074000,0.0324,0.013523,0.002678,0.000431,0.651811
4075000,0.0324,0.013523,0.002678,0.000431,0.640881
4076000,0.0324,0.013523,0.002678,0.000431,0.648168
4077000,0.0324,0.013523,0.002678,0.000431,0.638061
4078000,0.0324,0.013523,0.002678,0.000431,0.636650
4079000,0.0324,0.013523,0.002678,0.000431,0.669676
4080000,0.0324,0.013523,0.002678,0.000431,0.674494
4081000,0.0324,0.013523,0.002678,0.000431,0.634652
4082000,0.0324,0.013523,0.002678,0.000431,0.660391
4083000,0.0324,0.013523,0.002678,0.000431,0.662271
4084000,0.0324,0.013523,0.002678,0.000431,0.688833
4085000,0.0324,0.013523,0.002678,0.000431,0.661566
4086000,0.0324,0.013523,0.002678,0.000431,0.682369
4087000,0.0324,0.013523,0.002678,0.000431,0.650871
4088000,0.0324,0.013523,0.002678,0.000431,0.660508
4089000,0.0324,0.013523,0.002678,0.000431,0.647345
4090000,0.0324,0.013523,0.002678,0.000431,0.640176
4091000,0.0324,0.013523,0.002678,0.000431,0.659333
4092000,0.0324,0.013523,0.002678,0.000431,0.659686
4093000,0.0324,0.013523,0.002678,0.000431,0.639588
4094000,0.0324,0.013523,0.002678,0.000431,0.660038
4095000,0.0324,0.013523,0.002678,0.000431,0.676492
4096000,0.0324,0.013523,0.002678,0.000431,0.627718
4097000,0.0324,0.013523,0.002678,0.000431,0.668735
4098000,0.0324,0.013523,0.002678,0.000431,0.673672
4099000,0.0324,0.013523,0.002678,0.000431,0.646170
4100000,0.0324,0.013523,0.002678,0.000431,0.670498
4101000,0.0324,0.013523,0.002678,0.000431,0.636298
4102000,0.0324,0.013523,0.002678,0.000431,0.639118
4103000,0.0324,0.013523,0.002678,0.000431,0.667795
4104000,0.0324,0.013523,0.002678,0.000431,0.658393
4105000,0.0324,0.013523,0.002678,0.000431,0.630774
4106000,0.0324,0.013523,0.002678,0.000431,0.637590
4107000,0.0324,0.013523,0.002678,0.000431,0.675905
4108000,0.0324,0.013523,0.002678,0.000431,0.669911
4109000,0.0324,0.013523,0.002678,0.000431,0.654514
4110000,0.0324,0.013523,0.002678,0.000431,0.652516
4111000,0.0324,0.013523,0.002678,0.000431,0.664857
4112000,0.0324,0.013523,0.002678,0.000431,0.648638
4113000,0.0324,0.013523,0.002678,0.000431,0.657100
4114000,0.0324,0.013523,0.002678,0.000431,0.684014
4115000,0.0324,0.013523,0.002678,0.000431,0.638883
4116000,0.0324,0.013523,0.002678,0.000431,0.644289
4117000,0.0324,0.013523,0.002678,0.000431,0.674024
4118000,0.0324,0.013523,0.002678,0.000431,0.653574
4119000,0.0324,0.013523,0.002678,0.000431,0.642527
4120000,0.0324,0.013523,0.002678,0.000431,0.686835
4121000,0.0324,0.013523,0.002678,0.000431,0.652752
4122000,0.0324,0.013523,0.002678,0.000431,0.653692
4123000,0.0324,0.013523,0.002678,0.000431,0.659216
4124000,0.0324,0.013523,0.002678,0.000431,0.664857
4125000,0.0324,0.013523,0.002678,0.000431,0.642527
4126000,0.0324,0.013523,0.002678,0.000431,0.660273
4127000,0.0324,0.013523,0.002678,0.000431,0.669088
4128000,0.0324,0.013523,0.002678,0.000431,0.669676
4129000,0.0324,0.013523,0.002678,0.000431,0.656747
4130000,0.0324,0.013523,0.002678,0.000431,0.650989
4131000,0.0324,0.013523,0.002678,0.000431,0.662154
4132000,0.0324,0.013523,0.002678,0.000431,0.659803
4133000,0.0324,0.013523,0.002678,0.000431,0.661214
4134000,0.0324,0.013523,0.002678,0.000431,0.668030
4135000,0.0324,0.013523,0.002678,0.000431,0.646052
4136000,0.0324,0.013523,0.002678,0.000431,0.654397
4137000,0.0324,0.013523,0.002678,0.000431,0.668500
4138000,0.0324,0.013523,0.002678,0.000431,0.641351
4139000,0.0324,0.013523,0.002678,0.000431,0.652164
4140000,0.0324,0.013523,0.002678,0.000431,0.646287
4141000,0.0324,0.013523,0.002678,0.000431,0.678843
4142000,0.0324,0.013523,0.002678,0.000431,0.685659
4143000,0.0324,0.013523,0.002678,0.000431,0.667325
4144000,0.0324,0.013523,0.002678,0.000431,0.680136
4145000,0.0324,0.013523,0.002678,0.000431,0.689890
4146000,0.0324,0.013523,0.002678,0.000431,0.658040
4147000,0.0324,0.013523,0.002678,0.000431,0.670381
4148000,0.0324,0.013523,0.002678,0.000431,0.662389
4149000,0.0324,0.013523,0.002678,0.000431,0.632067
4150000,0.0324,0.013523,0.002678,0.000431,0.657335
4151000,0.0324,0.013523,0.002678,0.000431,0.661449
4152000,0.0324,0.013523,0.002678,0.000431,0.655807
4153000,0.0324,0.013523,0.002678,0.000431,0.672026
4154000,0.0324,0.013523,0.002678,0.000431,0.652164
4155000,0.0324,0.013523,0.002678,0.000431,0.655572
4156000,0.0324,0.013523,0.002678,0.000431,0.607973
4157000,0.0324,0.013523,0.002678,0.000431,0.618903
4158000,0.0324,0.013523,0.002678,0.000431,0.638178
4159000,0.0324,0.013523,0.002678,0.000431,0.646287
4160000,0.0324,0.013523,0.002678,0.000431,0.660978
4161000,0.0324,0.013523,0.002678,0.000431,0.639353
4162000,0.0324,0.013523,0.002678,0.000431,0.631596
4163000,0.0324,0.013523,0.002678,0.000431,0.666267
4164000,0.0324,0.013523,0.002678,0.000431,0.650636
4165000,0.0324,0.013523,0.002678,0.000431,0.653692
4166000,0.0324,0.013523,0.002678,0.000431,0.651341
4167000,0.0324,0.013523,0.002678,0.000431,0.638296
4168000,0.0324,0.013523,0.002678,0.000431,0.645347
4169000,0.0324,0.013523,0.002678,0.000431,0.641234
4170000,0.0324,0.013523,0.002678,0.000431,0.653104
4171000,0.0324,0.013523,0.002678,0.000431,0.663799
4172000,0.0324,0.013523,0.002678,0.000431,0.651811
4173000,0.0324,0.013523,0.002678,0.000431,0.660626
4174000,0.0324,0.013523,0.002678,0.000431,0.669911
4175000,0.0324,0.013523,0.002678,0.000431,0.684602
4176000,0.0324,0.013523,0.002678,0.000431,0.678255
4177000,0.0324,0.013523,0.002678,0.000431,0.650166
4178000,0.0324,0.013523,0.002678,0.000431,0.659333
4179000,0.0324,0.013523,0.002678,0.000431,0.658510
4180000,0.0324,0.013523,0.002678,0.000431,0.678373
4181000,0.0324,0.013523,0.002678,0.000431,0.649696
4182000,0.0324,0.013523,0.002678,0.000431,0.646523
4183000,0.0324,0.013523,0.002678,0.000431,0.675082
4184000,0.0324,0.013523,0.002678,0.000431,0.666267
4185000,0.0324,0.013523,0.002678,0.000431,0.663682
4186000,0.0324,0.013523,0.002678,0.000431,0.676492
4187000,0.0324,0.013523,0.002678,0.000431,0.665092
4188000,0.0324,0.013523,0.002678,0.000431,0.643937
4189000,0.0324,0.013523,0.002678,0.000431,0.652516
4190000,0.0324,0.013523,0.002678,0.000431,0.655925
4191000,0.0324,0.013523,0.002678,0.000431,0.664857
4192000,0.0324,0.013523,0.002678,0.000431,0.655337
4193000,0.0324,0.013523,0.002678,0.000431,0.656512
4194000,0.0324,0.013523,0.002678,0.000431,0.662741
4195000,0.0324,0.013523,0.002678,0.000431,0.634535
4196000,0.0324,0.013523,0.002678,0.000431,0.639706
4197000,0.0324,0.013523,0.002678,0.000431,0.670733
4198000,0.0324,0.013523,0.002678,0.000431,0.647933
4199000,0.0324,0.013523,0.002678,0.000431,0.674494
4200000,0.0324,0.013523,0.002678,0.000431,0.677197
4201000,0.0324,0.013523,0.002678,0.000431,0.638648
4202000,0.0324,0.013523,0.002678,0.000431,0.658040
4203000,0.0324,0.013523,0.002678,0.000431,0.639588
4204000,0.0324,0.013523,0.002678,0.000431,0.644525
4205000,0.0324,0.013523,0.002678,0.000431,0.637708
4206000,0.0324,0.013523,0.002678,0.000431,0.650754
4207000,0.0324,0.013523,0.002678,0.000431,0.637120
4208000,0.0324,0.013523,0.002678,0.000431,0.657923
4209000,0.0324,0.013523,0.002678,0.000431,0.655337
4210000,0.0324,0.013523,0.002678,0.000431,0.611029
4211000,0.0324,0.013523,0.002678,0.000431,0.612087
4212000,0.0324,0.013523,0.002678,0.000431,0.640764
4213000,0.0324,0.013523,0.002678,0.000431,0.651106
4214000,0.0324,0.013523,0.002678,0.000431,0.641821
4215000,0.0324,0.013523,0.002678,0.000431,0.649343
4216000,0.0324,0.013523,0.002678,0.000431,0.646052
4217000,0.0324,0.013523,0.002678,0.000431,0.646523
4218000,0.0324,0.013523,0.002678,0.000431,0.655455
4219000,0.0324,0.013523,0.002678,0.000431,0.689538
4220000,0.0324,0.013523,0.002678,0.000431,0.670381
4221000,0.0324,0.013523,0.002678,0.000431,0.644407
4222000,0.0324,0.013523,0.002678,0.000431,0.649931
4223000,0.0324,0.013523,0.002678,0.000431,0.607386
4224000,0.0324,0.013523,0.002678,0.000431,0.660038
4225000,0.0324,0.013523,0.002678,0.000431,0.645700
4226000,0.0324,0.013523,0.002678,0.000431,0.657570
4227000,0.0324,0.013523,0.002678,0.000431,0.644760
4228000,0.0324,0.013523,0.002678,0.000431,0.642292
4229000,0.0324,0.013523,0.002678,0.000431,0.627953
4230000,0.0324,0.013523,0.002678,0.000431,0.648756
4231000,0.0324,0.013523,0.002678,0.000431,0.625955
4232000,0.0324,0.013523,0.002678,0.000431,0.633359
4233000,0.0324,0.013523,0.002678,0.000431,0.649226
4234000,0.0324,0.013523,0.002678,0.000431,0.630421
4235000,0.0324,0.013523,0.002678,0.000431,0.654985
4236000,0.0324,0.013523,0.002678,0.000431,0.639823
4237000,0.0324,0.013523,0.002678,0.000431,0.646052
4238000,0.0324,0.013523,0.002678,0.000431,0.635005
4239000,0.0324,0.013523,0.002678,0.000431,0.684484
4240000,0.0324,0.013523,0.002678,0.000431,0.655925
4241000,0.0324,0.013523,0.002678,0.000431,0.669558
4242000,0.0324,0.013523,0.002678,0.000431,0.655455
4243000,0.0324,0.013523,0.002678,0.000431,0.638413
4244000,0.0324,0.013523,0.002678,0.000431,0.640294
4245000,0.0324,0.013523,0.002678,0.000431,0.664152
4246000,0.0324,0.013523,0.002678,0.000431,0.651811
4247000,0.0324,0.013523,0.002678,0.000431,0.649461
4248000,0.0324,0.013523,0.002678,0.000431,0.652399
4249000,0.0324,0.013523,0.002678,0.000431,0.665797
4250000,0.0324,0.013523,0.002678,0.000431,0.652516
4251000,0.0324,0.013523,0.002678,0.000431,0.631479
4252000,0.0324,0.013523,0.002678,0.000431,0.643584
4253000,0.0324,0.013523,0.002678,0.000431,0.668148
4254000,0.0324,0.013523,0.002678,0.000431,0.648168
4255000,0.0324,0.013523,0.002678,0.000431,0.620666
4256000,0.0324,0.013523,0.002678,0.000431,0.654162
4257000,0.0324,0.013523,0.002678,0.000431,0.637355
4258000,0.0324,0.013523,0.002678,0.000431,0.647463
4259000,0.0324,0.013523,0.002678,0.000431,0.654632
4260000,0.0324,0.013523,0.002678,0.000431,0.656277
4261000,0.0324,0.013523,0.002678,0.000431,0.658745
4262000,0.0324,0.013523,0.002678,0.000431,0.644172
4263000,0.0324,0.013523,0.002678,0.000431,0.644289
4264000,0.0324,0.013523,0.002678,0.000431,0.649696
4265000,0.0324,0.013523,0.002678,0.000431,0.630891
4266000,0.0324,0.013523,0.002678,0.000431,0.610441
4267000,0.0324,0.013523,0.002678,0.000431,0.632067
4268000,0.0324,0.013523,0.002678,0.000431,0.652516
4269000,0.0324,0.013523,0.002678,0.000431,0.647463
4270000,0.0324,0.013523,0.002678,0.000431,0.668970
4271000,0.0324,0.013523,0.002678,0.000431,0.641351
4272000,0.0324,0.013523,0.002678,0.000431,0.665445
4273000,0.0324,0.013523,0.002678,0.000431,0.662036
4274000,0.0324,0.013523,0.002678,0.000431,0.660743
4275000,0.0324,0.013523,0.002678,0.000431,0.636885
4276000,0.0324,0.013523,0.002678,0.000431,0.666150
4277000,0.0324,0.013523,0.002678,0.000431,0.643467
4278000,0.0324,0.013523,0.002678,0.000431,0.658981
4279000,0.0324,0.013523,0.002678,0.000431,0.627013
4280000,0.0324,0.013523,0.002678,0.000431,0.641351
4281000,0.0324,0.013523,0.002678,0.000431,0.642997
4282000,0.0324,0.013523,0.002678,0.000431,0.643114
4283000,0.0324,0.013523,0.002678,0.000431,0.660508
4284000,0.0324,0.013523,0.002678,0.000431,0.642409
4285000,0.0324,0.013523,0.002678,0.000431,0.659098
4286000,0.0324,0.013523,0.002678,0.000431,0.651811
4287000,0.0324,0.013523,0.002678,0.000431,0.657100
4288000,0.0324,0.013523,0.002678,0.000431,0.658981
4289000,0.0324,0.013523,0.002678,0.000431,0.655925
4290000,0.0324,0.013523,0.002678,0.000431,0.652281
4291000,0.0324,0.013523,0.002678,0.000431,0.652987
4292000,0.0324,0.013523,0.002678,0.000431,0.636768
4293000,0.0324,0.013523,0.002678,0.000431,0.656277
4294000,0.0324,0.013523,0.002678,0.000431,0.646052
4295000,0.0324,0.013523,0.002678,0.000431,0.666737
4296000,0.0324,0.013523,0.002678,0.000431,0.655455
4297000,0.0324,0.013523,0.002678,0.000431,0.640529
4298000,0.0324,0.013523,0.002678,0.000431,0.650401
4299000,0.0324,0.013523,0.002678,0.000431,0.633712
4300000,0.0324,0.013523,0.002678,0.000431,0.662506
4301000,0.0324,0.013523,0.002678,0.000431,0.631126
4302000,0.0324,0.013523,0.002678,0.000431,0.623840
4303000,0.0324,0.013523,0.002678,0.000431,0.642174
4304000,0.0324,0.013523,0.002678,0.000431,0.645700
4305000,0.0324,0.013523,0.002678,0.000431,0.670968
4306000,0.0324,0.013523,0.002678,0.000431,0.651694
4307000,0.0324,0.013523,0.002678,0.000431,0.660508
4308000,0.0324,0.013523,0.002678,0.000431,0.644407
4309000,0.0324,0.013523,0.002678,0.000431,0.673554
4310000,0.0324,0.013523,0.002678,0.000431,0.663094
4311000,0.0324,0.013523,0.002678,0.000431,0.667795
4312000,0.0324,0.013523,0.002678,0.000431,0.652399
4313000,0.0324,0.013523,0.002678,0.000431,0.661684
4314000,0.0324,0.013523,0.002678,0.000431,0.671674
4315000,0.0324,0.013523,0.002678,0.000431,0.659803
4316000,0.0324,0.013523,0.002678,0.000431,0.668735
4317000,0.0324,0.013523,0.002678,0.000431,0.642409
4318000,0.0324,0.013523,0.002678,0.000431,0.640999
4319000,0.0324,0.013523,0.002678,0.000431,0.628423
4320000,0.0324,0.013523,0.002678,0.000431,0.640999
4321000,0.0324,0.013523,0.002678,0.000431,0.634065
4322000,0.0324,0.013523,0.002678,0.000431,0.628893
4323000,0.0324,0.013523,0.002678,0.000431,0.636650
4324000,0.0324,0.013523,0.002678,0.000431,0.632419
4325000,0.0324,0.013523,0.002678,0.000431,0.656865
4326000,0.0324,0.013523,0.002678,0.000431,0.636063
4327000,0.0324,0.013523,0.002678,0.000431,0.659216
4328000,0.0324,0.013523,0.002678,0.000431,0.641351
4329000,0.0324,0.013523,0.002678,0.000431,0.652987
4330000,0.0324,0.013523,0.002678,0.000431,0.675787
4331000,0.0324,0.013523,0.002678,0.000431,0.637943
4332000,0.0324,0.013523,0.002678,0.000431,0.673907
4333000,0.0324,0.013523,0.002678,0.000431,0.653809
4334000,0.0324,0.013523,0.002678,0.000431,0.633947
4335000,0.0324,0.013523,0.002678,0.000431,0.641469
4336000,0.0324,0.013523,0.002678,0.000431,0.637943
4337000,0.0324,0.013523,0.002678,0.000431,0.641116
4338000,0.0324,0.013523,0.002678,0.000431,0.659216
4339000,0.0324,0.013523,0.002678,0.000431,0.631596
4340000,0.0324,0.013523,0.002678,0.000431,0.651694
4341000,0.0324,0.013523,0.002678,0.000431,0.621607
4342000,0.0324,0.013523,0.002678,0.000431,0.652046
4343000,0.0324,0.013523,0.002678,0.000431,0.640764
4344000,0.0324,0.013523,0.002678,0.000431,0.648050
4345000,0.0324,0.013523,0.002678,0.000431,0.672731
4346000,0.0324,0.013523,0.002678,0.000431,0.665915
4347000,0.0324,0.013523,0.002678,0.000431,0.646523
4348000,0.0324,0.013523,0.002678,0.000431,0.654985
4349000,0.0324,0.013523,0.002678,0.000431,0.654044
4350000,0.0324,0.013523,0.002678,0.000431,0.617963
4351000,0.0324,0.013523,0.002678,0.000431,0.617140
4352000,0.0324,0.013523,0.002678,0.000431,0.675434
4353000,0.0324,0.013523,0.002678,0.000431,0.653809
4354000,0.0324,0.013523,0.002678,0.000431,0.631596
4355000,0.0324,0.013523,0.002678,0.000431,0.654750
4356000,0.0324,0.013523,0.002678,0.000431,0.643114
4357000,0.0324,0.013523,0.002678,0.000431,0.629363
4358000,0.0324,0.013523,0.002678,0.000431,0.673201
4359000,0.0324,0.013523,0.002678,0.000431,0.644054
4360000,0.0324,0.013523,0.002678,0.000431,0.650166
4361000,0.0324,0.013523,0.002678,0.000431,0.641939
4362000,0.0324,0.013523,0.002678,0.000431,0.650636
4363000,0.0324,0.013523,0.002678,0.000431,0.652869
4364000,0.0324,0.013523,0.002678,0.000431,0.653809
4365000,0.0324,0.013523,0.002678,0.000431,0.657688
4366000,0.0324,0.013523,0.002678,0.000431,0.656160
4367000,0.0324,0.013523,0.002678,0.000431,0.660156
4368000,0.0324,0.013523,0.002678,0.000431,0.657570
4369000,0.0324,0.013523,0.002678,0.000431,0.648403
4370000,0.0324,0.013523,0.002678,0.000431,0.639471
4371000,0.0324,0.013523,0.002678,0.000431,0.629481
4372000,0.0324,0.013523,0.002678,0.000431,0.659451
4373000,0.0324,0.013523,0.002678,0.000431,0.669088
4374000,0.0324,0.013523,0.002678,0.000431,0.680253
4375000,0.0324,0.013523,0.002678,0.000431,0.649696
4376000,0.0324,0.013523,0.002678,0.000431,0.630774
4377000,0.0324,0.013523,0.002678,0.000431,0.626660
4378000,0.0324,0.013523,0.002678,0.000431,0.622664
4379000,0.0324,0.013523,0.002678,0.000431,0.634417
4380000,0.0324,0.013523,0.002678,0.000431,0.627836
4381000,0.0324,0.013523,0.002678,0.000431,0.657570
4382000,0.0324,0.013523,0.002678,0.000431,0.640646
4383000,0.0324,0.013523,0.002678,0.000431,0.650636
4384000,0.0324,0.013523,0.002678,0.000431,0.649108
4385000,0.0324,0.013523,0.002678,0.000431,0.654397
4386000,0.0324,0.013523,0.002678,0.000431,0.658628
4387000,0.0324,0.013523,0.002678,0.000431,0.646758
4388000,0.0324,0.013523,0.002678,0.000431,0.631596
4389000,0.0324,0.013523,0.002678,0.000431,0.633712
4390000,0.0324,0.013523,0.002678,0.000431,0.644760
4391000,0.0324,0.013523,0.002678,0.000431,0.648168
4392000,0.0324,0.013523,0.002678,0.000431,0.660626
4393000,0.0324,0.013523,0.002678,0.000431,0.639706
4394000,0.0324,0.013523,0.002678,0.000431,0.657453
4395000,0.0324,0.013523,0.002678,0.000431,0.654750
4396000,0.0324,0.013523,0.002678,0.000431,0.631009
4397000,0.0324,0.013523,0.002678,0.000431,0.646405
4398000,0.0324,0.013523,0.002678,0.000431,0.655337
4399000,0.0324,0.013523,0.002678,0.000431,0.647228
4400000,0.0324,0.013523,0.002678,0.000431,0.644877
4401000,0.0324,0.013523,0.002678,0.000431,0.621842
4402000,0.0324,0.013523,0.002678,0.000431,0.640764
4403000,0.0324,0.013523,0.002678,0.000431,0.652869
4404000,0.0324,0.013523,0.002678,0.000431,0.653692
4405000,0.0324,0.013523,0.002678,0.000431,0.635357
4406000,0.0324,0.013523,0.002678,0.000431,0.622547
4407000,0.0324,0.013523,0.002678,0.000431,0.625250
4408000,0.0324,0.013523,0.002678,0.000431,0.625132
4409000,0.0324,0.013523,0.002678,0.000431,0.640411
4410000,0.0324,0.013523,0.002678,0.000431,0.648873
4411000,0.0324,0.013523,0.002678,0.000431,0.630069
4412000,0.0324,0.013523,0.002678,0.000431,0.644054
4413000,0.0324,0.013523,0.002678,0.000431,0.637708
4414000,0.0324,0.013523,0.002678,0.000431,0.629363
4415000,0.0324,0.013523,0.002678,0.000431,0.648050
4416000,0.0324,0.013523,0.002678,0.000431,0.638178
4417000,0.0324,0.013523,0.002678,0.000431,0.663564
4418000,0.0324,0.013523,0.002678,0.000431,0.618903
4419000,0.0324,0.013523,0.002678,0.000431,0.661449
4420000,0.0324,0.013523,0.002678,0.000431,0.631832
4421000,0.0324,0.013523,0.002678,0.000431,0.631479
4422000,0.0324,0.013523,0.002678,0.000431,0.638766
4423000,0.0324,0.013523,0.002678,0.000431,0.647110
4424000,0.0324,0.013523,0.002678,0.000431,0.652399
4425000,0.0324,0.013523,0.002678,0.000431,0.643937
4426000,0.0324,0.013523,0.002678,0.000431,0.651929
4427000,0.0324,0.013523,0.002678,0.000431,0.616318
4428000,0.0324,0.013523,0.002678,0.000431,0.656983
4429000,0.0324,0.013523,0.002678,0.000431,0.631596
4430000,0.0324,0.013523,0.002678,0.000431,0.612674
4431000,0.0324,0.013523,0.002678,0.000431,0.637355
4432000,0.0324,0.013523,0.002678,0.000431,0.619138
4433000,0.0324,0.013523,0.002678,0.000431,0.637473
4434000,0.0324,0.013523,0.002678,0.000431,0.678608
4435000,0.0324,0.013523,0.002678,0.000431,0.653222
4436000,0.0324,0.013523,0.002678,0.000431,0.647228
4437000,0.0324,0.013523,0.002678,0.000431,0.659686
4438000,0.0324,0.013523,0.002678,0.000431,0.639236
4439000,0.0324,0.013523,0.002678,0.000431,0.649813
4440000,0.0324,0.013523,0.002678,0.000431,0.634065
4441000,0.0324,0.013523,0.002678,0.000431,0.643584
4442000,0.0324,0.013523,0.002678,0.000431,0.649343
4443000,0.0324,0.013523,0.002678,0.000431,0.629363
4444000,0.0324,0.013523,0.002678,0.000431,0.620431
4445000,0.0324,0.013523,0.002678,0.000431,0.624310
4446000,0.0324,0.013523,0.002678,0.000431,0.654162
4447000,0.0324,0.013523,0.002678,0.000431,0.643702
4448000,0.0324,0.013523,0.002678,0.000431,0.656160
4449000,0.0324,0.013523,0.002678,0.000431,0.658275
4450000,0.0324,0.013523,0.002678,0.000431,0.656865
4451000,0.0324,0.013523,0.002678,0.000431,0.638883
4452000,0.0324,0.013523,0.002678,0.000431,0.638296
4453000,0.0324,0.013523,0.002678,0.000431,0.616200
4454000,0.0324,0.013523,0.002678,0.000431,0.643819
4455000,0.0324,0.013523,0.002678,0.000431,0.634417
4456000,0.0324,0.013523,0.002678,0.000431,0.635945
4457000,0.0324,0.013523,0.002678,0.000431,0.625132
4458000,0.0324,0.013523,0.002678,0.000431,0.637238
4459000,0.0324,0.013523,0.002678,0.000431,0.644995
4460000,0.0324,0.013523,0.002678,0.000431,0.662859
4461000,0.0324,0.013523,0.002678,0.000431,0.645582
4462000,0.0324,0.013523,0.002678,0.000431,0.644642
4463000,0.0324,0.013523,0.002678,0.000431,0.642409
4464000,0.0324,0.013523,0.002678,0.000431,0.666620
4465000,0.0324,0.013523,0.002678,0.000431,0.631244
4466000,0.0324,0.013523,0.002678,0.000431,0.646523
4467000,0.0324,0.013523,0.002678,0.000431,0.675434
4468000,0.0324,0.013523,0.002678,0.000431,0.612439
4469000,0.0324,0.013523,0.002678,0.000431,0.642879
4470000,0.0324,0.013523,0.002678,0.000431,0.656042
4471000,0.0324,0.013523,0.002678,0.000431,0.655690
4472000,0.0324,0.013523,0.002678,0.000431,0.668853
4473000,0.0324,0.013523,0.002678,0.000431,0.654044
4474000,0.0324,0.013523,0.002678,0.000431,0.650283
4475000,0.0324,0.013523,0.002678,0.000431,0.613850
4476000,0.0324,0.013523,0.002678,0.000431,0.637238
4477000,0.0324,0.013523,0.002678,0.000431,0.620431
4478000,0.0324,0.013523,0.002678,0.000431,0.647933
4479000,0.0324,0.013523,0.002678,0.000431,0.636180
4480000,0.0324,0.013523,0.002678,0.000431,0.640646
4481000,0.0324,0.013523,0.002678,0.000431,0.636768
4482000,0.0324,0.013523,0.002678,0.000431,0.693299
4483000,0.0324,0.013523,0.002678,0.000431,0.683661
4484000,0.0324,0.013523,0.002678,0.000431,0.638648
4485000,0.0324,0.013523,0.002678,0.000431,0.653457
4486000,0.0324,0.013523,0.002678,0.000431,0.629951
4487000,0.0324,0.013523,0.002678,0.000431,0.634652
4488000,0.0324,0.013523,0.002678,0.000431,0.627013
4489000,0.0324,0.013523,0.002678,0.000431,0.618316
4490000,0.0324,0.013523,0.002678,0.000431,0.646523
4491000,0.0324,0.013523,0.002678,0.000431,0.604447
4492000,0.0324,0.013523,0.002678,0.000431,0.669323
4493000,0.0324,0.013523,0.002678,0.000431,0.646052
4494000,0.0324,0.013523,0.002678,0.000431,0.632184
4495000,0.0324,0.013523,0.002678,0.000431,0.644289
4496000,0.0324,0.013523,0.002678,0.000431,0.613732
4497000,0.0324,0.013523,0.002678,0.000431,0.627600
4498000,0.0324,0.013523,0.002678,0.000431,0.631596
4499000,0.0324,0.013523,0.002678,0.000431,0.645112
4500000,0.0324,0.013523,0.002678,0.000431,0.655690
4501000,0.0324,0.013523,0.002678,0.000431,0.641821
4502000,0.0324,0.013523,0.002678,0.000431,0.646287
4503000,0.0324,0.013523,0.002678,0.000431,0.639118
4504000,0.0324,0.013523,0.002678,0.000431,0.629598
4505000,0.0324,0.013523,0.002678,0.000431,0.624192
4506000,0.0324,0.013523,0.002678,0.000431,0.639001
4507000,0.0324,0.013523,0.002678,0.000431,0.649108
4508000,0.0324,0.013523,0.002678,0.000431,0.655455
4509000,0.0324,0.013523,0.002678,0.000431,0.664152
4510000,0.0324,0.013523,0.002678,0.000431,0.628541
4511000,0.0324,0.013523,0.002678,0.000431,0.656042
4512000,0.0324,0.013523,0.002678,0.000431,0.612909
4513000,0.0324,0.013523,0.002678,0.000431,0.642762
4514000,0.0324,0.013523,0.002678,0.000431,0.632889
4515000,0.0324,0.013523,0.002678,0.000431,0.646287
4516000,0.0324,0.013523,0.002678,0.000431,0.655572
4517000,0.0324,0.013523,0.002678,0.000431,0.639823
4518000,0.0324,0.013523,0.002678,0.000431,0.648991
4519000,0.0324,0.013523,0.002678,0.000431,0.645817
4520000,0.0324,0.013523,0.002678,0.000431,0.648873
4521000,0.0324,0.013523,0.002678,0.000431,0.643232
4522000,0.0324,0.013523,0.002678,0.000431,0.650283
4523000,0.0324,0.013523,0.002678,0.000431,0.616435
4524000,0.0324,0.013523,0.002678,0.000431,0.632889
4525000,0.0324,0.013523,0.002678,0.000431,0.626308
4526000,0.0324,0.013523,0.002678,0.000431,0.631244
4527000,0.0324,0.013523,0.002678,0.000431,0.626778
4528000,0.0324,0.013523,0.002678,0.000431,0.615025
4529000,0.0324,0.013523,0.002678,0.000431,0.642292
4530000,0.0324,0.013523,0.002678,0.000431,0.627013
4531000,0.0324,0.013523,0.002678,0.000431,0.654397
4532000,0.0324,0.013523,0.002678,0.000431,0.636063
4533000,0.0324,0.013523,0.002678,0.000431,0.664034
4534000,0.0324,0.013523,0.002678,0.000431,0.635122
4535000,0.0324,0.013523,0.002678,0.000431,0.625603
4536000,0.0324,0.013523,0.002678,0.000431,0.607621
4537000,0.0324,0.013523,0.002678,0.000431,0.634417
4538000,0.0324,0.013523,0.002678,0.000431,0.654514
4539000,0.0324,0.013523,0.002678,0.000431,0.651929
4540000,0.0324,0.013523,0.002678,0.000431,0.624780
4541000,0.0324,0.013523,0.002678,0.000431,0.630656
4542000,0.0324,0.013523,0.002678,0.000431,0.642174
4543000,0.0324,0.013523,0.002678,0.000431,0.632067
4544000,0.0324,0.013523,0.002678,0.000431,0.657335
4545000,0.0324,0.013523,0.002678,0.000431,0.660273
4546000,0.0324,0.013523,0.002678,0.000431,0.663329
4547000,0.0324,0.013523,0.002678,0.000431,0.658393
4548000,0.0324,0.013523,0.002678,0.000431,0.668148
4549000,0.0324,0.013523,0.002678,0.000431,0.648756
4550000,0.0324,0.013523,0.002678,0.000431,0.635240
4551000,0.0324,0.013523,0.002678,0.000431,0.652164
4552000,0.0324,0.013523,0.002678,0.000431,0.631479
4553000,0.0324,0.013523,0.002678,0.000431,0.654867
4554000,0.0324,0.013523,0.002678,0.000431,0.635592
4555000,0.0324,0.013523,0.002678,0.000431,0.663094
4556000,0.0324,0.013523,0.002678,0.000431,0.664739
4557000,0.0324,0.013523,0.002678,0.000431,0.655455
4558000,0.0324,0.013523,0.002678,0.000431,0.651929
4559000,0.0324,0.013523,0.002678,0.000431,0.618316
4560000,0.0324,0.013523,0.002678,0.000431,0.638648
4561000,0.0324,0.013523,0.002678,0.000431,0.676022
4562000,0.0324,0.013523,0.002678,0.000431,0.659921
4563000,0.0324,0.013523,0.002678,0.000431,0.616905
4564000,0.0324,0.013523,0.002678,0.000431,0.629716
4565000,0.0324,0.013523,0.002678,0.000431,0.652046
4566000,0.0324,0.013523,0.002678,0.000431,0.646287
4567000,0.0324,0.013523,0.002678,0.000431,0.661801
4568000,0.0324,0.013523,0.002678,0.000431,0.667325
4569000,0.0324,0.013523,0.002678,0.000431,0.669205
4570000,0.0324,0.013523,0.002678,0.000431,0.660273
4571000,0.0324,0.013523,0.002678,0.000431,0.639823
4572000,0.0324,0.013523,0.002678,0.000431,0.650401
4573000,0.0324,0.013523,0.002678,0.000431,0.659333
4574000,0.0324,0.013523,0.002678,0.000431,0.655455
4575000,0.0324,0.013523,0.002678,0.000431,0.660156
4576000,0.0324,0.013523,0.002678,0.000431,0.622782
4577000,0.0324,0.013523,0.002678,0.000431,0.621842
4578000,0.0324,0.013523,0.002678,0.000431,0.641351
4579000,0.0324,0.013523,0.002678,0.000431,0.657805
4580000,0.0324,0.013523,0.002678,0.000431,0.648050
4581000,0.0324,0.013523,0.002678,0.000431,0.656630
4582000,0.0324,0.013523,0.002678,0.000431,0.678960
4583000,0.0324,0.013523,0.002678,0.000431,0.659216
4584000,0.0324,0.013523,0.002678,0.000431,0.655337
4585000,0.0324,0.013523,0.002678,0.000431,0.627953
4586000,0.0324,0.013523,0.002678,0.000431,0.634535
4587000,0.0324,0.013523,0.002678,0.000431,0.657453
4588000,0.0324,0.013523,0.002678,0.000431,0.628188
4589000,0.0324,0.013523,0.002678,0.000431,0.597513
4590000,0.0324,0.013523,0.002678,0.000431,0.640764
4591000,0.0324,0.013523,0.002678,0.000431,0.648168
4592000,0.0324,0.013523,0.002678,0.000431,0.627953
4593000,0.0324,0.013523,0.002678,0.000431,0.643232
4594000,0.0324,0.013523,0.002678,0.000431,0.654750
4595000,0.0324,0.013523,0.002678,0.000431,0.639001
4596000,0.0324,0.013523,0.002678,0.000431,0.654750
4597000,0.0324,0.013523,0.002678,0.000431,0.643702
4598000,0.0324,0.013523,0.002678,0.000431,0.660743
4599000,0.0324,0.013523,0.002678,0.000431,0.650166
4600000,0.0324,0.013523,0.002678,0.000431,0.633242
4601000,0.0324,0.013523,0.002678,0.000431,0.659098
4602000,0.0324,0.013523,0.002678,0.000431,0.614085
4603000,0.0324,0.013523,0.002678,0.000431,0.632889
4604000,0.0324,0.013523,0.002678,0.000431,0.639823
4605000,0.0324,0.013523,0.002678,0.000431,0.641821
4606000,0.0324,0.013523,0.002678,0.000431,0.638883
4607000,0.0324,0.013523,0.002678,0.000431,0.625485
4608000,0.0324,0.013523,0.002678,0.000431,0.639706
4609000,0.0324,0.013523,0.002678,0.000431,0.646758
4610000,0.0324,0.013523,0.002678,0.000431,0.653927
4611000,0.0324,0.013523,0.002678,0.000431,0.651811
4612000,0.0324,0.013523,0.002678,0.000431,0.648521
4613000,0.0324,0.013523,0.002678,0.000431,0.631832
4614000,0.0324,0.013523,0.002678,0.000431,0.658628
4615000,0.0324,0.013523,0.002678,0.000431,0.629598
4616000,0.0324,0.013523,0.002678,0.000431,0.645112
4617000,0.0324,0.013523,0.002678,0.000431,0.639353
4618000,0.0324,0.013523,0.002678,0.000431,0.631949
4619000,0.0324,0.013523,0.002678,0.000431,0.641234
4620000,0.0324,0.013523,0.002678,0.000431,0.664387
4621000,0.0324,0.013523,0.002678,0.000431,0.649343
4622000,0.0324,0.013523,0.002678,0.000431,0.660978
4623000,0.0324,0.013523,0.002678,0.000431,0.616435
4624000,0.0324,0.013523,0.002678,0.000431,0.647698
4625000,0.0324,0.013523,0.002678,0.000431,0.639236
4626000,0.0324,0.013523,0.002678,0.000431,0.626073
4627000,0.0324,0.013523,0.002678,0.000431,0.662506
4628000,0.0324,0.013523,0.002678,0.000431,0.671556
4629000,0.0324,0.013523,0.002678,0.000431,0.640646
4630000,0.0324,0.013523,0.002678,0.000431,0.637120
4631000,0.0324,0.013523,0.002678,0.000431,0.662976
4632000,0.0324,0.013523,0.002678,0.000431,0.641586
4633000,0.0324,0.013523,0.002678,0.000431,0.660038
4634000,0.0324,0.013523,0.002678,0.000431,0.662271
4635000,0.0324,0.013523,0.002678,0.000431,0.648873
4636000,0.0324,0.013523,0.002678,0.000431,0.652399
4637000,0.0324,0.013523,0.002678,0.000431,0.645700
4638000,0.0324,0.013523,0.002678,0.000431,0.628188
4639000,0.0324,0.013523,0.002678,0.000431,0.644995
4640000,0.0324,0.013523,0.002678,0.000431,0.635475
4641000,0.0324,0.013523,0.002678,0.000431,0.665562
4642000,0.0324,0.013523,0.002678,0.000431,0.639823
4643000,0.0324,0.013523,0.002678,0.000431,0.646640
4644000,0.0324,0.013523,0.002678,0.000431,0.648168
4645000,0.0324,0.013523,0.002678,0.000431,0.638296
4646000,0.0324,0.013523,0.002678,0.000431,0.643937
4647000,0.0324,0.013523,0.002678,0.000431,0.663212
4648000,0.0324,0.013523,0.002678,0.000431,0.667090
4649000,0.0324,0.013523,0.002678,0.000431,0.647815
4650000,0.0324,0.013523,0.002678,0.000431,0.633359
4651000,0.0324,0.013523,0.002678,0.000431,0.646170
4652000,0.0324,0.013523,0.002678,0.000431,0.669088
4653000,0.0324,0.013523,0.002678,0.000431,0.651694
4654000,0.0324,0.013523,0.002678,0.000431,0.661566
4655000,0.0324,0.013523,0.002678,0.000431,0.664034
4656000,0.0324,0.013523,0.002678,0.000431,0.653457
4657000,0.0324,0.013523,0.002678,0.000431,0.642644
4658000,0.0324,0.013523,0.002678,0.000431,0.634887
4659000,0.0324,0.013523,0.002678,0.000431,0.673907
4660000,0.0324,0.013523,0.002678,0.000431,0.628071
4661000,0.0324,0.013523,0.002678,0.000431,0.647463
4662000,0.0324,0.013523,0.002678,0.000431,0.646758
4663000,0.0324,0.013523,0.002678,0.000431,0.659451
4664000,0.0324,0.013523,0.002678,0.000431,0.648285
4665000,0.0324,0.013523,0.002678,0.000431,0.641116
4666000,0.0324,0.013523,0.002678,0.000431,0.642762
4667000,0.0324,0.013523,0.002678,0.000431,0.646758
4668000,0.0324,0.013523,0.002678,0.000431,0.655572
4669000,0.0324,0.013523,0.002678,0.000431,0.630539
4670000,0.0324,0.013523,0.002678,0.000431,0.626660
4671000,0.0324,0.013523,0.002678,0.000431,0.639353
4672000,0.0324,0.013523,0.002678,0.000431,0.669441
4673000,0.0324,0.013523,0.002678,0.000431,0.666032
4674000,0.0324,0.013523,0.002678,0.000431,0.667443
4675000,0.0324,0.013523,0.002678,0.000431,0.645935
4676000,0.0324,0.013523,0.002678,0.000431,0.654750
4677000,0.0324,0.013523,0.002678,0.000431,0.656865
4678000,0.0324,0.013523,0.002678,0.000431,0.641351
4679000,0.0324,0.013523,0.002678,0.000431,0.659216
4680000,0.0324,0.013523,0.002678,0.000431,0.640411
4681000,0.0324,0.013523,0.002678,0.000431,0.642527
4682000,0.0324,0.013523,0.002678,0.000431,0.643467
4683000,0.0324,0.013523,0.002678,0.000431,0.687775
4684000,0.0324,0.013523,0.002678,0.000431,0.655925
4685000,0.0324,0.013523,0.002678,0.000431,0.648050
4686000,0.0324,0.013523,0.002678,0.000431,0.651576
4687000,0.0324,0.013523,0.002678,0.000431,0.647933
4688000,0.0324,0.013523,0.002678,0.000431,0.647933
4689000,0.0324,0.013523,0.002678,0.000431,0.651459
4690000,0.0324,0.013523,0.002678,0.000431,0.631596
4691000,0.0324,0.013523,0.002678,0.000431,0.624192
4692000,0.0324,0.013523,0.002678,0.000431,0.624075
4693000,0.0324,0.013523,0.002678,0.000431,0.636063
4694000,0.0324,0.013523,0.002678,0.000431,0.627718
4695000,0.0324,0.013523,0.002678,0.000431,0.645465
4696000,0.0324,0.013523,0.002678,0.000431,0.616200
4697000,0.0324,0.013523,0.002678,0.000431,0.638531
4698000,0.0324,0.013523,0.002678,0.000431,0.635005
4699000,0.0324,0.013523,0.002678,0.000431,0.653692
4700000,0.0324,0.013523,0.002678,0.000431,0.644642
4701000,0.0324,0.013523,0.002678,0.000431,0.624545
4702000,0.0324,0.013523,0.002678,0.000431,0.651224
4703000,0.0324,0.013523,0.002678,0.000431,0.632302
4704000,0.0324,0.013523,0.002678,0.000431,0.640058
4705000,0.0324,0.013523,0.002678,0.000431,0.633947
4706000,0.0324,0.013523,0.002678,0.000431,0.631832
4707000,0.0324,0.013523,0.002678,0.000431,0.656042
4708000,0.0324,0.013523,0.002678,0.000431,0.671909
4709000,0.0324,0.013523,0.002678,0.000431,0.650166
4710000,0.0324,0.013523,0.002678,0.000431,0.664857
4711000,0.0324,0.013523,0.002678,0.000431,0.654044
4712000,0.0324,0.013523,0.002678,0.000431,0.645112
4713000,0.0324,0.013523,0.002678,0.000431,0.631832
4714000,0.0324,0.013523,0.002678,0.000431,0.631009
4715000,0.0324,0.013523,0.002678,0.000431,0.633359
4716000,0.0324,0.013523,0.002678,0.000431,0.614555
4717000,0.0324,0.013523,0.002678,0.000431,0.621607
4718000,0.0324,0.013523,0.002678,0.000431,0.645230
4719000,0.0324,0.013523,0.002678,0.000431,0.633712
4720000,0.0324,0.013523,0.002678,0.000431,0.643819
4721000,0.0324,0.013523,0.002678,0.000431,0.639588
4722000,0.0324,0.013523,0.002678,0.000431,0.675905
4723000,0.0324,0.013523,0.002678,0.000431,0.661919
4724000,0.0324,0.013523,0.002678,0.000431,0.634887
4725000,0.0324,0.013523,0.002678,0.000431,0.645112
4726000,0.0324,0.013523,0.002678,0.000431,0.627953
4727000,0.0324,0.013523,0.002678,0.000431,0.635710
4728000,0.0324,0.013523,0.002678,0.000431,0.660273
4729000,0.0324,0.013523,0.002678,0.000431,0.659451
4730000,0.0324,0.013523,0.002678,0.000431,0.649578
4731000,0.0324,0.013523,0.002678,0.000431,0.636768
4732000,0.0324,0.013523,0.002678,0.000431,0.659803
4733000,0.0324,0.013523,0.002678,0.000431,0.706462
4734000,0.0324,0.013523,0.002678,0.000431,0.639706
4735000,0.0324,0.013523,0.002678,0.000431,0.628541
4736000,0.0324,0.013523,0.002678,0.000431,0.637708
4737000,0.0324,0.013523,0.002678,0.000431,0.650518
4738000,0.0324,0.013523,0.002678,0.000431,0.642997
4739000,0.0324,0.013523,0.002678,0.000431,0.639353
4740000,0.0324,0.013523,0.002678,0.000431,0.626895
4741000,0.0324,0.013523,0.002678,0.000431,0.652869
4742000,0.0324,0.013523,0.002678,0.000431,0.658393
4743000,0.0324,0.013523,0.002678,0.000431,0.643937
4744000,0.0324,0.013523,0.002678,0.000431,0.638648
4745000,0.0324,0.013523,0.002678,0.000431,0.633712
4746000,0.0324,0.013523,0.002678,0.000431,0.654514
4747000,0.0324,0.013523,0.002678,0.000431,0.647698
4748000,0.0324,0.013523,0.002678,0.000431,0.675787
4749000,0.0324,0.013523,0.002678,0.000431,0.639471
4750000,0.0324,0.013523,0.002678,0.000431,0.636063
4751000,0.0324,0.013523,0.002678,0.000431,0.602920
4752000,0.0324,0.013523,0.002678,0.000431,0.631009
4753000,0.0324,0.013523,0.002678,0.000431,0.632302
4754000,0.0324,0.013523,0.002678,0.000431,0.674612
4755000,0.0324,0.013523,0.002678,0.000431,0.654514
4756000,0.0324,0.013523,0.002678,0.000431,0.637120
4757000,0.0324,0.013523,0.002678,0.000431,0.650048
4758000,0.0324,0.013523,0.002678,0.000431,0.669793
4759000,0.0324,0.013523,0.002678,0.000431,0.633947
4760000,0.0324,0.013523,0.002678,0.000431,0.634065
4761000,0.0324,0.013523,0.002678,0.000431,0.635827
4762000,0.0324,0.013523,0.002678,0.000431,0.637120
4763000,0.0324,0.013523,0.002678,0.000431,0.659803
4764000,0.0324,0.013523,0.002678,0.000431,0.658863
4765000,0.0324,0.013523,0.002678,0.000431,0.648285
4766000,0.0324,0.013523,0.002678,0.000431,0.633947
4767000,0.0324,0.013523,0.002678,0.000431,0.660038
4768000,0.0324,0.013523,0.002678,0.000431,0.633007
4769000,0.0324,0.013523,0.002678,0.000431,0.637708
4770000,0.0324,0.013523,0.002678,0.000431,0.637473
4771000,0.0324,0.013523,0.002678,0.000431,0.652869
4772000,0.0324,0.013523,0.002678,0.000431,0.643232
4773000,0.0324,0.013523,0.002678,0.000431,0.651341
4774000,0.0324,0.013523,0.002678,0.000431,0.625955
4775000,0.0324,0.013523,0.002678,0.000431,0.644525
4776000,0.0324,0.013523,0.002678,0.000431,0.649813
4777000,0.0324,0.013523,0.002678,0.000431,0.655925
4778000,0.0324,0.013523,0.002678,0.000431,0.658745
4779000,0.0324,0.013523,0.002678,0.000431,0.655337
4780000,0.0324,0.013523,0.002678,0.000431,0.642997
4781000,0.0324,0.013523,0.002678,0.000431,0.645817
4782000,0.0324,0.013523,0.002678,0.000431,0.651929
4783000,0.0324,0.013523,0.002678,0.000431,0.662271
4784000,0.0324,0.013523,0.002678,0.000431,0.654162
4785000,0.0324,0.013523,0.002678,0.000431,0.643467
4786000,0.0324,0.013523,0.002678,0.000431,0.660861
4787000,0.0324,0.013523,0.002678,0.000431,0.628423
4788000,0.0324,0.013523,0.002678,0.000431,0.626425
4789000,0.0324,0.013523,0.002678,0.000431,0.634652
4790000,0.0324,0.013523,0.002678,0.000431,0.663094
4791000,0.0324,0.013523,0.002678,0.000431,0.634535
4792000,0.0324,0.013523,0.002678,0.000431,0.623722
4793000,0.0324,0.013523,0.002678,0.000431,0.658863
4794000,0.0324,0.013523,0.002678,0.000431,0.669676
4795000,0.0324,0.013523,0.002678,0.000431,0.615260
4796000,0.0324,0.013523,0.002678,0.000431,0.678255
4797000,0.0324,0.013523,0.002678,0.000431,0.642056
4798000,0.0324,0.013523,0.002678,0.000431,0.662506
4799000,0.0324,0.013523,0.002678,0.000431,0.641586
4800000,0.0324,0.013523,0.002678,0.000431,0.635475
4801000,0.0324,0.013523,0.002678,0.000431,0.635475
4802000,0.0324,0.013523,0.002678,0.000431,0.641939
4803000,0.0324,0.013523,0.002678,0.000431,0.662859
4804000,0.0324,0.013523,0.002678,0.000431,0.656983
4805000,0.0324,0.013523,0.002678,0.000431,0.639823
4806000,0.0324,0.013523,0.002678,0.000431,0.637943
4807000,0.0324,0.013523,0.002678,0.000431,0.639471
4808000,0.0324,0.013523,0.002678,0.000431,0.658981
4809000,0.0324,0.013523,0.002678,0.000431,0.671203
4810000,0.0324,0.013523,0.002678,0.000431,0.650754
4811000,0.0324,0.013523,0.002678,0.000431,0.653927
4812000,0.0324,0.013523,0.002678,0.000431,0.673201
4813000,0.0324,0.013523,0.002678,0.000431,0.658158
4814000,0.0324,0.013523,0.002678,0.000431,0.631714
4815000,0.0324,0.013523,0.002678,0.000431,0.649108
4816000,0.0324,0.013523,0.002678,0.000431,0.631714
4817000,0.0324,0.013523,0.002678,0.000431,0.635122
4818000,0.0324,0.013523,0.002678,0.000431,0.621254
4819000,0.0324,0.013523,0.002678,0.000431,0.621019
4820000,0.0324,0.013523,0.002678,0.000431,0.631244
4821000,0.0324,0.013523,0.002678,0.000431,0.631714
4822000,0.0324,0.013523,0.002678,0.000431,0.644407
4823000,0.0324,0.013523,0.002678,0.000431,0.640411
4824000,0.0324,0.013523,0.002678,0.000431,0.659686
4825000,0.0324,0.013523,0.002678,0.000431,0.659568
4826000,0.0324,0.013523,0.002678,0.000431,0.627600
4827000,0.0324,0.013523,0.002678,0.000431,0.642997
4828000,0.0324,0.013523,0.002678,0.000431,0.633712
4829000,0.0324,0.013523,0.002678,0.000431,0.669441
4830000,0.0324,0.013523,0.002678,0.000431,0.648991
4831000,0.0324,0.013523,0.002678,0.000431,0.641586
4832000,0.0324,0.013523,0.002678,0.000431,0.608678
4833000,0.0324,0.013523,0.002678,0.000431,0.662506
4834000,0.0324,0.013523,0.002678,0.000431,0.714806
4835000,0.0324,0.013523,0.002678,0.000431,0.670028
4836000,0.0324,0.013523,0.002678,0.000431,0.665092
4837000,0.0324,0.013523,0.002678,0.000431,0.636180
4838000,0.0324,0.013523,0.002678,0.000431,0.689420
4839000,0.0324,0.013523,0.002678,0.000431,0.686717
4840000,0.0324,0.013523,0.002678,0.000431,0.660978
4841000,0.0324,0.013523,0.002678,0.000431,0.654514
4842000,0.0324,0.013523,0.002678,0.000431,0.656983
4843000,0.0324,0.013523,0.002678,0.000431,0.634300
4844000,0.0324,0.013523,0.002678,0.000431,0.630186
4845000,0.0324,0.013523,0.002678,0.000431,0.649696
4846000,0.0324,0.013523,0.002678,0.000431,0.652869
4847000,0.0324,0.013523,0.002678,0.000431,0.634300
4848000,0.0324,0.013523,0.002678,0.000431,0.633594
4849000,0.0324,0.013523,0.002678,0.000431,0.631479
4850000,0.0324,0.013523,0.002678,0.000431,0.625250
4851000,0.0324,0.013523,0.002678,0.000431,0.666972
4852000,0.0324,0.013523,0.002678,0.000431,0.638061
4853000,0.0324,0.013523,0.002678,0.000431,0.655572
4854000,0.0324,0.013523,0.002678,0.000431,0.653574
4855000,0.0324,0.013523,0.002678,0.000431,0.670733
4856000,0.0324,0.013523,0.002678,0.000431,0.623134
4857000,0.0324,0.013523,0.002678,0.000431,0.645112
4858000,0.0324,0.013523,0.002678,0.000431,0.658040
4859000,0.0324,0.013523,0.002678,0.000431,0.632067
4860000,0.0324,0.013523,0.002678,0.000431,0.623722
4861000,0.0324,0.013523,0.002678,0.000431,0.651929
4862000,0.0324,0.013523,0.002678,0.000431,0.639236
4863000,0.0324,0.013523,0.002678,0.000431,0.621489
4864000,0.0324,0.013523,0.002678,0.000431,0.605035
4865000,0.0324,0.013523,0.002678,0.000431,0.621724
4866000,0.0324,0.013523,0.002678,0.000431,0.635122
4867000,0.0324,0.013523,0.002678,0.000431,0.638531
4868000,0.0324,0.013523,0.002678,0.000431,0.664974
4869000,0.0324,0.013523,0.002678,0.000431,0.653927
4870000,0.0324,0.013523,0.002678,0.000431,0.669323
4871000,0.0324,0.013523,0.002678,0.000431,0.627836
4872000,0.0324,0.013523,0.002678,0.000431,0.653104
4873000,0.0324,0.013523,0.002678,0.000431,0.653457
4874000,0.0324,0.013523,0.002678,0.000431,0.623017
4875000,0.0324,0.013523,0.002678,0.000431,0.594340
4876000,0.0324,0.013523,0.002678,0.000431,0.622899
4877000,0.0324,0.013523,0.002678,0.000431,0.614790
4878000,0.0324,0.013523,0.002678,0.000431,0.652164
4879000,0.0324,0.013523,0.002678,0.000431,0.648521
4880000,0.0324,0.013523,0.002678,0.000431,0.646875
4881000,0.0324,0.013523,0.002678,0.000431,0.655690
4882000,0.0324,0.013523,0.002678,0.000431,0.640176
4883000,0.0324,0.013523,0.002678,0.000431,0.639706
4884000,0.0324,0.013523,0.002678,0.000431,0.680371
4885000,0.0324,0.013523,0.002678,0.000431,0.687775
4886000,0.0324,0.013523,0.002678,0.000431,0.655807
4887000,0.0324,0.013523,0.002678,0.000431,0.657218
4888000,0.0324,0.013523,0.002678,0.000431,0.648050
4889000,0.0324,0.013523,0.002678,0.000431,0.630539
4890000,0.0324,0.013523,0.002678,0.000431,0.628071
4891000,0.0324,0.013523,0.002678,0.000431,0.631009
4892000,0.0324,0.013523,0.002678,0.000431,0.648285
4893000,0.0324,0.013523,0.002678,0.000431,0.656512
4894000,0.0324,0.013523,0.002678,0.000431,0.668500
4895000,0.0324,0.013523,0.002678,0.000431,0.699410
4896000,0.0324,0.013523,0.002678,0.000431,0.674847
4897000,0.0324,0.013523,0.002678,0.000431,0.646758
4898000,0.0324,0.013523,0.002678,0.000431,0.622429
4899000,0.0324,0.013523,0.002678,0.000431,0.622194
4900000,0.0324,0.013523,0.002678,0.000431,0.642527
4901000,0.0324,0.013523,0.002678,0.000431,0.621607
4902000,0.0324,0.013523,0.002678,0.000431,0.633007
4903000,0.0324,0.013523,0.002678,0.000431,0.626190
4904000,0.0324,0.013523,0.002678,0.000431,0.631714
4905000,0.0324,0.013523,0.002678,0.000431,0.663799
4906000,0.0324,0.013523,0.002678,0.000431,0.642174
4907000,0.0324,0.013523,0.002678,0.000431,0.653927
4908000,0.0324,0.013523,0.002678,0.000431,0.676257
4909000,0.0324,0.013523,0.002678,0.000431,0.667795
4910000,0.0324,0.013523,0.002678,0.000431,0.675670
4911000,0.0324,0.013523,0.002678,0.000431,0.651576
4912000,0.0324,0.013523,0.002678,0.000431,0.638296
4913000,0.0324,0.013523,0.002678,0.000431,0.670733
4914000,0.0324,0.013523,0.002678,0.000431,0.632302
4915000,0.0324,0.013523,0.002678,0.000431,0.654632
4916000,0.0324,0.013523,0.002678,0.000431,0.636650
4917000,0.0324,0.013523,0.002678,0.000431,0.631361
4918000,0.0324,0.013523,0.002678,0.000431,0.648991
4919000,0.0324,0.013523,0.002678,0.000431,0.648991
4920000,0.0324,0.013523,0.002678,0.000431,0.622312
4921000,0.0324,0.013523,0.002678,0.000431,0.614320
4922000,0.0324,0.013523,0.002678,0.000431,0.632067
4923000,0.0324,0.013523,0.002678,0.000431,0.647110
4924000,0.0324,0.013523,0.002678,0.000431,0.646640
4925000,0.0324,0.013523,0.002678,0.000431,0.635122
4926000,0.0324,0.013523,0.002678,0.000431,0.607151
4927000,0.0324,0.013523,0.002678,0.000431,0.615495
4928000,0.0324,0.013523,0.002678,0.000431,0.666620
4929000,0.0324,0.013523,0.002678,0.000431,0.674847
4930000,0.0324,0.013523,0.002678,0.000431,0.626190
4931000,0.0324,0.013523,0.002678,0.000431,0.633124
4932000,0.0324,0.013523,0.002678,0.000431,0.635475
4933000,0.0324,0.013523,0.002678,0.000431,0.648873
4934000,0.0324,0.013523,0.002678,0.000431,0.629834
4935000,0.0324,0.013523,0.002678,0.000431,0.653339
4936000,0.0324,0.013523,0.002678,0.000431,0.630421
4937000,0.0324,0.013523,0.002678,0.000431,0.650989
4938000,0.0324,0.013523,0.002678,0.000431,0.622782
4939000,0.0324,0.013523,0.002678,0.000431,0.656395
4940000,0.0324,0.013523,0.002678,0.000431,0.649931
4941000,0.0324,0.013523,0.002678,0.000431,0.629716
4942000,0.0324,0.013523,0.002678,0.000431,0.643349
4943000,0.0324,0.013523,0.002678,0.000431,0.623252
4944000,0.0324,0.013523,0.002678,0.000431,0.615143
4945000,0.0324,0.013523,0.002678,0.000431,0.617023
4946000,0.0324,0.013523,0.002678,0.000431,0.672849
4947000,0.0324,0.013523,0.002678,0.000431,0.663799
4948000,0.0324,0.013523,0.002678,0.000431,0.643232
4949000,0.0324,0.013523,0.002678,0.000431,0.650283
4950000,0.0324,0.013523,0.002678,0.000431,0.647698
4951000,0.0324,0.013523,0.002678,0.000431,0.653574
4952000,0.0324,0.013523,0.002678,0.000431,0.626308
4953000,0.0324,0.013523,0.002678,0.000431,0.641704
4954000,0.0324,0.013523,0.002678,0.000431,0.626895
4955000,0.0324,0.013523,0.002678,0.000431,0.609031
4956000,0.0324,0.013523,0.002678,0.000431,0.621724
4957000,0.0324,0.013523,0.002678,0.000431,0.645700
4958000,0.0324,0.013523,0.002678,0.000431,0.638766
4959000,0.0324,0.013523,0.002678,0.000431,0.642527
4960000,0.0324,0.013523,0.002678,0.000431,0.637943
4961000,0.0324,0.013523,0.002678,0.000431,0.639471
4962000,0.0324,0.013523,0.002678,0.000431,0.650401
4963000,0.0324,0.013523,0.002678,0.000431,0.646875
4964000,0.0324,0.013523,0.002678,0.000431,0.654279
4965000,0.0324,0.013523,0.002678,0.000431,0.623487
4966000,0.0324,0.013523,0.002678,0.000431,0.644172
4967000,0.0324,0.013523,0.002678,0.000431,0.636768
4968000,0.0324,0.013523,0.002678,0.000431,0.651341
4969000,0.0324,0.013523,0.002678,0.000431,0.644877
4970000,0.0324,0.013523,0.002678,0.000431,0.645112
4971000,0.0324,0.013523,0.002678,0.000431,0.655220
4972000,0.0324,0.013523,0.002678,0.000431,0.658040
4973000,0.0324,0.013523,0.002678,0.000431,0.626895
4974000,0.0324,0.013523,0.002678,0.000431,0.646052
4975000,0.0324,0.013523,0.002678,0.000431,0.626190
4976000,0.0324,0.013523,0.002678,0.000431,0.644172
4977000,0.0324,0.013523,0.002678,0.000431,0.650871
4978000,0.0324,0.013523,0.002678,0.000431,0.655807
4979000,0.0324,0.013523,0.002678,0.000431,0.620549
4980000,0.0324,0.013523,0.002678,0.000431,0.630304
4981000,0.0324,0.013523,0.002678,0.000431,0.641586
4982000,0.0324,0.013523,0.002678,0.000431,0.638883
4983000,0.0324,0.013523,0.002678,0.000431,0.640176
4984000,0.0324,0.013523,0.002678,0.000431,0.621254
4985000,0.0324,0.013523,0.002678,0.000431,0.664152
4986000,0.0324,0.013523,0.002678,0.000431,0.608443
4987000,0.0324,0.013523,0.002678,0.000431,0.643819
4988000,0.0324,0.013523,0.002678,0.000431,0.636180
4989000,0.0324,0.013523,0.002678,0.000431,0.622782
4990000,0.0324,0.013523,0.002678,0.000431,0.629716
4991000,0.0324,0.013523,0.002678,0.000431,0.635005
4992000,0.0324,0.013523,0.002678,0.000431,0.659803
4993000,0.0324,0.013523,0.002678,0.000431,0.651694
4994000,0.0324,0.013523,0.002678,0.000431,0.631244
4995000,0.0324,0.013523,0.002678,0.000431,0.624075
4996000,0.0324,0.013523,0.002678,0.000431,0.645935
4997000,0.0324,0.013523,0.002678,0.000431,0.655337
4998000,0.0324,0.013523,0.002678,0.000431,0.655925
4999000,0.0324,0.013523,0.002678,0.000431,0.648991
