Cycle,Area(mm^2),PeakDynamic(W),SubthresholdLeakage(W),GateLeakage(W),RunTimeDynamic(W)
1000000,0.0324,0.013523,0.002678,0.000431,0.001175
1001000,0.0324,0.013523,0.002678,0.000431,0.001528
1002000,0.0324,0.013523,0.002678,0.000431,0.001410
1003000,0.0324,0.013523,0.002678,0.000431,0.001528
1004000,0.0324,0.013523,0.002678,0.000431,0.001528
1005000,0.0324,0.013523,0.002678,0.000431,0.001175
1006000,0.0324,0.013523,0.002678,0.000431,0.000940
1007000,0.0324,0.013523,0.002678,0.000431,0.000705
1008000,0.0324,0.013523,0.002678,0.000431,0.001293
1009000,0.0324,0.013523,0.002678,0.000431,0.000705
1010000,0.0324,0.013523,0.002678,0.000431,0.000940
1011000,0.0324,0.013523,0.002678,0.000431,0.000823
1012000,0.0324,0.013523,0.002678,0.000431,0.000823
1013000,0.0324,0.013523,0.002678,0.000431,0.000705
1014000,0.0324,0.013523,0.002678,0.000431,0.001175
1015000,0.0324,0.013523,0.002678,0.000431,0.000823
1016000,0.0324,0.013523,0.002678,0.000431,0.001175
1017000,0.0324,0.013523,0.002678,0.000431,0.000940
1018000,0.0324,0.013523,0.002678,0.000431,0.000705
1019000,0.0324,0.013523,0.002678,0.000431,0.001175
1020000,0.0324,0.013523,0.002678,0.000431,0.000705
1021000,0.0324,0.013523,0.002678,0.000431,0.001175
1022000,0.0324,0.013523,0.002678,0.000431,0.001058
1023000,0.0324,0.013523,0.002678,0.000431,0.001058
1024000,0.0324,0.013523,0.002678,0.000431,0.000823
1025000,0.0324,0.013523,0.002678,0.000431,0.001058
1026000,0.0324,0.013523,0.002678,0.000431,0.000940
1027000,0.0324,0.013523,0.002678,0.000431,0.001293
1028000,0.0324,0.013523,0.002678,0.000431,0.000940
1029000,0.0324,0.013523,0.002678,0.000431,0.001058
1030000,0.0324,0.013523,0.002678,0.000431,0.000940
1031000,0.0324,0.013523,0.002678,0.000431,0.001058
1032000,0.0324,0.013523,0.002678,0.000431,0.000823
1033000,0.0324,0.013523,0.002678,0.000431,0.001293
1034000,0.0324,0.013523,0.002678,0.000431,0.000940
1035000,0.0324,0.013523,0.002678,0.000431,0.001293
1036000,0.0324,0.013523,0.002678,0.000431,0.001058
1037000,0.0324,0.013523,0.002678,0.000431,0.000940
1038000,0.0324,0.013523,0.002678,0.000431,0.000588
1039000,0.0324,0.013523,0.002678,0.000431,0.001175
1040000,0.0324,0.013523,0.002678,0.000431,0.001058
1041000,0.0324,0.013523,0.002678,0.000431,0.001058
1042000,0.0324,0.013523,0.002678,0.000431,0.001058
1043000,0.0324,0.013523,0.002678,0.000431,0.001058
1044000,0.0324,0.013523,0.002678,0.000431,0.001058
1045000,0.0324,0.013523,0.002678,0.000431,0.000823
1046000,0.0324,0.013523,0.002678,0.000431,0.001058
1047000,0.0324,0.013523,0.002678,0.000431,0.000940
1048000,0.0324,0.013523,0.002678,0.000431,0.000940
1049000,0.0324,0.013523,0.002678,0.000431,0.001058
1050000,0.0324,0.013523,0.002678,0.000431,0.000705
1051000,0.0324,0.013523,0.002678,0.000431,0.001293
1052000,0.0324,0.013523,0.002678,0.000431,0.000940
1053000,0.0324,0.013523,0.002678,0.000431,0.000823
1054000,0.0324,0.013523,0.002678,0.000431,0.001058
1055000,0.0324,0.013523,0.002678,0.000431,0.001058
1056000,0.0324,0.013523,0.002678,0.000431,0.000940
1057000,0.0324,0.013523,0.002678,0.000431,0.000705
1058000,0.0324,0.013523,0.002678,0.000431,0.000940
1059000,0.0324,0.013523,0.002678,0.000431,0.001175
1060000,0.0324,0.013523,0.002678,0.000431,0.001058
1061000,0.0324,0.013523,0.002678,0.000431,0.001058
1062000,0.0324,0.013523,0.002678,0.000431,0.000940
1063000,0.0324,0.013523,0.002678,0.000431,0.001175
1064000,0.0324,0.013523,0.002678,0.000431,0.000940
1065000,0.0324,0.013523,0.002678,0.000431,0.001175
1066000,0.0324,0.013523,0.002678,0.000431,0.001058
1067000,0.0324,0.013523,0.002678,0.000431,0.000588
1068000,0.0324,0.013523,0.002678,0.000431,0.000940
1069000,0.0324,0.013523,0.002678,0.000431,0.000940
1070000,0.0324,0.013523,0.002678,0.000431,0.001175
1071000,0.0324,0.013523,0.002678,0.000431,0.001175
1072000,0.0324,0.013523,0.002678,0.000431,0.001175
1073000,0.0324,0.013523,0.002678,0.000431,0.000940
1074000,0.0324,0.013523,0.002678,0.000431,0.000940
1075000,0.0324,0.013523,0.002678,0.000431,0.000823
1076000,0.0324,0.013523,0.002678,0.000431,0.000940
1077000,0.0324,0.013523,0.002678,0.000431,0.001058
1078000,0.0324,0.013523,0.002678,0.000431,0.000940
1079000,0.0324,0.013523,0.002678,0.000431,0.001058
1080000,0.0324,0.013523,0.002678,0.000431,0.001058
1081000,0.0324,0.013523,0.002678,0.000431,0.001058
1082000,0.0324,0.013523,0.002678,0.000431,0.000940
1083000,0.0324,0.013523,0.002678,0.000431,0.000823
1084000,0.0324,0.013523,0.002678,0.000431,0.001058
1085000,0.0324,0.013523,0.002678,0.000431,0.001293
1086000,0.0324,0.013523,0.002678,0.000431,0.001058
1087000,0.0324,0.013523,0.002678,0.000431,0.000940
1088000,0.0324,0.013523,0.002678,0.000431,0.000823
1089000,0.0324,0.013523,0.002678,0.000431,0.001293
1090000,0.0324,0.013523,0.002678,0.000431,0.000940
1091000,0.0324,0.013523,0.002678,0.000431,0.001175
1092000,0.0324,0.013523,0.002678,0.000431,0.000705
1093000,0.0324,0.013523,0.002678,0.000431,0.000940
1094000,0.0324,0.013523,0.002678,0.000431,0.001058
1095000,0.0324,0.013523,0.002678,0.000431,0.001058
1096000,0.0324,0.013523,0.002678,0.000431,0.001058
1097000,0.0324,0.013523,0.002678,0.000431,0.000940
1098000,0.0324,0.013523,0.002678,0.000431,0.000705
1099000,0.0324,0.013523,0.002678,0.000431,0.001175
1100000,0.0324,0.013523,0.002678,0.000431,0.000705
1101000,0.0324,0.013523,0.002678,0.000431,0.001175
1102000,0.0324,0.013523,0.002678,0.000431,0.000940
1103000,0.0324,0.013523,0.002678,0.000431,0.001058
1104000,0.0324,0.013523,0.002678,0.000431,0.000705
1105000,0.0324,0.013523,0.002678,0.000431,0.001058
1106000,0.0324,0.013523,0.002678,0.000431,0.000823
1107000,0.0324,0.013523,0.002678,0.000431,0.001058
1108000,0.0324,0.013523,0.002678,0.000431,0.000940
1109000,0.0324,0.013523,0.002678,0.000431,0.001058
1110000,0.0324,0.013523,0.002678,0.000431,0.001058
1111000,0.0324,0.013523,0.002678,0.000431,0.001058
1112000,0.0324,0.013523,0.002678,0.000431,0.001058
1113000,0.0324,0.013523,0.002678,0.000431,0.001058
1114000,0.0324,0.013523,0.002678,0.000431,0.000588
1115000,0.0324,0.013523,0.002678,0.000431,0.001058
1116000,0.0324,0.013523,0.002678,0.000431,0.000940
1117000,0.0324,0.013523,0.002678,0.000431,0.000940
1118000,0.0324,0.013523,0.002678,0.000431,0.001058
1119000,0.0324,0.013523,0.002678,0.000431,0.000940
1120000,0.0324,0.013523,0.002678,0.000431,0.000823
1121000,0.0324,0.013523,0.002678,0.000431,0.001175
1122000,0.0324,0.013523,0.002678,0.000431,0.001175
1123000,0.0324,0.013523,0.002678,0.000431,0.001058
1124000,0.0324,0.013523,0.002678,0.000431,0.001058
1125000,0.0324,0.013523,0.002678,0.000431,0.000705
1126000,0.0324,0.013523,0.002678,0.000431,0.001175
1127000,0.0324,0.013523,0.002678,0.000431,0.000940
1128000,0.0324,0.013523,0.002678,0.000431,0.000823
1129000,0.0324,0.013523,0.002678,0.000431,0.001175
1130000,0.0324,0.013523,0.002678,0.000431,0.001058
1131000,0.0324,0.013523,0.002678,0.000431,0.001058
1132000,0.0324,0.013523,0.002678,0.000431,0.001175
1133000,0.0324,0.013523,0.002678,0.000431,0.000705
1134000,0.0324,0.013523,0.002678,0.000431,0.001058
1135000,0.0324,0.013523,0.002678,0.000431,0.001175
1136000,0.0324,0.013523,0.002678,0.000431,0.000470
1137000,0.0324,0.013523,0.002678,0.000431,0.001058
1138000,0.0324,0.013523,0.002678,0.000431,0.001058
1139000,0.0324,0.013523,0.002678,0.000431,0.001175
1140000,0.0324,0.013523,0.002678,0.000431,0.001293
1141000,0.0324,0.013523,0.002678,0.000431,0.000470
1142000,0.0324,0.013523,0.002678,0.000431,0.000823
1143000,0.0324,0.013523,0.002678,0.000431,0.000588
1144000,0.0324,0.013523,0.002678,0.000431,0.001175
1145000,0.0324,0.013523,0.002678,0.000431,0.000823
1146000,0.0324,0.013523,0.002678,0.000431,0.000940
1147000,0.0324,0.013523,0.002678,0.000431,0.001058
1148000,0.0324,0.013523,0.002678,0.000431,0.000940
1149000,0.0324,0.013523,0.002678,0.000431,0.000940
1150000,0.0324,0.013523,0.002678,0.000431,0.001175
1151000,0.0324,0.013523,0.002678,0.000431,0.001058
1152000,0.0324,0.013523,0.002678,0.000431,0.001058
1153000,0.0324,0.013523,0.002678,0.000431,0.000940
1154000,0.0324,0.013523,0.002678,0.000431,0.001175
1155000,0.0324,0.013523,0.002678,0.000431,0.001058
1156000,0.0324,0.013523,0.002678,0.000431,0.000940
1157000,0.0324,0.013523,0.002678,0.000431,0.000940
1158000,0.0324,0.013523,0.002678,0.000431,0.000823
1159000,0.0324,0.013523,0.002678,0.000431,0.001058
1160000,0.0324,0.013523,0.002678,0.000431,0.001175
1161000,0.0324,0.013523,0.002678,0.000431,0.000940
1162000,0.0324,0.013523,0.002678,0.000431,0.000940
1163000,0.0324,0.013523,0.002678,0.000431,0.000940
1164000,0.0324,0.013523,0.002678,0.000431,0.001058
1165000,0.0324,0.013523,0.002678,0.000431,0.001058
1166000,0.0324,0.013523,0.002678,0.000431,0.000940
1167000,0.0324,0.013523,0.002678,0.000431,0.000940
1168000,0.0324,0.013523,0.002678,0.000431,0.000940
1169000,0.0324,0.013523,0.002678,0.000431,0.001175
1170000,0.0324,0.013523,0.002678,0.000431,0.000588
1171000,0.0324,0.013523,0.002678,0.000431,0.001175
1172000,0.0324,0.013523,0.002678,0.000431,0.000940
1173000,0.0324,0.013523,0.002678,0.000431,0.001058
1174000,0.0324,0.013523,0.002678,0.000431,0.001175
1175000,0.0324,0.013523,0.002678,0.000431,0.000940
1176000,0.0324,0.013523,0.002678,0.000431,0.000940
1177000,0.0324,0.013523,0.002678,0.000431,0.000940
1178000,0.0324,0.013523,0.002678,0.000431,0.001175
1179000,0.0324,0.013523,0.002678,0.000431,0.000823
1180000,0.0324,0.013523,0.002678,0.000431,0.001058
1181000,0.0324,0.013523,0.002678,0.000431,0.001175
1182000,0.0324,0.013523,0.002678,0.000431,0.000940
1183000,0.0324,0.013523,0.002678,0.000431,0.001293
1184000,0.0324,0.013523,0.002678,0.000431,0.001058
1185000,0.0324,0.013523,0.002678,0.000431,0.001058
1186000,0.0324,0.013523,0.002678,0.000431,0.000823
1187000,0.0324,0.013523,0.002678,0.000431,0.001175
1188000,0.0324,0.013523,0.002678,0.000431,0.000940
1189000,0.0324,0.013523,0.002678,0.000431,0.000823
1190000,0.0324,0.013523,0.002678,0.000431,0.001175
1191000,0.0324,0.013523,0.002678,0.000431,0.001175
1192000,0.0324,0.013523,0.002678,0.000431,0.000940
1193000,0.0324,0.013523,0.002678,0.000431,0.000940
1194000,0.0324,0.013523,0.002678,0.000431,0.001058
1195000,0.0324,0.013523,0.002678,0.000431,0.001293
1196000,0.0324,0.013523,0.002678,0.000431,0.000823
1197000,0.0324,0.013523,0.002678,0.000431,0.001058
1198000,0.0324,0.013523,0.002678,0.000431,0.001175
1199000,0.0324,0.013523,0.002678,0.000431,0.000705
1200000,0.0324,0.013523,0.002678,0.000431,0.000940
1201000,0.0324,0.013523,0.002678,0.000431,0.000823
1202000,0.0324,0.013523,0.002678,0.000431,0.000823
1203000,0.0324,0.013523,0.002678,0.000431,0.000940
1204000,0.0324,0.013523,0.002678,0.000431,0.001058
1205000,0.0324,0.013523,0.002678,0.000431,0.000940
1206000,0.0324,0.013523,0.002678,0.000431,0.001058
1207000,0.0324,0.013523,0.002678,0.000431,0.001058
1208000,0.0324,0.013523,0.002678,0.000431,0.001175
1209000,0.0324,0.013523,0.002678,0.000431,0.001058
1210000,0.0324,0.013523,0.002678,0.000431,0.000940
1211000,0.0324,0.013523,0.002678,0.000431,0.001058
1212000,0.0324,0.013523,0.002678,0.000431,0.000940
1213000,0.0324,0.013523,0.002678,0.000431,0.001175
1214000,0.0324,0.013523,0.002678,0.000431,0.001058
1215000,0.0324,0.013523,0.002678,0.000431,0.000823
1216000,0.0324,0.013523,0.002678,0.000431,0.000588
1217000,0.0324,0.013523,0.002678,0.000431,0.000705
1218000,0.0324,0.013523,0.002678,0.000431,0.000705
1219000,0.0324,0.013523,0.002678,0.000431,0.000823
1220000,0.0324,0.013523,0.002678,0.000431,0.000705
1221000,0.0324,0.013523,0.002678,0.000431,0.000705
1222000,0.0324,0.013523,0.002678,0.000431,0.000823
1223000,0.0324,0.013523,0.002678,0.000431,0.000470
1224000,0.0324,0.013523,0.002678,0.000431,0.000705
1225000,0.0324,0.013523,0.002678,0.000431,0.000940
1226000,0.0324,0.013523,0.002678,0.000431,0.000823
1227000,0.0324,0.013523,0.002678,0.000431,0.001058
1228000,0.0324,0.013523,0.002678,0.000431,0.000823
1229000,0.0324,0.013523,0.002678,0.000431,0.000940
1230000,0.0324,0.013523,0.002678,0.000431,0.001175
1231000,0.0324,0.013523,0.002678,0.000431,0.000705
1232000,0.0324,0.013523,0.002678,0.000431,0.000940
1233000,0.0324,0.013523,0.002678,0.000431,0.001293
1234000,0.0324,0.013523,0.002678,0.000431,0.000823
1235000,0.0324,0.013523,0.002678,0.000431,0.001058
1236000,0.0324,0.013523,0.002678,0.000431,0.000353
1237000,0.0324,0.013523,0.002678,0.000431,0.000823
1238000,0.0324,0.013523,0.002678,0.000431,0.000353
1239000,0.0324,0.013523,0.002678,0.000431,0.000705
1240000,0.0324,0.013523,0.002678,0.000431,0.000353
1241000,0.0324,0.013523,0.002678,0.000431,0.000353
1242000,0.0324,0.013523,0.002678,0.000431,0.000823
1243000,0.0324,0.013523,0.002678,0.000431,0.000235
1244000,0.0324,0.013523,0.002678,0.000431,0.000940
1245000,0.0324,0.013523,0.002678,0.000431,0.000823
1246000,0.0324,0.013523,0.002678,0.000431,0.000940
1247000,0.0324,0.013523,0.002678,0.000431,0.001175
1248000,0.0324,0.013523,0.002678,0.000431,0.000823
1249000,0.0324,0.013523,0.002678,0.000431,0.000940
1250000,0.0324,0.013523,0.002678,0.000431,0.000823
1251000,0.0324,0.013523,0.002678,0.000431,0.000588
1252000,0.0324,0.013523,0.002678,0.000431,0.000705
1253000,0.0324,0.013523,0.002678,0.000431,0.000470
1254000,0.0324,0.013523,0.002678,0.000431,0.000588
1255000,0.0324,0.013523,0.002678,0.000431,0.000588
1256000,0.0324,0.013523,0.002678,0.000431,0.000470
1257000,0.0324,0.013523,0.002678,0.000431,0.000588
1258000,0.0324,0.013523,0.002678,0.000431,0.000588
1259000,0.0324,0.013523,0.002678,0.000431,0.000235
1260000,0.0324,0.013523,0.002678,0.000431,0.000588
1261000,0.0324,0.013523,0.002678,0.000431,0.000118
1262000,0.0324,0.013523,0.002678,0.000431,0.000000
1263000,0.0324,0.013523,0.002678,0.000431,0.000000
1264000,0.0324,0.013523,0.002678,0.000431,0.000000
1265000,0.0324,0.013523,0.002678,0.000431,0.000000
1266000,0.0324,0.013523,0.002678,0.000431,1.744471
1267000,0.0324,0.013523,0.002678,0.000431,2.385822
1268000,0.0324,0.013523,0.002678,0.000431,0.043368
1269000,0.0324,0.013523,0.002678,0.000431,0.000000
1270000,0.0324,0.013523,0.002678,0.000431,0.000000
1271000,0.0324,0.013523,0.002678,0.000431,0.000000
1272000,0.0324,0.013523,0.002678,0.000431,0.000000
1273000,0.0324,0.013523,0.002678,0.000431,1.448065
1274000,0.0324,0.013523,0.002678,0.000431,2.561762
1275000,0.0324,0.013523,0.002678,0.000431,1.244153
1276000,0.0324,0.013523,0.002678,0.000431,1.829326
1277000,0.0324,0.013523,0.002678,0.000431,2.094822
1278000,0.0324,0.013523,0.002678,0.000431,3.059611
1279000,0.0324,0.013523,0.002678,0.000431,3.978211
1280000,0.0324,0.013523,0.002678,0.000431,4.116072
1281000,0.0324,0.013523,0.002678,0.000431,4.212915
1282000,0.0324,0.013523,0.002678,0.000431,4.006653
1283000,0.0324,0.013523,0.002678,0.000431,4.111723
1284000,0.0324,0.013523,0.002678,0.000431,4.034860
1285000,0.0324,0.013523,0.002678,0.000431,4.029101
1286000,0.0324,0.013523,0.002678,0.000431,4.103026
1287000,0.0324,0.013523,0.002678,0.000431,4.029336
1288000,0.0324,0.013523,0.002678,0.000431,4.079051
1289000,0.0324,0.013523,0.002678,0.000431,4.066240
1290000,0.0324,0.013523,0.002678,0.000431,4.020874
1291000,0.0324,0.013523,0.002678,0.000431,4.042264
1292000,0.0324,0.013523,0.002678,0.000431,4.067298
1293000,0.0324,0.013523,0.002678,0.000431,4.061539
1294000,0.0324,0.013523,0.002678,0.000431,4.078228
1295000,0.0324,0.013523,0.002678,0.000431,4.083164
1296000,0.0324,0.013523,0.002678,0.000431,4.027808
1297000,0.0324,0.013523,0.002678,0.000431,4.030864
1298000,0.0324,0.013523,0.002678,0.000431,4.013587
1299000,0.0324,0.013523,0.002678,0.000431,4.066358
1300000,0.0324,0.013523,0.002678,0.000431,4.032274
1301000,0.0324,0.013523,0.002678,0.000431,4.057425
1302000,0.0324,0.013523,0.002678,0.000431,4.072116
1303000,0.0324,0.013523,0.002678,0.000431,4.079873
1304000,0.0324,0.013523,0.002678,0.000431,4.042264
1305000,0.0324,0.013523,0.002678,0.000431,4.030629
1306000,0.0324,0.013523,0.002678,0.000431,4.074702
1307000,0.0324,0.013523,0.002678,0.000431,4.073644
1308000,0.0324,0.013523,0.002678,0.000431,4.050491
1309000,0.0324,0.013523,0.002678,0.000431,4.040736
1310000,0.0324,0.013523,0.002678,0.000431,4.041912
1311000,0.0324,0.013523,0.002678,0.000431,4.059541
1312000,0.0324,0.013523,0.002678,0.000431,4.100793
1313000,0.0324,0.013523,0.002678,0.000431,4.058131
1314000,0.0324,0.013523,0.002678,0.000431,4.023577
1315000,0.0324,0.013523,0.002678,0.000431,4.081401
1316000,0.0324,0.013523,0.002678,0.000431,4.074702
1317000,0.0324,0.013523,0.002678,0.000431,4.043910
1318000,0.0324,0.013523,0.002678,0.000431,4.065300
1319000,0.0324,0.013523,0.002678,0.000431,4.046495
1320000,0.0324,0.013523,0.002678,0.000431,4.077523
1321000,0.0324,0.013523,0.002678,0.000431,4.065535
1322000,0.0324,0.013523,0.002678,0.000431,4.047200
1323000,0.0324,0.013523,0.002678,0.000431,4.078463
1324000,0.0324,0.013523,0.002678,0.000431,4.001600
1325000,0.0324,0.013523,0.002678,0.000431,4.027691
1326000,0.0324,0.013523,0.002678,0.000431,4.036740
1327000,0.0324,0.013523,0.002678,0.000431,4.041207
1328000,0.0324,0.013523,0.002678,0.000431,4.066945
1329000,0.0324,0.013523,0.002678,0.000431,4.046025
1330000,0.0324,0.013523,0.002678,0.000431,4.058131
1331000,0.0324,0.013523,0.002678,0.000431,4.018171
1332000,0.0324,0.013523,0.002678,0.000431,4.078110
1333000,0.0324,0.013523,0.002678,0.000431,4.032509
1334000,0.0324,0.013523,0.002678,0.000431,4.108785
1335000,0.0324,0.013523,0.002678,0.000431,4.059423
1336000,0.0324,0.013523,0.002678,0.000431,4.018524
1337000,0.0324,0.013523,0.002678,0.000431,4.049786
1338000,0.0324,0.013523,0.002678,0.000431,4.085397
1339000,0.0324,0.013523,0.002678,0.000431,4.075995
1340000,0.0324,0.013523,0.002678,0.000431,4.077405
1341000,0.0324,0.013523,0.002678,0.000431,4.075290
1342000,0.0324,0.013523,0.002678,0.000431,4.054252
1343000,0.0324,0.013523,0.002678,0.000431,4.009591
1344000,0.0324,0.013523,0.002678,0.000431,4.036858
1345000,0.0324,0.013523,0.002678,0.000431,4.095622
1346000,0.0324,0.013523,0.002678,0.000431,4.071646
1347000,0.0324,0.013523,0.002678,0.000431,4.093389
1348000,0.0324,0.013523,0.002678,0.000431,4.053077
1349000,0.0324,0.013523,0.002678,0.000431,4.080343
1350000,0.0324,0.013523,0.002678,0.000431,4.080461
1351000,0.0324,0.013523,0.002678,0.000431,4.025693
1352000,0.0324,0.013523,0.002678,0.000431,4.084457
1353000,0.0324,0.013523,0.002678,0.000431,4.059894
1354000,0.0324,0.013523,0.002678,0.000431,4.074114
1355000,0.0324,0.013523,0.002678,0.000431,4.127237
1356000,0.0324,0.013523,0.002678,0.000431,4.103026
1357000,0.0324,0.013523,0.002678,0.000431,4.008181
1358000,0.0324,0.013523,0.002678,0.000431,4.082576
1359000,0.0324,0.013523,0.002678,0.000431,4.056368
1360000,0.0324,0.013523,0.002678,0.000431,4.072704
1361000,0.0324,0.013523,0.002678,0.000431,4.024988
1362000,0.0324,0.013523,0.002678,0.000431,4.079403
1363000,0.0324,0.013523,0.002678,0.000431,4.065770
1364000,0.0324,0.013523,0.002678,0.000431,4.056250
1365000,0.0324,0.013523,0.002678,0.000431,4.024753
1366000,0.0324,0.013523,0.002678,0.000431,4.078816
1367000,0.0324,0.013523,0.002678,0.000431,4.043087
1368000,0.0324,0.013523,0.002678,0.000431,4.040854
1369000,0.0324,0.013523,0.002678,0.000431,4.038386
1370000,0.0324,0.013523,0.002678,0.000431,4.033450
1371000,0.0324,0.013523,0.002678,0.000431,4.052372
1372000,0.0324,0.013523,0.002678,0.000431,4.055310
1373000,0.0324,0.013523,0.002678,0.000431,4.048023
1374000,0.0324,0.013523,0.002678,0.000431,4.051549
1375000,0.0324,0.013523,0.002678,0.000431,4.029689
1376000,0.0324,0.013523,0.002678,0.000431,4.004890
1377000,0.0324,0.013523,0.002678,0.000431,4.041089
1378000,0.0324,0.013523,0.002678,0.000431,3.974568
1379000,0.0324,0.013523,0.002678,0.000431,3.915216
1380000,0.0324,0.013523,0.002678,0.000431,3.914864
1381000,0.0324,0.013523,0.002678,0.000431,3.869263
1382000,0.0324,0.013523,0.002678,0.000431,3.759609
1383000,0.0324,0.013523,0.002678,0.000431,3.734811
1384000,0.0324,0.013523,0.002678,0.000431,3.600358
1385000,0.0324,0.013523,0.002678,0.000431,3.519264
1386000,0.0324,0.013523,0.002678,0.000431,3.441343
1387000,0.0324,0.013523,0.002678,0.000431,3.286911
1388000,0.0324,0.013523,0.002678,0.000431,3.182193
1389000,0.0324,0.013523,0.002678,0.000431,2.986039
1390000,0.0324,0.013523,0.002678,0.000431,2.908352
1391000,0.0324,0.013523,0.002678,0.000431,2.801754
1392000,0.0324,0.013523,0.002678,0.000431,2.725243
1393000,0.0324,0.013523,0.002678,0.000431,2.539196
1394000,0.0324,0.013523,0.002678,0.000431,2.439768
1395000,0.0324,0.013523,0.002678,0.000431,2.362199
1396000,0.0324,0.013523,0.002678,0.000431,2.298616
1397000,0.0324,0.013523,0.002678,0.000431,2.225161
1398000,0.0324,0.013523,0.002678,0.000431,2.149238
1399000,0.0324,0.013523,0.002678,0.000431,2.076723
1400000,0.0324,0.013523,0.002678,0.000431,2.029947
1401000,0.0324,0.013523,0.002678,0.000431,1.961310
1402000,0.0324,0.013523,0.002678,0.000431,1.866465
1403000,0.0324,0.013523,0.002678,0.000431,1.821804
1404000,0.0324,0.013523,0.002678,0.000431,1.776556
1405000,0.0324,0.013523,0.002678,0.000431,1.697342
1406000,0.0324,0.013523,0.002678,0.000431,1.634347
1407000,0.0324,0.013523,0.002678,0.000431,1.582517
1408000,0.0324,0.013523,0.002678,0.000431,1.529394
1409000,0.0324,0.013523,0.002678,0.000431,1.472863
1410000,0.0324,0.013523,0.002678,0.000431,1.447360
1411000,0.0324,0.013523,0.002678,0.000431,1.367675
1412000,0.0324,0.013523,0.002678,0.000431,1.337706
1413000,0.0324,0.013523,0.002678,0.000431,1.281292
1414000,0.0324,0.013523,0.002678,0.000431,1.239805
1415000,0.0324,0.013523,0.002678,0.000431,1.190560
1416000,0.0324,0.013523,0.002678,0.000431,1.121101
1417000,0.0324,0.013523,0.002678,0.000431,1.100534
1418000,0.0324,0.013523,0.002678,0.000431,1.057166
1419000,0.0324,0.013523,0.002678,0.000431,1.032132
1420000,0.0324,0.013523,0.002678,0.000431,0.986414
1421000,0.0324,0.013523,0.002678,0.000431,0.933644
1422000,0.0324,0.013523,0.002678,0.000431,0.898385
1423000,0.0324,0.013523,0.002678,0.000431,0.857603
1424000,0.0324,0.013523,0.002678,0.000431,0.820582
1425000,0.0324,0.013523,0.002678,0.000431,0.787556
1426000,0.0324,0.013523,0.002678,0.000431,0.772278
1427000,0.0324,0.013523,0.002678,0.000431,0.732553
1428000,0.0324,0.013523,0.002678,0.000431,0.697060
1429000,0.0324,0.013523,0.002678,0.000431,0.686130
1430000,0.0324,0.013523,0.002678,0.000431,0.652987
1431000,0.0324,0.013523,0.002678,0.000431,0.618081
1432000,0.0324,0.013523,0.002678,0.000431,0.588816
1433000,0.0324,0.013523,0.002678,0.000431,0.549444
1434000,0.0324,0.013523,0.002678,0.000431,0.550384
1435000,0.0324,0.013523,0.002678,0.000431,0.512070
1436000,0.0324,0.013523,0.002678,0.000431,0.496557
1437000,0.0324,0.013523,0.002678,0.000431,0.481630
1438000,0.0324,0.013523,0.002678,0.000431,0.461533
1439000,0.0324,0.013523,0.002678,0.000431,0.435559
1440000,0.0324,0.013523,0.002678,0.000431,0.410056
1441000,0.0324,0.013523,0.002678,0.000431,0.402887
1442000,0.0324,0.013523,0.002678,0.000431,0.377148
1443000,0.0324,0.013523,0.002678,0.000431,0.363515
1444000,0.0324,0.013523,0.002678,0.000431,0.355523
1445000,0.0324,0.013523,0.002678,0.000431,0.331900
1446000,0.0324,0.013523,0.002678,0.000431,0.322380
1447000,0.0324,0.013523,0.002678,0.000431,0.309099
1448000,0.0324,0.013523,0.002678,0.000431,0.296171
1449000,0.0324,0.013523,0.002678,0.000431,0.291352
1450000,0.0324,0.013523,0.002678,0.000431,0.270080
1451000,0.0324,0.013523,0.002678,0.000431,0.259620
1452000,0.0324,0.013523,0.002678,0.000431,0.248925
1453000,0.0324,0.013523,0.002678,0.000431,0.237995
1454000,0.0324,0.013523,0.002678,0.000431,0.228710
1455000,0.0324,0.013523,0.002678,0.000431,0.222128
1456000,0.0324,0.013523,0.002678,0.000431,0.201796
1457000,0.0324,0.013523,0.002678,0.000431,0.200386
1458000,0.0324,0.013523,0.002678,0.000431,0.194627
1459000,0.0324,0.013523,0.002678,0.000431,0.186282
1460000,0.0324,0.013523,0.002678,0.000431,0.172414
1461000,0.0324,0.013523,0.002678,0.000431,0.171239
1462000,0.0324,0.013523,0.002678,0.000431,0.158546
1463000,0.0324,0.013523,0.002678,0.000431,0.149966
1464000,0.0324,0.013523,0.002678,0.000431,0.147968
1465000,0.0324,0.013523,0.002678,0.000431,0.144795
1466000,0.0324,0.013523,0.002678,0.000431,0.130809
1467000,0.0324,0.013523,0.002678,0.000431,0.130339
1468000,0.0324,0.013523,0.002678,0.000431,0.129281
1469000,0.0324,0.013523,0.002678,0.000431,0.118351
1470000,0.0324,0.013523,0.002678,0.000431,0.113415
1471000,0.0324,0.013523,0.002678,0.000431,0.106245
1472000,0.0324,0.013523,0.002678,0.000431,0.106363
1473000,0.0324,0.013523,0.002678,0.000431,0.100957
1474000,0.0324,0.013523,0.002678,0.000431,0.097783
1475000,0.0324,0.013523,0.002678,0.000431,0.095785
1476000,0.0324,0.013523,0.002678,0.000431,0.089556
1477000,0.0324,0.013523,0.002678,0.000431,0.084855
1478000,0.0324,0.013523,0.002678,0.000431,0.083563
1479000,0.0324,0.013523,0.002678,0.000431,0.080507
1480000,0.0324,0.013523,0.002678,0.000431,0.079332
1481000,0.0324,0.013523,0.002678,0.000431,0.071457
1482000,0.0324,0.013523,0.002678,0.000431,0.072397
1483000,0.0324,0.013523,0.002678,0.000431,0.065581
1484000,0.0324,0.013523,0.002678,0.000431,0.067931
1485000,0.0324,0.013523,0.002678,0.000431,0.064288
1486000,0.0324,0.013523,0.002678,0.000431,0.062055
1487000,0.0324,0.013523,0.002678,0.000431,0.058059
1488000,0.0324,0.013523,0.002678,0.000431,0.056649
1489000,0.0324,0.013523,0.002678,0.000431,0.056766
1490000,0.0324,0.013523,0.002678,0.000431,0.055121
1491000,0.0324,0.013523,0.002678,0.000431,0.050185
1492000,0.0324,0.013523,0.002678,0.000431,0.048657
1493000,0.0324,0.013523,0.002678,0.000431,0.047599
1494000,0.0324,0.013523,0.002678,0.000431,0.047246
1495000,0.0324,0.013523,0.002678,0.000431,0.045836
1496000,0.0324,0.013523,0.002678,0.000431,0.045248
1497000,0.0324,0.013523,0.002678,0.000431,0.045601
1498000,0.0324,0.013523,0.002678,0.000431,0.037491
1499000,0.0324,0.013523,0.002678,0.000431,0.038197
1500000,0.0324,0.013523,0.002678,0.000431,0.037727
1501000,0.0324,0.013523,0.002678,0.000431,0.037491
1502000,0.0324,0.013523,0.002678,0.000431,0.035729
1503000,0.0324,0.013523,0.002678,0.000431,0.035729
1504000,0.0324,0.013523,0.002678,0.000431,0.034201
1505000,0.0324,0.013523,0.002678,0.000431,0.032790
1506000,0.0324,0.013523,0.002678,0.000431,0.031498
1507000,0.0324,0.013523,0.002678,0.000431,0.032555
1508000,0.0324,0.013523,0.002678,0.000431,0.030205
1509000,0.0324,0.013523,0.002678,0.000431,0.029265
1510000,0.0324,0.013523,0.002678,0.000431,0.027619
1511000,0.0324,0.013523,0.002678,0.000431,0.027737
1512000,0.0324,0.013523,0.002678,0.000431,0.026679
1513000,0.0324,0.013523,0.002678,0.000431,0.026679
1514000,0.0324,0.013523,0.002678,0.000431,0.025386
1515000,0.0324,0.013523,0.002678,0.000431,0.024798
1516000,0.0324,0.013523,0.002678,0.000431,0.023153
1517000,0.0324,0.013523,0.002678,0.000431,0.026796
1518000,0.0324,0.013523,0.002678,0.000431,0.022330
1519000,0.0324,0.013523,0.002678,0.000431,0.022918
1520000,0.0324,0.013523,0.002678,0.000431,0.020802
1521000,0.0324,0.013523,0.002678,0.000431,0.022565
1522000,0.0324,0.013523,0.002678,0.000431,0.021743
1523000,0.0324,0.013523,0.002678,0.000431,0.018922
1524000,0.0324,0.013523,0.002678,0.000431,0.019157
1525000,0.0324,0.013523,0.002678,0.000431,0.019040
1526000,0.0324,0.013523,0.002678,0.000431,0.018099
1527000,0.0324,0.013523,0.002678,0.000431,0.019275
1528000,0.0324,0.013523,0.002678,0.000431,0.017982
1529000,0.0324,0.013523,0.002678,0.000431,0.017159
1530000,0.0324,0.013523,0.002678,0.000431,0.016101
1531000,0.0324,0.013523,0.002678,0.000431,0.017394
1532000,0.0324,0.013523,0.002678,0.000431,0.015514
1533000,0.0324,0.013523,0.002678,0.000431,0.013751
1534000,0.0324,0.013523,0.002678,0.000431,0.014221
1535000,0.0324,0.013523,0.002678,0.000431,0.015866
1536000,0.0324,0.013523,0.002678,0.000431,0.014573
1537000,0.0324,0.013523,0.002678,0.000431,0.013633
1538000,0.0324,0.013523,0.002678,0.000431,0.012811
1539000,0.0324,0.013523,0.002678,0.000431,0.013398
1540000,0.0324,0.013523,0.002678,0.000431,0.013868
1541000,0.0324,0.013523,0.002678,0.000431,0.012928
1542000,0.0324,0.013523,0.002678,0.000431,0.011988
1543000,0.0324,0.013523,0.002678,0.000431,0.011518
1544000,0.0324,0.013523,0.002678,0.000431,0.011283
1545000,0.0324,0.013523,0.002678,0.000431,0.011518
1546000,0.0324,0.013523,0.002678,0.000431,0.010930
1547000,0.0324,0.013523,0.002678,0.000431,0.011753
1548000,0.0324,0.013523,0.002678,0.000431,0.011870
1549000,0.0324,0.013523,0.002678,0.000431,0.010813
1550000,0.0324,0.013523,0.002678,0.000431,0.010225
1551000,0.0324,0.013523,0.002678,0.000431,0.011400
1552000,0.0324,0.013523,0.002678,0.000431,0.010342
1553000,0.0324,0.013523,0.002678,0.000431,0.010460
1554000,0.0324,0.013523,0.002678,0.000431,0.011518
1555000,0.0324,0.013523,0.002678,0.000431,0.010342
1556000,0.0324,0.013523,0.002678,0.000431,0.009402
1557000,0.0324,0.013523,0.002678,0.000431,0.009755
1558000,0.0324,0.013523,0.002678,0.000431,0.009050
1559000,0.0324,0.013523,0.002678,0.000431,0.009872
1560000,0.0324,0.013523,0.002678,0.000431,0.009637
1561000,0.0324,0.013523,0.002678,0.000431,0.009755
1562000,0.0324,0.013523,0.002678,0.000431,0.009637
1563000,0.0324,0.013523,0.002678,0.000431,0.009285
1564000,0.0324,0.013523,0.002678,0.000431,0.010460
1565000,0.0324,0.013523,0.002678,0.000431,0.009755
1566000,0.0324,0.013523,0.002678,0.000431,0.007874
1567000,0.0324,0.013523,0.002678,0.000431,0.007404
1568000,0.0324,0.013523,0.002678,0.000431,0.009050
1569000,0.0324,0.013523,0.002678,0.000431,0.007874
1570000,0.0324,0.013523,0.002678,0.000431,0.009167
1571000,0.0324,0.013523,0.002678,0.000431,0.008462
1572000,0.0324,0.013523,0.002678,0.000431,0.008345
1573000,0.0324,0.013523,0.002678,0.000431,0.007287
1574000,0.0324,0.013523,0.002678,0.000431,0.008227
1575000,0.0324,0.013523,0.002678,0.000431,0.007639
1576000,0.0324,0.013523,0.002678,0.000431,0.007522
1577000,0.0324,0.013523,0.002678,0.000431,0.007639
1578000,0.0324,0.013523,0.002678,0.000431,0.007757
1579000,0.0324,0.013523,0.002678,0.000431,0.006582
1580000,0.0324,0.013523,0.002678,0.000431,0.008227
1581000,0.0324,0.013523,0.002678,0.000431,0.007757
1582000,0.0324,0.013523,0.002678,0.000431,0.007404
1583000,0.0324,0.013523,0.002678,0.000431,0.008345
1584000,0.0324,0.013523,0.002678,0.000431,0.006347
1585000,0.0324,0.013523,0.002678,0.000431,0.007404
1586000,0.0324,0.013523,0.002678,0.000431,0.007052
1587000,0.0324,0.013523,0.002678,0.000431,0.006347
1588000,0.0324,0.013523,0.002678,0.000431,0.006934
1589000,0.0324,0.013523,0.002678,0.000431,0.006347
1590000,0.0324,0.013523,0.002678,0.000431,0.005759
1591000,0.0324,0.013523,0.002678,0.000431,0.006464
1592000,0.0324,0.013523,0.002678,0.000431,0.007639
1593000,0.0324,0.013523,0.002678,0.000431,0.006347
1594000,0.0324,0.013523,0.002678,0.000431,0.007169
1595000,0.0324,0.013523,0.002678,0.000431,0.006582
1596000,0.0324,0.013523,0.002678,0.000431,0.006229
1597000,0.0324,0.013523,0.002678,0.000431,0.006699
1598000,0.0324,0.013523,0.002678,0.000431,0.005759
1599000,0.0324,0.013523,0.002678,0.000431,0.005641
1600000,0.0324,0.013523,0.002678,0.000431,0.005641
1601000,0.0324,0.013523,0.002678,0.000431,0.005994
1602000,0.0324,0.013523,0.002678,0.000431,0.005524
1603000,0.0324,0.013523,0.002678,0.000431,0.005994
1604000,0.0324,0.013523,0.002678,0.000431,0.005054
1605000,0.0324,0.013523,0.002678,0.000431,0.005406
1606000,0.0324,0.013523,0.002678,0.000431,0.006347
1607000,0.0324,0.013523,0.002678,0.000431,0.005171
1608000,0.0324,0.013523,0.002678,0.000431,0.004819
1609000,0.0324,0.013523,0.002678,0.000431,0.005171
1610000,0.0324,0.013523,0.002678,0.000431,0.005524
1611000,0.0324,0.013523,0.002678,0.000431,0.005406
1612000,0.0324,0.013523,0.002678,0.000431,0.004936
1613000,0.0324,0.013523,0.002678,0.000431,0.004466
1614000,0.0324,0.013523,0.002678,0.000431,0.005524
1615000,0.0324,0.013523,0.002678,0.000431,0.004231
1616000,0.0324,0.013523,0.002678,0.000431,0.004701
1617000,0.0324,0.013523,0.002678,0.000431,0.004466
1618000,0.0324,0.013523,0.002678,0.000431,0.004349
1619000,0.0324,0.013523,0.002678,0.000431,0.004584
1620000,0.0324,0.013523,0.002678,0.000431,0.004936
1621000,0.0324,0.013523,0.002678,0.000431,0.005054
1622000,0.0324,0.013523,0.002678,0.000431,0.004231
1623000,0.0324,0.013523,0.002678,0.000431,0.004584
1624000,0.0324,0.013523,0.002678,0.000431,0.004936
1625000,0.0324,0.013523,0.002678,0.000431,0.004349
1626000,0.0324,0.013523,0.002678,0.000431,0.003996
1627000,0.0324,0.013523,0.002678,0.000431,0.005054
1628000,0.0324,0.013523,0.002678,0.000431,0.004231
1629000,0.0324,0.013523,0.002678,0.000431,0.004701
1630000,0.0324,0.013523,0.002678,0.000431,0.004584
1631000,0.0324,0.013523,0.002678,0.000431,0.004466
1632000,0.0324,0.013523,0.002678,0.000431,0.004113
1633000,0.0324,0.013523,0.002678,0.000431,0.004584
1634000,0.0324,0.013523,0.002678,0.000431,0.005171
1635000,0.0324,0.013523,0.002678,0.000431,0.004231
1636000,0.0324,0.013523,0.002678,0.000431,0.004466
1637000,0.0324,0.013523,0.002678,0.000431,0.004113
1638000,0.0324,0.013523,0.002678,0.000431,0.004113
1639000,0.0324,0.013523,0.002678,0.000431,0.003643
1640000,0.0324,0.013523,0.002678,0.000431,0.003996
1641000,0.0324,0.013523,0.002678,0.000431,0.003878
1642000,0.0324,0.013523,0.002678,0.000431,0.004113
1643000,0.0324,0.013523,0.002678,0.000431,0.004231
1644000,0.0324,0.013523,0.002678,0.000431,0.003526
1645000,0.0324,0.013523,0.002678,0.000431,0.004113
1646000,0.0324,0.013523,0.002678,0.000431,0.004466
1647000,0.0324,0.013523,0.002678,0.000431,0.004584
1648000,0.0324,0.013523,0.002678,0.000431,0.004349
1649000,0.0324,0.013523,0.002678,0.000431,0.004113
1650000,0.0324,0.013523,0.002678,0.000431,0.003878
1651000,0.0324,0.013523,0.002678,0.000431,0.003996
1652000,0.0324,0.013523,0.002678,0.000431,0.003643
1653000,0.0324,0.013523,0.002678,0.000431,0.004231
1654000,0.0324,0.013523,0.002678,0.000431,0.003526
1655000,0.0324,0.013523,0.002678,0.000431,0.003643
1656000,0.0324,0.013523,0.002678,0.000431,0.004231
1657000,0.0324,0.013523,0.002678,0.000431,0.003643
1658000,0.0324,0.013523,0.002678,0.000431,0.003526
1659000,0.0324,0.013523,0.002678,0.000431,0.003996
1660000,0.0324,0.013523,0.002678,0.000431,0.002938
1661000,0.0324,0.013523,0.002678,0.000431,0.003056
1662000,0.0324,0.013523,0.002678,0.000431,0.003526
1663000,0.0324,0.013523,0.002678,0.000431,0.003643
1664000,0.0324,0.013523,0.002678,0.000431,0.003761
1665000,0.0324,0.013523,0.002678,0.000431,0.003761
1666000,0.0324,0.013523,0.002678,0.000431,0.003761
1667000,0.0324,0.013523,0.002678,0.000431,0.003643
1668000,0.0324,0.013523,0.002678,0.000431,0.003643
1669000,0.0324,0.013523,0.002678,0.000431,0.003526
1670000,0.0324,0.013523,0.002678,0.000431,0.003173
1671000,0.0324,0.013523,0.002678,0.000431,0.003643
1672000,0.0324,0.013523,0.002678,0.000431,0.003526
1673000,0.0324,0.013523,0.002678,0.000431,0.003643
1674000,0.0324,0.013523,0.002678,0.000431,0.003408
1675000,0.0324,0.013523,0.002678,0.000431,0.003291
1676000,0.0324,0.013523,0.002678,0.000431,0.003173
1677000,0.0324,0.013523,0.002678,0.000431,0.002703
1678000,0.0324,0.013523,0.002678,0.000431,0.002821
1679000,0.0324,0.013523,0.002678,0.000431,0.002821
1680000,0.0324,0.013523,0.002678,0.000431,0.003761
1681000,0.0324,0.013523,0.002678,0.000431,0.003291
1682000,0.0324,0.013523,0.002678,0.000431,0.003173
1683000,0.0324,0.013523,0.002678,0.000431,0.002703
1684000,0.0324,0.013523,0.002678,0.000431,0.003878
1685000,0.0324,0.013523,0.002678,0.000431,0.003173
1686000,0.0324,0.013523,0.002678,0.000431,0.003056
1687000,0.0324,0.013523,0.002678,0.000431,0.003173
1688000,0.0324,0.013523,0.002678,0.000431,0.003291
1689000,0.0324,0.013523,0.002678,0.000431,0.003643
1690000,0.0324,0.013523,0.002678,0.000431,0.003761
1691000,0.0324,0.013523,0.002678,0.000431,0.003526
1692000,0.0324,0.013523,0.002678,0.000431,0.003408
1693000,0.0324,0.013523,0.002678,0.000431,0.003996
1694000,0.0324,0.013523,0.002678,0.000431,0.003408
1695000,0.0324,0.013523,0.002678,0.000431,0.003173
1696000,0.0324,0.013523,0.002678,0.000431,0.003291
1697000,0.0324,0.013523,0.002678,0.000431,0.003526
1698000,0.0324,0.013523,0.002678,0.000431,0.003643
1699000,0.0324,0.013523,0.002678,0.000431,0.003056
1700000,0.0324,0.013523,0.002678,0.000431,0.002703
1701000,0.0324,0.013523,0.002678,0.000431,0.002586
1702000,0.0324,0.013523,0.002678,0.000431,0.003056
1703000,0.0324,0.013523,0.002678,0.000431,0.002586
1704000,0.0324,0.013523,0.002678,0.000431,0.002703
1705000,0.0324,0.013523,0.002678,0.000431,0.002351
1706000,0.0324,0.013523,0.002678,0.000431,0.002468
1707000,0.0324,0.013523,0.002678,0.000431,0.001998
1708000,0.0324,0.013523,0.002678,0.000431,0.002468
1709000,0.0324,0.013523,0.002678,0.000431,0.002468
1710000,0.0324,0.013523,0.002678,0.000431,0.002233
1711000,0.0324,0.013523,0.002678,0.000431,0.002586
1712000,0.0324,0.013523,0.002678,0.000431,0.002233
1713000,0.0324,0.013523,0.002678,0.000431,0.002586
1714000,0.0324,0.013523,0.002678,0.000431,0.002468
1715000,0.0324,0.013523,0.002678,0.000431,0.002586
1716000,0.0324,0.013523,0.002678,0.000431,0.002586
1717000,0.0324,0.013523,0.002678,0.000431,0.002233
1718000,0.0324,0.013523,0.002678,0.000431,0.002116
1719000,0.0324,0.013523,0.002678,0.000431,0.002233
1720000,0.0324,0.013523,0.002678,0.000431,0.002468
1721000,0.0324,0.013523,0.002678,0.000431,0.001880
1722000,0.0324,0.013523,0.002678,0.000431,0.002468
1723000,0.0324,0.013523,0.002678,0.000431,0.002468
1724000,0.0324,0.013523,0.002678,0.000431,0.002703
1725000,0.0324,0.013523,0.002678,0.000431,0.002703
1726000,0.0324,0.013523,0.002678,0.000431,0.002938
1727000,0.0324,0.013523,0.002678,0.000431,0.002468
1728000,0.0324,0.013523,0.002678,0.000431,0.002233
1729000,0.0324,0.013523,0.002678,0.000431,0.001880
1730000,0.0324,0.013523,0.002678,0.000431,0.001763
1731000,0.0324,0.013523,0.002678,0.000431,0.001763
1732000,0.0324,0.013523,0.002678,0.000431,0.001998
1733000,0.0324,0.013523,0.002678,0.000431,0.001880
1734000,0.0324,0.013523,0.002678,0.000431,0.001175
1735000,0.0324,0.013523,0.002678,0.000431,0.001293
1736000,0.0324,0.013523,0.002678,0.000431,0.001880
1737000,0.0324,0.013523,0.002678,0.000431,0.001763
1738000,0.0324,0.013523,0.002678,0.000431,0.001763
1739000,0.0324,0.013523,0.002678,0.000431,0.002116
1740000,0.0324,0.013523,0.002678,0.000431,0.001998
1741000,0.0324,0.013523,0.002678,0.000431,0.001880
1742000,0.0324,0.013523,0.002678,0.000431,0.001763
1743000,0.0324,0.013523,0.002678,0.000431,0.001763
1744000,0.0324,0.013523,0.002678,0.000431,0.001763
1745000,0.0324,0.013523,0.002678,0.000431,0.001645
1746000,0.0324,0.013523,0.002678,0.000431,0.001763
1747000,0.0324,0.013523,0.002678,0.000431,0.002116
1748000,0.0324,0.013523,0.002678,0.000431,0.001998
1749000,0.0324,0.013523,0.002678,0.000431,0.001645
1750000,0.0324,0.013523,0.002678,0.000431,0.001763
1751000,0.0324,0.013523,0.002678,0.000431,0.001645
1752000,0.0324,0.013523,0.002678,0.000431,0.001763
1753000,0.0324,0.013523,0.002678,0.000431,0.001880
1754000,0.0324,0.013523,0.002678,0.000431,0.001880
1755000,0.0324,0.013523,0.002678,0.000431,0.001528
1756000,0.0324,0.013523,0.002678,0.000431,0.001880
1757000,0.0324,0.013523,0.002678,0.000431,0.001998
1758000,0.0324,0.013523,0.002678,0.000431,0.001763
1759000,0.0324,0.013523,0.002678,0.000431,0.001528
1760000,0.0324,0.013523,0.002678,0.000431,0.002116
1761000,0.0324,0.013523,0.002678,0.000431,0.001880
1762000,0.0324,0.013523,0.002678,0.000431,0.001645
1763000,0.0324,0.013523,0.002678,0.000431,0.001880
1764000,0.0324,0.013523,0.002678,0.000431,0.001763
1765000,0.0324,0.013523,0.002678,0.000431,0.001998
1766000,0.0324,0.013523,0.002678,0.000431,0.001763
1767000,0.0324,0.013523,0.002678,0.000431,0.001998
1768000,0.0324,0.013523,0.002678,0.000431,0.001880
1769000,0.0324,0.013523,0.002678,0.000431,0.002116
1770000,0.0324,0.013523,0.002678,0.000431,0.001528
1771000,0.0324,0.013523,0.002678,0.000431,0.001763
1772000,0.0324,0.013523,0.002678,0.000431,0.001645
1773000,0.0324,0.013523,0.002678,0.000431,0.001645
1774000,0.0324,0.013523,0.002678,0.000431,0.001880
1775000,0.0324,0.013523,0.002678,0.000431,0.001880
1776000,0.0324,0.013523,0.002678,0.000431,0.001880
1777000,0.0324,0.013523,0.002678,0.000431,0.001645
1778000,0.0324,0.013523,0.002678,0.000431,0.001880
1779000,0.0324,0.013523,0.002678,0.000431,0.001763
1780000,0.0324,0.013523,0.002678,0.000431,0.001645
1781000,0.0324,0.013523,0.002678,0.000431,0.001645
1782000,0.0324,0.013523,0.002678,0.000431,0.001763
1783000,0.0324,0.013523,0.002678,0.000431,0.001528
1784000,0.0324,0.013523,0.002678,0.000431,0.001645
1785000,0.0324,0.013523,0.002678,0.000431,0.001645
1786000,0.0324,0.013523,0.002678,0.000431,0.001645
1787000,0.0324,0.013523,0.002678,0.000431,0.001645
1788000,0.0324,0.013523,0.002678,0.000431,0.001763
1789000,0.0324,0.013523,0.002678,0.000431,0.001763
1790000,0.0324,0.013523,0.002678,0.000431,0.001763
1791000,0.0324,0.013523,0.002678,0.000431,0.001645
1792000,0.0324,0.013523,0.002678,0.000431,0.001763
1793000,0.0324,0.013523,0.002678,0.000431,0.001880
1794000,0.0324,0.013523,0.002678,0.000431,0.001763
1795000,0.0324,0.013523,0.002678,0.000431,0.001880
1796000,0.0324,0.013523,0.002678,0.000431,0.001880
1797000,0.0324,0.013523,0.002678,0.000431,0.001528
1798000,0.0324,0.013523,0.002678,0.000431,0.001880
1799000,0.0324,0.013523,0.002678,0.000431,0.001763
1800000,0.0324,0.013523,0.002678,0.000431,0.001763
1801000,0.0324,0.013523,0.002678,0.000431,0.002116
1802000,0.0324,0.013523,0.002678,0.000431,0.001528
1803000,0.0324,0.013523,0.002678,0.000431,0.001998
1804000,0.0324,0.013523,0.002678,0.000431,0.001763
1805000,0.0324,0.013523,0.002678,0.000431,0.001528
1806000,0.0324,0.013523,0.002678,0.000431,0.001763
1807000,0.0324,0.013523,0.002678,0.000431,0.001645
1808000,0.0324,0.013523,0.002678,0.000431,0.001645
1809000,0.0324,0.013523,0.002678,0.000431,0.001763
1810000,0.0324,0.013523,0.002678,0.000431,0.001763
1811000,0.0324,0.013523,0.002678,0.000431,0.001763
1812000,0.0324,0.013523,0.002678,0.000431,0.001645
1813000,0.0324,0.013523,0.002678,0.000431,0.001645
1814000,0.0324,0.013523,0.002678,0.000431,0.001763
1815000,0.0324,0.013523,0.002678,0.000431,0.001763
1816000,0.0324,0.013523,0.002678,0.000431,0.001880
1817000,0.0324,0.013523,0.002678,0.000431,0.001880
1818000,0.0324,0.013523,0.002678,0.000431,0.001998
1819000,0.0324,0.013523,0.002678,0.000431,0.001528
1820000,0.0324,0.013523,0.002678,0.000431,0.001645
1821000,0.0324,0.013523,0.002678,0.000431,0.001880
1822000,0.0324,0.013523,0.002678,0.000431,0.001763
1823000,0.0324,0.013523,0.002678,0.000431,0.002116
1824000,0.0324,0.013523,0.002678,0.000431,0.001763
1825000,0.0324,0.013523,0.002678,0.000431,0.001763
1826000,0.0324,0.013523,0.002678,0.000431,0.001880
1827000,0.0324,0.013523,0.002678,0.000431,0.001763
1828000,0.0324,0.013523,0.002678,0.000431,0.001645
1829000,0.0324,0.013523,0.002678,0.000431,0.001645
1830000,0.0324,0.013523,0.002678,0.000431,0.001880
1831000,0.0324,0.013523,0.002678,0.000431,0.001880
1832000,0.0324,0.013523,0.002678,0.000431,0.001645
1833000,0.0324,0.013523,0.002678,0.000431,0.001880
1834000,0.0324,0.013523,0.002678,0.000431,0.001880
1835000,0.0324,0.013523,0.002678,0.000431,0.001763
1836000,0.0324,0.013523,0.002678,0.000431,0.001763
1837000,0.0324,0.013523,0.002678,0.000431,0.001410
1838000,0.0324,0.013523,0.002678,0.000431,0.001763
1839000,0.0324,0.013523,0.002678,0.000431,0.002116
1840000,0.0324,0.013523,0.002678,0.000431,0.001763
1841000,0.0324,0.013523,0.002678,0.000431,0.001528
1842000,0.0324,0.013523,0.002678,0.000431,0.001763
1843000,0.0324,0.013523,0.002678,0.000431,0.001410
1844000,0.0324,0.013523,0.002678,0.000431,0.001763
1845000,0.0324,0.013523,0.002678,0.000431,0.001763
1846000,0.0324,0.013523,0.002678,0.000431,0.001998
1847000,0.0324,0.013523,0.002678,0.000431,0.001763
1848000,0.0324,0.013523,0.002678,0.000431,0.001763
1849000,0.0324,0.013523,0.002678,0.000431,0.001763
1850000,0.0324,0.013523,0.002678,0.000431,0.001645
1851000,0.0324,0.013523,0.002678,0.000431,0.001880
1852000,0.0324,0.013523,0.002678,0.000431,0.001763
1853000,0.0324,0.013523,0.002678,0.000431,0.001763
1854000,0.0324,0.013523,0.002678,0.000431,0.001763
1855000,0.0324,0.013523,0.002678,0.000431,0.001763
1856000,0.0324,0.013523,0.002678,0.000431,0.002116
1857000,0.0324,0.013523,0.002678,0.000431,0.001880
1858000,0.0324,0.013523,0.002678,0.000431,0.001998
1859000,0.0324,0.013523,0.002678,0.000431,0.001880
1860000,0.0324,0.013523,0.002678,0.000431,0.002116
1861000,0.0324,0.013523,0.002678,0.000431,0.001763
1862000,0.0324,0.013523,0.002678,0.000431,0.001763
1863000,0.0324,0.013523,0.002678,0.000431,0.001763
1864000,0.0324,0.013523,0.002678,0.000431,0.001293
1865000,0.0324,0.013523,0.002678,0.000431,0.002116
1866000,0.0324,0.013523,0.002678,0.000431,0.001645
1867000,0.0324,0.013523,0.002678,0.000431,0.001763
1868000,0.0324,0.013523,0.002678,0.000431,0.001645
1869000,0.0324,0.013523,0.002678,0.000431,0.001998
1870000,0.0324,0.013523,0.002678,0.000431,0.001528
1871000,0.0324,0.013523,0.002678,0.000431,0.001528
1872000,0.0324,0.013523,0.002678,0.000431,0.001528
1873000,0.0324,0.013523,0.002678,0.000431,0.001645
1874000,0.0324,0.013523,0.002678,0.000431,0.001763
1875000,0.0324,0.013523,0.002678,0.000431,0.001645
1876000,0.0324,0.013523,0.002678,0.000431,0.001763
1877000,0.0324,0.013523,0.002678,0.000431,0.001645
1878000,0.0324,0.013523,0.002678,0.000431,0.001645
1879000,0.0324,0.013523,0.002678,0.000431,0.001645
1880000,0.0324,0.013523,0.002678,0.000431,0.001528
1881000,0.0324,0.013523,0.002678,0.000431,0.001528
1882000,0.0324,0.013523,0.002678,0.000431,0.001645
1883000,0.0324,0.013523,0.002678,0.000431,0.001410
1884000,0.0324,0.013523,0.002678,0.000431,0.001528
1885000,0.0324,0.013523,0.002678,0.000431,0.001528
1886000,0.0324,0.013523,0.002678,0.000431,0.001880
1887000,0.0324,0.013523,0.002678,0.000431,0.001645
1888000,0.0324,0.013523,0.002678,0.000431,0.001998
1889000,0.0324,0.013523,0.002678,0.000431,0.001763
1890000,0.0324,0.013523,0.002678,0.000431,0.001175
1891000,0.0324,0.013523,0.002678,0.000431,0.001763
1892000,0.0324,0.013523,0.002678,0.000431,0.001763
1893000,0.0324,0.013523,0.002678,0.000431,0.001763
1894000,0.0324,0.013523,0.002678,0.000431,0.001998
1895000,0.0324,0.013523,0.002678,0.000431,0.001645
1896000,0.0324,0.013523,0.002678,0.000431,0.001645
1897000,0.0324,0.013523,0.002678,0.000431,0.001880
1898000,0.0324,0.013523,0.002678,0.000431,0.001880
1899000,0.0324,0.013523,0.002678,0.000431,0.001763
1900000,0.0324,0.013523,0.002678,0.000431,0.001763
1901000,0.0324,0.013523,0.002678,0.000431,0.001645
1902000,0.0324,0.013523,0.002678,0.000431,0.001763
1903000,0.0324,0.013523,0.002678,0.000431,0.001763
1904000,0.0324,0.013523,0.002678,0.000431,0.001645
1905000,0.0324,0.013523,0.002678,0.000431,0.001645
1906000,0.0324,0.013523,0.002678,0.000431,0.001880
1907000,0.0324,0.013523,0.002678,0.000431,0.001645
1908000,0.0324,0.013523,0.002678,0.000431,0.001293
1909000,0.0324,0.013523,0.002678,0.000431,0.001410
1910000,0.0324,0.013523,0.002678,0.000431,0.001528
1911000,0.0324,0.013523,0.002678,0.000431,0.001998
1912000,0.0324,0.013523,0.002678,0.000431,0.001763
1913000,0.0324,0.013523,0.002678,0.000431,0.001410
1914000,0.0324,0.013523,0.002678,0.000431,0.001763
1915000,0.0324,0.013523,0.002678,0.000431,0.001293
1916000,0.0324,0.013523,0.002678,0.000431,0.001645
1917000,0.0324,0.013523,0.002678,0.000431,0.001293
1918000,0.0324,0.013523,0.002678,0.000431,0.001880
1919000,0.0324,0.013523,0.002678,0.000431,0.001410
1920000,0.0324,0.013523,0.002678,0.000431,0.001645
1921000,0.0324,0.013523,0.002678,0.000431,0.002116
1922000,0.0324,0.013523,0.002678,0.000431,0.001763
1923000,0.0324,0.013523,0.002678,0.000431,0.001645
1924000,0.0324,0.013523,0.002678,0.000431,0.001763
1925000,0.0324,0.013523,0.002678,0.000431,0.001645
1926000,0.0324,0.013523,0.002678,0.000431,0.001528
1927000,0.0324,0.013523,0.002678,0.000431,0.001763
1928000,0.0324,0.013523,0.002678,0.000431,0.001880
1929000,0.0324,0.013523,0.002678,0.000431,0.001998
1930000,0.0324,0.013523,0.002678,0.000431,0.001528
1931000,0.0324,0.013523,0.002678,0.000431,0.001645
1932000,0.0324,0.013523,0.002678,0.000431,0.001880
1933000,0.0324,0.013523,0.002678,0.000431,0.001763
1934000,0.0324,0.013523,0.002678,0.000431,0.001410
1935000,0.0324,0.013523,0.002678,0.000431,0.001880
1936000,0.0324,0.013523,0.002678,0.000431,0.001645
1937000,0.0324,0.013523,0.002678,0.000431,0.001998
1938000,0.0324,0.013523,0.002678,0.000431,0.001763
1939000,0.0324,0.013523,0.002678,0.000431,0.001880
1940000,0.0324,0.013523,0.002678,0.000431,0.001998
1941000,0.0324,0.013523,0.002678,0.000431,0.001645
1942000,0.0324,0.013523,0.002678,0.000431,0.001645
1943000,0.0324,0.013523,0.002678,0.000431,0.001293
1944000,0.0324,0.013523,0.002678,0.000431,0.001645
1945000,0.0324,0.013523,0.002678,0.000431,0.001880
1946000,0.0324,0.013523,0.002678,0.000431,0.001763
1947000,0.0324,0.013523,0.002678,0.000431,0.001880
1948000,0.0324,0.013523,0.002678,0.000431,0.001645
1949000,0.0324,0.013523,0.002678,0.000431,0.001645
1950000,0.0324,0.013523,0.002678,0.000431,0.001998
1951000,0.0324,0.013523,0.002678,0.000431,0.001645
1952000,0.0324,0.013523,0.002678,0.000431,0.001880
1953000,0.0324,0.013523,0.002678,0.000431,0.001645
1954000,0.0324,0.013523,0.002678,0.000431,0.002116
1955000,0.0324,0.013523,0.002678,0.000431,0.001528
1956000,0.0324,0.013523,0.002678,0.000431,0.001880
1957000,0.0324,0.013523,0.002678,0.000431,0.001763
1958000,0.0324,0.013523,0.002678,0.000431,0.001528
1959000,0.0324,0.013523,0.002678,0.000431,0.002116
1960000,0.0324,0.013523,0.002678,0.000431,0.001880
1961000,0.0324,0.013523,0.002678,0.000431,0.001880
1962000,0.0324,0.013523,0.002678,0.000431,0.001528
1963000,0.0324,0.013523,0.002678,0.000431,0.001528
1964000,0.0324,0.013523,0.002678,0.000431,0.001763
1965000,0.0324,0.013523,0.002678,0.000431,0.001998
1966000,0.0324,0.013523,0.002678,0.000431,0.001410
1967000,0.0324,0.013523,0.002678,0.000431,0.001528
1968000,0.0324,0.013523,0.002678,0.000431,0.001763
1969000,0.0324,0.013523,0.002678,0.000431,0.001880
1970000,0.0324,0.013523,0.002678,0.000431,0.001763
1971000,0.0324,0.013523,0.002678,0.000431,0.001528
1972000,0.0324,0.013523,0.002678,0.000431,0.001528
1973000,0.0324,0.013523,0.002678,0.000431,0.001410
1974000,0.0324,0.013523,0.002678,0.000431,0.001880
1975000,0.0324,0.013523,0.002678,0.000431,0.001880
1976000,0.0324,0.013523,0.002678,0.000431,0.001410
1977000,0.0324,0.013523,0.002678,0.000431,0.001998
1978000,0.0324,0.013523,0.002678,0.000431,0.001528
1979000,0.0324,0.013523,0.002678,0.000431,0.001880
1980000,0.0324,0.013523,0.002678,0.000431,0.001763
1981000,0.0324,0.013523,0.002678,0.000431,0.001645
1982000,0.0324,0.013523,0.002678,0.000431,0.001763
1983000,0.0324,0.013523,0.002678,0.000431,0.001645
1984000,0.0324,0.013523,0.002678,0.000431,0.001998
1985000,0.0324,0.013523,0.002678,0.000431,0.001880
1986000,0.0324,0.013523,0.002678,0.000431,0.001528
1987000,0.0324,0.013523,0.002678,0.000431,0.001645
1988000,0.0324,0.013523,0.002678,0.000431,0.001528
1989000,0.0324,0.013523,0.002678,0.000431,0.000823
1990000,0.0324,0.013523,0.002678,0.000431,0.001528
1991000,0.0324,0.013523,0.002678,0.000431,0.001763
1992000,0.0324,0.013523,0.002678,0.000431,0.001410
1993000,0.0324,0.013523,0.002678,0.000431,0.001528
1994000,0.0324,0.013523,0.002678,0.000431,0.001410
1995000,0.0324,0.013523,0.002678,0.000431,0.001998
1996000,0.0324,0.013523,0.002678,0.000431,0.001880
1997000,0.0324,0.013523,0.002678,0.000431,0.001645
1998000,0.0324,0.013523,0.002678,0.000431,0.001528
1999000,0.0324,0.013523,0.002678,0.000431,0.001645
