Cycle,Area(mm^2),PeakDynamic(W),SubthresholdLeakage(W),GateLeakage(W),RunTimeDynamic(W)
54000000,0.0324,0.013523,0.002678,0.000431,0.000470
54001000,0.0324,0.013523,0.002678,0.000431,0.000705
54002000,0.0324,0.013523,0.002678,0.000431,0.000353
54003000,0.0324,0.013523,0.002678,0.000431,0.000705
54004000,0.0324,0.013523,0.002678,0.000431,0.000470
54005000,0.0324,0.013523,0.002678,0.000431,0.000470
54006000,0.0324,0.013523,0.002678,0.000431,0.000470
54007000,0.0324,0.013523,0.002678,0.000431,0.000470
54008000,0.0324,0.013523,0.002678,0.000431,0.000470
54009000,0.0324,0.013523,0.002678,0.000431,0.000470
54010000,0.0324,0.013523,0.002678,0.000431,0.000470
54011000,0.0324,0.013523,0.002678,0.000431,0.000470
54012000,0.0324,0.013523,0.002678,0.000431,0.000470
54013000,0.0324,0.013523,0.002678,0.000431,0.000470
54014000,0.0324,0.013523,0.002678,0.000431,0.000470
54015000,0.0324,0.013523,0.002678,0.000431,0.000470
54016000,0.0324,0.013523,0.002678,0.000431,0.000470
54017000,0.0324,0.013523,0.002678,0.000431,0.000470
54018000,0.0324,0.013523,0.002678,0.000431,0.000353
54019000,0.0324,0.013523,0.002678,0.000431,0.000588
54020000,0.0324,0.013523,0.002678,0.000431,0.000353
54021000,0.0324,0.013523,0.002678,0.000431,0.000588
54022000,0.0324,0.013523,0.002678,0.000431,0.000353
54023000,0.0324,0.013523,0.002678,0.000431,0.000588
54024000,0.0324,0.013523,0.002678,0.000431,0.000353
54025000,0.0324,0.013523,0.002678,0.000431,0.000705
54026000,0.0324,0.013523,0.002678,0.000431,0.000353
54027000,0.0324,0.013523,0.002678,0.000431,0.000588
54028000,0.0324,0.013523,0.002678,0.000431,0.000353
54029000,0.0324,0.013523,0.002678,0.000431,0.000705
54030000,0.0324,0.013523,0.002678,0.000431,0.000588
54031000,0.0324,0.013523,0.002678,0.000431,0.000470
54032000,0.0324,0.013523,0.002678,0.000431,0.000705
54033000,0.0324,0.013523,0.002678,0.000431,0.000353
54034000,0.0324,0.013523,0.002678,0.000431,0.000588
54035000,0.0324,0.013523,0.002678,0.000431,0.000353
54036000,0.0324,0.013523,0.002678,0.000431,0.000588
54037000,0.0324,0.013523,0.002678,0.000431,0.000353
54038000,0.0324,0.013523,0.002678,0.000431,0.000470
54039000,0.0324,0.013523,0.002678,0.000431,0.000470
54040000,0.0324,0.013523,0.002678,0.000431,0.000470
54041000,0.0324,0.013523,0.002678,0.000431,0.000470
54042000,0.0324,0.013523,0.002678,0.000431,0.000470
54043000,0.0324,0.013523,0.002678,0.000431,0.000353
54044000,0.0324,0.013523,0.002678,0.000431,0.000588
54045000,0.0324,0.013523,0.002678,0.000431,0.000470
54046000,0.0324,0.013523,0.002678,0.000431,0.000470
54047000,0.0324,0.013523,0.002678,0.000431,0.000353
54048000,0.0324,0.013523,0.002678,0.000431,0.000588
54049000,0.0324,0.013523,0.002678,0.000431,0.000353
54050000,0.0324,0.013523,0.002678,0.000431,0.000588
54051000,0.0324,0.013523,0.002678,0.000431,0.000353
54052000,0.0324,0.013523,0.002678,0.000431,0.000588
54053000,0.0324,0.013523,0.002678,0.000431,0.000470
54054000,0.0324,0.013523,0.002678,0.000431,0.000470
54055000,0.0324,0.013523,0.002678,0.000431,0.000470
54056000,0.0324,0.013523,0.002678,0.000431,0.000470
54057000,0.0324,0.013523,0.002678,0.000431,0.000353
54058000,0.0324,0.013523,0.002678,0.000431,0.000588
54059000,0.0324,0.013523,0.002678,0.000431,0.000353
54060000,0.0324,0.013523,0.002678,0.000431,0.000705
54061000,0.0324,0.013523,0.002678,0.000431,0.000470
54062000,0.0324,0.013523,0.002678,0.000431,0.000705
54063000,0.0324,0.013523,0.002678,0.000431,0.000235
54064000,0.0324,0.013523,0.002678,0.000431,0.000705
54065000,0.0324,0.013523,0.002678,0.000431,0.000353
54066000,0.0324,0.013523,0.002678,0.000431,0.000705
54067000,0.0324,0.013523,0.002678,0.000431,0.000353
54068000,0.0324,0.013523,0.002678,0.000431,0.000588
54069000,0.0324,0.013523,0.002678,0.000431,0.000353
54070000,0.0324,0.013523,0.002678,0.000431,0.000588
54071000,0.0324,0.013523,0.002678,0.000431,0.000353
54072000,0.0324,0.013523,0.002678,0.000431,0.000588
54073000,0.0324,0.013523,0.002678,0.000431,0.000353
54074000,0.0324,0.013523,0.002678,0.000431,0.000705
54075000,0.0324,0.013523,0.002678,0.000431,0.000353
54076000,0.0324,0.013523,0.002678,0.000431,0.000588
54077000,0.0324,0.013523,0.002678,0.000431,0.000353
54078000,0.0324,0.013523,0.002678,0.000431,0.000588
54079000,0.0324,0.013523,0.002678,0.000431,0.000353
54080000,0.0324,0.013523,0.002678,0.000431,0.000588
54081000,0.0324,0.013523,0.002678,0.000431,0.000353
54082000,0.0324,0.013523,0.002678,0.000431,0.000588
54083000,0.0324,0.013523,0.002678,0.000431,0.000353
54084000,0.0324,0.013523,0.002678,0.000431,0.000588
54085000,0.0324,0.013523,0.002678,0.000431,0.000353
54086000,0.0324,0.013523,0.002678,0.000431,0.000588
54087000,0.0324,0.013523,0.002678,0.000431,0.000353
54088000,0.0324,0.013523,0.002678,0.000431,0.000588
54089000,0.0324,0.013523,0.002678,0.000431,0.000470
54090000,0.0324,0.013523,0.002678,0.000431,0.000470
54091000,0.0324,0.013523,0.002678,0.000431,0.000470
54092000,0.0324,0.013523,0.002678,0.000431,0.000705
54093000,0.0324,0.013523,0.002678,0.000431,0.000353
54094000,0.0324,0.013523,0.002678,0.000431,0.000588
54095000,0.0324,0.013523,0.002678,0.000431,0.000353
54096000,0.0324,0.013523,0.002678,0.000431,0.000705
54097000,0.0324,0.013523,0.002678,0.000431,0.000470
54098000,0.0324,0.013523,0.002678,0.000431,0.000588
54099000,0.0324,0.013523,0.002678,0.000431,0.000353
54100000,0.0324,0.013523,0.002678,0.000431,0.000470
54101000,0.0324,0.013523,0.002678,0.000431,0.000470
54102000,0.0324,0.013523,0.002678,0.000431,0.000470
54103000,0.0324,0.013523,0.002678,0.000431,0.000470
54104000,0.0324,0.013523,0.002678,0.000431,0.000470
54105000,0.0324,0.013523,0.002678,0.000431,0.000470
54106000,0.0324,0.013523,0.002678,0.000431,0.000470
54107000,0.0324,0.013523,0.002678,0.000431,0.000470
54108000,0.0324,0.013523,0.002678,0.000431,0.000470
54109000,0.0324,0.013523,0.002678,0.000431,0.000470
54110000,0.0324,0.013523,0.002678,0.000431,0.000470
54111000,0.0324,0.013523,0.002678,0.000431,0.000470
54112000,0.0324,0.013523,0.002678,0.000431,0.000470
54113000,0.0324,0.013523,0.002678,0.000431,0.000470
54114000,0.0324,0.013523,0.002678,0.000431,0.000470
54115000,0.0324,0.013523,0.002678,0.000431,0.000353
54116000,0.0324,0.013523,0.002678,0.000431,0.000588
54117000,0.0324,0.013523,0.002678,0.000431,0.000353
54118000,0.0324,0.013523,0.002678,0.000431,0.000588
54119000,0.0324,0.013523,0.002678,0.000431,0.000353
54120000,0.0324,0.013523,0.002678,0.000431,0.000588
54121000,0.0324,0.013523,0.002678,0.000431,0.000353
54122000,0.0324,0.013523,0.002678,0.000431,0.000588
54123000,0.0324,0.013523,0.002678,0.000431,0.000353
54124000,0.0324,0.013523,0.002678,0.000431,0.000470
54125000,0.0324,0.013523,0.002678,0.000431,0.000353
54126000,0.0324,0.013523,0.002678,0.000431,0.000588
54127000,0.0324,0.013523,0.002678,0.000431,0.000353
54128000,0.0324,0.013523,0.002678,0.000431,0.000588
54129000,0.0324,0.013523,0.002678,0.000431,0.000353
54130000,0.0324,0.013523,0.002678,0.000431,0.000588
54131000,0.0324,0.013523,0.002678,0.000431,0.000353
54132000,0.0324,0.013523,0.002678,0.000431,0.000588
54133000,0.0324,0.013523,0.002678,0.000431,0.000353
54134000,0.0324,0.013523,0.002678,0.000431,0.000588
54135000,0.0324,0.013523,0.002678,0.000431,0.000353
54136000,0.0324,0.013523,0.002678,0.000431,0.000588
54137000,0.0324,0.013523,0.002678,0.000431,0.000353
54138000,0.0324,0.013523,0.002678,0.000431,0.000588
54139000,0.0324,0.013523,0.002678,0.000431,0.000353
54140000,0.0324,0.013523,0.002678,0.000431,0.000588
54141000,0.0324,0.013523,0.002678,0.000431,0.000353
54142000,0.0324,0.013523,0.002678,0.000431,0.000470
54143000,0.0324,0.013523,0.002678,0.000431,0.000470
54144000,0.0324,0.013523,0.002678,0.000431,0.000470
54145000,0.0324,0.013523,0.002678,0.000431,0.000470
54146000,0.0324,0.013523,0.002678,0.000431,0.000470
54147000,0.0324,0.013523,0.002678,0.000431,0.000470
54148000,0.0324,0.013523,0.002678,0.000431,0.000470
54149000,0.0324,0.013523,0.002678,0.000431,0.000588
54150000,0.0324,0.013523,0.002678,0.000431,0.000353
54151000,0.0324,0.013523,0.002678,0.000431,0.000470
54152000,0.0324,0.013523,0.002678,0.000431,0.000470
54153000,0.0324,0.013523,0.002678,0.000431,0.000588
54154000,0.0324,0.013523,0.002678,0.000431,0.000353
54155000,0.0324,0.013523,0.002678,0.000431,0.000588
54156000,0.0324,0.013523,0.002678,0.000431,0.000353
54157000,0.0324,0.013523,0.002678,0.000431,0.000588
54158000,0.0324,0.013523,0.002678,0.000431,0.000353
54159000,0.0324,0.013523,0.002678,0.000431,0.000588
54160000,0.0324,0.013523,0.002678,0.000431,0.000353
54161000,0.0324,0.013523,0.002678,0.000431,0.000588
54162000,0.0324,0.013523,0.002678,0.000431,0.000353
54163000,0.0324,0.013523,0.002678,0.000431,0.000588
54164000,0.0324,0.013523,0.002678,0.000431,0.000353
54165000,0.0324,0.013523,0.002678,0.000431,0.000588
54166000,0.0324,0.013523,0.002678,0.000431,0.000353
54167000,0.0324,0.013523,0.002678,0.000431,0.000470
54168000,0.0324,0.013523,0.002678,0.000431,0.000470
54169000,0.0324,0.013523,0.002678,0.000431,0.000705
54170000,0.0324,0.013523,0.002678,0.000431,0.000470
54171000,0.0324,0.013523,0.002678,0.000431,0.000470
54172000,0.0324,0.013523,0.002678,0.000431,0.000353
54173000,0.0324,0.013523,0.002678,0.000431,0.000588
54174000,0.0324,0.013523,0.002678,0.000431,0.000353
54175000,0.0324,0.013523,0.002678,0.000431,0.000588
54176000,0.0324,0.013523,0.002678,0.000431,0.000353
54177000,0.0324,0.013523,0.002678,0.000431,0.000588
54178000,0.0324,0.013523,0.002678,0.000431,0.000353
54179000,0.0324,0.013523,0.002678,0.000431,0.000588
54180000,0.0324,0.013523,0.002678,0.000431,0.000353
54181000,0.0324,0.013523,0.002678,0.000431,0.000588
54182000,0.0324,0.013523,0.002678,0.000431,0.000353
54183000,0.0324,0.013523,0.002678,0.000431,0.000588
54184000,0.0324,0.013523,0.002678,0.000431,0.000353
54185000,0.0324,0.013523,0.002678,0.000431,0.000705
54186000,0.0324,0.013523,0.002678,0.000431,0.000353
54187000,0.0324,0.013523,0.002678,0.000431,0.000705
54188000,0.0324,0.013523,0.002678,0.000431,0.000470
54189000,0.0324,0.013523,0.002678,0.000431,0.000470
54190000,0.0324,0.013523,0.002678,0.000431,0.000470
54191000,0.0324,0.013523,0.002678,0.000431,0.000470
54192000,0.0324,0.013523,0.002678,0.000431,0.000470
54193000,0.0324,0.013523,0.002678,0.000431,0.000470
54194000,0.0324,0.013523,0.002678,0.000431,0.000470
54195000,0.0324,0.013523,0.002678,0.000431,0.000470
54196000,0.0324,0.013523,0.002678,0.000431,0.000470
54197000,0.0324,0.013523,0.002678,0.000431,0.000470
54198000,0.0324,0.013523,0.002678,0.000431,0.000353
54199000,0.0324,0.013523,0.002678,0.000431,0.000588
54200000,0.0324,0.013523,0.002678,0.000431,0.000353
54201000,0.0324,0.013523,0.002678,0.000431,0.000588
54202000,0.0324,0.013523,0.002678,0.000431,0.000353
54203000,0.0324,0.013523,0.002678,0.000431,0.000705
54204000,0.0324,0.013523,0.002678,0.000431,0.000353
54205000,0.0324,0.013523,0.002678,0.000431,0.000705
54206000,0.0324,0.013523,0.002678,0.000431,0.000588
54207000,0.0324,0.013523,0.002678,0.000431,0.000470
54208000,0.0324,0.013523,0.002678,0.000431,0.000705
54209000,0.0324,0.013523,0.002678,0.000431,0.000353
54210000,0.0324,0.013523,0.002678,0.000431,0.000705
54211000,0.0324,0.013523,0.002678,0.000431,0.000588
54212000,0.0324,0.013523,0.002678,0.000431,0.000470
54213000,0.0324,0.013523,0.002678,0.000431,0.000470
54214000,0.0324,0.013523,0.002678,0.000431,0.000470
54215000,0.0324,0.013523,0.002678,0.000431,0.000588
54216000,0.0324,0.013523,0.002678,0.000431,0.000353
54217000,0.0324,0.013523,0.002678,0.000431,0.000588
54218000,0.0324,0.013523,0.002678,0.000431,0.000353
54219000,0.0324,0.013523,0.002678,0.000431,0.000588
54220000,0.0324,0.013523,0.002678,0.000431,0.000353
54221000,0.0324,0.013523,0.002678,0.000431,0.000588
54222000,0.0324,0.013523,0.002678,0.000431,0.000353
54223000,0.0324,0.013523,0.002678,0.000431,0.000588
54224000,0.0324,0.013523,0.002678,0.000431,0.000353
54225000,0.0324,0.013523,0.002678,0.000431,0.000588
54226000,0.0324,0.013523,0.002678,0.000431,0.000353
54227000,0.0324,0.013523,0.002678,0.000431,0.000588
54228000,0.0324,0.013523,0.002678,0.000431,0.000353
54229000,0.0324,0.013523,0.002678,0.000431,0.000588
54230000,0.0324,0.013523,0.002678,0.000431,0.000353
54231000,0.0324,0.013523,0.002678,0.000431,0.000588
54232000,0.0324,0.013523,0.002678,0.000431,0.000353
54233000,0.0324,0.013523,0.002678,0.000431,0.000705
54234000,0.0324,0.013523,0.002678,0.000431,0.000470
54235000,0.0324,0.013523,0.002678,0.000431,0.000705
54236000,0.0324,0.013523,0.002678,0.000431,0.000353
54237000,0.0324,0.013523,0.002678,0.000431,0.000588
54238000,0.0324,0.013523,0.002678,0.000431,0.000353
54239000,0.0324,0.013523,0.002678,0.000431,0.000470
54240000,0.0324,0.013523,0.002678,0.000431,0.000470
54241000,0.0324,0.013523,0.002678,0.000431,0.000470
54242000,0.0324,0.013523,0.002678,0.000431,0.000470
54243000,0.0324,0.013523,0.002678,0.000431,0.000470
54244000,0.0324,0.013523,0.002678,0.000431,0.000470
54245000,0.0324,0.013523,0.002678,0.000431,0.000470
54246000,0.0324,0.013523,0.002678,0.000431,0.000588
54247000,0.0324,0.013523,0.002678,0.000431,0.000353
54248000,0.0324,0.013523,0.002678,0.000431,0.000588
54249000,0.0324,0.013523,0.002678,0.000431,0.000353
54250000,0.0324,0.013523,0.002678,0.000431,0.000705
54251000,0.0324,0.013523,0.002678,0.000431,0.000470
54252000,0.0324,0.013523,0.002678,0.000431,0.000470
54253000,0.0324,0.013523,0.002678,0.000431,0.000470
54254000,0.0324,0.013523,0.002678,0.000431,0.000470
54255000,0.0324,0.013523,0.002678,0.000431,0.000470
54256000,0.0324,0.013523,0.002678,0.000431,0.000470
54257000,0.0324,0.013523,0.002678,0.000431,0.000470
54258000,0.0324,0.013523,0.002678,0.000431,0.000588
54259000,0.0324,0.013523,0.002678,0.000431,0.000353
54260000,0.0324,0.013523,0.002678,0.000431,0.000705
54261000,0.0324,0.013523,0.002678,0.000431,0.000470
54262000,0.0324,0.013523,0.002678,0.000431,0.000470
54263000,0.0324,0.013523,0.002678,0.000431,0.000470
54264000,0.0324,0.013523,0.002678,0.000431,0.000470
54265000,0.0324,0.013523,0.002678,0.000431,0.000470
54266000,0.0324,0.013523,0.002678,0.000431,0.000470
54267000,0.0324,0.013523,0.002678,0.000431,0.000470
54268000,0.0324,0.013523,0.002678,0.000431,0.000470
54269000,0.0324,0.013523,0.002678,0.000431,0.000353
54270000,0.0324,0.013523,0.002678,0.000431,0.000588
54271000,0.0324,0.013523,0.002678,0.000431,0.000353
54272000,0.0324,0.013523,0.002678,0.000431,0.000588
54273000,0.0324,0.013523,0.002678,0.000431,0.000353
54274000,0.0324,0.013523,0.002678,0.000431,0.000588
54275000,0.0324,0.013523,0.002678,0.000431,0.000353
54276000,0.0324,0.013523,0.002678,0.000431,0.000588
54277000,0.0324,0.013523,0.002678,0.000431,0.000353
54278000,0.0324,0.013523,0.002678,0.000431,0.000705
54279000,0.0324,0.013523,0.002678,0.000431,0.000353
54280000,0.0324,0.013523,0.002678,0.000431,0.000705
54281000,0.0324,0.013523,0.002678,0.000431,0.000588
54282000,0.0324,0.013523,0.002678,0.000431,0.000470
54283000,0.0324,0.013523,0.002678,0.000431,0.000470
54284000,0.0324,0.013523,0.002678,0.000431,0.000353
54285000,0.0324,0.013523,0.002678,0.000431,0.000823
54286000,0.0324,0.013523,0.002678,0.000431,0.000353
54287000,0.0324,0.013523,0.002678,0.000431,0.000588
54288000,0.0324,0.013523,0.002678,0.000431,0.000470
54289000,0.0324,0.013523,0.002678,0.000431,0.000588
54290000,0.0324,0.013523,0.002678,0.000431,0.000588
54291000,0.0324,0.013523,0.002678,0.000431,0.000470
54292000,0.0324,0.013523,0.002678,0.000431,0.000588
54293000,0.0324,0.013523,0.002678,0.000431,0.000353
54294000,0.0324,0.013523,0.002678,0.000431,0.000588
54295000,0.0324,0.013523,0.002678,0.000431,0.000353
54296000,0.0324,0.013523,0.002678,0.000431,0.000588
54297000,0.0324,0.013523,0.002678,0.000431,0.000470
54298000,0.0324,0.013523,0.002678,0.000431,0.000470
54299000,0.0324,0.013523,0.002678,0.000431,0.000470
54300000,0.0324,0.013523,0.002678,0.000431,0.000470
54301000,0.0324,0.013523,0.002678,0.000431,0.000470
54302000,0.0324,0.013523,0.002678,0.000431,0.000588
54303000,0.0324,0.013523,0.002678,0.000431,0.000470
54304000,0.0324,0.013523,0.002678,0.000431,0.000705
54305000,0.0324,0.013523,0.002678,0.000431,0.000353
54306000,0.0324,0.013523,0.002678,0.000431,0.000588
54307000,0.0324,0.013523,0.002678,0.000431,0.000470
54308000,0.0324,0.013523,0.002678,0.000431,0.000588
54309000,0.0324,0.013523,0.002678,0.000431,0.000470
54310000,0.0324,0.013523,0.002678,0.000431,0.000470
54311000,0.0324,0.013523,0.002678,0.000431,0.000470
54312000,0.0324,0.013523,0.002678,0.000431,0.000470
54313000,0.0324,0.013523,0.002678,0.000431,0.000588
54314000,0.0324,0.013523,0.002678,0.000431,0.000470
54315000,0.0324,0.013523,0.002678,0.000431,0.000705
54316000,0.0324,0.013523,0.002678,0.000431,0.000353
54317000,0.0324,0.013523,0.002678,0.000431,0.000588
54318000,0.0324,0.013523,0.002678,0.000431,0.000353
54319000,0.0324,0.013523,0.002678,0.000431,0.000588
54320000,0.0324,0.013523,0.002678,0.000431,0.000353
54321000,0.0324,0.013523,0.002678,0.000431,0.000588
54322000,0.0324,0.013523,0.002678,0.000431,0.000470
54323000,0.0324,0.013523,0.002678,0.000431,0.000705
54324000,0.0324,0.013523,0.002678,0.000431,0.000353
54325000,0.0324,0.013523,0.002678,0.000431,0.000588
54326000,0.0324,0.013523,0.002678,0.000431,0.000353
54327000,0.0324,0.013523,0.002678,0.000431,0.000588
54328000,0.0324,0.013523,0.002678,0.000431,0.000235
54329000,0.0324,0.013523,0.002678,0.000431,0.000823
54330000,0.0324,0.013523,0.002678,0.000431,0.000353
54331000,0.0324,0.013523,0.002678,0.000431,0.000588
54332000,0.0324,0.013523,0.002678,0.000431,0.000353
54333000,0.0324,0.013523,0.002678,0.000431,0.000588
54334000,0.0324,0.013523,0.002678,0.000431,0.000353
54335000,0.0324,0.013523,0.002678,0.000431,0.000588
54336000,0.0324,0.013523,0.002678,0.000431,0.000353
54337000,0.0324,0.013523,0.002678,0.000431,0.000588
54338000,0.0324,0.013523,0.002678,0.000431,0.000235
54339000,0.0324,0.013523,0.002678,0.000431,0.000588
54340000,0.0324,0.013523,0.002678,0.000431,0.000470
54341000,0.0324,0.013523,0.002678,0.000431,0.000588
54342000,0.0324,0.013523,0.002678,0.000431,0.000353
54343000,0.0324,0.013523,0.002678,0.000431,0.000705
54344000,0.0324,0.013523,0.002678,0.000431,0.000353
54345000,0.0324,0.013523,0.002678,0.000431,0.000588
54346000,0.0324,0.013523,0.002678,0.000431,0.000353
54347000,0.0324,0.013523,0.002678,0.000431,0.000588
54348000,0.0324,0.013523,0.002678,0.000431,0.000353
54349000,0.0324,0.013523,0.002678,0.000431,0.000588
54350000,0.0324,0.013523,0.002678,0.000431,0.000353
54351000,0.0324,0.013523,0.002678,0.000431,0.000588
54352000,0.0324,0.013523,0.002678,0.000431,0.000353
54353000,0.0324,0.013523,0.002678,0.000431,0.000588
54354000,0.0324,0.013523,0.002678,0.000431,0.000353
54355000,0.0324,0.013523,0.002678,0.000431,0.000470
54356000,0.0324,0.013523,0.002678,0.000431,0.000470
54357000,0.0324,0.013523,0.002678,0.000431,0.000470
54358000,0.0324,0.013523,0.002678,0.000431,0.000470
54359000,0.0324,0.013523,0.002678,0.000431,0.000588
54360000,0.0324,0.013523,0.002678,0.000431,0.000470
54361000,0.0324,0.013523,0.002678,0.000431,0.000705
54362000,0.0324,0.013523,0.002678,0.000431,0.000353
54363000,0.0324,0.013523,0.002678,0.000431,0.000705
54364000,0.0324,0.013523,0.002678,0.000431,0.000588
54365000,0.0324,0.013523,0.002678,0.000431,0.000470
54366000,0.0324,0.013523,0.002678,0.000431,0.000705
54367000,0.0324,0.013523,0.002678,0.000431,0.000353
54368000,0.0324,0.013523,0.002678,0.000431,0.000588
54369000,0.0324,0.013523,0.002678,0.000431,0.000353
54370000,0.0324,0.013523,0.002678,0.000431,0.000588
54371000,0.0324,0.013523,0.002678,0.000431,0.000353
54372000,0.0324,0.013523,0.002678,0.000431,0.000588
54373000,0.0324,0.013523,0.002678,0.000431,0.000353
54374000,0.0324,0.013523,0.002678,0.000431,0.000588
54375000,0.0324,0.013523,0.002678,0.000431,0.000353
54376000,0.0324,0.013523,0.002678,0.000431,0.000470
54377000,0.0324,0.013523,0.002678,0.000431,0.000470
54378000,0.0324,0.013523,0.002678,0.000431,0.000588
54379000,0.0324,0.013523,0.002678,0.000431,0.000470
54380000,0.0324,0.013523,0.002678,0.000431,0.000705
54381000,0.0324,0.013523,0.002678,0.000431,0.000353
54382000,0.0324,0.013523,0.002678,0.000431,0.000705
54383000,0.0324,0.013523,0.002678,0.000431,0.000588
54384000,0.0324,0.013523,0.002678,0.000431,0.000470
54385000,0.0324,0.013523,0.002678,0.000431,0.000705
54386000,0.0324,0.013523,0.002678,0.000431,0.000353
54387000,0.0324,0.013523,0.002678,0.000431,0.000588
54388000,0.0324,0.013523,0.002678,0.000431,0.000470
54389000,0.0324,0.013523,0.002678,0.000431,0.000705
54390000,0.0324,0.013523,0.002678,0.000431,0.000470
54391000,0.0324,0.013523,0.002678,0.000431,0.000470
54392000,0.0324,0.013523,0.002678,0.000431,0.000353
54393000,0.0324,0.013523,0.002678,0.000431,0.000588
54394000,0.0324,0.013523,0.002678,0.000431,0.000353
54395000,0.0324,0.013523,0.002678,0.000431,0.000470
54396000,0.0324,0.013523,0.002678,0.000431,0.000470
54397000,0.0324,0.013523,0.002678,0.000431,0.000705
54398000,0.0324,0.013523,0.002678,0.000431,0.000588
54399000,0.0324,0.013523,0.002678,0.000431,0.000470
54400000,0.0324,0.013523,0.002678,0.000431,0.000705
54401000,0.0324,0.013523,0.002678,0.000431,0.000353
54402000,0.0324,0.013523,0.002678,0.000431,0.000588
54403000,0.0324,0.013523,0.002678,0.000431,0.000353
54404000,0.0324,0.013523,0.002678,0.000431,0.000588
54405000,0.0324,0.013523,0.002678,0.000431,0.000353
54406000,0.0324,0.013523,0.002678,0.000431,0.000470
54407000,0.0324,0.013523,0.002678,0.000431,0.000470
54408000,0.0324,0.013523,0.002678,0.000431,0.000470
54409000,0.0324,0.013523,0.002678,0.000431,0.000470
54410000,0.0324,0.013523,0.002678,0.000431,0.000470
54411000,0.0324,0.013523,0.002678,0.000431,0.000353
54412000,0.0324,0.013523,0.002678,0.000431,0.000588
54413000,0.0324,0.013523,0.002678,0.000431,0.000353
54414000,0.0324,0.013523,0.002678,0.000431,0.000705
54415000,0.0324,0.013523,0.002678,0.000431,0.000353
54416000,0.0324,0.013523,0.002678,0.000431,0.000705
54417000,0.0324,0.013523,0.002678,0.000431,0.000470
54418000,0.0324,0.013523,0.002678,0.000431,0.000470
54419000,0.0324,0.013523,0.002678,0.000431,0.000470
54420000,0.0324,0.013523,0.002678,0.000431,0.000470
54421000,0.0324,0.013523,0.002678,0.000431,0.000470
54422000,0.0324,0.013523,0.002678,0.000431,0.000470
54423000,0.0324,0.013523,0.002678,0.000431,0.000470
54424000,0.0324,0.013523,0.002678,0.000431,0.000470
54425000,0.0324,0.013523,0.002678,0.000431,0.000470
54426000,0.0324,0.013523,0.002678,0.000431,0.000588
54427000,0.0324,0.013523,0.002678,0.000431,0.000353
54428000,0.0324,0.013523,0.002678,0.000431,0.000588
54429000,0.0324,0.013523,0.002678,0.000431,0.000353
54430000,0.0324,0.013523,0.002678,0.000431,0.000588
54431000,0.0324,0.013523,0.002678,0.000431,0.000353
54432000,0.0324,0.013523,0.002678,0.000431,0.000588
54433000,0.0324,0.013523,0.002678,0.000431,0.000470
54434000,0.0324,0.013523,0.002678,0.000431,0.000470
54435000,0.0324,0.013523,0.002678,0.000431,0.000588
54436000,0.0324,0.013523,0.002678,0.000431,0.000470
54437000,0.0324,0.013523,0.002678,0.000431,0.000353
54438000,0.0324,0.013523,0.002678,0.000431,0.000470
54439000,0.0324,0.013523,0.002678,0.000431,0.000353
54440000,0.0324,0.013523,0.002678,0.000431,0.000705
54441000,0.0324,0.013523,0.002678,0.000431,0.000470
54442000,0.0324,0.013523,0.002678,0.000431,0.000588
54443000,0.0324,0.013523,0.002678,0.000431,0.000353
54444000,0.0324,0.013523,0.002678,0.000431,0.000588
54445000,0.0324,0.013523,0.002678,0.000431,0.000353
54446000,0.0324,0.013523,0.002678,0.000431,0.000588
54447000,0.0324,0.013523,0.002678,0.000431,0.000353
54448000,0.0324,0.013523,0.002678,0.000431,0.000470
54449000,0.0324,0.013523,0.002678,0.000431,0.000470
54450000,0.0324,0.013523,0.002678,0.000431,0.000470
54451000,0.0324,0.013523,0.002678,0.000431,0.000470
54452000,0.0324,0.013523,0.002678,0.000431,0.000470
54453000,0.0324,0.013523,0.002678,0.000431,0.000470
54454000,0.0324,0.013523,0.002678,0.000431,0.000705
54455000,0.0324,0.013523,0.002678,0.000431,0.000470
54456000,0.0324,0.013523,0.002678,0.000431,0.000470
54457000,0.0324,0.013523,0.002678,0.000431,0.000470
54458000,0.0324,0.013523,0.002678,0.000431,0.000470
54459000,0.0324,0.013523,0.002678,0.000431,0.000470
54460000,0.0324,0.013523,0.002678,0.000431,0.000470
54461000,0.0324,0.013523,0.002678,0.000431,0.000470
54462000,0.0324,0.013523,0.002678,0.000431,0.000470
54463000,0.0324,0.013523,0.002678,0.000431,0.000353
54464000,0.0324,0.013523,0.002678,0.000431,0.000588
54465000,0.0324,0.013523,0.002678,0.000431,0.000353
54466000,0.0324,0.013523,0.002678,0.000431,0.000470
54467000,0.0324,0.013523,0.002678,0.000431,0.000353
54468000,0.0324,0.013523,0.002678,0.000431,0.000705
54469000,0.0324,0.013523,0.002678,0.000431,0.000353
54470000,0.0324,0.013523,0.002678,0.000431,0.000588
54471000,0.0324,0.013523,0.002678,0.000431,0.000353
54472000,0.0324,0.013523,0.002678,0.000431,0.000470
54473000,0.0324,0.013523,0.002678,0.000431,0.000353
54474000,0.0324,0.013523,0.002678,0.000431,0.000588
54475000,0.0324,0.013523,0.002678,0.000431,0.000353
54476000,0.0324,0.013523,0.002678,0.000431,0.000588
54477000,0.0324,0.013523,0.002678,0.000431,0.000353
54478000,0.0324,0.013523,0.002678,0.000431,0.000588
54479000,0.0324,0.013523,0.002678,0.000431,0.000470
54480000,0.0324,0.013523,0.002678,0.000431,0.000588
54481000,0.0324,0.013523,0.002678,0.000431,0.000235
54482000,0.0324,0.013523,0.002678,0.000431,0.000588
54483000,0.0324,0.013523,0.002678,0.000431,0.000353
54484000,0.0324,0.013523,0.002678,0.000431,0.000588
54485000,0.0324,0.013523,0.002678,0.000431,0.000353
54486000,0.0324,0.013523,0.002678,0.000431,0.000588
54487000,0.0324,0.013523,0.002678,0.000431,0.000470
54488000,0.0324,0.013523,0.002678,0.000431,0.000588
54489000,0.0324,0.013523,0.002678,0.000431,0.000353
54490000,0.0324,0.013523,0.002678,0.000431,0.000588
54491000,0.0324,0.013523,0.002678,0.000431,0.000353
54492000,0.0324,0.013523,0.002678,0.000431,0.000470
54493000,0.0324,0.013523,0.002678,0.000431,0.000470
54494000,0.0324,0.013523,0.002678,0.000431,0.000470
54495000,0.0324,0.013523,0.002678,0.000431,0.000588
54496000,0.0324,0.013523,0.002678,0.000431,0.000588
54497000,0.0324,0.013523,0.002678,0.000431,0.000470
54498000,0.0324,0.013523,0.002678,0.000431,0.000705
54499000,0.0324,0.013523,0.002678,0.000431,0.000353
54500000,0.0324,0.013523,0.002678,0.000431,0.000705
54501000,0.0324,0.013523,0.002678,0.000431,0.000588
54502000,0.0324,0.013523,0.002678,0.000431,0.000470
54503000,0.0324,0.013523,0.002678,0.000431,0.000588
54504000,0.0324,0.013523,0.002678,0.000431,0.000353
54505000,0.0324,0.013523,0.002678,0.000431,0.000588
54506000,0.0324,0.013523,0.002678,0.000431,0.000353
54507000,0.0324,0.013523,0.002678,0.000431,0.000588
54508000,0.0324,0.013523,0.002678,0.000431,0.000353
54509000,0.0324,0.013523,0.002678,0.000431,0.000588
54510000,0.0324,0.013523,0.002678,0.000431,0.000235
54511000,0.0324,0.013523,0.002678,0.000431,0.000588
54512000,0.0324,0.013523,0.002678,0.000431,0.000470
54513000,0.0324,0.013523,0.002678,0.000431,0.000705
54514000,0.0324,0.013523,0.002678,0.000431,0.000353
54515000,0.0324,0.013523,0.002678,0.000431,0.000705
54516000,0.0324,0.013523,0.002678,0.000431,0.000588
54517000,0.0324,0.013523,0.002678,0.000431,0.000470
54518000,0.0324,0.013523,0.002678,0.000431,0.000705
54519000,0.0324,0.013523,0.002678,0.000431,0.000353
54520000,0.0324,0.013523,0.002678,0.000431,0.000705
54521000,0.0324,0.013523,0.002678,0.000431,0.000588
54522000,0.0324,0.013523,0.002678,0.000431,0.000470
54523000,0.0324,0.013523,0.002678,0.000431,0.000470
54524000,0.0324,0.013523,0.002678,0.000431,0.000470
54525000,0.0324,0.013523,0.002678,0.000431,0.000470
54526000,0.0324,0.013523,0.002678,0.000431,0.000470
54527000,0.0324,0.013523,0.002678,0.000431,0.000470
54528000,0.0324,0.013523,0.002678,0.000431,0.000470
54529000,0.0324,0.013523,0.002678,0.000431,0.000353
54530000,0.0324,0.013523,0.002678,0.000431,0.000588
54531000,0.0324,0.013523,0.002678,0.000431,0.000353
54532000,0.0324,0.013523,0.002678,0.000431,0.000588
54533000,0.0324,0.013523,0.002678,0.000431,0.000353
54534000,0.0324,0.013523,0.002678,0.000431,0.000705
54535000,0.0324,0.013523,0.002678,0.000431,0.000353
54536000,0.0324,0.013523,0.002678,0.000431,0.000588
54537000,0.0324,0.013523,0.002678,0.000431,0.000353
54538000,0.0324,0.013523,0.002678,0.000431,0.000588
54539000,0.0324,0.013523,0.002678,0.000431,0.000353
54540000,0.0324,0.013523,0.002678,0.000431,0.000705
54541000,0.0324,0.013523,0.002678,0.000431,0.000353
54542000,0.0324,0.013523,0.002678,0.000431,0.000705
54543000,0.0324,0.013523,0.002678,0.000431,0.000588
54544000,0.0324,0.013523,0.002678,0.000431,0.000470
54545000,0.0324,0.013523,0.002678,0.000431,0.000588
54546000,0.0324,0.013523,0.002678,0.000431,0.000353
54547000,0.0324,0.013523,0.002678,0.000431,0.000588
54548000,0.0324,0.013523,0.002678,0.000431,0.000353
54549000,0.0324,0.013523,0.002678,0.000431,0.000470
54550000,0.0324,0.013523,0.002678,0.000431,0.000470
54551000,0.0324,0.013523,0.002678,0.000431,0.000470
54552000,0.0324,0.013523,0.002678,0.000431,0.000470
54553000,0.0324,0.013523,0.002678,0.000431,0.000470
54554000,0.0324,0.013523,0.002678,0.000431,0.000470
54555000,0.0324,0.013523,0.002678,0.000431,0.000353
54556000,0.0324,0.013523,0.002678,0.000431,0.000588
54557000,0.0324,0.013523,0.002678,0.000431,0.000353
54558000,0.0324,0.013523,0.002678,0.000431,0.000588
54559000,0.0324,0.013523,0.002678,0.000431,0.000353
54560000,0.0324,0.013523,0.002678,0.000431,0.000588
54561000,0.0324,0.013523,0.002678,0.000431,0.000353
54562000,0.0324,0.013523,0.002678,0.000431,0.000705
54563000,0.0324,0.013523,0.002678,0.000431,0.000588
54564000,0.0324,0.013523,0.002678,0.000431,0.000470
54565000,0.0324,0.013523,0.002678,0.000431,0.000705
54566000,0.0324,0.013523,0.002678,0.000431,0.000353
54567000,0.0324,0.013523,0.002678,0.000431,0.000588
54568000,0.0324,0.013523,0.002678,0.000431,0.000353
54569000,0.0324,0.013523,0.002678,0.000431,0.000588
54570000,0.0324,0.013523,0.002678,0.000431,0.000353
54571000,0.0324,0.013523,0.002678,0.000431,0.000588
54572000,0.0324,0.013523,0.002678,0.000431,0.000353
54573000,0.0324,0.013523,0.002678,0.000431,0.000823
54574000,0.0324,0.013523,0.002678,0.000431,0.000235
54575000,0.0324,0.013523,0.002678,0.000431,0.000705
54576000,0.0324,0.013523,0.002678,0.000431,0.000470
54577000,0.0324,0.013523,0.002678,0.000431,0.000588
54578000,0.0324,0.013523,0.002678,0.000431,0.000235
54579000,0.0324,0.013523,0.002678,0.000431,0.000588
54580000,0.0324,0.013523,0.002678,0.000431,0.000353
54581000,0.0324,0.013523,0.002678,0.000431,0.000588
54582000,0.0324,0.013523,0.002678,0.000431,0.000353
54583000,0.0324,0.013523,0.002678,0.000431,0.000588
54584000,0.0324,0.013523,0.002678,0.000431,0.000353
54585000,0.0324,0.013523,0.002678,0.000431,0.000588
54586000,0.0324,0.013523,0.002678,0.000431,0.000353
54587000,0.0324,0.013523,0.002678,0.000431,0.000588
54588000,0.0324,0.013523,0.002678,0.000431,0.000353
54589000,0.0324,0.013523,0.002678,0.000431,0.000705
54590000,0.0324,0.013523,0.002678,0.000431,0.000353
54591000,0.0324,0.013523,0.002678,0.000431,0.000470
54592000,0.0324,0.013523,0.002678,0.000431,0.000353
54593000,0.0324,0.013523,0.002678,0.000431,0.000823
54594000,0.0324,0.013523,0.002678,0.000431,0.000353
54595000,0.0324,0.013523,0.002678,0.000431,0.000588
54596000,0.0324,0.013523,0.002678,0.000431,0.000235
54597000,0.0324,0.013523,0.002678,0.000431,0.000705
54598000,0.0324,0.013523,0.002678,0.000431,0.000470
54599000,0.0324,0.013523,0.002678,0.000431,0.000470
54600000,0.0324,0.013523,0.002678,0.000431,0.000353
54601000,0.0324,0.013523,0.002678,0.000431,0.000588
54602000,0.0324,0.013523,0.002678,0.000431,0.000470
54603000,0.0324,0.013523,0.002678,0.000431,0.000588
54604000,0.0324,0.013523,0.002678,0.000431,0.000353
54605000,0.0324,0.013523,0.002678,0.000431,0.000588
54606000,0.0324,0.013523,0.002678,0.000431,0.000353
54607000,0.0324,0.013523,0.002678,0.000431,0.000705
54608000,0.0324,0.013523,0.002678,0.000431,0.000353
54609000,0.0324,0.013523,0.002678,0.000431,0.000588
54610000,0.0324,0.013523,0.002678,0.000431,0.000353
54611000,0.0324,0.013523,0.002678,0.000431,0.000588
54612000,0.0324,0.013523,0.002678,0.000431,0.000353
54613000,0.0324,0.013523,0.002678,0.000431,0.000588
54614000,0.0324,0.013523,0.002678,0.000431,0.000353
54615000,0.0324,0.013523,0.002678,0.000431,0.000588
54616000,0.0324,0.013523,0.002678,0.000431,0.000353
54617000,0.0324,0.013523,0.002678,0.000431,0.000588
54618000,0.0324,0.013523,0.002678,0.000431,0.000353
54619000,0.0324,0.013523,0.002678,0.000431,0.000470
54620000,0.0324,0.013523,0.002678,0.000431,0.000470
54621000,0.0324,0.013523,0.002678,0.000431,0.000470
54622000,0.0324,0.013523,0.002678,0.000431,0.000470
54623000,0.0324,0.013523,0.002678,0.000431,0.000470
54624000,0.0324,0.013523,0.002678,0.000431,0.000470
54625000,0.0324,0.013523,0.002678,0.000431,0.000470
54626000,0.0324,0.013523,0.002678,0.000431,0.000470
54627000,0.0324,0.013523,0.002678,0.000431,0.000588
54628000,0.0324,0.013523,0.002678,0.000431,0.000470
54629000,0.0324,0.013523,0.002678,0.000431,0.000705
54630000,0.0324,0.013523,0.002678,0.000431,0.000353
54631000,0.0324,0.013523,0.002678,0.000431,0.000705
54632000,0.0324,0.013523,0.002678,0.000431,0.000588
54633000,0.0324,0.013523,0.002678,0.000431,0.000470
54634000,0.0324,0.013523,0.002678,0.000431,0.000588
54635000,0.0324,0.013523,0.002678,0.000431,0.000353
54636000,0.0324,0.013523,0.002678,0.000431,0.000470
54637000,0.0324,0.013523,0.002678,0.000431,0.000470
54638000,0.0324,0.013523,0.002678,0.000431,0.000470
54639000,0.0324,0.013523,0.002678,0.000431,0.000470
54640000,0.0324,0.013523,0.002678,0.000431,0.000353
54641000,0.0324,0.013523,0.002678,0.000431,0.000588
54642000,0.0324,0.013523,0.002678,0.000431,0.000353
54643000,0.0324,0.013523,0.002678,0.000431,0.000588
54644000,0.0324,0.013523,0.002678,0.000431,0.000353
54645000,0.0324,0.013523,0.002678,0.000431,0.000705
54646000,0.0324,0.013523,0.002678,0.000431,0.000588
54647000,0.0324,0.013523,0.002678,0.000431,0.000470
54648000,0.0324,0.013523,0.002678,0.000431,0.000588
54649000,0.0324,0.013523,0.002678,0.000431,0.000353
54650000,0.0324,0.013523,0.002678,0.000431,0.000588
54651000,0.0324,0.013523,0.002678,0.000431,0.000353
54652000,0.0324,0.013523,0.002678,0.000431,0.000588
54653000,0.0324,0.013523,0.002678,0.000431,0.000353
54654000,0.0324,0.013523,0.002678,0.000431,0.000588
54655000,0.0324,0.013523,0.002678,0.000431,0.000353
54656000,0.0324,0.013523,0.002678,0.000431,0.000470
54657000,0.0324,0.013523,0.002678,0.000431,0.000470
54658000,0.0324,0.013523,0.002678,0.000431,0.000470
54659000,0.0324,0.013523,0.002678,0.000431,0.000470
54660000,0.0324,0.013523,0.002678,0.000431,0.000470
54661000,0.0324,0.013523,0.002678,0.000431,0.000470
54662000,0.0324,0.013523,0.002678,0.000431,0.000470
54663000,0.0324,0.013523,0.002678,0.000431,0.000470
54664000,0.0324,0.013523,0.002678,0.000431,0.000470
54665000,0.0324,0.013523,0.002678,0.000431,0.000588
54666000,0.0324,0.013523,0.002678,0.000431,0.000353
54667000,0.0324,0.013523,0.002678,0.000431,0.000588
54668000,0.0324,0.013523,0.002678,0.000431,0.000353
54669000,0.0324,0.013523,0.002678,0.000431,0.000588
54670000,0.0324,0.013523,0.002678,0.000431,0.000353
54671000,0.0324,0.013523,0.002678,0.000431,0.000588
54672000,0.0324,0.013523,0.002678,0.000431,0.000353
54673000,0.0324,0.013523,0.002678,0.000431,0.000705
54674000,0.0324,0.013523,0.002678,0.000431,0.000353
54675000,0.0324,0.013523,0.002678,0.000431,0.000705
54676000,0.0324,0.013523,0.002678,0.000431,0.000588
54677000,0.0324,0.013523,0.002678,0.000431,0.000470
54678000,0.0324,0.013523,0.002678,0.000431,0.000588
54679000,0.0324,0.013523,0.002678,0.000431,0.000353
54680000,0.0324,0.013523,0.002678,0.000431,0.000588
54681000,0.0324,0.013523,0.002678,0.000431,0.000470
54682000,0.0324,0.013523,0.002678,0.000431,0.000470
54683000,0.0324,0.013523,0.002678,0.000431,0.000470
54684000,0.0324,0.013523,0.002678,0.000431,0.000470
54685000,0.0324,0.013523,0.002678,0.000431,0.000470
54686000,0.0324,0.013523,0.002678,0.000431,0.000470
54687000,0.0324,0.013523,0.002678,0.000431,0.000470
54688000,0.0324,0.013523,0.002678,0.000431,0.000470
54689000,0.0324,0.013523,0.002678,0.000431,0.000470
54690000,0.0324,0.013523,0.002678,0.000431,0.000470
54691000,0.0324,0.013523,0.002678,0.000431,0.000470
54692000,0.0324,0.013523,0.002678,0.000431,0.000470
54693000,0.0324,0.013523,0.002678,0.000431,0.000470
54694000,0.0324,0.013523,0.002678,0.000431,0.000470
54695000,0.0324,0.013523,0.002678,0.000431,0.000353
54696000,0.0324,0.013523,0.002678,0.000431,0.000588
54697000,0.0324,0.013523,0.002678,0.000431,0.000353
54698000,0.0324,0.013523,0.002678,0.000431,0.000588
54699000,0.0324,0.013523,0.002678,0.000431,0.000353
54700000,0.0324,0.013523,0.002678,0.000431,0.000470
54701000,0.0324,0.013523,0.002678,0.000431,0.000470
54702000,0.0324,0.013523,0.002678,0.000431,0.000470
54703000,0.0324,0.013523,0.002678,0.000431,0.000705
54704000,0.0324,0.013523,0.002678,0.000431,0.000353
54705000,0.0324,0.013523,0.002678,0.000431,0.000588
54706000,0.0324,0.013523,0.002678,0.000431,0.000353
54707000,0.0324,0.013523,0.002678,0.000431,0.000588
54708000,0.0324,0.013523,0.002678,0.000431,0.000353
54709000,0.0324,0.013523,0.002678,0.000431,0.000588
54710000,0.0324,0.013523,0.002678,0.000431,0.000353
54711000,0.0324,0.013523,0.002678,0.000431,0.000705
54712000,0.0324,0.013523,0.002678,0.000431,0.000588
54713000,0.0324,0.013523,0.002678,0.000431,0.000470
54714000,0.0324,0.013523,0.002678,0.000431,0.000588
54715000,0.0324,0.013523,0.002678,0.000431,0.000353
54716000,0.0324,0.013523,0.002678,0.000431,0.000470
54717000,0.0324,0.013523,0.002678,0.000431,0.000353
54718000,0.0324,0.013523,0.002678,0.000431,0.000588
54719000,0.0324,0.013523,0.002678,0.000431,0.000353
54720000,0.0324,0.013523,0.002678,0.000431,0.000823
54721000,0.0324,0.013523,0.002678,0.000431,0.000353
54722000,0.0324,0.013523,0.002678,0.000431,0.000470
54723000,0.0324,0.013523,0.002678,0.000431,0.000353
54724000,0.0324,0.013523,0.002678,0.000431,0.000705
54725000,0.0324,0.013523,0.002678,0.000431,0.000353
54726000,0.0324,0.013523,0.002678,0.000431,0.000705
54727000,0.0324,0.013523,0.002678,0.000431,0.000470
54728000,0.0324,0.013523,0.002678,0.000431,0.000470
54729000,0.0324,0.013523,0.002678,0.000431,0.000588
54730000,0.0324,0.013523,0.002678,0.000431,0.000470
54731000,0.0324,0.013523,0.002678,0.000431,0.000588
54732000,0.0324,0.013523,0.002678,0.000431,0.000353
54733000,0.0324,0.013523,0.002678,0.000431,0.000705
54734000,0.0324,0.013523,0.002678,0.000431,0.000470
54735000,0.0324,0.013523,0.002678,0.000431,0.000470
54736000,0.0324,0.013523,0.002678,0.000431,0.000353
54737000,0.0324,0.013523,0.002678,0.000431,0.000823
54738000,0.0324,0.013523,0.002678,0.000431,0.000353
54739000,0.0324,0.013523,0.002678,0.000431,0.000470
54740000,0.0324,0.013523,0.002678,0.000431,0.000353
54741000,0.0324,0.013523,0.002678,0.000431,0.000588
54742000,0.0324,0.013523,0.002678,0.000431,0.000470
54743000,0.0324,0.013523,0.002678,0.000431,0.000470
54744000,0.0324,0.013523,0.002678,0.000431,0.000470
54745000,0.0324,0.013523,0.002678,0.000431,0.000588
54746000,0.0324,0.013523,0.002678,0.000431,0.000470
54747000,0.0324,0.013523,0.002678,0.000431,0.000588
54748000,0.0324,0.013523,0.002678,0.000431,0.000470
54749000,0.0324,0.013523,0.002678,0.000431,0.000470
54750000,0.0324,0.013523,0.002678,0.000431,0.000470
54751000,0.0324,0.013523,0.002678,0.000431,0.000470
54752000,0.0324,0.013523,0.002678,0.000431,0.000470
54753000,0.0324,0.013523,0.002678,0.000431,0.000588
54754000,0.0324,0.013523,0.002678,0.000431,0.000470
54755000,0.0324,0.013523,0.002678,0.000431,0.000705
54756000,0.0324,0.013523,0.002678,0.000431,0.000353
54757000,0.0324,0.013523,0.002678,0.000431,0.000588
54758000,0.0324,0.013523,0.002678,0.000431,0.000353
54759000,0.0324,0.013523,0.002678,0.000431,0.000705
54760000,0.0324,0.013523,0.002678,0.000431,0.000470
54761000,0.0324,0.013523,0.002678,0.000431,0.000470
54762000,0.0324,0.013523,0.002678,0.000431,0.000470
54763000,0.0324,0.013523,0.002678,0.000431,0.000588
54764000,0.0324,0.013523,0.002678,0.000431,0.000353
54765000,0.0324,0.013523,0.002678,0.000431,0.000588
54766000,0.0324,0.013523,0.002678,0.000431,0.000353
54767000,0.0324,0.013523,0.002678,0.000431,0.000470
54768000,0.0324,0.013523,0.002678,0.000431,0.000470
54769000,0.0324,0.013523,0.002678,0.000431,0.000470
54770000,0.0324,0.013523,0.002678,0.000431,0.000470
54771000,0.0324,0.013523,0.002678,0.000431,0.000470
54772000,0.0324,0.013523,0.002678,0.000431,0.000470
54773000,0.0324,0.013523,0.002678,0.000431,0.000588
54774000,0.0324,0.013523,0.002678,0.000431,0.000353
54775000,0.0324,0.013523,0.002678,0.000431,0.000588
54776000,0.0324,0.013523,0.002678,0.000431,0.000588
54777000,0.0324,0.013523,0.002678,0.000431,0.000353
54778000,0.0324,0.013523,0.002678,0.000431,0.000470
54779000,0.0324,0.013523,0.002678,0.000431,0.000470
54780000,0.0324,0.013523,0.002678,0.000431,0.000470
54781000,0.0324,0.013523,0.002678,0.000431,0.000470
54782000,0.0324,0.013523,0.002678,0.000431,0.000353
54783000,0.0324,0.013523,0.002678,0.000431,0.000588
54784000,0.0324,0.013523,0.002678,0.000431,0.000353
54785000,0.0324,0.013523,0.002678,0.000431,0.000705
54786000,0.0324,0.013523,0.002678,0.000431,0.000470
54787000,0.0324,0.013523,0.002678,0.000431,0.000470
54788000,0.0324,0.013523,0.002678,0.000431,0.000470
54789000,0.0324,0.013523,0.002678,0.000431,0.000470
54790000,0.0324,0.013523,0.002678,0.000431,0.000470
54791000,0.0324,0.013523,0.002678,0.000431,0.000470
54792000,0.0324,0.013523,0.002678,0.000431,0.000470
54793000,0.0324,0.013523,0.002678,0.000431,0.000470
54794000,0.0324,0.013523,0.002678,0.000431,0.000470
54795000,0.0324,0.013523,0.002678,0.000431,0.000470
54796000,0.0324,0.013523,0.002678,0.000431,0.000470
54797000,0.0324,0.013523,0.002678,0.000431,0.000470
54798000,0.0324,0.013523,0.002678,0.000431,0.000470
54799000,0.0324,0.013523,0.002678,0.000431,0.000470
54800000,0.0324,0.013523,0.002678,0.000431,0.000470
54801000,0.0324,0.013523,0.002678,0.000431,0.000470
54802000,0.0324,0.013523,0.002678,0.000431,0.000470
54803000,0.0324,0.013523,0.002678,0.000431,0.000588
54804000,0.0324,0.013523,0.002678,0.000431,0.000588
54805000,0.0324,0.013523,0.002678,0.000431,0.000470
54806000,0.0324,0.013523,0.002678,0.000431,0.000470
54807000,0.0324,0.013523,0.002678,0.000431,0.000470
54808000,0.0324,0.013523,0.002678,0.000431,0.000353
54809000,0.0324,0.013523,0.002678,0.000431,0.000588
54810000,0.0324,0.013523,0.002678,0.000431,0.000353
54811000,0.0324,0.013523,0.002678,0.000431,0.000588
54812000,0.0324,0.013523,0.002678,0.000431,0.000353
54813000,0.0324,0.013523,0.002678,0.000431,0.000588
54814000,0.0324,0.013523,0.002678,0.000431,0.000353
54815000,0.0324,0.013523,0.002678,0.000431,0.000588
54816000,0.0324,0.013523,0.002678,0.000431,0.000353
54817000,0.0324,0.013523,0.002678,0.000431,0.000588
54818000,0.0324,0.013523,0.002678,0.000431,0.000353
54819000,0.0324,0.013523,0.002678,0.000431,0.000588
54820000,0.0324,0.013523,0.002678,0.000431,0.000353
54821000,0.0324,0.013523,0.002678,0.000431,0.000705
54822000,0.0324,0.013523,0.002678,0.000431,0.000353
54823000,0.0324,0.013523,0.002678,0.000431,0.000705
54824000,0.0324,0.013523,0.002678,0.000431,0.000470
54825000,0.0324,0.013523,0.002678,0.000431,0.000470
54826000,0.0324,0.013523,0.002678,0.000431,0.000470
54827000,0.0324,0.013523,0.002678,0.000431,0.000588
54828000,0.0324,0.013523,0.002678,0.000431,0.000353
54829000,0.0324,0.013523,0.002678,0.000431,0.000470
54830000,0.0324,0.013523,0.002678,0.000431,0.000470
54831000,0.0324,0.013523,0.002678,0.000431,0.000470
54832000,0.0324,0.013523,0.002678,0.000431,0.000470
54833000,0.0324,0.013523,0.002678,0.000431,0.000588
54834000,0.0324,0.013523,0.002678,0.000431,0.000353
54835000,0.0324,0.013523,0.002678,0.000431,0.000588
54836000,0.0324,0.013523,0.002678,0.000431,0.000470
54837000,0.0324,0.013523,0.002678,0.000431,0.000470
54838000,0.0324,0.013523,0.002678,0.000431,0.000353
54839000,0.0324,0.013523,0.002678,0.000431,0.000588
54840000,0.0324,0.013523,0.002678,0.000431,0.000353
54841000,0.0324,0.013523,0.002678,0.000431,0.000705
54842000,0.0324,0.013523,0.002678,0.000431,0.000470
54843000,0.0324,0.013523,0.002678,0.000431,0.000470
54844000,0.0324,0.013523,0.002678,0.000431,0.000588
54845000,0.0324,0.013523,0.002678,0.000431,0.000588
54846000,0.0324,0.013523,0.002678,0.000431,0.000470
54847000,0.0324,0.013523,0.002678,0.000431,0.000353
54848000,0.0324,0.013523,0.002678,0.000431,0.000705
54849000,0.0324,0.013523,0.002678,0.000431,0.000470
54850000,0.0324,0.013523,0.002678,0.000431,0.000705
54851000,0.0324,0.013523,0.002678,0.000431,0.000353
54852000,0.0324,0.013523,0.002678,0.000431,0.000588
54853000,0.0324,0.013523,0.002678,0.000431,0.000353
54854000,0.0324,0.013523,0.002678,0.000431,0.000705
54855000,0.0324,0.013523,0.002678,0.000431,0.000353
54856000,0.0324,0.013523,0.002678,0.000431,0.000470
54857000,0.0324,0.013523,0.002678,0.000431,0.000470
54858000,0.0324,0.013523,0.002678,0.000431,0.000470
54859000,0.0324,0.013523,0.002678,0.000431,0.000470
54860000,0.0324,0.013523,0.002678,0.000431,0.000353
54861000,0.0324,0.013523,0.002678,0.000431,0.000588
54862000,0.0324,0.013523,0.002678,0.000431,0.000353
54863000,0.0324,0.013523,0.002678,0.000431,0.000588
54864000,0.0324,0.013523,0.002678,0.000431,0.000353
54865000,0.0324,0.013523,0.002678,0.000431,0.000588
54866000,0.0324,0.013523,0.002678,0.000431,0.000353
54867000,0.0324,0.013523,0.002678,0.000431,0.000588
54868000,0.0324,0.013523,0.002678,0.000431,0.000353
54869000,0.0324,0.013523,0.002678,0.000431,0.000705
54870000,0.0324,0.013523,0.002678,0.000431,0.000470
54871000,0.0324,0.013523,0.002678,0.000431,0.000470
54872000,0.0324,0.013523,0.002678,0.000431,0.000470
54873000,0.0324,0.013523,0.002678,0.000431,0.000470
54874000,0.0324,0.013523,0.002678,0.000431,0.000470
54875000,0.0324,0.013523,0.002678,0.000431,0.000470
54876000,0.0324,0.013523,0.002678,0.000431,0.000588
54877000,0.0324,0.013523,0.002678,0.000431,0.000470
54878000,0.0324,0.013523,0.002678,0.000431,0.000705
54879000,0.0324,0.013523,0.002678,0.000431,0.000235
54880000,0.0324,0.013523,0.002678,0.000431,0.000705
54881000,0.0324,0.013523,0.002678,0.000431,0.000353
54882000,0.0324,0.013523,0.002678,0.000431,0.000705
54883000,0.0324,0.013523,0.002678,0.000431,0.000470
54884000,0.0324,0.013523,0.002678,0.000431,0.000588
54885000,0.0324,0.013523,0.002678,0.000431,0.000353
54886000,0.0324,0.013523,0.002678,0.000431,0.000588
54887000,0.0324,0.013523,0.002678,0.000431,0.000353
54888000,0.0324,0.013523,0.002678,0.000431,0.000470
54889000,0.0324,0.013523,0.002678,0.000431,0.000470
54890000,0.0324,0.013523,0.002678,0.000431,0.000470
54891000,0.0324,0.013523,0.002678,0.000431,0.000470
54892000,0.0324,0.013523,0.002678,0.000431,0.000470
54893000,0.0324,0.013523,0.002678,0.000431,0.000470
54894000,0.0324,0.013523,0.002678,0.000431,0.000470
54895000,0.0324,0.013523,0.002678,0.000431,0.000470
54896000,0.0324,0.013523,0.002678,0.000431,0.000588
54897000,0.0324,0.013523,0.002678,0.000431,0.000353
54898000,0.0324,0.013523,0.002678,0.000431,0.000588
54899000,0.0324,0.013523,0.002678,0.000431,0.000353
54900000,0.0324,0.013523,0.002678,0.000431,0.000588
54901000,0.0324,0.013523,0.002678,0.000431,0.000353
54902000,0.0324,0.013523,0.002678,0.000431,0.000588
54903000,0.0324,0.013523,0.002678,0.000431,0.000353
54904000,0.0324,0.013523,0.002678,0.000431,0.000588
54905000,0.0324,0.013523,0.002678,0.000431,0.000353
54906000,0.0324,0.013523,0.002678,0.000431,0.000588
54907000,0.0324,0.013523,0.002678,0.000431,0.000353
54908000,0.0324,0.013523,0.002678,0.000431,0.000470
54909000,0.0324,0.013523,0.002678,0.000431,0.000470
54910000,0.0324,0.013523,0.002678,0.000431,0.000470
54911000,0.0324,0.013523,0.002678,0.000431,0.000470
54912000,0.0324,0.013523,0.002678,0.000431,0.000588
54913000,0.0324,0.013523,0.002678,0.000431,0.000470
54914000,0.0324,0.013523,0.002678,0.000431,0.000705
54915000,0.0324,0.013523,0.002678,0.000431,0.000353
54916000,0.0324,0.013523,0.002678,0.000431,0.000588
54917000,0.0324,0.013523,0.002678,0.000431,0.000353
54918000,0.0324,0.013523,0.002678,0.000431,0.000588
54919000,0.0324,0.013523,0.002678,0.000431,0.000353
54920000,0.0324,0.013523,0.002678,0.000431,0.000588
54921000,0.0324,0.013523,0.002678,0.000431,0.000353
54922000,0.0324,0.013523,0.002678,0.000431,0.000588
54923000,0.0324,0.013523,0.002678,0.000431,0.000470
54924000,0.0324,0.013523,0.002678,0.000431,0.000588
54925000,0.0324,0.013523,0.002678,0.000431,0.000235
54926000,0.0324,0.013523,0.002678,0.000431,0.000588
54927000,0.0324,0.013523,0.002678,0.000431,0.000353
54928000,0.0324,0.013523,0.002678,0.000431,0.000588
54929000,0.0324,0.013523,0.002678,0.000431,0.000353
54930000,0.0324,0.013523,0.002678,0.000431,0.000588
54931000,0.0324,0.013523,0.002678,0.000431,0.000353
54932000,0.0324,0.013523,0.002678,0.000431,0.000588
54933000,0.0324,0.013523,0.002678,0.000431,0.000353
54934000,0.0324,0.013523,0.002678,0.000431,0.000470
54935000,0.0324,0.013523,0.002678,0.000431,0.000470
54936000,0.0324,0.013523,0.002678,0.000431,0.000588
54937000,0.0324,0.013523,0.002678,0.000431,0.000588
54938000,0.0324,0.013523,0.002678,0.000431,0.000470
54939000,0.0324,0.013523,0.002678,0.000431,0.000470
54940000,0.0324,0.013523,0.002678,0.000431,0.000470
54941000,0.0324,0.013523,0.002678,0.000431,0.000470
54942000,0.0324,0.013523,0.002678,0.000431,0.000588
54943000,0.0324,0.013523,0.002678,0.000431,0.000470
54944000,0.0324,0.013523,0.002678,0.000431,0.000705
54945000,0.0324,0.013523,0.002678,0.000431,0.000353
54946000,0.0324,0.013523,0.002678,0.000431,0.000588
54947000,0.0324,0.013523,0.002678,0.000431,0.000353
54948000,0.0324,0.013523,0.002678,0.000431,0.000588
54949000,0.0324,0.013523,0.002678,0.000431,0.000353
54950000,0.0324,0.013523,0.002678,0.000431,0.000588
54951000,0.0324,0.013523,0.002678,0.000431,0.000470
54952000,0.0324,0.013523,0.002678,0.000431,0.000470
54953000,0.0324,0.013523,0.002678,0.000431,0.000470
54954000,0.0324,0.013523,0.002678,0.000431,0.000705
54955000,0.0324,0.013523,0.002678,0.000431,0.000353
54956000,0.0324,0.013523,0.002678,0.000431,0.000588
54957000,0.0324,0.013523,0.002678,0.000431,0.000353
54958000,0.0324,0.013523,0.002678,0.000431,0.000705
54959000,0.0324,0.013523,0.002678,0.000431,0.000470
54960000,0.0324,0.013523,0.002678,0.000431,0.000470
54961000,0.0324,0.013523,0.002678,0.000431,0.000588
54962000,0.0324,0.013523,0.002678,0.000431,0.000470
54963000,0.0324,0.013523,0.002678,0.000431,0.000588
54964000,0.0324,0.013523,0.002678,0.000431,0.000353
54965000,0.0324,0.013523,0.002678,0.000431,0.000588
54966000,0.0324,0.013523,0.002678,0.000431,0.000353
54967000,0.0324,0.013523,0.002678,0.000431,0.000588
54968000,0.0324,0.013523,0.002678,0.000431,0.000353
54969000,0.0324,0.013523,0.002678,0.000431,0.000588
54970000,0.0324,0.013523,0.002678,0.000431,0.000353
54971000,0.0324,0.013523,0.002678,0.000431,0.000588
54972000,0.0324,0.013523,0.002678,0.000431,0.000353
54973000,0.0324,0.013523,0.002678,0.000431,0.000588
54974000,0.0324,0.013523,0.002678,0.000431,0.000353
54975000,0.0324,0.013523,0.002678,0.000431,0.000588
54976000,0.0324,0.013523,0.002678,0.000431,0.000353
54977000,0.0324,0.013523,0.002678,0.000431,0.000588
54978000,0.0324,0.013523,0.002678,0.000431,0.000353
54979000,0.0324,0.013523,0.002678,0.000431,0.000470
54980000,0.0324,0.013523,0.002678,0.000431,0.000470
54981000,0.0324,0.013523,0.002678,0.000431,0.000353
54982000,0.0324,0.013523,0.002678,0.000431,0.000705
54983000,0.0324,0.013523,0.002678,0.000431,0.000470
54984000,0.0324,0.013523,0.002678,0.000431,0.000470
54985000,0.0324,0.013523,0.002678,0.000431,0.000470
54986000,0.0324,0.013523,0.002678,0.000431,0.000470
54987000,0.0324,0.013523,0.002678,0.000431,0.000588
54988000,0.0324,0.013523,0.002678,0.000431,0.000470
54989000,0.0324,0.013523,0.002678,0.000431,0.000588
54990000,0.0324,0.013523,0.002678,0.000431,0.000353
54991000,0.0324,0.013523,0.002678,0.000431,0.000588
54992000,0.0324,0.013523,0.002678,0.000431,0.000353
54993000,0.0324,0.013523,0.002678,0.000431,0.000588
54994000,0.0324,0.013523,0.002678,0.000431,0.000353
54995000,0.0324,0.013523,0.002678,0.000431,0.000705
54996000,0.0324,0.013523,0.002678,0.000431,0.000470
54997000,0.0324,0.013523,0.002678,0.000431,0.000705
54998000,0.0324,0.013523,0.002678,0.000431,0.000353
54999000,0.0324,0.013523,0.002678,0.000431,0.000470
