Cycle,Area(mm^2),PeakDynamic(W),SubthresholdLeakage(W),GateLeakage(W),RunTimeDynamic(W)
27000000,0.0324,0.013523,0.002678,0.000431,0.000353
27001000,0.0324,0.013523,0.002678,0.000431,0.000705
27002000,0.0324,0.013523,0.002678,0.000431,0.000470
27003000,0.0324,0.013523,0.002678,0.000431,0.000470
27004000,0.0324,0.013523,0.002678,0.000431,0.000470
27005000,0.0324,0.013523,0.002678,0.000431,0.000470
27006000,0.0324,0.013523,0.002678,0.000431,0.000470
27007000,0.0324,0.013523,0.002678,0.000431,0.000470
27008000,0.0324,0.013523,0.002678,0.000431,0.000470
27009000,0.0324,0.013523,0.002678,0.000431,0.000470
27010000,0.0324,0.013523,0.002678,0.000431,0.000470
27011000,0.0324,0.013523,0.002678,0.000431,0.000470
27012000,0.0324,0.013523,0.002678,0.000431,0.000470
27013000,0.0324,0.013523,0.002678,0.000431,0.000470
27014000,0.0324,0.013523,0.002678,0.000431,0.000353
27015000,0.0324,0.013523,0.002678,0.000431,0.000588
27016000,0.0324,0.013523,0.002678,0.000431,0.000353
27017000,0.0324,0.013523,0.002678,0.000431,0.000588
27018000,0.0324,0.013523,0.002678,0.000431,0.000470
27019000,0.0324,0.013523,0.002678,0.000431,0.000470
27020000,0.0324,0.013523,0.002678,0.000431,0.000470
27021000,0.0324,0.013523,0.002678,0.000431,0.000588
27022000,0.0324,0.013523,0.002678,0.000431,0.000470
27023000,0.0324,0.013523,0.002678,0.000431,0.000705
27024000,0.0324,0.013523,0.002678,0.000431,0.000353
27025000,0.0324,0.013523,0.002678,0.000431,0.000588
27026000,0.0324,0.013523,0.002678,0.000431,0.000353
27027000,0.0324,0.013523,0.002678,0.000431,0.000588
27028000,0.0324,0.013523,0.002678,0.000431,0.000353
27029000,0.0324,0.013523,0.002678,0.000431,0.000588
27030000,0.0324,0.013523,0.002678,0.000431,0.000353
27031000,0.0324,0.013523,0.002678,0.000431,0.000470
27032000,0.0324,0.013523,0.002678,0.000431,0.000470
27033000,0.0324,0.013523,0.002678,0.000431,0.000588
27034000,0.0324,0.013523,0.002678,0.000431,0.000470
27035000,0.0324,0.013523,0.002678,0.000431,0.000588
27036000,0.0324,0.013523,0.002678,0.000431,0.000353
27037000,0.0324,0.013523,0.002678,0.000431,0.000705
27038000,0.0324,0.013523,0.002678,0.000431,0.000353
27039000,0.0324,0.013523,0.002678,0.000431,0.000705
27040000,0.0324,0.013523,0.002678,0.000431,0.000470
27041000,0.0324,0.013523,0.002678,0.000431,0.000470
27042000,0.0324,0.013523,0.002678,0.000431,0.000470
27043000,0.0324,0.013523,0.002678,0.000431,0.000470
27044000,0.0324,0.013523,0.002678,0.000431,0.000353
27045000,0.0324,0.013523,0.002678,0.000431,0.000470
27046000,0.0324,0.013523,0.002678,0.000431,0.000353
27047000,0.0324,0.013523,0.002678,0.000431,0.000588
27048000,0.0324,0.013523,0.002678,0.000431,0.000470
27049000,0.0324,0.013523,0.002678,0.000431,0.000470
27050000,0.0324,0.013523,0.002678,0.000431,0.000353
27051000,0.0324,0.013523,0.002678,0.000431,0.000588
27052000,0.0324,0.013523,0.002678,0.000431,0.000353
27053000,0.0324,0.013523,0.002678,0.000431,0.000588
27054000,0.0324,0.013523,0.002678,0.000431,0.000470
27055000,0.0324,0.013523,0.002678,0.000431,0.000705
27056000,0.0324,0.013523,0.002678,0.000431,0.000353
27057000,0.0324,0.013523,0.002678,0.000431,0.000588
27058000,0.0324,0.013523,0.002678,0.000431,0.000353
27059000,0.0324,0.013523,0.002678,0.000431,0.000823
27060000,0.0324,0.013523,0.002678,0.000431,0.000353
27061000,0.0324,0.013523,0.002678,0.000431,0.000588
27062000,0.0324,0.013523,0.002678,0.000431,0.000353
27063000,0.0324,0.013523,0.002678,0.000431,0.000588
27064000,0.0324,0.013523,0.002678,0.000431,0.000353
27065000,0.0324,0.013523,0.002678,0.000431,0.000470
27066000,0.0324,0.013523,0.002678,0.000431,0.000470
27067000,0.0324,0.013523,0.002678,0.000431,0.000470
27068000,0.0324,0.013523,0.002678,0.000431,0.000470
27069000,0.0324,0.013523,0.002678,0.000431,0.000470
27070000,0.0324,0.013523,0.002678,0.000431,0.000470
27071000,0.0324,0.013523,0.002678,0.000431,0.000470
27072000,0.0324,0.013523,0.002678,0.000431,0.000353
27073000,0.0324,0.013523,0.002678,0.000431,0.000588
27074000,0.0324,0.013523,0.002678,0.000431,0.000353
27075000,0.0324,0.013523,0.002678,0.000431,0.000588
27076000,0.0324,0.013523,0.002678,0.000431,0.000470
27077000,0.0324,0.013523,0.002678,0.000431,0.000470
27078000,0.0324,0.013523,0.002678,0.000431,0.000470
27079000,0.0324,0.013523,0.002678,0.000431,0.000470
27080000,0.0324,0.013523,0.002678,0.000431,0.000353
27081000,0.0324,0.013523,0.002678,0.000431,0.000705
27082000,0.0324,0.013523,0.002678,0.000431,0.000470
27083000,0.0324,0.013523,0.002678,0.000431,0.000705
27084000,0.0324,0.013523,0.002678,0.000431,0.000353
27085000,0.0324,0.013523,0.002678,0.000431,0.000470
27086000,0.0324,0.013523,0.002678,0.000431,0.000353
27087000,0.0324,0.013523,0.002678,0.000431,0.000588
27088000,0.0324,0.013523,0.002678,0.000431,0.000353
27089000,0.0324,0.013523,0.002678,0.000431,0.000588
27090000,0.0324,0.013523,0.002678,0.000431,0.000353
27091000,0.0324,0.013523,0.002678,0.000431,0.000588
27092000,0.0324,0.013523,0.002678,0.000431,0.000470
27093000,0.0324,0.013523,0.002678,0.000431,0.000470
27094000,0.0324,0.013523,0.002678,0.000431,0.000353
27095000,0.0324,0.013523,0.002678,0.000431,0.000588
27096000,0.0324,0.013523,0.002678,0.000431,0.000353
27097000,0.0324,0.013523,0.002678,0.000431,0.000588
27098000,0.0324,0.013523,0.002678,0.000431,0.000353
27099000,0.0324,0.013523,0.002678,0.000431,0.000588
27100000,0.0324,0.013523,0.002678,0.000431,0.000353
27101000,0.0324,0.013523,0.002678,0.000431,0.000588
27102000,0.0324,0.013523,0.002678,0.000431,0.000470
27103000,0.0324,0.013523,0.002678,0.000431,0.000588
27104000,0.0324,0.013523,0.002678,0.000431,0.000470
27105000,0.0324,0.013523,0.002678,0.000431,0.000705
27106000,0.0324,0.013523,0.002678,0.000431,0.000353
27107000,0.0324,0.013523,0.002678,0.000431,0.000588
27108000,0.0324,0.013523,0.002678,0.000431,0.000353
27109000,0.0324,0.013523,0.002678,0.000431,0.000470
27110000,0.0324,0.013523,0.002678,0.000431,0.000470
27111000,0.0324,0.013523,0.002678,0.000431,0.000470
27112000,0.0324,0.013523,0.002678,0.000431,0.000470
27113000,0.0324,0.013523,0.002678,0.000431,0.000470
27114000,0.0324,0.013523,0.002678,0.000431,0.000470
27115000,0.0324,0.013523,0.002678,0.000431,0.000588
27116000,0.0324,0.013523,0.002678,0.000431,0.000470
27117000,0.0324,0.013523,0.002678,0.000431,0.000705
27118000,0.0324,0.013523,0.002678,0.000431,0.000353
27119000,0.0324,0.013523,0.002678,0.000431,0.000588
27120000,0.0324,0.013523,0.002678,0.000431,0.000353
27121000,0.0324,0.013523,0.002678,0.000431,0.000588
27122000,0.0324,0.013523,0.002678,0.000431,0.000470
27123000,0.0324,0.013523,0.002678,0.000431,0.000470
27124000,0.0324,0.013523,0.002678,0.000431,0.000353
27125000,0.0324,0.013523,0.002678,0.000431,0.000588
27126000,0.0324,0.013523,0.002678,0.000431,0.000353
27127000,0.0324,0.013523,0.002678,0.000431,0.000588
27128000,0.0324,0.013523,0.002678,0.000431,0.000470
27129000,0.0324,0.013523,0.002678,0.000431,0.000470
27130000,0.0324,0.013523,0.002678,0.000431,0.000470
27131000,0.0324,0.013523,0.002678,0.000431,0.000705
27132000,0.0324,0.013523,0.002678,0.000431,0.000353
27133000,0.0324,0.013523,0.002678,0.000431,0.000705
27134000,0.0324,0.013523,0.002678,0.000431,0.000588
27135000,0.0324,0.013523,0.002678,0.000431,0.000470
27136000,0.0324,0.013523,0.002678,0.000431,0.000588
27137000,0.0324,0.013523,0.002678,0.000431,0.000353
27138000,0.0324,0.013523,0.002678,0.000431,0.000588
27139000,0.0324,0.013523,0.002678,0.000431,0.000353
27140000,0.0324,0.013523,0.002678,0.000431,0.000588
27141000,0.0324,0.013523,0.002678,0.000431,0.000353
27142000,0.0324,0.013523,0.002678,0.000431,0.000470
27143000,0.0324,0.013523,0.002678,0.000431,0.000470
27144000,0.0324,0.013523,0.002678,0.000431,0.000353
27145000,0.0324,0.013523,0.002678,0.000431,0.000588
27146000,0.0324,0.013523,0.002678,0.000431,0.000353
27147000,0.0324,0.013523,0.002678,0.000431,0.000588
27148000,0.0324,0.013523,0.002678,0.000431,0.000353
27149000,0.0324,0.013523,0.002678,0.000431,0.000588
27150000,0.0324,0.013523,0.002678,0.000431,0.000353
27151000,0.0324,0.013523,0.002678,0.000431,0.000705
27152000,0.0324,0.013523,0.002678,0.000431,0.000470
27153000,0.0324,0.013523,0.002678,0.000431,0.000470
27154000,0.0324,0.013523,0.002678,0.000431,0.000470
27155000,0.0324,0.013523,0.002678,0.000431,0.000470
27156000,0.0324,0.013523,0.002678,0.000431,0.000470
27157000,0.0324,0.013523,0.002678,0.000431,0.000470
27158000,0.0324,0.013523,0.002678,0.000431,0.000470
27159000,0.0324,0.013523,0.002678,0.000431,0.000470
27160000,0.0324,0.013523,0.002678,0.000431,0.000353
27161000,0.0324,0.013523,0.002678,0.000431,0.000588
27162000,0.0324,0.013523,0.002678,0.000431,0.000353
27163000,0.0324,0.013523,0.002678,0.000431,0.000588
27164000,0.0324,0.013523,0.002678,0.000431,0.000353
27165000,0.0324,0.013523,0.002678,0.000431,0.000588
27166000,0.0324,0.013523,0.002678,0.000431,0.000353
27167000,0.0324,0.013523,0.002678,0.000431,0.000705
27168000,0.0324,0.013523,0.002678,0.000431,0.000353
27169000,0.0324,0.013523,0.002678,0.000431,0.000705
27170000,0.0324,0.013523,0.002678,0.000431,0.000588
27171000,0.0324,0.013523,0.002678,0.000431,0.000470
27172000,0.0324,0.013523,0.002678,0.000431,0.000588
27173000,0.0324,0.013523,0.002678,0.000431,0.000353
27174000,0.0324,0.013523,0.002678,0.000431,0.000705
27175000,0.0324,0.013523,0.002678,0.000431,0.000353
27176000,0.0324,0.013523,0.002678,0.000431,0.000705
27177000,0.0324,0.013523,0.002678,0.000431,0.000588
27178000,0.0324,0.013523,0.002678,0.000431,0.000470
27179000,0.0324,0.013523,0.002678,0.000431,0.000705
27180000,0.0324,0.013523,0.002678,0.000431,0.000353
27181000,0.0324,0.013523,0.002678,0.000431,0.000588
27182000,0.0324,0.013523,0.002678,0.000431,0.000470
27183000,0.0324,0.013523,0.002678,0.000431,0.000705
27184000,0.0324,0.013523,0.002678,0.000431,0.000353
27185000,0.0324,0.013523,0.002678,0.000431,0.000588
27186000,0.0324,0.013523,0.002678,0.000431,0.000353
27187000,0.0324,0.013523,0.002678,0.000431,0.000588
27188000,0.0324,0.013523,0.002678,0.000431,0.000353
27189000,0.0324,0.013523,0.002678,0.000431,0.000588
27190000,0.0324,0.013523,0.002678,0.000431,0.000353
27191000,0.0324,0.013523,0.002678,0.000431,0.000705
27192000,0.0324,0.013523,0.002678,0.000431,0.000588
27193000,0.0324,0.013523,0.002678,0.000431,0.000470
27194000,0.0324,0.013523,0.002678,0.000431,0.000705
27195000,0.0324,0.013523,0.002678,0.000431,0.000353
27196000,0.0324,0.013523,0.002678,0.000431,0.000470
27197000,0.0324,0.013523,0.002678,0.000431,0.000470
27198000,0.0324,0.013523,0.002678,0.000431,0.000470
27199000,0.0324,0.013523,0.002678,0.000431,0.000470
27200000,0.0324,0.013523,0.002678,0.000431,0.000470
27201000,0.0324,0.013523,0.002678,0.000431,0.000470
27202000,0.0324,0.013523,0.002678,0.000431,0.000470
27203000,0.0324,0.013523,0.002678,0.000431,0.000470
27204000,0.0324,0.013523,0.002678,0.000431,0.000588
27205000,0.0324,0.013523,0.002678,0.000431,0.000470
27206000,0.0324,0.013523,0.002678,0.000431,0.000705
27207000,0.0324,0.013523,0.002678,0.000431,0.000353
27208000,0.0324,0.013523,0.002678,0.000431,0.000588
27209000,0.0324,0.013523,0.002678,0.000431,0.000470
27210000,0.0324,0.013523,0.002678,0.000431,0.000470
27211000,0.0324,0.013523,0.002678,0.000431,0.000353
27212000,0.0324,0.013523,0.002678,0.000431,0.000588
27213000,0.0324,0.013523,0.002678,0.000431,0.000353
27214000,0.0324,0.013523,0.002678,0.000431,0.000588
27215000,0.0324,0.013523,0.002678,0.000431,0.000353
27216000,0.0324,0.013523,0.002678,0.000431,0.000588
27217000,0.0324,0.013523,0.002678,0.000431,0.000353
27218000,0.0324,0.013523,0.002678,0.000431,0.000470
27219000,0.0324,0.013523,0.002678,0.000431,0.000470
27220000,0.0324,0.013523,0.002678,0.000431,0.000470
27221000,0.0324,0.013523,0.002678,0.000431,0.000470
27222000,0.0324,0.013523,0.002678,0.000431,0.000470
27223000,0.0324,0.013523,0.002678,0.000431,0.000470
27224000,0.0324,0.013523,0.002678,0.000431,0.000588
27225000,0.0324,0.013523,0.002678,0.000431,0.000470
27226000,0.0324,0.013523,0.002678,0.000431,0.000705
27227000,0.0324,0.013523,0.002678,0.000431,0.000353
27228000,0.0324,0.013523,0.002678,0.000431,0.000588
27229000,0.0324,0.013523,0.002678,0.000431,0.000470
27230000,0.0324,0.013523,0.002678,0.000431,0.000588
27231000,0.0324,0.013523,0.002678,0.000431,0.000353
27232000,0.0324,0.013523,0.002678,0.000431,0.000705
27233000,0.0324,0.013523,0.002678,0.000431,0.000353
27234000,0.0324,0.013523,0.002678,0.000431,0.000588
27235000,0.0324,0.013523,0.002678,0.000431,0.000353
27236000,0.0324,0.013523,0.002678,0.000431,0.000588
27237000,0.0324,0.013523,0.002678,0.000431,0.000353
27238000,0.0324,0.013523,0.002678,0.000431,0.000470
27239000,0.0324,0.013523,0.002678,0.000431,0.000470
27240000,0.0324,0.013523,0.002678,0.000431,0.000470
27241000,0.0324,0.013523,0.002678,0.000431,0.000353
27242000,0.0324,0.013523,0.002678,0.000431,0.000588
27243000,0.0324,0.013523,0.002678,0.000431,0.000353
27244000,0.0324,0.013523,0.002678,0.000431,0.000588
27245000,0.0324,0.013523,0.002678,0.000431,0.000353
27246000,0.0324,0.013523,0.002678,0.000431,0.000588
27247000,0.0324,0.013523,0.002678,0.000431,0.000353
27248000,0.0324,0.013523,0.002678,0.000431,0.000588
27249000,0.0324,0.013523,0.002678,0.000431,0.000353
27250000,0.0324,0.013523,0.002678,0.000431,0.000588
27251000,0.0324,0.013523,0.002678,0.000431,0.000353
27252000,0.0324,0.013523,0.002678,0.000431,0.000588
27253000,0.0324,0.013523,0.002678,0.000431,0.000353
27254000,0.0324,0.013523,0.002678,0.000431,0.000705
27255000,0.0324,0.013523,0.002678,0.000431,0.000353
27256000,0.0324,0.013523,0.002678,0.000431,0.000588
27257000,0.0324,0.013523,0.002678,0.000431,0.000353
27258000,0.0324,0.013523,0.002678,0.000431,0.000588
27259000,0.0324,0.013523,0.002678,0.000431,0.000353
27260000,0.0324,0.013523,0.002678,0.000431,0.000588
27261000,0.0324,0.013523,0.002678,0.000431,0.000470
27262000,0.0324,0.013523,0.002678,0.000431,0.000705
27263000,0.0324,0.013523,0.002678,0.000431,0.000353
27264000,0.0324,0.013523,0.002678,0.000431,0.000588
27265000,0.0324,0.013523,0.002678,0.000431,0.000353
27266000,0.0324,0.013523,0.002678,0.000431,0.000588
27267000,0.0324,0.013523,0.002678,0.000431,0.000353
27268000,0.0324,0.013523,0.002678,0.000431,0.000588
27269000,0.0324,0.013523,0.002678,0.000431,0.000470
27270000,0.0324,0.013523,0.002678,0.000431,0.000588
27271000,0.0324,0.013523,0.002678,0.000431,0.000353
27272000,0.0324,0.013523,0.002678,0.000431,0.000588
27273000,0.0324,0.013523,0.002678,0.000431,0.000353
27274000,0.0324,0.013523,0.002678,0.000431,0.000470
27275000,0.0324,0.013523,0.002678,0.000431,0.000353
27276000,0.0324,0.013523,0.002678,0.000431,0.000588
27277000,0.0324,0.013523,0.002678,0.000431,0.000353
27278000,0.0324,0.013523,0.002678,0.000431,0.000588
27279000,0.0324,0.013523,0.002678,0.000431,0.000470
27280000,0.0324,0.013523,0.002678,0.000431,0.000588
27281000,0.0324,0.013523,0.002678,0.000431,0.000353
27282000,0.0324,0.013523,0.002678,0.000431,0.000470
27283000,0.0324,0.013523,0.002678,0.000431,0.000470
27284000,0.0324,0.013523,0.002678,0.000431,0.000470
27285000,0.0324,0.013523,0.002678,0.000431,0.000470
27286000,0.0324,0.013523,0.002678,0.000431,0.000353
27287000,0.0324,0.013523,0.002678,0.000431,0.000588
27288000,0.0324,0.013523,0.002678,0.000431,0.000353
27289000,0.0324,0.013523,0.002678,0.000431,0.000470
27290000,0.0324,0.013523,0.002678,0.000431,0.000470
27291000,0.0324,0.013523,0.002678,0.000431,0.000588
27292000,0.0324,0.013523,0.002678,0.000431,0.000353
27293000,0.0324,0.013523,0.002678,0.000431,0.000588
27294000,0.0324,0.013523,0.002678,0.000431,0.000353
27295000,0.0324,0.013523,0.002678,0.000431,0.000588
27296000,0.0324,0.013523,0.002678,0.000431,0.000353
27297000,0.0324,0.013523,0.002678,0.000431,0.000705
27298000,0.0324,0.013523,0.002678,0.000431,0.000588
27299000,0.0324,0.013523,0.002678,0.000431,0.000470
27300000,0.0324,0.013523,0.002678,0.000431,0.000588
27301000,0.0324,0.013523,0.002678,0.000431,0.000353
27302000,0.0324,0.013523,0.002678,0.000431,0.000588
27303000,0.0324,0.013523,0.002678,0.000431,0.000353
27304000,0.0324,0.013523,0.002678,0.000431,0.000470
27305000,0.0324,0.013523,0.002678,0.000431,0.000470
27306000,0.0324,0.013523,0.002678,0.000431,0.000470
27307000,0.0324,0.013523,0.002678,0.000431,0.000470
27308000,0.0324,0.013523,0.002678,0.000431,0.000470
27309000,0.0324,0.013523,0.002678,0.000431,0.000470
27310000,0.0324,0.013523,0.002678,0.000431,0.000353
27311000,0.0324,0.013523,0.002678,0.000431,0.000588
27312000,0.0324,0.013523,0.002678,0.000431,0.000353
27313000,0.0324,0.013523,0.002678,0.000431,0.000588
27314000,0.0324,0.013523,0.002678,0.000431,0.000353
27315000,0.0324,0.013523,0.002678,0.000431,0.000588
27316000,0.0324,0.013523,0.002678,0.000431,0.000353
27317000,0.0324,0.013523,0.002678,0.000431,0.000588
27318000,0.0324,0.013523,0.002678,0.000431,0.000353
27319000,0.0324,0.013523,0.002678,0.000431,0.000588
27320000,0.0324,0.013523,0.002678,0.000431,0.000353
27321000,0.0324,0.013523,0.002678,0.000431,0.000705
27322000,0.0324,0.013523,0.002678,0.000431,0.000235
27323000,0.0324,0.013523,0.002678,0.000431,0.000588
27324000,0.0324,0.013523,0.002678,0.000431,0.000353
27325000,0.0324,0.013523,0.002678,0.000431,0.000588
27326000,0.0324,0.013523,0.002678,0.000431,0.000353
27327000,0.0324,0.013523,0.002678,0.000431,0.000705
27328000,0.0324,0.013523,0.002678,0.000431,0.000353
27329000,0.0324,0.013523,0.002678,0.000431,0.000588
27330000,0.0324,0.013523,0.002678,0.000431,0.000353
27331000,0.0324,0.013523,0.002678,0.000431,0.000470
27332000,0.0324,0.013523,0.002678,0.000431,0.000470
27333000,0.0324,0.013523,0.002678,0.000431,0.000470
27334000,0.0324,0.013523,0.002678,0.000431,0.000470
27335000,0.0324,0.013523,0.002678,0.000431,0.000353
27336000,0.0324,0.013523,0.002678,0.000431,0.000588
27337000,0.0324,0.013523,0.002678,0.000431,0.000353
27338000,0.0324,0.013523,0.002678,0.000431,0.000705
27339000,0.0324,0.013523,0.002678,0.000431,0.000588
27340000,0.0324,0.013523,0.002678,0.000431,0.000470
27341000,0.0324,0.013523,0.002678,0.000431,0.000705
27342000,0.0324,0.013523,0.002678,0.000431,0.000470
27343000,0.0324,0.013523,0.002678,0.000431,0.000588
27344000,0.0324,0.013523,0.002678,0.000431,0.000353
27345000,0.0324,0.013523,0.002678,0.000431,0.000588
27346000,0.0324,0.013523,0.002678,0.000431,0.000353
27347000,0.0324,0.013523,0.002678,0.000431,0.000705
27348000,0.0324,0.013523,0.002678,0.000431,0.000353
27349000,0.0324,0.013523,0.002678,0.000431,0.000588
27350000,0.0324,0.013523,0.002678,0.000431,0.000470
27351000,0.0324,0.013523,0.002678,0.000431,0.000588
27352000,0.0324,0.013523,0.002678,0.000431,0.000353
27353000,0.0324,0.013523,0.002678,0.000431,0.000470
27354000,0.0324,0.013523,0.002678,0.000431,0.000353
27355000,0.0324,0.013523,0.002678,0.000431,0.000588
27356000,0.0324,0.013523,0.002678,0.000431,0.000353
27357000,0.0324,0.013523,0.002678,0.000431,0.000705
27358000,0.0324,0.013523,0.002678,0.000431,0.000353
27359000,0.0324,0.013523,0.002678,0.000431,0.000705
27360000,0.0324,0.013523,0.002678,0.000431,0.000353
27361000,0.0324,0.013523,0.002678,0.000431,0.000705
27362000,0.0324,0.013523,0.002678,0.000431,0.000588
27363000,0.0324,0.013523,0.002678,0.000431,0.000470
27364000,0.0324,0.013523,0.002678,0.000431,0.000705
27365000,0.0324,0.013523,0.002678,0.000431,0.000353
27366000,0.0324,0.013523,0.002678,0.000431,0.000588
27367000,0.0324,0.013523,0.002678,0.000431,0.000353
27368000,0.0324,0.013523,0.002678,0.000431,0.000588
27369000,0.0324,0.013523,0.002678,0.000431,0.000353
27370000,0.0324,0.013523,0.002678,0.000431,0.000470
27371000,0.0324,0.013523,0.002678,0.000431,0.000470
27372000,0.0324,0.013523,0.002678,0.000431,0.000470
27373000,0.0324,0.013523,0.002678,0.000431,0.000470
27374000,0.0324,0.013523,0.002678,0.000431,0.000588
27375000,0.0324,0.013523,0.002678,0.000431,0.000470
27376000,0.0324,0.013523,0.002678,0.000431,0.000705
27377000,0.0324,0.013523,0.002678,0.000431,0.000353
27378000,0.0324,0.013523,0.002678,0.000431,0.000588
27379000,0.0324,0.013523,0.002678,0.000431,0.000353
27380000,0.0324,0.013523,0.002678,0.000431,0.000588
27381000,0.0324,0.013523,0.002678,0.000431,0.000470
27382000,0.0324,0.013523,0.002678,0.000431,0.000588
27383000,0.0324,0.013523,0.002678,0.000431,0.000353
27384000,0.0324,0.013523,0.002678,0.000431,0.000588
27385000,0.0324,0.013523,0.002678,0.000431,0.000353
27386000,0.0324,0.013523,0.002678,0.000431,0.000588
27387000,0.0324,0.013523,0.002678,0.000431,0.000353
27388000,0.0324,0.013523,0.002678,0.000431,0.000588
27389000,0.0324,0.013523,0.002678,0.000431,0.000353
27390000,0.0324,0.013523,0.002678,0.000431,0.000588
27391000,0.0324,0.013523,0.002678,0.000431,0.000353
27392000,0.0324,0.013523,0.002678,0.000431,0.000470
27393000,0.0324,0.013523,0.002678,0.000431,0.000470
27394000,0.0324,0.013523,0.002678,0.000431,0.000470
27395000,0.0324,0.013523,0.002678,0.000431,0.000470
27396000,0.0324,0.013523,0.002678,0.000431,0.000353
27397000,0.0324,0.013523,0.002678,0.000431,0.000588
27398000,0.0324,0.013523,0.002678,0.000431,0.000353
27399000,0.0324,0.013523,0.002678,0.000431,0.000588
27400000,0.0324,0.013523,0.002678,0.000431,0.000353
27401000,0.0324,0.013523,0.002678,0.000431,0.000588
27402000,0.0324,0.013523,0.002678,0.000431,0.000353
27403000,0.0324,0.013523,0.002678,0.000431,0.000588
27404000,0.0324,0.013523,0.002678,0.000431,0.000353
27405000,0.0324,0.013523,0.002678,0.000431,0.000705
27406000,0.0324,0.013523,0.002678,0.000431,0.000470
27407000,0.0324,0.013523,0.002678,0.000431,0.000470
27408000,0.0324,0.013523,0.002678,0.000431,0.000470
27409000,0.0324,0.013523,0.002678,0.000431,0.000470
27410000,0.0324,0.013523,0.002678,0.000431,0.000470
27411000,0.0324,0.013523,0.002678,0.000431,0.000470
27412000,0.0324,0.013523,0.002678,0.000431,0.000470
27413000,0.0324,0.013523,0.002678,0.000431,0.000470
27414000,0.0324,0.013523,0.002678,0.000431,0.000470
27415000,0.0324,0.013523,0.002678,0.000431,0.000470
27416000,0.0324,0.013523,0.002678,0.000431,0.000470
27417000,0.0324,0.013523,0.002678,0.000431,0.000588
27418000,0.0324,0.013523,0.002678,0.000431,0.000588
27419000,0.0324,0.013523,0.002678,0.000431,0.000353
27420000,0.0324,0.013523,0.002678,0.000431,0.000588
27421000,0.0324,0.013523,0.002678,0.000431,0.000470
27422000,0.0324,0.013523,0.002678,0.000431,0.000353
27423000,0.0324,0.013523,0.002678,0.000431,0.000588
27424000,0.0324,0.013523,0.002678,0.000431,0.000353
27425000,0.0324,0.013523,0.002678,0.000431,0.000470
27426000,0.0324,0.013523,0.002678,0.000431,0.000353
27427000,0.0324,0.013523,0.002678,0.000431,0.000705
27428000,0.0324,0.013523,0.002678,0.000431,0.000353
27429000,0.0324,0.013523,0.002678,0.000431,0.000588
27430000,0.0324,0.013523,0.002678,0.000431,0.000353
27431000,0.0324,0.013523,0.002678,0.000431,0.000588
27432000,0.0324,0.013523,0.002678,0.000431,0.000353
27433000,0.0324,0.013523,0.002678,0.000431,0.000588
27434000,0.0324,0.013523,0.002678,0.000431,0.000353
27435000,0.0324,0.013523,0.002678,0.000431,0.000705
27436000,0.0324,0.013523,0.002678,0.000431,0.000353
27437000,0.0324,0.013523,0.002678,0.000431,0.000705
27438000,0.0324,0.013523,0.002678,0.000431,0.000588
27439000,0.0324,0.013523,0.002678,0.000431,0.000470
27440000,0.0324,0.013523,0.002678,0.000431,0.000588
27441000,0.0324,0.013523,0.002678,0.000431,0.000353
27442000,0.0324,0.013523,0.002678,0.000431,0.000588
27443000,0.0324,0.013523,0.002678,0.000431,0.000353
27444000,0.0324,0.013523,0.002678,0.000431,0.000470
27445000,0.0324,0.013523,0.002678,0.000431,0.000470
27446000,0.0324,0.013523,0.002678,0.000431,0.000470
27447000,0.0324,0.013523,0.002678,0.000431,0.000470
27448000,0.0324,0.013523,0.002678,0.000431,0.000353
27449000,0.0324,0.013523,0.002678,0.000431,0.000588
27450000,0.0324,0.013523,0.002678,0.000431,0.000470
27451000,0.0324,0.013523,0.002678,0.000431,0.000470
27452000,0.0324,0.013523,0.002678,0.000431,0.000353
27453000,0.0324,0.013523,0.002678,0.000431,0.000588
27454000,0.0324,0.013523,0.002678,0.000431,0.000470
27455000,0.0324,0.013523,0.002678,0.000431,0.000588
27456000,0.0324,0.013523,0.002678,0.000431,0.000353
27457000,0.0324,0.013523,0.002678,0.000431,0.000588
27458000,0.0324,0.013523,0.002678,0.000431,0.000470
27459000,0.0324,0.013523,0.002678,0.000431,0.000470
27460000,0.0324,0.013523,0.002678,0.000431,0.000588
27461000,0.0324,0.013523,0.002678,0.000431,0.000353
27462000,0.0324,0.013523,0.002678,0.000431,0.000588
27463000,0.0324,0.013523,0.002678,0.000431,0.000353
27464000,0.0324,0.013523,0.002678,0.000431,0.000588
27465000,0.0324,0.013523,0.002678,0.000431,0.000353
27466000,0.0324,0.013523,0.002678,0.000431,0.000588
27467000,0.0324,0.013523,0.002678,0.000431,0.000470
27468000,0.0324,0.013523,0.002678,0.000431,0.000470
27469000,0.0324,0.013523,0.002678,0.000431,0.000353
27470000,0.0324,0.013523,0.002678,0.000431,0.000705
27471000,0.0324,0.013523,0.002678,0.000431,0.000353
27472000,0.0324,0.013523,0.002678,0.000431,0.000588
27473000,0.0324,0.013523,0.002678,0.000431,0.000353
27474000,0.0324,0.013523,0.002678,0.000431,0.000588
27475000,0.0324,0.013523,0.002678,0.000431,0.000235
27476000,0.0324,0.013523,0.002678,0.000431,0.000588
27477000,0.0324,0.013523,0.002678,0.000431,0.000353
27478000,0.0324,0.013523,0.002678,0.000431,0.000588
27479000,0.0324,0.013523,0.002678,0.000431,0.000353
27480000,0.0324,0.013523,0.002678,0.000431,0.000588
27481000,0.0324,0.013523,0.002678,0.000431,0.000353
27482000,0.0324,0.013523,0.002678,0.000431,0.000470
27483000,0.0324,0.013523,0.002678,0.000431,0.000470
27484000,0.0324,0.013523,0.002678,0.000431,0.000588
27485000,0.0324,0.013523,0.002678,0.000431,0.000470
27486000,0.0324,0.013523,0.002678,0.000431,0.000470
27487000,0.0324,0.013523,0.002678,0.000431,0.000470
27488000,0.0324,0.013523,0.002678,0.000431,0.000353
27489000,0.0324,0.013523,0.002678,0.000431,0.000588
27490000,0.0324,0.013523,0.002678,0.000431,0.000353
27491000,0.0324,0.013523,0.002678,0.000431,0.000588
27492000,0.0324,0.013523,0.002678,0.000431,0.000353
27493000,0.0324,0.013523,0.002678,0.000431,0.000470
27494000,0.0324,0.013523,0.002678,0.000431,0.000470
27495000,0.0324,0.013523,0.002678,0.000431,0.000470
27496000,0.0324,0.013523,0.002678,0.000431,0.000470
27497000,0.0324,0.013523,0.002678,0.000431,0.000588
27498000,0.0324,0.013523,0.002678,0.000431,0.000353
27499000,0.0324,0.013523,0.002678,0.000431,0.000588
27500000,0.0324,0.013523,0.002678,0.000431,0.000353
27501000,0.0324,0.013523,0.002678,0.000431,0.000705
27502000,0.0324,0.013523,0.002678,0.000431,0.000470
27503000,0.0324,0.013523,0.002678,0.000431,0.000470
27504000,0.0324,0.013523,0.002678,0.000431,0.000470
27505000,0.0324,0.013523,0.002678,0.000431,0.000470
27506000,0.0324,0.013523,0.002678,0.000431,0.000470
27507000,0.0324,0.013523,0.002678,0.000431,0.000470
27508000,0.0324,0.013523,0.002678,0.000431,0.000588
27509000,0.0324,0.013523,0.002678,0.000431,0.000705
27510000,0.0324,0.013523,0.002678,0.000431,0.000353
27511000,0.0324,0.013523,0.002678,0.000431,0.000588
27512000,0.0324,0.013523,0.002678,0.000431,0.000353
27513000,0.0324,0.013523,0.002678,0.000431,0.000588
27514000,0.0324,0.013523,0.002678,0.000431,0.000353
27515000,0.0324,0.013523,0.002678,0.000431,0.000470
27516000,0.0324,0.013523,0.002678,0.000431,0.000470
27517000,0.0324,0.013523,0.002678,0.000431,0.000470
27518000,0.0324,0.013523,0.002678,0.000431,0.000470
27519000,0.0324,0.013523,0.002678,0.000431,0.000588
27520000,0.0324,0.013523,0.002678,0.000431,0.000470
27521000,0.0324,0.013523,0.002678,0.000431,0.000705
27522000,0.0324,0.013523,0.002678,0.000431,0.000353
27523000,0.0324,0.013523,0.002678,0.000431,0.000588
27524000,0.0324,0.013523,0.002678,0.000431,0.000353
27525000,0.0324,0.013523,0.002678,0.000431,0.000588
27526000,0.0324,0.013523,0.002678,0.000431,0.000353
27527000,0.0324,0.013523,0.002678,0.000431,0.000705
27528000,0.0324,0.013523,0.002678,0.000431,0.000470
27529000,0.0324,0.013523,0.002678,0.000431,0.000470
27530000,0.0324,0.013523,0.002678,0.000431,0.000470
27531000,0.0324,0.013523,0.002678,0.000431,0.000470
27532000,0.0324,0.013523,0.002678,0.000431,0.000470
27533000,0.0324,0.013523,0.002678,0.000431,0.000470
27534000,0.0324,0.013523,0.002678,0.000431,0.000470
27535000,0.0324,0.013523,0.002678,0.000431,0.000470
27536000,0.0324,0.013523,0.002678,0.000431,0.000470
27537000,0.0324,0.013523,0.002678,0.000431,0.000588
27538000,0.0324,0.013523,0.002678,0.000431,0.000470
27539000,0.0324,0.013523,0.002678,0.000431,0.000588
27540000,0.0324,0.013523,0.002678,0.000431,0.000588
27541000,0.0324,0.013523,0.002678,0.000431,0.000470
27542000,0.0324,0.013523,0.002678,0.000431,0.000705
27543000,0.0324,0.013523,0.002678,0.000431,0.000353
27544000,0.0324,0.013523,0.002678,0.000431,0.000588
27545000,0.0324,0.013523,0.002678,0.000431,0.000353
27546000,0.0324,0.013523,0.002678,0.000431,0.000588
27547000,0.0324,0.013523,0.002678,0.000431,0.000353
27548000,0.0324,0.013523,0.002678,0.000431,0.000588
27549000,0.0324,0.013523,0.002678,0.000431,0.000353
27550000,0.0324,0.013523,0.002678,0.000431,0.000588
27551000,0.0324,0.013523,0.002678,0.000431,0.000353
27552000,0.0324,0.013523,0.002678,0.000431,0.000588
27553000,0.0324,0.013523,0.002678,0.000431,0.000353
27554000,0.0324,0.013523,0.002678,0.000431,0.000588
27555000,0.0324,0.013523,0.002678,0.000431,0.000353
27556000,0.0324,0.013523,0.002678,0.000431,0.000588
27557000,0.0324,0.013523,0.002678,0.000431,0.000353
27558000,0.0324,0.013523,0.002678,0.000431,0.000588
27559000,0.0324,0.013523,0.002678,0.000431,0.000353
27560000,0.0324,0.013523,0.002678,0.000431,0.000470
27561000,0.0324,0.013523,0.002678,0.000431,0.000470
27562000,0.0324,0.013523,0.002678,0.000431,0.000470
27563000,0.0324,0.013523,0.002678,0.000431,0.000470
27564000,0.0324,0.013523,0.002678,0.000431,0.000470
27565000,0.0324,0.013523,0.002678,0.000431,0.000470
27566000,0.0324,0.013523,0.002678,0.000431,0.000470
27567000,0.0324,0.013523,0.002678,0.000431,0.000470
27568000,0.0324,0.013523,0.002678,0.000431,0.000470
27569000,0.0324,0.013523,0.002678,0.000431,0.000470
27570000,0.0324,0.013523,0.002678,0.000431,0.000470
27571000,0.0324,0.013523,0.002678,0.000431,0.000470
27572000,0.0324,0.013523,0.002678,0.000431,0.000588
27573000,0.0324,0.013523,0.002678,0.000431,0.000470
27574000,0.0324,0.013523,0.002678,0.000431,0.000588
27575000,0.0324,0.013523,0.002678,0.000431,0.000353
27576000,0.0324,0.013523,0.002678,0.000431,0.000588
27577000,0.0324,0.013523,0.002678,0.000431,0.000353
27578000,0.0324,0.013523,0.002678,0.000431,0.000588
27579000,0.0324,0.013523,0.002678,0.000431,0.000353
27580000,0.0324,0.013523,0.002678,0.000431,0.000588
27581000,0.0324,0.013523,0.002678,0.000431,0.000470
27582000,0.0324,0.013523,0.002678,0.000431,0.000470
27583000,0.0324,0.013523,0.002678,0.000431,0.000470
27584000,0.0324,0.013523,0.002678,0.000431,0.000470
27585000,0.0324,0.013523,0.002678,0.000431,0.000470
27586000,0.0324,0.013523,0.002678,0.000431,0.000470
27587000,0.0324,0.013523,0.002678,0.000431,0.000470
27588000,0.0324,0.013523,0.002678,0.000431,0.000470
27589000,0.0324,0.013523,0.002678,0.000431,0.000470
27590000,0.0324,0.013523,0.002678,0.000431,0.000470
27591000,0.0324,0.013523,0.002678,0.000431,0.000470
27592000,0.0324,0.013523,0.002678,0.000431,0.000353
27593000,0.0324,0.013523,0.002678,0.000431,0.000588
27594000,0.0324,0.013523,0.002678,0.000431,0.000353
27595000,0.0324,0.013523,0.002678,0.000431,0.000588
27596000,0.0324,0.013523,0.002678,0.000431,0.000470
27597000,0.0324,0.013523,0.002678,0.000431,0.000470
27598000,0.0324,0.013523,0.002678,0.000431,0.000353
27599000,0.0324,0.013523,0.002678,0.000431,0.000588
27600000,0.0324,0.013523,0.002678,0.000431,0.000470
27601000,0.0324,0.013523,0.002678,0.000431,0.000470
27602000,0.0324,0.013523,0.002678,0.000431,0.000470
27603000,0.0324,0.013523,0.002678,0.000431,0.000470
27604000,0.0324,0.013523,0.002678,0.000431,0.000470
27605000,0.0324,0.013523,0.002678,0.000431,0.000470
27606000,0.0324,0.013523,0.002678,0.000431,0.000470
27607000,0.0324,0.013523,0.002678,0.000431,0.000470
27608000,0.0324,0.013523,0.002678,0.000431,0.000353
27609000,0.0324,0.013523,0.002678,0.000431,0.000588
27610000,0.0324,0.013523,0.002678,0.000431,0.000353
27611000,0.0324,0.013523,0.002678,0.000431,0.000588
27612000,0.0324,0.013523,0.002678,0.000431,0.000353
27613000,0.0324,0.013523,0.002678,0.000431,0.000705
27614000,0.0324,0.013523,0.002678,0.000431,0.000470
27615000,0.0324,0.013523,0.002678,0.000431,0.000470
27616000,0.0324,0.013523,0.002678,0.000431,0.000470
27617000,0.0324,0.013523,0.002678,0.000431,0.000470
27618000,0.0324,0.013523,0.002678,0.000431,0.000470
27619000,0.0324,0.013523,0.002678,0.000431,0.000353
27620000,0.0324,0.013523,0.002678,0.000431,0.000588
27621000,0.0324,0.013523,0.002678,0.000431,0.000353
27622000,0.0324,0.013523,0.002678,0.000431,0.000588
27623000,0.0324,0.013523,0.002678,0.000431,0.000353
27624000,0.0324,0.013523,0.002678,0.000431,0.000588
27625000,0.0324,0.013523,0.002678,0.000431,0.000353
27626000,0.0324,0.013523,0.002678,0.000431,0.000705
27627000,0.0324,0.013523,0.002678,0.000431,0.000588
27628000,0.0324,0.013523,0.002678,0.000431,0.000470
27629000,0.0324,0.013523,0.002678,0.000431,0.000588
27630000,0.0324,0.013523,0.002678,0.000431,0.000353
27631000,0.0324,0.013523,0.002678,0.000431,0.000588
27632000,0.0324,0.013523,0.002678,0.000431,0.000353
27633000,0.0324,0.013523,0.002678,0.000431,0.000588
27634000,0.0324,0.013523,0.002678,0.000431,0.000353
27635000,0.0324,0.013523,0.002678,0.000431,0.000588
27636000,0.0324,0.013523,0.002678,0.000431,0.000353
27637000,0.0324,0.013523,0.002678,0.000431,0.000470
27638000,0.0324,0.013523,0.002678,0.000431,0.000470
27639000,0.0324,0.013523,0.002678,0.000431,0.000470
27640000,0.0324,0.013523,0.002678,0.000431,0.000470
27641000,0.0324,0.013523,0.002678,0.000431,0.000353
27642000,0.0324,0.013523,0.002678,0.000431,0.000705
27643000,0.0324,0.013523,0.002678,0.000431,0.000470
27644000,0.0324,0.013523,0.002678,0.000431,0.000470
27645000,0.0324,0.013523,0.002678,0.000431,0.000470
27646000,0.0324,0.013523,0.002678,0.000431,0.000588
27647000,0.0324,0.013523,0.002678,0.000431,0.000353
27648000,0.0324,0.013523,0.002678,0.000431,0.000588
27649000,0.0324,0.013523,0.002678,0.000431,0.000353
27650000,0.0324,0.013523,0.002678,0.000431,0.000588
27651000,0.0324,0.013523,0.002678,0.000431,0.000353
27652000,0.0324,0.013523,0.002678,0.000431,0.000588
27653000,0.0324,0.013523,0.002678,0.000431,0.000353
27654000,0.0324,0.013523,0.002678,0.000431,0.000588
27655000,0.0324,0.013523,0.002678,0.000431,0.000353
27656000,0.0324,0.013523,0.002678,0.000431,0.000588
27657000,0.0324,0.013523,0.002678,0.000431,0.000353
27658000,0.0324,0.013523,0.002678,0.000431,0.000470
27659000,0.0324,0.013523,0.002678,0.000431,0.000470
27660000,0.0324,0.013523,0.002678,0.000431,0.000705
27661000,0.0324,0.013523,0.002678,0.000431,0.000470
27662000,0.0324,0.013523,0.002678,0.000431,0.000470
27663000,0.0324,0.013523,0.002678,0.000431,0.000353
27664000,0.0324,0.013523,0.002678,0.000431,0.000470
27665000,0.0324,0.013523,0.002678,0.000431,0.000353
27666000,0.0324,0.013523,0.002678,0.000431,0.000588
27667000,0.0324,0.013523,0.002678,0.000431,0.000353
27668000,0.0324,0.013523,0.002678,0.000431,0.000588
27669000,0.0324,0.013523,0.002678,0.000431,0.000353
27670000,0.0324,0.013523,0.002678,0.000431,0.000588
27671000,0.0324,0.013523,0.002678,0.000431,0.000353
27672000,0.0324,0.013523,0.002678,0.000431,0.000588
27673000,0.0324,0.013523,0.002678,0.000431,0.000470
27674000,0.0324,0.013523,0.002678,0.000431,0.000705
27675000,0.0324,0.013523,0.002678,0.000431,0.000353
27676000,0.0324,0.013523,0.002678,0.000431,0.000588
27677000,0.0324,0.013523,0.002678,0.000431,0.000353
27678000,0.0324,0.013523,0.002678,0.000431,0.000588
27679000,0.0324,0.013523,0.002678,0.000431,0.000353
27680000,0.0324,0.013523,0.002678,0.000431,0.000588
27681000,0.0324,0.013523,0.002678,0.000431,0.000353
27682000,0.0324,0.013523,0.002678,0.000431,0.000588
27683000,0.0324,0.013523,0.002678,0.000431,0.000353
27684000,0.0324,0.013523,0.002678,0.000431,0.000588
27685000,0.0324,0.013523,0.002678,0.000431,0.000353
27686000,0.0324,0.013523,0.002678,0.000431,0.000588
27687000,0.0324,0.013523,0.002678,0.000431,0.000470
27688000,0.0324,0.013523,0.002678,0.000431,0.000705
27689000,0.0324,0.013523,0.002678,0.000431,0.000353
27690000,0.0324,0.013523,0.002678,0.000431,0.000705
27691000,0.0324,0.013523,0.002678,0.000431,0.000588
27692000,0.0324,0.013523,0.002678,0.000431,0.000470
27693000,0.0324,0.013523,0.002678,0.000431,0.000705
27694000,0.0324,0.013523,0.002678,0.000431,0.000353
27695000,0.0324,0.013523,0.002678,0.000431,0.000705
27696000,0.0324,0.013523,0.002678,0.000431,0.000353
27697000,0.0324,0.013523,0.002678,0.000431,0.000705
27698000,0.0324,0.013523,0.002678,0.000431,0.000470
27699000,0.0324,0.013523,0.002678,0.000431,0.000588
27700000,0.0324,0.013523,0.002678,0.000431,0.000353
27701000,0.0324,0.013523,0.002678,0.000431,0.000588
27702000,0.0324,0.013523,0.002678,0.000431,0.000353
27703000,0.0324,0.013523,0.002678,0.000431,0.000588
27704000,0.0324,0.013523,0.002678,0.000431,0.000353
27705000,0.0324,0.013523,0.002678,0.000431,0.000588
27706000,0.0324,0.013523,0.002678,0.000431,0.000353
27707000,0.0324,0.013523,0.002678,0.000431,0.000588
27708000,0.0324,0.013523,0.002678,0.000431,0.000353
27709000,0.0324,0.013523,0.002678,0.000431,0.000588
27710000,0.0324,0.013523,0.002678,0.000431,0.000353
27711000,0.0324,0.013523,0.002678,0.000431,0.000705
27712000,0.0324,0.013523,0.002678,0.000431,0.000353
27713000,0.0324,0.013523,0.002678,0.000431,0.000705
27714000,0.0324,0.013523,0.002678,0.000431,0.000588
27715000,0.0324,0.013523,0.002678,0.000431,0.000470
27716000,0.0324,0.013523,0.002678,0.000431,0.000588
27717000,0.0324,0.013523,0.002678,0.000431,0.000353
27718000,0.0324,0.013523,0.002678,0.000431,0.000470
27719000,0.0324,0.013523,0.002678,0.000431,0.000470
27720000,0.0324,0.013523,0.002678,0.000431,0.000470
27721000,0.0324,0.013523,0.002678,0.000431,0.000470
27722000,0.0324,0.013523,0.002678,0.000431,0.000353
27723000,0.0324,0.013523,0.002678,0.000431,0.000588
27724000,0.0324,0.013523,0.002678,0.000431,0.000353
27725000,0.0324,0.013523,0.002678,0.000431,0.000588
27726000,0.0324,0.013523,0.002678,0.000431,0.000353
27727000,0.0324,0.013523,0.002678,0.000431,0.000705
27728000,0.0324,0.013523,0.002678,0.000431,0.000588
27729000,0.0324,0.013523,0.002678,0.000431,0.000470
27730000,0.0324,0.013523,0.002678,0.000431,0.000588
27731000,0.0324,0.013523,0.002678,0.000431,0.000353
27732000,0.0324,0.013523,0.002678,0.000431,0.000588
27733000,0.0324,0.013523,0.002678,0.000431,0.000353
27734000,0.0324,0.013523,0.002678,0.000431,0.000588
27735000,0.0324,0.013523,0.002678,0.000431,0.000353
27736000,0.0324,0.013523,0.002678,0.000431,0.000588
27737000,0.0324,0.013523,0.002678,0.000431,0.000353
27738000,0.0324,0.013523,0.002678,0.000431,0.000588
27739000,0.0324,0.013523,0.002678,0.000431,0.000353
27740000,0.0324,0.013523,0.002678,0.000431,0.000470
27741000,0.0324,0.013523,0.002678,0.000431,0.000470
27742000,0.0324,0.013523,0.002678,0.000431,0.000470
27743000,0.0324,0.013523,0.002678,0.000431,0.000470
27744000,0.0324,0.013523,0.002678,0.000431,0.000353
27745000,0.0324,0.013523,0.002678,0.000431,0.000588
27746000,0.0324,0.013523,0.002678,0.000431,0.000353
27747000,0.0324,0.013523,0.002678,0.000431,0.000588
27748000,0.0324,0.013523,0.002678,0.000431,0.000353
27749000,0.0324,0.013523,0.002678,0.000431,0.000588
27750000,0.0324,0.013523,0.002678,0.000431,0.000353
27751000,0.0324,0.013523,0.002678,0.000431,0.000588
27752000,0.0324,0.013523,0.002678,0.000431,0.000353
27753000,0.0324,0.013523,0.002678,0.000431,0.000705
27754000,0.0324,0.013523,0.002678,0.000431,0.000588
27755000,0.0324,0.013523,0.002678,0.000431,0.000470
27756000,0.0324,0.013523,0.002678,0.000431,0.000705
27757000,0.0324,0.013523,0.002678,0.000431,0.000353
27758000,0.0324,0.013523,0.002678,0.000431,0.000588
27759000,0.0324,0.013523,0.002678,0.000431,0.000353
27760000,0.0324,0.013523,0.002678,0.000431,0.000588
27761000,0.0324,0.013523,0.002678,0.000431,0.000353
27762000,0.0324,0.013523,0.002678,0.000431,0.000470
27763000,0.0324,0.013523,0.002678,0.000431,0.000470
27764000,0.0324,0.013523,0.002678,0.000431,0.000470
27765000,0.0324,0.013523,0.002678,0.000431,0.000588
27766000,0.0324,0.013523,0.002678,0.000431,0.000353
27767000,0.0324,0.013523,0.002678,0.000431,0.000470
27768000,0.0324,0.013523,0.002678,0.000431,0.000470
27769000,0.0324,0.013523,0.002678,0.000431,0.000588
27770000,0.0324,0.013523,0.002678,0.000431,0.000353
27771000,0.0324,0.013523,0.002678,0.000431,0.000588
27772000,0.0324,0.013523,0.002678,0.000431,0.000353
27773000,0.0324,0.013523,0.002678,0.000431,0.000588
27774000,0.0324,0.013523,0.002678,0.000431,0.000353
27775000,0.0324,0.013523,0.002678,0.000431,0.000470
27776000,0.0324,0.013523,0.002678,0.000431,0.000470
27777000,0.0324,0.013523,0.002678,0.000431,0.000470
27778000,0.0324,0.013523,0.002678,0.000431,0.000470
27779000,0.0324,0.013523,0.002678,0.000431,0.000588
27780000,0.0324,0.013523,0.002678,0.000431,0.000353
27781000,0.0324,0.013523,0.002678,0.000431,0.000470
27782000,0.0324,0.013523,0.002678,0.000431,0.000470
27783000,0.0324,0.013523,0.002678,0.000431,0.000470
27784000,0.0324,0.013523,0.002678,0.000431,0.000470
27785000,0.0324,0.013523,0.002678,0.000431,0.000470
27786000,0.0324,0.013523,0.002678,0.000431,0.000470
27787000,0.0324,0.013523,0.002678,0.000431,0.000588
27788000,0.0324,0.013523,0.002678,0.000431,0.000470
27789000,0.0324,0.013523,0.002678,0.000431,0.000588
27790000,0.0324,0.013523,0.002678,0.000431,0.000235
27791000,0.0324,0.013523,0.002678,0.000431,0.000588
27792000,0.0324,0.013523,0.002678,0.000431,0.000353
27793000,0.0324,0.013523,0.002678,0.000431,0.000705
27794000,0.0324,0.013523,0.002678,0.000431,0.000353
27795000,0.0324,0.013523,0.002678,0.000431,0.000588
27796000,0.0324,0.013523,0.002678,0.000431,0.000353
27797000,0.0324,0.013523,0.002678,0.000431,0.000588
27798000,0.0324,0.013523,0.002678,0.000431,0.000353
27799000,0.0324,0.013523,0.002678,0.000431,0.000588
27800000,0.0324,0.013523,0.002678,0.000431,0.000353
27801000,0.0324,0.013523,0.002678,0.000431,0.000588
27802000,0.0324,0.013523,0.002678,0.000431,0.000353
27803000,0.0324,0.013523,0.002678,0.000431,0.000588
27804000,0.0324,0.013523,0.002678,0.000431,0.000353
27805000,0.0324,0.013523,0.002678,0.000431,0.000588
27806000,0.0324,0.013523,0.002678,0.000431,0.000353
27807000,0.0324,0.013523,0.002678,0.000431,0.000470
27808000,0.0324,0.013523,0.002678,0.000431,0.000353
27809000,0.0324,0.013523,0.002678,0.000431,0.000588
27810000,0.0324,0.013523,0.002678,0.000431,0.000353
27811000,0.0324,0.013523,0.002678,0.000431,0.000588
27812000,0.0324,0.013523,0.002678,0.000431,0.000353
27813000,0.0324,0.013523,0.002678,0.000431,0.000588
27814000,0.0324,0.013523,0.002678,0.000431,0.000353
27815000,0.0324,0.013523,0.002678,0.000431,0.000470
27816000,0.0324,0.013523,0.002678,0.000431,0.000470
27817000,0.0324,0.013523,0.002678,0.000431,0.000588
27818000,0.0324,0.013523,0.002678,0.000431,0.000470
27819000,0.0324,0.013523,0.002678,0.000431,0.000705
27820000,0.0324,0.013523,0.002678,0.000431,0.000353
27821000,0.0324,0.013523,0.002678,0.000431,0.000705
27822000,0.0324,0.013523,0.002678,0.000431,0.000588
27823000,0.0324,0.013523,0.002678,0.000431,0.000470
27824000,0.0324,0.013523,0.002678,0.000431,0.000588
27825000,0.0324,0.013523,0.002678,0.000431,0.000353
27826000,0.0324,0.013523,0.002678,0.000431,0.000470
27827000,0.0324,0.013523,0.002678,0.000431,0.000353
27828000,0.0324,0.013523,0.002678,0.000431,0.000823
27829000,0.0324,0.013523,0.002678,0.000431,0.000353
27830000,0.0324,0.013523,0.002678,0.000431,0.000588
27831000,0.0324,0.013523,0.002678,0.000431,0.000588
27832000,0.0324,0.013523,0.002678,0.000431,0.000470
27833000,0.0324,0.013523,0.002678,0.000431,0.000353
27834000,0.0324,0.013523,0.002678,0.000431,0.000588
27835000,0.0324,0.013523,0.002678,0.000431,0.000353
27836000,0.0324,0.013523,0.002678,0.000431,0.000705
27837000,0.0324,0.013523,0.002678,0.000431,0.000353
27838000,0.0324,0.013523,0.002678,0.000431,0.000705
27839000,0.0324,0.013523,0.002678,0.000431,0.000470
27840000,0.0324,0.013523,0.002678,0.000431,0.000470
27841000,0.0324,0.013523,0.002678,0.000431,0.000470
27842000,0.0324,0.013523,0.002678,0.000431,0.000588
27843000,0.0324,0.013523,0.002678,0.000431,0.000353
27844000,0.0324,0.013523,0.002678,0.000431,0.000588
27845000,0.0324,0.013523,0.002678,0.000431,0.000353
27846000,0.0324,0.013523,0.002678,0.000431,0.000588
27847000,0.0324,0.013523,0.002678,0.000431,0.000353
27848000,0.0324,0.013523,0.002678,0.000431,0.000588
27849000,0.0324,0.013523,0.002678,0.000431,0.000353
27850000,0.0324,0.013523,0.002678,0.000431,0.000588
27851000,0.0324,0.013523,0.002678,0.000431,0.000353
27852000,0.0324,0.013523,0.002678,0.000431,0.000588
27853000,0.0324,0.013523,0.002678,0.000431,0.000353
27854000,0.0324,0.013523,0.002678,0.000431,0.000588
27855000,0.0324,0.013523,0.002678,0.000431,0.000353
27856000,0.0324,0.013523,0.002678,0.000431,0.000588
27857000,0.0324,0.013523,0.002678,0.000431,0.000353
27858000,0.0324,0.013523,0.002678,0.000431,0.000588
27859000,0.0324,0.013523,0.002678,0.000431,0.000353
27860000,0.0324,0.013523,0.002678,0.000431,0.000470
27861000,0.0324,0.013523,0.002678,0.000431,0.000470
27862000,0.0324,0.013523,0.002678,0.000431,0.000588
27863000,0.0324,0.013523,0.002678,0.000431,0.000470
27864000,0.0324,0.013523,0.002678,0.000431,0.000705
27865000,0.0324,0.013523,0.002678,0.000431,0.000353
27866000,0.0324,0.013523,0.002678,0.000431,0.000588
27867000,0.0324,0.013523,0.002678,0.000431,0.000353
27868000,0.0324,0.013523,0.002678,0.000431,0.000588
27869000,0.0324,0.013523,0.002678,0.000431,0.000353
27870000,0.0324,0.013523,0.002678,0.000431,0.000588
27871000,0.0324,0.013523,0.002678,0.000431,0.000353
27872000,0.0324,0.013523,0.002678,0.000431,0.000588
27873000,0.0324,0.013523,0.002678,0.000431,0.000353
27874000,0.0324,0.013523,0.002678,0.000431,0.000588
27875000,0.0324,0.013523,0.002678,0.000431,0.000353
27876000,0.0324,0.013523,0.002678,0.000431,0.000823
27877000,0.0324,0.013523,0.002678,0.000431,0.000353
27878000,0.0324,0.013523,0.002678,0.000431,0.000705
27879000,0.0324,0.013523,0.002678,0.000431,0.000470
27880000,0.0324,0.013523,0.002678,0.000431,0.000470
27881000,0.0324,0.013523,0.002678,0.000431,0.000470
27882000,0.0324,0.013523,0.002678,0.000431,0.000470
27883000,0.0324,0.013523,0.002678,0.000431,0.000470
27884000,0.0324,0.013523,0.002678,0.000431,0.000470
27885000,0.0324,0.013523,0.002678,0.000431,0.000353
27886000,0.0324,0.013523,0.002678,0.000431,0.000588
27887000,0.0324,0.013523,0.002678,0.000431,0.000353
27888000,0.0324,0.013523,0.002678,0.000431,0.000588
27889000,0.0324,0.013523,0.002678,0.000431,0.000353
27890000,0.0324,0.013523,0.002678,0.000431,0.000588
27891000,0.0324,0.013523,0.002678,0.000431,0.000353
27892000,0.0324,0.013523,0.002678,0.000431,0.000588
27893000,0.0324,0.013523,0.002678,0.000431,0.000353
27894000,0.0324,0.013523,0.002678,0.000431,0.000588
27895000,0.0324,0.013523,0.002678,0.000431,0.000353
27896000,0.0324,0.013523,0.002678,0.000431,0.000588
27897000,0.0324,0.013523,0.002678,0.000431,0.000353
27898000,0.0324,0.013523,0.002678,0.000431,0.000588
27899000,0.0324,0.013523,0.002678,0.000431,0.000470
27900000,0.0324,0.013523,0.002678,0.000431,0.000470
27901000,0.0324,0.013523,0.002678,0.000431,0.000470
27902000,0.0324,0.013523,0.002678,0.000431,0.000588
27903000,0.0324,0.013523,0.002678,0.000431,0.000470
27904000,0.0324,0.013523,0.002678,0.000431,0.000470
27905000,0.0324,0.013523,0.002678,0.000431,0.000353
27906000,0.0324,0.013523,0.002678,0.000431,0.000588
27907000,0.0324,0.013523,0.002678,0.000431,0.000353
27908000,0.0324,0.013523,0.002678,0.000431,0.000588
27909000,0.0324,0.013523,0.002678,0.000431,0.000470
27910000,0.0324,0.013523,0.002678,0.000431,0.000705
27911000,0.0324,0.013523,0.002678,0.000431,0.000353
27912000,0.0324,0.013523,0.002678,0.000431,0.000470
27913000,0.0324,0.013523,0.002678,0.000431,0.000353
27914000,0.0324,0.013523,0.002678,0.000431,0.000588
27915000,0.0324,0.013523,0.002678,0.000431,0.000470
27916000,0.0324,0.013523,0.002678,0.000431,0.000470
27917000,0.0324,0.013523,0.002678,0.000431,0.000470
27918000,0.0324,0.013523,0.002678,0.000431,0.000470
27919000,0.0324,0.013523,0.002678,0.000431,0.000470
27920000,0.0324,0.013523,0.002678,0.000431,0.000470
27921000,0.0324,0.013523,0.002678,0.000431,0.000353
27922000,0.0324,0.013523,0.002678,0.000431,0.000588
27923000,0.0324,0.013523,0.002678,0.000431,0.000353
27924000,0.0324,0.013523,0.002678,0.000431,0.000588
27925000,0.0324,0.013523,0.002678,0.000431,0.000470
27926000,0.0324,0.013523,0.002678,0.000431,0.000470
27927000,0.0324,0.013523,0.002678,0.000431,0.000353
27928000,0.0324,0.013523,0.002678,0.000431,0.000705
27929000,0.0324,0.013523,0.002678,0.000431,0.000470
27930000,0.0324,0.013523,0.002678,0.000431,0.000588
27931000,0.0324,0.013523,0.002678,0.000431,0.000353
27932000,0.0324,0.013523,0.002678,0.000431,0.000470
27933000,0.0324,0.013523,0.002678,0.000431,0.000470
27934000,0.0324,0.013523,0.002678,0.000431,0.000470
27935000,0.0324,0.013523,0.002678,0.000431,0.000470
27936000,0.0324,0.013523,0.002678,0.000431,0.000353
27937000,0.0324,0.013523,0.002678,0.000431,0.000705
27938000,0.0324,0.013523,0.002678,0.000431,0.000588
27939000,0.0324,0.013523,0.002678,0.000431,0.000470
27940000,0.0324,0.013523,0.002678,0.000431,0.000705
27941000,0.0324,0.013523,0.002678,0.000431,0.000353
27942000,0.0324,0.013523,0.002678,0.000431,0.000705
27943000,0.0324,0.013523,0.002678,0.000431,0.000588
27944000,0.0324,0.013523,0.002678,0.000431,0.000470
27945000,0.0324,0.013523,0.002678,0.000431,0.000470
27946000,0.0324,0.013523,0.002678,0.000431,0.000470
27947000,0.0324,0.013523,0.002678,0.000431,0.000588
27948000,0.0324,0.013523,0.002678,0.000431,0.000353
27949000,0.0324,0.013523,0.002678,0.000431,0.000588
27950000,0.0324,0.013523,0.002678,0.000431,0.000353
27951000,0.0324,0.013523,0.002678,0.000431,0.000588
27952000,0.0324,0.013523,0.002678,0.000431,0.000353
27953000,0.0324,0.013523,0.002678,0.000431,0.000588
27954000,0.0324,0.013523,0.002678,0.000431,0.000353
27955000,0.0324,0.013523,0.002678,0.000431,0.000588
27956000,0.0324,0.013523,0.002678,0.000431,0.000470
27957000,0.0324,0.013523,0.002678,0.000431,0.000470
27958000,0.0324,0.013523,0.002678,0.000431,0.000353
27959000,0.0324,0.013523,0.002678,0.000431,0.000588
27960000,0.0324,0.013523,0.002678,0.000431,0.000353
27961000,0.0324,0.013523,0.002678,0.000431,0.000588
27962000,0.0324,0.013523,0.002678,0.000431,0.000353
27963000,0.0324,0.013523,0.002678,0.000431,0.000470
27964000,0.0324,0.013523,0.002678,0.000431,0.000588
27965000,0.0324,0.013523,0.002678,0.000431,0.000588
27966000,0.0324,0.013523,0.002678,0.000431,0.000470
27967000,0.0324,0.013523,0.002678,0.000431,0.000705
27968000,0.0324,0.013523,0.002678,0.000431,0.000353
27969000,0.0324,0.013523,0.002678,0.000431,0.000705
27970000,0.0324,0.013523,0.002678,0.000431,0.000470
27971000,0.0324,0.013523,0.002678,0.000431,0.000470
27972000,0.0324,0.013523,0.002678,0.000431,0.000470
27973000,0.0324,0.013523,0.002678,0.000431,0.000470
27974000,0.0324,0.013523,0.002678,0.000431,0.000470
27975000,0.0324,0.013523,0.002678,0.000431,0.000588
27976000,0.0324,0.013523,0.002678,0.000431,0.000470
27977000,0.0324,0.013523,0.002678,0.000431,0.000470
27978000,0.0324,0.013523,0.002678,0.000431,0.000353
27979000,0.0324,0.013523,0.002678,0.000431,0.000588
27980000,0.0324,0.013523,0.002678,0.000431,0.000353
27981000,0.0324,0.013523,0.002678,0.000431,0.000588
27982000,0.0324,0.013523,0.002678,0.000431,0.000353
27983000,0.0324,0.013523,0.002678,0.000431,0.000588
27984000,0.0324,0.013523,0.002678,0.000431,0.000353
27985000,0.0324,0.013523,0.002678,0.000431,0.000470
27986000,0.0324,0.013523,0.002678,0.000431,0.000470
27987000,0.0324,0.013523,0.002678,0.000431,0.000470
27988000,0.0324,0.013523,0.002678,0.000431,0.000470
27989000,0.0324,0.013523,0.002678,0.000431,0.000470
27990000,0.0324,0.013523,0.002678,0.000431,0.000470
27991000,0.0324,0.013523,0.002678,0.000431,0.000470
27992000,0.0324,0.013523,0.002678,0.000431,0.000470
27993000,0.0324,0.013523,0.002678,0.000431,0.000470
27994000,0.0324,0.013523,0.002678,0.000431,0.000353
27995000,0.0324,0.013523,0.002678,0.000431,0.000705
27996000,0.0324,0.013523,0.002678,0.000431,0.000353
27997000,0.0324,0.013523,0.002678,0.000431,0.000705
27998000,0.0324,0.013523,0.002678,0.000431,0.000588
27999000,0.0324,0.013523,0.002678,0.000431,0.000470
