Cycle,Area(mm^2),PeakDynamic(W),SubthresholdLeakage(W),GateLeakage(W),RunTimeDynamic(W)
40000000,0.0324,0.013523,0.002678,0.000431,0.000470
40001000,0.0324,0.013523,0.002678,0.000431,0.000470
40002000,0.0324,0.013523,0.002678,0.000431,0.000470
40003000,0.0324,0.013523,0.002678,0.000431,0.000470
40004000,0.0324,0.013523,0.002678,0.000431,0.000470
40005000,0.0324,0.013523,0.002678,0.000431,0.000470
40006000,0.0324,0.013523,0.002678,0.000431,0.000470
40007000,0.0324,0.013523,0.002678,0.000431,0.000353
40008000,0.0324,0.013523,0.002678,0.000431,0.000588
40009000,0.0324,0.013523,0.002678,0.000431,0.000353
40010000,0.0324,0.013523,0.002678,0.000431,0.000705
40011000,0.0324,0.013523,0.002678,0.000431,0.000353
40012000,0.0324,0.013523,0.002678,0.000431,0.000705
40013000,0.0324,0.013523,0.002678,0.000431,0.000588
40014000,0.0324,0.013523,0.002678,0.000431,0.000470
40015000,0.0324,0.013523,0.002678,0.000431,0.000705
40016000,0.0324,0.013523,0.002678,0.000431,0.000353
40017000,0.0324,0.013523,0.002678,0.000431,0.000705
40018000,0.0324,0.013523,0.002678,0.000431,0.000470
40019000,0.0324,0.013523,0.002678,0.000431,0.000470
40020000,0.0324,0.013523,0.002678,0.000431,0.000470
40021000,0.0324,0.013523,0.002678,0.000431,0.000470
40022000,0.0324,0.013523,0.002678,0.000431,0.000470
40023000,0.0324,0.013523,0.002678,0.000431,0.000588
40024000,0.0324,0.013523,0.002678,0.000431,0.000470
40025000,0.0324,0.013523,0.002678,0.000431,0.000588
40026000,0.0324,0.013523,0.002678,0.000431,0.000588
40027000,0.0324,0.013523,0.002678,0.000431,0.000470
40028000,0.0324,0.013523,0.002678,0.000431,0.000823
40029000,0.0324,0.013523,0.002678,0.000431,0.000353
40030000,0.0324,0.013523,0.002678,0.000431,0.000588
40031000,0.0324,0.013523,0.002678,0.000431,0.000235
40032000,0.0324,0.013523,0.002678,0.000431,0.000588
40033000,0.0324,0.013523,0.002678,0.000431,0.000353
40034000,0.0324,0.013523,0.002678,0.000431,0.000588
40035000,0.0324,0.013523,0.002678,0.000431,0.000353
40036000,0.0324,0.013523,0.002678,0.000431,0.000588
40037000,0.0324,0.013523,0.002678,0.000431,0.000470
40038000,0.0324,0.013523,0.002678,0.000431,0.000588
40039000,0.0324,0.013523,0.002678,0.000431,0.000353
40040000,0.0324,0.013523,0.002678,0.000431,0.000470
40041000,0.0324,0.013523,0.002678,0.000431,0.000353
40042000,0.0324,0.013523,0.002678,0.000431,0.000588
40043000,0.0324,0.013523,0.002678,0.000431,0.000470
40044000,0.0324,0.013523,0.002678,0.000431,0.000705
40045000,0.0324,0.013523,0.002678,0.000431,0.000353
40046000,0.0324,0.013523,0.002678,0.000431,0.000705
40047000,0.0324,0.013523,0.002678,0.000431,0.000353
40048000,0.0324,0.013523,0.002678,0.000431,0.000588
40049000,0.0324,0.013523,0.002678,0.000431,0.000353
40050000,0.0324,0.013523,0.002678,0.000431,0.000588
40051000,0.0324,0.013523,0.002678,0.000431,0.000353
40052000,0.0324,0.013523,0.002678,0.000431,0.000588
40053000,0.0324,0.013523,0.002678,0.000431,0.000353
40054000,0.0324,0.013523,0.002678,0.000431,0.000588
40055000,0.0324,0.013523,0.002678,0.000431,0.000353
40056000,0.0324,0.013523,0.002678,0.000431,0.000588
40057000,0.0324,0.013523,0.002678,0.000431,0.000235
40058000,0.0324,0.013523,0.002678,0.000431,0.000588
40059000,0.0324,0.013523,0.002678,0.000431,0.000353
40060000,0.0324,0.013523,0.002678,0.000431,0.000588
40061000,0.0324,0.013523,0.002678,0.000431,0.000353
40062000,0.0324,0.013523,0.002678,0.000431,0.000588
40063000,0.0324,0.013523,0.002678,0.000431,0.000353
40064000,0.0324,0.013523,0.002678,0.000431,0.000588
40065000,0.0324,0.013523,0.002678,0.000431,0.000470
40066000,0.0324,0.013523,0.002678,0.000431,0.000470
40067000,0.0324,0.013523,0.002678,0.000431,0.000353
40068000,0.0324,0.013523,0.002678,0.000431,0.000588
40069000,0.0324,0.013523,0.002678,0.000431,0.000470
40070000,0.0324,0.013523,0.002678,0.000431,0.000705
40071000,0.0324,0.013523,0.002678,0.000431,0.000353
40072000,0.0324,0.013523,0.002678,0.000431,0.000588
40073000,0.0324,0.013523,0.002678,0.000431,0.000353
40074000,0.0324,0.013523,0.002678,0.000431,0.000470
40075000,0.0324,0.013523,0.002678,0.000431,0.000353
40076000,0.0324,0.013523,0.002678,0.000431,0.000588
40077000,0.0324,0.013523,0.002678,0.000431,0.000353
40078000,0.0324,0.013523,0.002678,0.000431,0.000705
40079000,0.0324,0.013523,0.002678,0.000431,0.000353
40080000,0.0324,0.013523,0.002678,0.000431,0.000588
40081000,0.0324,0.013523,0.002678,0.000431,0.000353
40082000,0.0324,0.013523,0.002678,0.000431,0.000588
40083000,0.0324,0.013523,0.002678,0.000431,0.000353
40084000,0.0324,0.013523,0.002678,0.000431,0.000705
40085000,0.0324,0.013523,0.002678,0.000431,0.000353
40086000,0.0324,0.013523,0.002678,0.000431,0.000588
40087000,0.0324,0.013523,0.002678,0.000431,0.000470
40088000,0.0324,0.013523,0.002678,0.000431,0.000588
40089000,0.0324,0.013523,0.002678,0.000431,0.000588
40090000,0.0324,0.013523,0.002678,0.000431,0.000588
40091000,0.0324,0.013523,0.002678,0.000431,0.000470
40092000,0.0324,0.013523,0.002678,0.000431,0.000705
40093000,0.0324,0.013523,0.002678,0.000431,0.000353
40094000,0.0324,0.013523,0.002678,0.000431,0.000588
40095000,0.0324,0.013523,0.002678,0.000431,0.000470
40096000,0.0324,0.013523,0.002678,0.000431,0.000588
40097000,0.0324,0.013523,0.002678,0.000431,0.000588
40098000,0.0324,0.013523,0.002678,0.000431,0.000470
40099000,0.0324,0.013523,0.002678,0.000431,0.000705
40100000,0.0324,0.013523,0.002678,0.000431,0.000353
40101000,0.0324,0.013523,0.002678,0.000431,0.000588
40102000,0.0324,0.013523,0.002678,0.000431,0.000353
40103000,0.0324,0.013523,0.002678,0.000431,0.000588
40104000,0.0324,0.013523,0.002678,0.000431,0.000353
40105000,0.0324,0.013523,0.002678,0.000431,0.000588
40106000,0.0324,0.013523,0.002678,0.000431,0.000353
40107000,0.0324,0.013523,0.002678,0.000431,0.000588
40108000,0.0324,0.013523,0.002678,0.000431,0.000353
40109000,0.0324,0.013523,0.002678,0.000431,0.000588
40110000,0.0324,0.013523,0.002678,0.000431,0.000470
40111000,0.0324,0.013523,0.002678,0.000431,0.000470
40112000,0.0324,0.013523,0.002678,0.000431,0.000470
40113000,0.0324,0.013523,0.002678,0.000431,0.000588
40114000,0.0324,0.013523,0.002678,0.000431,0.000353
40115000,0.0324,0.013523,0.002678,0.000431,0.000588
40116000,0.0324,0.013523,0.002678,0.000431,0.000353
40117000,0.0324,0.013523,0.002678,0.000431,0.000588
40118000,0.0324,0.013523,0.002678,0.000431,0.000353
40119000,0.0324,0.013523,0.002678,0.000431,0.000470
40120000,0.0324,0.013523,0.002678,0.000431,0.000470
40121000,0.0324,0.013523,0.002678,0.000431,0.000588
40122000,0.0324,0.013523,0.002678,0.000431,0.000470
40123000,0.0324,0.013523,0.002678,0.000431,0.000470
40124000,0.0324,0.013523,0.002678,0.000431,0.000470
40125000,0.0324,0.013523,0.002678,0.000431,0.000353
40126000,0.0324,0.013523,0.002678,0.000431,0.000588
40127000,0.0324,0.013523,0.002678,0.000431,0.000353
40128000,0.0324,0.013523,0.002678,0.000431,0.000470
40129000,0.0324,0.013523,0.002678,0.000431,0.000353
40130000,0.0324,0.013523,0.002678,0.000431,0.000588
40131000,0.0324,0.013523,0.002678,0.000431,0.000353
40132000,0.0324,0.013523,0.002678,0.000431,0.000823
40133000,0.0324,0.013523,0.002678,0.000431,0.000353
40134000,0.0324,0.013523,0.002678,0.000431,0.000588
40135000,0.0324,0.013523,0.002678,0.000431,0.000353
40136000,0.0324,0.013523,0.002678,0.000431,0.000588
40137000,0.0324,0.013523,0.002678,0.000431,0.000353
40138000,0.0324,0.013523,0.002678,0.000431,0.000588
40139000,0.0324,0.013523,0.002678,0.000431,0.000353
40140000,0.0324,0.013523,0.002678,0.000431,0.000705
40141000,0.0324,0.013523,0.002678,0.000431,0.000353
40142000,0.0324,0.013523,0.002678,0.000431,0.000705
40143000,0.0324,0.013523,0.002678,0.000431,0.000353
40144000,0.0324,0.013523,0.002678,0.000431,0.000705
40145000,0.0324,0.013523,0.002678,0.000431,0.000353
40146000,0.0324,0.013523,0.002678,0.000431,0.000588
40147000,0.0324,0.013523,0.002678,0.000431,0.000588
40148000,0.0324,0.013523,0.002678,0.000431,0.000470
40149000,0.0324,0.013523,0.002678,0.000431,0.000588
40150000,0.0324,0.013523,0.002678,0.000431,0.000470
40151000,0.0324,0.013523,0.002678,0.000431,0.000470
40152000,0.0324,0.013523,0.002678,0.000431,0.000470
40153000,0.0324,0.013523,0.002678,0.000431,0.000470
40154000,0.0324,0.013523,0.002678,0.000431,0.000470
40155000,0.0324,0.013523,0.002678,0.000431,0.000470
40156000,0.0324,0.013523,0.002678,0.000431,0.000470
40157000,0.0324,0.013523,0.002678,0.000431,0.000470
40158000,0.0324,0.013523,0.002678,0.000431,0.000470
40159000,0.0324,0.013523,0.002678,0.000431,0.000470
40160000,0.0324,0.013523,0.002678,0.000431,0.000470
40161000,0.0324,0.013523,0.002678,0.000431,0.000470
40162000,0.0324,0.013523,0.002678,0.000431,0.000470
40163000,0.0324,0.013523,0.002678,0.000431,0.000470
40164000,0.0324,0.013523,0.002678,0.000431,0.000470
40165000,0.0324,0.013523,0.002678,0.000431,0.000470
40166000,0.0324,0.013523,0.002678,0.000431,0.000470
40167000,0.0324,0.013523,0.002678,0.000431,0.000470
40168000,0.0324,0.013523,0.002678,0.000431,0.000470
40169000,0.0324,0.013523,0.002678,0.000431,0.000470
40170000,0.0324,0.013523,0.002678,0.000431,0.000470
40171000,0.0324,0.013523,0.002678,0.000431,0.000470
40172000,0.0324,0.013523,0.002678,0.000431,0.000588
40173000,0.0324,0.013523,0.002678,0.000431,0.000470
40174000,0.0324,0.013523,0.002678,0.000431,0.000588
40175000,0.0324,0.013523,0.002678,0.000431,0.000470
40176000,0.0324,0.013523,0.002678,0.000431,0.000470
40177000,0.0324,0.013523,0.002678,0.000431,0.000588
40178000,0.0324,0.013523,0.002678,0.000431,0.000470
40179000,0.0324,0.013523,0.002678,0.000431,0.000588
40180000,0.0324,0.013523,0.002678,0.000431,0.000353
40181000,0.0324,0.013523,0.002678,0.000431,0.000705
40182000,0.0324,0.013523,0.002678,0.000431,0.000353
40183000,0.0324,0.013523,0.002678,0.000431,0.000705
40184000,0.0324,0.013523,0.002678,0.000431,0.000470
40185000,0.0324,0.013523,0.002678,0.000431,0.000470
40186000,0.0324,0.013523,0.002678,0.000431,0.000470
40187000,0.0324,0.013523,0.002678,0.000431,0.000470
40188000,0.0324,0.013523,0.002678,0.000431,0.000470
40189000,0.0324,0.013523,0.002678,0.000431,0.000470
40190000,0.0324,0.013523,0.002678,0.000431,0.000470
40191000,0.0324,0.013523,0.002678,0.000431,0.000470
40192000,0.0324,0.013523,0.002678,0.000431,0.000470
40193000,0.0324,0.013523,0.002678,0.000431,0.000588
40194000,0.0324,0.013523,0.002678,0.000431,0.000470
40195000,0.0324,0.013523,0.002678,0.000431,0.000705
40196000,0.0324,0.013523,0.002678,0.000431,0.000353
40197000,0.0324,0.013523,0.002678,0.000431,0.000470
40198000,0.0324,0.013523,0.002678,0.000431,0.000588
40199000,0.0324,0.013523,0.002678,0.000431,0.000470
40200000,0.0324,0.013523,0.002678,0.000431,0.000705
40201000,0.0324,0.013523,0.002678,0.000431,0.000353
40202000,0.0324,0.013523,0.002678,0.000431,0.000705
40203000,0.0324,0.013523,0.002678,0.000431,0.000470
40204000,0.0324,0.013523,0.002678,0.000431,0.000470
40205000,0.0324,0.013523,0.002678,0.000431,0.000470
40206000,0.0324,0.013523,0.002678,0.000431,0.000470
40207000,0.0324,0.013523,0.002678,0.000431,0.000470
40208000,0.0324,0.013523,0.002678,0.000431,0.000705
40209000,0.0324,0.013523,0.002678,0.000431,0.000353
40210000,0.0324,0.013523,0.002678,0.000431,0.000705
40211000,0.0324,0.013523,0.002678,0.000431,0.000470
40212000,0.0324,0.013523,0.002678,0.000431,0.000470
40213000,0.0324,0.013523,0.002678,0.000431,0.000470
40214000,0.0324,0.013523,0.002678,0.000431,0.000470
40215000,0.0324,0.013523,0.002678,0.000431,0.000353
40216000,0.0324,0.013523,0.002678,0.000431,0.000705
40217000,0.0324,0.013523,0.002678,0.000431,0.000353
40218000,0.0324,0.013523,0.002678,0.000431,0.000588
40219000,0.0324,0.013523,0.002678,0.000431,0.000353
40220000,0.0324,0.013523,0.002678,0.000431,0.000588
40221000,0.0324,0.013523,0.002678,0.000431,0.000353
40222000,0.0324,0.013523,0.002678,0.000431,0.000588
40223000,0.0324,0.013523,0.002678,0.000431,0.000353
40224000,0.0324,0.013523,0.002678,0.000431,0.000588
40225000,0.0324,0.013523,0.002678,0.000431,0.000235
40226000,0.0324,0.013523,0.002678,0.000431,0.000705
40227000,0.0324,0.013523,0.002678,0.000431,0.000353
40228000,0.0324,0.013523,0.002678,0.000431,0.000588
40229000,0.0324,0.013523,0.002678,0.000431,0.000353
40230000,0.0324,0.013523,0.002678,0.000431,0.000588
40231000,0.0324,0.013523,0.002678,0.000431,0.000353
40232000,0.0324,0.013523,0.002678,0.000431,0.000705
40233000,0.0324,0.013523,0.002678,0.000431,0.000353
40234000,0.0324,0.013523,0.002678,0.000431,0.000705
40235000,0.0324,0.013523,0.002678,0.000431,0.000470
40236000,0.0324,0.013523,0.002678,0.000431,0.000470
40237000,0.0324,0.013523,0.002678,0.000431,0.000470
40238000,0.0324,0.013523,0.002678,0.000431,0.000470
40239000,0.0324,0.013523,0.002678,0.000431,0.000470
40240000,0.0324,0.013523,0.002678,0.000431,0.000588
40241000,0.0324,0.013523,0.002678,0.000431,0.000353
40242000,0.0324,0.013523,0.002678,0.000431,0.000705
40243000,0.0324,0.013523,0.002678,0.000431,0.000588
40244000,0.0324,0.013523,0.002678,0.000431,0.000470
40245000,0.0324,0.013523,0.002678,0.000431,0.000705
40246000,0.0324,0.013523,0.002678,0.000431,0.000353
40247000,0.0324,0.013523,0.002678,0.000431,0.000705
40248000,0.0324,0.013523,0.002678,0.000431,0.000588
40249000,0.0324,0.013523,0.002678,0.000431,0.000470
40250000,0.0324,0.013523,0.002678,0.000431,0.000588
40251000,0.0324,0.013523,0.002678,0.000431,0.000353
40252000,0.0324,0.013523,0.002678,0.000431,0.000588
40253000,0.0324,0.013523,0.002678,0.000431,0.000353
40254000,0.0324,0.013523,0.002678,0.000431,0.000470
40255000,0.0324,0.013523,0.002678,0.000431,0.000588
40256000,0.0324,0.013523,0.002678,0.000431,0.000588
40257000,0.0324,0.013523,0.002678,0.000431,0.000470
40258000,0.0324,0.013523,0.002678,0.000431,0.000588
40259000,0.0324,0.013523,0.002678,0.000431,0.000470
40260000,0.0324,0.013523,0.002678,0.000431,0.000470
40261000,0.0324,0.013523,0.002678,0.000431,0.000470
40262000,0.0324,0.013523,0.002678,0.000431,0.000470
40263000,0.0324,0.013523,0.002678,0.000431,0.000353
40264000,0.0324,0.013523,0.002678,0.000431,0.000588
40265000,0.0324,0.013523,0.002678,0.000431,0.000353
40266000,0.0324,0.013523,0.002678,0.000431,0.000588
40267000,0.0324,0.013523,0.002678,0.000431,0.000353
40268000,0.0324,0.013523,0.002678,0.000431,0.000588
40269000,0.0324,0.013523,0.002678,0.000431,0.000470
40270000,0.0324,0.013523,0.002678,0.000431,0.000470
40271000,0.0324,0.013523,0.002678,0.000431,0.000353
40272000,0.0324,0.013523,0.002678,0.000431,0.000705
40273000,0.0324,0.013523,0.002678,0.000431,0.000470
40274000,0.0324,0.013523,0.002678,0.000431,0.000470
40275000,0.0324,0.013523,0.002678,0.000431,0.000470
40276000,0.0324,0.013523,0.002678,0.000431,0.000705
40277000,0.0324,0.013523,0.002678,0.000431,0.000235
40278000,0.0324,0.013523,0.002678,0.000431,0.000823
40279000,0.0324,0.013523,0.002678,0.000431,0.000353
40280000,0.0324,0.013523,0.002678,0.000431,0.000470
40281000,0.0324,0.013523,0.002678,0.000431,0.000353
40282000,0.0324,0.013523,0.002678,0.000431,0.000588
40283000,0.0324,0.013523,0.002678,0.000431,0.000353
40284000,0.0324,0.013523,0.002678,0.000431,0.000588
40285000,0.0324,0.013523,0.002678,0.000431,0.000353
40286000,0.0324,0.013523,0.002678,0.000431,0.000588
40287000,0.0324,0.013523,0.002678,0.000431,0.000470
40288000,0.0324,0.013523,0.002678,0.000431,0.000470
40289000,0.0324,0.013523,0.002678,0.000431,0.000353
40290000,0.0324,0.013523,0.002678,0.000431,0.000588
40291000,0.0324,0.013523,0.002678,0.000431,0.000353
40292000,0.0324,0.013523,0.002678,0.000431,0.000588
40293000,0.0324,0.013523,0.002678,0.000431,0.000353
40294000,0.0324,0.013523,0.002678,0.000431,0.000705
40295000,0.0324,0.013523,0.002678,0.000431,0.000353
40296000,0.0324,0.013523,0.002678,0.000431,0.000588
40297000,0.0324,0.013523,0.002678,0.000431,0.000235
40298000,0.0324,0.013523,0.002678,0.000431,0.000823
40299000,0.0324,0.013523,0.002678,0.000431,0.000353
40300000,0.0324,0.013523,0.002678,0.000431,0.000588
40301000,0.0324,0.013523,0.002678,0.000431,0.000353
40302000,0.0324,0.013523,0.002678,0.000431,0.000588
40303000,0.0324,0.013523,0.002678,0.000431,0.000353
40304000,0.0324,0.013523,0.002678,0.000431,0.000588
40305000,0.0324,0.013523,0.002678,0.000431,0.000353
40306000,0.0324,0.013523,0.002678,0.000431,0.000470
40307000,0.0324,0.013523,0.002678,0.000431,0.000470
40308000,0.0324,0.013523,0.002678,0.000431,0.000470
40309000,0.0324,0.013523,0.002678,0.000431,0.000470
40310000,0.0324,0.013523,0.002678,0.000431,0.000470
40311000,0.0324,0.013523,0.002678,0.000431,0.000470
40312000,0.0324,0.013523,0.002678,0.000431,0.000470
40313000,0.0324,0.013523,0.002678,0.000431,0.000470
40314000,0.0324,0.013523,0.002678,0.000431,0.000470
40315000,0.0324,0.013523,0.002678,0.000431,0.000470
40316000,0.0324,0.013523,0.002678,0.000431,0.000470
40317000,0.0324,0.013523,0.002678,0.000431,0.000470
40318000,0.0324,0.013523,0.002678,0.000431,0.000470
40319000,0.0324,0.013523,0.002678,0.000431,0.000470
40320000,0.0324,0.013523,0.002678,0.000431,0.000470
40321000,0.0324,0.013523,0.002678,0.000431,0.000353
40322000,0.0324,0.013523,0.002678,0.000431,0.000588
40323000,0.0324,0.013523,0.002678,0.000431,0.000353
40324000,0.0324,0.013523,0.002678,0.000431,0.000588
40325000,0.0324,0.013523,0.002678,0.000431,0.000353
40326000,0.0324,0.013523,0.002678,0.000431,0.000588
40327000,0.0324,0.013523,0.002678,0.000431,0.000353
40328000,0.0324,0.013523,0.002678,0.000431,0.000588
40329000,0.0324,0.013523,0.002678,0.000431,0.000353
40330000,0.0324,0.013523,0.002678,0.000431,0.000588
40331000,0.0324,0.013523,0.002678,0.000431,0.000353
40332000,0.0324,0.013523,0.002678,0.000431,0.000470
40333000,0.0324,0.013523,0.002678,0.000431,0.000470
40334000,0.0324,0.013523,0.002678,0.000431,0.000470
40335000,0.0324,0.013523,0.002678,0.000431,0.000588
40336000,0.0324,0.013523,0.002678,0.000431,0.000353
40337000,0.0324,0.013523,0.002678,0.000431,0.000588
40338000,0.0324,0.013523,0.002678,0.000431,0.000353
40339000,0.0324,0.013523,0.002678,0.000431,0.000823
40340000,0.0324,0.013523,0.002678,0.000431,0.000353
40341000,0.0324,0.013523,0.002678,0.000431,0.000588
40342000,0.0324,0.013523,0.002678,0.000431,0.000353
40343000,0.0324,0.013523,0.002678,0.000431,0.000588
40344000,0.0324,0.013523,0.002678,0.000431,0.000353
40345000,0.0324,0.013523,0.002678,0.000431,0.000588
40346000,0.0324,0.013523,0.002678,0.000431,0.000353
40347000,0.0324,0.013523,0.002678,0.000431,0.000588
40348000,0.0324,0.013523,0.002678,0.000431,0.000353
40349000,0.0324,0.013523,0.002678,0.000431,0.000588
40350000,0.0324,0.013523,0.002678,0.000431,0.000353
40351000,0.0324,0.013523,0.002678,0.000431,0.000588
40352000,0.0324,0.013523,0.002678,0.000431,0.000470
40353000,0.0324,0.013523,0.002678,0.000431,0.000470
40354000,0.0324,0.013523,0.002678,0.000431,0.000470
40355000,0.0324,0.013523,0.002678,0.000431,0.000470
40356000,0.0324,0.013523,0.002678,0.000431,0.000470
40357000,0.0324,0.013523,0.002678,0.000431,0.000470
40358000,0.0324,0.013523,0.002678,0.000431,0.000353
40359000,0.0324,0.013523,0.002678,0.000431,0.000588
40360000,0.0324,0.013523,0.002678,0.000431,0.000470
40361000,0.0324,0.013523,0.002678,0.000431,0.000470
40362000,0.0324,0.013523,0.002678,0.000431,0.000470
40363000,0.0324,0.013523,0.002678,0.000431,0.000470
40364000,0.0324,0.013523,0.002678,0.000431,0.000470
40365000,0.0324,0.013523,0.002678,0.000431,0.000470
40366000,0.0324,0.013523,0.002678,0.000431,0.000470
40367000,0.0324,0.013523,0.002678,0.000431,0.000353
40368000,0.0324,0.013523,0.002678,0.000431,0.000588
40369000,0.0324,0.013523,0.002678,0.000431,0.000353
40370000,0.0324,0.013523,0.002678,0.000431,0.000588
40371000,0.0324,0.013523,0.002678,0.000431,0.000353
40372000,0.0324,0.013523,0.002678,0.000431,0.000588
40373000,0.0324,0.013523,0.002678,0.000431,0.000353
40374000,0.0324,0.013523,0.002678,0.000431,0.000588
40375000,0.0324,0.013523,0.002678,0.000431,0.000353
40376000,0.0324,0.013523,0.002678,0.000431,0.000470
40377000,0.0324,0.013523,0.002678,0.000431,0.000353
40378000,0.0324,0.013523,0.002678,0.000431,0.000705
40379000,0.0324,0.013523,0.002678,0.000431,0.000353
40380000,0.0324,0.013523,0.002678,0.000431,0.000588
40381000,0.0324,0.013523,0.002678,0.000431,0.000353
40382000,0.0324,0.013523,0.002678,0.000431,0.000705
40383000,0.0324,0.013523,0.002678,0.000431,0.000353
40384000,0.0324,0.013523,0.002678,0.000431,0.000705
40385000,0.0324,0.013523,0.002678,0.000431,0.000470
40386000,0.0324,0.013523,0.002678,0.000431,0.000470
40387000,0.0324,0.013523,0.002678,0.000431,0.000470
40388000,0.0324,0.013523,0.002678,0.000431,0.000470
40389000,0.0324,0.013523,0.002678,0.000431,0.000470
40390000,0.0324,0.013523,0.002678,0.000431,0.000470
40391000,0.0324,0.013523,0.002678,0.000431,0.000353
40392000,0.0324,0.013523,0.002678,0.000431,0.000588
40393000,0.0324,0.013523,0.002678,0.000431,0.000353
40394000,0.0324,0.013523,0.002678,0.000431,0.000588
40395000,0.0324,0.013523,0.002678,0.000431,0.000353
40396000,0.0324,0.013523,0.002678,0.000431,0.000588
40397000,0.0324,0.013523,0.002678,0.000431,0.000353
40398000,0.0324,0.013523,0.002678,0.000431,0.000588
40399000,0.0324,0.013523,0.002678,0.000431,0.000470
40400000,0.0324,0.013523,0.002678,0.000431,0.000470
40401000,0.0324,0.013523,0.002678,0.000431,0.000353
40402000,0.0324,0.013523,0.002678,0.000431,0.000588
40403000,0.0324,0.013523,0.002678,0.000431,0.000470
40404000,0.0324,0.013523,0.002678,0.000431,0.000470
40405000,0.0324,0.013523,0.002678,0.000431,0.000470
40406000,0.0324,0.013523,0.002678,0.000431,0.000470
40407000,0.0324,0.013523,0.002678,0.000431,0.000353
40408000,0.0324,0.013523,0.002678,0.000431,0.000588
40409000,0.0324,0.013523,0.002678,0.000431,0.000470
40410000,0.0324,0.013523,0.002678,0.000431,0.000470
40411000,0.0324,0.013523,0.002678,0.000431,0.000353
40412000,0.0324,0.013523,0.002678,0.000431,0.000588
40413000,0.0324,0.013523,0.002678,0.000431,0.000353
40414000,0.0324,0.013523,0.002678,0.000431,0.000588
40415000,0.0324,0.013523,0.002678,0.000431,0.000353
40416000,0.0324,0.013523,0.002678,0.000431,0.000588
40417000,0.0324,0.013523,0.002678,0.000431,0.000353
40418000,0.0324,0.013523,0.002678,0.000431,0.000470
40419000,0.0324,0.013523,0.002678,0.000431,0.000470
40420000,0.0324,0.013523,0.002678,0.000431,0.000470
40421000,0.0324,0.013523,0.002678,0.000431,0.000705
40422000,0.0324,0.013523,0.002678,0.000431,0.000470
40423000,0.0324,0.013523,0.002678,0.000431,0.000470
40424000,0.0324,0.013523,0.002678,0.000431,0.000705
40425000,0.0324,0.013523,0.002678,0.000431,0.000353
40426000,0.0324,0.013523,0.002678,0.000431,0.000588
40427000,0.0324,0.013523,0.002678,0.000431,0.000470
40428000,0.0324,0.013523,0.002678,0.000431,0.000470
40429000,0.0324,0.013523,0.002678,0.000431,0.000353
40430000,0.0324,0.013523,0.002678,0.000431,0.000705
40431000,0.0324,0.013523,0.002678,0.000431,0.000353
40432000,0.0324,0.013523,0.002678,0.000431,0.000588
40433000,0.0324,0.013523,0.002678,0.000431,0.000353
40434000,0.0324,0.013523,0.002678,0.000431,0.000705
40435000,0.0324,0.013523,0.002678,0.000431,0.000353
40436000,0.0324,0.013523,0.002678,0.000431,0.000588
40437000,0.0324,0.013523,0.002678,0.000431,0.000470
40438000,0.0324,0.013523,0.002678,0.000431,0.000588
40439000,0.0324,0.013523,0.002678,0.000431,0.000588
40440000,0.0324,0.013523,0.002678,0.000431,0.000470
40441000,0.0324,0.013523,0.002678,0.000431,0.000588
40442000,0.0324,0.013523,0.002678,0.000431,0.000353
40443000,0.0324,0.013523,0.002678,0.000431,0.000588
40444000,0.0324,0.013523,0.002678,0.000431,0.000353
40445000,0.0324,0.013523,0.002678,0.000431,0.000588
40446000,0.0324,0.013523,0.002678,0.000431,0.000353
40447000,0.0324,0.013523,0.002678,0.000431,0.000588
40448000,0.0324,0.013523,0.002678,0.000431,0.000353
40449000,0.0324,0.013523,0.002678,0.000431,0.000588
40450000,0.0324,0.013523,0.002678,0.000431,0.000353
40451000,0.0324,0.013523,0.002678,0.000431,0.000588
40452000,0.0324,0.013523,0.002678,0.000431,0.000470
40453000,0.0324,0.013523,0.002678,0.000431,0.000588
40454000,0.0324,0.013523,0.002678,0.000431,0.000470
40455000,0.0324,0.013523,0.002678,0.000431,0.000705
40456000,0.0324,0.013523,0.002678,0.000431,0.000353
40457000,0.0324,0.013523,0.002678,0.000431,0.000588
40458000,0.0324,0.013523,0.002678,0.000431,0.000353
40459000,0.0324,0.013523,0.002678,0.000431,0.000588
40460000,0.0324,0.013523,0.002678,0.000431,0.000353
40461000,0.0324,0.013523,0.002678,0.000431,0.000588
40462000,0.0324,0.013523,0.002678,0.000431,0.000353
40463000,0.0324,0.013523,0.002678,0.000431,0.000588
40464000,0.0324,0.013523,0.002678,0.000431,0.000470
40465000,0.0324,0.013523,0.002678,0.000431,0.000588
40466000,0.0324,0.013523,0.002678,0.000431,0.000353
40467000,0.0324,0.013523,0.002678,0.000431,0.000588
40468000,0.0324,0.013523,0.002678,0.000431,0.000353
40469000,0.0324,0.013523,0.002678,0.000431,0.000588
40470000,0.0324,0.013523,0.002678,0.000431,0.000353
40471000,0.0324,0.013523,0.002678,0.000431,0.000588
40472000,0.0324,0.013523,0.002678,0.000431,0.000353
40473000,0.0324,0.013523,0.002678,0.000431,0.000705
40474000,0.0324,0.013523,0.002678,0.000431,0.000470
40475000,0.0324,0.013523,0.002678,0.000431,0.000588
40476000,0.0324,0.013523,0.002678,0.000431,0.000353
40477000,0.0324,0.013523,0.002678,0.000431,0.000588
40478000,0.0324,0.013523,0.002678,0.000431,0.000353
40479000,0.0324,0.013523,0.002678,0.000431,0.000705
40480000,0.0324,0.013523,0.002678,0.000431,0.000353
40481000,0.0324,0.013523,0.002678,0.000431,0.000588
40482000,0.0324,0.013523,0.002678,0.000431,0.000470
40483000,0.0324,0.013523,0.002678,0.000431,0.000705
40484000,0.0324,0.013523,0.002678,0.000431,0.000470
40485000,0.0324,0.013523,0.002678,0.000431,0.000470
40486000,0.0324,0.013523,0.002678,0.000431,0.000353
40487000,0.0324,0.013523,0.002678,0.000431,0.000588
40488000,0.0324,0.013523,0.002678,0.000431,0.000353
40489000,0.0324,0.013523,0.002678,0.000431,0.000470
40490000,0.0324,0.013523,0.002678,0.000431,0.000470
40491000,0.0324,0.013523,0.002678,0.000431,0.000470
40492000,0.0324,0.013523,0.002678,0.000431,0.000588
40493000,0.0324,0.013523,0.002678,0.000431,0.000470
40494000,0.0324,0.013523,0.002678,0.000431,0.000705
40495000,0.0324,0.013523,0.002678,0.000431,0.000353
40496000,0.0324,0.013523,0.002678,0.000431,0.000588
40497000,0.0324,0.013523,0.002678,0.000431,0.000353
40498000,0.0324,0.013523,0.002678,0.000431,0.000588
40499000,0.0324,0.013523,0.002678,0.000431,0.000470
40500000,0.0324,0.013523,0.002678,0.000431,0.000588
40501000,0.0324,0.013523,0.002678,0.000431,0.000353
40502000,0.0324,0.013523,0.002678,0.000431,0.000588
40503000,0.0324,0.013523,0.002678,0.000431,0.000353
40504000,0.0324,0.013523,0.002678,0.000431,0.000470
40505000,0.0324,0.013523,0.002678,0.000431,0.000470
40506000,0.0324,0.013523,0.002678,0.000431,0.000470
40507000,0.0324,0.013523,0.002678,0.000431,0.000470
40508000,0.0324,0.013523,0.002678,0.000431,0.000353
40509000,0.0324,0.013523,0.002678,0.000431,0.000588
40510000,0.0324,0.013523,0.002678,0.000431,0.000353
40511000,0.0324,0.013523,0.002678,0.000431,0.000588
40512000,0.0324,0.013523,0.002678,0.000431,0.000353
40513000,0.0324,0.013523,0.002678,0.000431,0.000588
40514000,0.0324,0.013523,0.002678,0.000431,0.000353
40515000,0.0324,0.013523,0.002678,0.000431,0.000705
40516000,0.0324,0.013523,0.002678,0.000431,0.000470
40517000,0.0324,0.013523,0.002678,0.000431,0.000470
40518000,0.0324,0.013523,0.002678,0.000431,0.000470
40519000,0.0324,0.013523,0.002678,0.000431,0.000470
40520000,0.0324,0.013523,0.002678,0.000431,0.000470
40521000,0.0324,0.013523,0.002678,0.000431,0.000588
40522000,0.0324,0.013523,0.002678,0.000431,0.000588
40523000,0.0324,0.013523,0.002678,0.000431,0.000353
40524000,0.0324,0.013523,0.002678,0.000431,0.000705
40525000,0.0324,0.013523,0.002678,0.000431,0.000353
40526000,0.0324,0.013523,0.002678,0.000431,0.000588
40527000,0.0324,0.013523,0.002678,0.000431,0.000353
40528000,0.0324,0.013523,0.002678,0.000431,0.000588
40529000,0.0324,0.013523,0.002678,0.000431,0.000470
40530000,0.0324,0.013523,0.002678,0.000431,0.000470
40531000,0.0324,0.013523,0.002678,0.000431,0.000470
40532000,0.0324,0.013523,0.002678,0.000431,0.000705
40533000,0.0324,0.013523,0.002678,0.000431,0.000353
40534000,0.0324,0.013523,0.002678,0.000431,0.000588
40535000,0.0324,0.013523,0.002678,0.000431,0.000353
40536000,0.0324,0.013523,0.002678,0.000431,0.000588
40537000,0.0324,0.013523,0.002678,0.000431,0.000353
40538000,0.0324,0.013523,0.002678,0.000431,0.000588
40539000,0.0324,0.013523,0.002678,0.000431,0.000353
40540000,0.0324,0.013523,0.002678,0.000431,0.000705
40541000,0.0324,0.013523,0.002678,0.000431,0.000470
40542000,0.0324,0.013523,0.002678,0.000431,0.000470
40543000,0.0324,0.013523,0.002678,0.000431,0.000470
40544000,0.0324,0.013523,0.002678,0.000431,0.000470
40545000,0.0324,0.013523,0.002678,0.000431,0.000470
40546000,0.0324,0.013523,0.002678,0.000431,0.000470
40547000,0.0324,0.013523,0.002678,0.000431,0.000470
40548000,0.0324,0.013523,0.002678,0.000431,0.000470
40549000,0.0324,0.013523,0.002678,0.000431,0.000353
40550000,0.0324,0.013523,0.002678,0.000431,0.000588
40551000,0.0324,0.013523,0.002678,0.000431,0.000353
40552000,0.0324,0.013523,0.002678,0.000431,0.000588
40553000,0.0324,0.013523,0.002678,0.000431,0.000353
40554000,0.0324,0.013523,0.002678,0.000431,0.000705
40555000,0.0324,0.013523,0.002678,0.000431,0.000353
40556000,0.0324,0.013523,0.002678,0.000431,0.000823
40557000,0.0324,0.013523,0.002678,0.000431,0.000353
40558000,0.0324,0.013523,0.002678,0.000431,0.000588
40559000,0.0324,0.013523,0.002678,0.000431,0.000353
40560000,0.0324,0.013523,0.002678,0.000431,0.000705
40561000,0.0324,0.013523,0.002678,0.000431,0.000470
40562000,0.0324,0.013523,0.002678,0.000431,0.000470
40563000,0.0324,0.013523,0.002678,0.000431,0.000588
40564000,0.0324,0.013523,0.002678,0.000431,0.000470
40565000,0.0324,0.013523,0.002678,0.000431,0.000705
40566000,0.0324,0.013523,0.002678,0.000431,0.000235
40567000,0.0324,0.013523,0.002678,0.000431,0.000705
40568000,0.0324,0.013523,0.002678,0.000431,0.000353
40569000,0.0324,0.013523,0.002678,0.000431,0.000705
40570000,0.0324,0.013523,0.002678,0.000431,0.000470
40571000,0.0324,0.013523,0.002678,0.000431,0.000470
40572000,0.0324,0.013523,0.002678,0.000431,0.000470
40573000,0.0324,0.013523,0.002678,0.000431,0.000470
40574000,0.0324,0.013523,0.002678,0.000431,0.000470
40575000,0.0324,0.013523,0.002678,0.000431,0.000470
40576000,0.0324,0.013523,0.002678,0.000431,0.000470
40577000,0.0324,0.013523,0.002678,0.000431,0.000470
40578000,0.0324,0.013523,0.002678,0.000431,0.000470
40579000,0.0324,0.013523,0.002678,0.000431,0.000470
40580000,0.0324,0.013523,0.002678,0.000431,0.000470
40581000,0.0324,0.013523,0.002678,0.000431,0.000470
40582000,0.0324,0.013523,0.002678,0.000431,0.000353
40583000,0.0324,0.013523,0.002678,0.000431,0.000588
40584000,0.0324,0.013523,0.002678,0.000431,0.000588
40585000,0.0324,0.013523,0.002678,0.000431,0.000470
40586000,0.0324,0.013523,0.002678,0.000431,0.000353
40587000,0.0324,0.013523,0.002678,0.000431,0.000588
40588000,0.0324,0.013523,0.002678,0.000431,0.000353
40589000,0.0324,0.013523,0.002678,0.000431,0.000588
40590000,0.0324,0.013523,0.002678,0.000431,0.000353
40591000,0.0324,0.013523,0.002678,0.000431,0.000588
40592000,0.0324,0.013523,0.002678,0.000431,0.000353
40593000,0.0324,0.013523,0.002678,0.000431,0.000588
40594000,0.0324,0.013523,0.002678,0.000431,0.000353
40595000,0.0324,0.013523,0.002678,0.000431,0.000588
40596000,0.0324,0.013523,0.002678,0.000431,0.000353
40597000,0.0324,0.013523,0.002678,0.000431,0.000588
40598000,0.0324,0.013523,0.002678,0.000431,0.000353
40599000,0.0324,0.013523,0.002678,0.000431,0.000705
40600000,0.0324,0.013523,0.002678,0.000431,0.000588
40601000,0.0324,0.013523,0.002678,0.000431,0.000470
40602000,0.0324,0.013523,0.002678,0.000431,0.000705
40603000,0.0324,0.013523,0.002678,0.000431,0.000235
40604000,0.0324,0.013523,0.002678,0.000431,0.000705
40605000,0.0324,0.013523,0.002678,0.000431,0.000353
40606000,0.0324,0.013523,0.002678,0.000431,0.000705
40607000,0.0324,0.013523,0.002678,0.000431,0.000588
40608000,0.0324,0.013523,0.002678,0.000431,0.000470
40609000,0.0324,0.013523,0.002678,0.000431,0.000705
40610000,0.0324,0.013523,0.002678,0.000431,0.000353
40611000,0.0324,0.013523,0.002678,0.000431,0.000705
40612000,0.0324,0.013523,0.002678,0.000431,0.000470
40613000,0.0324,0.013523,0.002678,0.000431,0.000470
40614000,0.0324,0.013523,0.002678,0.000431,0.000470
40615000,0.0324,0.013523,0.002678,0.000431,0.000470
40616000,0.0324,0.013523,0.002678,0.000431,0.000470
40617000,0.0324,0.013523,0.002678,0.000431,0.000470
40618000,0.0324,0.013523,0.002678,0.000431,0.000353
40619000,0.0324,0.013523,0.002678,0.000431,0.000588
40620000,0.0324,0.013523,0.002678,0.000431,0.000353
40621000,0.0324,0.013523,0.002678,0.000431,0.000705
40622000,0.0324,0.013523,0.002678,0.000431,0.000353
40623000,0.0324,0.013523,0.002678,0.000431,0.000705
40624000,0.0324,0.013523,0.002678,0.000431,0.000353
40625000,0.0324,0.013523,0.002678,0.000431,0.000588
40626000,0.0324,0.013523,0.002678,0.000431,0.000353
40627000,0.0324,0.013523,0.002678,0.000431,0.000588
40628000,0.0324,0.013523,0.002678,0.000431,0.000353
40629000,0.0324,0.013523,0.002678,0.000431,0.000588
40630000,0.0324,0.013523,0.002678,0.000431,0.000353
40631000,0.0324,0.013523,0.002678,0.000431,0.000588
40632000,0.0324,0.013523,0.002678,0.000431,0.000470
40633000,0.0324,0.013523,0.002678,0.000431,0.000470
40634000,0.0324,0.013523,0.002678,0.000431,0.000470
40635000,0.0324,0.013523,0.002678,0.000431,0.000588
40636000,0.0324,0.013523,0.002678,0.000431,0.000470
40637000,0.0324,0.013523,0.002678,0.000431,0.000705
40638000,0.0324,0.013523,0.002678,0.000431,0.000353
40639000,0.0324,0.013523,0.002678,0.000431,0.000588
40640000,0.0324,0.013523,0.002678,0.000431,0.000353
40641000,0.0324,0.013523,0.002678,0.000431,0.000470
40642000,0.0324,0.013523,0.002678,0.000431,0.000353
40643000,0.0324,0.013523,0.002678,0.000431,0.000588
40644000,0.0324,0.013523,0.002678,0.000431,0.000470
40645000,0.0324,0.013523,0.002678,0.000431,0.000470
40646000,0.0324,0.013523,0.002678,0.000431,0.000470
40647000,0.0324,0.013523,0.002678,0.000431,0.000470
40648000,0.0324,0.013523,0.002678,0.000431,0.000470
40649000,0.0324,0.013523,0.002678,0.000431,0.000470
40650000,0.0324,0.013523,0.002678,0.000431,0.000470
40651000,0.0324,0.013523,0.002678,0.000431,0.000470
40652000,0.0324,0.013523,0.002678,0.000431,0.000470
40653000,0.0324,0.013523,0.002678,0.000431,0.000470
40654000,0.0324,0.013523,0.002678,0.000431,0.000470
40655000,0.0324,0.013523,0.002678,0.000431,0.000470
40656000,0.0324,0.013523,0.002678,0.000431,0.000470
40657000,0.0324,0.013523,0.002678,0.000431,0.000470
40658000,0.0324,0.013523,0.002678,0.000431,0.000470
40659000,0.0324,0.013523,0.002678,0.000431,0.000588
40660000,0.0324,0.013523,0.002678,0.000431,0.000470
40661000,0.0324,0.013523,0.002678,0.000431,0.000705
40662000,0.0324,0.013523,0.002678,0.000431,0.000353
40663000,0.0324,0.013523,0.002678,0.000431,0.000470
40664000,0.0324,0.013523,0.002678,0.000431,0.000353
40665000,0.0324,0.013523,0.002678,0.000431,0.000705
40666000,0.0324,0.013523,0.002678,0.000431,0.000470
40667000,0.0324,0.013523,0.002678,0.000431,0.000588
40668000,0.0324,0.013523,0.002678,0.000431,0.000353
40669000,0.0324,0.013523,0.002678,0.000431,0.000588
40670000,0.0324,0.013523,0.002678,0.000431,0.000353
40671000,0.0324,0.013523,0.002678,0.000431,0.000705
40672000,0.0324,0.013523,0.002678,0.000431,0.000353
40673000,0.0324,0.013523,0.002678,0.000431,0.000705
40674000,0.0324,0.013523,0.002678,0.000431,0.000470
40675000,0.0324,0.013523,0.002678,0.000431,0.000470
40676000,0.0324,0.013523,0.002678,0.000431,0.000588
40677000,0.0324,0.013523,0.002678,0.000431,0.000470
40678000,0.0324,0.013523,0.002678,0.000431,0.000470
40679000,0.0324,0.013523,0.002678,0.000431,0.000470
40680000,0.0324,0.013523,0.002678,0.000431,0.000470
40681000,0.0324,0.013523,0.002678,0.000431,0.000470
40682000,0.0324,0.013523,0.002678,0.000431,0.000353
40683000,0.0324,0.013523,0.002678,0.000431,0.000588
40684000,0.0324,0.013523,0.002678,0.000431,0.000353
40685000,0.0324,0.013523,0.002678,0.000431,0.000588
40686000,0.0324,0.013523,0.002678,0.000431,0.000353
40687000,0.0324,0.013523,0.002678,0.000431,0.000588
40688000,0.0324,0.013523,0.002678,0.000431,0.000353
40689000,0.0324,0.013523,0.002678,0.000431,0.000588
40690000,0.0324,0.013523,0.002678,0.000431,0.000353
40691000,0.0324,0.013523,0.002678,0.000431,0.000588
40692000,0.0324,0.013523,0.002678,0.000431,0.000470
40693000,0.0324,0.013523,0.002678,0.000431,0.000588
40694000,0.0324,0.013523,0.002678,0.000431,0.000353
40695000,0.0324,0.013523,0.002678,0.000431,0.000588
40696000,0.0324,0.013523,0.002678,0.000431,0.000353
40697000,0.0324,0.013523,0.002678,0.000431,0.000470
40698000,0.0324,0.013523,0.002678,0.000431,0.000353
40699000,0.0324,0.013523,0.002678,0.000431,0.000588
40700000,0.0324,0.013523,0.002678,0.000431,0.000470
40701000,0.0324,0.013523,0.002678,0.000431,0.000705
40702000,0.0324,0.013523,0.002678,0.000431,0.000353
40703000,0.0324,0.013523,0.002678,0.000431,0.000588
40704000,0.0324,0.013523,0.002678,0.000431,0.000353
40705000,0.0324,0.013523,0.002678,0.000431,0.000470
40706000,0.0324,0.013523,0.002678,0.000431,0.000470
40707000,0.0324,0.013523,0.002678,0.000431,0.000470
40708000,0.0324,0.013523,0.002678,0.000431,0.000470
40709000,0.0324,0.013523,0.002678,0.000431,0.000588
40710000,0.0324,0.013523,0.002678,0.000431,0.000470
40711000,0.0324,0.013523,0.002678,0.000431,0.000588
40712000,0.0324,0.013523,0.002678,0.000431,0.000353
40713000,0.0324,0.013523,0.002678,0.000431,0.000588
40714000,0.0324,0.013523,0.002678,0.000431,0.000353
40715000,0.0324,0.013523,0.002678,0.000431,0.000705
40716000,0.0324,0.013523,0.002678,0.000431,0.000353
40717000,0.0324,0.013523,0.002678,0.000431,0.000588
40718000,0.0324,0.013523,0.002678,0.000431,0.000470
40719000,0.0324,0.013523,0.002678,0.000431,0.000470
40720000,0.0324,0.013523,0.002678,0.000431,0.000470
40721000,0.0324,0.013523,0.002678,0.000431,0.000588
40722000,0.0324,0.013523,0.002678,0.000431,0.000353
40723000,0.0324,0.013523,0.002678,0.000431,0.000588
40724000,0.0324,0.013523,0.002678,0.000431,0.000353
40725000,0.0324,0.013523,0.002678,0.000431,0.000588
40726000,0.0324,0.013523,0.002678,0.000431,0.000353
40727000,0.0324,0.013523,0.002678,0.000431,0.000470
40728000,0.0324,0.013523,0.002678,0.000431,0.000470
40729000,0.0324,0.013523,0.002678,0.000431,0.000470
40730000,0.0324,0.013523,0.002678,0.000431,0.000470
40731000,0.0324,0.013523,0.002678,0.000431,0.000353
40732000,0.0324,0.013523,0.002678,0.000431,0.000588
40733000,0.0324,0.013523,0.002678,0.000431,0.000353
40734000,0.0324,0.013523,0.002678,0.000431,0.000588
40735000,0.0324,0.013523,0.002678,0.000431,0.000353
40736000,0.0324,0.013523,0.002678,0.000431,0.000588
40737000,0.0324,0.013523,0.002678,0.000431,0.000353
40738000,0.0324,0.013523,0.002678,0.000431,0.000588
40739000,0.0324,0.013523,0.002678,0.000431,0.000353
40740000,0.0324,0.013523,0.002678,0.000431,0.000588
40741000,0.0324,0.013523,0.002678,0.000431,0.000353
40742000,0.0324,0.013523,0.002678,0.000431,0.000588
40743000,0.0324,0.013523,0.002678,0.000431,0.000353
40744000,0.0324,0.013523,0.002678,0.000431,0.000588
40745000,0.0324,0.013523,0.002678,0.000431,0.000353
40746000,0.0324,0.013523,0.002678,0.000431,0.000588
40747000,0.0324,0.013523,0.002678,0.000431,0.000353
40748000,0.0324,0.013523,0.002678,0.000431,0.000470
40749000,0.0324,0.013523,0.002678,0.000431,0.000470
40750000,0.0324,0.013523,0.002678,0.000431,0.000588
40751000,0.0324,0.013523,0.002678,0.000431,0.000353
40752000,0.0324,0.013523,0.002678,0.000431,0.000705
40753000,0.0324,0.013523,0.002678,0.000431,0.000470
40754000,0.0324,0.013523,0.002678,0.000431,0.000470
40755000,0.0324,0.013523,0.002678,0.000431,0.000470
40756000,0.0324,0.013523,0.002678,0.000431,0.000588
40757000,0.0324,0.013523,0.002678,0.000431,0.000353
40758000,0.0324,0.013523,0.002678,0.000431,0.000588
40759000,0.0324,0.013523,0.002678,0.000431,0.000353
40760000,0.0324,0.013523,0.002678,0.000431,0.000588
40761000,0.0324,0.013523,0.002678,0.000431,0.000470
40762000,0.0324,0.013523,0.002678,0.000431,0.000470
40763000,0.0324,0.013523,0.002678,0.000431,0.000353
40764000,0.0324,0.013523,0.002678,0.000431,0.000588
40765000,0.0324,0.013523,0.002678,0.000431,0.000353
40766000,0.0324,0.013523,0.002678,0.000431,0.000588
40767000,0.0324,0.013523,0.002678,0.000431,0.000353
40768000,0.0324,0.013523,0.002678,0.000431,0.000588
40769000,0.0324,0.013523,0.002678,0.000431,0.000353
40770000,0.0324,0.013523,0.002678,0.000431,0.000588
40771000,0.0324,0.013523,0.002678,0.000431,0.000353
40772000,0.0324,0.013523,0.002678,0.000431,0.000588
40773000,0.0324,0.013523,0.002678,0.000431,0.000470
40774000,0.0324,0.013523,0.002678,0.000431,0.000705
40775000,0.0324,0.013523,0.002678,0.000431,0.000353
40776000,0.0324,0.013523,0.002678,0.000431,0.000470
40777000,0.0324,0.013523,0.002678,0.000431,0.000470
40778000,0.0324,0.013523,0.002678,0.000431,0.000470
40779000,0.0324,0.013523,0.002678,0.000431,0.000470
40780000,0.0324,0.013523,0.002678,0.000431,0.000470
40781000,0.0324,0.013523,0.002678,0.000431,0.000470
40782000,0.0324,0.013523,0.002678,0.000431,0.000470
40783000,0.0324,0.013523,0.002678,0.000431,0.000470
40784000,0.0324,0.013523,0.002678,0.000431,0.000470
40785000,0.0324,0.013523,0.002678,0.000431,0.000470
40786000,0.0324,0.013523,0.002678,0.000431,0.000470
40787000,0.0324,0.013523,0.002678,0.000431,0.000470
40788000,0.0324,0.013523,0.002678,0.000431,0.000470
40789000,0.0324,0.013523,0.002678,0.000431,0.000470
40790000,0.0324,0.013523,0.002678,0.000431,0.000470
40791000,0.0324,0.013523,0.002678,0.000431,0.000470
40792000,0.0324,0.013523,0.002678,0.000431,0.000470
40793000,0.0324,0.013523,0.002678,0.000431,0.000470
40794000,0.0324,0.013523,0.002678,0.000431,0.000470
40795000,0.0324,0.013523,0.002678,0.000431,0.000470
40796000,0.0324,0.013523,0.002678,0.000431,0.000470
40797000,0.0324,0.013523,0.002678,0.000431,0.000470
40798000,0.0324,0.013523,0.002678,0.000431,0.000470
40799000,0.0324,0.013523,0.002678,0.000431,0.000470
40800000,0.0324,0.013523,0.002678,0.000431,0.000353
40801000,0.0324,0.013523,0.002678,0.000431,0.000588
40802000,0.0324,0.013523,0.002678,0.000431,0.000353
40803000,0.0324,0.013523,0.002678,0.000431,0.000588
40804000,0.0324,0.013523,0.002678,0.000431,0.000353
40805000,0.0324,0.013523,0.002678,0.000431,0.000588
40806000,0.0324,0.013523,0.002678,0.000431,0.000235
40807000,0.0324,0.013523,0.002678,0.000431,0.000588
40808000,0.0324,0.013523,0.002678,0.000431,0.000353
40809000,0.0324,0.013523,0.002678,0.000431,0.000588
40810000,0.0324,0.013523,0.002678,0.000431,0.000470
40811000,0.0324,0.013523,0.002678,0.000431,0.000588
40812000,0.0324,0.013523,0.002678,0.000431,0.000235
40813000,0.0324,0.013523,0.002678,0.000431,0.000588
40814000,0.0324,0.013523,0.002678,0.000431,0.000353
40815000,0.0324,0.013523,0.002678,0.000431,0.000588
40816000,0.0324,0.013523,0.002678,0.000431,0.000353
40817000,0.0324,0.013523,0.002678,0.000431,0.000588
40818000,0.0324,0.013523,0.002678,0.000431,0.000353
40819000,0.0324,0.013523,0.002678,0.000431,0.000588
40820000,0.0324,0.013523,0.002678,0.000431,0.000470
40821000,0.0324,0.013523,0.002678,0.000431,0.000588
40822000,0.0324,0.013523,0.002678,0.000431,0.000353
40823000,0.0324,0.013523,0.002678,0.000431,0.000588
40824000,0.0324,0.013523,0.002678,0.000431,0.000353
40825000,0.0324,0.013523,0.002678,0.000431,0.000588
40826000,0.0324,0.013523,0.002678,0.000431,0.000353
40827000,0.0324,0.013523,0.002678,0.000431,0.000588
40828000,0.0324,0.013523,0.002678,0.000431,0.000353
40829000,0.0324,0.013523,0.002678,0.000431,0.000588
40830000,0.0324,0.013523,0.002678,0.000431,0.000353
40831000,0.0324,0.013523,0.002678,0.000431,0.000588
40832000,0.0324,0.013523,0.002678,0.000431,0.000353
40833000,0.0324,0.013523,0.002678,0.000431,0.000588
40834000,0.0324,0.013523,0.002678,0.000431,0.000353
40835000,0.0324,0.013523,0.002678,0.000431,0.000588
40836000,0.0324,0.013523,0.002678,0.000431,0.000353
40837000,0.0324,0.013523,0.002678,0.000431,0.000470
40838000,0.0324,0.013523,0.002678,0.000431,0.000470
40839000,0.0324,0.013523,0.002678,0.000431,0.000470
40840000,0.0324,0.013523,0.002678,0.000431,0.000470
40841000,0.0324,0.013523,0.002678,0.000431,0.000353
40842000,0.0324,0.013523,0.002678,0.000431,0.000588
40843000,0.0324,0.013523,0.002678,0.000431,0.000353
40844000,0.0324,0.013523,0.002678,0.000431,0.000588
40845000,0.0324,0.013523,0.002678,0.000431,0.000353
40846000,0.0324,0.013523,0.002678,0.000431,0.000470
40847000,0.0324,0.013523,0.002678,0.000431,0.000470
40848000,0.0324,0.013523,0.002678,0.000431,0.000470
40849000,0.0324,0.013523,0.002678,0.000431,0.000470
40850000,0.0324,0.013523,0.002678,0.000431,0.000470
40851000,0.0324,0.013523,0.002678,0.000431,0.000470
40852000,0.0324,0.013523,0.002678,0.000431,0.000470
40853000,0.0324,0.013523,0.002678,0.000431,0.000470
40854000,0.0324,0.013523,0.002678,0.000431,0.000588
40855000,0.0324,0.013523,0.002678,0.000431,0.000470
40856000,0.0324,0.013523,0.002678,0.000431,0.000705
40857000,0.0324,0.013523,0.002678,0.000431,0.000353
40858000,0.0324,0.013523,0.002678,0.000431,0.000588
40859000,0.0324,0.013523,0.002678,0.000431,0.000353
40860000,0.0324,0.013523,0.002678,0.000431,0.000588
40861000,0.0324,0.013523,0.002678,0.000431,0.000353
40862000,0.0324,0.013523,0.002678,0.000431,0.000588
40863000,0.0324,0.013523,0.002678,0.000431,0.000353
40864000,0.0324,0.013523,0.002678,0.000431,0.000588
40865000,0.0324,0.013523,0.002678,0.000431,0.000353
40866000,0.0324,0.013523,0.002678,0.000431,0.000588
40867000,0.0324,0.013523,0.002678,0.000431,0.000353
40868000,0.0324,0.013523,0.002678,0.000431,0.000470
40869000,0.0324,0.013523,0.002678,0.000431,0.000470
40870000,0.0324,0.013523,0.002678,0.000431,0.000470
40871000,0.0324,0.013523,0.002678,0.000431,0.000470
40872000,0.0324,0.013523,0.002678,0.000431,0.000705
40873000,0.0324,0.013523,0.002678,0.000431,0.000353
40874000,0.0324,0.013523,0.002678,0.000431,0.000470
40875000,0.0324,0.013523,0.002678,0.000431,0.000470
40876000,0.0324,0.013523,0.002678,0.000431,0.000588
40877000,0.0324,0.013523,0.002678,0.000431,0.000353
40878000,0.0324,0.013523,0.002678,0.000431,0.000588
40879000,0.0324,0.013523,0.002678,0.000431,0.000235
40880000,0.0324,0.013523,0.002678,0.000431,0.000588
40881000,0.0324,0.013523,0.002678,0.000431,0.000470
40882000,0.0324,0.013523,0.002678,0.000431,0.000588
40883000,0.0324,0.013523,0.002678,0.000431,0.000353
40884000,0.0324,0.013523,0.002678,0.000431,0.000470
40885000,0.0324,0.013523,0.002678,0.000431,0.000470
40886000,0.0324,0.013523,0.002678,0.000431,0.000470
40887000,0.0324,0.013523,0.002678,0.000431,0.000353
40888000,0.0324,0.013523,0.002678,0.000431,0.000588
40889000,0.0324,0.013523,0.002678,0.000431,0.000353
40890000,0.0324,0.013523,0.002678,0.000431,0.000823
40891000,0.0324,0.013523,0.002678,0.000431,0.000235
40892000,0.0324,0.013523,0.002678,0.000431,0.000705
40893000,0.0324,0.013523,0.002678,0.000431,0.000353
40894000,0.0324,0.013523,0.002678,0.000431,0.000705
40895000,0.0324,0.013523,0.002678,0.000431,0.000470
40896000,0.0324,0.013523,0.002678,0.000431,0.000470
40897000,0.0324,0.013523,0.002678,0.000431,0.000470
40898000,0.0324,0.013523,0.002678,0.000431,0.000470
40899000,0.0324,0.013523,0.002678,0.000431,0.000470
40900000,0.0324,0.013523,0.002678,0.000431,0.000470
40901000,0.0324,0.013523,0.002678,0.000431,0.000470
40902000,0.0324,0.013523,0.002678,0.000431,0.000588
40903000,0.0324,0.013523,0.002678,0.000431,0.000353
40904000,0.0324,0.013523,0.002678,0.000431,0.000588
40905000,0.0324,0.013523,0.002678,0.000431,0.000353
40906000,0.0324,0.013523,0.002678,0.000431,0.000705
40907000,0.0324,0.013523,0.002678,0.000431,0.000470
40908000,0.0324,0.013523,0.002678,0.000431,0.000470
40909000,0.0324,0.013523,0.002678,0.000431,0.000470
40910000,0.0324,0.013523,0.002678,0.000431,0.000470
40911000,0.0324,0.013523,0.002678,0.000431,0.000470
40912000,0.0324,0.013523,0.002678,0.000431,0.000470
40913000,0.0324,0.013523,0.002678,0.000431,0.000470
40914000,0.0324,0.013523,0.002678,0.000431,0.000470
40915000,0.0324,0.013523,0.002678,0.000431,0.000353
40916000,0.0324,0.013523,0.002678,0.000431,0.000705
40917000,0.0324,0.013523,0.002678,0.000431,0.000353
40918000,0.0324,0.013523,0.002678,0.000431,0.000705
40919000,0.0324,0.013523,0.002678,0.000431,0.000470
40920000,0.0324,0.013523,0.002678,0.000431,0.000470
40921000,0.0324,0.013523,0.002678,0.000431,0.000470
40922000,0.0324,0.013523,0.002678,0.000431,0.000588
40923000,0.0324,0.013523,0.002678,0.000431,0.000353
40924000,0.0324,0.013523,0.002678,0.000431,0.000470
40925000,0.0324,0.013523,0.002678,0.000431,0.000470
40926000,0.0324,0.013523,0.002678,0.000431,0.000470
40927000,0.0324,0.013523,0.002678,0.000431,0.000470
40928000,0.0324,0.013523,0.002678,0.000431,0.000470
40929000,0.0324,0.013523,0.002678,0.000431,0.000470
40930000,0.0324,0.013523,0.002678,0.000431,0.000470
40931000,0.0324,0.013523,0.002678,0.000431,0.000470
40932000,0.0324,0.013523,0.002678,0.000431,0.000470
40933000,0.0324,0.013523,0.002678,0.000431,0.000470
40934000,0.0324,0.013523,0.002678,0.000431,0.000470
40935000,0.0324,0.013523,0.002678,0.000431,0.000470
40936000,0.0324,0.013523,0.002678,0.000431,0.000470
40937000,0.0324,0.013523,0.002678,0.000431,0.000470
40938000,0.0324,0.013523,0.002678,0.000431,0.000705
40939000,0.0324,0.013523,0.002678,0.000431,0.000353
40940000,0.0324,0.013523,0.002678,0.000431,0.000588
40941000,0.0324,0.013523,0.002678,0.000431,0.000353
40942000,0.0324,0.013523,0.002678,0.000431,0.000470
40943000,0.0324,0.013523,0.002678,0.000431,0.000353
40944000,0.0324,0.013523,0.002678,0.000431,0.000588
40945000,0.0324,0.013523,0.002678,0.000431,0.000353
40946000,0.0324,0.013523,0.002678,0.000431,0.000588
40947000,0.0324,0.013523,0.002678,0.000431,0.000353
40948000,0.0324,0.013523,0.002678,0.000431,0.000588
40949000,0.0324,0.013523,0.002678,0.000431,0.000353
40950000,0.0324,0.013523,0.002678,0.000431,0.000588
40951000,0.0324,0.013523,0.002678,0.000431,0.000353
40952000,0.0324,0.013523,0.002678,0.000431,0.000588
40953000,0.0324,0.013523,0.002678,0.000431,0.000353
40954000,0.0324,0.013523,0.002678,0.000431,0.000588
40955000,0.0324,0.013523,0.002678,0.000431,0.000353
40956000,0.0324,0.013523,0.002678,0.000431,0.000588
40957000,0.0324,0.013523,0.002678,0.000431,0.000353
40958000,0.0324,0.013523,0.002678,0.000431,0.000588
40959000,0.0324,0.013523,0.002678,0.000431,0.000353
40960000,0.0324,0.013523,0.002678,0.000431,0.000588
40961000,0.0324,0.013523,0.002678,0.000431,0.000353
40962000,0.0324,0.013523,0.002678,0.000431,0.000823
40963000,0.0324,0.013523,0.002678,0.000431,0.000235
40964000,0.0324,0.013523,0.002678,0.000431,0.000823
40965000,0.0324,0.013523,0.002678,0.000431,0.000353
40966000,0.0324,0.013523,0.002678,0.000431,0.000588
40967000,0.0324,0.013523,0.002678,0.000431,0.000353
40968000,0.0324,0.013523,0.002678,0.000431,0.000588
40969000,0.0324,0.013523,0.002678,0.000431,0.000353
40970000,0.0324,0.013523,0.002678,0.000431,0.000705
40971000,0.0324,0.013523,0.002678,0.000431,0.000353
40972000,0.0324,0.013523,0.002678,0.000431,0.000705
40973000,0.0324,0.013523,0.002678,0.000431,0.000353
40974000,0.0324,0.013523,0.002678,0.000431,0.000470
40975000,0.0324,0.013523,0.002678,0.000431,0.000353
40976000,0.0324,0.013523,0.002678,0.000431,0.000705
40977000,0.0324,0.013523,0.002678,0.000431,0.000235
40978000,0.0324,0.013523,0.002678,0.000431,0.000705
40979000,0.0324,0.013523,0.002678,0.000431,0.000353
40980000,0.0324,0.013523,0.002678,0.000431,0.000588
40981000,0.0324,0.013523,0.002678,0.000431,0.000353
40982000,0.0324,0.013523,0.002678,0.000431,0.000588
40983000,0.0324,0.013523,0.002678,0.000431,0.000353
40984000,0.0324,0.013523,0.002678,0.000431,0.000705
40985000,0.0324,0.013523,0.002678,0.000431,0.000353
40986000,0.0324,0.013523,0.002678,0.000431,0.000588
40987000,0.0324,0.013523,0.002678,0.000431,0.000470
40988000,0.0324,0.013523,0.002678,0.000431,0.000470
40989000,0.0324,0.013523,0.002678,0.000431,0.000353
40990000,0.0324,0.013523,0.002678,0.000431,0.000588
40991000,0.0324,0.013523,0.002678,0.000431,0.000353
40992000,0.0324,0.013523,0.002678,0.000431,0.000588
40993000,0.0324,0.013523,0.002678,0.000431,0.000353
40994000,0.0324,0.013523,0.002678,0.000431,0.000588
40995000,0.0324,0.013523,0.002678,0.000431,0.000353
40996000,0.0324,0.013523,0.002678,0.000431,0.000588
40997000,0.0324,0.013523,0.002678,0.000431,0.000353
40998000,0.0324,0.013523,0.002678,0.000431,0.000705
40999000,0.0324,0.013523,0.002678,0.000431,0.000353
