Cycle,Area(mm^2),PeakDynamic(W),SubthresholdLeakage(W),GateLeakage(W),RunTimeDynamic(W)
41000000,0.0324,0.013523,0.002678,0.000431,0.000470
41001000,0.0324,0.013523,0.002678,0.000431,0.000353
41002000,0.0324,0.013523,0.002678,0.000431,0.000588
41003000,0.0324,0.013523,0.002678,0.000431,0.000353
41004000,0.0324,0.013523,0.002678,0.000431,0.000588
41005000,0.0324,0.013523,0.002678,0.000431,0.000470
41006000,0.0324,0.013523,0.002678,0.000431,0.000588
41007000,0.0324,0.013523,0.002678,0.000431,0.000235
41008000,0.0324,0.013523,0.002678,0.000431,0.000588
41009000,0.0324,0.013523,0.002678,0.000431,0.000353
41010000,0.0324,0.013523,0.002678,0.000431,0.000588
41011000,0.0324,0.013523,0.002678,0.000431,0.000353
41012000,0.0324,0.013523,0.002678,0.000431,0.000588
41013000,0.0324,0.013523,0.002678,0.000431,0.000353
41014000,0.0324,0.013523,0.002678,0.000431,0.000588
41015000,0.0324,0.013523,0.002678,0.000431,0.000353
41016000,0.0324,0.013523,0.002678,0.000431,0.000470
41017000,0.0324,0.013523,0.002678,0.000431,0.000470
41018000,0.0324,0.013523,0.002678,0.000431,0.000470
41019000,0.0324,0.013523,0.002678,0.000431,0.000470
41020000,0.0324,0.013523,0.002678,0.000431,0.000470
41021000,0.0324,0.013523,0.002678,0.000431,0.000470
41022000,0.0324,0.013523,0.002678,0.000431,0.000588
41023000,0.0324,0.013523,0.002678,0.000431,0.000470
41024000,0.0324,0.013523,0.002678,0.000431,0.000588
41025000,0.0324,0.013523,0.002678,0.000431,0.000353
41026000,0.0324,0.013523,0.002678,0.000431,0.000588
41027000,0.0324,0.013523,0.002678,0.000431,0.000353
41028000,0.0324,0.013523,0.002678,0.000431,0.000588
41029000,0.0324,0.013523,0.002678,0.000431,0.000353
41030000,0.0324,0.013523,0.002678,0.000431,0.000588
41031000,0.0324,0.013523,0.002678,0.000431,0.000470
41032000,0.0324,0.013523,0.002678,0.000431,0.000588
41033000,0.0324,0.013523,0.002678,0.000431,0.000470
41034000,0.0324,0.013523,0.002678,0.000431,0.000588
41035000,0.0324,0.013523,0.002678,0.000431,0.000353
41036000,0.0324,0.013523,0.002678,0.000431,0.000588
41037000,0.0324,0.013523,0.002678,0.000431,0.000470
41038000,0.0324,0.013523,0.002678,0.000431,0.000470
41039000,0.0324,0.013523,0.002678,0.000431,0.000470
41040000,0.0324,0.013523,0.002678,0.000431,0.000470
41041000,0.0324,0.013523,0.002678,0.000431,0.000470
41042000,0.0324,0.013523,0.002678,0.000431,0.000353
41043000,0.0324,0.013523,0.002678,0.000431,0.000588
41044000,0.0324,0.013523,0.002678,0.000431,0.000588
41045000,0.0324,0.013523,0.002678,0.000431,0.000470
41046000,0.0324,0.013523,0.002678,0.000431,0.000705
41047000,0.0324,0.013523,0.002678,0.000431,0.000353
41048000,0.0324,0.013523,0.002678,0.000431,0.000588
41049000,0.0324,0.013523,0.002678,0.000431,0.000353
41050000,0.0324,0.013523,0.002678,0.000431,0.000588
41051000,0.0324,0.013523,0.002678,0.000431,0.000353
41052000,0.0324,0.013523,0.002678,0.000431,0.000588
41053000,0.0324,0.013523,0.002678,0.000431,0.000353
41054000,0.0324,0.013523,0.002678,0.000431,0.000588
41055000,0.0324,0.013523,0.002678,0.000431,0.000353
41056000,0.0324,0.013523,0.002678,0.000431,0.000588
41057000,0.0324,0.013523,0.002678,0.000431,0.000353
41058000,0.0324,0.013523,0.002678,0.000431,0.000588
41059000,0.0324,0.013523,0.002678,0.000431,0.000353
41060000,0.0324,0.013523,0.002678,0.000431,0.000588
41061000,0.0324,0.013523,0.002678,0.000431,0.000353
41062000,0.0324,0.013523,0.002678,0.000431,0.000588
41063000,0.0324,0.013523,0.002678,0.000431,0.000353
41064000,0.0324,0.013523,0.002678,0.000431,0.000588
41065000,0.0324,0.013523,0.002678,0.000431,0.000353
41066000,0.0324,0.013523,0.002678,0.000431,0.000588
41067000,0.0324,0.013523,0.002678,0.000431,0.000353
41068000,0.0324,0.013523,0.002678,0.000431,0.000470
41069000,0.0324,0.013523,0.002678,0.000431,0.000470
41070000,0.0324,0.013523,0.002678,0.000431,0.000470
41071000,0.0324,0.013523,0.002678,0.000431,0.000470
41072000,0.0324,0.013523,0.002678,0.000431,0.000470
41073000,0.0324,0.013523,0.002678,0.000431,0.000470
41074000,0.0324,0.013523,0.002678,0.000431,0.000470
41075000,0.0324,0.013523,0.002678,0.000431,0.000470
41076000,0.0324,0.013523,0.002678,0.000431,0.000470
41077000,0.0324,0.013523,0.002678,0.000431,0.000470
41078000,0.0324,0.013523,0.002678,0.000431,0.000470
41079000,0.0324,0.013523,0.002678,0.000431,0.000470
41080000,0.0324,0.013523,0.002678,0.000431,0.000470
41081000,0.0324,0.013523,0.002678,0.000431,0.000470
41082000,0.0324,0.013523,0.002678,0.000431,0.000588
41083000,0.0324,0.013523,0.002678,0.000431,0.000470
41084000,0.0324,0.013523,0.002678,0.000431,0.000705
41085000,0.0324,0.013523,0.002678,0.000431,0.000353
41086000,0.0324,0.013523,0.002678,0.000431,0.000588
41087000,0.0324,0.013523,0.002678,0.000431,0.000353
41088000,0.0324,0.013523,0.002678,0.000431,0.000588
41089000,0.0324,0.013523,0.002678,0.000431,0.000353
41090000,0.0324,0.013523,0.002678,0.000431,0.000588
41091000,0.0324,0.013523,0.002678,0.000431,0.000353
41092000,0.0324,0.013523,0.002678,0.000431,0.000588
41093000,0.0324,0.013523,0.002678,0.000431,0.000353
41094000,0.0324,0.013523,0.002678,0.000431,0.000588
41095000,0.0324,0.013523,0.002678,0.000431,0.000470
41096000,0.0324,0.013523,0.002678,0.000431,0.000705
41097000,0.0324,0.013523,0.002678,0.000431,0.000353
41098000,0.0324,0.013523,0.002678,0.000431,0.000705
41099000,0.0324,0.013523,0.002678,0.000431,0.000470
41100000,0.0324,0.013523,0.002678,0.000431,0.000470
41101000,0.0324,0.013523,0.002678,0.000431,0.000470
41102000,0.0324,0.013523,0.002678,0.000431,0.000470
41103000,0.0324,0.013523,0.002678,0.000431,0.000470
41104000,0.0324,0.013523,0.002678,0.000431,0.000470
41105000,0.0324,0.013523,0.002678,0.000431,0.000470
41106000,0.0324,0.013523,0.002678,0.000431,0.000470
41107000,0.0324,0.013523,0.002678,0.000431,0.000470
41108000,0.0324,0.013523,0.002678,0.000431,0.000470
41109000,0.0324,0.013523,0.002678,0.000431,0.000470
41110000,0.0324,0.013523,0.002678,0.000431,0.000705
41111000,0.0324,0.013523,0.002678,0.000431,0.000470
41112000,0.0324,0.013523,0.002678,0.000431,0.000470
41113000,0.0324,0.013523,0.002678,0.000431,0.000470
41114000,0.0324,0.013523,0.002678,0.000431,0.000470
41115000,0.0324,0.013523,0.002678,0.000431,0.000353
41116000,0.0324,0.013523,0.002678,0.000431,0.000588
41117000,0.0324,0.013523,0.002678,0.000431,0.000353
41118000,0.0324,0.013523,0.002678,0.000431,0.000588
41119000,0.0324,0.013523,0.002678,0.000431,0.000353
41120000,0.0324,0.013523,0.002678,0.000431,0.000588
41121000,0.0324,0.013523,0.002678,0.000431,0.000353
41122000,0.0324,0.013523,0.002678,0.000431,0.000588
41123000,0.0324,0.013523,0.002678,0.000431,0.000353
41124000,0.0324,0.013523,0.002678,0.000431,0.000588
41125000,0.0324,0.013523,0.002678,0.000431,0.000353
41126000,0.0324,0.013523,0.002678,0.000431,0.000588
41127000,0.0324,0.013523,0.002678,0.000431,0.000353
41128000,0.0324,0.013523,0.002678,0.000431,0.000588
41129000,0.0324,0.013523,0.002678,0.000431,0.000353
41130000,0.0324,0.013523,0.002678,0.000431,0.000588
41131000,0.0324,0.013523,0.002678,0.000431,0.000353
41132000,0.0324,0.013523,0.002678,0.000431,0.000588
41133000,0.0324,0.013523,0.002678,0.000431,0.000470
41134000,0.0324,0.013523,0.002678,0.000431,0.000470
41135000,0.0324,0.013523,0.002678,0.000431,0.000353
41136000,0.0324,0.013523,0.002678,0.000431,0.000588
41137000,0.0324,0.013523,0.002678,0.000431,0.000470
41138000,0.0324,0.013523,0.002678,0.000431,0.000588
41139000,0.0324,0.013523,0.002678,0.000431,0.000470
41140000,0.0324,0.013523,0.002678,0.000431,0.000588
41141000,0.0324,0.013523,0.002678,0.000431,0.000353
41142000,0.0324,0.013523,0.002678,0.000431,0.000588
41143000,0.0324,0.013523,0.002678,0.000431,0.000353
41144000,0.0324,0.013523,0.002678,0.000431,0.000470
41145000,0.0324,0.013523,0.002678,0.000431,0.000470
41146000,0.0324,0.013523,0.002678,0.000431,0.000470
41147000,0.0324,0.013523,0.002678,0.000431,0.000470
41148000,0.0324,0.013523,0.002678,0.000431,0.000353
41149000,0.0324,0.013523,0.002678,0.000431,0.000823
41150000,0.0324,0.013523,0.002678,0.000431,0.000470
41151000,0.0324,0.013523,0.002678,0.000431,0.000470
41152000,0.0324,0.013523,0.002678,0.000431,0.000705
41153000,0.0324,0.013523,0.002678,0.000431,0.000353
41154000,0.0324,0.013523,0.002678,0.000431,0.000705
41155000,0.0324,0.013523,0.002678,0.000431,0.000470
41156000,0.0324,0.013523,0.002678,0.000431,0.000470
41157000,0.0324,0.013523,0.002678,0.000431,0.000470
41158000,0.0324,0.013523,0.002678,0.000431,0.000470
41159000,0.0324,0.013523,0.002678,0.000431,0.000470
41160000,0.0324,0.013523,0.002678,0.000431,0.000470
41161000,0.0324,0.013523,0.002678,0.000431,0.000470
41162000,0.0324,0.013523,0.002678,0.000431,0.000470
41163000,0.0324,0.013523,0.002678,0.000431,0.000470
41164000,0.0324,0.013523,0.002678,0.000431,0.000588
41165000,0.0324,0.013523,0.002678,0.000431,0.000353
41166000,0.0324,0.013523,0.002678,0.000431,0.000588
41167000,0.0324,0.013523,0.002678,0.000431,0.000353
41168000,0.0324,0.013523,0.002678,0.000431,0.000588
41169000,0.0324,0.013523,0.002678,0.000431,0.000353
41170000,0.0324,0.013523,0.002678,0.000431,0.000588
41171000,0.0324,0.013523,0.002678,0.000431,0.000470
41172000,0.0324,0.013523,0.002678,0.000431,0.000588
41173000,0.0324,0.013523,0.002678,0.000431,0.000353
41174000,0.0324,0.013523,0.002678,0.000431,0.000588
41175000,0.0324,0.013523,0.002678,0.000431,0.000353
41176000,0.0324,0.013523,0.002678,0.000431,0.000588
41177000,0.0324,0.013523,0.002678,0.000431,0.000353
41178000,0.0324,0.013523,0.002678,0.000431,0.000588
41179000,0.0324,0.013523,0.002678,0.000431,0.000353
41180000,0.0324,0.013523,0.002678,0.000431,0.000588
41181000,0.0324,0.013523,0.002678,0.000431,0.000353
41182000,0.0324,0.013523,0.002678,0.000431,0.000588
41183000,0.0324,0.013523,0.002678,0.000431,0.000353
41184000,0.0324,0.013523,0.002678,0.000431,0.000588
41185000,0.0324,0.013523,0.002678,0.000431,0.000353
41186000,0.0324,0.013523,0.002678,0.000431,0.000588
41187000,0.0324,0.013523,0.002678,0.000431,0.000353
41188000,0.0324,0.013523,0.002678,0.000431,0.000588
41189000,0.0324,0.013523,0.002678,0.000431,0.000353
41190000,0.0324,0.013523,0.002678,0.000431,0.000588
41191000,0.0324,0.013523,0.002678,0.000431,0.000353
41192000,0.0324,0.013523,0.002678,0.000431,0.000588
41193000,0.0324,0.013523,0.002678,0.000431,0.000353
41194000,0.0324,0.013523,0.002678,0.000431,0.000705
41195000,0.0324,0.013523,0.002678,0.000431,0.000470
41196000,0.0324,0.013523,0.002678,0.000431,0.000470
41197000,0.0324,0.013523,0.002678,0.000431,0.000470
41198000,0.0324,0.013523,0.002678,0.000431,0.000470
41199000,0.0324,0.013523,0.002678,0.000431,0.000470
41200000,0.0324,0.013523,0.002678,0.000431,0.000353
41201000,0.0324,0.013523,0.002678,0.000431,0.000588
41202000,0.0324,0.013523,0.002678,0.000431,0.000353
41203000,0.0324,0.013523,0.002678,0.000431,0.000588
41204000,0.0324,0.013523,0.002678,0.000431,0.000353
41205000,0.0324,0.013523,0.002678,0.000431,0.000705
41206000,0.0324,0.013523,0.002678,0.000431,0.000588
41207000,0.0324,0.013523,0.002678,0.000431,0.000470
41208000,0.0324,0.013523,0.002678,0.000431,0.000588
41209000,0.0324,0.013523,0.002678,0.000431,0.000353
41210000,0.0324,0.013523,0.002678,0.000431,0.000588
41211000,0.0324,0.013523,0.002678,0.000431,0.000353
41212000,0.0324,0.013523,0.002678,0.000431,0.000588
41213000,0.0324,0.013523,0.002678,0.000431,0.000353
41214000,0.0324,0.013523,0.002678,0.000431,0.000588
41215000,0.0324,0.013523,0.002678,0.000431,0.000353
41216000,0.0324,0.013523,0.002678,0.000431,0.000588
41217000,0.0324,0.013523,0.002678,0.000431,0.000353
41218000,0.0324,0.013523,0.002678,0.000431,0.000588
41219000,0.0324,0.013523,0.002678,0.000431,0.000353
41220000,0.0324,0.013523,0.002678,0.000431,0.000705
41221000,0.0324,0.013523,0.002678,0.000431,0.000470
41222000,0.0324,0.013523,0.002678,0.000431,0.000470
41223000,0.0324,0.013523,0.002678,0.000431,0.000470
41224000,0.0324,0.013523,0.002678,0.000431,0.000470
41225000,0.0324,0.013523,0.002678,0.000431,0.000588
41226000,0.0324,0.013523,0.002678,0.000431,0.000470
41227000,0.0324,0.013523,0.002678,0.000431,0.000588
41228000,0.0324,0.013523,0.002678,0.000431,0.000353
41229000,0.0324,0.013523,0.002678,0.000431,0.000588
41230000,0.0324,0.013523,0.002678,0.000431,0.000353
41231000,0.0324,0.013523,0.002678,0.000431,0.000588
41232000,0.0324,0.013523,0.002678,0.000431,0.000353
41233000,0.0324,0.013523,0.002678,0.000431,0.000588
41234000,0.0324,0.013523,0.002678,0.000431,0.000353
41235000,0.0324,0.013523,0.002678,0.000431,0.000705
41236000,0.0324,0.013523,0.002678,0.000431,0.000470
41237000,0.0324,0.013523,0.002678,0.000431,0.000470
41238000,0.0324,0.013523,0.002678,0.000431,0.000470
41239000,0.0324,0.013523,0.002678,0.000431,0.000470
41240000,0.0324,0.013523,0.002678,0.000431,0.000470
41241000,0.0324,0.013523,0.002678,0.000431,0.000470
41242000,0.0324,0.013523,0.002678,0.000431,0.000470
41243000,0.0324,0.013523,0.002678,0.000431,0.000470
41244000,0.0324,0.013523,0.002678,0.000431,0.000470
41245000,0.0324,0.013523,0.002678,0.000431,0.000588
41246000,0.0324,0.013523,0.002678,0.000431,0.000353
41247000,0.0324,0.013523,0.002678,0.000431,0.000470
41248000,0.0324,0.013523,0.002678,0.000431,0.000470
41249000,0.0324,0.013523,0.002678,0.000431,0.000470
41250000,0.0324,0.013523,0.002678,0.000431,0.000470
41251000,0.0324,0.013523,0.002678,0.000431,0.000470
41252000,0.0324,0.013523,0.002678,0.000431,0.000353
41253000,0.0324,0.013523,0.002678,0.000431,0.000588
41254000,0.0324,0.013523,0.002678,0.000431,0.000353
41255000,0.0324,0.013523,0.002678,0.000431,0.000588
41256000,0.0324,0.013523,0.002678,0.000431,0.000353
41257000,0.0324,0.013523,0.002678,0.000431,0.000705
41258000,0.0324,0.013523,0.002678,0.000431,0.000353
41259000,0.0324,0.013523,0.002678,0.000431,0.000705
41260000,0.0324,0.013523,0.002678,0.000431,0.000470
41261000,0.0324,0.013523,0.002678,0.000431,0.000470
41262000,0.0324,0.013523,0.002678,0.000431,0.000470
41263000,0.0324,0.013523,0.002678,0.000431,0.000470
41264000,0.0324,0.013523,0.002678,0.000431,0.000470
41265000,0.0324,0.013523,0.002678,0.000431,0.000588
41266000,0.0324,0.013523,0.002678,0.000431,0.000353
41267000,0.0324,0.013523,0.002678,0.000431,0.000588
41268000,0.0324,0.013523,0.002678,0.000431,0.000353
41269000,0.0324,0.013523,0.002678,0.000431,0.000588
41270000,0.0324,0.013523,0.002678,0.000431,0.000353
41271000,0.0324,0.013523,0.002678,0.000431,0.000588
41272000,0.0324,0.013523,0.002678,0.000431,0.000353
41273000,0.0324,0.013523,0.002678,0.000431,0.000588
41274000,0.0324,0.013523,0.002678,0.000431,0.000353
41275000,0.0324,0.013523,0.002678,0.000431,0.000588
41276000,0.0324,0.013523,0.002678,0.000431,0.000470
41277000,0.0324,0.013523,0.002678,0.000431,0.000705
41278000,0.0324,0.013523,0.002678,0.000431,0.000353
41279000,0.0324,0.013523,0.002678,0.000431,0.000470
41280000,0.0324,0.013523,0.002678,0.000431,0.000470
41281000,0.0324,0.013523,0.002678,0.000431,0.000470
41282000,0.0324,0.013523,0.002678,0.000431,0.000353
41283000,0.0324,0.013523,0.002678,0.000431,0.000588
41284000,0.0324,0.013523,0.002678,0.000431,0.000353
41285000,0.0324,0.013523,0.002678,0.000431,0.000588
41286000,0.0324,0.013523,0.002678,0.000431,0.000470
41287000,0.0324,0.013523,0.002678,0.000431,0.000470
41288000,0.0324,0.013523,0.002678,0.000431,0.000353
41289000,0.0324,0.013523,0.002678,0.000431,0.000588
41290000,0.0324,0.013523,0.002678,0.000431,0.000353
41291000,0.0324,0.013523,0.002678,0.000431,0.000588
41292000,0.0324,0.013523,0.002678,0.000431,0.000470
41293000,0.0324,0.013523,0.002678,0.000431,0.000470
41294000,0.0324,0.013523,0.002678,0.000431,0.000470
41295000,0.0324,0.013523,0.002678,0.000431,0.000470
41296000,0.0324,0.013523,0.002678,0.000431,0.000470
41297000,0.0324,0.013523,0.002678,0.000431,0.000588
41298000,0.0324,0.013523,0.002678,0.000431,0.000470
41299000,0.0324,0.013523,0.002678,0.000431,0.000470
41300000,0.0324,0.013523,0.002678,0.000431,0.000470
41301000,0.0324,0.013523,0.002678,0.000431,0.000705
41302000,0.0324,0.013523,0.002678,0.000431,0.000353
41303000,0.0324,0.013523,0.002678,0.000431,0.000588
41304000,0.0324,0.013523,0.002678,0.000431,0.000470
41305000,0.0324,0.013523,0.002678,0.000431,0.000588
41306000,0.0324,0.013523,0.002678,0.000431,0.000235
41307000,0.0324,0.013523,0.002678,0.000431,0.000588
41308000,0.0324,0.013523,0.002678,0.000431,0.000353
41309000,0.0324,0.013523,0.002678,0.000431,0.000588
41310000,0.0324,0.013523,0.002678,0.000431,0.000353
41311000,0.0324,0.013523,0.002678,0.000431,0.000588
41312000,0.0324,0.013523,0.002678,0.000431,0.000353
41313000,0.0324,0.013523,0.002678,0.000431,0.000588
41314000,0.0324,0.013523,0.002678,0.000431,0.000353
41315000,0.0324,0.013523,0.002678,0.000431,0.000588
41316000,0.0324,0.013523,0.002678,0.000431,0.000353
41317000,0.0324,0.013523,0.002678,0.000431,0.000588
41318000,0.0324,0.013523,0.002678,0.000431,0.000353
41319000,0.0324,0.013523,0.002678,0.000431,0.000588
41320000,0.0324,0.013523,0.002678,0.000431,0.000353
41321000,0.0324,0.013523,0.002678,0.000431,0.000588
41322000,0.0324,0.013523,0.002678,0.000431,0.000353
41323000,0.0324,0.013523,0.002678,0.000431,0.000588
41324000,0.0324,0.013523,0.002678,0.000431,0.000353
41325000,0.0324,0.013523,0.002678,0.000431,0.000823
41326000,0.0324,0.013523,0.002678,0.000431,0.000353
41327000,0.0324,0.013523,0.002678,0.000431,0.000588
41328000,0.0324,0.013523,0.002678,0.000431,0.000353
41329000,0.0324,0.013523,0.002678,0.000431,0.000705
41330000,0.0324,0.013523,0.002678,0.000431,0.000588
41331000,0.0324,0.013523,0.002678,0.000431,0.000470
41332000,0.0324,0.013523,0.002678,0.000431,0.000705
41333000,0.0324,0.013523,0.002678,0.000431,0.000353
41334000,0.0324,0.013523,0.002678,0.000431,0.000705
41335000,0.0324,0.013523,0.002678,0.000431,0.000588
41336000,0.0324,0.013523,0.002678,0.000431,0.000470
41337000,0.0324,0.013523,0.002678,0.000431,0.000705
41338000,0.0324,0.013523,0.002678,0.000431,0.000353
41339000,0.0324,0.013523,0.002678,0.000431,0.000588
41340000,0.0324,0.013523,0.002678,0.000431,0.000353
41341000,0.0324,0.013523,0.002678,0.000431,0.000588
41342000,0.0324,0.013523,0.002678,0.000431,0.000353
41343000,0.0324,0.013523,0.002678,0.000431,0.000470
41344000,0.0324,0.013523,0.002678,0.000431,0.000353
41345000,0.0324,0.013523,0.002678,0.000431,0.000705
41346000,0.0324,0.013523,0.002678,0.000431,0.000353
41347000,0.0324,0.013523,0.002678,0.000431,0.000588
41348000,0.0324,0.013523,0.002678,0.000431,0.000353
41349000,0.0324,0.013523,0.002678,0.000431,0.000705
41350000,0.0324,0.013523,0.002678,0.000431,0.000353
41351000,0.0324,0.013523,0.002678,0.000431,0.000470
41352000,0.0324,0.013523,0.002678,0.000431,0.000353
41353000,0.0324,0.013523,0.002678,0.000431,0.000588
41354000,0.0324,0.013523,0.002678,0.000431,0.000353
41355000,0.0324,0.013523,0.002678,0.000431,0.000588
41356000,0.0324,0.013523,0.002678,0.000431,0.000353
41357000,0.0324,0.013523,0.002678,0.000431,0.000588
41358000,0.0324,0.013523,0.002678,0.000431,0.000353
41359000,0.0324,0.013523,0.002678,0.000431,0.000588
41360000,0.0324,0.013523,0.002678,0.000431,0.000353
41361000,0.0324,0.013523,0.002678,0.000431,0.000588
41362000,0.0324,0.013523,0.002678,0.000431,0.000353
41363000,0.0324,0.013523,0.002678,0.000431,0.000588
41364000,0.0324,0.013523,0.002678,0.000431,0.000353
41365000,0.0324,0.013523,0.002678,0.000431,0.000588
41366000,0.0324,0.013523,0.002678,0.000431,0.000353
41367000,0.0324,0.013523,0.002678,0.000431,0.000588
41368000,0.0324,0.013523,0.002678,0.000431,0.000353
41369000,0.0324,0.013523,0.002678,0.000431,0.000470
41370000,0.0324,0.013523,0.002678,0.000431,0.000353
41371000,0.0324,0.013523,0.002678,0.000431,0.000588
41372000,0.0324,0.013523,0.002678,0.000431,0.000470
41373000,0.0324,0.013523,0.002678,0.000431,0.000588
41374000,0.0324,0.013523,0.002678,0.000431,0.000470
41375000,0.0324,0.013523,0.002678,0.000431,0.000823
41376000,0.0324,0.013523,0.002678,0.000431,0.000353
41377000,0.0324,0.013523,0.002678,0.000431,0.000588
41378000,0.0324,0.013523,0.002678,0.000431,0.000353
41379000,0.0324,0.013523,0.002678,0.000431,0.000705
41380000,0.0324,0.013523,0.002678,0.000431,0.000353
41381000,0.0324,0.013523,0.002678,0.000431,0.000705
41382000,0.0324,0.013523,0.002678,0.000431,0.000588
41383000,0.0324,0.013523,0.002678,0.000431,0.000470
41384000,0.0324,0.013523,0.002678,0.000431,0.000705
41385000,0.0324,0.013523,0.002678,0.000431,0.000353
41386000,0.0324,0.013523,0.002678,0.000431,0.000588
41387000,0.0324,0.013523,0.002678,0.000431,0.000353
41388000,0.0324,0.013523,0.002678,0.000431,0.000470
41389000,0.0324,0.013523,0.002678,0.000431,0.000353
41390000,0.0324,0.013523,0.002678,0.000431,0.000588
41391000,0.0324,0.013523,0.002678,0.000431,0.000470
41392000,0.0324,0.013523,0.002678,0.000431,0.000470
41393000,0.0324,0.013523,0.002678,0.000431,0.000470
41394000,0.0324,0.013523,0.002678,0.000431,0.000470
41395000,0.0324,0.013523,0.002678,0.000431,0.000470
41396000,0.0324,0.013523,0.002678,0.000431,0.000470
41397000,0.0324,0.013523,0.002678,0.000431,0.000470
41398000,0.0324,0.013523,0.002678,0.000431,0.000470
41399000,0.0324,0.013523,0.002678,0.000431,0.000353
41400000,0.0324,0.013523,0.002678,0.000431,0.000705
41401000,0.0324,0.013523,0.002678,0.000431,0.000470
41402000,0.0324,0.013523,0.002678,0.000431,0.000705
41403000,0.0324,0.013523,0.002678,0.000431,0.000353
41404000,0.0324,0.013523,0.002678,0.000431,0.000705
41405000,0.0324,0.013523,0.002678,0.000431,0.000588
41406000,0.0324,0.013523,0.002678,0.000431,0.000470
41407000,0.0324,0.013523,0.002678,0.000431,0.000470
41408000,0.0324,0.013523,0.002678,0.000431,0.000470
41409000,0.0324,0.013523,0.002678,0.000431,0.000470
41410000,0.0324,0.013523,0.002678,0.000431,0.000470
41411000,0.0324,0.013523,0.002678,0.000431,0.000470
41412000,0.0324,0.013523,0.002678,0.000431,0.000588
41413000,0.0324,0.013523,0.002678,0.000431,0.000588
41414000,0.0324,0.013523,0.002678,0.000431,0.000470
41415000,0.0324,0.013523,0.002678,0.000431,0.000705
41416000,0.0324,0.013523,0.002678,0.000431,0.000353
41417000,0.0324,0.013523,0.002678,0.000431,0.000705
41418000,0.0324,0.013523,0.002678,0.000431,0.000588
41419000,0.0324,0.013523,0.002678,0.000431,0.000470
41420000,0.0324,0.013523,0.002678,0.000431,0.000705
41421000,0.0324,0.013523,0.002678,0.000431,0.000353
41422000,0.0324,0.013523,0.002678,0.000431,0.000588
41423000,0.0324,0.013523,0.002678,0.000431,0.000353
41424000,0.0324,0.013523,0.002678,0.000431,0.000588
41425000,0.0324,0.013523,0.002678,0.000431,0.000353
41426000,0.0324,0.013523,0.002678,0.000431,0.000470
41427000,0.0324,0.013523,0.002678,0.000431,0.000470
41428000,0.0324,0.013523,0.002678,0.000431,0.000470
41429000,0.0324,0.013523,0.002678,0.000431,0.000470
41430000,0.0324,0.013523,0.002678,0.000431,0.000588
41431000,0.0324,0.013523,0.002678,0.000431,0.000470
41432000,0.0324,0.013523,0.002678,0.000431,0.000705
41433000,0.0324,0.013523,0.002678,0.000431,0.000353
41434000,0.0324,0.013523,0.002678,0.000431,0.000705
41435000,0.0324,0.013523,0.002678,0.000431,0.000588
41436000,0.0324,0.013523,0.002678,0.000431,0.000470
41437000,0.0324,0.013523,0.002678,0.000431,0.000705
41438000,0.0324,0.013523,0.002678,0.000431,0.000353
41439000,0.0324,0.013523,0.002678,0.000431,0.000588
41440000,0.0324,0.013523,0.002678,0.000431,0.000470
41441000,0.0324,0.013523,0.002678,0.000431,0.000705
41442000,0.0324,0.013523,0.002678,0.000431,0.000470
41443000,0.0324,0.013523,0.002678,0.000431,0.000470
41444000,0.0324,0.013523,0.002678,0.000431,0.000353
41445000,0.0324,0.013523,0.002678,0.000431,0.000588
41446000,0.0324,0.013523,0.002678,0.000431,0.000353
41447000,0.0324,0.013523,0.002678,0.000431,0.000470
41448000,0.0324,0.013523,0.002678,0.000431,0.000470
41449000,0.0324,0.013523,0.002678,0.000431,0.000705
41450000,0.0324,0.013523,0.002678,0.000431,0.000588
41451000,0.0324,0.013523,0.002678,0.000431,0.000470
41452000,0.0324,0.013523,0.002678,0.000431,0.000588
41453000,0.0324,0.013523,0.002678,0.000431,0.000353
41454000,0.0324,0.013523,0.002678,0.000431,0.000588
41455000,0.0324,0.013523,0.002678,0.000431,0.000353
41456000,0.0324,0.013523,0.002678,0.000431,0.000588
41457000,0.0324,0.013523,0.002678,0.000431,0.000353
41458000,0.0324,0.013523,0.002678,0.000431,0.000588
41459000,0.0324,0.013523,0.002678,0.000431,0.000353
41460000,0.0324,0.013523,0.002678,0.000431,0.000588
41461000,0.0324,0.013523,0.002678,0.000431,0.000353
41462000,0.0324,0.013523,0.002678,0.000431,0.000588
41463000,0.0324,0.013523,0.002678,0.000431,0.000588
41464000,0.0324,0.013523,0.002678,0.000431,0.000353
41465000,0.0324,0.013523,0.002678,0.000431,0.000470
41466000,0.0324,0.013523,0.002678,0.000431,0.000470
41467000,0.0324,0.013523,0.002678,0.000431,0.000470
41468000,0.0324,0.013523,0.002678,0.000431,0.000470
41469000,0.0324,0.013523,0.002678,0.000431,0.000470
41470000,0.0324,0.013523,0.002678,0.000431,0.000353
41471000,0.0324,0.013523,0.002678,0.000431,0.000588
41472000,0.0324,0.013523,0.002678,0.000431,0.000353
41473000,0.0324,0.013523,0.002678,0.000431,0.000588
41474000,0.0324,0.013523,0.002678,0.000431,0.000353
41475000,0.0324,0.013523,0.002678,0.000431,0.000705
41476000,0.0324,0.013523,0.002678,0.000431,0.000353
41477000,0.0324,0.013523,0.002678,0.000431,0.000705
41478000,0.0324,0.013523,0.002678,0.000431,0.000588
41479000,0.0324,0.013523,0.002678,0.000431,0.000470
41480000,0.0324,0.013523,0.002678,0.000431,0.000705
41481000,0.0324,0.013523,0.002678,0.000431,0.000353
41482000,0.0324,0.013523,0.002678,0.000431,0.000705
41483000,0.0324,0.013523,0.002678,0.000431,0.000588
41484000,0.0324,0.013523,0.002678,0.000431,0.000353
41485000,0.0324,0.013523,0.002678,0.000431,0.000588
41486000,0.0324,0.013523,0.002678,0.000431,0.000470
41487000,0.0324,0.013523,0.002678,0.000431,0.000588
41488000,0.0324,0.013523,0.002678,0.000431,0.000353
41489000,0.0324,0.013523,0.002678,0.000431,0.000588
41490000,0.0324,0.013523,0.002678,0.000431,0.000470
41491000,0.0324,0.013523,0.002678,0.000431,0.000470
41492000,0.0324,0.013523,0.002678,0.000431,0.000470
41493000,0.0324,0.013523,0.002678,0.000431,0.000470
41494000,0.0324,0.013523,0.002678,0.000431,0.000470
41495000,0.0324,0.013523,0.002678,0.000431,0.000588
41496000,0.0324,0.013523,0.002678,0.000431,0.000470
41497000,0.0324,0.013523,0.002678,0.000431,0.000705
41498000,0.0324,0.013523,0.002678,0.000431,0.000353
41499000,0.0324,0.013523,0.002678,0.000431,0.000588
41500000,0.0324,0.013523,0.002678,0.000431,0.000353
41501000,0.0324,0.013523,0.002678,0.000431,0.000705
41502000,0.0324,0.013523,0.002678,0.000431,0.000470
41503000,0.0324,0.013523,0.002678,0.000431,0.000470
41504000,0.0324,0.013523,0.002678,0.000431,0.000470
41505000,0.0324,0.013523,0.002678,0.000431,0.000470
41506000,0.0324,0.013523,0.002678,0.000431,0.000470
41507000,0.0324,0.013523,0.002678,0.000431,0.000470
41508000,0.0324,0.013523,0.002678,0.000431,0.000353
41509000,0.0324,0.013523,0.002678,0.000431,0.000588
41510000,0.0324,0.013523,0.002678,0.000431,0.000353
41511000,0.0324,0.013523,0.002678,0.000431,0.000588
41512000,0.0324,0.013523,0.002678,0.000431,0.000353
41513000,0.0324,0.013523,0.002678,0.000431,0.000588
41514000,0.0324,0.013523,0.002678,0.000431,0.000353
41515000,0.0324,0.013523,0.002678,0.000431,0.000588
41516000,0.0324,0.013523,0.002678,0.000431,0.000353
41517000,0.0324,0.013523,0.002678,0.000431,0.000588
41518000,0.0324,0.013523,0.002678,0.000431,0.000353
41519000,0.0324,0.013523,0.002678,0.000431,0.000588
41520000,0.0324,0.013523,0.002678,0.000431,0.000353
41521000,0.0324,0.013523,0.002678,0.000431,0.000588
41522000,0.0324,0.013523,0.002678,0.000431,0.000353
41523000,0.0324,0.013523,0.002678,0.000431,0.000588
41524000,0.0324,0.013523,0.002678,0.000431,0.000235
41525000,0.0324,0.013523,0.002678,0.000431,0.000588
41526000,0.0324,0.013523,0.002678,0.000431,0.000470
41527000,0.0324,0.013523,0.002678,0.000431,0.000470
41528000,0.0324,0.013523,0.002678,0.000431,0.000353
41529000,0.0324,0.013523,0.002678,0.000431,0.000588
41530000,0.0324,0.013523,0.002678,0.000431,0.000353
41531000,0.0324,0.013523,0.002678,0.000431,0.000588
41532000,0.0324,0.013523,0.002678,0.000431,0.000470
41533000,0.0324,0.013523,0.002678,0.000431,0.000588
41534000,0.0324,0.013523,0.002678,0.000431,0.000353
41535000,0.0324,0.013523,0.002678,0.000431,0.000470
41536000,0.0324,0.013523,0.002678,0.000431,0.000470
41537000,0.0324,0.013523,0.002678,0.000431,0.000470
41538000,0.0324,0.013523,0.002678,0.000431,0.000470
41539000,0.0324,0.013523,0.002678,0.000431,0.000353
41540000,0.0324,0.013523,0.002678,0.000431,0.000588
41541000,0.0324,0.013523,0.002678,0.000431,0.000353
41542000,0.0324,0.013523,0.002678,0.000431,0.000588
41543000,0.0324,0.013523,0.002678,0.000431,0.000353
41544000,0.0324,0.013523,0.002678,0.000431,0.000588
41545000,0.0324,0.013523,0.002678,0.000431,0.000353
41546000,0.0324,0.013523,0.002678,0.000431,0.000588
41547000,0.0324,0.013523,0.002678,0.000431,0.000353
41548000,0.0324,0.013523,0.002678,0.000431,0.000705
41549000,0.0324,0.013523,0.002678,0.000431,0.000588
41550000,0.0324,0.013523,0.002678,0.000431,0.000470
41551000,0.0324,0.013523,0.002678,0.000431,0.000588
41552000,0.0324,0.013523,0.002678,0.000431,0.000353
41553000,0.0324,0.013523,0.002678,0.000431,0.000588
41554000,0.0324,0.013523,0.002678,0.000431,0.000353
41555000,0.0324,0.013523,0.002678,0.000431,0.000588
41556000,0.0324,0.013523,0.002678,0.000431,0.000353
41557000,0.0324,0.013523,0.002678,0.000431,0.000588
41558000,0.0324,0.013523,0.002678,0.000431,0.000353
41559000,0.0324,0.013523,0.002678,0.000431,0.000588
41560000,0.0324,0.013523,0.002678,0.000431,0.000353
41561000,0.0324,0.013523,0.002678,0.000431,0.000470
41562000,0.0324,0.013523,0.002678,0.000431,0.000470
41563000,0.0324,0.013523,0.002678,0.000431,0.000470
41564000,0.0324,0.013523,0.002678,0.000431,0.000470
41565000,0.0324,0.013523,0.002678,0.000431,0.000353
41566000,0.0324,0.013523,0.002678,0.000431,0.000823
41567000,0.0324,0.013523,0.002678,0.000431,0.000353
41568000,0.0324,0.013523,0.002678,0.000431,0.000588
41569000,0.0324,0.013523,0.002678,0.000431,0.000353
41570000,0.0324,0.013523,0.002678,0.000431,0.000588
41571000,0.0324,0.013523,0.002678,0.000431,0.000353
41572000,0.0324,0.013523,0.002678,0.000431,0.000588
41573000,0.0324,0.013523,0.002678,0.000431,0.000353
41574000,0.0324,0.013523,0.002678,0.000431,0.000705
41575000,0.0324,0.013523,0.002678,0.000431,0.000353
41576000,0.0324,0.013523,0.002678,0.000431,0.000470
41577000,0.0324,0.013523,0.002678,0.000431,0.000353
41578000,0.0324,0.013523,0.002678,0.000431,0.000588
41579000,0.0324,0.013523,0.002678,0.000431,0.000353
41580000,0.0324,0.013523,0.002678,0.000431,0.000588
41581000,0.0324,0.013523,0.002678,0.000431,0.000353
41582000,0.0324,0.013523,0.002678,0.000431,0.000588
41583000,0.0324,0.013523,0.002678,0.000431,0.000353
41584000,0.0324,0.013523,0.002678,0.000431,0.000588
41585000,0.0324,0.013523,0.002678,0.000431,0.000353
41586000,0.0324,0.013523,0.002678,0.000431,0.000588
41587000,0.0324,0.013523,0.002678,0.000431,0.000353
41588000,0.0324,0.013523,0.002678,0.000431,0.000588
41589000,0.0324,0.013523,0.002678,0.000431,0.000353
41590000,0.0324,0.013523,0.002678,0.000431,0.000588
41591000,0.0324,0.013523,0.002678,0.000431,0.000353
41592000,0.0324,0.013523,0.002678,0.000431,0.000588
41593000,0.0324,0.013523,0.002678,0.000431,0.000353
41594000,0.0324,0.013523,0.002678,0.000431,0.000470
41595000,0.0324,0.013523,0.002678,0.000431,0.000470
41596000,0.0324,0.013523,0.002678,0.000431,0.000470
41597000,0.0324,0.013523,0.002678,0.000431,0.000470
41598000,0.0324,0.013523,0.002678,0.000431,0.000470
41599000,0.0324,0.013523,0.002678,0.000431,0.000470
41600000,0.0324,0.013523,0.002678,0.000431,0.000470
41601000,0.0324,0.013523,0.002678,0.000431,0.000470
41602000,0.0324,0.013523,0.002678,0.000431,0.000588
41603000,0.0324,0.013523,0.002678,0.000431,0.000470
41604000,0.0324,0.013523,0.002678,0.000431,0.000588
41605000,0.0324,0.013523,0.002678,0.000431,0.000353
41606000,0.0324,0.013523,0.002678,0.000431,0.000588
41607000,0.0324,0.013523,0.002678,0.000431,0.000353
41608000,0.0324,0.013523,0.002678,0.000431,0.000588
41609000,0.0324,0.013523,0.002678,0.000431,0.000353
41610000,0.0324,0.013523,0.002678,0.000431,0.000588
41611000,0.0324,0.013523,0.002678,0.000431,0.000353
41612000,0.0324,0.013523,0.002678,0.000431,0.000588
41613000,0.0324,0.013523,0.002678,0.000431,0.000353
41614000,0.0324,0.013523,0.002678,0.000431,0.000705
41615000,0.0324,0.013523,0.002678,0.000431,0.000470
41616000,0.0324,0.013523,0.002678,0.000431,0.000470
41617000,0.0324,0.013523,0.002678,0.000431,0.000470
41618000,0.0324,0.013523,0.002678,0.000431,0.000588
41619000,0.0324,0.013523,0.002678,0.000431,0.000353
41620000,0.0324,0.013523,0.002678,0.000431,0.000588
41621000,0.0324,0.013523,0.002678,0.000431,0.000353
41622000,0.0324,0.013523,0.002678,0.000431,0.000588
41623000,0.0324,0.013523,0.002678,0.000431,0.000470
41624000,0.0324,0.013523,0.002678,0.000431,0.000588
41625000,0.0324,0.013523,0.002678,0.000431,0.000470
41626000,0.0324,0.013523,0.002678,0.000431,0.000705
41627000,0.0324,0.013523,0.002678,0.000431,0.000353
41628000,0.0324,0.013523,0.002678,0.000431,0.000588
41629000,0.0324,0.013523,0.002678,0.000431,0.000353
41630000,0.0324,0.013523,0.002678,0.000431,0.000705
41631000,0.0324,0.013523,0.002678,0.000431,0.000588
41632000,0.0324,0.013523,0.002678,0.000431,0.000353
41633000,0.0324,0.013523,0.002678,0.000431,0.000470
41634000,0.0324,0.013523,0.002678,0.000431,0.000470
41635000,0.0324,0.013523,0.002678,0.000431,0.000470
41636000,0.0324,0.013523,0.002678,0.000431,0.000470
41637000,0.0324,0.013523,0.002678,0.000431,0.000588
41638000,0.0324,0.013523,0.002678,0.000431,0.000588
41639000,0.0324,0.013523,0.002678,0.000431,0.000470
41640000,0.0324,0.013523,0.002678,0.000431,0.000353
41641000,0.0324,0.013523,0.002678,0.000431,0.000588
41642000,0.0324,0.013523,0.002678,0.000431,0.000470
41643000,0.0324,0.013523,0.002678,0.000431,0.000588
41644000,0.0324,0.013523,0.002678,0.000431,0.000470
41645000,0.0324,0.013523,0.002678,0.000431,0.000705
41646000,0.0324,0.013523,0.002678,0.000431,0.000353
41647000,0.0324,0.013523,0.002678,0.000431,0.000588
41648000,0.0324,0.013523,0.002678,0.000431,0.000353
41649000,0.0324,0.013523,0.002678,0.000431,0.000588
41650000,0.0324,0.013523,0.002678,0.000431,0.000353
41651000,0.0324,0.013523,0.002678,0.000431,0.000588
41652000,0.0324,0.013523,0.002678,0.000431,0.000353
41653000,0.0324,0.013523,0.002678,0.000431,0.000588
41654000,0.0324,0.013523,0.002678,0.000431,0.000353
41655000,0.0324,0.013523,0.002678,0.000431,0.000470
41656000,0.0324,0.013523,0.002678,0.000431,0.000470
41657000,0.0324,0.013523,0.002678,0.000431,0.000470
41658000,0.0324,0.013523,0.002678,0.000431,0.000470
41659000,0.0324,0.013523,0.002678,0.000431,0.000588
41660000,0.0324,0.013523,0.002678,0.000431,0.000470
41661000,0.0324,0.013523,0.002678,0.000431,0.000705
41662000,0.0324,0.013523,0.002678,0.000431,0.000353
41663000,0.0324,0.013523,0.002678,0.000431,0.000588
41664000,0.0324,0.013523,0.002678,0.000431,0.000353
41665000,0.0324,0.013523,0.002678,0.000431,0.000588
41666000,0.0324,0.013523,0.002678,0.000431,0.000353
41667000,0.0324,0.013523,0.002678,0.000431,0.000588
41668000,0.0324,0.013523,0.002678,0.000431,0.000353
41669000,0.0324,0.013523,0.002678,0.000431,0.000588
41670000,0.0324,0.013523,0.002678,0.000431,0.000353
41671000,0.0324,0.013523,0.002678,0.000431,0.000588
41672000,0.0324,0.013523,0.002678,0.000431,0.000353
41673000,0.0324,0.013523,0.002678,0.000431,0.000588
41674000,0.0324,0.013523,0.002678,0.000431,0.000353
41675000,0.0324,0.013523,0.002678,0.000431,0.000588
41676000,0.0324,0.013523,0.002678,0.000431,0.000353
41677000,0.0324,0.013523,0.002678,0.000431,0.000588
41678000,0.0324,0.013523,0.002678,0.000431,0.000353
41679000,0.0324,0.013523,0.002678,0.000431,0.000470
41680000,0.0324,0.013523,0.002678,0.000431,0.000470
41681000,0.0324,0.013523,0.002678,0.000431,0.000470
41682000,0.0324,0.013523,0.002678,0.000431,0.000470
41683000,0.0324,0.013523,0.002678,0.000431,0.000470
41684000,0.0324,0.013523,0.002678,0.000431,0.000470
41685000,0.0324,0.013523,0.002678,0.000431,0.000470
41686000,0.0324,0.013523,0.002678,0.000431,0.000353
41687000,0.0324,0.013523,0.002678,0.000431,0.000588
41688000,0.0324,0.013523,0.002678,0.000431,0.000353
41689000,0.0324,0.013523,0.002678,0.000431,0.000588
41690000,0.0324,0.013523,0.002678,0.000431,0.000353
41691000,0.0324,0.013523,0.002678,0.000431,0.000588
41692000,0.0324,0.013523,0.002678,0.000431,0.000353
41693000,0.0324,0.013523,0.002678,0.000431,0.000588
41694000,0.0324,0.013523,0.002678,0.000431,0.000353
41695000,0.0324,0.013523,0.002678,0.000431,0.000588
41696000,0.0324,0.013523,0.002678,0.000431,0.000353
41697000,0.0324,0.013523,0.002678,0.000431,0.000588
41698000,0.0324,0.013523,0.002678,0.000431,0.000353
41699000,0.0324,0.013523,0.002678,0.000431,0.000588
41700000,0.0324,0.013523,0.002678,0.000431,0.000353
41701000,0.0324,0.013523,0.002678,0.000431,0.000588
41702000,0.0324,0.013523,0.002678,0.000431,0.000353
41703000,0.0324,0.013523,0.002678,0.000431,0.000470
41704000,0.0324,0.013523,0.002678,0.000431,0.000470
41705000,0.0324,0.013523,0.002678,0.000431,0.000470
41706000,0.0324,0.013523,0.002678,0.000431,0.000470
41707000,0.0324,0.013523,0.002678,0.000431,0.000353
41708000,0.0324,0.013523,0.002678,0.000431,0.000588
41709000,0.0324,0.013523,0.002678,0.000431,0.000353
41710000,0.0324,0.013523,0.002678,0.000431,0.000588
41711000,0.0324,0.013523,0.002678,0.000431,0.000353
41712000,0.0324,0.013523,0.002678,0.000431,0.000588
41713000,0.0324,0.013523,0.002678,0.000431,0.000353
41714000,0.0324,0.013523,0.002678,0.000431,0.000588
41715000,0.0324,0.013523,0.002678,0.000431,0.000353
41716000,0.0324,0.013523,0.002678,0.000431,0.000588
41717000,0.0324,0.013523,0.002678,0.000431,0.000353
41718000,0.0324,0.013523,0.002678,0.000431,0.000588
41719000,0.0324,0.013523,0.002678,0.000431,0.000353
41720000,0.0324,0.013523,0.002678,0.000431,0.000588
41721000,0.0324,0.013523,0.002678,0.000431,0.000353
41722000,0.0324,0.013523,0.002678,0.000431,0.000588
41723000,0.0324,0.013523,0.002678,0.000431,0.000353
41724000,0.0324,0.013523,0.002678,0.000431,0.000588
41725000,0.0324,0.013523,0.002678,0.000431,0.000353
41726000,0.0324,0.013523,0.002678,0.000431,0.000705
41727000,0.0324,0.013523,0.002678,0.000431,0.000588
41728000,0.0324,0.013523,0.002678,0.000431,0.000353
41729000,0.0324,0.013523,0.002678,0.000431,0.000588
41730000,0.0324,0.013523,0.002678,0.000431,0.000470
41731000,0.0324,0.013523,0.002678,0.000431,0.000588
41732000,0.0324,0.013523,0.002678,0.000431,0.000353
41733000,0.0324,0.013523,0.002678,0.000431,0.000588
41734000,0.0324,0.013523,0.002678,0.000431,0.000470
41735000,0.0324,0.013523,0.002678,0.000431,0.000470
41736000,0.0324,0.013523,0.002678,0.000431,0.000470
41737000,0.0324,0.013523,0.002678,0.000431,0.000470
41738000,0.0324,0.013523,0.002678,0.000431,0.000470
41739000,0.0324,0.013523,0.002678,0.000431,0.000470
41740000,0.0324,0.013523,0.002678,0.000431,0.000470
41741000,0.0324,0.013523,0.002678,0.000431,0.000470
41742000,0.0324,0.013523,0.002678,0.000431,0.000470
41743000,0.0324,0.013523,0.002678,0.000431,0.000470
41744000,0.0324,0.013523,0.002678,0.000431,0.000470
41745000,0.0324,0.013523,0.002678,0.000431,0.000588
41746000,0.0324,0.013523,0.002678,0.000431,0.000470
41747000,0.0324,0.013523,0.002678,0.000431,0.000705
41748000,0.0324,0.013523,0.002678,0.000431,0.000353
41749000,0.0324,0.013523,0.002678,0.000431,0.000588
41750000,0.0324,0.013523,0.002678,0.000431,0.000588
41751000,0.0324,0.013523,0.002678,0.000431,0.000470
41752000,0.0324,0.013523,0.002678,0.000431,0.000353
41753000,0.0324,0.013523,0.002678,0.000431,0.000588
41754000,0.0324,0.013523,0.002678,0.000431,0.000353
41755000,0.0324,0.013523,0.002678,0.000431,0.000470
41756000,0.0324,0.013523,0.002678,0.000431,0.000470
41757000,0.0324,0.013523,0.002678,0.000431,0.000588
41758000,0.0324,0.013523,0.002678,0.000431,0.000353
41759000,0.0324,0.013523,0.002678,0.000431,0.000588
41760000,0.0324,0.013523,0.002678,0.000431,0.000353
41761000,0.0324,0.013523,0.002678,0.000431,0.000588
41762000,0.0324,0.013523,0.002678,0.000431,0.000353
41763000,0.0324,0.013523,0.002678,0.000431,0.000705
41764000,0.0324,0.013523,0.002678,0.000431,0.000353
41765000,0.0324,0.013523,0.002678,0.000431,0.000588
41766000,0.0324,0.013523,0.002678,0.000431,0.000353
41767000,0.0324,0.013523,0.002678,0.000431,0.000588
41768000,0.0324,0.013523,0.002678,0.000431,0.000353
41769000,0.0324,0.013523,0.002678,0.000431,0.000588
41770000,0.0324,0.013523,0.002678,0.000431,0.000353
41771000,0.0324,0.013523,0.002678,0.000431,0.000588
41772000,0.0324,0.013523,0.002678,0.000431,0.000353
41773000,0.0324,0.013523,0.002678,0.000431,0.000588
41774000,0.0324,0.013523,0.002678,0.000431,0.000353
41775000,0.0324,0.013523,0.002678,0.000431,0.000588
41776000,0.0324,0.013523,0.002678,0.000431,0.000353
41777000,0.0324,0.013523,0.002678,0.000431,0.000588
41778000,0.0324,0.013523,0.002678,0.000431,0.000353
41779000,0.0324,0.013523,0.002678,0.000431,0.000588
41780000,0.0324,0.013523,0.002678,0.000431,0.000353
41781000,0.0324,0.013523,0.002678,0.000431,0.000470
41782000,0.0324,0.013523,0.002678,0.000431,0.000470
41783000,0.0324,0.013523,0.002678,0.000431,0.000470
41784000,0.0324,0.013523,0.002678,0.000431,0.000470
41785000,0.0324,0.013523,0.002678,0.000431,0.000588
41786000,0.0324,0.013523,0.002678,0.000431,0.000470
41787000,0.0324,0.013523,0.002678,0.000431,0.000705
41788000,0.0324,0.013523,0.002678,0.000431,0.000353
41789000,0.0324,0.013523,0.002678,0.000431,0.000588
41790000,0.0324,0.013523,0.002678,0.000431,0.000353
41791000,0.0324,0.013523,0.002678,0.000431,0.000588
41792000,0.0324,0.013523,0.002678,0.000431,0.000353
41793000,0.0324,0.013523,0.002678,0.000431,0.000588
41794000,0.0324,0.013523,0.002678,0.000431,0.000353
41795000,0.0324,0.013523,0.002678,0.000431,0.000588
41796000,0.0324,0.013523,0.002678,0.000431,0.000353
41797000,0.0324,0.013523,0.002678,0.000431,0.000588
41798000,0.0324,0.013523,0.002678,0.000431,0.000353
41799000,0.0324,0.013523,0.002678,0.000431,0.000588
41800000,0.0324,0.013523,0.002678,0.000431,0.000353
41801000,0.0324,0.013523,0.002678,0.000431,0.000588
41802000,0.0324,0.013523,0.002678,0.000431,0.000353
41803000,0.0324,0.013523,0.002678,0.000431,0.000470
41804000,0.0324,0.013523,0.002678,0.000431,0.000470
41805000,0.0324,0.013523,0.002678,0.000431,0.000470
41806000,0.0324,0.013523,0.002678,0.000431,0.000470
41807000,0.0324,0.013523,0.002678,0.000431,0.000588
41808000,0.0324,0.013523,0.002678,0.000431,0.000470
41809000,0.0324,0.013523,0.002678,0.000431,0.000705
41810000,0.0324,0.013523,0.002678,0.000431,0.000353
41811000,0.0324,0.013523,0.002678,0.000431,0.000705
41812000,0.0324,0.013523,0.002678,0.000431,0.000588
41813000,0.0324,0.013523,0.002678,0.000431,0.000353
41814000,0.0324,0.013523,0.002678,0.000431,0.000588
41815000,0.0324,0.013523,0.002678,0.000431,0.000353
41816000,0.0324,0.013523,0.002678,0.000431,0.000588
41817000,0.0324,0.013523,0.002678,0.000431,0.000353
41818000,0.0324,0.013523,0.002678,0.000431,0.000588
41819000,0.0324,0.013523,0.002678,0.000431,0.000353
41820000,0.0324,0.013523,0.002678,0.000431,0.000470
41821000,0.0324,0.013523,0.002678,0.000431,0.000470
41822000,0.0324,0.013523,0.002678,0.000431,0.000588
41823000,0.0324,0.013523,0.002678,0.000431,0.000470
41824000,0.0324,0.013523,0.002678,0.000431,0.000470
41825000,0.0324,0.013523,0.002678,0.000431,0.000470
41826000,0.0324,0.013523,0.002678,0.000431,0.000353
41827000,0.0324,0.013523,0.002678,0.000431,0.000470
41828000,0.0324,0.013523,0.002678,0.000431,0.000588
41829000,0.0324,0.013523,0.002678,0.000431,0.000470
41830000,0.0324,0.013523,0.002678,0.000431,0.000588
41831000,0.0324,0.013523,0.002678,0.000431,0.000353
41832000,0.0324,0.013523,0.002678,0.000431,0.000588
41833000,0.0324,0.013523,0.002678,0.000431,0.000353
41834000,0.0324,0.013523,0.002678,0.000431,0.000588
41835000,0.0324,0.013523,0.002678,0.000431,0.000353
41836000,0.0324,0.013523,0.002678,0.000431,0.000588
41837000,0.0324,0.013523,0.002678,0.000431,0.000353
41838000,0.0324,0.013523,0.002678,0.000431,0.000588
41839000,0.0324,0.013523,0.002678,0.000431,0.000353
41840000,0.0324,0.013523,0.002678,0.000431,0.000588
41841000,0.0324,0.013523,0.002678,0.000431,0.000353
41842000,0.0324,0.013523,0.002678,0.000431,0.000588
41843000,0.0324,0.013523,0.002678,0.000431,0.000470
41844000,0.0324,0.013523,0.002678,0.000431,0.000588
41845000,0.0324,0.013523,0.002678,0.000431,0.000353
41846000,0.0324,0.013523,0.002678,0.000431,0.000470
41847000,0.0324,0.013523,0.002678,0.000431,0.000470
41848000,0.0324,0.013523,0.002678,0.000431,0.000588
41849000,0.0324,0.013523,0.002678,0.000431,0.000470
41850000,0.0324,0.013523,0.002678,0.000431,0.000588
41851000,0.0324,0.013523,0.002678,0.000431,0.000470
41852000,0.0324,0.013523,0.002678,0.000431,0.000470
41853000,0.0324,0.013523,0.002678,0.000431,0.000470
41854000,0.0324,0.013523,0.002678,0.000431,0.000588
41855000,0.0324,0.013523,0.002678,0.000431,0.000470
41856000,0.0324,0.013523,0.002678,0.000431,0.000705
41857000,0.0324,0.013523,0.002678,0.000431,0.000353
41858000,0.0324,0.013523,0.002678,0.000431,0.000705
41859000,0.0324,0.013523,0.002678,0.000431,0.000470
41860000,0.0324,0.013523,0.002678,0.000431,0.000470
41861000,0.0324,0.013523,0.002678,0.000431,0.000470
41862000,0.0324,0.013523,0.002678,0.000431,0.000470
41863000,0.0324,0.013523,0.002678,0.000431,0.000470
41864000,0.0324,0.013523,0.002678,0.000431,0.000470
41865000,0.0324,0.013523,0.002678,0.000431,0.000470
41866000,0.0324,0.013523,0.002678,0.000431,0.000470
41867000,0.0324,0.013523,0.002678,0.000431,0.000470
41868000,0.0324,0.013523,0.002678,0.000431,0.000588
41869000,0.0324,0.013523,0.002678,0.000431,0.000353
41870000,0.0324,0.013523,0.002678,0.000431,0.000588
41871000,0.0324,0.013523,0.002678,0.000431,0.000353
41872000,0.0324,0.013523,0.002678,0.000431,0.000470
41873000,0.0324,0.013523,0.002678,0.000431,0.000470
41874000,0.0324,0.013523,0.002678,0.000431,0.000470
41875000,0.0324,0.013523,0.002678,0.000431,0.000470
41876000,0.0324,0.013523,0.002678,0.000431,0.000588
41877000,0.0324,0.013523,0.002678,0.000431,0.000470
41878000,0.0324,0.013523,0.002678,0.000431,0.000705
41879000,0.0324,0.013523,0.002678,0.000431,0.000353
41880000,0.0324,0.013523,0.002678,0.000431,0.000588
41881000,0.0324,0.013523,0.002678,0.000431,0.000353
41882000,0.0324,0.013523,0.002678,0.000431,0.000588
41883000,0.0324,0.013523,0.002678,0.000431,0.000470
41884000,0.0324,0.013523,0.002678,0.000431,0.000470
41885000,0.0324,0.013523,0.002678,0.000431,0.000470
41886000,0.0324,0.013523,0.002678,0.000431,0.000588
41887000,0.0324,0.013523,0.002678,0.000431,0.000353
41888000,0.0324,0.013523,0.002678,0.000431,0.000705
41889000,0.0324,0.013523,0.002678,0.000431,0.000353
41890000,0.0324,0.013523,0.002678,0.000431,0.000470
41891000,0.0324,0.013523,0.002678,0.000431,0.000470
41892000,0.0324,0.013523,0.002678,0.000431,0.000470
41893000,0.0324,0.013523,0.002678,0.000431,0.000470
41894000,0.0324,0.013523,0.002678,0.000431,0.000588
41895000,0.0324,0.013523,0.002678,0.000431,0.000470
41896000,0.0324,0.013523,0.002678,0.000431,0.000588
41897000,0.0324,0.013523,0.002678,0.000431,0.000588
41898000,0.0324,0.013523,0.002678,0.000431,0.000470
41899000,0.0324,0.013523,0.002678,0.000431,0.000588
41900000,0.0324,0.013523,0.002678,0.000431,0.000353
41901000,0.0324,0.013523,0.002678,0.000431,0.000588
41902000,0.0324,0.013523,0.002678,0.000431,0.000353
41903000,0.0324,0.013523,0.002678,0.000431,0.000588
41904000,0.0324,0.013523,0.002678,0.000431,0.000353
41905000,0.0324,0.013523,0.002678,0.000431,0.000588
41906000,0.0324,0.013523,0.002678,0.000431,0.000470
41907000,0.0324,0.013523,0.002678,0.000431,0.000470
41908000,0.0324,0.013523,0.002678,0.000431,0.000470
41909000,0.0324,0.013523,0.002678,0.000431,0.000470
41910000,0.0324,0.013523,0.002678,0.000431,0.000353
41911000,0.0324,0.013523,0.002678,0.000431,0.000588
41912000,0.0324,0.013523,0.002678,0.000431,0.000470
41913000,0.0324,0.013523,0.002678,0.000431,0.000588
41914000,0.0324,0.013523,0.002678,0.000431,0.000470
41915000,0.0324,0.013523,0.002678,0.000431,0.000588
41916000,0.0324,0.013523,0.002678,0.000431,0.000353
41917000,0.0324,0.013523,0.002678,0.000431,0.000470
41918000,0.0324,0.013523,0.002678,0.000431,0.000470
41919000,0.0324,0.013523,0.002678,0.000431,0.000470
41920000,0.0324,0.013523,0.002678,0.000431,0.000470
41921000,0.0324,0.013523,0.002678,0.000431,0.000470
41922000,0.0324,0.013523,0.002678,0.000431,0.000470
41923000,0.0324,0.013523,0.002678,0.000431,0.000353
41924000,0.0324,0.013523,0.002678,0.000431,0.000588
41925000,0.0324,0.013523,0.002678,0.000431,0.000353
41926000,0.0324,0.013523,0.002678,0.000431,0.000588
41927000,0.0324,0.013523,0.002678,0.000431,0.000353
41928000,0.0324,0.013523,0.002678,0.000431,0.000588
41929000,0.0324,0.013523,0.002678,0.000431,0.000353
41930000,0.0324,0.013523,0.002678,0.000431,0.000705
41931000,0.0324,0.013523,0.002678,0.000431,0.000588
41932000,0.0324,0.013523,0.002678,0.000431,0.000470
41933000,0.0324,0.013523,0.002678,0.000431,0.000705
41934000,0.0324,0.013523,0.002678,0.000431,0.000353
41935000,0.0324,0.013523,0.002678,0.000431,0.000705
41936000,0.0324,0.013523,0.002678,0.000431,0.000588
41937000,0.0324,0.013523,0.002678,0.000431,0.000353
41938000,0.0324,0.013523,0.002678,0.000431,0.000588
41939000,0.0324,0.013523,0.002678,0.000431,0.000470
41940000,0.0324,0.013523,0.002678,0.000431,0.000470
41941000,0.0324,0.013523,0.002678,0.000431,0.000470
41942000,0.0324,0.013523,0.002678,0.000431,0.000353
41943000,0.0324,0.013523,0.002678,0.000431,0.000588
41944000,0.0324,0.013523,0.002678,0.000431,0.000353
41945000,0.0324,0.013523,0.002678,0.000431,0.000588
41946000,0.0324,0.013523,0.002678,0.000431,0.000353
41947000,0.0324,0.013523,0.002678,0.000431,0.000588
41948000,0.0324,0.013523,0.002678,0.000431,0.000353
41949000,0.0324,0.013523,0.002678,0.000431,0.000588
41950000,0.0324,0.013523,0.002678,0.000431,0.000353
41951000,0.0324,0.013523,0.002678,0.000431,0.000705
41952000,0.0324,0.013523,0.002678,0.000431,0.000588
41953000,0.0324,0.013523,0.002678,0.000431,0.000470
41954000,0.0324,0.013523,0.002678,0.000431,0.000705
41955000,0.0324,0.013523,0.002678,0.000431,0.000353
41956000,0.0324,0.013523,0.002678,0.000431,0.000588
41957000,0.0324,0.013523,0.002678,0.000431,0.000470
41958000,0.0324,0.013523,0.002678,0.000431,0.000588
41959000,0.0324,0.013523,0.002678,0.000431,0.000588
41960000,0.0324,0.013523,0.002678,0.000431,0.000588
41961000,0.0324,0.013523,0.002678,0.000431,0.000470
41962000,0.0324,0.013523,0.002678,0.000431,0.000470
41963000,0.0324,0.013523,0.002678,0.000431,0.000470
41964000,0.0324,0.013523,0.002678,0.000431,0.000470
41965000,0.0324,0.013523,0.002678,0.000431,0.000588
41966000,0.0324,0.013523,0.002678,0.000431,0.000470
41967000,0.0324,0.013523,0.002678,0.000431,0.000588
41968000,0.0324,0.013523,0.002678,0.000431,0.000353
41969000,0.0324,0.013523,0.002678,0.000431,0.000588
41970000,0.0324,0.013523,0.002678,0.000431,0.000353
41971000,0.0324,0.013523,0.002678,0.000431,0.000588
41972000,0.0324,0.013523,0.002678,0.000431,0.000353
41973000,0.0324,0.013523,0.002678,0.000431,0.000588
41974000,0.0324,0.013523,0.002678,0.000431,0.000353
41975000,0.0324,0.013523,0.002678,0.000431,0.000588
41976000,0.0324,0.013523,0.002678,0.000431,0.000353
41977000,0.0324,0.013523,0.002678,0.000431,0.000588
41978000,0.0324,0.013523,0.002678,0.000431,0.000353
41979000,0.0324,0.013523,0.002678,0.000431,0.000588
41980000,0.0324,0.013523,0.002678,0.000431,0.000353
41981000,0.0324,0.013523,0.002678,0.000431,0.000588
41982000,0.0324,0.013523,0.002678,0.000431,0.000353
41983000,0.0324,0.013523,0.002678,0.000431,0.000470
41984000,0.0324,0.013523,0.002678,0.000431,0.000470
41985000,0.0324,0.013523,0.002678,0.000431,0.000353
41986000,0.0324,0.013523,0.002678,0.000431,0.000588
41987000,0.0324,0.013523,0.002678,0.000431,0.000353
41988000,0.0324,0.013523,0.002678,0.000431,0.000705
41989000,0.0324,0.013523,0.002678,0.000431,0.000588
41990000,0.0324,0.013523,0.002678,0.000431,0.000470
41991000,0.0324,0.013523,0.002678,0.000431,0.000705
41992000,0.0324,0.013523,0.002678,0.000431,0.000353
41993000,0.0324,0.013523,0.002678,0.000431,0.000705
41994000,0.0324,0.013523,0.002678,0.000431,0.000588
41995000,0.0324,0.013523,0.002678,0.000431,0.000470
41996000,0.0324,0.013523,0.002678,0.000431,0.000705
41997000,0.0324,0.013523,0.002678,0.000431,0.000235
41998000,0.0324,0.013523,0.002678,0.000431,0.000705
41999000,0.0324,0.013523,0.002678,0.000431,0.000353
