Cycle,Area(mm^2),PeakDynamic(W),SubthresholdLeakage(W),GateLeakage(W),RunTimeDynamic(W)
52000000,0.0324,0.013523,0.002678,0.000431,0.000470
52001000,0.0324,0.013523,0.002678,0.000431,0.000470
52002000,0.0324,0.013523,0.002678,0.000431,0.000470
52003000,0.0324,0.013523,0.002678,0.000431,0.000353
52004000,0.0324,0.013523,0.002678,0.000431,0.000588
52005000,0.0324,0.013523,0.002678,0.000431,0.000353
52006000,0.0324,0.013523,0.002678,0.000431,0.000588
52007000,0.0324,0.013523,0.002678,0.000431,0.000353
52008000,0.0324,0.013523,0.002678,0.000431,0.000588
52009000,0.0324,0.013523,0.002678,0.000431,0.000353
52010000,0.0324,0.013523,0.002678,0.000431,0.000588
52011000,0.0324,0.013523,0.002678,0.000431,0.000353
52012000,0.0324,0.013523,0.002678,0.000431,0.000588
52013000,0.0324,0.013523,0.002678,0.000431,0.000353
52014000,0.0324,0.013523,0.002678,0.000431,0.000588
52015000,0.0324,0.013523,0.002678,0.000431,0.000353
52016000,0.0324,0.013523,0.002678,0.000431,0.000588
52017000,0.0324,0.013523,0.002678,0.000431,0.000353
52018000,0.0324,0.013523,0.002678,0.000431,0.000588
52019000,0.0324,0.013523,0.002678,0.000431,0.000353
52020000,0.0324,0.013523,0.002678,0.000431,0.000470
52021000,0.0324,0.013523,0.002678,0.000431,0.000470
52022000,0.0324,0.013523,0.002678,0.000431,0.000353
52023000,0.0324,0.013523,0.002678,0.000431,0.000588
52024000,0.0324,0.013523,0.002678,0.000431,0.000353
52025000,0.0324,0.013523,0.002678,0.000431,0.000588
52026000,0.0324,0.013523,0.002678,0.000431,0.000353
52027000,0.0324,0.013523,0.002678,0.000431,0.000588
52028000,0.0324,0.013523,0.002678,0.000431,0.000353
52029000,0.0324,0.013523,0.002678,0.000431,0.000588
52030000,0.0324,0.013523,0.002678,0.000431,0.000353
52031000,0.0324,0.013523,0.002678,0.000431,0.000588
52032000,0.0324,0.013523,0.002678,0.000431,0.000353
52033000,0.0324,0.013523,0.002678,0.000431,0.000705
52034000,0.0324,0.013523,0.002678,0.000431,0.000353
52035000,0.0324,0.013523,0.002678,0.000431,0.000705
52036000,0.0324,0.013523,0.002678,0.000431,0.000353
52037000,0.0324,0.013523,0.002678,0.000431,0.000588
52038000,0.0324,0.013523,0.002678,0.000431,0.000353
52039000,0.0324,0.013523,0.002678,0.000431,0.000588
52040000,0.0324,0.013523,0.002678,0.000431,0.000353
52041000,0.0324,0.013523,0.002678,0.000431,0.000588
52042000,0.0324,0.013523,0.002678,0.000431,0.000353
52043000,0.0324,0.013523,0.002678,0.000431,0.000588
52044000,0.0324,0.013523,0.002678,0.000431,0.000588
52045000,0.0324,0.013523,0.002678,0.000431,0.000470
52046000,0.0324,0.013523,0.002678,0.000431,0.000588
52047000,0.0324,0.013523,0.002678,0.000431,0.000470
52048000,0.0324,0.013523,0.002678,0.000431,0.000705
52049000,0.0324,0.013523,0.002678,0.000431,0.000353
52050000,0.0324,0.013523,0.002678,0.000431,0.000588
52051000,0.0324,0.013523,0.002678,0.000431,0.000470
52052000,0.0324,0.013523,0.002678,0.000431,0.000705
52053000,0.0324,0.013523,0.002678,0.000431,0.000353
52054000,0.0324,0.013523,0.002678,0.000431,0.000705
52055000,0.0324,0.013523,0.002678,0.000431,0.000470
52056000,0.0324,0.013523,0.002678,0.000431,0.000470
52057000,0.0324,0.013523,0.002678,0.000431,0.000470
52058000,0.0324,0.013523,0.002678,0.000431,0.000470
52059000,0.0324,0.013523,0.002678,0.000431,0.000353
52060000,0.0324,0.013523,0.002678,0.000431,0.000588
52061000,0.0324,0.013523,0.002678,0.000431,0.000353
52062000,0.0324,0.013523,0.002678,0.000431,0.000588
52063000,0.0324,0.013523,0.002678,0.000431,0.000353
52064000,0.0324,0.013523,0.002678,0.000431,0.000588
52065000,0.0324,0.013523,0.002678,0.000431,0.000353
52066000,0.0324,0.013523,0.002678,0.000431,0.000588
52067000,0.0324,0.013523,0.002678,0.000431,0.000353
52068000,0.0324,0.013523,0.002678,0.000431,0.000588
52069000,0.0324,0.013523,0.002678,0.000431,0.000353
52070000,0.0324,0.013523,0.002678,0.000431,0.000588
52071000,0.0324,0.013523,0.002678,0.000431,0.000353
52072000,0.0324,0.013523,0.002678,0.000431,0.000588
52073000,0.0324,0.013523,0.002678,0.000431,0.000353
52074000,0.0324,0.013523,0.002678,0.000431,0.000705
52075000,0.0324,0.013523,0.002678,0.000431,0.000353
52076000,0.0324,0.013523,0.002678,0.000431,0.000588
52077000,0.0324,0.013523,0.002678,0.000431,0.000470
52078000,0.0324,0.013523,0.002678,0.000431,0.000470
52079000,0.0324,0.013523,0.002678,0.000431,0.000470
52080000,0.0324,0.013523,0.002678,0.000431,0.000353
52081000,0.0324,0.013523,0.002678,0.000431,0.000588
52082000,0.0324,0.013523,0.002678,0.000431,0.000353
52083000,0.0324,0.013523,0.002678,0.000431,0.000705
52084000,0.0324,0.013523,0.002678,0.000431,0.000588
52085000,0.0324,0.013523,0.002678,0.000431,0.000470
52086000,0.0324,0.013523,0.002678,0.000431,0.000588
52087000,0.0324,0.013523,0.002678,0.000431,0.000470
52088000,0.0324,0.013523,0.002678,0.000431,0.000470
52089000,0.0324,0.013523,0.002678,0.000431,0.000470
52090000,0.0324,0.013523,0.002678,0.000431,0.000588
52091000,0.0324,0.013523,0.002678,0.000431,0.000470
52092000,0.0324,0.013523,0.002678,0.000431,0.000705
52093000,0.0324,0.013523,0.002678,0.000431,0.000235
52094000,0.0324,0.013523,0.002678,0.000431,0.000823
52095000,0.0324,0.013523,0.002678,0.000431,0.000235
52096000,0.0324,0.013523,0.002678,0.000431,0.000705
52097000,0.0324,0.013523,0.002678,0.000431,0.000353
52098000,0.0324,0.013523,0.002678,0.000431,0.000588
52099000,0.0324,0.013523,0.002678,0.000431,0.000353
52100000,0.0324,0.013523,0.002678,0.000431,0.000470
52101000,0.0324,0.013523,0.002678,0.000431,0.000353
52102000,0.0324,0.013523,0.002678,0.000431,0.000588
52103000,0.0324,0.013523,0.002678,0.000431,0.000353
52104000,0.0324,0.013523,0.002678,0.000431,0.000588
52105000,0.0324,0.013523,0.002678,0.000431,0.000353
52106000,0.0324,0.013523,0.002678,0.000431,0.000588
52107000,0.0324,0.013523,0.002678,0.000431,0.000353
52108000,0.0324,0.013523,0.002678,0.000431,0.000588
52109000,0.0324,0.013523,0.002678,0.000431,0.000353
52110000,0.0324,0.013523,0.002678,0.000431,0.000588
52111000,0.0324,0.013523,0.002678,0.000431,0.000353
52112000,0.0324,0.013523,0.002678,0.000431,0.000588
52113000,0.0324,0.013523,0.002678,0.000431,0.000353
52114000,0.0324,0.013523,0.002678,0.000431,0.000470
52115000,0.0324,0.013523,0.002678,0.000431,0.000353
52116000,0.0324,0.013523,0.002678,0.000431,0.000588
52117000,0.0324,0.013523,0.002678,0.000431,0.000470
52118000,0.0324,0.013523,0.002678,0.000431,0.000470
52119000,0.0324,0.013523,0.002678,0.000431,0.000353
52120000,0.0324,0.013523,0.002678,0.000431,0.000588
52121000,0.0324,0.013523,0.002678,0.000431,0.000353
52122000,0.0324,0.013523,0.002678,0.000431,0.000588
52123000,0.0324,0.013523,0.002678,0.000431,0.000470
52124000,0.0324,0.013523,0.002678,0.000431,0.000470
52125000,0.0324,0.013523,0.002678,0.000431,0.000470
52126000,0.0324,0.013523,0.002678,0.000431,0.000588
52127000,0.0324,0.013523,0.002678,0.000431,0.000470
52128000,0.0324,0.013523,0.002678,0.000431,0.000705
52129000,0.0324,0.013523,0.002678,0.000431,0.000353
52130000,0.0324,0.013523,0.002678,0.000431,0.000705
52131000,0.0324,0.013523,0.002678,0.000431,0.000353
52132000,0.0324,0.013523,0.002678,0.000431,0.000470
52133000,0.0324,0.013523,0.002678,0.000431,0.000353
52134000,0.0324,0.013523,0.002678,0.000431,0.000588
52135000,0.0324,0.013523,0.002678,0.000431,0.000353
52136000,0.0324,0.013523,0.002678,0.000431,0.000588
52137000,0.0324,0.013523,0.002678,0.000431,0.000353
52138000,0.0324,0.013523,0.002678,0.000431,0.000588
52139000,0.0324,0.013523,0.002678,0.000431,0.000353
52140000,0.0324,0.013523,0.002678,0.000431,0.000588
52141000,0.0324,0.013523,0.002678,0.000431,0.000353
52142000,0.0324,0.013523,0.002678,0.000431,0.000588
52143000,0.0324,0.013523,0.002678,0.000431,0.000353
52144000,0.0324,0.013523,0.002678,0.000431,0.000588
52145000,0.0324,0.013523,0.002678,0.000431,0.000353
52146000,0.0324,0.013523,0.002678,0.000431,0.000588
52147000,0.0324,0.013523,0.002678,0.000431,0.000353
52148000,0.0324,0.013523,0.002678,0.000431,0.000588
52149000,0.0324,0.013523,0.002678,0.000431,0.000470
52150000,0.0324,0.013523,0.002678,0.000431,0.000588
52151000,0.0324,0.013523,0.002678,0.000431,0.000353
52152000,0.0324,0.013523,0.002678,0.000431,0.000705
52153000,0.0324,0.013523,0.002678,0.000431,0.000353
52154000,0.0324,0.013523,0.002678,0.000431,0.000588
52155000,0.0324,0.013523,0.002678,0.000431,0.000353
52156000,0.0324,0.013523,0.002678,0.000431,0.000588
52157000,0.0324,0.013523,0.002678,0.000431,0.000353
52158000,0.0324,0.013523,0.002678,0.000431,0.000588
52159000,0.0324,0.013523,0.002678,0.000431,0.000353
52160000,0.0324,0.013523,0.002678,0.000431,0.000588
52161000,0.0324,0.013523,0.002678,0.000431,0.000353
52162000,0.0324,0.013523,0.002678,0.000431,0.000588
52163000,0.0324,0.013523,0.002678,0.000431,0.000353
52164000,0.0324,0.013523,0.002678,0.000431,0.000588
52165000,0.0324,0.013523,0.002678,0.000431,0.000353
52166000,0.0324,0.013523,0.002678,0.000431,0.000588
52167000,0.0324,0.013523,0.002678,0.000431,0.000353
52168000,0.0324,0.013523,0.002678,0.000431,0.000470
52169000,0.0324,0.013523,0.002678,0.000431,0.000470
52170000,0.0324,0.013523,0.002678,0.000431,0.000470
52171000,0.0324,0.013523,0.002678,0.000431,0.000470
52172000,0.0324,0.013523,0.002678,0.000431,0.000470
52173000,0.0324,0.013523,0.002678,0.000431,0.000470
52174000,0.0324,0.013523,0.002678,0.000431,0.000470
52175000,0.0324,0.013523,0.002678,0.000431,0.000470
52176000,0.0324,0.013523,0.002678,0.000431,0.000470
52177000,0.0324,0.013523,0.002678,0.000431,0.000470
52178000,0.0324,0.013523,0.002678,0.000431,0.000588
52179000,0.0324,0.013523,0.002678,0.000431,0.000470
52180000,0.0324,0.013523,0.002678,0.000431,0.000705
52181000,0.0324,0.013523,0.002678,0.000431,0.000235
52182000,0.0324,0.013523,0.002678,0.000431,0.000705
52183000,0.0324,0.013523,0.002678,0.000431,0.000353
52184000,0.0324,0.013523,0.002678,0.000431,0.000705
52185000,0.0324,0.013523,0.002678,0.000431,0.000470
52186000,0.0324,0.013523,0.002678,0.000431,0.000470
52187000,0.0324,0.013523,0.002678,0.000431,0.000470
52188000,0.0324,0.013523,0.002678,0.000431,0.000470
52189000,0.0324,0.013523,0.002678,0.000431,0.000470
52190000,0.0324,0.013523,0.002678,0.000431,0.000588
52191000,0.0324,0.013523,0.002678,0.000431,0.000353
52192000,0.0324,0.013523,0.002678,0.000431,0.000588
52193000,0.0324,0.013523,0.002678,0.000431,0.000353
52194000,0.0324,0.013523,0.002678,0.000431,0.000470
52195000,0.0324,0.013523,0.002678,0.000431,0.000470
52196000,0.0324,0.013523,0.002678,0.000431,0.000588
52197000,0.0324,0.013523,0.002678,0.000431,0.000470
52198000,0.0324,0.013523,0.002678,0.000431,0.000588
52199000,0.0324,0.013523,0.002678,0.000431,0.000588
52200000,0.0324,0.013523,0.002678,0.000431,0.000470
52201000,0.0324,0.013523,0.002678,0.000431,0.000588
52202000,0.0324,0.013523,0.002678,0.000431,0.000353
52203000,0.0324,0.013523,0.002678,0.000431,0.000588
52204000,0.0324,0.013523,0.002678,0.000431,0.000353
52205000,0.0324,0.013523,0.002678,0.000431,0.000588
52206000,0.0324,0.013523,0.002678,0.000431,0.000470
52207000,0.0324,0.013523,0.002678,0.000431,0.000470
52208000,0.0324,0.013523,0.002678,0.000431,0.000353
52209000,0.0324,0.013523,0.002678,0.000431,0.000588
52210000,0.0324,0.013523,0.002678,0.000431,0.000353
52211000,0.0324,0.013523,0.002678,0.000431,0.000470
52212000,0.0324,0.013523,0.002678,0.000431,0.000470
52213000,0.0324,0.013523,0.002678,0.000431,0.000470
52214000,0.0324,0.013523,0.002678,0.000431,0.000705
52215000,0.0324,0.013523,0.002678,0.000431,0.000353
52216000,0.0324,0.013523,0.002678,0.000431,0.000470
52217000,0.0324,0.013523,0.002678,0.000431,0.000470
52218000,0.0324,0.013523,0.002678,0.000431,0.000470
52219000,0.0324,0.013523,0.002678,0.000431,0.000470
52220000,0.0324,0.013523,0.002678,0.000431,0.000588
52221000,0.0324,0.013523,0.002678,0.000431,0.000353
52222000,0.0324,0.013523,0.002678,0.000431,0.000470
52223000,0.0324,0.013523,0.002678,0.000431,0.000470
52224000,0.0324,0.013523,0.002678,0.000431,0.000470
52225000,0.0324,0.013523,0.002678,0.000431,0.000470
52226000,0.0324,0.013523,0.002678,0.000431,0.000470
52227000,0.0324,0.013523,0.002678,0.000431,0.000470
52228000,0.0324,0.013523,0.002678,0.000431,0.000470
52229000,0.0324,0.013523,0.002678,0.000431,0.000470
52230000,0.0324,0.013523,0.002678,0.000431,0.000470
52231000,0.0324,0.013523,0.002678,0.000431,0.000353
52232000,0.0324,0.013523,0.002678,0.000431,0.000588
52233000,0.0324,0.013523,0.002678,0.000431,0.000353
52234000,0.0324,0.013523,0.002678,0.000431,0.000588
52235000,0.0324,0.013523,0.002678,0.000431,0.000353
52236000,0.0324,0.013523,0.002678,0.000431,0.000588
52237000,0.0324,0.013523,0.002678,0.000431,0.000353
52238000,0.0324,0.013523,0.002678,0.000431,0.000588
52239000,0.0324,0.013523,0.002678,0.000431,0.000235
52240000,0.0324,0.013523,0.002678,0.000431,0.000823
52241000,0.0324,0.013523,0.002678,0.000431,0.000353
52242000,0.0324,0.013523,0.002678,0.000431,0.000588
52243000,0.0324,0.013523,0.002678,0.000431,0.000353
52244000,0.0324,0.013523,0.002678,0.000431,0.000588
52245000,0.0324,0.013523,0.002678,0.000431,0.000353
52246000,0.0324,0.013523,0.002678,0.000431,0.000470
52247000,0.0324,0.013523,0.002678,0.000431,0.000470
52248000,0.0324,0.013523,0.002678,0.000431,0.000470
52249000,0.0324,0.013523,0.002678,0.000431,0.000470
52250000,0.0324,0.013523,0.002678,0.000431,0.000470
52251000,0.0324,0.013523,0.002678,0.000431,0.000470
52252000,0.0324,0.013523,0.002678,0.000431,0.000470
52253000,0.0324,0.013523,0.002678,0.000431,0.000470
52254000,0.0324,0.013523,0.002678,0.000431,0.000470
52255000,0.0324,0.013523,0.002678,0.000431,0.000470
52256000,0.0324,0.013523,0.002678,0.000431,0.000470
52257000,0.0324,0.013523,0.002678,0.000431,0.000470
52258000,0.0324,0.013523,0.002678,0.000431,0.000470
52259000,0.0324,0.013523,0.002678,0.000431,0.000470
52260000,0.0324,0.013523,0.002678,0.000431,0.000470
52261000,0.0324,0.013523,0.002678,0.000431,0.000470
52262000,0.0324,0.013523,0.002678,0.000431,0.000470
52263000,0.0324,0.013523,0.002678,0.000431,0.000470
52264000,0.0324,0.013523,0.002678,0.000431,0.000470
52265000,0.0324,0.013523,0.002678,0.000431,0.000470
52266000,0.0324,0.013523,0.002678,0.000431,0.000470
52267000,0.0324,0.013523,0.002678,0.000431,0.000353
52268000,0.0324,0.013523,0.002678,0.000431,0.000470
52269000,0.0324,0.013523,0.002678,0.000431,0.000588
52270000,0.0324,0.013523,0.002678,0.000431,0.000588
52271000,0.0324,0.013523,0.002678,0.000431,0.000470
52272000,0.0324,0.013523,0.002678,0.000431,0.000588
52273000,0.0324,0.013523,0.002678,0.000431,0.000353
52274000,0.0324,0.013523,0.002678,0.000431,0.000588
52275000,0.0324,0.013523,0.002678,0.000431,0.000353
52276000,0.0324,0.013523,0.002678,0.000431,0.000588
52277000,0.0324,0.013523,0.002678,0.000431,0.000353
52278000,0.0324,0.013523,0.002678,0.000431,0.000588
52279000,0.0324,0.013523,0.002678,0.000431,0.000353
52280000,0.0324,0.013523,0.002678,0.000431,0.000588
52281000,0.0324,0.013523,0.002678,0.000431,0.000353
52282000,0.0324,0.013523,0.002678,0.000431,0.000588
52283000,0.0324,0.013523,0.002678,0.000431,0.000353
52284000,0.0324,0.013523,0.002678,0.000431,0.000588
52285000,0.0324,0.013523,0.002678,0.000431,0.000353
52286000,0.0324,0.013523,0.002678,0.000431,0.000470
52287000,0.0324,0.013523,0.002678,0.000431,0.000588
52288000,0.0324,0.013523,0.002678,0.000431,0.000470
52289000,0.0324,0.013523,0.002678,0.000431,0.000470
52290000,0.0324,0.013523,0.002678,0.000431,0.000588
52291000,0.0324,0.013523,0.002678,0.000431,0.000470
52292000,0.0324,0.013523,0.002678,0.000431,0.000705
52293000,0.0324,0.013523,0.002678,0.000431,0.000353
52294000,0.0324,0.013523,0.002678,0.000431,0.000705
52295000,0.0324,0.013523,0.002678,0.000431,0.000470
52296000,0.0324,0.013523,0.002678,0.000431,0.000470
52297000,0.0324,0.013523,0.002678,0.000431,0.000470
52298000,0.0324,0.013523,0.002678,0.000431,0.000588
52299000,0.0324,0.013523,0.002678,0.000431,0.000353
52300000,0.0324,0.013523,0.002678,0.000431,0.000588
52301000,0.0324,0.013523,0.002678,0.000431,0.000353
52302000,0.0324,0.013523,0.002678,0.000431,0.000588
52303000,0.0324,0.013523,0.002678,0.000431,0.000353
52304000,0.0324,0.013523,0.002678,0.000431,0.000588
52305000,0.0324,0.013523,0.002678,0.000431,0.000353
52306000,0.0324,0.013523,0.002678,0.000431,0.000705
52307000,0.0324,0.013523,0.002678,0.000431,0.000588
52308000,0.0324,0.013523,0.002678,0.000431,0.000470
52309000,0.0324,0.013523,0.002678,0.000431,0.000705
52310000,0.0324,0.013523,0.002678,0.000431,0.000353
52311000,0.0324,0.013523,0.002678,0.000431,0.000588
52312000,0.0324,0.013523,0.002678,0.000431,0.000353
52313000,0.0324,0.013523,0.002678,0.000431,0.000470
52314000,0.0324,0.013523,0.002678,0.000431,0.000470
52315000,0.0324,0.013523,0.002678,0.000431,0.000470
52316000,0.0324,0.013523,0.002678,0.000431,0.000470
52317000,0.0324,0.013523,0.002678,0.000431,0.000588
52318000,0.0324,0.013523,0.002678,0.000431,0.000470
52319000,0.0324,0.013523,0.002678,0.000431,0.000705
52320000,0.0324,0.013523,0.002678,0.000431,0.000353
52321000,0.0324,0.013523,0.002678,0.000431,0.000705
52322000,0.0324,0.013523,0.002678,0.000431,0.000588
52323000,0.0324,0.013523,0.002678,0.000431,0.000470
52324000,0.0324,0.013523,0.002678,0.000431,0.000588
52325000,0.0324,0.013523,0.002678,0.000431,0.000353
52326000,0.0324,0.013523,0.002678,0.000431,0.000588
52327000,0.0324,0.013523,0.002678,0.000431,0.000353
52328000,0.0324,0.013523,0.002678,0.000431,0.000705
52329000,0.0324,0.013523,0.002678,0.000431,0.000353
52330000,0.0324,0.013523,0.002678,0.000431,0.000588
52331000,0.0324,0.013523,0.002678,0.000431,0.000470
52332000,0.0324,0.013523,0.002678,0.000431,0.000588
52333000,0.0324,0.013523,0.002678,0.000431,0.000353
52334000,0.0324,0.013523,0.002678,0.000431,0.000705
52335000,0.0324,0.013523,0.002678,0.000431,0.000353
52336000,0.0324,0.013523,0.002678,0.000431,0.000705
52337000,0.0324,0.013523,0.002678,0.000431,0.000470
52338000,0.0324,0.013523,0.002678,0.000431,0.000470
52339000,0.0324,0.013523,0.002678,0.000431,0.000353
52340000,0.0324,0.013523,0.002678,0.000431,0.000588
52341000,0.0324,0.013523,0.002678,0.000431,0.000353
52342000,0.0324,0.013523,0.002678,0.000431,0.000588
52343000,0.0324,0.013523,0.002678,0.000431,0.000353
52344000,0.0324,0.013523,0.002678,0.000431,0.000588
52345000,0.0324,0.013523,0.002678,0.000431,0.000353
52346000,0.0324,0.013523,0.002678,0.000431,0.000705
52347000,0.0324,0.013523,0.002678,0.000431,0.000353
52348000,0.0324,0.013523,0.002678,0.000431,0.000705
52349000,0.0324,0.013523,0.002678,0.000431,0.000470
52350000,0.0324,0.013523,0.002678,0.000431,0.000470
52351000,0.0324,0.013523,0.002678,0.000431,0.000470
52352000,0.0324,0.013523,0.002678,0.000431,0.000470
52353000,0.0324,0.013523,0.002678,0.000431,0.000470
52354000,0.0324,0.013523,0.002678,0.000431,0.000470
52355000,0.0324,0.013523,0.002678,0.000431,0.000353
52356000,0.0324,0.013523,0.002678,0.000431,0.000705
52357000,0.0324,0.013523,0.002678,0.000431,0.000353
52358000,0.0324,0.013523,0.002678,0.000431,0.000705
52359000,0.0324,0.013523,0.002678,0.000431,0.000588
52360000,0.0324,0.013523,0.002678,0.000431,0.000470
52361000,0.0324,0.013523,0.002678,0.000431,0.000705
52362000,0.0324,0.013523,0.002678,0.000431,0.000353
52363000,0.0324,0.013523,0.002678,0.000431,0.000705
52364000,0.0324,0.013523,0.002678,0.000431,0.000588
52365000,0.0324,0.013523,0.002678,0.000431,0.000470
52366000,0.0324,0.013523,0.002678,0.000431,0.000470
52367000,0.0324,0.013523,0.002678,0.000431,0.000470
52368000,0.0324,0.013523,0.002678,0.000431,0.000470
52369000,0.0324,0.013523,0.002678,0.000431,0.000470
52370000,0.0324,0.013523,0.002678,0.000431,0.000353
52371000,0.0324,0.013523,0.002678,0.000431,0.000705
52372000,0.0324,0.013523,0.002678,0.000431,0.000588
52373000,0.0324,0.013523,0.002678,0.000431,0.000470
52374000,0.0324,0.013523,0.002678,0.000431,0.000705
52375000,0.0324,0.013523,0.002678,0.000431,0.000353
52376000,0.0324,0.013523,0.002678,0.000431,0.000588
52377000,0.0324,0.013523,0.002678,0.000431,0.000353
52378000,0.0324,0.013523,0.002678,0.000431,0.000588
52379000,0.0324,0.013523,0.002678,0.000431,0.000353
52380000,0.0324,0.013523,0.002678,0.000431,0.000588
52381000,0.0324,0.013523,0.002678,0.000431,0.000353
52382000,0.0324,0.013523,0.002678,0.000431,0.000588
52383000,0.0324,0.013523,0.002678,0.000431,0.000353
52384000,0.0324,0.013523,0.002678,0.000431,0.000588
52385000,0.0324,0.013523,0.002678,0.000431,0.000353
52386000,0.0324,0.013523,0.002678,0.000431,0.000588
52387000,0.0324,0.013523,0.002678,0.000431,0.000353
52388000,0.0324,0.013523,0.002678,0.000431,0.000470
52389000,0.0324,0.013523,0.002678,0.000431,0.000470
52390000,0.0324,0.013523,0.002678,0.000431,0.000470
52391000,0.0324,0.013523,0.002678,0.000431,0.000470
52392000,0.0324,0.013523,0.002678,0.000431,0.000470
52393000,0.0324,0.013523,0.002678,0.000431,0.000470
52394000,0.0324,0.013523,0.002678,0.000431,0.000588
52395000,0.0324,0.013523,0.002678,0.000431,0.000470
52396000,0.0324,0.013523,0.002678,0.000431,0.000588
52397000,0.0324,0.013523,0.002678,0.000431,0.000353
52398000,0.0324,0.013523,0.002678,0.000431,0.000588
52399000,0.0324,0.013523,0.002678,0.000431,0.000353
52400000,0.0324,0.013523,0.002678,0.000431,0.000588
52401000,0.0324,0.013523,0.002678,0.000431,0.000353
52402000,0.0324,0.013523,0.002678,0.000431,0.000588
52403000,0.0324,0.013523,0.002678,0.000431,0.000353
52404000,0.0324,0.013523,0.002678,0.000431,0.000588
52405000,0.0324,0.013523,0.002678,0.000431,0.000353
52406000,0.0324,0.013523,0.002678,0.000431,0.000588
52407000,0.0324,0.013523,0.002678,0.000431,0.000353
52408000,0.0324,0.013523,0.002678,0.000431,0.000470
52409000,0.0324,0.013523,0.002678,0.000431,0.000470
52410000,0.0324,0.013523,0.002678,0.000431,0.000470
52411000,0.0324,0.013523,0.002678,0.000431,0.000470
52412000,0.0324,0.013523,0.002678,0.000431,0.000470
52413000,0.0324,0.013523,0.002678,0.000431,0.000470
52414000,0.0324,0.013523,0.002678,0.000431,0.000353
52415000,0.0324,0.013523,0.002678,0.000431,0.000588
52416000,0.0324,0.013523,0.002678,0.000431,0.000353
52417000,0.0324,0.013523,0.002678,0.000431,0.000588
52418000,0.0324,0.013523,0.002678,0.000431,0.000353
52419000,0.0324,0.013523,0.002678,0.000431,0.000705
52420000,0.0324,0.013523,0.002678,0.000431,0.000588
52421000,0.0324,0.013523,0.002678,0.000431,0.000588
52422000,0.0324,0.013523,0.002678,0.000431,0.000470
52423000,0.0324,0.013523,0.002678,0.000431,0.000470
52424000,0.0324,0.013523,0.002678,0.000431,0.000470
52425000,0.0324,0.013523,0.002678,0.000431,0.000353
52426000,0.0324,0.013523,0.002678,0.000431,0.000588
52427000,0.0324,0.013523,0.002678,0.000431,0.000353
52428000,0.0324,0.013523,0.002678,0.000431,0.000588
52429000,0.0324,0.013523,0.002678,0.000431,0.000353
52430000,0.0324,0.013523,0.002678,0.000431,0.000588
52431000,0.0324,0.013523,0.002678,0.000431,0.000470
52432000,0.0324,0.013523,0.002678,0.000431,0.000588
52433000,0.0324,0.013523,0.002678,0.000431,0.000353
52434000,0.0324,0.013523,0.002678,0.000431,0.000588
52435000,0.0324,0.013523,0.002678,0.000431,0.000470
52436000,0.0324,0.013523,0.002678,0.000431,0.000705
52437000,0.0324,0.013523,0.002678,0.000431,0.000353
52438000,0.0324,0.013523,0.002678,0.000431,0.000705
52439000,0.0324,0.013523,0.002678,0.000431,0.000588
52440000,0.0324,0.013523,0.002678,0.000431,0.000470
52441000,0.0324,0.013523,0.002678,0.000431,0.000588
52442000,0.0324,0.013523,0.002678,0.000431,0.000353
52443000,0.0324,0.013523,0.002678,0.000431,0.000588
52444000,0.0324,0.013523,0.002678,0.000431,0.000353
52445000,0.0324,0.013523,0.002678,0.000431,0.000588
52446000,0.0324,0.013523,0.002678,0.000431,0.000353
52447000,0.0324,0.013523,0.002678,0.000431,0.000588
52448000,0.0324,0.013523,0.002678,0.000431,0.000353
52449000,0.0324,0.013523,0.002678,0.000431,0.000705
52450000,0.0324,0.013523,0.002678,0.000431,0.000470
52451000,0.0324,0.013523,0.002678,0.000431,0.000705
52452000,0.0324,0.013523,0.002678,0.000431,0.000235
52453000,0.0324,0.013523,0.002678,0.000431,0.000705
52454000,0.0324,0.013523,0.002678,0.000431,0.000353
52455000,0.0324,0.013523,0.002678,0.000431,0.000705
52456000,0.0324,0.013523,0.002678,0.000431,0.000588
52457000,0.0324,0.013523,0.002678,0.000431,0.000470
52458000,0.0324,0.013523,0.002678,0.000431,0.000705
52459000,0.0324,0.013523,0.002678,0.000431,0.000353
52460000,0.0324,0.013523,0.002678,0.000431,0.000588
52461000,0.0324,0.013523,0.002678,0.000431,0.000353
52462000,0.0324,0.013523,0.002678,0.000431,0.000588
52463000,0.0324,0.013523,0.002678,0.000431,0.000353
52464000,0.0324,0.013523,0.002678,0.000431,0.000588
52465000,0.0324,0.013523,0.002678,0.000431,0.000353
52466000,0.0324,0.013523,0.002678,0.000431,0.000588
52467000,0.0324,0.013523,0.002678,0.000431,0.000353
52468000,0.0324,0.013523,0.002678,0.000431,0.000588
52469000,0.0324,0.013523,0.002678,0.000431,0.000353
52470000,0.0324,0.013523,0.002678,0.000431,0.000588
52471000,0.0324,0.013523,0.002678,0.000431,0.000353
52472000,0.0324,0.013523,0.002678,0.000431,0.000470
52473000,0.0324,0.013523,0.002678,0.000431,0.000470
52474000,0.0324,0.013523,0.002678,0.000431,0.000470
52475000,0.0324,0.013523,0.002678,0.000431,0.000470
52476000,0.0324,0.013523,0.002678,0.000431,0.000470
52477000,0.0324,0.013523,0.002678,0.000431,0.000470
52478000,0.0324,0.013523,0.002678,0.000431,0.000470
52479000,0.0324,0.013523,0.002678,0.000431,0.000470
52480000,0.0324,0.013523,0.002678,0.000431,0.000470
52481000,0.0324,0.013523,0.002678,0.000431,0.000470
52482000,0.0324,0.013523,0.002678,0.000431,0.000470
52483000,0.0324,0.013523,0.002678,0.000431,0.000470
52484000,0.0324,0.013523,0.002678,0.000431,0.000470
52485000,0.0324,0.013523,0.002678,0.000431,0.000470
52486000,0.0324,0.013523,0.002678,0.000431,0.000588
52487000,0.0324,0.013523,0.002678,0.000431,0.000470
52488000,0.0324,0.013523,0.002678,0.000431,0.000705
52489000,0.0324,0.013523,0.002678,0.000431,0.000353
52490000,0.0324,0.013523,0.002678,0.000431,0.000705
52491000,0.0324,0.013523,0.002678,0.000431,0.000353
52492000,0.0324,0.013523,0.002678,0.000431,0.000705
52493000,0.0324,0.013523,0.002678,0.000431,0.000470
52494000,0.0324,0.013523,0.002678,0.000431,0.000588
52495000,0.0324,0.013523,0.002678,0.000431,0.000353
52496000,0.0324,0.013523,0.002678,0.000431,0.000588
52497000,0.0324,0.013523,0.002678,0.000431,0.000353
52498000,0.0324,0.013523,0.002678,0.000431,0.000588
52499000,0.0324,0.013523,0.002678,0.000431,0.000353
52500000,0.0324,0.013523,0.002678,0.000431,0.000588
52501000,0.0324,0.013523,0.002678,0.000431,0.000353
52502000,0.0324,0.013523,0.002678,0.000431,0.000588
52503000,0.0324,0.013523,0.002678,0.000431,0.000353
52504000,0.0324,0.013523,0.002678,0.000431,0.000470
52505000,0.0324,0.013523,0.002678,0.000431,0.000353
52506000,0.0324,0.013523,0.002678,0.000431,0.000588
52507000,0.0324,0.013523,0.002678,0.000431,0.000353
52508000,0.0324,0.013523,0.002678,0.000431,0.000588
52509000,0.0324,0.013523,0.002678,0.000431,0.000470
52510000,0.0324,0.013523,0.002678,0.000431,0.000588
52511000,0.0324,0.013523,0.002678,0.000431,0.000353
52512000,0.0324,0.013523,0.002678,0.000431,0.000588
52513000,0.0324,0.013523,0.002678,0.000431,0.000353
52514000,0.0324,0.013523,0.002678,0.000431,0.000588
52515000,0.0324,0.013523,0.002678,0.000431,0.000353
52516000,0.0324,0.013523,0.002678,0.000431,0.000705
52517000,0.0324,0.013523,0.002678,0.000431,0.000353
52518000,0.0324,0.013523,0.002678,0.000431,0.000588
52519000,0.0324,0.013523,0.002678,0.000431,0.000353
52520000,0.0324,0.013523,0.002678,0.000431,0.000588
52521000,0.0324,0.013523,0.002678,0.000431,0.000353
52522000,0.0324,0.013523,0.002678,0.000431,0.000588
52523000,0.0324,0.013523,0.002678,0.000431,0.000353
52524000,0.0324,0.013523,0.002678,0.000431,0.000588
52525000,0.0324,0.013523,0.002678,0.000431,0.000470
52526000,0.0324,0.013523,0.002678,0.000431,0.000705
52527000,0.0324,0.013523,0.002678,0.000431,0.000353
52528000,0.0324,0.013523,0.002678,0.000431,0.000588
52529000,0.0324,0.013523,0.002678,0.000431,0.000353
52530000,0.0324,0.013523,0.002678,0.000431,0.000588
52531000,0.0324,0.013523,0.002678,0.000431,0.000353
52532000,0.0324,0.013523,0.002678,0.000431,0.000588
52533000,0.0324,0.013523,0.002678,0.000431,0.000353
52534000,0.0324,0.013523,0.002678,0.000431,0.000588
52535000,0.0324,0.013523,0.002678,0.000431,0.000353
52536000,0.0324,0.013523,0.002678,0.000431,0.000588
52537000,0.0324,0.013523,0.002678,0.000431,0.000353
52538000,0.0324,0.013523,0.002678,0.000431,0.000588
52539000,0.0324,0.013523,0.002678,0.000431,0.000353
52540000,0.0324,0.013523,0.002678,0.000431,0.000823
52541000,0.0324,0.013523,0.002678,0.000431,0.000353
52542000,0.0324,0.013523,0.002678,0.000431,0.000705
52543000,0.0324,0.013523,0.002678,0.000431,0.000470
52544000,0.0324,0.013523,0.002678,0.000431,0.000470
52545000,0.0324,0.013523,0.002678,0.000431,0.000470
52546000,0.0324,0.013523,0.002678,0.000431,0.000470
52547000,0.0324,0.013523,0.002678,0.000431,0.000353
52548000,0.0324,0.013523,0.002678,0.000431,0.000588
52549000,0.0324,0.013523,0.002678,0.000431,0.000353
52550000,0.0324,0.013523,0.002678,0.000431,0.000470
52551000,0.0324,0.013523,0.002678,0.000431,0.000353
52552000,0.0324,0.013523,0.002678,0.000431,0.000588
52553000,0.0324,0.013523,0.002678,0.000431,0.000353
52554000,0.0324,0.013523,0.002678,0.000431,0.000823
52555000,0.0324,0.013523,0.002678,0.000431,0.000470
52556000,0.0324,0.013523,0.002678,0.000431,0.000588
52557000,0.0324,0.013523,0.002678,0.000431,0.000353
52558000,0.0324,0.013523,0.002678,0.000431,0.000588
52559000,0.0324,0.013523,0.002678,0.000431,0.000353
52560000,0.0324,0.013523,0.002678,0.000431,0.000588
52561000,0.0324,0.013523,0.002678,0.000431,0.000353
52562000,0.0324,0.013523,0.002678,0.000431,0.000588
52563000,0.0324,0.013523,0.002678,0.000431,0.000353
52564000,0.0324,0.013523,0.002678,0.000431,0.000588
52565000,0.0324,0.013523,0.002678,0.000431,0.000353
52566000,0.0324,0.013523,0.002678,0.000431,0.000588
52567000,0.0324,0.013523,0.002678,0.000431,0.000353
52568000,0.0324,0.013523,0.002678,0.000431,0.000588
52569000,0.0324,0.013523,0.002678,0.000431,0.000353
52570000,0.0324,0.013523,0.002678,0.000431,0.000588
52571000,0.0324,0.013523,0.002678,0.000431,0.000353
52572000,0.0324,0.013523,0.002678,0.000431,0.000588
52573000,0.0324,0.013523,0.002678,0.000431,0.000353
52574000,0.0324,0.013523,0.002678,0.000431,0.000588
52575000,0.0324,0.013523,0.002678,0.000431,0.000353
52576000,0.0324,0.013523,0.002678,0.000431,0.000470
52577000,0.0324,0.013523,0.002678,0.000431,0.000470
52578000,0.0324,0.013523,0.002678,0.000431,0.000470
52579000,0.0324,0.013523,0.002678,0.000431,0.000470
52580000,0.0324,0.013523,0.002678,0.000431,0.000353
52581000,0.0324,0.013523,0.002678,0.000431,0.000705
52582000,0.0324,0.013523,0.002678,0.000431,0.000588
52583000,0.0324,0.013523,0.002678,0.000431,0.000470
52584000,0.0324,0.013523,0.002678,0.000431,0.000588
52585000,0.0324,0.013523,0.002678,0.000431,0.000353
52586000,0.0324,0.013523,0.002678,0.000431,0.000588
52587000,0.0324,0.013523,0.002678,0.000431,0.000353
52588000,0.0324,0.013523,0.002678,0.000431,0.000588
52589000,0.0324,0.013523,0.002678,0.000431,0.000353
52590000,0.0324,0.013523,0.002678,0.000431,0.000588
52591000,0.0324,0.013523,0.002678,0.000431,0.000353
52592000,0.0324,0.013523,0.002678,0.000431,0.000588
52593000,0.0324,0.013523,0.002678,0.000431,0.000353
52594000,0.0324,0.013523,0.002678,0.000431,0.000588
52595000,0.0324,0.013523,0.002678,0.000431,0.000353
52596000,0.0324,0.013523,0.002678,0.000431,0.000588
52597000,0.0324,0.013523,0.002678,0.000431,0.000353
52598000,0.0324,0.013523,0.002678,0.000431,0.000588
52599000,0.0324,0.013523,0.002678,0.000431,0.000353
52600000,0.0324,0.013523,0.002678,0.000431,0.000588
52601000,0.0324,0.013523,0.002678,0.000431,0.000353
52602000,0.0324,0.013523,0.002678,0.000431,0.000470
52603000,0.0324,0.013523,0.002678,0.000431,0.000588
52604000,0.0324,0.013523,0.002678,0.000431,0.000588
52605000,0.0324,0.013523,0.002678,0.000431,0.000470
52606000,0.0324,0.013523,0.002678,0.000431,0.000353
52607000,0.0324,0.013523,0.002678,0.000431,0.000470
52608000,0.0324,0.013523,0.002678,0.000431,0.000588
52609000,0.0324,0.013523,0.002678,0.000431,0.000470
52610000,0.0324,0.013523,0.002678,0.000431,0.000588
52611000,0.0324,0.013523,0.002678,0.000431,0.000353
52612000,0.0324,0.013523,0.002678,0.000431,0.000588
52613000,0.0324,0.013523,0.002678,0.000431,0.000353
52614000,0.0324,0.013523,0.002678,0.000431,0.000588
52615000,0.0324,0.013523,0.002678,0.000431,0.000353
52616000,0.0324,0.013523,0.002678,0.000431,0.000588
52617000,0.0324,0.013523,0.002678,0.000431,0.000353
52618000,0.0324,0.013523,0.002678,0.000431,0.000588
52619000,0.0324,0.013523,0.002678,0.000431,0.000353
52620000,0.0324,0.013523,0.002678,0.000431,0.000588
52621000,0.0324,0.013523,0.002678,0.000431,0.000470
52622000,0.0324,0.013523,0.002678,0.000431,0.000470
52623000,0.0324,0.013523,0.002678,0.000431,0.000470
52624000,0.0324,0.013523,0.002678,0.000431,0.000470
52625000,0.0324,0.013523,0.002678,0.000431,0.000588
52626000,0.0324,0.013523,0.002678,0.000431,0.000353
52627000,0.0324,0.013523,0.002678,0.000431,0.000470
52628000,0.0324,0.013523,0.002678,0.000431,0.000470
52629000,0.0324,0.013523,0.002678,0.000431,0.000588
52630000,0.0324,0.013523,0.002678,0.000431,0.000470
52631000,0.0324,0.013523,0.002678,0.000431,0.000705
52632000,0.0324,0.013523,0.002678,0.000431,0.000353
52633000,0.0324,0.013523,0.002678,0.000431,0.000588
52634000,0.0324,0.013523,0.002678,0.000431,0.000353
52635000,0.0324,0.013523,0.002678,0.000431,0.000470
52636000,0.0324,0.013523,0.002678,0.000431,0.000470
52637000,0.0324,0.013523,0.002678,0.000431,0.000588
52638000,0.0324,0.013523,0.002678,0.000431,0.000353
52639000,0.0324,0.013523,0.002678,0.000431,0.000588
52640000,0.0324,0.013523,0.002678,0.000431,0.000353
52641000,0.0324,0.013523,0.002678,0.000431,0.000588
52642000,0.0324,0.013523,0.002678,0.000431,0.000353
52643000,0.0324,0.013523,0.002678,0.000431,0.000705
52644000,0.0324,0.013523,0.002678,0.000431,0.000470
52645000,0.0324,0.013523,0.002678,0.000431,0.000470
52646000,0.0324,0.013523,0.002678,0.000431,0.000470
52647000,0.0324,0.013523,0.002678,0.000431,0.000588
52648000,0.0324,0.013523,0.002678,0.000431,0.000353
52649000,0.0324,0.013523,0.002678,0.000431,0.000588
52650000,0.0324,0.013523,0.002678,0.000431,0.000353
52651000,0.0324,0.013523,0.002678,0.000431,0.000588
52652000,0.0324,0.013523,0.002678,0.000431,0.000353
52653000,0.0324,0.013523,0.002678,0.000431,0.000588
52654000,0.0324,0.013523,0.002678,0.000431,0.000353
52655000,0.0324,0.013523,0.002678,0.000431,0.000823
52656000,0.0324,0.013523,0.002678,0.000431,0.000353
52657000,0.0324,0.013523,0.002678,0.000431,0.000705
52658000,0.0324,0.013523,0.002678,0.000431,0.000353
52659000,0.0324,0.013523,0.002678,0.000431,0.000588
52660000,0.0324,0.013523,0.002678,0.000431,0.000353
52661000,0.0324,0.013523,0.002678,0.000431,0.000470
52662000,0.0324,0.013523,0.002678,0.000431,0.000353
52663000,0.0324,0.013523,0.002678,0.000431,0.000588
52664000,0.0324,0.013523,0.002678,0.000431,0.000470
52665000,0.0324,0.013523,0.002678,0.000431,0.000588
52666000,0.0324,0.013523,0.002678,0.000431,0.000353
52667000,0.0324,0.013523,0.002678,0.000431,0.000588
52668000,0.0324,0.013523,0.002678,0.000431,0.000235
52669000,0.0324,0.013523,0.002678,0.000431,0.000705
52670000,0.0324,0.013523,0.002678,0.000431,0.000235
52671000,0.0324,0.013523,0.002678,0.000431,0.000588
52672000,0.0324,0.013523,0.002678,0.000431,0.000353
52673000,0.0324,0.013523,0.002678,0.000431,0.000588
52674000,0.0324,0.013523,0.002678,0.000431,0.000353
52675000,0.0324,0.013523,0.002678,0.000431,0.000588
52676000,0.0324,0.013523,0.002678,0.000431,0.000353
52677000,0.0324,0.013523,0.002678,0.000431,0.000588
52678000,0.0324,0.013523,0.002678,0.000431,0.000353
52679000,0.0324,0.013523,0.002678,0.000431,0.000588
52680000,0.0324,0.013523,0.002678,0.000431,0.000470
52681000,0.0324,0.013523,0.002678,0.000431,0.000705
52682000,0.0324,0.013523,0.002678,0.000431,0.000353
52683000,0.0324,0.013523,0.002678,0.000431,0.000588
52684000,0.0324,0.013523,0.002678,0.000431,0.000470
52685000,0.0324,0.013523,0.002678,0.000431,0.000588
52686000,0.0324,0.013523,0.002678,0.000431,0.000353
52687000,0.0324,0.013523,0.002678,0.000431,0.000588
52688000,0.0324,0.013523,0.002678,0.000431,0.000353
52689000,0.0324,0.013523,0.002678,0.000431,0.000588
52690000,0.0324,0.013523,0.002678,0.000431,0.000470
52691000,0.0324,0.013523,0.002678,0.000431,0.000470
52692000,0.0324,0.013523,0.002678,0.000431,0.000470
52693000,0.0324,0.013523,0.002678,0.000431,0.000588
52694000,0.0324,0.013523,0.002678,0.000431,0.000470
52695000,0.0324,0.013523,0.002678,0.000431,0.000705
52696000,0.0324,0.013523,0.002678,0.000431,0.000353
52697000,0.0324,0.013523,0.002678,0.000431,0.000705
52698000,0.0324,0.013523,0.002678,0.000431,0.000470
52699000,0.0324,0.013523,0.002678,0.000431,0.000470
52700000,0.0324,0.013523,0.002678,0.000431,0.000470
52701000,0.0324,0.013523,0.002678,0.000431,0.000470
52702000,0.0324,0.013523,0.002678,0.000431,0.000470
52703000,0.0324,0.013523,0.002678,0.000431,0.000588
52704000,0.0324,0.013523,0.002678,0.000431,0.000353
52705000,0.0324,0.013523,0.002678,0.000431,0.000588
52706000,0.0324,0.013523,0.002678,0.000431,0.000470
52707000,0.0324,0.013523,0.002678,0.000431,0.000588
52708000,0.0324,0.013523,0.002678,0.000431,0.000588
52709000,0.0324,0.013523,0.002678,0.000431,0.000470
52710000,0.0324,0.013523,0.002678,0.000431,0.000353
52711000,0.0324,0.013523,0.002678,0.000431,0.000588
52712000,0.0324,0.013523,0.002678,0.000431,0.000353
52713000,0.0324,0.013523,0.002678,0.000431,0.000588
52714000,0.0324,0.013523,0.002678,0.000431,0.000353
52715000,0.0324,0.013523,0.002678,0.000431,0.000588
52716000,0.0324,0.013523,0.002678,0.000431,0.000353
52717000,0.0324,0.013523,0.002678,0.000431,0.000588
52718000,0.0324,0.013523,0.002678,0.000431,0.000353
52719000,0.0324,0.013523,0.002678,0.000431,0.000588
52720000,0.0324,0.013523,0.002678,0.000431,0.000353
52721000,0.0324,0.013523,0.002678,0.000431,0.000588
52722000,0.0324,0.013523,0.002678,0.000431,0.000353
52723000,0.0324,0.013523,0.002678,0.000431,0.000588
52724000,0.0324,0.013523,0.002678,0.000431,0.000353
52725000,0.0324,0.013523,0.002678,0.000431,0.000705
52726000,0.0324,0.013523,0.002678,0.000431,0.000470
52727000,0.0324,0.013523,0.002678,0.000431,0.000470
52728000,0.0324,0.013523,0.002678,0.000431,0.000470
52729000,0.0324,0.013523,0.002678,0.000431,0.000470
52730000,0.0324,0.013523,0.002678,0.000431,0.000470
52731000,0.0324,0.013523,0.002678,0.000431,0.000470
52732000,0.0324,0.013523,0.002678,0.000431,0.000470
52733000,0.0324,0.013523,0.002678,0.000431,0.000470
52734000,0.0324,0.013523,0.002678,0.000431,0.000470
52735000,0.0324,0.013523,0.002678,0.000431,0.000470
52736000,0.0324,0.013523,0.002678,0.000431,0.000353
52737000,0.0324,0.013523,0.002678,0.000431,0.000823
52738000,0.0324,0.013523,0.002678,0.000431,0.000235
52739000,0.0324,0.013523,0.002678,0.000431,0.000588
52740000,0.0324,0.013523,0.002678,0.000431,0.000353
52741000,0.0324,0.013523,0.002678,0.000431,0.000588
52742000,0.0324,0.013523,0.002678,0.000431,0.000353
52743000,0.0324,0.013523,0.002678,0.000431,0.000588
52744000,0.0324,0.013523,0.002678,0.000431,0.000353
52745000,0.0324,0.013523,0.002678,0.000431,0.000588
52746000,0.0324,0.013523,0.002678,0.000431,0.000353
52747000,0.0324,0.013523,0.002678,0.000431,0.000588
52748000,0.0324,0.013523,0.002678,0.000431,0.000353
52749000,0.0324,0.013523,0.002678,0.000431,0.000588
52750000,0.0324,0.013523,0.002678,0.000431,0.000353
52751000,0.0324,0.013523,0.002678,0.000431,0.000588
52752000,0.0324,0.013523,0.002678,0.000431,0.000353
52753000,0.0324,0.013523,0.002678,0.000431,0.000705
52754000,0.0324,0.013523,0.002678,0.000431,0.000235
52755000,0.0324,0.013523,0.002678,0.000431,0.000588
52756000,0.0324,0.013523,0.002678,0.000431,0.000353
52757000,0.0324,0.013523,0.002678,0.000431,0.000588
52758000,0.0324,0.013523,0.002678,0.000431,0.000353
52759000,0.0324,0.013523,0.002678,0.000431,0.000588
52760000,0.0324,0.013523,0.002678,0.000431,0.000353
52761000,0.0324,0.013523,0.002678,0.000431,0.000588
52762000,0.0324,0.013523,0.002678,0.000431,0.000353
52763000,0.0324,0.013523,0.002678,0.000431,0.000470
52764000,0.0324,0.013523,0.002678,0.000431,0.000470
52765000,0.0324,0.013523,0.002678,0.000431,0.000588
52766000,0.0324,0.013523,0.002678,0.000431,0.000470
52767000,0.0324,0.013523,0.002678,0.000431,0.000705
52768000,0.0324,0.013523,0.002678,0.000431,0.000353
52769000,0.0324,0.013523,0.002678,0.000431,0.000588
52770000,0.0324,0.013523,0.002678,0.000431,0.000353
52771000,0.0324,0.013523,0.002678,0.000431,0.000588
52772000,0.0324,0.013523,0.002678,0.000431,0.000353
52773000,0.0324,0.013523,0.002678,0.000431,0.000705
52774000,0.0324,0.013523,0.002678,0.000431,0.000588
52775000,0.0324,0.013523,0.002678,0.000431,0.000470
52776000,0.0324,0.013523,0.002678,0.000431,0.000705
52777000,0.0324,0.013523,0.002678,0.000431,0.000353
52778000,0.0324,0.013523,0.002678,0.000431,0.000588
52779000,0.0324,0.013523,0.002678,0.000431,0.000353
52780000,0.0324,0.013523,0.002678,0.000431,0.000588
52781000,0.0324,0.013523,0.002678,0.000431,0.000353
52782000,0.0324,0.013523,0.002678,0.000431,0.000470
52783000,0.0324,0.013523,0.002678,0.000431,0.000470
52784000,0.0324,0.013523,0.002678,0.000431,0.000470
52785000,0.0324,0.013523,0.002678,0.000431,0.000588
52786000,0.0324,0.013523,0.002678,0.000431,0.000470
52787000,0.0324,0.013523,0.002678,0.000431,0.000470
52788000,0.0324,0.013523,0.002678,0.000431,0.000353
52789000,0.0324,0.013523,0.002678,0.000431,0.000588
52790000,0.0324,0.013523,0.002678,0.000431,0.000353
52791000,0.0324,0.013523,0.002678,0.000431,0.000470
52792000,0.0324,0.013523,0.002678,0.000431,0.000470
52793000,0.0324,0.013523,0.002678,0.000431,0.000470
52794000,0.0324,0.013523,0.002678,0.000431,0.000470
52795000,0.0324,0.013523,0.002678,0.000431,0.000588
52796000,0.0324,0.013523,0.002678,0.000431,0.000353
52797000,0.0324,0.013523,0.002678,0.000431,0.000588
52798000,0.0324,0.013523,0.002678,0.000431,0.000353
52799000,0.0324,0.013523,0.002678,0.000431,0.000588
52800000,0.0324,0.013523,0.002678,0.000431,0.000353
52801000,0.0324,0.013523,0.002678,0.000431,0.000588
52802000,0.0324,0.013523,0.002678,0.000431,0.000353
52803000,0.0324,0.013523,0.002678,0.000431,0.000705
52804000,0.0324,0.013523,0.002678,0.000431,0.000588
52805000,0.0324,0.013523,0.002678,0.000431,0.000470
52806000,0.0324,0.013523,0.002678,0.000431,0.000705
52807000,0.0324,0.013523,0.002678,0.000431,0.000353
52808000,0.0324,0.013523,0.002678,0.000431,0.000470
52809000,0.0324,0.013523,0.002678,0.000431,0.000470
52810000,0.0324,0.013523,0.002678,0.000431,0.000470
52811000,0.0324,0.013523,0.002678,0.000431,0.000470
52812000,0.0324,0.013523,0.002678,0.000431,0.000470
52813000,0.0324,0.013523,0.002678,0.000431,0.000470
52814000,0.0324,0.013523,0.002678,0.000431,0.000470
52815000,0.0324,0.013523,0.002678,0.000431,0.000470
52816000,0.0324,0.013523,0.002678,0.000431,0.000470
52817000,0.0324,0.013523,0.002678,0.000431,0.000470
52818000,0.0324,0.013523,0.002678,0.000431,0.000470
52819000,0.0324,0.013523,0.002678,0.000431,0.000470
52820000,0.0324,0.013523,0.002678,0.000431,0.000470
52821000,0.0324,0.013523,0.002678,0.000431,0.000470
52822000,0.0324,0.013523,0.002678,0.000431,0.000470
52823000,0.0324,0.013523,0.002678,0.000431,0.000470
52824000,0.0324,0.013523,0.002678,0.000431,0.000470
52825000,0.0324,0.013523,0.002678,0.000431,0.000470
52826000,0.0324,0.013523,0.002678,0.000431,0.000470
52827000,0.0324,0.013523,0.002678,0.000431,0.000353
52828000,0.0324,0.013523,0.002678,0.000431,0.000588
52829000,0.0324,0.013523,0.002678,0.000431,0.000470
52830000,0.0324,0.013523,0.002678,0.000431,0.000588
52831000,0.0324,0.013523,0.002678,0.000431,0.000470
52832000,0.0324,0.013523,0.002678,0.000431,0.000705
52833000,0.0324,0.013523,0.002678,0.000431,0.000353
52834000,0.0324,0.013523,0.002678,0.000431,0.000470
52835000,0.0324,0.013523,0.002678,0.000431,0.000470
52836000,0.0324,0.013523,0.002678,0.000431,0.000470
52837000,0.0324,0.013523,0.002678,0.000431,0.000470
52838000,0.0324,0.013523,0.002678,0.000431,0.000588
52839000,0.0324,0.013523,0.002678,0.000431,0.000470
52840000,0.0324,0.013523,0.002678,0.000431,0.000588
52841000,0.0324,0.013523,0.002678,0.000431,0.000470
52842000,0.0324,0.013523,0.002678,0.000431,0.000470
52843000,0.0324,0.013523,0.002678,0.000431,0.000470
52844000,0.0324,0.013523,0.002678,0.000431,0.000470
52845000,0.0324,0.013523,0.002678,0.000431,0.000470
52846000,0.0324,0.013523,0.002678,0.000431,0.000588
52847000,0.0324,0.013523,0.002678,0.000431,0.000470
52848000,0.0324,0.013523,0.002678,0.000431,0.000588
52849000,0.0324,0.013523,0.002678,0.000431,0.000353
52850000,0.0324,0.013523,0.002678,0.000431,0.000588
52851000,0.0324,0.013523,0.002678,0.000431,0.000353
52852000,0.0324,0.013523,0.002678,0.000431,0.000588
52853000,0.0324,0.013523,0.002678,0.000431,0.000353
52854000,0.0324,0.013523,0.002678,0.000431,0.000588
52855000,0.0324,0.013523,0.002678,0.000431,0.000353
52856000,0.0324,0.013523,0.002678,0.000431,0.000705
52857000,0.0324,0.013523,0.002678,0.000431,0.000470
52858000,0.0324,0.013523,0.002678,0.000431,0.000588
52859000,0.0324,0.013523,0.002678,0.000431,0.000353
52860000,0.0324,0.013523,0.002678,0.000431,0.000470
52861000,0.0324,0.013523,0.002678,0.000431,0.000353
52862000,0.0324,0.013523,0.002678,0.000431,0.000588
52863000,0.0324,0.013523,0.002678,0.000431,0.000470
52864000,0.0324,0.013523,0.002678,0.000431,0.000470
52865000,0.0324,0.013523,0.002678,0.000431,0.000470
52866000,0.0324,0.013523,0.002678,0.000431,0.000353
52867000,0.0324,0.013523,0.002678,0.000431,0.000588
52868000,0.0324,0.013523,0.002678,0.000431,0.000353
52869000,0.0324,0.013523,0.002678,0.000431,0.000588
52870000,0.0324,0.013523,0.002678,0.000431,0.000353
52871000,0.0324,0.013523,0.002678,0.000431,0.000588
52872000,0.0324,0.013523,0.002678,0.000431,0.000353
52873000,0.0324,0.013523,0.002678,0.000431,0.000588
52874000,0.0324,0.013523,0.002678,0.000431,0.000353
52875000,0.0324,0.013523,0.002678,0.000431,0.000588
52876000,0.0324,0.013523,0.002678,0.000431,0.000353
52877000,0.0324,0.013523,0.002678,0.000431,0.000470
52878000,0.0324,0.013523,0.002678,0.000431,0.000470
52879000,0.0324,0.013523,0.002678,0.000431,0.000470
52880000,0.0324,0.013523,0.002678,0.000431,0.000470
52881000,0.0324,0.013523,0.002678,0.000431,0.000470
52882000,0.0324,0.013523,0.002678,0.000431,0.000470
52883000,0.0324,0.013523,0.002678,0.000431,0.000588
52884000,0.0324,0.013523,0.002678,0.000431,0.000353
52885000,0.0324,0.013523,0.002678,0.000431,0.000470
52886000,0.0324,0.013523,0.002678,0.000431,0.000470
52887000,0.0324,0.013523,0.002678,0.000431,0.000470
52888000,0.0324,0.013523,0.002678,0.000431,0.000470
52889000,0.0324,0.013523,0.002678,0.000431,0.000470
52890000,0.0324,0.013523,0.002678,0.000431,0.000353
52891000,0.0324,0.013523,0.002678,0.000431,0.000705
52892000,0.0324,0.013523,0.002678,0.000431,0.000353
52893000,0.0324,0.013523,0.002678,0.000431,0.000705
52894000,0.0324,0.013523,0.002678,0.000431,0.000588
52895000,0.0324,0.013523,0.002678,0.000431,0.000470
52896000,0.0324,0.013523,0.002678,0.000431,0.000588
52897000,0.0324,0.013523,0.002678,0.000431,0.000353
52898000,0.0324,0.013523,0.002678,0.000431,0.000588
52899000,0.0324,0.013523,0.002678,0.000431,0.000353
52900000,0.0324,0.013523,0.002678,0.000431,0.000588
52901000,0.0324,0.013523,0.002678,0.000431,0.000353
52902000,0.0324,0.013523,0.002678,0.000431,0.000588
52903000,0.0324,0.013523,0.002678,0.000431,0.000353
52904000,0.0324,0.013523,0.002678,0.000431,0.000588
52905000,0.0324,0.013523,0.002678,0.000431,0.000353
52906000,0.0324,0.013523,0.002678,0.000431,0.000588
52907000,0.0324,0.013523,0.002678,0.000431,0.000353
52908000,0.0324,0.013523,0.002678,0.000431,0.000588
52909000,0.0324,0.013523,0.002678,0.000431,0.000470
52910000,0.0324,0.013523,0.002678,0.000431,0.000470
52911000,0.0324,0.013523,0.002678,0.000431,0.000353
52912000,0.0324,0.013523,0.002678,0.000431,0.000470
52913000,0.0324,0.013523,0.002678,0.000431,0.000588
52914000,0.0324,0.013523,0.002678,0.000431,0.000588
52915000,0.0324,0.013523,0.002678,0.000431,0.000470
52916000,0.0324,0.013523,0.002678,0.000431,0.000705
52917000,0.0324,0.013523,0.002678,0.000431,0.000470
52918000,0.0324,0.013523,0.002678,0.000431,0.000588
52919000,0.0324,0.013523,0.002678,0.000431,0.000353
52920000,0.0324,0.013523,0.002678,0.000431,0.000588
52921000,0.0324,0.013523,0.002678,0.000431,0.000235
52922000,0.0324,0.013523,0.002678,0.000431,0.000588
52923000,0.0324,0.013523,0.002678,0.000431,0.000470
52924000,0.0324,0.013523,0.002678,0.000431,0.000588
52925000,0.0324,0.013523,0.002678,0.000431,0.000353
52926000,0.0324,0.013523,0.002678,0.000431,0.000588
52927000,0.0324,0.013523,0.002678,0.000431,0.000353
52928000,0.0324,0.013523,0.002678,0.000431,0.000588
52929000,0.0324,0.013523,0.002678,0.000431,0.000353
52930000,0.0324,0.013523,0.002678,0.000431,0.000470
52931000,0.0324,0.013523,0.002678,0.000431,0.000470
52932000,0.0324,0.013523,0.002678,0.000431,0.000705
52933000,0.0324,0.013523,0.002678,0.000431,0.000353
52934000,0.0324,0.013523,0.002678,0.000431,0.000588
52935000,0.0324,0.013523,0.002678,0.000431,0.000470
52936000,0.0324,0.013523,0.002678,0.000431,0.000705
52937000,0.0324,0.013523,0.002678,0.000431,0.000353
52938000,0.0324,0.013523,0.002678,0.000431,0.000588
52939000,0.0324,0.013523,0.002678,0.000431,0.000353
52940000,0.0324,0.013523,0.002678,0.000431,0.000470
52941000,0.0324,0.013523,0.002678,0.000431,0.000470
52942000,0.0324,0.013523,0.002678,0.000431,0.000470
52943000,0.0324,0.013523,0.002678,0.000431,0.000470
52944000,0.0324,0.013523,0.002678,0.000431,0.000470
52945000,0.0324,0.013523,0.002678,0.000431,0.000470
52946000,0.0324,0.013523,0.002678,0.000431,0.000470
52947000,0.0324,0.013523,0.002678,0.000431,0.000470
52948000,0.0324,0.013523,0.002678,0.000431,0.000470
52949000,0.0324,0.013523,0.002678,0.000431,0.000470
52950000,0.0324,0.013523,0.002678,0.000431,0.000470
52951000,0.0324,0.013523,0.002678,0.000431,0.000470
52952000,0.0324,0.013523,0.002678,0.000431,0.000588
52953000,0.0324,0.013523,0.002678,0.000431,0.000353
52954000,0.0324,0.013523,0.002678,0.000431,0.000588
52955000,0.0324,0.013523,0.002678,0.000431,0.000353
52956000,0.0324,0.013523,0.002678,0.000431,0.000588
52957000,0.0324,0.013523,0.002678,0.000431,0.000470
52958000,0.0324,0.013523,0.002678,0.000431,0.000588
52959000,0.0324,0.013523,0.002678,0.000431,0.000353
52960000,0.0324,0.013523,0.002678,0.000431,0.000705
52961000,0.0324,0.013523,0.002678,0.000431,0.000353
52962000,0.0324,0.013523,0.002678,0.000431,0.000705
52963000,0.0324,0.013523,0.002678,0.000431,0.000353
52964000,0.0324,0.013523,0.002678,0.000431,0.000588
52965000,0.0324,0.013523,0.002678,0.000431,0.000235
52966000,0.0324,0.013523,0.002678,0.000431,0.000588
52967000,0.0324,0.013523,0.002678,0.000431,0.000470
52968000,0.0324,0.013523,0.002678,0.000431,0.000588
52969000,0.0324,0.013523,0.002678,0.000431,0.000353
52970000,0.0324,0.013523,0.002678,0.000431,0.000588
52971000,0.0324,0.013523,0.002678,0.000431,0.000353
52972000,0.0324,0.013523,0.002678,0.000431,0.000588
52973000,0.0324,0.013523,0.002678,0.000431,0.000353
52974000,0.0324,0.013523,0.002678,0.000431,0.000705
52975000,0.0324,0.013523,0.002678,0.000431,0.000353
52976000,0.0324,0.013523,0.002678,0.000431,0.000705
52977000,0.0324,0.013523,0.002678,0.000431,0.000588
52978000,0.0324,0.013523,0.002678,0.000431,0.000470
52979000,0.0324,0.013523,0.002678,0.000431,0.000705
52980000,0.0324,0.013523,0.002678,0.000431,0.000353
52981000,0.0324,0.013523,0.002678,0.000431,0.000588
52982000,0.0324,0.013523,0.002678,0.000431,0.000353
52983000,0.0324,0.013523,0.002678,0.000431,0.000705
52984000,0.0324,0.013523,0.002678,0.000431,0.000588
52985000,0.0324,0.013523,0.002678,0.000431,0.000470
52986000,0.0324,0.013523,0.002678,0.000431,0.000705
52987000,0.0324,0.013523,0.002678,0.000431,0.000353
52988000,0.0324,0.013523,0.002678,0.000431,0.000705
52989000,0.0324,0.013523,0.002678,0.000431,0.000588
52990000,0.0324,0.013523,0.002678,0.000431,0.000470
52991000,0.0324,0.013523,0.002678,0.000431,0.000705
52992000,0.0324,0.013523,0.002678,0.000431,0.000353
52993000,0.0324,0.013523,0.002678,0.000431,0.000588
52994000,0.0324,0.013523,0.002678,0.000431,0.000353
52995000,0.0324,0.013523,0.002678,0.000431,0.000823
52996000,0.0324,0.013523,0.002678,0.000431,0.000470
52997000,0.0324,0.013523,0.002678,0.000431,0.000470
52998000,0.0324,0.013523,0.002678,0.000431,0.000705
52999000,0.0324,0.013523,0.002678,0.000431,0.000353
