Cycle,Area(mm^2),PeakDynamic(W),SubthresholdLeakage(W),GateLeakage(W),RunTimeDynamic(W)
46000000,0.0324,0.013523,0.002678,0.000431,0.000470
46001000,0.0324,0.013523,0.002678,0.000431,0.000470
46002000,0.0324,0.013523,0.002678,0.000431,0.000470
46003000,0.0324,0.013523,0.002678,0.000431,0.000470
46004000,0.0324,0.013523,0.002678,0.000431,0.000588
46005000,0.0324,0.013523,0.002678,0.000431,0.000353
46006000,0.0324,0.013523,0.002678,0.000431,0.000588
46007000,0.0324,0.013523,0.002678,0.000431,0.000353
46008000,0.0324,0.013523,0.002678,0.000431,0.000588
46009000,0.0324,0.013523,0.002678,0.000431,0.000353
46010000,0.0324,0.013523,0.002678,0.000431,0.000470
46011000,0.0324,0.013523,0.002678,0.000431,0.000470
46012000,0.0324,0.013523,0.002678,0.000431,0.000588
46013000,0.0324,0.013523,0.002678,0.000431,0.000470
46014000,0.0324,0.013523,0.002678,0.000431,0.000705
46015000,0.0324,0.013523,0.002678,0.000431,0.000353
46016000,0.0324,0.013523,0.002678,0.000431,0.000588
46017000,0.0324,0.013523,0.002678,0.000431,0.000353
46018000,0.0324,0.013523,0.002678,0.000431,0.000588
46019000,0.0324,0.013523,0.002678,0.000431,0.000353
46020000,0.0324,0.013523,0.002678,0.000431,0.000588
46021000,0.0324,0.013523,0.002678,0.000431,0.000353
46022000,0.0324,0.013523,0.002678,0.000431,0.000588
46023000,0.0324,0.013523,0.002678,0.000431,0.000353
46024000,0.0324,0.013523,0.002678,0.000431,0.000588
46025000,0.0324,0.013523,0.002678,0.000431,0.000353
46026000,0.0324,0.013523,0.002678,0.000431,0.000705
46027000,0.0324,0.013523,0.002678,0.000431,0.000588
46028000,0.0324,0.013523,0.002678,0.000431,0.000470
46029000,0.0324,0.013523,0.002678,0.000431,0.000470
46030000,0.0324,0.013523,0.002678,0.000431,0.000353
46031000,0.0324,0.013523,0.002678,0.000431,0.000588
46032000,0.0324,0.013523,0.002678,0.000431,0.000353
46033000,0.0324,0.013523,0.002678,0.000431,0.000588
46034000,0.0324,0.013523,0.002678,0.000431,0.000470
46035000,0.0324,0.013523,0.002678,0.000431,0.000588
46036000,0.0324,0.013523,0.002678,0.000431,0.000470
46037000,0.0324,0.013523,0.002678,0.000431,0.000470
46038000,0.0324,0.013523,0.002678,0.000431,0.000470
46039000,0.0324,0.013523,0.002678,0.000431,0.000470
46040000,0.0324,0.013523,0.002678,0.000431,0.000353
46041000,0.0324,0.013523,0.002678,0.000431,0.000588
46042000,0.0324,0.013523,0.002678,0.000431,0.000470
46043000,0.0324,0.013523,0.002678,0.000431,0.000470
46044000,0.0324,0.013523,0.002678,0.000431,0.000470
46045000,0.0324,0.013523,0.002678,0.000431,0.000588
46046000,0.0324,0.013523,0.002678,0.000431,0.000470
46047000,0.0324,0.013523,0.002678,0.000431,0.000705
46048000,0.0324,0.013523,0.002678,0.000431,0.000353
46049000,0.0324,0.013523,0.002678,0.000431,0.000588
46050000,0.0324,0.013523,0.002678,0.000431,0.000353
46051000,0.0324,0.013523,0.002678,0.000431,0.000588
46052000,0.0324,0.013523,0.002678,0.000431,0.000353
46053000,0.0324,0.013523,0.002678,0.000431,0.000470
46054000,0.0324,0.013523,0.002678,0.000431,0.000470
46055000,0.0324,0.013523,0.002678,0.000431,0.000470
46056000,0.0324,0.013523,0.002678,0.000431,0.000470
46057000,0.0324,0.013523,0.002678,0.000431,0.000470
46058000,0.0324,0.013523,0.002678,0.000431,0.000470
46059000,0.0324,0.013523,0.002678,0.000431,0.000470
46060000,0.0324,0.013523,0.002678,0.000431,0.000470
46061000,0.0324,0.013523,0.002678,0.000431,0.000470
46062000,0.0324,0.013523,0.002678,0.000431,0.000470
46063000,0.0324,0.013523,0.002678,0.000431,0.000470
46064000,0.0324,0.013523,0.002678,0.000431,0.000470
46065000,0.0324,0.013523,0.002678,0.000431,0.000470
46066000,0.0324,0.013523,0.002678,0.000431,0.000470
46067000,0.0324,0.013523,0.002678,0.000431,0.000470
46068000,0.0324,0.013523,0.002678,0.000431,0.000588
46069000,0.0324,0.013523,0.002678,0.000431,0.000353
46070000,0.0324,0.013523,0.002678,0.000431,0.000588
46071000,0.0324,0.013523,0.002678,0.000431,0.000353
46072000,0.0324,0.013523,0.002678,0.000431,0.000588
46073000,0.0324,0.013523,0.002678,0.000431,0.000353
46074000,0.0324,0.013523,0.002678,0.000431,0.000588
46075000,0.0324,0.013523,0.002678,0.000431,0.000353
46076000,0.0324,0.013523,0.002678,0.000431,0.000705
46077000,0.0324,0.013523,0.002678,0.000431,0.000353
46078000,0.0324,0.013523,0.002678,0.000431,0.000705
46079000,0.0324,0.013523,0.002678,0.000431,0.000470
46080000,0.0324,0.013523,0.002678,0.000431,0.000470
46081000,0.0324,0.013523,0.002678,0.000431,0.000470
46082000,0.0324,0.013523,0.002678,0.000431,0.000470
46083000,0.0324,0.013523,0.002678,0.000431,0.000353
46084000,0.0324,0.013523,0.002678,0.000431,0.000588
46085000,0.0324,0.013523,0.002678,0.000431,0.000353
46086000,0.0324,0.013523,0.002678,0.000431,0.000588
46087000,0.0324,0.013523,0.002678,0.000431,0.000353
46088000,0.0324,0.013523,0.002678,0.000431,0.000588
46089000,0.0324,0.013523,0.002678,0.000431,0.000353
46090000,0.0324,0.013523,0.002678,0.000431,0.000705
46091000,0.0324,0.013523,0.002678,0.000431,0.000588
46092000,0.0324,0.013523,0.002678,0.000431,0.000470
46093000,0.0324,0.013523,0.002678,0.000431,0.000705
46094000,0.0324,0.013523,0.002678,0.000431,0.000353
46095000,0.0324,0.013523,0.002678,0.000431,0.000588
46096000,0.0324,0.013523,0.002678,0.000431,0.000353
46097000,0.0324,0.013523,0.002678,0.000431,0.000588
46098000,0.0324,0.013523,0.002678,0.000431,0.000588
46099000,0.0324,0.013523,0.002678,0.000431,0.000470
46100000,0.0324,0.013523,0.002678,0.000431,0.000470
46101000,0.0324,0.013523,0.002678,0.000431,0.000470
46102000,0.0324,0.013523,0.002678,0.000431,0.000353
46103000,0.0324,0.013523,0.002678,0.000431,0.000588
46104000,0.0324,0.013523,0.002678,0.000431,0.000353
46105000,0.0324,0.013523,0.002678,0.000431,0.000588
46106000,0.0324,0.013523,0.002678,0.000431,0.000353
46107000,0.0324,0.013523,0.002678,0.000431,0.000588
46108000,0.0324,0.013523,0.002678,0.000431,0.000353
46109000,0.0324,0.013523,0.002678,0.000431,0.000588
46110000,0.0324,0.013523,0.002678,0.000431,0.000353
46111000,0.0324,0.013523,0.002678,0.000431,0.000705
46112000,0.0324,0.013523,0.002678,0.000431,0.000353
46113000,0.0324,0.013523,0.002678,0.000431,0.000705
46114000,0.0324,0.013523,0.002678,0.000431,0.000588
46115000,0.0324,0.013523,0.002678,0.000431,0.000470
46116000,0.0324,0.013523,0.002678,0.000431,0.000705
46117000,0.0324,0.013523,0.002678,0.000431,0.000353
46118000,0.0324,0.013523,0.002678,0.000431,0.000588
46119000,0.0324,0.013523,0.002678,0.000431,0.000353
46120000,0.0324,0.013523,0.002678,0.000431,0.000588
46121000,0.0324,0.013523,0.002678,0.000431,0.000353
46122000,0.0324,0.013523,0.002678,0.000431,0.000588
46123000,0.0324,0.013523,0.002678,0.000431,0.000353
46124000,0.0324,0.013523,0.002678,0.000431,0.000470
46125000,0.0324,0.013523,0.002678,0.000431,0.000470
46126000,0.0324,0.013523,0.002678,0.000431,0.000588
46127000,0.0324,0.013523,0.002678,0.000431,0.000588
46128000,0.0324,0.013523,0.002678,0.000431,0.000470
46129000,0.0324,0.013523,0.002678,0.000431,0.000470
46130000,0.0324,0.013523,0.002678,0.000431,0.000470
46131000,0.0324,0.013523,0.002678,0.000431,0.000353
46132000,0.0324,0.013523,0.002678,0.000431,0.000588
46133000,0.0324,0.013523,0.002678,0.000431,0.000353
46134000,0.0324,0.013523,0.002678,0.000431,0.000588
46135000,0.0324,0.013523,0.002678,0.000431,0.000353
46136000,0.0324,0.013523,0.002678,0.000431,0.000588
46137000,0.0324,0.013523,0.002678,0.000431,0.000353
46138000,0.0324,0.013523,0.002678,0.000431,0.000588
46139000,0.0324,0.013523,0.002678,0.000431,0.000353
46140000,0.0324,0.013523,0.002678,0.000431,0.000588
46141000,0.0324,0.013523,0.002678,0.000431,0.000353
46142000,0.0324,0.013523,0.002678,0.000431,0.000588
46143000,0.0324,0.013523,0.002678,0.000431,0.000470
46144000,0.0324,0.013523,0.002678,0.000431,0.000470
46145000,0.0324,0.013523,0.002678,0.000431,0.000470
46146000,0.0324,0.013523,0.002678,0.000431,0.000470
46147000,0.0324,0.013523,0.002678,0.000431,0.000588
46148000,0.0324,0.013523,0.002678,0.000431,0.000353
46149000,0.0324,0.013523,0.002678,0.000431,0.000470
46150000,0.0324,0.013523,0.002678,0.000431,0.000470
46151000,0.0324,0.013523,0.002678,0.000431,0.000588
46152000,0.0324,0.013523,0.002678,0.000431,0.000470
46153000,0.0324,0.013523,0.002678,0.000431,0.000705
46154000,0.0324,0.013523,0.002678,0.000431,0.000353
46155000,0.0324,0.013523,0.002678,0.000431,0.000470
46156000,0.0324,0.013523,0.002678,0.000431,0.000470
46157000,0.0324,0.013523,0.002678,0.000431,0.000470
46158000,0.0324,0.013523,0.002678,0.000431,0.000470
46159000,0.0324,0.013523,0.002678,0.000431,0.000588
46160000,0.0324,0.013523,0.002678,0.000431,0.000353
46161000,0.0324,0.013523,0.002678,0.000431,0.000588
46162000,0.0324,0.013523,0.002678,0.000431,0.000353
46163000,0.0324,0.013523,0.002678,0.000431,0.000588
46164000,0.0324,0.013523,0.002678,0.000431,0.000353
46165000,0.0324,0.013523,0.002678,0.000431,0.000470
46166000,0.0324,0.013523,0.002678,0.000431,0.000470
46167000,0.0324,0.013523,0.002678,0.000431,0.000588
46168000,0.0324,0.013523,0.002678,0.000431,0.000353
46169000,0.0324,0.013523,0.002678,0.000431,0.000823
46170000,0.0324,0.013523,0.002678,0.000431,0.000353
46171000,0.0324,0.013523,0.002678,0.000431,0.000588
46172000,0.0324,0.013523,0.002678,0.000431,0.000353
46173000,0.0324,0.013523,0.002678,0.000431,0.000470
46174000,0.0324,0.013523,0.002678,0.000431,0.000470
46175000,0.0324,0.013523,0.002678,0.000431,0.000588
46176000,0.0324,0.013523,0.002678,0.000431,0.000353
46177000,0.0324,0.013523,0.002678,0.000431,0.000588
46178000,0.0324,0.013523,0.002678,0.000431,0.000353
46179000,0.0324,0.013523,0.002678,0.000431,0.000588
46180000,0.0324,0.013523,0.002678,0.000431,0.000353
46181000,0.0324,0.013523,0.002678,0.000431,0.000470
46182000,0.0324,0.013523,0.002678,0.000431,0.000470
46183000,0.0324,0.013523,0.002678,0.000431,0.000470
46184000,0.0324,0.013523,0.002678,0.000431,0.000470
46185000,0.0324,0.013523,0.002678,0.000431,0.000470
46186000,0.0324,0.013523,0.002678,0.000431,0.000470
46187000,0.0324,0.013523,0.002678,0.000431,0.000470
46188000,0.0324,0.013523,0.002678,0.000431,0.000470
46189000,0.0324,0.013523,0.002678,0.000431,0.000588
46190000,0.0324,0.013523,0.002678,0.000431,0.000470
46191000,0.0324,0.013523,0.002678,0.000431,0.000705
46192000,0.0324,0.013523,0.002678,0.000431,0.000353
46193000,0.0324,0.013523,0.002678,0.000431,0.000588
46194000,0.0324,0.013523,0.002678,0.000431,0.000353
46195000,0.0324,0.013523,0.002678,0.000431,0.000705
46196000,0.0324,0.013523,0.002678,0.000431,0.000588
46197000,0.0324,0.013523,0.002678,0.000431,0.000470
46198000,0.0324,0.013523,0.002678,0.000431,0.000705
46199000,0.0324,0.013523,0.002678,0.000431,0.000235
46200000,0.0324,0.013523,0.002678,0.000431,0.000705
46201000,0.0324,0.013523,0.002678,0.000431,0.000353
46202000,0.0324,0.013523,0.002678,0.000431,0.000705
46203000,0.0324,0.013523,0.002678,0.000431,0.000588
46204000,0.0324,0.013523,0.002678,0.000431,0.000470
46205000,0.0324,0.013523,0.002678,0.000431,0.000705
46206000,0.0324,0.013523,0.002678,0.000431,0.000353
46207000,0.0324,0.013523,0.002678,0.000431,0.000705
46208000,0.0324,0.013523,0.002678,0.000431,0.000588
46209000,0.0324,0.013523,0.002678,0.000431,0.000470
46210000,0.0324,0.013523,0.002678,0.000431,0.000705
46211000,0.0324,0.013523,0.002678,0.000431,0.000235
46212000,0.0324,0.013523,0.002678,0.000431,0.000705
46213000,0.0324,0.013523,0.002678,0.000431,0.000353
46214000,0.0324,0.013523,0.002678,0.000431,0.000705
46215000,0.0324,0.013523,0.002678,0.000431,0.000470
46216000,0.0324,0.013523,0.002678,0.000431,0.000470
46217000,0.0324,0.013523,0.002678,0.000431,0.000588
46218000,0.0324,0.013523,0.002678,0.000431,0.000470
46219000,0.0324,0.013523,0.002678,0.000431,0.000705
46220000,0.0324,0.013523,0.002678,0.000431,0.000353
46221000,0.0324,0.013523,0.002678,0.000431,0.000588
46222000,0.0324,0.013523,0.002678,0.000431,0.000353
46223000,0.0324,0.013523,0.002678,0.000431,0.000705
46224000,0.0324,0.013523,0.002678,0.000431,0.000588
46225000,0.0324,0.013523,0.002678,0.000431,0.000470
46226000,0.0324,0.013523,0.002678,0.000431,0.000470
46227000,0.0324,0.013523,0.002678,0.000431,0.000470
46228000,0.0324,0.013523,0.002678,0.000431,0.000470
46229000,0.0324,0.013523,0.002678,0.000431,0.000470
46230000,0.0324,0.013523,0.002678,0.000431,0.000470
46231000,0.0324,0.013523,0.002678,0.000431,0.000470
46232000,0.0324,0.013523,0.002678,0.000431,0.000353
46233000,0.0324,0.013523,0.002678,0.000431,0.000588
46234000,0.0324,0.013523,0.002678,0.000431,0.000353
46235000,0.0324,0.013523,0.002678,0.000431,0.000588
46236000,0.0324,0.013523,0.002678,0.000431,0.000353
46237000,0.0324,0.013523,0.002678,0.000431,0.000588
46238000,0.0324,0.013523,0.002678,0.000431,0.000353
46239000,0.0324,0.013523,0.002678,0.000431,0.000588
46240000,0.0324,0.013523,0.002678,0.000431,0.000353
46241000,0.0324,0.013523,0.002678,0.000431,0.000588
46242000,0.0324,0.013523,0.002678,0.000431,0.000353
46243000,0.0324,0.013523,0.002678,0.000431,0.000588
46244000,0.0324,0.013523,0.002678,0.000431,0.000353
46245000,0.0324,0.013523,0.002678,0.000431,0.000705
46246000,0.0324,0.013523,0.002678,0.000431,0.000470
46247000,0.0324,0.013523,0.002678,0.000431,0.000470
46248000,0.0324,0.013523,0.002678,0.000431,0.000470
46249000,0.0324,0.013523,0.002678,0.000431,0.000588
46250000,0.0324,0.013523,0.002678,0.000431,0.000353
46251000,0.0324,0.013523,0.002678,0.000431,0.000705
46252000,0.0324,0.013523,0.002678,0.000431,0.000353
46253000,0.0324,0.013523,0.002678,0.000431,0.000588
46254000,0.0324,0.013523,0.002678,0.000431,0.000588
46255000,0.0324,0.013523,0.002678,0.000431,0.000470
46256000,0.0324,0.013523,0.002678,0.000431,0.000588
46257000,0.0324,0.013523,0.002678,0.000431,0.000353
46258000,0.0324,0.013523,0.002678,0.000431,0.000588
46259000,0.0324,0.013523,0.002678,0.000431,0.000353
46260000,0.0324,0.013523,0.002678,0.000431,0.000588
46261000,0.0324,0.013523,0.002678,0.000431,0.000353
46262000,0.0324,0.013523,0.002678,0.000431,0.000588
46263000,0.0324,0.013523,0.002678,0.000431,0.000353
46264000,0.0324,0.013523,0.002678,0.000431,0.000588
46265000,0.0324,0.013523,0.002678,0.000431,0.000353
46266000,0.0324,0.013523,0.002678,0.000431,0.000588
46267000,0.0324,0.013523,0.002678,0.000431,0.000353
46268000,0.0324,0.013523,0.002678,0.000431,0.000588
46269000,0.0324,0.013523,0.002678,0.000431,0.000353
46270000,0.0324,0.013523,0.002678,0.000431,0.000588
46271000,0.0324,0.013523,0.002678,0.000431,0.000470
46272000,0.0324,0.013523,0.002678,0.000431,0.000470
46273000,0.0324,0.013523,0.002678,0.000431,0.000470
46274000,0.0324,0.013523,0.002678,0.000431,0.000470
46275000,0.0324,0.013523,0.002678,0.000431,0.000588
46276000,0.0324,0.013523,0.002678,0.000431,0.000353
46277000,0.0324,0.013523,0.002678,0.000431,0.000588
46278000,0.0324,0.013523,0.002678,0.000431,0.000353
46279000,0.0324,0.013523,0.002678,0.000431,0.000588
46280000,0.0324,0.013523,0.002678,0.000431,0.000353
46281000,0.0324,0.013523,0.002678,0.000431,0.000588
46282000,0.0324,0.013523,0.002678,0.000431,0.000353
46283000,0.0324,0.013523,0.002678,0.000431,0.000588
46284000,0.0324,0.013523,0.002678,0.000431,0.000353
46285000,0.0324,0.013523,0.002678,0.000431,0.000588
46286000,0.0324,0.013523,0.002678,0.000431,0.000470
46287000,0.0324,0.013523,0.002678,0.000431,0.000705
46288000,0.0324,0.013523,0.002678,0.000431,0.000353
46289000,0.0324,0.013523,0.002678,0.000431,0.000705
46290000,0.0324,0.013523,0.002678,0.000431,0.000470
46291000,0.0324,0.013523,0.002678,0.000431,0.000588
46292000,0.0324,0.013523,0.002678,0.000431,0.000353
46293000,0.0324,0.013523,0.002678,0.000431,0.000588
46294000,0.0324,0.013523,0.002678,0.000431,0.000353
46295000,0.0324,0.013523,0.002678,0.000431,0.000588
46296000,0.0324,0.013523,0.002678,0.000431,0.000353
46297000,0.0324,0.013523,0.002678,0.000431,0.000588
46298000,0.0324,0.013523,0.002678,0.000431,0.000353
46299000,0.0324,0.013523,0.002678,0.000431,0.000588
46300000,0.0324,0.013523,0.002678,0.000431,0.000353
46301000,0.0324,0.013523,0.002678,0.000431,0.000705
46302000,0.0324,0.013523,0.002678,0.000431,0.000353
46303000,0.0324,0.013523,0.002678,0.000431,0.000705
46304000,0.0324,0.013523,0.002678,0.000431,0.000353
46305000,0.0324,0.013523,0.002678,0.000431,0.000588
46306000,0.0324,0.013523,0.002678,0.000431,0.000470
46307000,0.0324,0.013523,0.002678,0.000431,0.000588
46308000,0.0324,0.013523,0.002678,0.000431,0.000588
46309000,0.0324,0.013523,0.002678,0.000431,0.000470
46310000,0.0324,0.013523,0.002678,0.000431,0.000588
46311000,0.0324,0.013523,0.002678,0.000431,0.000353
46312000,0.0324,0.013523,0.002678,0.000431,0.000588
46313000,0.0324,0.013523,0.002678,0.000431,0.000353
46314000,0.0324,0.013523,0.002678,0.000431,0.000588
46315000,0.0324,0.013523,0.002678,0.000431,0.000353
46316000,0.0324,0.013523,0.002678,0.000431,0.000588
46317000,0.0324,0.013523,0.002678,0.000431,0.000353
46318000,0.0324,0.013523,0.002678,0.000431,0.000588
46319000,0.0324,0.013523,0.002678,0.000431,0.000353
46320000,0.0324,0.013523,0.002678,0.000431,0.000588
46321000,0.0324,0.013523,0.002678,0.000431,0.000353
46322000,0.0324,0.013523,0.002678,0.000431,0.000588
46323000,0.0324,0.013523,0.002678,0.000431,0.000353
46324000,0.0324,0.013523,0.002678,0.000431,0.000588
46325000,0.0324,0.013523,0.002678,0.000431,0.000353
46326000,0.0324,0.013523,0.002678,0.000431,0.000588
46327000,0.0324,0.013523,0.002678,0.000431,0.000353
46328000,0.0324,0.013523,0.002678,0.000431,0.000588
46329000,0.0324,0.013523,0.002678,0.000431,0.000353
46330000,0.0324,0.013523,0.002678,0.000431,0.000470
46331000,0.0324,0.013523,0.002678,0.000431,0.000470
46332000,0.0324,0.013523,0.002678,0.000431,0.000470
46333000,0.0324,0.013523,0.002678,0.000431,0.000470
46334000,0.0324,0.013523,0.002678,0.000431,0.000353
46335000,0.0324,0.013523,0.002678,0.000431,0.000588
46336000,0.0324,0.013523,0.002678,0.000431,0.000353
46337000,0.0324,0.013523,0.002678,0.000431,0.000588
46338000,0.0324,0.013523,0.002678,0.000431,0.000353
46339000,0.0324,0.013523,0.002678,0.000431,0.000588
46340000,0.0324,0.013523,0.002678,0.000431,0.000470
46341000,0.0324,0.013523,0.002678,0.000431,0.000588
46342000,0.0324,0.013523,0.002678,0.000431,0.000353
46343000,0.0324,0.013523,0.002678,0.000431,0.000588
46344000,0.0324,0.013523,0.002678,0.000431,0.000353
46345000,0.0324,0.013523,0.002678,0.000431,0.000705
46346000,0.0324,0.013523,0.002678,0.000431,0.000353
46347000,0.0324,0.013523,0.002678,0.000431,0.000705
46348000,0.0324,0.013523,0.002678,0.000431,0.000588
46349000,0.0324,0.013523,0.002678,0.000431,0.000470
46350000,0.0324,0.013523,0.002678,0.000431,0.000588
46351000,0.0324,0.013523,0.002678,0.000431,0.000353
46352000,0.0324,0.013523,0.002678,0.000431,0.000588
46353000,0.0324,0.013523,0.002678,0.000431,0.000353
46354000,0.0324,0.013523,0.002678,0.000431,0.000588
46355000,0.0324,0.013523,0.002678,0.000431,0.000353
46356000,0.0324,0.013523,0.002678,0.000431,0.000470
46357000,0.0324,0.013523,0.002678,0.000431,0.000353
46358000,0.0324,0.013523,0.002678,0.000431,0.000588
46359000,0.0324,0.013523,0.002678,0.000431,0.000470
46360000,0.0324,0.013523,0.002678,0.000431,0.000705
46361000,0.0324,0.013523,0.002678,0.000431,0.000353
46362000,0.0324,0.013523,0.002678,0.000431,0.000705
46363000,0.0324,0.013523,0.002678,0.000431,0.000470
46364000,0.0324,0.013523,0.002678,0.000431,0.000470
46365000,0.0324,0.013523,0.002678,0.000431,0.000470
46366000,0.0324,0.013523,0.002678,0.000431,0.000588
46367000,0.0324,0.013523,0.002678,0.000431,0.000353
46368000,0.0324,0.013523,0.002678,0.000431,0.000588
46369000,0.0324,0.013523,0.002678,0.000431,0.000353
46370000,0.0324,0.013523,0.002678,0.000431,0.000588
46371000,0.0324,0.013523,0.002678,0.000431,0.000353
46372000,0.0324,0.013523,0.002678,0.000431,0.000588
46373000,0.0324,0.013523,0.002678,0.000431,0.000353
46374000,0.0324,0.013523,0.002678,0.000431,0.000470
46375000,0.0324,0.013523,0.002678,0.000431,0.000470
46376000,0.0324,0.013523,0.002678,0.000431,0.000705
46377000,0.0324,0.013523,0.002678,0.000431,0.000353
46378000,0.0324,0.013523,0.002678,0.000431,0.000705
46379000,0.0324,0.013523,0.002678,0.000431,0.000353
46380000,0.0324,0.013523,0.002678,0.000431,0.000588
46381000,0.0324,0.013523,0.002678,0.000431,0.000353
46382000,0.0324,0.013523,0.002678,0.000431,0.000705
46383000,0.0324,0.013523,0.002678,0.000431,0.000588
46384000,0.0324,0.013523,0.002678,0.000431,0.000470
46385000,0.0324,0.013523,0.002678,0.000431,0.000588
46386000,0.0324,0.013523,0.002678,0.000431,0.000353
46387000,0.0324,0.013523,0.002678,0.000431,0.000588
46388000,0.0324,0.013523,0.002678,0.000431,0.000353
46389000,0.0324,0.013523,0.002678,0.000431,0.000588
46390000,0.0324,0.013523,0.002678,0.000431,0.000470
46391000,0.0324,0.013523,0.002678,0.000431,0.000588
46392000,0.0324,0.013523,0.002678,0.000431,0.000470
46393000,0.0324,0.013523,0.002678,0.000431,0.000705
46394000,0.0324,0.013523,0.002678,0.000431,0.000353
46395000,0.0324,0.013523,0.002678,0.000431,0.000705
46396000,0.0324,0.013523,0.002678,0.000431,0.000470
46397000,0.0324,0.013523,0.002678,0.000431,0.000588
46398000,0.0324,0.013523,0.002678,0.000431,0.000470
46399000,0.0324,0.013523,0.002678,0.000431,0.000588
46400000,0.0324,0.013523,0.002678,0.000431,0.000470
46401000,0.0324,0.013523,0.002678,0.000431,0.000588
46402000,0.0324,0.013523,0.002678,0.000431,0.000353
46403000,0.0324,0.013523,0.002678,0.000431,0.000588
46404000,0.0324,0.013523,0.002678,0.000431,0.000353
46405000,0.0324,0.013523,0.002678,0.000431,0.000588
46406000,0.0324,0.013523,0.002678,0.000431,0.000353
46407000,0.0324,0.013523,0.002678,0.000431,0.000705
46408000,0.0324,0.013523,0.002678,0.000431,0.000470
46409000,0.0324,0.013523,0.002678,0.000431,0.000470
46410000,0.0324,0.013523,0.002678,0.000431,0.000470
46411000,0.0324,0.013523,0.002678,0.000431,0.000470
46412000,0.0324,0.013523,0.002678,0.000431,0.000470
46413000,0.0324,0.013523,0.002678,0.000431,0.000470
46414000,0.0324,0.013523,0.002678,0.000431,0.000470
46415000,0.0324,0.013523,0.002678,0.000431,0.000588
46416000,0.0324,0.013523,0.002678,0.000431,0.000353
46417000,0.0324,0.013523,0.002678,0.000431,0.000588
46418000,0.0324,0.013523,0.002678,0.000431,0.000353
46419000,0.0324,0.013523,0.002678,0.000431,0.000705
46420000,0.0324,0.013523,0.002678,0.000431,0.000353
46421000,0.0324,0.013523,0.002678,0.000431,0.000588
46422000,0.0324,0.013523,0.002678,0.000431,0.000588
46423000,0.0324,0.013523,0.002678,0.000431,0.000470
46424000,0.0324,0.013523,0.002678,0.000431,0.000588
46425000,0.0324,0.013523,0.002678,0.000431,0.000470
46426000,0.0324,0.013523,0.002678,0.000431,0.000470
46427000,0.0324,0.013523,0.002678,0.000431,0.000470
46428000,0.0324,0.013523,0.002678,0.000431,0.000470
46429000,0.0324,0.013523,0.002678,0.000431,0.000470
46430000,0.0324,0.013523,0.002678,0.000431,0.000588
46431000,0.0324,0.013523,0.002678,0.000431,0.000470
46432000,0.0324,0.013523,0.002678,0.000431,0.000705
46433000,0.0324,0.013523,0.002678,0.000431,0.000353
46434000,0.0324,0.013523,0.002678,0.000431,0.000705
46435000,0.0324,0.013523,0.002678,0.000431,0.000470
46436000,0.0324,0.013523,0.002678,0.000431,0.000470
46437000,0.0324,0.013523,0.002678,0.000431,0.000470
46438000,0.0324,0.013523,0.002678,0.000431,0.000470
46439000,0.0324,0.013523,0.002678,0.000431,0.000470
46440000,0.0324,0.013523,0.002678,0.000431,0.000470
46441000,0.0324,0.013523,0.002678,0.000431,0.000470
46442000,0.0324,0.013523,0.002678,0.000431,0.000470
46443000,0.0324,0.013523,0.002678,0.000431,0.000470
46444000,0.0324,0.013523,0.002678,0.000431,0.000470
46445000,0.0324,0.013523,0.002678,0.000431,0.000353
46446000,0.0324,0.013523,0.002678,0.000431,0.000588
46447000,0.0324,0.013523,0.002678,0.000431,0.000353
46448000,0.0324,0.013523,0.002678,0.000431,0.000705
46449000,0.0324,0.013523,0.002678,0.000431,0.000353
46450000,0.0324,0.013523,0.002678,0.000431,0.000588
46451000,0.0324,0.013523,0.002678,0.000431,0.000353
46452000,0.0324,0.013523,0.002678,0.000431,0.000588
46453000,0.0324,0.013523,0.002678,0.000431,0.000470
46454000,0.0324,0.013523,0.002678,0.000431,0.000470
46455000,0.0324,0.013523,0.002678,0.000431,0.000353
46456000,0.0324,0.013523,0.002678,0.000431,0.000588
46457000,0.0324,0.013523,0.002678,0.000431,0.000470
46458000,0.0324,0.013523,0.002678,0.000431,0.000588
46459000,0.0324,0.013523,0.002678,0.000431,0.000353
46460000,0.0324,0.013523,0.002678,0.000431,0.000588
46461000,0.0324,0.013523,0.002678,0.000431,0.000353
46462000,0.0324,0.013523,0.002678,0.000431,0.000588
46463000,0.0324,0.013523,0.002678,0.000431,0.000353
46464000,0.0324,0.013523,0.002678,0.000431,0.000705
46465000,0.0324,0.013523,0.002678,0.000431,0.000470
46466000,0.0324,0.013523,0.002678,0.000431,0.000705
46467000,0.0324,0.013523,0.002678,0.000431,0.000353
46468000,0.0324,0.013523,0.002678,0.000431,0.000588
46469000,0.0324,0.013523,0.002678,0.000431,0.000470
46470000,0.0324,0.013523,0.002678,0.000431,0.000588
46471000,0.0324,0.013523,0.002678,0.000431,0.000588
46472000,0.0324,0.013523,0.002678,0.000431,0.000470
46473000,0.0324,0.013523,0.002678,0.000431,0.000705
46474000,0.0324,0.013523,0.002678,0.000431,0.000353
46475000,0.0324,0.013523,0.002678,0.000431,0.000588
46476000,0.0324,0.013523,0.002678,0.000431,0.000353
46477000,0.0324,0.013523,0.002678,0.000431,0.000588
46478000,0.0324,0.013523,0.002678,0.000431,0.000353
46479000,0.0324,0.013523,0.002678,0.000431,0.000588
46480000,0.0324,0.013523,0.002678,0.000431,0.000353
46481000,0.0324,0.013523,0.002678,0.000431,0.000588
46482000,0.0324,0.013523,0.002678,0.000431,0.000353
46483000,0.0324,0.013523,0.002678,0.000431,0.000588
46484000,0.0324,0.013523,0.002678,0.000431,0.000470
46485000,0.0324,0.013523,0.002678,0.000431,0.000588
46486000,0.0324,0.013523,0.002678,0.000431,0.000353
46487000,0.0324,0.013523,0.002678,0.000431,0.000588
46488000,0.0324,0.013523,0.002678,0.000431,0.000353
46489000,0.0324,0.013523,0.002678,0.000431,0.000588
46490000,0.0324,0.013523,0.002678,0.000431,0.000353
46491000,0.0324,0.013523,0.002678,0.000431,0.000470
46492000,0.0324,0.013523,0.002678,0.000431,0.000470
46493000,0.0324,0.013523,0.002678,0.000431,0.000470
46494000,0.0324,0.013523,0.002678,0.000431,0.000470
46495000,0.0324,0.013523,0.002678,0.000431,0.000470
46496000,0.0324,0.013523,0.002678,0.000431,0.000588
46497000,0.0324,0.013523,0.002678,0.000431,0.000470
46498000,0.0324,0.013523,0.002678,0.000431,0.000588
46499000,0.0324,0.013523,0.002678,0.000431,0.000353
46500000,0.0324,0.013523,0.002678,0.000431,0.000470
46501000,0.0324,0.013523,0.002678,0.000431,0.000470
46502000,0.0324,0.013523,0.002678,0.000431,0.000588
46503000,0.0324,0.013523,0.002678,0.000431,0.000353
46504000,0.0324,0.013523,0.002678,0.000431,0.000588
46505000,0.0324,0.013523,0.002678,0.000431,0.000353
46506000,0.0324,0.013523,0.002678,0.000431,0.000588
46507000,0.0324,0.013523,0.002678,0.000431,0.000353
46508000,0.0324,0.013523,0.002678,0.000431,0.000588
46509000,0.0324,0.013523,0.002678,0.000431,0.000353
46510000,0.0324,0.013523,0.002678,0.000431,0.000588
46511000,0.0324,0.013523,0.002678,0.000431,0.000353
46512000,0.0324,0.013523,0.002678,0.000431,0.000588
46513000,0.0324,0.013523,0.002678,0.000431,0.000353
46514000,0.0324,0.013523,0.002678,0.000431,0.000588
46515000,0.0324,0.013523,0.002678,0.000431,0.000353
46516000,0.0324,0.013523,0.002678,0.000431,0.000588
46517000,0.0324,0.013523,0.002678,0.000431,0.000353
46518000,0.0324,0.013523,0.002678,0.000431,0.000588
46519000,0.0324,0.013523,0.002678,0.000431,0.000353
46520000,0.0324,0.013523,0.002678,0.000431,0.000823
46521000,0.0324,0.013523,0.002678,0.000431,0.000353
46522000,0.0324,0.013523,0.002678,0.000431,0.000588
46523000,0.0324,0.013523,0.002678,0.000431,0.000353
46524000,0.0324,0.013523,0.002678,0.000431,0.000470
46525000,0.0324,0.013523,0.002678,0.000431,0.000470
46526000,0.0324,0.013523,0.002678,0.000431,0.000470
46527000,0.0324,0.013523,0.002678,0.000431,0.000470
46528000,0.0324,0.013523,0.002678,0.000431,0.000470
46529000,0.0324,0.013523,0.002678,0.000431,0.000353
46530000,0.0324,0.013523,0.002678,0.000431,0.000588
46531000,0.0324,0.013523,0.002678,0.000431,0.000353
46532000,0.0324,0.013523,0.002678,0.000431,0.000588
46533000,0.0324,0.013523,0.002678,0.000431,0.000353
46534000,0.0324,0.013523,0.002678,0.000431,0.000588
46535000,0.0324,0.013523,0.002678,0.000431,0.000353
46536000,0.0324,0.013523,0.002678,0.000431,0.000705
46537000,0.0324,0.013523,0.002678,0.000431,0.000470
46538000,0.0324,0.013523,0.002678,0.000431,0.000588
46539000,0.0324,0.013523,0.002678,0.000431,0.000353
46540000,0.0324,0.013523,0.002678,0.000431,0.000588
46541000,0.0324,0.013523,0.002678,0.000431,0.000353
46542000,0.0324,0.013523,0.002678,0.000431,0.000588
46543000,0.0324,0.013523,0.002678,0.000431,0.000353
46544000,0.0324,0.013523,0.002678,0.000431,0.000470
46545000,0.0324,0.013523,0.002678,0.000431,0.000470
46546000,0.0324,0.013523,0.002678,0.000431,0.000470
46547000,0.0324,0.013523,0.002678,0.000431,0.000470
46548000,0.0324,0.013523,0.002678,0.000431,0.000353
46549000,0.0324,0.013523,0.002678,0.000431,0.000588
46550000,0.0324,0.013523,0.002678,0.000431,0.000353
46551000,0.0324,0.013523,0.002678,0.000431,0.000588
46552000,0.0324,0.013523,0.002678,0.000431,0.000353
46553000,0.0324,0.013523,0.002678,0.000431,0.000588
46554000,0.0324,0.013523,0.002678,0.000431,0.000353
46555000,0.0324,0.013523,0.002678,0.000431,0.000470
46556000,0.0324,0.013523,0.002678,0.000431,0.000470
46557000,0.0324,0.013523,0.002678,0.000431,0.000588
46558000,0.0324,0.013523,0.002678,0.000431,0.000353
46559000,0.0324,0.013523,0.002678,0.000431,0.000588
46560000,0.0324,0.013523,0.002678,0.000431,0.000353
46561000,0.0324,0.013523,0.002678,0.000431,0.000470
46562000,0.0324,0.013523,0.002678,0.000431,0.000470
46563000,0.0324,0.013523,0.002678,0.000431,0.000470
46564000,0.0324,0.013523,0.002678,0.000431,0.000470
46565000,0.0324,0.013523,0.002678,0.000431,0.000470
46566000,0.0324,0.013523,0.002678,0.000431,0.000353
46567000,0.0324,0.013523,0.002678,0.000431,0.000705
46568000,0.0324,0.013523,0.002678,0.000431,0.000470
46569000,0.0324,0.013523,0.002678,0.000431,0.000588
46570000,0.0324,0.013523,0.002678,0.000431,0.000353
46571000,0.0324,0.013523,0.002678,0.000431,0.000588
46572000,0.0324,0.013523,0.002678,0.000431,0.000235
46573000,0.0324,0.013523,0.002678,0.000431,0.000705
46574000,0.0324,0.013523,0.002678,0.000431,0.000353
46575000,0.0324,0.013523,0.002678,0.000431,0.000705
46576000,0.0324,0.013523,0.002678,0.000431,0.000353
46577000,0.0324,0.013523,0.002678,0.000431,0.000588
46578000,0.0324,0.013523,0.002678,0.000431,0.000353
46579000,0.0324,0.013523,0.002678,0.000431,0.000588
46580000,0.0324,0.013523,0.002678,0.000431,0.000353
46581000,0.0324,0.013523,0.002678,0.000431,0.000588
46582000,0.0324,0.013523,0.002678,0.000431,0.000353
46583000,0.0324,0.013523,0.002678,0.000431,0.000588
46584000,0.0324,0.013523,0.002678,0.000431,0.000353
46585000,0.0324,0.013523,0.002678,0.000431,0.000470
46586000,0.0324,0.013523,0.002678,0.000431,0.000470
46587000,0.0324,0.013523,0.002678,0.000431,0.000470
46588000,0.0324,0.013523,0.002678,0.000431,0.000470
46589000,0.0324,0.013523,0.002678,0.000431,0.000470
46590000,0.0324,0.013523,0.002678,0.000431,0.000470
46591000,0.0324,0.013523,0.002678,0.000431,0.000470
46592000,0.0324,0.013523,0.002678,0.000431,0.000470
46593000,0.0324,0.013523,0.002678,0.000431,0.000470
46594000,0.0324,0.013523,0.002678,0.000431,0.000470
46595000,0.0324,0.013523,0.002678,0.000431,0.000470
46596000,0.0324,0.013523,0.002678,0.000431,0.000470
46597000,0.0324,0.013523,0.002678,0.000431,0.000470
46598000,0.0324,0.013523,0.002678,0.000431,0.000353
46599000,0.0324,0.013523,0.002678,0.000431,0.000705
46600000,0.0324,0.013523,0.002678,0.000431,0.000470
46601000,0.0324,0.013523,0.002678,0.000431,0.000705
46602000,0.0324,0.013523,0.002678,0.000431,0.000353
46603000,0.0324,0.013523,0.002678,0.000431,0.000470
46604000,0.0324,0.013523,0.002678,0.000431,0.000470
46605000,0.0324,0.013523,0.002678,0.000431,0.000470
46606000,0.0324,0.013523,0.002678,0.000431,0.000470
46607000,0.0324,0.013523,0.002678,0.000431,0.000588
46608000,0.0324,0.013523,0.002678,0.000431,0.000470
46609000,0.0324,0.013523,0.002678,0.000431,0.000588
46610000,0.0324,0.013523,0.002678,0.000431,0.000470
46611000,0.0324,0.013523,0.002678,0.000431,0.000470
46612000,0.0324,0.013523,0.002678,0.000431,0.000470
46613000,0.0324,0.013523,0.002678,0.000431,0.000470
46614000,0.0324,0.013523,0.002678,0.000431,0.000470
46615000,0.0324,0.013523,0.002678,0.000431,0.000470
46616000,0.0324,0.013523,0.002678,0.000431,0.000470
46617000,0.0324,0.013523,0.002678,0.000431,0.000470
46618000,0.0324,0.013523,0.002678,0.000431,0.000588
46619000,0.0324,0.013523,0.002678,0.000431,0.000353
46620000,0.0324,0.013523,0.002678,0.000431,0.000588
46621000,0.0324,0.013523,0.002678,0.000431,0.000353
46622000,0.0324,0.013523,0.002678,0.000431,0.000588
46623000,0.0324,0.013523,0.002678,0.000431,0.000353
46624000,0.0324,0.013523,0.002678,0.000431,0.000588
46625000,0.0324,0.013523,0.002678,0.000431,0.000353
46626000,0.0324,0.013523,0.002678,0.000431,0.000588
46627000,0.0324,0.013523,0.002678,0.000431,0.000353
46628000,0.0324,0.013523,0.002678,0.000431,0.000588
46629000,0.0324,0.013523,0.002678,0.000431,0.000353
46630000,0.0324,0.013523,0.002678,0.000431,0.000470
46631000,0.0324,0.013523,0.002678,0.000431,0.000353
46632000,0.0324,0.013523,0.002678,0.000431,0.000588
46633000,0.0324,0.013523,0.002678,0.000431,0.000353
46634000,0.0324,0.013523,0.002678,0.000431,0.000588
46635000,0.0324,0.013523,0.002678,0.000431,0.000353
46636000,0.0324,0.013523,0.002678,0.000431,0.000588
46637000,0.0324,0.013523,0.002678,0.000431,0.000353
46638000,0.0324,0.013523,0.002678,0.000431,0.000588
46639000,0.0324,0.013523,0.002678,0.000431,0.000353
46640000,0.0324,0.013523,0.002678,0.000431,0.000588
46641000,0.0324,0.013523,0.002678,0.000431,0.000353
46642000,0.0324,0.013523,0.002678,0.000431,0.000705
46643000,0.0324,0.013523,0.002678,0.000431,0.000470
46644000,0.0324,0.013523,0.002678,0.000431,0.000705
46645000,0.0324,0.013523,0.002678,0.000431,0.000353
46646000,0.0324,0.013523,0.002678,0.000431,0.000588
46647000,0.0324,0.013523,0.002678,0.000431,0.000353
46648000,0.0324,0.013523,0.002678,0.000431,0.000588
46649000,0.0324,0.013523,0.002678,0.000431,0.000353
46650000,0.0324,0.013523,0.002678,0.000431,0.000588
46651000,0.0324,0.013523,0.002678,0.000431,0.000353
46652000,0.0324,0.013523,0.002678,0.000431,0.000588
46653000,0.0324,0.013523,0.002678,0.000431,0.000353
46654000,0.0324,0.013523,0.002678,0.000431,0.000588
46655000,0.0324,0.013523,0.002678,0.000431,0.000353
46656000,0.0324,0.013523,0.002678,0.000431,0.000470
46657000,0.0324,0.013523,0.002678,0.000431,0.000470
46658000,0.0324,0.013523,0.002678,0.000431,0.000470
46659000,0.0324,0.013523,0.002678,0.000431,0.000470
46660000,0.0324,0.013523,0.002678,0.000431,0.000470
46661000,0.0324,0.013523,0.002678,0.000431,0.000470
46662000,0.0324,0.013523,0.002678,0.000431,0.000470
46663000,0.0324,0.013523,0.002678,0.000431,0.000470
46664000,0.0324,0.013523,0.002678,0.000431,0.000470
46665000,0.0324,0.013523,0.002678,0.000431,0.000588
46666000,0.0324,0.013523,0.002678,0.000431,0.000353
46667000,0.0324,0.013523,0.002678,0.000431,0.000588
46668000,0.0324,0.013523,0.002678,0.000431,0.000353
46669000,0.0324,0.013523,0.002678,0.000431,0.000588
46670000,0.0324,0.013523,0.002678,0.000431,0.000353
46671000,0.0324,0.013523,0.002678,0.000431,0.000588
46672000,0.0324,0.013523,0.002678,0.000431,0.000353
46673000,0.0324,0.013523,0.002678,0.000431,0.000588
46674000,0.0324,0.013523,0.002678,0.000431,0.000353
46675000,0.0324,0.013523,0.002678,0.000431,0.000705
46676000,0.0324,0.013523,0.002678,0.000431,0.000588
46677000,0.0324,0.013523,0.002678,0.000431,0.000470
46678000,0.0324,0.013523,0.002678,0.000431,0.000588
46679000,0.0324,0.013523,0.002678,0.000431,0.000353
46680000,0.0324,0.013523,0.002678,0.000431,0.000588
46681000,0.0324,0.013523,0.002678,0.000431,0.000353
46682000,0.0324,0.013523,0.002678,0.000431,0.000470
46683000,0.0324,0.013523,0.002678,0.000431,0.000470
46684000,0.0324,0.013523,0.002678,0.000431,0.000470
46685000,0.0324,0.013523,0.002678,0.000431,0.000470
46686000,0.0324,0.013523,0.002678,0.000431,0.000353
46687000,0.0324,0.013523,0.002678,0.000431,0.000588
46688000,0.0324,0.013523,0.002678,0.000431,0.000353
46689000,0.0324,0.013523,0.002678,0.000431,0.000588
46690000,0.0324,0.013523,0.002678,0.000431,0.000353
46691000,0.0324,0.013523,0.002678,0.000431,0.000705
46692000,0.0324,0.013523,0.002678,0.000431,0.000588
46693000,0.0324,0.013523,0.002678,0.000431,0.000470
46694000,0.0324,0.013523,0.002678,0.000431,0.000588
46695000,0.0324,0.013523,0.002678,0.000431,0.000353
46696000,0.0324,0.013523,0.002678,0.000431,0.000588
46697000,0.0324,0.013523,0.002678,0.000431,0.000470
46698000,0.0324,0.013523,0.002678,0.000431,0.000588
46699000,0.0324,0.013523,0.002678,0.000431,0.000470
46700000,0.0324,0.013523,0.002678,0.000431,0.000705
46701000,0.0324,0.013523,0.002678,0.000431,0.000353
46702000,0.0324,0.013523,0.002678,0.000431,0.000588
46703000,0.0324,0.013523,0.002678,0.000431,0.000588
46704000,0.0324,0.013523,0.002678,0.000431,0.000588
46705000,0.0324,0.013523,0.002678,0.000431,0.000353
46706000,0.0324,0.013523,0.002678,0.000431,0.000588
46707000,0.0324,0.013523,0.002678,0.000431,0.000353
46708000,0.0324,0.013523,0.002678,0.000431,0.000470
46709000,0.0324,0.013523,0.002678,0.000431,0.000353
46710000,0.0324,0.013523,0.002678,0.000431,0.000588
46711000,0.0324,0.013523,0.002678,0.000431,0.000353
46712000,0.0324,0.013523,0.002678,0.000431,0.000705
46713000,0.0324,0.013523,0.002678,0.000431,0.000353
46714000,0.0324,0.013523,0.002678,0.000431,0.000588
46715000,0.0324,0.013523,0.002678,0.000431,0.000353
46716000,0.0324,0.013523,0.002678,0.000431,0.000588
46717000,0.0324,0.013523,0.002678,0.000431,0.000470
46718000,0.0324,0.013523,0.002678,0.000431,0.000588
46719000,0.0324,0.013523,0.002678,0.000431,0.000353
46720000,0.0324,0.013523,0.002678,0.000431,0.000588
46721000,0.0324,0.013523,0.002678,0.000431,0.000353
46722000,0.0324,0.013523,0.002678,0.000431,0.000588
46723000,0.0324,0.013523,0.002678,0.000431,0.000353
46724000,0.0324,0.013523,0.002678,0.000431,0.000588
46725000,0.0324,0.013523,0.002678,0.000431,0.000235
46726000,0.0324,0.013523,0.002678,0.000431,0.000588
46727000,0.0324,0.013523,0.002678,0.000431,0.000353
46728000,0.0324,0.013523,0.002678,0.000431,0.000588
46729000,0.0324,0.013523,0.002678,0.000431,0.000353
46730000,0.0324,0.013523,0.002678,0.000431,0.000588
46731000,0.0324,0.013523,0.002678,0.000431,0.000353
46732000,0.0324,0.013523,0.002678,0.000431,0.000588
46733000,0.0324,0.013523,0.002678,0.000431,0.000353
46734000,0.0324,0.013523,0.002678,0.000431,0.000470
46735000,0.0324,0.013523,0.002678,0.000431,0.000470
46736000,0.0324,0.013523,0.002678,0.000431,0.000470
46737000,0.0324,0.013523,0.002678,0.000431,0.000470
46738000,0.0324,0.013523,0.002678,0.000431,0.000470
46739000,0.0324,0.013523,0.002678,0.000431,0.000588
46740000,0.0324,0.013523,0.002678,0.000431,0.000353
46741000,0.0324,0.013523,0.002678,0.000431,0.000588
46742000,0.0324,0.013523,0.002678,0.000431,0.000353
46743000,0.0324,0.013523,0.002678,0.000431,0.000588
46744000,0.0324,0.013523,0.002678,0.000431,0.000353
46745000,0.0324,0.013523,0.002678,0.000431,0.000588
46746000,0.0324,0.013523,0.002678,0.000431,0.000353
46747000,0.0324,0.013523,0.002678,0.000431,0.000588
46748000,0.0324,0.013523,0.002678,0.000431,0.000353
46749000,0.0324,0.013523,0.002678,0.000431,0.000588
46750000,0.0324,0.013523,0.002678,0.000431,0.000353
46751000,0.0324,0.013523,0.002678,0.000431,0.000705
46752000,0.0324,0.013523,0.002678,0.000431,0.000588
46753000,0.0324,0.013523,0.002678,0.000431,0.000470
46754000,0.0324,0.013523,0.002678,0.000431,0.000588
46755000,0.0324,0.013523,0.002678,0.000431,0.000353
46756000,0.0324,0.013523,0.002678,0.000431,0.000588
46757000,0.0324,0.013523,0.002678,0.000431,0.000353
46758000,0.0324,0.013523,0.002678,0.000431,0.000588
46759000,0.0324,0.013523,0.002678,0.000431,0.000353
46760000,0.0324,0.013523,0.002678,0.000431,0.000470
46761000,0.0324,0.013523,0.002678,0.000431,0.000470
46762000,0.0324,0.013523,0.002678,0.000431,0.000470
46763000,0.0324,0.013523,0.002678,0.000431,0.000470
46764000,0.0324,0.013523,0.002678,0.000431,0.000353
46765000,0.0324,0.013523,0.002678,0.000431,0.000588
46766000,0.0324,0.013523,0.002678,0.000431,0.000470
46767000,0.0324,0.013523,0.002678,0.000431,0.000470
46768000,0.0324,0.013523,0.002678,0.000431,0.000353
46769000,0.0324,0.013523,0.002678,0.000431,0.000588
46770000,0.0324,0.013523,0.002678,0.000431,0.000353
46771000,0.0324,0.013523,0.002678,0.000431,0.000588
46772000,0.0324,0.013523,0.002678,0.000431,0.000353
46773000,0.0324,0.013523,0.002678,0.000431,0.000588
46774000,0.0324,0.013523,0.002678,0.000431,0.000353
46775000,0.0324,0.013523,0.002678,0.000431,0.000588
46776000,0.0324,0.013523,0.002678,0.000431,0.000353
46777000,0.0324,0.013523,0.002678,0.000431,0.000588
46778000,0.0324,0.013523,0.002678,0.000431,0.000470
46779000,0.0324,0.013523,0.002678,0.000431,0.000705
46780000,0.0324,0.013523,0.002678,0.000431,0.000353
46781000,0.0324,0.013523,0.002678,0.000431,0.000588
46782000,0.0324,0.013523,0.002678,0.000431,0.000353
46783000,0.0324,0.013523,0.002678,0.000431,0.000588
46784000,0.0324,0.013523,0.002678,0.000431,0.000353
46785000,0.0324,0.013523,0.002678,0.000431,0.000588
46786000,0.0324,0.013523,0.002678,0.000431,0.000353
46787000,0.0324,0.013523,0.002678,0.000431,0.000588
46788000,0.0324,0.013523,0.002678,0.000431,0.000353
46789000,0.0324,0.013523,0.002678,0.000431,0.000588
46790000,0.0324,0.013523,0.002678,0.000431,0.000353
46791000,0.0324,0.013523,0.002678,0.000431,0.000470
46792000,0.0324,0.013523,0.002678,0.000431,0.000470
46793000,0.0324,0.013523,0.002678,0.000431,0.000470
46794000,0.0324,0.013523,0.002678,0.000431,0.000470
46795000,0.0324,0.013523,0.002678,0.000431,0.000588
46796000,0.0324,0.013523,0.002678,0.000431,0.000470
46797000,0.0324,0.013523,0.002678,0.000431,0.000705
46798000,0.0324,0.013523,0.002678,0.000431,0.000353
46799000,0.0324,0.013523,0.002678,0.000431,0.000705
46800000,0.0324,0.013523,0.002678,0.000431,0.000588
46801000,0.0324,0.013523,0.002678,0.000431,0.000470
46802000,0.0324,0.013523,0.002678,0.000431,0.000588
46803000,0.0324,0.013523,0.002678,0.000431,0.000353
46804000,0.0324,0.013523,0.002678,0.000431,0.000588
46805000,0.0324,0.013523,0.002678,0.000431,0.000353
46806000,0.0324,0.013523,0.002678,0.000431,0.000588
46807000,0.0324,0.013523,0.002678,0.000431,0.000353
46808000,0.0324,0.013523,0.002678,0.000431,0.000705
46809000,0.0324,0.013523,0.002678,0.000431,0.000353
46810000,0.0324,0.013523,0.002678,0.000431,0.000588
46811000,0.0324,0.013523,0.002678,0.000431,0.000353
46812000,0.0324,0.013523,0.002678,0.000431,0.000470
46813000,0.0324,0.013523,0.002678,0.000431,0.000470
46814000,0.0324,0.013523,0.002678,0.000431,0.000470
46815000,0.0324,0.013523,0.002678,0.000431,0.000470
46816000,0.0324,0.013523,0.002678,0.000431,0.000470
46817000,0.0324,0.013523,0.002678,0.000431,0.000470
46818000,0.0324,0.013523,0.002678,0.000431,0.000470
46819000,0.0324,0.013523,0.002678,0.000431,0.000470
46820000,0.0324,0.013523,0.002678,0.000431,0.000470
46821000,0.0324,0.013523,0.002678,0.000431,0.000470
46822000,0.0324,0.013523,0.002678,0.000431,0.000470
46823000,0.0324,0.013523,0.002678,0.000431,0.000470
46824000,0.0324,0.013523,0.002678,0.000431,0.000470
46825000,0.0324,0.013523,0.002678,0.000431,0.000470
46826000,0.0324,0.013523,0.002678,0.000431,0.000470
46827000,0.0324,0.013523,0.002678,0.000431,0.000470
46828000,0.0324,0.013523,0.002678,0.000431,0.000470
46829000,0.0324,0.013523,0.002678,0.000431,0.000470
46830000,0.0324,0.013523,0.002678,0.000431,0.000588
46831000,0.0324,0.013523,0.002678,0.000431,0.000470
46832000,0.0324,0.013523,0.002678,0.000431,0.000705
46833000,0.0324,0.013523,0.002678,0.000431,0.000353
46834000,0.0324,0.013523,0.002678,0.000431,0.000705
46835000,0.0324,0.013523,0.002678,0.000431,0.000353
46836000,0.0324,0.013523,0.002678,0.000431,0.000588
46837000,0.0324,0.013523,0.002678,0.000431,0.000353
46838000,0.0324,0.013523,0.002678,0.000431,0.000470
46839000,0.0324,0.013523,0.002678,0.000431,0.000353
46840000,0.0324,0.013523,0.002678,0.000431,0.000588
46841000,0.0324,0.013523,0.002678,0.000431,0.000353
46842000,0.0324,0.013523,0.002678,0.000431,0.000588
46843000,0.0324,0.013523,0.002678,0.000431,0.000353
46844000,0.0324,0.013523,0.002678,0.000431,0.000588
46845000,0.0324,0.013523,0.002678,0.000431,0.000353
46846000,0.0324,0.013523,0.002678,0.000431,0.000588
46847000,0.0324,0.013523,0.002678,0.000431,0.000353
46848000,0.0324,0.013523,0.002678,0.000431,0.000588
46849000,0.0324,0.013523,0.002678,0.000431,0.000353
46850000,0.0324,0.013523,0.002678,0.000431,0.000588
46851000,0.0324,0.013523,0.002678,0.000431,0.000353
46852000,0.0324,0.013523,0.002678,0.000431,0.000588
46853000,0.0324,0.013523,0.002678,0.000431,0.000353
46854000,0.0324,0.013523,0.002678,0.000431,0.000588
46855000,0.0324,0.013523,0.002678,0.000431,0.000353
46856000,0.0324,0.013523,0.002678,0.000431,0.000588
46857000,0.0324,0.013523,0.002678,0.000431,0.000353
46858000,0.0324,0.013523,0.002678,0.000431,0.000588
46859000,0.0324,0.013523,0.002678,0.000431,0.000353
46860000,0.0324,0.013523,0.002678,0.000431,0.000588
46861000,0.0324,0.013523,0.002678,0.000431,0.000353
46862000,0.0324,0.013523,0.002678,0.000431,0.000588
46863000,0.0324,0.013523,0.002678,0.000431,0.000235
46864000,0.0324,0.013523,0.002678,0.000431,0.000705
46865000,0.0324,0.013523,0.002678,0.000431,0.000353
46866000,0.0324,0.013523,0.002678,0.000431,0.000705
46867000,0.0324,0.013523,0.002678,0.000431,0.000470
46868000,0.0324,0.013523,0.002678,0.000431,0.000470
46869000,0.0324,0.013523,0.002678,0.000431,0.000470
46870000,0.0324,0.013523,0.002678,0.000431,0.000470
46871000,0.0324,0.013523,0.002678,0.000431,0.000588
46872000,0.0324,0.013523,0.002678,0.000431,0.000470
46873000,0.0324,0.013523,0.002678,0.000431,0.000588
46874000,0.0324,0.013523,0.002678,0.000431,0.000353
46875000,0.0324,0.013523,0.002678,0.000431,0.000588
46876000,0.0324,0.013523,0.002678,0.000431,0.000353
46877000,0.0324,0.013523,0.002678,0.000431,0.000588
46878000,0.0324,0.013523,0.002678,0.000431,0.000353
46879000,0.0324,0.013523,0.002678,0.000431,0.000588
46880000,0.0324,0.013523,0.002678,0.000431,0.000353
46881000,0.0324,0.013523,0.002678,0.000431,0.000588
46882000,0.0324,0.013523,0.002678,0.000431,0.000353
46883000,0.0324,0.013523,0.002678,0.000431,0.000470
46884000,0.0324,0.013523,0.002678,0.000431,0.000470
46885000,0.0324,0.013523,0.002678,0.000431,0.000470
46886000,0.0324,0.013523,0.002678,0.000431,0.000588
46887000,0.0324,0.013523,0.002678,0.000431,0.000588
46888000,0.0324,0.013523,0.002678,0.000431,0.000470
46889000,0.0324,0.013523,0.002678,0.000431,0.000588
46890000,0.0324,0.013523,0.002678,0.000431,0.000353
46891000,0.0324,0.013523,0.002678,0.000431,0.000588
46892000,0.0324,0.013523,0.002678,0.000431,0.000353
46893000,0.0324,0.013523,0.002678,0.000431,0.000588
46894000,0.0324,0.013523,0.002678,0.000431,0.000353
46895000,0.0324,0.013523,0.002678,0.000431,0.000588
46896000,0.0324,0.013523,0.002678,0.000431,0.000353
46897000,0.0324,0.013523,0.002678,0.000431,0.000588
46898000,0.0324,0.013523,0.002678,0.000431,0.000353
46899000,0.0324,0.013523,0.002678,0.000431,0.000588
46900000,0.0324,0.013523,0.002678,0.000431,0.000353
46901000,0.0324,0.013523,0.002678,0.000431,0.000588
46902000,0.0324,0.013523,0.002678,0.000431,0.000353
46903000,0.0324,0.013523,0.002678,0.000431,0.000588
46904000,0.0324,0.013523,0.002678,0.000431,0.000353
46905000,0.0324,0.013523,0.002678,0.000431,0.000588
46906000,0.0324,0.013523,0.002678,0.000431,0.000353
46907000,0.0324,0.013523,0.002678,0.000431,0.000588
46908000,0.0324,0.013523,0.002678,0.000431,0.000353
46909000,0.0324,0.013523,0.002678,0.000431,0.000470
46910000,0.0324,0.013523,0.002678,0.000431,0.000588
46911000,0.0324,0.013523,0.002678,0.000431,0.000588
46912000,0.0324,0.013523,0.002678,0.000431,0.000470
46913000,0.0324,0.013523,0.002678,0.000431,0.000353
46914000,0.0324,0.013523,0.002678,0.000431,0.000588
46915000,0.0324,0.013523,0.002678,0.000431,0.000353
46916000,0.0324,0.013523,0.002678,0.000431,0.000705
46917000,0.0324,0.013523,0.002678,0.000431,0.000588
46918000,0.0324,0.013523,0.002678,0.000431,0.000470
46919000,0.0324,0.013523,0.002678,0.000431,0.000705
46920000,0.0324,0.013523,0.002678,0.000431,0.000353
46921000,0.0324,0.013523,0.002678,0.000431,0.000705
46922000,0.0324,0.013523,0.002678,0.000431,0.000470
46923000,0.0324,0.013523,0.002678,0.000431,0.000470
46924000,0.0324,0.013523,0.002678,0.000431,0.000588
46925000,0.0324,0.013523,0.002678,0.000431,0.000470
46926000,0.0324,0.013523,0.002678,0.000431,0.000588
46927000,0.0324,0.013523,0.002678,0.000431,0.000353
46928000,0.0324,0.013523,0.002678,0.000431,0.000470
46929000,0.0324,0.013523,0.002678,0.000431,0.000470
46930000,0.0324,0.013523,0.002678,0.000431,0.000470
46931000,0.0324,0.013523,0.002678,0.000431,0.000470
46932000,0.0324,0.013523,0.002678,0.000431,0.000353
46933000,0.0324,0.013523,0.002678,0.000431,0.000588
46934000,0.0324,0.013523,0.002678,0.000431,0.000353
46935000,0.0324,0.013523,0.002678,0.000431,0.000588
46936000,0.0324,0.013523,0.002678,0.000431,0.000353
46937000,0.0324,0.013523,0.002678,0.000431,0.000588
46938000,0.0324,0.013523,0.002678,0.000431,0.000353
46939000,0.0324,0.013523,0.002678,0.000431,0.000705
46940000,0.0324,0.013523,0.002678,0.000431,0.000588
46941000,0.0324,0.013523,0.002678,0.000431,0.000470
46942000,0.0324,0.013523,0.002678,0.000431,0.000588
46943000,0.0324,0.013523,0.002678,0.000431,0.000353
46944000,0.0324,0.013523,0.002678,0.000431,0.000588
46945000,0.0324,0.013523,0.002678,0.000431,0.000353
46946000,0.0324,0.013523,0.002678,0.000431,0.000588
46947000,0.0324,0.013523,0.002678,0.000431,0.000353
46948000,0.0324,0.013523,0.002678,0.000431,0.000588
46949000,0.0324,0.013523,0.002678,0.000431,0.000353
46950000,0.0324,0.013523,0.002678,0.000431,0.000588
46951000,0.0324,0.013523,0.002678,0.000431,0.000470
46952000,0.0324,0.013523,0.002678,0.000431,0.000588
46953000,0.0324,0.013523,0.002678,0.000431,0.000353
46954000,0.0324,0.013523,0.002678,0.000431,0.000588
46955000,0.0324,0.013523,0.002678,0.000431,0.000470
46956000,0.0324,0.013523,0.002678,0.000431,0.000470
46957000,0.0324,0.013523,0.002678,0.000431,0.000470
46958000,0.0324,0.013523,0.002678,0.000431,0.000353
46959000,0.0324,0.013523,0.002678,0.000431,0.000588
46960000,0.0324,0.013523,0.002678,0.000431,0.000353
46961000,0.0324,0.013523,0.002678,0.000431,0.000588
46962000,0.0324,0.013523,0.002678,0.000431,0.000353
46963000,0.0324,0.013523,0.002678,0.000431,0.000588
46964000,0.0324,0.013523,0.002678,0.000431,0.000353
46965000,0.0324,0.013523,0.002678,0.000431,0.000705
46966000,0.0324,0.013523,0.002678,0.000431,0.000588
46967000,0.0324,0.013523,0.002678,0.000431,0.000470
46968000,0.0324,0.013523,0.002678,0.000431,0.000588
46969000,0.0324,0.013523,0.002678,0.000431,0.000353
46970000,0.0324,0.013523,0.002678,0.000431,0.000588
46971000,0.0324,0.013523,0.002678,0.000431,0.000353
46972000,0.0324,0.013523,0.002678,0.000431,0.000588
46973000,0.0324,0.013523,0.002678,0.000431,0.000353
46974000,0.0324,0.013523,0.002678,0.000431,0.000588
46975000,0.0324,0.013523,0.002678,0.000431,0.000353
46976000,0.0324,0.013523,0.002678,0.000431,0.000588
46977000,0.0324,0.013523,0.002678,0.000431,0.000353
46978000,0.0324,0.013523,0.002678,0.000431,0.000588
46979000,0.0324,0.013523,0.002678,0.000431,0.000353
46980000,0.0324,0.013523,0.002678,0.000431,0.000470
46981000,0.0324,0.013523,0.002678,0.000431,0.000470
46982000,0.0324,0.013523,0.002678,0.000431,0.000470
46983000,0.0324,0.013523,0.002678,0.000431,0.000588
46984000,0.0324,0.013523,0.002678,0.000431,0.000588
46985000,0.0324,0.013523,0.002678,0.000431,0.000470
46986000,0.0324,0.013523,0.002678,0.000431,0.000705
46987000,0.0324,0.013523,0.002678,0.000431,0.000353
46988000,0.0324,0.013523,0.002678,0.000431,0.000705
46989000,0.0324,0.013523,0.002678,0.000431,0.000588
46990000,0.0324,0.013523,0.002678,0.000431,0.000470
46991000,0.0324,0.013523,0.002678,0.000431,0.000588
46992000,0.0324,0.013523,0.002678,0.000431,0.000353
46993000,0.0324,0.013523,0.002678,0.000431,0.000588
46994000,0.0324,0.013523,0.002678,0.000431,0.000353
46995000,0.0324,0.013523,0.002678,0.000431,0.000588
46996000,0.0324,0.013523,0.002678,0.000431,0.000353
46997000,0.0324,0.013523,0.002678,0.000431,0.000588
46998000,0.0324,0.013523,0.002678,0.000431,0.000353
46999000,0.0324,0.013523,0.002678,0.000431,0.000470
