Cycle,Area(mm^2),PeakDynamic(W),SubthresholdLeakage(W),GateLeakage(W),RunTimeDynamic(W)
1000000,0.0324,0.013523,0.002678,0.000431,0.000353
1001000,0.0324,0.013523,0.002678,0.000431,0.000823
1002000,0.0324,0.013523,0.002678,0.000431,0.000353
1003000,0.0324,0.013523,0.002678,0.000431,0.000588
1004000,0.0324,0.013523,0.002678,0.000431,0.000353
1005000,0.0324,0.013523,0.002678,0.000431,0.000588
1006000,0.0324,0.013523,0.002678,0.000431,0.000470
1007000,0.0324,0.013523,0.002678,0.000431,0.000588
1008000,0.0324,0.013523,0.002678,0.000431,0.000353
1009000,0.0324,0.013523,0.002678,0.000431,0.000470
1010000,0.0324,0.013523,0.002678,0.000431,0.000353
1011000,0.0324,0.013523,0.002678,0.000431,0.000588
1012000,0.0324,0.013523,0.002678,0.000431,0.000353
1013000,0.0324,0.013523,0.002678,0.000431,0.000588
1014000,0.0324,0.013523,0.002678,0.000431,0.000353
1015000,0.0324,0.013523,0.002678,0.000431,0.000823
1016000,0.0324,0.013523,0.002678,0.000431,0.000353
1017000,0.0324,0.013523,0.002678,0.000431,0.000705
1018000,0.0324,0.013523,0.002678,0.000431,0.000588
1019000,0.0324,0.013523,0.002678,0.000431,0.000470
1020000,0.0324,0.013523,0.002678,0.000431,0.000470
1021000,0.0324,0.013523,0.002678,0.000431,0.000470
1022000,0.0324,0.013523,0.002678,0.000431,0.000705
1023000,0.0324,0.013523,0.002678,0.000431,0.000353
1024000,0.0324,0.013523,0.002678,0.000431,0.000705
1025000,0.0324,0.013523,0.002678,0.000431,0.000470
1026000,0.0324,0.013523,0.002678,0.000431,0.000470
1027000,0.0324,0.013523,0.002678,0.000431,0.000470
1028000,0.0324,0.013523,0.002678,0.000431,0.000470
1029000,0.0324,0.013523,0.002678,0.000431,0.000470
1030000,0.0324,0.013523,0.002678,0.000431,0.000470
1031000,0.0324,0.013523,0.002678,0.000431,0.000470
1032000,0.0324,0.013523,0.002678,0.000431,0.000588
1033000,0.0324,0.013523,0.002678,0.000431,0.000353
1034000,0.0324,0.013523,0.002678,0.000431,0.000705
1035000,0.0324,0.013523,0.002678,0.000431,0.000588
1036000,0.0324,0.013523,0.002678,0.000431,0.000470
1037000,0.0324,0.013523,0.002678,0.000431,0.000705
1038000,0.0324,0.013523,0.002678,0.000431,0.000353
1039000,0.0324,0.013523,0.002678,0.000431,0.000470
1040000,0.0324,0.013523,0.002678,0.000431,0.000470
1041000,0.0324,0.013523,0.002678,0.000431,0.000470
1042000,0.0324,0.013523,0.002678,0.000431,0.000470
1043000,0.0324,0.013523,0.002678,0.000431,0.000470
1044000,0.0324,0.013523,0.002678,0.000431,0.000470
1045000,0.0324,0.013523,0.002678,0.000431,0.000470
1046000,0.0324,0.013523,0.002678,0.000431,0.000470
1047000,0.0324,0.013523,0.002678,0.000431,0.000470
1048000,0.0324,0.013523,0.002678,0.000431,0.000353
1049000,0.0324,0.013523,0.002678,0.000431,0.000588
1050000,0.0324,0.013523,0.002678,0.000431,0.000353
1051000,0.0324,0.013523,0.002678,0.000431,0.000588
1052000,0.0324,0.013523,0.002678,0.000431,0.000470
1053000,0.0324,0.013523,0.002678,0.000431,0.000470
1054000,0.0324,0.013523,0.002678,0.000431,0.000470
1055000,0.0324,0.013523,0.002678,0.000431,0.000470
1056000,0.0324,0.013523,0.002678,0.000431,0.000470
1057000,0.0324,0.013523,0.002678,0.000431,0.000470
1058000,0.0324,0.013523,0.002678,0.000431,0.000470
1059000,0.0324,0.013523,0.002678,0.000431,0.000470
1060000,0.0324,0.013523,0.002678,0.000431,0.000470
1061000,0.0324,0.013523,0.002678,0.000431,0.000470
1062000,0.0324,0.013523,0.002678,0.000431,0.000470
1063000,0.0324,0.013523,0.002678,0.000431,0.000470
1064000,0.0324,0.013523,0.002678,0.000431,0.000470
1065000,0.0324,0.013523,0.002678,0.000431,0.000470
1066000,0.0324,0.013523,0.002678,0.000431,0.000470
1067000,0.0324,0.013523,0.002678,0.000431,0.000470
1068000,0.0324,0.013523,0.002678,0.000431,0.000470
1069000,0.0324,0.013523,0.002678,0.000431,0.000470
1070000,0.0324,0.013523,0.002678,0.000431,0.000588
1071000,0.0324,0.013523,0.002678,0.000431,0.000353
1072000,0.0324,0.013523,0.002678,0.000431,0.000470
1073000,0.0324,0.013523,0.002678,0.000431,0.000470
1074000,0.0324,0.013523,0.002678,0.000431,0.000588
1075000,0.0324,0.013523,0.002678,0.000431,0.000470
1076000,0.0324,0.013523,0.002678,0.000431,0.000470
1077000,0.0324,0.013523,0.002678,0.000431,0.000705
1078000,0.0324,0.013523,0.002678,0.000431,0.000353
1079000,0.0324,0.013523,0.002678,0.000431,0.000705
1080000,0.0324,0.013523,0.002678,0.000431,0.000588
1081000,0.0324,0.013523,0.002678,0.000431,0.000470
1082000,0.0324,0.013523,0.002678,0.000431,0.000588
1083000,0.0324,0.013523,0.002678,0.000431,0.000353
1084000,0.0324,0.013523,0.002678,0.000431,0.000588
1085000,0.0324,0.013523,0.002678,0.000431,0.000470
1086000,0.0324,0.013523,0.002678,0.000431,0.000588
1087000,0.0324,0.013523,0.002678,0.000431,0.000470
1088000,0.0324,0.013523,0.002678,0.000431,0.000588
1089000,0.0324,0.013523,0.002678,0.000431,0.000353
1090000,0.0324,0.013523,0.002678,0.000431,0.000588
1091000,0.0324,0.013523,0.002678,0.000431,0.000353
1092000,0.0324,0.013523,0.002678,0.000431,0.000470
1093000,0.0324,0.013523,0.002678,0.000431,0.000588
1094000,0.0324,0.013523,0.002678,0.000431,0.000588
1095000,0.0324,0.013523,0.002678,0.000431,0.000470
1096000,0.0324,0.013523,0.002678,0.000431,0.000353
1097000,0.0324,0.013523,0.002678,0.000431,0.000588
1098000,0.0324,0.013523,0.002678,0.000431,0.000353
1099000,0.0324,0.013523,0.002678,0.000431,0.000588
1100000,0.0324,0.013523,0.002678,0.000431,0.000353
1101000,0.0324,0.013523,0.002678,0.000431,0.000588
1102000,0.0324,0.013523,0.002678,0.000431,0.000353
1103000,0.0324,0.013523,0.002678,0.000431,0.000588
1104000,0.0324,0.013523,0.002678,0.000431,0.000353
1105000,0.0324,0.013523,0.002678,0.000431,0.000705
1106000,0.0324,0.013523,0.002678,0.000431,0.000470
1107000,0.0324,0.013523,0.002678,0.000431,0.000470
1108000,0.0324,0.013523,0.002678,0.000431,0.000470
1109000,0.0324,0.013523,0.002678,0.000431,0.000470
1110000,0.0324,0.013523,0.002678,0.000431,0.000470
1111000,0.0324,0.013523,0.002678,0.000431,0.000470
1112000,0.0324,0.013523,0.002678,0.000431,0.000470
1113000,0.0324,0.013523,0.002678,0.000431,0.000470
1114000,0.0324,0.013523,0.002678,0.000431,0.000353
1115000,0.0324,0.013523,0.002678,0.000431,0.000588
1116000,0.0324,0.013523,0.002678,0.000431,0.000353
1117000,0.0324,0.013523,0.002678,0.000431,0.000705
1118000,0.0324,0.013523,0.002678,0.000431,0.000353
1119000,0.0324,0.013523,0.002678,0.000431,0.000705
1120000,0.0324,0.013523,0.002678,0.000431,0.000588
1121000,0.0324,0.013523,0.002678,0.000431,0.000470
1122000,0.0324,0.013523,0.002678,0.000431,0.000588
1123000,0.0324,0.013523,0.002678,0.000431,0.000353
1124000,0.0324,0.013523,0.002678,0.000431,0.000588
1125000,0.0324,0.013523,0.002678,0.000431,0.000353
1126000,0.0324,0.013523,0.002678,0.000431,0.000588
1127000,0.0324,0.013523,0.002678,0.000431,0.000470
1128000,0.0324,0.013523,0.002678,0.000431,0.000353
1129000,0.0324,0.013523,0.002678,0.000431,0.000588
1130000,0.0324,0.013523,0.002678,0.000431,0.000588
1131000,0.0324,0.013523,0.002678,0.000431,0.000470
1132000,0.0324,0.013523,0.002678,0.000431,0.000705
1133000,0.0324,0.013523,0.002678,0.000431,0.000353
1134000,0.0324,0.013523,0.002678,0.000431,0.000705
1135000,0.0324,0.013523,0.002678,0.000431,0.000588
1136000,0.0324,0.013523,0.002678,0.000431,0.000470
1137000,0.0324,0.013523,0.002678,0.000431,0.000705
1138000,0.0324,0.013523,0.002678,0.000431,0.000353
1139000,0.0324,0.013523,0.002678,0.000431,0.000588
1140000,0.0324,0.013523,0.002678,0.000431,0.000353
1141000,0.0324,0.013523,0.002678,0.000431,0.000705
1142000,0.0324,0.013523,0.002678,0.000431,0.000588
1143000,0.0324,0.013523,0.002678,0.000431,0.000470
1144000,0.0324,0.013523,0.002678,0.000431,0.000705
1145000,0.0324,0.013523,0.002678,0.000431,0.000353
1146000,0.0324,0.013523,0.002678,0.000431,0.000588
1147000,0.0324,0.013523,0.002678,0.000431,0.000353
1148000,0.0324,0.013523,0.002678,0.000431,0.000705
1149000,0.0324,0.013523,0.002678,0.000431,0.000353
1150000,0.0324,0.013523,0.002678,0.000431,0.000705
1151000,0.0324,0.013523,0.002678,0.000431,0.000353
1152000,0.0324,0.013523,0.002678,0.000431,0.000588
1153000,0.0324,0.013523,0.002678,0.000431,0.000353
1154000,0.0324,0.013523,0.002678,0.000431,0.000588
1155000,0.0324,0.013523,0.002678,0.000431,0.000353
1156000,0.0324,0.013523,0.002678,0.000431,0.000470
1157000,0.0324,0.013523,0.002678,0.000431,0.000470
1158000,0.0324,0.013523,0.002678,0.000431,0.000470
1159000,0.0324,0.013523,0.002678,0.000431,0.000470
1160000,0.0324,0.013523,0.002678,0.000431,0.000588
1161000,0.0324,0.013523,0.002678,0.000431,0.000470
1162000,0.0324,0.013523,0.002678,0.000431,0.000705
1163000,0.0324,0.013523,0.002678,0.000431,0.000353
1164000,0.0324,0.013523,0.002678,0.000431,0.000588
1165000,0.0324,0.013523,0.002678,0.000431,0.000353
1166000,0.0324,0.013523,0.002678,0.000431,0.000588
1167000,0.0324,0.013523,0.002678,0.000431,0.000353
1168000,0.0324,0.013523,0.002678,0.000431,0.000588
1169000,0.0324,0.013523,0.002678,0.000431,0.000353
1170000,0.0324,0.013523,0.002678,0.000431,0.000823
1171000,0.0324,0.013523,0.002678,0.000431,0.000353
1172000,0.0324,0.013523,0.002678,0.000431,0.000588
1173000,0.0324,0.013523,0.002678,0.000431,0.000353
1174000,0.0324,0.013523,0.002678,0.000431,0.000588
1175000,0.0324,0.013523,0.002678,0.000431,0.000353
1176000,0.0324,0.013523,0.002678,0.000431,0.000588
1177000,0.0324,0.013523,0.002678,0.000431,0.000353
1178000,0.0324,0.013523,0.002678,0.000431,0.000470
1179000,0.0324,0.013523,0.002678,0.000431,0.000470
1180000,0.0324,0.013523,0.002678,0.000431,0.000470
1181000,0.0324,0.013523,0.002678,0.000431,0.000470
1182000,0.0324,0.013523,0.002678,0.000431,0.000588
1183000,0.0324,0.013523,0.002678,0.000431,0.000470
1184000,0.0324,0.013523,0.002678,0.000431,0.000588
1185000,0.0324,0.013523,0.002678,0.000431,0.000353
1186000,0.0324,0.013523,0.002678,0.000431,0.000588
1187000,0.0324,0.013523,0.002678,0.000431,0.000353
1188000,0.0324,0.013523,0.002678,0.000431,0.000588
1189000,0.0324,0.013523,0.002678,0.000431,0.000470
1190000,0.0324,0.013523,0.002678,0.000431,0.000588
1191000,0.0324,0.013523,0.002678,0.000431,0.000588
1192000,0.0324,0.013523,0.002678,0.000431,0.000470
1193000,0.0324,0.013523,0.002678,0.000431,0.000470
1194000,0.0324,0.013523,0.002678,0.000431,0.000470
1195000,0.0324,0.013523,0.002678,0.000431,0.000353
1196000,0.0324,0.013523,0.002678,0.000431,0.000705
1197000,0.0324,0.013523,0.002678,0.000431,0.000470
1198000,0.0324,0.013523,0.002678,0.000431,0.000705
1199000,0.0324,0.013523,0.002678,0.000431,0.000353
1200000,0.0324,0.013523,0.002678,0.000431,0.000588
1201000,0.0324,0.013523,0.002678,0.000431,0.000353
1202000,0.0324,0.013523,0.002678,0.000431,0.000705
1203000,0.0324,0.013523,0.002678,0.000431,0.000588
1204000,0.0324,0.013523,0.002678,0.000431,0.000470
1205000,0.0324,0.013523,0.002678,0.000431,0.000588
1206000,0.0324,0.013523,0.002678,0.000431,0.000353
1207000,0.0324,0.013523,0.002678,0.000431,0.000588
1208000,0.0324,0.013523,0.002678,0.000431,0.000353
1209000,0.0324,0.013523,0.002678,0.000431,0.000588
1210000,0.0324,0.013523,0.002678,0.000431,0.000353
1211000,0.0324,0.013523,0.002678,0.000431,0.000588
1212000,0.0324,0.013523,0.002678,0.000431,0.000470
1213000,0.0324,0.013523,0.002678,0.000431,0.000470
1214000,0.0324,0.013523,0.002678,0.000431,0.000353
1215000,0.0324,0.013523,0.002678,0.000431,0.000588
1216000,0.0324,0.013523,0.002678,0.000431,0.000353
1217000,0.0324,0.013523,0.002678,0.000431,0.000588
1218000,0.0324,0.013523,0.002678,0.000431,0.000353
1219000,0.0324,0.013523,0.002678,0.000431,0.000588
1220000,0.0324,0.013523,0.002678,0.000431,0.000353
1221000,0.0324,0.013523,0.002678,0.000431,0.000588
1222000,0.0324,0.013523,0.002678,0.000431,0.000353
1223000,0.0324,0.013523,0.002678,0.000431,0.000470
1224000,0.0324,0.013523,0.002678,0.000431,0.000588
1225000,0.0324,0.013523,0.002678,0.000431,0.000588
1226000,0.0324,0.013523,0.002678,0.000431,0.000588
1227000,0.0324,0.013523,0.002678,0.000431,0.000470
1228000,0.0324,0.013523,0.002678,0.000431,0.000588
1229000,0.0324,0.013523,0.002678,0.000431,0.000353
1230000,0.0324,0.013523,0.002678,0.000431,0.000588
1231000,0.0324,0.013523,0.002678,0.000431,0.000353
1232000,0.0324,0.013523,0.002678,0.000431,0.000588
1233000,0.0324,0.013523,0.002678,0.000431,0.000353
1234000,0.0324,0.013523,0.002678,0.000431,0.000588
1235000,0.0324,0.013523,0.002678,0.000431,0.000353
1236000,0.0324,0.013523,0.002678,0.000431,0.000705
1237000,0.0324,0.013523,0.002678,0.000431,0.000588
1238000,0.0324,0.013523,0.002678,0.000431,0.000470
1239000,0.0324,0.013523,0.002678,0.000431,0.000588
1240000,0.0324,0.013523,0.002678,0.000431,0.000353
1241000,0.0324,0.013523,0.002678,0.000431,0.000588
1242000,0.0324,0.013523,0.002678,0.000431,0.000353
1243000,0.0324,0.013523,0.002678,0.000431,0.000588
1244000,0.0324,0.013523,0.002678,0.000431,0.000353
1245000,0.0324,0.013523,0.002678,0.000431,0.000705
1246000,0.0324,0.013523,0.002678,0.000431,0.000588
1247000,0.0324,0.013523,0.002678,0.000431,0.000588
1248000,0.0324,0.013523,0.002678,0.000431,0.000353
1249000,0.0324,0.013523,0.002678,0.000431,0.000588
1250000,0.0324,0.013523,0.002678,0.000431,0.000588
1251000,0.0324,0.013523,0.002678,0.000431,0.000470
1252000,0.0324,0.013523,0.002678,0.000431,0.000470
1253000,0.0324,0.013523,0.002678,0.000431,0.000470
1254000,0.0324,0.013523,0.002678,0.000431,0.000470
1255000,0.0324,0.013523,0.002678,0.000431,0.000470
1256000,0.0324,0.013523,0.002678,0.000431,0.000470
1257000,0.0324,0.013523,0.002678,0.000431,0.000588
1258000,0.0324,0.013523,0.002678,0.000431,0.000470
1259000,0.0324,0.013523,0.002678,0.000431,0.000705
1260000,0.0324,0.013523,0.002678,0.000431,0.000353
1261000,0.0324,0.013523,0.002678,0.000431,0.000705
1262000,0.0324,0.013523,0.002678,0.000431,0.000470
1263000,0.0324,0.013523,0.002678,0.000431,0.000588
1264000,0.0324,0.013523,0.002678,0.000431,0.000353
1265000,0.0324,0.013523,0.002678,0.000431,0.000588
1266000,0.0324,0.013523,0.002678,0.000431,0.000353
1267000,0.0324,0.013523,0.002678,0.000431,0.000470
1268000,0.0324,0.013523,0.002678,0.000431,0.000470
1269000,0.0324,0.013523,0.002678,0.000431,0.000588
1270000,0.0324,0.013523,0.002678,0.000431,0.000470
1271000,0.0324,0.013523,0.002678,0.000431,0.000588
1272000,0.0324,0.013523,0.002678,0.000431,0.000588
1273000,0.0324,0.013523,0.002678,0.000431,0.000588
1274000,0.0324,0.013523,0.002678,0.000431,0.000470
1275000,0.0324,0.013523,0.002678,0.000431,0.000470
1276000,0.0324,0.013523,0.002678,0.000431,0.000588
1277000,0.0324,0.013523,0.002678,0.000431,0.000470
1278000,0.0324,0.013523,0.002678,0.000431,0.000588
1279000,0.0324,0.013523,0.002678,0.000431,0.000353
1280000,0.0324,0.013523,0.002678,0.000431,0.000588
1281000,0.0324,0.013523,0.002678,0.000431,0.000470
1282000,0.0324,0.013523,0.002678,0.000431,0.000588
1283000,0.0324,0.013523,0.002678,0.000431,0.000470
1284000,0.0324,0.013523,0.002678,0.000431,0.000705
1285000,0.0324,0.013523,0.002678,0.000431,0.000353
1286000,0.0324,0.013523,0.002678,0.000431,0.000588
1287000,0.0324,0.013523,0.002678,0.000431,0.000353
1288000,0.0324,0.013523,0.002678,0.000431,0.000588
1289000,0.0324,0.013523,0.002678,0.000431,0.000353
1290000,0.0324,0.013523,0.002678,0.000431,0.000588
1291000,0.0324,0.013523,0.002678,0.000431,0.000353
1292000,0.0324,0.013523,0.002678,0.000431,0.000823
1293000,0.0324,0.013523,0.002678,0.000431,0.000353
1294000,0.0324,0.013523,0.002678,0.000431,0.000588
1295000,0.0324,0.013523,0.002678,0.000431,0.000470
1296000,0.0324,0.013523,0.002678,0.000431,0.000823
1297000,0.0324,0.013523,0.002678,0.000431,0.000353
1298000,0.0324,0.013523,0.002678,0.000431,0.000588
1299000,0.0324,0.013523,0.002678,0.000431,0.000353
1300000,0.0324,0.013523,0.002678,0.000431,0.000588
1301000,0.0324,0.013523,0.002678,0.000431,0.000353
1302000,0.0324,0.013523,0.002678,0.000431,0.000470
1303000,0.0324,0.013523,0.002678,0.000431,0.000353
1304000,0.0324,0.013523,0.002678,0.000431,0.000823
1305000,0.0324,0.013523,0.002678,0.000431,0.000353
1306000,0.0324,0.013523,0.002678,0.000431,0.000705
1307000,0.0324,0.013523,0.002678,0.000431,0.000353
1308000,0.0324,0.013523,0.002678,0.000431,0.000588
1309000,0.0324,0.013523,0.002678,0.000431,0.000353
1310000,0.0324,0.013523,0.002678,0.000431,0.000705
1311000,0.0324,0.013523,0.002678,0.000431,0.000353
1312000,0.0324,0.013523,0.002678,0.000431,0.000588
1313000,0.0324,0.013523,0.002678,0.000431,0.000470
1314000,0.0324,0.013523,0.002678,0.000431,0.000588
1315000,0.0324,0.013523,0.002678,0.000431,0.000588
1316000,0.0324,0.013523,0.002678,0.000431,0.000470
1317000,0.0324,0.013523,0.002678,0.000431,0.000705
1318000,0.0324,0.013523,0.002678,0.000431,0.000470
1319000,0.0324,0.013523,0.002678,0.000431,0.000588
1320000,0.0324,0.013523,0.002678,0.000431,0.000353
1321000,0.0324,0.013523,0.002678,0.000431,0.000470
1322000,0.0324,0.013523,0.002678,0.000431,0.000353
1323000,0.0324,0.013523,0.002678,0.000431,0.000588
1324000,0.0324,0.013523,0.002678,0.000431,0.000353
1325000,0.0324,0.013523,0.002678,0.000431,0.000588
1326000,0.0324,0.013523,0.002678,0.000431,0.000353
1327000,0.0324,0.013523,0.002678,0.000431,0.000705
1328000,0.0324,0.013523,0.002678,0.000431,0.000353
1329000,0.0324,0.013523,0.002678,0.000431,0.000588
1330000,0.0324,0.013523,0.002678,0.000431,0.000353
1331000,0.0324,0.013523,0.002678,0.000431,0.000705
1332000,0.0324,0.013523,0.002678,0.000431,0.000353
1333000,0.0324,0.013523,0.002678,0.000431,0.000588
1334000,0.0324,0.013523,0.002678,0.000431,0.000470
1335000,0.0324,0.013523,0.002678,0.000431,0.000588
1336000,0.0324,0.013523,0.002678,0.000431,0.000588
1337000,0.0324,0.013523,0.002678,0.000431,0.000705
1338000,0.0324,0.013523,0.002678,0.000431,0.000353
1339000,0.0324,0.013523,0.002678,0.000431,0.000588
1340000,0.0324,0.013523,0.002678,0.000431,0.000353
1341000,0.0324,0.013523,0.002678,0.000431,0.000470
1342000,0.0324,0.013523,0.002678,0.000431,0.000470
1343000,0.0324,0.013523,0.002678,0.000431,0.000588
1344000,0.0324,0.013523,0.002678,0.000431,0.000353
1345000,0.0324,0.013523,0.002678,0.000431,0.000588
1346000,0.0324,0.013523,0.002678,0.000431,0.000353
1347000,0.0324,0.013523,0.002678,0.000431,0.000588
1348000,0.0324,0.013523,0.002678,0.000431,0.000353
1349000,0.0324,0.013523,0.002678,0.000431,0.000588
1350000,0.0324,0.013523,0.002678,0.000431,0.000353
1351000,0.0324,0.013523,0.002678,0.000431,0.000588
1352000,0.0324,0.013523,0.002678,0.000431,0.000353
1353000,0.0324,0.013523,0.002678,0.000431,0.000705
1354000,0.0324,0.013523,0.002678,0.000431,0.000470
1355000,0.0324,0.013523,0.002678,0.000431,0.000588
1356000,0.0324,0.013523,0.002678,0.000431,0.000353
1357000,0.0324,0.013523,0.002678,0.000431,0.000588
1358000,0.0324,0.013523,0.002678,0.000431,0.000353
1359000,0.0324,0.013523,0.002678,0.000431,0.000588
1360000,0.0324,0.013523,0.002678,0.000431,0.000353
1361000,0.0324,0.013523,0.002678,0.000431,0.000588
1362000,0.0324,0.013523,0.002678,0.000431,0.000470
1363000,0.0324,0.013523,0.002678,0.000431,0.000588
1364000,0.0324,0.013523,0.002678,0.000431,0.000353
1365000,0.0324,0.013523,0.002678,0.000431,0.000470
1366000,0.0324,0.013523,0.002678,0.000431,0.000588
1367000,0.0324,0.013523,0.002678,0.000431,0.000588
1368000,0.0324,0.013523,0.002678,0.000431,0.000705
1369000,0.0324,0.013523,0.002678,0.000431,0.000353
1370000,0.0324,0.013523,0.002678,0.000431,0.000588
1371000,0.0324,0.013523,0.002678,0.000431,0.000353
1372000,0.0324,0.013523,0.002678,0.000431,0.000705
1373000,0.0324,0.013523,0.002678,0.000431,0.000588
1374000,0.0324,0.013523,0.002678,0.000431,0.000470
1375000,0.0324,0.013523,0.002678,0.000431,0.000705
1376000,0.0324,0.013523,0.002678,0.000431,0.000353
1377000,0.0324,0.013523,0.002678,0.000431,0.000588
1378000,0.0324,0.013523,0.002678,0.000431,0.000353
1379000,0.0324,0.013523,0.002678,0.000431,0.000588
1380000,0.0324,0.013523,0.002678,0.000431,0.000353
1381000,0.0324,0.013523,0.002678,0.000431,0.000588
1382000,0.0324,0.013523,0.002678,0.000431,0.000353
1383000,0.0324,0.013523,0.002678,0.000431,0.000588
1384000,0.0324,0.013523,0.002678,0.000431,0.000353
1385000,0.0324,0.013523,0.002678,0.000431,0.000588
1386000,0.0324,0.013523,0.002678,0.000431,0.000353
1387000,0.0324,0.013523,0.002678,0.000431,0.000588
1388000,0.0324,0.013523,0.002678,0.000431,0.000353
1389000,0.0324,0.013523,0.002678,0.000431,0.000823
1390000,0.0324,0.013523,0.002678,0.000431,0.000235
1391000,0.0324,0.013523,0.002678,0.000431,0.000705
1392000,0.0324,0.013523,0.002678,0.000431,0.000470
1393000,0.0324,0.013523,0.002678,0.000431,0.000588
1394000,0.0324,0.013523,0.002678,0.000431,0.000353
1395000,0.0324,0.013523,0.002678,0.000431,0.000588
1396000,0.0324,0.013523,0.002678,0.000431,0.000353
1397000,0.0324,0.013523,0.002678,0.000431,0.000705
1398000,0.0324,0.013523,0.002678,0.000431,0.000353
1399000,0.0324,0.013523,0.002678,0.000431,0.000705
1400000,0.0324,0.013523,0.002678,0.000431,0.000588
1401000,0.0324,0.013523,0.002678,0.000431,0.000470
1402000,0.0324,0.013523,0.002678,0.000431,0.000588
1403000,0.0324,0.013523,0.002678,0.000431,0.000353
1404000,0.0324,0.013523,0.002678,0.000431,0.000588
1405000,0.0324,0.013523,0.002678,0.000431,0.000470
1406000,0.0324,0.013523,0.002678,0.000431,0.000588
1407000,0.0324,0.013523,0.002678,0.000431,0.000470
1408000,0.0324,0.013523,0.002678,0.000431,0.000588
1409000,0.0324,0.013523,0.002678,0.000431,0.000353
1410000,0.0324,0.013523,0.002678,0.000431,0.000470
1411000,0.0324,0.013523,0.002678,0.000431,0.000470
1412000,0.0324,0.013523,0.002678,0.000431,0.000470
1413000,0.0324,0.013523,0.002678,0.000431,0.000470
1414000,0.0324,0.013523,0.002678,0.000431,0.000353
1415000,0.0324,0.013523,0.002678,0.000431,0.000588
1416000,0.0324,0.013523,0.002678,0.000431,0.000353
1417000,0.0324,0.013523,0.002678,0.000431,0.000588
1418000,0.0324,0.013523,0.002678,0.000431,0.000353
1419000,0.0324,0.013523,0.002678,0.000431,0.000588
1420000,0.0324,0.013523,0.002678,0.000431,0.000353
1421000,0.0324,0.013523,0.002678,0.000431,0.000588
1422000,0.0324,0.013523,0.002678,0.000431,0.000353
1423000,0.0324,0.013523,0.002678,0.000431,0.000588
1424000,0.0324,0.013523,0.002678,0.000431,0.000353
1425000,0.0324,0.013523,0.002678,0.000431,0.000588
1426000,0.0324,0.013523,0.002678,0.000431,0.000353
1427000,0.0324,0.013523,0.002678,0.000431,0.000588
1428000,0.0324,0.013523,0.002678,0.000431,0.000353
1429000,0.0324,0.013523,0.002678,0.000431,0.000588
1430000,0.0324,0.013523,0.002678,0.000431,0.000353
1431000,0.0324,0.013523,0.002678,0.000431,0.000588
1432000,0.0324,0.013523,0.002678,0.000431,0.000353
1433000,0.0324,0.013523,0.002678,0.000431,0.000705
1434000,0.0324,0.013523,0.002678,0.000431,0.000353
1435000,0.0324,0.013523,0.002678,0.000431,0.000470
1436000,0.0324,0.013523,0.002678,0.000431,0.000353
1437000,0.0324,0.013523,0.002678,0.000431,0.000588
1438000,0.0324,0.013523,0.002678,0.000431,0.000353
1439000,0.0324,0.013523,0.002678,0.000431,0.000588
1440000,0.0324,0.013523,0.002678,0.000431,0.000470
1441000,0.0324,0.013523,0.002678,0.000431,0.000588
1442000,0.0324,0.013523,0.002678,0.000431,0.000353
1443000,0.0324,0.013523,0.002678,0.000431,0.000470
1444000,0.0324,0.013523,0.002678,0.000431,0.000470
1445000,0.0324,0.013523,0.002678,0.000431,0.000470
1446000,0.0324,0.013523,0.002678,0.000431,0.000470
1447000,0.0324,0.013523,0.002678,0.000431,0.000353
1448000,0.0324,0.013523,0.002678,0.000431,0.000588
1449000,0.0324,0.013523,0.002678,0.000431,0.000353
1450000,0.0324,0.013523,0.002678,0.000431,0.000470
1451000,0.0324,0.013523,0.002678,0.000431,0.000470
1452000,0.0324,0.013523,0.002678,0.000431,0.000470
1453000,0.0324,0.013523,0.002678,0.000431,0.000470
1454000,0.0324,0.013523,0.002678,0.000431,0.000588
1455000,0.0324,0.013523,0.002678,0.000431,0.000353
1456000,0.0324,0.013523,0.002678,0.000431,0.000588
1457000,0.0324,0.013523,0.002678,0.000431,0.000353
1458000,0.0324,0.013523,0.002678,0.000431,0.000705
1459000,0.0324,0.013523,0.002678,0.000431,0.000470
1460000,0.0324,0.013523,0.002678,0.000431,0.000470
1461000,0.0324,0.013523,0.002678,0.000431,0.000470
1462000,0.0324,0.013523,0.002678,0.000431,0.000470
1463000,0.0324,0.013523,0.002678,0.000431,0.000470
1464000,0.0324,0.013523,0.002678,0.000431,0.000470
1465000,0.0324,0.013523,0.002678,0.000431,0.000470
1466000,0.0324,0.013523,0.002678,0.000431,0.000588
1467000,0.0324,0.013523,0.002678,0.000431,0.000353
1468000,0.0324,0.013523,0.002678,0.000431,0.000470
1469000,0.0324,0.013523,0.002678,0.000431,0.000470
1470000,0.0324,0.013523,0.002678,0.000431,0.000705
1471000,0.0324,0.013523,0.002678,0.000431,0.000470
1472000,0.0324,0.013523,0.002678,0.000431,0.000470
1473000,0.0324,0.013523,0.002678,0.000431,0.000353
1474000,0.0324,0.013523,0.002678,0.000431,0.000705
1475000,0.0324,0.013523,0.002678,0.000431,0.000353
1476000,0.0324,0.013523,0.002678,0.000431,0.000705
1477000,0.0324,0.013523,0.002678,0.000431,0.000588
1478000,0.0324,0.013523,0.002678,0.000431,0.000470
1479000,0.0324,0.013523,0.002678,0.000431,0.000588
1480000,0.0324,0.013523,0.002678,0.000431,0.000353
1481000,0.0324,0.013523,0.002678,0.000431,0.000588
1482000,0.0324,0.013523,0.002678,0.000431,0.000353
1483000,0.0324,0.013523,0.002678,0.000431,0.000588
1484000,0.0324,0.013523,0.002678,0.000431,0.000470
1485000,0.0324,0.013523,0.002678,0.000431,0.000470
1486000,0.0324,0.013523,0.002678,0.000431,0.000470
1487000,0.0324,0.013523,0.002678,0.000431,0.000588
1488000,0.0324,0.013523,0.002678,0.000431,0.000470
1489000,0.0324,0.013523,0.002678,0.000431,0.000588
1490000,0.0324,0.013523,0.002678,0.000431,0.000353
1491000,0.0324,0.013523,0.002678,0.000431,0.000588
1492000,0.0324,0.013523,0.002678,0.000431,0.000470
1493000,0.0324,0.013523,0.002678,0.000431,0.000470
1494000,0.0324,0.013523,0.002678,0.000431,0.000470
1495000,0.0324,0.013523,0.002678,0.000431,0.000470
1496000,0.0324,0.013523,0.002678,0.000431,0.000588
1497000,0.0324,0.013523,0.002678,0.000431,0.000353
1498000,0.0324,0.013523,0.002678,0.000431,0.000588
1499000,0.0324,0.013523,0.002678,0.000431,0.000353
1500000,0.0324,0.013523,0.002678,0.000431,0.000588
1501000,0.0324,0.013523,0.002678,0.000431,0.000353
1502000,0.0324,0.013523,0.002678,0.000431,0.000588
1503000,0.0324,0.013523,0.002678,0.000431,0.000470
1504000,0.0324,0.013523,0.002678,0.000431,0.000705
1505000,0.0324,0.013523,0.002678,0.000431,0.000353
1506000,0.0324,0.013523,0.002678,0.000431,0.000705
1507000,0.0324,0.013523,0.002678,0.000431,0.000470
1508000,0.0324,0.013523,0.002678,0.000431,0.000588
1509000,0.0324,0.013523,0.002678,0.000431,0.000353
1510000,0.0324,0.013523,0.002678,0.000431,0.000588
1511000,0.0324,0.013523,0.002678,0.000431,0.000353
1512000,0.0324,0.013523,0.002678,0.000431,0.000705
1513000,0.0324,0.013523,0.002678,0.000431,0.000470
1514000,0.0324,0.013523,0.002678,0.000431,0.000470
1515000,0.0324,0.013523,0.002678,0.000431,0.000470
1516000,0.0324,0.013523,0.002678,0.000431,0.000470
1517000,0.0324,0.013523,0.002678,0.000431,0.000470
1518000,0.0324,0.013523,0.002678,0.000431,0.000470
1519000,0.0324,0.013523,0.002678,0.000431,0.000470
1520000,0.0324,0.013523,0.002678,0.000431,0.000470
1521000,0.0324,0.013523,0.002678,0.000431,0.000470
1522000,0.0324,0.013523,0.002678,0.000431,0.000588
1523000,0.0324,0.013523,0.002678,0.000431,0.000353
1524000,0.0324,0.013523,0.002678,0.000431,0.000588
1525000,0.0324,0.013523,0.002678,0.000431,0.000353
1526000,0.0324,0.013523,0.002678,0.000431,0.000470
1527000,0.0324,0.013523,0.002678,0.000431,0.000470
1528000,0.0324,0.013523,0.002678,0.000431,0.000470
1529000,0.0324,0.013523,0.002678,0.000431,0.000470
1530000,0.0324,0.013523,0.002678,0.000431,0.000588
1531000,0.0324,0.013523,0.002678,0.000431,0.000470
1532000,0.0324,0.013523,0.002678,0.000431,0.000705
1533000,0.0324,0.013523,0.002678,0.000431,0.000353
1534000,0.0324,0.013523,0.002678,0.000431,0.000588
1535000,0.0324,0.013523,0.002678,0.000431,0.000353
1536000,0.0324,0.013523,0.002678,0.000431,0.000588
1537000,0.0324,0.013523,0.002678,0.000431,0.000353
1538000,0.0324,0.013523,0.002678,0.000431,0.000588
1539000,0.0324,0.013523,0.002678,0.000431,0.000353
1540000,0.0324,0.013523,0.002678,0.000431,0.000588
1541000,0.0324,0.013523,0.002678,0.000431,0.000353
1542000,0.0324,0.013523,0.002678,0.000431,0.000588
1543000,0.0324,0.013523,0.002678,0.000431,0.000353
1544000,0.0324,0.013523,0.002678,0.000431,0.000588
1545000,0.0324,0.013523,0.002678,0.000431,0.000353
1546000,0.0324,0.013523,0.002678,0.000431,0.000588
1547000,0.0324,0.013523,0.002678,0.000431,0.000353
1548000,0.0324,0.013523,0.002678,0.000431,0.000588
1549000,0.0324,0.013523,0.002678,0.000431,0.000353
1550000,0.0324,0.013523,0.002678,0.000431,0.000588
1551000,0.0324,0.013523,0.002678,0.000431,0.000353
1552000,0.0324,0.013523,0.002678,0.000431,0.000470
1553000,0.0324,0.013523,0.002678,0.000431,0.000470
1554000,0.0324,0.013523,0.002678,0.000431,0.000470
1555000,0.0324,0.013523,0.002678,0.000431,0.000470
1556000,0.0324,0.013523,0.002678,0.000431,0.000588
1557000,0.0324,0.013523,0.002678,0.000431,0.000470
1558000,0.0324,0.013523,0.002678,0.000431,0.000353
1559000,0.0324,0.013523,0.002678,0.000431,0.000588
1560000,0.0324,0.013523,0.002678,0.000431,0.000353
1561000,0.0324,0.013523,0.002678,0.000431,0.000588
1562000,0.0324,0.013523,0.002678,0.000431,0.000353
1563000,0.0324,0.013523,0.002678,0.000431,0.000588
1564000,0.0324,0.013523,0.002678,0.000431,0.000353
1565000,0.0324,0.013523,0.002678,0.000431,0.000588
1566000,0.0324,0.013523,0.002678,0.000431,0.000353
1567000,0.0324,0.013523,0.002678,0.000431,0.000705
1568000,0.0324,0.013523,0.002678,0.000431,0.000470
1569000,0.0324,0.013523,0.002678,0.000431,0.000588
1570000,0.0324,0.013523,0.002678,0.000431,0.000353
1571000,0.0324,0.013523,0.002678,0.000431,0.000705
1572000,0.0324,0.013523,0.002678,0.000431,0.000588
1573000,0.0324,0.013523,0.002678,0.000431,0.000470
1574000,0.0324,0.013523,0.002678,0.000431,0.000588
1575000,0.0324,0.013523,0.002678,0.000431,0.000470
1576000,0.0324,0.013523,0.002678,0.000431,0.000470
1577000,0.0324,0.013523,0.002678,0.000431,0.000470
1578000,0.0324,0.013523,0.002678,0.000431,0.000470
1579000,0.0324,0.013523,0.002678,0.000431,0.000470
1580000,0.0324,0.013523,0.002678,0.000431,0.000470
1581000,0.0324,0.013523,0.002678,0.000431,0.000470
1582000,0.0324,0.013523,0.002678,0.000431,0.000470
1583000,0.0324,0.013523,0.002678,0.000431,0.000588
1584000,0.0324,0.013523,0.002678,0.000431,0.000353
1585000,0.0324,0.013523,0.002678,0.000431,0.000823
1586000,0.0324,0.013523,0.002678,0.000431,0.000353
1587000,0.0324,0.013523,0.002678,0.000431,0.000588
1588000,0.0324,0.013523,0.002678,0.000431,0.000353
1589000,0.0324,0.013523,0.002678,0.000431,0.000588
1590000,0.0324,0.013523,0.002678,0.000431,0.000353
1591000,0.0324,0.013523,0.002678,0.000431,0.000588
1592000,0.0324,0.013523,0.002678,0.000431,0.000353
1593000,0.0324,0.013523,0.002678,0.000431,0.000588
1594000,0.0324,0.013523,0.002678,0.000431,0.000353
1595000,0.0324,0.013523,0.002678,0.000431,0.000588
1596000,0.0324,0.013523,0.002678,0.000431,0.000353
1597000,0.0324,0.013523,0.002678,0.000431,0.000705
1598000,0.0324,0.013523,0.002678,0.000431,0.000470
1599000,0.0324,0.013523,0.002678,0.000431,0.000470
1600000,0.0324,0.013523,0.002678,0.000431,0.000470
1601000,0.0324,0.013523,0.002678,0.000431,0.000705
1602000,0.0324,0.013523,0.002678,0.000431,0.000588
1603000,0.0324,0.013523,0.002678,0.000431,0.000470
1604000,0.0324,0.013523,0.002678,0.000431,0.000470
1605000,0.0324,0.013523,0.002678,0.000431,0.000470
1606000,0.0324,0.013523,0.002678,0.000431,0.000705
1607000,0.0324,0.013523,0.002678,0.000431,0.000353
1608000,0.0324,0.013523,0.002678,0.000431,0.000588
1609000,0.0324,0.013523,0.002678,0.000431,0.000470
1610000,0.0324,0.013523,0.002678,0.000431,0.000588
1611000,0.0324,0.013523,0.002678,0.000431,0.000353
1612000,0.0324,0.013523,0.002678,0.000431,0.000588
1613000,0.0324,0.013523,0.002678,0.000431,0.000353
1614000,0.0324,0.013523,0.002678,0.000431,0.000588
1615000,0.0324,0.013523,0.002678,0.000431,0.000353
1616000,0.0324,0.013523,0.002678,0.000431,0.000705
1617000,0.0324,0.013523,0.002678,0.000431,0.000353
1618000,0.0324,0.013523,0.002678,0.000431,0.000705
1619000,0.0324,0.013523,0.002678,0.000431,0.000588
1620000,0.0324,0.013523,0.002678,0.000431,0.000470
1621000,0.0324,0.013523,0.002678,0.000431,0.000705
1622000,0.0324,0.013523,0.002678,0.000431,0.000353
1623000,0.0324,0.013523,0.002678,0.000431,0.000470
1624000,0.0324,0.013523,0.002678,0.000431,0.000470
1625000,0.0324,0.013523,0.002678,0.000431,0.000470
1626000,0.0324,0.013523,0.002678,0.000431,0.000470
1627000,0.0324,0.013523,0.002678,0.000431,0.000470
1628000,0.0324,0.013523,0.002678,0.000431,0.000470
1629000,0.0324,0.013523,0.002678,0.000431,0.000470
1630000,0.0324,0.013523,0.002678,0.000431,0.000470
1631000,0.0324,0.013523,0.002678,0.000431,0.000470
1632000,0.0324,0.013523,0.002678,0.000431,0.000470
1633000,0.0324,0.013523,0.002678,0.000431,0.000588
1634000,0.0324,0.013523,0.002678,0.000431,0.000470
1635000,0.0324,0.013523,0.002678,0.000431,0.000705
1636000,0.0324,0.013523,0.002678,0.000431,0.000353
1637000,0.0324,0.013523,0.002678,0.000431,0.000588
1638000,0.0324,0.013523,0.002678,0.000431,0.000353
1639000,0.0324,0.013523,0.002678,0.000431,0.000705
1640000,0.0324,0.013523,0.002678,0.000431,0.000353
1641000,0.0324,0.013523,0.002678,0.000431,0.000588
1642000,0.0324,0.013523,0.002678,0.000431,0.000353
1643000,0.0324,0.013523,0.002678,0.000431,0.000588
1644000,0.0324,0.013523,0.002678,0.000431,0.000470
1645000,0.0324,0.013523,0.002678,0.000431,0.000588
1646000,0.0324,0.013523,0.002678,0.000431,0.000470
1647000,0.0324,0.013523,0.002678,0.000431,0.000588
1648000,0.0324,0.013523,0.002678,0.000431,0.000353
1649000,0.0324,0.013523,0.002678,0.000431,0.000470
1650000,0.0324,0.013523,0.002678,0.000431,0.000470
1651000,0.0324,0.013523,0.002678,0.000431,0.000470
1652000,0.0324,0.013523,0.002678,0.000431,0.000470
1653000,0.0324,0.013523,0.002678,0.000431,0.000470
1654000,0.0324,0.013523,0.002678,0.000431,0.000470
1655000,0.0324,0.013523,0.002678,0.000431,0.000353
1656000,0.0324,0.013523,0.002678,0.000431,0.000823
1657000,0.0324,0.013523,0.002678,0.000431,0.000353
1658000,0.0324,0.013523,0.002678,0.000431,0.000588
1659000,0.0324,0.013523,0.002678,0.000431,0.000353
1660000,0.0324,0.013523,0.002678,0.000431,0.000588
1661000,0.0324,0.013523,0.002678,0.000431,0.000353
1662000,0.0324,0.013523,0.002678,0.000431,0.000705
1663000,0.0324,0.013523,0.002678,0.000431,0.000588
1664000,0.0324,0.013523,0.002678,0.000431,0.000470
1665000,0.0324,0.013523,0.002678,0.000431,0.000705
1666000,0.0324,0.013523,0.002678,0.000431,0.000353
1667000,0.0324,0.013523,0.002678,0.000431,0.000588
1668000,0.0324,0.013523,0.002678,0.000431,0.000353
1669000,0.0324,0.013523,0.002678,0.000431,0.000588
1670000,0.0324,0.013523,0.002678,0.000431,0.000353
1671000,0.0324,0.013523,0.002678,0.000431,0.000588
1672000,0.0324,0.013523,0.002678,0.000431,0.000353
1673000,0.0324,0.013523,0.002678,0.000431,0.000588
1674000,0.0324,0.013523,0.002678,0.000431,0.000353
1675000,0.0324,0.013523,0.002678,0.000431,0.000470
1676000,0.0324,0.013523,0.002678,0.000431,0.000470
1677000,0.0324,0.013523,0.002678,0.000431,0.000470
1678000,0.0324,0.013523,0.002678,0.000431,0.000470
1679000,0.0324,0.013523,0.002678,0.000431,0.000470
1680000,0.0324,0.013523,0.002678,0.000431,0.000470
1681000,0.0324,0.013523,0.002678,0.000431,0.000470
1682000,0.0324,0.013523,0.002678,0.000431,0.000470
1683000,0.0324,0.013523,0.002678,0.000431,0.000470
1684000,0.0324,0.013523,0.002678,0.000431,0.000470
1685000,0.0324,0.013523,0.002678,0.000431,0.000470
1686000,0.0324,0.013523,0.002678,0.000431,0.000470
1687000,0.0324,0.013523,0.002678,0.000431,0.000470
1688000,0.0324,0.013523,0.002678,0.000431,0.000470
1689000,0.0324,0.013523,0.002678,0.000431,0.000470
1690000,0.0324,0.013523,0.002678,0.000431,0.000470
1691000,0.0324,0.013523,0.002678,0.000431,0.000588
1692000,0.0324,0.013523,0.002678,0.000431,0.000470
1693000,0.0324,0.013523,0.002678,0.000431,0.000705
1694000,0.0324,0.013523,0.002678,0.000431,0.000353
1695000,0.0324,0.013523,0.002678,0.000431,0.000588
1696000,0.0324,0.013523,0.002678,0.000431,0.000470
1697000,0.0324,0.013523,0.002678,0.000431,0.000588
1698000,0.0324,0.013523,0.002678,0.000431,0.000588
1699000,0.0324,0.013523,0.002678,0.000431,0.000588
1700000,0.0324,0.013523,0.002678,0.000431,0.000470
1701000,0.0324,0.013523,0.002678,0.000431,0.000470
1702000,0.0324,0.013523,0.002678,0.000431,0.000470
1703000,0.0324,0.013523,0.002678,0.000431,0.000470
1704000,0.0324,0.013523,0.002678,0.000431,0.000588
1705000,0.0324,0.013523,0.002678,0.000431,0.000470
1706000,0.0324,0.013523,0.002678,0.000431,0.000705
1707000,0.0324,0.013523,0.002678,0.000431,0.000353
1708000,0.0324,0.013523,0.002678,0.000431,0.000588
1709000,0.0324,0.013523,0.002678,0.000431,0.000353
1710000,0.0324,0.013523,0.002678,0.000431,0.000588
1711000,0.0324,0.013523,0.002678,0.000431,0.000353
1712000,0.0324,0.013523,0.002678,0.000431,0.000588
1713000,0.0324,0.013523,0.002678,0.000431,0.000353
1714000,0.0324,0.013523,0.002678,0.000431,0.000588
1715000,0.0324,0.013523,0.002678,0.000431,0.000353
1716000,0.0324,0.013523,0.002678,0.000431,0.000588
1717000,0.0324,0.013523,0.002678,0.000431,0.000470
1718000,0.0324,0.013523,0.002678,0.000431,0.000588
1719000,0.0324,0.013523,0.002678,0.000431,0.000353
1720000,0.0324,0.013523,0.002678,0.000431,0.000470
1721000,0.0324,0.013523,0.002678,0.000431,0.000470
1722000,0.0324,0.013523,0.002678,0.000431,0.000470
1723000,0.0324,0.013523,0.002678,0.000431,0.000705
1724000,0.0324,0.013523,0.002678,0.000431,0.000470
1725000,0.0324,0.013523,0.002678,0.000431,0.000470
1726000,0.0324,0.013523,0.002678,0.000431,0.000353
1727000,0.0324,0.013523,0.002678,0.000431,0.000588
1728000,0.0324,0.013523,0.002678,0.000431,0.000353
1729000,0.0324,0.013523,0.002678,0.000431,0.000588
1730000,0.0324,0.013523,0.002678,0.000431,0.000353
1731000,0.0324,0.013523,0.002678,0.000431,0.000705
1732000,0.0324,0.013523,0.002678,0.000431,0.000470
1733000,0.0324,0.013523,0.002678,0.000431,0.000470
1734000,0.0324,0.013523,0.002678,0.000431,0.000470
1735000,0.0324,0.013523,0.002678,0.000431,0.000588
1736000,0.0324,0.013523,0.002678,0.000431,0.000353
1737000,0.0324,0.013523,0.002678,0.000431,0.000470
1738000,0.0324,0.013523,0.002678,0.000431,0.000470
1739000,0.0324,0.013523,0.002678,0.000431,0.000470
1740000,0.0324,0.013523,0.002678,0.000431,0.000470
1741000,0.0324,0.013523,0.002678,0.000431,0.000588
1742000,0.0324,0.013523,0.002678,0.000431,0.000353
1743000,0.0324,0.013523,0.002678,0.000431,0.000588
1744000,0.0324,0.013523,0.002678,0.000431,0.000353
1745000,0.0324,0.013523,0.002678,0.000431,0.000588
1746000,0.0324,0.013523,0.002678,0.000431,0.000353
1747000,0.0324,0.013523,0.002678,0.000431,0.000588
1748000,0.0324,0.013523,0.002678,0.000431,0.000353
1749000,0.0324,0.013523,0.002678,0.000431,0.000588
1750000,0.0324,0.013523,0.002678,0.000431,0.000353
1751000,0.0324,0.013523,0.002678,0.000431,0.000588
1752000,0.0324,0.013523,0.002678,0.000431,0.000353
1753000,0.0324,0.013523,0.002678,0.000431,0.000470
1754000,0.0324,0.013523,0.002678,0.000431,0.000470
1755000,0.0324,0.013523,0.002678,0.000431,0.000470
1756000,0.0324,0.013523,0.002678,0.000431,0.000470
1757000,0.0324,0.013523,0.002678,0.000431,0.000588
1758000,0.0324,0.013523,0.002678,0.000431,0.000470
1759000,0.0324,0.013523,0.002678,0.000431,0.000705
1760000,0.0324,0.013523,0.002678,0.000431,0.000353
1761000,0.0324,0.013523,0.002678,0.000431,0.000705
1762000,0.0324,0.013523,0.002678,0.000431,0.000470
1763000,0.0324,0.013523,0.002678,0.000431,0.000470
1764000,0.0324,0.013523,0.002678,0.000431,0.000470
1765000,0.0324,0.013523,0.002678,0.000431,0.000705
1766000,0.0324,0.013523,0.002678,0.000431,0.000470
1767000,0.0324,0.013523,0.002678,0.000431,0.000470
1768000,0.0324,0.013523,0.002678,0.000431,0.000470
1769000,0.0324,0.013523,0.002678,0.000431,0.000588
1770000,0.0324,0.013523,0.002678,0.000431,0.000353
1771000,0.0324,0.013523,0.002678,0.000431,0.000588
1772000,0.0324,0.013523,0.002678,0.000431,0.000353
1773000,0.0324,0.013523,0.002678,0.000431,0.000588
1774000,0.0324,0.013523,0.002678,0.000431,0.000353
1775000,0.0324,0.013523,0.002678,0.000431,0.000588
1776000,0.0324,0.013523,0.002678,0.000431,0.000353
1777000,0.0324,0.013523,0.002678,0.000431,0.000588
1778000,0.0324,0.013523,0.002678,0.000431,0.000353
1779000,0.0324,0.013523,0.002678,0.000431,0.000470
1780000,0.0324,0.013523,0.002678,0.000431,0.000470
1781000,0.0324,0.013523,0.002678,0.000431,0.000470
1782000,0.0324,0.013523,0.002678,0.000431,0.000470
1783000,0.0324,0.013523,0.002678,0.000431,0.000470
1784000,0.0324,0.013523,0.002678,0.000431,0.000470
1785000,0.0324,0.013523,0.002678,0.000431,0.000588
1786000,0.0324,0.013523,0.002678,0.000431,0.000588
1787000,0.0324,0.013523,0.002678,0.000431,0.000470
1788000,0.0324,0.013523,0.002678,0.000431,0.000588
1789000,0.0324,0.013523,0.002678,0.000431,0.000353
1790000,0.0324,0.013523,0.002678,0.000431,0.000705
1791000,0.0324,0.013523,0.002678,0.000431,0.000588
1792000,0.0324,0.013523,0.002678,0.000431,0.000470
1793000,0.0324,0.013523,0.002678,0.000431,0.000588
1794000,0.0324,0.013523,0.002678,0.000431,0.000353
1795000,0.0324,0.013523,0.002678,0.000431,0.000588
1796000,0.0324,0.013523,0.002678,0.000431,0.000470
1797000,0.0324,0.013523,0.002678,0.000431,0.000470
1798000,0.0324,0.013523,0.002678,0.000431,0.000353
1799000,0.0324,0.013523,0.002678,0.000431,0.000588
1800000,0.0324,0.013523,0.002678,0.000431,0.000353
1801000,0.0324,0.013523,0.002678,0.000431,0.000588
1802000,0.0324,0.013523,0.002678,0.000431,0.000470
1803000,0.0324,0.013523,0.002678,0.000431,0.000470
1804000,0.0324,0.013523,0.002678,0.000431,0.000470
1805000,0.0324,0.013523,0.002678,0.000431,0.000470
1806000,0.0324,0.013523,0.002678,0.000431,0.000470
1807000,0.0324,0.013523,0.002678,0.000431,0.000470
1808000,0.0324,0.013523,0.002678,0.000431,0.000470
1809000,0.0324,0.013523,0.002678,0.000431,0.000353
1810000,0.0324,0.013523,0.002678,0.000431,0.000588
1811000,0.0324,0.013523,0.002678,0.000431,0.000353
1812000,0.0324,0.013523,0.002678,0.000431,0.000588
1813000,0.0324,0.013523,0.002678,0.000431,0.000353
1814000,0.0324,0.013523,0.002678,0.000431,0.000588
1815000,0.0324,0.013523,0.002678,0.000431,0.000353
1816000,0.0324,0.013523,0.002678,0.000431,0.000588
1817000,0.0324,0.013523,0.002678,0.000431,0.000353
1818000,0.0324,0.013523,0.002678,0.000431,0.000588
1819000,0.0324,0.013523,0.002678,0.000431,0.000353
1820000,0.0324,0.013523,0.002678,0.000431,0.000588
1821000,0.0324,0.013523,0.002678,0.000431,0.000353
1822000,0.0324,0.013523,0.002678,0.000431,0.000588
1823000,0.0324,0.013523,0.002678,0.000431,0.000353
1824000,0.0324,0.013523,0.002678,0.000431,0.000588
1825000,0.0324,0.013523,0.002678,0.000431,0.000353
1826000,0.0324,0.013523,0.002678,0.000431,0.000588
1827000,0.0324,0.013523,0.002678,0.000431,0.000353
1828000,0.0324,0.013523,0.002678,0.000431,0.000588
1829000,0.0324,0.013523,0.002678,0.000431,0.000353
1830000,0.0324,0.013523,0.002678,0.000431,0.000588
1831000,0.0324,0.013523,0.002678,0.000431,0.000353
1832000,0.0324,0.013523,0.002678,0.000431,0.000588
1833000,0.0324,0.013523,0.002678,0.000431,0.000353
1834000,0.0324,0.013523,0.002678,0.000431,0.000588
1835000,0.0324,0.013523,0.002678,0.000431,0.000353
1836000,0.0324,0.013523,0.002678,0.000431,0.000705
1837000,0.0324,0.013523,0.002678,0.000431,0.000470
1838000,0.0324,0.013523,0.002678,0.000431,0.000470
1839000,0.0324,0.013523,0.002678,0.000431,0.000470
1840000,0.0324,0.013523,0.002678,0.000431,0.000470
1841000,0.0324,0.013523,0.002678,0.000431,0.000470
1842000,0.0324,0.013523,0.002678,0.000431,0.000353
1843000,0.0324,0.013523,0.002678,0.000431,0.000588
1844000,0.0324,0.013523,0.002678,0.000431,0.000353
1845000,0.0324,0.013523,0.002678,0.000431,0.000588
1846000,0.0324,0.013523,0.002678,0.000431,0.000353
1847000,0.0324,0.013523,0.002678,0.000431,0.000588
1848000,0.0324,0.013523,0.002678,0.000431,0.000353
1849000,0.0324,0.013523,0.002678,0.000431,0.000588
1850000,0.0324,0.013523,0.002678,0.000431,0.000353
1851000,0.0324,0.013523,0.002678,0.000431,0.000588
1852000,0.0324,0.013523,0.002678,0.000431,0.000353
1853000,0.0324,0.013523,0.002678,0.000431,0.000588
1854000,0.0324,0.013523,0.002678,0.000431,0.000353
1855000,0.0324,0.013523,0.002678,0.000431,0.000588
1856000,0.0324,0.013523,0.002678,0.000431,0.000353
1857000,0.0324,0.013523,0.002678,0.000431,0.000588
1858000,0.0324,0.013523,0.002678,0.000431,0.000353
1859000,0.0324,0.013523,0.002678,0.000431,0.000588
1860000,0.0324,0.013523,0.002678,0.000431,0.000353
1861000,0.0324,0.013523,0.002678,0.000431,0.000588
1862000,0.0324,0.013523,0.002678,0.000431,0.000353
1863000,0.0324,0.013523,0.002678,0.000431,0.000588
1864000,0.0324,0.013523,0.002678,0.000431,0.000353
1865000,0.0324,0.013523,0.002678,0.000431,0.000823
1866000,0.0324,0.013523,0.002678,0.000431,0.000353
1867000,0.0324,0.013523,0.002678,0.000431,0.000588
1868000,0.0324,0.013523,0.002678,0.000431,0.000353
1869000,0.0324,0.013523,0.002678,0.000431,0.000588
1870000,0.0324,0.013523,0.002678,0.000431,0.000353
1871000,0.0324,0.013523,0.002678,0.000431,0.000470
1872000,0.0324,0.013523,0.002678,0.000431,0.000470
1873000,0.0324,0.013523,0.002678,0.000431,0.000588
1874000,0.0324,0.013523,0.002678,0.000431,0.000470
1875000,0.0324,0.013523,0.002678,0.000431,0.000588
1876000,0.0324,0.013523,0.002678,0.000431,0.000353
1877000,0.0324,0.013523,0.002678,0.000431,0.000588
1878000,0.0324,0.013523,0.002678,0.000431,0.000353
1879000,0.0324,0.013523,0.002678,0.000431,0.000588
1880000,0.0324,0.013523,0.002678,0.000431,0.000470
1881000,0.0324,0.013523,0.002678,0.000431,0.000588
1882000,0.0324,0.013523,0.002678,0.000431,0.000470
1883000,0.0324,0.013523,0.002678,0.000431,0.000588
1884000,0.0324,0.013523,0.002678,0.000431,0.000353
1885000,0.0324,0.013523,0.002678,0.000431,0.000588
1886000,0.0324,0.013523,0.002678,0.000431,0.000470
1887000,0.0324,0.013523,0.002678,0.000431,0.000470
1888000,0.0324,0.013523,0.002678,0.000431,0.000353
1889000,0.0324,0.013523,0.002678,0.000431,0.000705
1890000,0.0324,0.013523,0.002678,0.000431,0.000470
1891000,0.0324,0.013523,0.002678,0.000431,0.000705
1892000,0.0324,0.013523,0.002678,0.000431,0.000353
1893000,0.0324,0.013523,0.002678,0.000431,0.000588
1894000,0.0324,0.013523,0.002678,0.000431,0.000353
1895000,0.0324,0.013523,0.002678,0.000431,0.000705
1896000,0.0324,0.013523,0.002678,0.000431,0.000470
1897000,0.0324,0.013523,0.002678,0.000431,0.000588
1898000,0.0324,0.013523,0.002678,0.000431,0.000353
1899000,0.0324,0.013523,0.002678,0.000431,0.000705
1900000,0.0324,0.013523,0.002678,0.000431,0.000588
1901000,0.0324,0.013523,0.002678,0.000431,0.000470
1902000,0.0324,0.013523,0.002678,0.000431,0.000705
1903000,0.0324,0.013523,0.002678,0.000431,0.000353
1904000,0.0324,0.013523,0.002678,0.000431,0.000705
1905000,0.0324,0.013523,0.002678,0.000431,0.000588
1906000,0.0324,0.013523,0.002678,0.000431,0.000470
1907000,0.0324,0.013523,0.002678,0.000431,0.000588
1908000,0.0324,0.013523,0.002678,0.000431,0.000353
1909000,0.0324,0.013523,0.002678,0.000431,0.000470
1910000,0.0324,0.013523,0.002678,0.000431,0.000705
1911000,0.0324,0.013523,0.002678,0.000431,0.000470
1912000,0.0324,0.013523,0.002678,0.000431,0.000470
1913000,0.0324,0.013523,0.002678,0.000431,0.000353
1914000,0.0324,0.013523,0.002678,0.000431,0.000588
1915000,0.0324,0.013523,0.002678,0.000431,0.000353
1916000,0.0324,0.013523,0.002678,0.000431,0.000588
1917000,0.0324,0.013523,0.002678,0.000431,0.000353
1918000,0.0324,0.013523,0.002678,0.000431,0.000705
1919000,0.0324,0.013523,0.002678,0.000431,0.000470
1920000,0.0324,0.013523,0.002678,0.000431,0.000470
1921000,0.0324,0.013523,0.002678,0.000431,0.000470
1922000,0.0324,0.013523,0.002678,0.000431,0.000705
1923000,0.0324,0.013523,0.002678,0.000431,0.000353
1924000,0.0324,0.013523,0.002678,0.000431,0.000470
1925000,0.0324,0.013523,0.002678,0.000431,0.000353
1926000,0.0324,0.013523,0.002678,0.000431,0.000705
1927000,0.0324,0.013523,0.002678,0.000431,0.000353
1928000,0.0324,0.013523,0.002678,0.000431,0.000588
1929000,0.0324,0.013523,0.002678,0.000431,0.000353
1930000,0.0324,0.013523,0.002678,0.000431,0.000588
1931000,0.0324,0.013523,0.002678,0.000431,0.000353
1932000,0.0324,0.013523,0.002678,0.000431,0.000588
1933000,0.0324,0.013523,0.002678,0.000431,0.000235
1934000,0.0324,0.013523,0.002678,0.000431,0.000588
1935000,0.0324,0.013523,0.002678,0.000431,0.000470
1936000,0.0324,0.013523,0.002678,0.000431,0.000705
1937000,0.0324,0.013523,0.002678,0.000431,0.000353
1938000,0.0324,0.013523,0.002678,0.000431,0.000588
1939000,0.0324,0.013523,0.002678,0.000431,0.000353
1940000,0.0324,0.013523,0.002678,0.000431,0.000588
1941000,0.0324,0.013523,0.002678,0.000431,0.000353
1942000,0.0324,0.013523,0.002678,0.000431,0.000470
1943000,0.0324,0.013523,0.002678,0.000431,0.000470
1944000,0.0324,0.013523,0.002678,0.000431,0.000470
1945000,0.0324,0.013523,0.002678,0.000431,0.000470
1946000,0.0324,0.013523,0.002678,0.000431,0.000470
1947000,0.0324,0.013523,0.002678,0.000431,0.000470
1948000,0.0324,0.013523,0.002678,0.000431,0.000588
1949000,0.0324,0.013523,0.002678,0.000431,0.000470
1950000,0.0324,0.013523,0.002678,0.000431,0.000588
1951000,0.0324,0.013523,0.002678,0.000431,0.000353
1952000,0.0324,0.013523,0.002678,0.000431,0.000588
1953000,0.0324,0.013523,0.002678,0.000431,0.000353
1954000,0.0324,0.013523,0.002678,0.000431,0.000588
1955000,0.0324,0.013523,0.002678,0.000431,0.000353
1956000,0.0324,0.013523,0.002678,0.000431,0.000588
1957000,0.0324,0.013523,0.002678,0.000431,0.000353
1958000,0.0324,0.013523,0.002678,0.000431,0.000588
1959000,0.0324,0.013523,0.002678,0.000431,0.000353
1960000,0.0324,0.013523,0.002678,0.000431,0.000588
1961000,0.0324,0.013523,0.002678,0.000431,0.000353
1962000,0.0324,0.013523,0.002678,0.000431,0.000588
1963000,0.0324,0.013523,0.002678,0.000431,0.000353
1964000,0.0324,0.013523,0.002678,0.000431,0.000588
1965000,0.0324,0.013523,0.002678,0.000431,0.000353
1966000,0.0324,0.013523,0.002678,0.000431,0.000470
1967000,0.0324,0.013523,0.002678,0.000431,0.000470
1968000,0.0324,0.013523,0.002678,0.000431,0.000470
1969000,0.0324,0.013523,0.002678,0.000431,0.000470
1970000,0.0324,0.013523,0.002678,0.000431,0.000588
1971000,0.0324,0.013523,0.002678,0.000431,0.000470
1972000,0.0324,0.013523,0.002678,0.000431,0.000353
1973000,0.0324,0.013523,0.002678,0.000431,0.000588
1974000,0.0324,0.013523,0.002678,0.000431,0.000353
1975000,0.0324,0.013523,0.002678,0.000431,0.000588
1976000,0.0324,0.013523,0.002678,0.000431,0.000353
1977000,0.0324,0.013523,0.002678,0.000431,0.000588
1978000,0.0324,0.013523,0.002678,0.000431,0.000353
1979000,0.0324,0.013523,0.002678,0.000431,0.000705
1980000,0.0324,0.013523,0.002678,0.000431,0.000353
1981000,0.0324,0.013523,0.002678,0.000431,0.000588
1982000,0.0324,0.013523,0.002678,0.000431,0.000353
1983000,0.0324,0.013523,0.002678,0.000431,0.000823
1984000,0.0324,0.013523,0.002678,0.000431,0.000353
1985000,0.0324,0.013523,0.002678,0.000431,0.000588
1986000,0.0324,0.013523,0.002678,0.000431,0.000353
1987000,0.0324,0.013523,0.002678,0.000431,0.000588
1988000,0.0324,0.013523,0.002678,0.000431,0.000353
1989000,0.0324,0.013523,0.002678,0.000431,0.000705
1990000,0.0324,0.013523,0.002678,0.000431,0.000353
1991000,0.0324,0.013523,0.002678,0.000431,0.000470
1992000,0.0324,0.013523,0.002678,0.000431,0.000353
1993000,0.0324,0.013523,0.002678,0.000431,0.000588
1994000,0.0324,0.013523,0.002678,0.000431,0.000353
1995000,0.0324,0.013523,0.002678,0.000431,0.000588
1996000,0.0324,0.013523,0.002678,0.000431,0.000353
1997000,0.0324,0.013523,0.002678,0.000431,0.000823
1998000,0.0324,0.013523,0.002678,0.000431,0.000235
1999000,0.0324,0.013523,0.002678,0.000431,0.000705
