Cycle,Area(mm^2),PeakDynamic(W),SubthresholdLeakage(W),GateLeakage(W),RunTimeDynamic(W)
10000000,0.0324,0.013523,0.002678,0.000431,0.000353
10001000,0.0324,0.013523,0.002678,0.000431,0.000588
10002000,0.0324,0.013523,0.002678,0.000431,0.000353
10003000,0.0324,0.013523,0.002678,0.000431,0.000588
10004000,0.0324,0.013523,0.002678,0.000431,0.000353
10005000,0.0324,0.013523,0.002678,0.000431,0.000588
10006000,0.0324,0.013523,0.002678,0.000431,0.000353
10007000,0.0324,0.013523,0.002678,0.000431,0.000588
10008000,0.0324,0.013523,0.002678,0.000431,0.000353
10009000,0.0324,0.013523,0.002678,0.000431,0.000588
10010000,0.0324,0.013523,0.002678,0.000431,0.000353
10011000,0.0324,0.013523,0.002678,0.000431,0.000705
10012000,0.0324,0.013523,0.002678,0.000431,0.000353
10013000,0.0324,0.013523,0.002678,0.000431,0.000588
10014000,0.0324,0.013523,0.002678,0.000431,0.000353
10015000,0.0324,0.013523,0.002678,0.000431,0.000588
10016000,0.0324,0.013523,0.002678,0.000431,0.000353
10017000,0.0324,0.013523,0.002678,0.000431,0.000588
10018000,0.0324,0.013523,0.002678,0.000431,0.000353
10019000,0.0324,0.013523,0.002678,0.000431,0.000588
10020000,0.0324,0.013523,0.002678,0.000431,0.000470
10021000,0.0324,0.013523,0.002678,0.000431,0.000470
10022000,0.0324,0.013523,0.002678,0.000431,0.000588
10023000,0.0324,0.013523,0.002678,0.000431,0.000588
10024000,0.0324,0.013523,0.002678,0.000431,0.000470
10025000,0.0324,0.013523,0.002678,0.000431,0.000705
10026000,0.0324,0.013523,0.002678,0.000431,0.000353
10027000,0.0324,0.013523,0.002678,0.000431,0.000705
10028000,0.0324,0.013523,0.002678,0.000431,0.000470
10029000,0.0324,0.013523,0.002678,0.000431,0.000470
10030000,0.0324,0.013523,0.002678,0.000431,0.000470
10031000,0.0324,0.013523,0.002678,0.000431,0.000588
10032000,0.0324,0.013523,0.002678,0.000431,0.000353
10033000,0.0324,0.013523,0.002678,0.000431,0.000588
10034000,0.0324,0.013523,0.002678,0.000431,0.000353
10035000,0.0324,0.013523,0.002678,0.000431,0.000588
10036000,0.0324,0.013523,0.002678,0.000431,0.000353
10037000,0.0324,0.013523,0.002678,0.000431,0.000470
10038000,0.0324,0.013523,0.002678,0.000431,0.000470
10039000,0.0324,0.013523,0.002678,0.000431,0.000588
10040000,0.0324,0.013523,0.002678,0.000431,0.000470
10041000,0.0324,0.013523,0.002678,0.000431,0.000588
10042000,0.0324,0.013523,0.002678,0.000431,0.000588
10043000,0.0324,0.013523,0.002678,0.000431,0.000470
10044000,0.0324,0.013523,0.002678,0.000431,0.000705
10045000,0.0324,0.013523,0.002678,0.000431,0.000353
10046000,0.0324,0.013523,0.002678,0.000431,0.000705
10047000,0.0324,0.013523,0.002678,0.000431,0.000470
10048000,0.0324,0.013523,0.002678,0.000431,0.000470
10049000,0.0324,0.013523,0.002678,0.000431,0.000470
10050000,0.0324,0.013523,0.002678,0.000431,0.000470
10051000,0.0324,0.013523,0.002678,0.000431,0.000470
10052000,0.0324,0.013523,0.002678,0.000431,0.000470
10053000,0.0324,0.013523,0.002678,0.000431,0.000470
10054000,0.0324,0.013523,0.002678,0.000431,0.000470
10055000,0.0324,0.013523,0.002678,0.000431,0.000470
10056000,0.0324,0.013523,0.002678,0.000431,0.000470
10057000,0.0324,0.013523,0.002678,0.000431,0.000470
10058000,0.0324,0.013523,0.002678,0.000431,0.000705
10059000,0.0324,0.013523,0.002678,0.000431,0.000470
10060000,0.0324,0.013523,0.002678,0.000431,0.000470
10061000,0.0324,0.013523,0.002678,0.000431,0.000353
10062000,0.0324,0.013523,0.002678,0.000431,0.000588
10063000,0.0324,0.013523,0.002678,0.000431,0.000353
10064000,0.0324,0.013523,0.002678,0.000431,0.000588
10065000,0.0324,0.013523,0.002678,0.000431,0.000353
10066000,0.0324,0.013523,0.002678,0.000431,0.000588
10067000,0.0324,0.013523,0.002678,0.000431,0.000353
10068000,0.0324,0.013523,0.002678,0.000431,0.000705
10069000,0.0324,0.013523,0.002678,0.000431,0.000353
10070000,0.0324,0.013523,0.002678,0.000431,0.000705
10071000,0.0324,0.013523,0.002678,0.000431,0.000588
10072000,0.0324,0.013523,0.002678,0.000431,0.000470
10073000,0.0324,0.013523,0.002678,0.000431,0.000588
10074000,0.0324,0.013523,0.002678,0.000431,0.000470
10075000,0.0324,0.013523,0.002678,0.000431,0.000470
10076000,0.0324,0.013523,0.002678,0.000431,0.000353
10077000,0.0324,0.013523,0.002678,0.000431,0.000588
10078000,0.0324,0.013523,0.002678,0.000431,0.000470
10079000,0.0324,0.013523,0.002678,0.000431,0.000588
10080000,0.0324,0.013523,0.002678,0.000431,0.000470
10081000,0.0324,0.013523,0.002678,0.000431,0.000705
10082000,0.0324,0.013523,0.002678,0.000431,0.000353
10083000,0.0324,0.013523,0.002678,0.000431,0.000470
10084000,0.0324,0.013523,0.002678,0.000431,0.000353
10085000,0.0324,0.013523,0.002678,0.000431,0.000588
10086000,0.0324,0.013523,0.002678,0.000431,0.000353
10087000,0.0324,0.013523,0.002678,0.000431,0.000588
10088000,0.0324,0.013523,0.002678,0.000431,0.000470
10089000,0.0324,0.013523,0.002678,0.000431,0.000470
10090000,0.0324,0.013523,0.002678,0.000431,0.000470
10091000,0.0324,0.013523,0.002678,0.000431,0.000470
10092000,0.0324,0.013523,0.002678,0.000431,0.000470
10093000,0.0324,0.013523,0.002678,0.000431,0.000470
10094000,0.0324,0.013523,0.002678,0.000431,0.000588
10095000,0.0324,0.013523,0.002678,0.000431,0.000353
10096000,0.0324,0.013523,0.002678,0.000431,0.000588
10097000,0.0324,0.013523,0.002678,0.000431,0.000353
10098000,0.0324,0.013523,0.002678,0.000431,0.000588
10099000,0.0324,0.013523,0.002678,0.000431,0.000353
10100000,0.0324,0.013523,0.002678,0.000431,0.000588
10101000,0.0324,0.013523,0.002678,0.000431,0.000353
10102000,0.0324,0.013523,0.002678,0.000431,0.000588
10103000,0.0324,0.013523,0.002678,0.000431,0.000588
10104000,0.0324,0.013523,0.002678,0.000431,0.000470
10105000,0.0324,0.013523,0.002678,0.000431,0.000470
10106000,0.0324,0.013523,0.002678,0.000431,0.000705
10107000,0.0324,0.013523,0.002678,0.000431,0.000470
10108000,0.0324,0.013523,0.002678,0.000431,0.000470
10109000,0.0324,0.013523,0.002678,0.000431,0.000470
10110000,0.0324,0.013523,0.002678,0.000431,0.000470
10111000,0.0324,0.013523,0.002678,0.000431,0.000470
10112000,0.0324,0.013523,0.002678,0.000431,0.000470
10113000,0.0324,0.013523,0.002678,0.000431,0.000353
10114000,0.0324,0.013523,0.002678,0.000431,0.000588
10115000,0.0324,0.013523,0.002678,0.000431,0.000353
10116000,0.0324,0.013523,0.002678,0.000431,0.000588
10117000,0.0324,0.013523,0.002678,0.000431,0.000353
10118000,0.0324,0.013523,0.002678,0.000431,0.000588
10119000,0.0324,0.013523,0.002678,0.000431,0.000353
10120000,0.0324,0.013523,0.002678,0.000431,0.000588
10121000,0.0324,0.013523,0.002678,0.000431,0.000353
10122000,0.0324,0.013523,0.002678,0.000431,0.000588
10123000,0.0324,0.013523,0.002678,0.000431,0.000353
10124000,0.0324,0.013523,0.002678,0.000431,0.000588
10125000,0.0324,0.013523,0.002678,0.000431,0.000353
10126000,0.0324,0.013523,0.002678,0.000431,0.000705
10127000,0.0324,0.013523,0.002678,0.000431,0.000353
10128000,0.0324,0.013523,0.002678,0.000431,0.000705
10129000,0.0324,0.013523,0.002678,0.000431,0.000470
10130000,0.0324,0.013523,0.002678,0.000431,0.000470
10131000,0.0324,0.013523,0.002678,0.000431,0.000470
10132000,0.0324,0.013523,0.002678,0.000431,0.000470
10133000,0.0324,0.013523,0.002678,0.000431,0.000470
10134000,0.0324,0.013523,0.002678,0.000431,0.000470
10135000,0.0324,0.013523,0.002678,0.000431,0.000470
10136000,0.0324,0.013523,0.002678,0.000431,0.000705
10137000,0.0324,0.013523,0.002678,0.000431,0.000470
10138000,0.0324,0.013523,0.002678,0.000431,0.000470
10139000,0.0324,0.013523,0.002678,0.000431,0.000353
10140000,0.0324,0.013523,0.002678,0.000431,0.000588
10141000,0.0324,0.013523,0.002678,0.000431,0.000353
10142000,0.0324,0.013523,0.002678,0.000431,0.000588
10143000,0.0324,0.013523,0.002678,0.000431,0.000353
10144000,0.0324,0.013523,0.002678,0.000431,0.000588
10145000,0.0324,0.013523,0.002678,0.000431,0.000470
10146000,0.0324,0.013523,0.002678,0.000431,0.000470
10147000,0.0324,0.013523,0.002678,0.000431,0.000470
10148000,0.0324,0.013523,0.002678,0.000431,0.000588
10149000,0.0324,0.013523,0.002678,0.000431,0.000470
10150000,0.0324,0.013523,0.002678,0.000431,0.000705
10151000,0.0324,0.013523,0.002678,0.000431,0.000353
10152000,0.0324,0.013523,0.002678,0.000431,0.000705
10153000,0.0324,0.013523,0.002678,0.000431,0.000470
10154000,0.0324,0.013523,0.002678,0.000431,0.000588
10155000,0.0324,0.013523,0.002678,0.000431,0.000353
10156000,0.0324,0.013523,0.002678,0.000431,0.000705
10157000,0.0324,0.013523,0.002678,0.000431,0.000588
10158000,0.0324,0.013523,0.002678,0.000431,0.000470
10159000,0.0324,0.013523,0.002678,0.000431,0.000705
10160000,0.0324,0.013523,0.002678,0.000431,0.000353
10161000,0.0324,0.013523,0.002678,0.000431,0.000470
10162000,0.0324,0.013523,0.002678,0.000431,0.000353
10163000,0.0324,0.013523,0.002678,0.000431,0.000588
10164000,0.0324,0.013523,0.002678,0.000431,0.000353
10165000,0.0324,0.013523,0.002678,0.000431,0.000588
10166000,0.0324,0.013523,0.002678,0.000431,0.000353
10167000,0.0324,0.013523,0.002678,0.000431,0.000588
10168000,0.0324,0.013523,0.002678,0.000431,0.000353
10169000,0.0324,0.013523,0.002678,0.000431,0.000588
10170000,0.0324,0.013523,0.002678,0.000431,0.000353
10171000,0.0324,0.013523,0.002678,0.000431,0.000588
10172000,0.0324,0.013523,0.002678,0.000431,0.000470
10173000,0.0324,0.013523,0.002678,0.000431,0.000588
10174000,0.0324,0.013523,0.002678,0.000431,0.000470
10175000,0.0324,0.013523,0.002678,0.000431,0.000588
10176000,0.0324,0.013523,0.002678,0.000431,0.000353
10177000,0.0324,0.013523,0.002678,0.000431,0.000588
10178000,0.0324,0.013523,0.002678,0.000431,0.000353
10179000,0.0324,0.013523,0.002678,0.000431,0.000588
10180000,0.0324,0.013523,0.002678,0.000431,0.000353
10181000,0.0324,0.013523,0.002678,0.000431,0.000588
10182000,0.0324,0.013523,0.002678,0.000431,0.000353
10183000,0.0324,0.013523,0.002678,0.000431,0.000588
10184000,0.0324,0.013523,0.002678,0.000431,0.000353
10185000,0.0324,0.013523,0.002678,0.000431,0.000705
10186000,0.0324,0.013523,0.002678,0.000431,0.000353
10187000,0.0324,0.013523,0.002678,0.000431,0.000588
10188000,0.0324,0.013523,0.002678,0.000431,0.000470
10189000,0.0324,0.013523,0.002678,0.000431,0.000588
10190000,0.0324,0.013523,0.002678,0.000431,0.000353
10191000,0.0324,0.013523,0.002678,0.000431,0.000588
10192000,0.0324,0.013523,0.002678,0.000431,0.000470
10193000,0.0324,0.013523,0.002678,0.000431,0.000470
10194000,0.0324,0.013523,0.002678,0.000431,0.000470
10195000,0.0324,0.013523,0.002678,0.000431,0.000470
10196000,0.0324,0.013523,0.002678,0.000431,0.000470
10197000,0.0324,0.013523,0.002678,0.000431,0.000470
10198000,0.0324,0.013523,0.002678,0.000431,0.000470
10199000,0.0324,0.013523,0.002678,0.000431,0.000470
10200000,0.0324,0.013523,0.002678,0.000431,0.000470
10201000,0.0324,0.013523,0.002678,0.000431,0.000470
10202000,0.0324,0.013523,0.002678,0.000431,0.000470
10203000,0.0324,0.013523,0.002678,0.000431,0.000470
10204000,0.0324,0.013523,0.002678,0.000431,0.000470
10205000,0.0324,0.013523,0.002678,0.000431,0.000588
10206000,0.0324,0.013523,0.002678,0.000431,0.000470
10207000,0.0324,0.013523,0.002678,0.000431,0.000705
10208000,0.0324,0.013523,0.002678,0.000431,0.000353
10209000,0.0324,0.013523,0.002678,0.000431,0.000705
10210000,0.0324,0.013523,0.002678,0.000431,0.000353
10211000,0.0324,0.013523,0.002678,0.000431,0.000588
10212000,0.0324,0.013523,0.002678,0.000431,0.000353
10213000,0.0324,0.013523,0.002678,0.000431,0.000588
10214000,0.0324,0.013523,0.002678,0.000431,0.000353
10215000,0.0324,0.013523,0.002678,0.000431,0.000705
10216000,0.0324,0.013523,0.002678,0.000431,0.000353
10217000,0.0324,0.013523,0.002678,0.000431,0.000705
10218000,0.0324,0.013523,0.002678,0.000431,0.000470
10219000,0.0324,0.013523,0.002678,0.000431,0.000588
10220000,0.0324,0.013523,0.002678,0.000431,0.000353
10221000,0.0324,0.013523,0.002678,0.000431,0.000470
10222000,0.0324,0.013523,0.002678,0.000431,0.000470
10223000,0.0324,0.013523,0.002678,0.000431,0.000470
10224000,0.0324,0.013523,0.002678,0.000431,0.000470
10225000,0.0324,0.013523,0.002678,0.000431,0.000588
10226000,0.0324,0.013523,0.002678,0.000431,0.000353
10227000,0.0324,0.013523,0.002678,0.000431,0.000588
10228000,0.0324,0.013523,0.002678,0.000431,0.000353
10229000,0.0324,0.013523,0.002678,0.000431,0.000705
10230000,0.0324,0.013523,0.002678,0.000431,0.000588
10231000,0.0324,0.013523,0.002678,0.000431,0.000470
10232000,0.0324,0.013523,0.002678,0.000431,0.000470
10233000,0.0324,0.013523,0.002678,0.000431,0.000470
10234000,0.0324,0.013523,0.002678,0.000431,0.000588
10235000,0.0324,0.013523,0.002678,0.000431,0.000470
10236000,0.0324,0.013523,0.002678,0.000431,0.000470
10237000,0.0324,0.013523,0.002678,0.000431,0.000470
10238000,0.0324,0.013523,0.002678,0.000431,0.000470
10239000,0.0324,0.013523,0.002678,0.000431,0.000470
10240000,0.0324,0.013523,0.002678,0.000431,0.000470
10241000,0.0324,0.013523,0.002678,0.000431,0.000353
10242000,0.0324,0.013523,0.002678,0.000431,0.000588
10243000,0.0324,0.013523,0.002678,0.000431,0.000353
10244000,0.0324,0.013523,0.002678,0.000431,0.000588
10245000,0.0324,0.013523,0.002678,0.000431,0.000470
10246000,0.0324,0.013523,0.002678,0.000431,0.000470
10247000,0.0324,0.013523,0.002678,0.000431,0.000470
10248000,0.0324,0.013523,0.002678,0.000431,0.000588
10249000,0.0324,0.013523,0.002678,0.000431,0.000470
10250000,0.0324,0.013523,0.002678,0.000431,0.000705
10251000,0.0324,0.013523,0.002678,0.000431,0.000353
10252000,0.0324,0.013523,0.002678,0.000431,0.000588
10253000,0.0324,0.013523,0.002678,0.000431,0.000353
10254000,0.0324,0.013523,0.002678,0.000431,0.000588
10255000,0.0324,0.013523,0.002678,0.000431,0.000353
10256000,0.0324,0.013523,0.002678,0.000431,0.000823
10257000,0.0324,0.013523,0.002678,0.000431,0.000235
10258000,0.0324,0.013523,0.002678,0.000431,0.000705
10259000,0.0324,0.013523,0.002678,0.000431,0.000353
10260000,0.0324,0.013523,0.002678,0.000431,0.000705
10261000,0.0324,0.013523,0.002678,0.000431,0.000588
10262000,0.0324,0.013523,0.002678,0.000431,0.000470
10263000,0.0324,0.013523,0.002678,0.000431,0.000705
10264000,0.0324,0.013523,0.002678,0.000431,0.000353
10265000,0.0324,0.013523,0.002678,0.000431,0.000705
10266000,0.0324,0.013523,0.002678,0.000431,0.000588
10267000,0.0324,0.013523,0.002678,0.000431,0.000470
10268000,0.0324,0.013523,0.002678,0.000431,0.000705
10269000,0.0324,0.013523,0.002678,0.000431,0.000235
10270000,0.0324,0.013523,0.002678,0.000431,0.000705
10271000,0.0324,0.013523,0.002678,0.000431,0.000353
10272000,0.0324,0.013523,0.002678,0.000431,0.000705
10273000,0.0324,0.013523,0.002678,0.000431,0.000470
10274000,0.0324,0.013523,0.002678,0.000431,0.000588
10275000,0.0324,0.013523,0.002678,0.000431,0.000353
10276000,0.0324,0.013523,0.002678,0.000431,0.000588
10277000,0.0324,0.013523,0.002678,0.000431,0.000353
10278000,0.0324,0.013523,0.002678,0.000431,0.000705
10279000,0.0324,0.013523,0.002678,0.000431,0.000470
10280000,0.0324,0.013523,0.002678,0.000431,0.000470
10281000,0.0324,0.013523,0.002678,0.000431,0.000470
10282000,0.0324,0.013523,0.002678,0.000431,0.000470
10283000,0.0324,0.013523,0.002678,0.000431,0.000470
10284000,0.0324,0.013523,0.002678,0.000431,0.000470
10285000,0.0324,0.013523,0.002678,0.000431,0.000470
10286000,0.0324,0.013523,0.002678,0.000431,0.000470
10287000,0.0324,0.013523,0.002678,0.000431,0.000470
10288000,0.0324,0.013523,0.002678,0.000431,0.000470
10289000,0.0324,0.013523,0.002678,0.000431,0.000470
10290000,0.0324,0.013523,0.002678,0.000431,0.000470
10291000,0.0324,0.013523,0.002678,0.000431,0.000470
10292000,0.0324,0.013523,0.002678,0.000431,0.000470
10293000,0.0324,0.013523,0.002678,0.000431,0.000470
10294000,0.0324,0.013523,0.002678,0.000431,0.000470
10295000,0.0324,0.013523,0.002678,0.000431,0.000353
10296000,0.0324,0.013523,0.002678,0.000431,0.000588
10297000,0.0324,0.013523,0.002678,0.000431,0.000353
10298000,0.0324,0.013523,0.002678,0.000431,0.000588
10299000,0.0324,0.013523,0.002678,0.000431,0.000353
10300000,0.0324,0.013523,0.002678,0.000431,0.000588
10301000,0.0324,0.013523,0.002678,0.000431,0.000353
10302000,0.0324,0.013523,0.002678,0.000431,0.000588
10303000,0.0324,0.013523,0.002678,0.000431,0.000353
10304000,0.0324,0.013523,0.002678,0.000431,0.000823
10305000,0.0324,0.013523,0.002678,0.000431,0.000353
10306000,0.0324,0.013523,0.002678,0.000431,0.000705
10307000,0.0324,0.013523,0.002678,0.000431,0.000353
10308000,0.0324,0.013523,0.002678,0.000431,0.000588
10309000,0.0324,0.013523,0.002678,0.000431,0.000353
10310000,0.0324,0.013523,0.002678,0.000431,0.000588
10311000,0.0324,0.013523,0.002678,0.000431,0.000353
10312000,0.0324,0.013523,0.002678,0.000431,0.000705
10313000,0.0324,0.013523,0.002678,0.000431,0.000353
10314000,0.0324,0.013523,0.002678,0.000431,0.000705
10315000,0.0324,0.013523,0.002678,0.000431,0.000353
10316000,0.0324,0.013523,0.002678,0.000431,0.000588
10317000,0.0324,0.013523,0.002678,0.000431,0.000470
10318000,0.0324,0.013523,0.002678,0.000431,0.000588
10319000,0.0324,0.013523,0.002678,0.000431,0.000588
10320000,0.0324,0.013523,0.002678,0.000431,0.000470
10321000,0.0324,0.013523,0.002678,0.000431,0.000705
10322000,0.0324,0.013523,0.002678,0.000431,0.000353
10323000,0.0324,0.013523,0.002678,0.000431,0.000588
10324000,0.0324,0.013523,0.002678,0.000431,0.000353
10325000,0.0324,0.013523,0.002678,0.000431,0.000588
10326000,0.0324,0.013523,0.002678,0.000431,0.000353
10327000,0.0324,0.013523,0.002678,0.000431,0.000588
10328000,0.0324,0.013523,0.002678,0.000431,0.000353
10329000,0.0324,0.013523,0.002678,0.000431,0.000588
10330000,0.0324,0.013523,0.002678,0.000431,0.000353
10331000,0.0324,0.013523,0.002678,0.000431,0.000588
10332000,0.0324,0.013523,0.002678,0.000431,0.000353
10333000,0.0324,0.013523,0.002678,0.000431,0.000588
10334000,0.0324,0.013523,0.002678,0.000431,0.000353
10335000,0.0324,0.013523,0.002678,0.000431,0.000588
10336000,0.0324,0.013523,0.002678,0.000431,0.000353
10337000,0.0324,0.013523,0.002678,0.000431,0.000588
10338000,0.0324,0.013523,0.002678,0.000431,0.000353
10339000,0.0324,0.013523,0.002678,0.000431,0.000588
10340000,0.0324,0.013523,0.002678,0.000431,0.000353
10341000,0.0324,0.013523,0.002678,0.000431,0.000470
10342000,0.0324,0.013523,0.002678,0.000431,0.000353
10343000,0.0324,0.013523,0.002678,0.000431,0.000588
10344000,0.0324,0.013523,0.002678,0.000431,0.000470
10345000,0.0324,0.013523,0.002678,0.000431,0.000470
10346000,0.0324,0.013523,0.002678,0.000431,0.000470
10347000,0.0324,0.013523,0.002678,0.000431,0.000470
10348000,0.0324,0.013523,0.002678,0.000431,0.000470
10349000,0.0324,0.013523,0.002678,0.000431,0.000470
10350000,0.0324,0.013523,0.002678,0.000431,0.000470
10351000,0.0324,0.013523,0.002678,0.000431,0.000470
10352000,0.0324,0.013523,0.002678,0.000431,0.000470
10353000,0.0324,0.013523,0.002678,0.000431,0.000470
10354000,0.0324,0.013523,0.002678,0.000431,0.000470
10355000,0.0324,0.013523,0.002678,0.000431,0.000588
10356000,0.0324,0.013523,0.002678,0.000431,0.000470
10357000,0.0324,0.013523,0.002678,0.000431,0.000705
10358000,0.0324,0.013523,0.002678,0.000431,0.000353
10359000,0.0324,0.013523,0.002678,0.000431,0.000588
10360000,0.0324,0.013523,0.002678,0.000431,0.000353
10361000,0.0324,0.013523,0.002678,0.000431,0.000588
10362000,0.0324,0.013523,0.002678,0.000431,0.000353
10363000,0.0324,0.013523,0.002678,0.000431,0.000588
10364000,0.0324,0.013523,0.002678,0.000431,0.000353
10365000,0.0324,0.013523,0.002678,0.000431,0.000588
10366000,0.0324,0.013523,0.002678,0.000431,0.000353
10367000,0.0324,0.013523,0.002678,0.000431,0.000588
10368000,0.0324,0.013523,0.002678,0.000431,0.000470
10369000,0.0324,0.013523,0.002678,0.000431,0.000588
10370000,0.0324,0.013523,0.002678,0.000431,0.000353
10371000,0.0324,0.013523,0.002678,0.000431,0.000588
10372000,0.0324,0.013523,0.002678,0.000431,0.000470
10373000,0.0324,0.013523,0.002678,0.000431,0.000470
10374000,0.0324,0.013523,0.002678,0.000431,0.000470
10375000,0.0324,0.013523,0.002678,0.000431,0.000470
10376000,0.0324,0.013523,0.002678,0.000431,0.000470
10377000,0.0324,0.013523,0.002678,0.000431,0.000470
10378000,0.0324,0.013523,0.002678,0.000431,0.000470
10379000,0.0324,0.013523,0.002678,0.000431,0.000470
10380000,0.0324,0.013523,0.002678,0.000431,0.000470
10381000,0.0324,0.013523,0.002678,0.000431,0.000470
10382000,0.0324,0.013523,0.002678,0.000431,0.000470
10383000,0.0324,0.013523,0.002678,0.000431,0.000588
10384000,0.0324,0.013523,0.002678,0.000431,0.000470
10385000,0.0324,0.013523,0.002678,0.000431,0.000705
10386000,0.0324,0.013523,0.002678,0.000431,0.000353
10387000,0.0324,0.013523,0.002678,0.000431,0.000588
10388000,0.0324,0.013523,0.002678,0.000431,0.000470
10389000,0.0324,0.013523,0.002678,0.000431,0.000705
10390000,0.0324,0.013523,0.002678,0.000431,0.000353
10391000,0.0324,0.013523,0.002678,0.000431,0.000588
10392000,0.0324,0.013523,0.002678,0.000431,0.000353
10393000,0.0324,0.013523,0.002678,0.000431,0.000470
10394000,0.0324,0.013523,0.002678,0.000431,0.000470
10395000,0.0324,0.013523,0.002678,0.000431,0.000470
10396000,0.0324,0.013523,0.002678,0.000431,0.000470
10397000,0.0324,0.013523,0.002678,0.000431,0.000588
10398000,0.0324,0.013523,0.002678,0.000431,0.000470
10399000,0.0324,0.013523,0.002678,0.000431,0.000705
10400000,0.0324,0.013523,0.002678,0.000431,0.000353
10401000,0.0324,0.013523,0.002678,0.000431,0.000588
10402000,0.0324,0.013523,0.002678,0.000431,0.000353
10403000,0.0324,0.013523,0.002678,0.000431,0.000588
10404000,0.0324,0.013523,0.002678,0.000431,0.000353
10405000,0.0324,0.013523,0.002678,0.000431,0.000588
10406000,0.0324,0.013523,0.002678,0.000431,0.000470
10407000,0.0324,0.013523,0.002678,0.000431,0.000588
10408000,0.0324,0.013523,0.002678,0.000431,0.000235
10409000,0.0324,0.013523,0.002678,0.000431,0.000588
10410000,0.0324,0.013523,0.002678,0.000431,0.000353
10411000,0.0324,0.013523,0.002678,0.000431,0.000588
10412000,0.0324,0.013523,0.002678,0.000431,0.000353
10413000,0.0324,0.013523,0.002678,0.000431,0.000588
10414000,0.0324,0.013523,0.002678,0.000431,0.000353
10415000,0.0324,0.013523,0.002678,0.000431,0.000588
10416000,0.0324,0.013523,0.002678,0.000431,0.000353
10417000,0.0324,0.013523,0.002678,0.000431,0.000588
10418000,0.0324,0.013523,0.002678,0.000431,0.000353
10419000,0.0324,0.013523,0.002678,0.000431,0.000470
10420000,0.0324,0.013523,0.002678,0.000431,0.000470
10421000,0.0324,0.013523,0.002678,0.000431,0.000470
10422000,0.0324,0.013523,0.002678,0.000431,0.000470
10423000,0.0324,0.013523,0.002678,0.000431,0.000470
10424000,0.0324,0.013523,0.002678,0.000431,0.000353
10425000,0.0324,0.013523,0.002678,0.000431,0.000588
10426000,0.0324,0.013523,0.002678,0.000431,0.000353
10427000,0.0324,0.013523,0.002678,0.000431,0.000588
10428000,0.0324,0.013523,0.002678,0.000431,0.000353
10429000,0.0324,0.013523,0.002678,0.000431,0.000588
10430000,0.0324,0.013523,0.002678,0.000431,0.000470
10431000,0.0324,0.013523,0.002678,0.000431,0.000470
10432000,0.0324,0.013523,0.002678,0.000431,0.000470
10433000,0.0324,0.013523,0.002678,0.000431,0.000588
10434000,0.0324,0.013523,0.002678,0.000431,0.000470
10435000,0.0324,0.013523,0.002678,0.000431,0.000588
10436000,0.0324,0.013523,0.002678,0.000431,0.000353
10437000,0.0324,0.013523,0.002678,0.000431,0.000588
10438000,0.0324,0.013523,0.002678,0.000431,0.000353
10439000,0.0324,0.013523,0.002678,0.000431,0.000588
10440000,0.0324,0.013523,0.002678,0.000431,0.000353
10441000,0.0324,0.013523,0.002678,0.000431,0.000588
10442000,0.0324,0.013523,0.002678,0.000431,0.000353
10443000,0.0324,0.013523,0.002678,0.000431,0.000470
10444000,0.0324,0.013523,0.002678,0.000431,0.000470
10445000,0.0324,0.013523,0.002678,0.000431,0.000470
10446000,0.0324,0.013523,0.002678,0.000431,0.000470
10447000,0.0324,0.013523,0.002678,0.000431,0.000470
10448000,0.0324,0.013523,0.002678,0.000431,0.000470
10449000,0.0324,0.013523,0.002678,0.000431,0.000353
10450000,0.0324,0.013523,0.002678,0.000431,0.000588
10451000,0.0324,0.013523,0.002678,0.000431,0.000353
10452000,0.0324,0.013523,0.002678,0.000431,0.000588
10453000,0.0324,0.013523,0.002678,0.000431,0.000353
10454000,0.0324,0.013523,0.002678,0.000431,0.000588
10455000,0.0324,0.013523,0.002678,0.000431,0.000470
10456000,0.0324,0.013523,0.002678,0.000431,0.000588
10457000,0.0324,0.013523,0.002678,0.000431,0.000353
10458000,0.0324,0.013523,0.002678,0.000431,0.000588
10459000,0.0324,0.013523,0.002678,0.000431,0.000235
10460000,0.0324,0.013523,0.002678,0.000431,0.000588
10461000,0.0324,0.013523,0.002678,0.000431,0.000353
10462000,0.0324,0.013523,0.002678,0.000431,0.000588
10463000,0.0324,0.013523,0.002678,0.000431,0.000353
10464000,0.0324,0.013523,0.002678,0.000431,0.000588
10465000,0.0324,0.013523,0.002678,0.000431,0.000470
10466000,0.0324,0.013523,0.002678,0.000431,0.000588
10467000,0.0324,0.013523,0.002678,0.000431,0.000353
10468000,0.0324,0.013523,0.002678,0.000431,0.000588
10469000,0.0324,0.013523,0.002678,0.000431,0.000353
10470000,0.0324,0.013523,0.002678,0.000431,0.000588
10471000,0.0324,0.013523,0.002678,0.000431,0.000353
10472000,0.0324,0.013523,0.002678,0.000431,0.000705
10473000,0.0324,0.013523,0.002678,0.000431,0.000470
10474000,0.0324,0.013523,0.002678,0.000431,0.000705
10475000,0.0324,0.013523,0.002678,0.000431,0.000235
10476000,0.0324,0.013523,0.002678,0.000431,0.000705
10477000,0.0324,0.013523,0.002678,0.000431,0.000353
10478000,0.0324,0.013523,0.002678,0.000431,0.000705
10479000,0.0324,0.013523,0.002678,0.000431,0.000588
10480000,0.0324,0.013523,0.002678,0.000431,0.000470
10481000,0.0324,0.013523,0.002678,0.000431,0.000588
10482000,0.0324,0.013523,0.002678,0.000431,0.000353
10483000,0.0324,0.013523,0.002678,0.000431,0.000588
10484000,0.0324,0.013523,0.002678,0.000431,0.000353
10485000,0.0324,0.013523,0.002678,0.000431,0.000588
10486000,0.0324,0.013523,0.002678,0.000431,0.000353
10487000,0.0324,0.013523,0.002678,0.000431,0.000588
10488000,0.0324,0.013523,0.002678,0.000431,0.000353
10489000,0.0324,0.013523,0.002678,0.000431,0.000588
10490000,0.0324,0.013523,0.002678,0.000431,0.000353
10491000,0.0324,0.013523,0.002678,0.000431,0.000588
10492000,0.0324,0.013523,0.002678,0.000431,0.000353
10493000,0.0324,0.013523,0.002678,0.000431,0.000588
10494000,0.0324,0.013523,0.002678,0.000431,0.000470
10495000,0.0324,0.013523,0.002678,0.000431,0.000470
10496000,0.0324,0.013523,0.002678,0.000431,0.000470
10497000,0.0324,0.013523,0.002678,0.000431,0.000470
10498000,0.0324,0.013523,0.002678,0.000431,0.000470
10499000,0.0324,0.013523,0.002678,0.000431,0.000470
10500000,0.0324,0.013523,0.002678,0.000431,0.000470
10501000,0.0324,0.013523,0.002678,0.000431,0.000353
10502000,0.0324,0.013523,0.002678,0.000431,0.000588
10503000,0.0324,0.013523,0.002678,0.000431,0.000353
10504000,0.0324,0.013523,0.002678,0.000431,0.000588
10505000,0.0324,0.013523,0.002678,0.000431,0.000353
10506000,0.0324,0.013523,0.002678,0.000431,0.000705
10507000,0.0324,0.013523,0.002678,0.000431,0.000353
10508000,0.0324,0.013523,0.002678,0.000431,0.000705
10509000,0.0324,0.013523,0.002678,0.000431,0.000588
10510000,0.0324,0.013523,0.002678,0.000431,0.000470
10511000,0.0324,0.013523,0.002678,0.000431,0.000588
10512000,0.0324,0.013523,0.002678,0.000431,0.000353
10513000,0.0324,0.013523,0.002678,0.000431,0.000588
10514000,0.0324,0.013523,0.002678,0.000431,0.000353
10515000,0.0324,0.013523,0.002678,0.000431,0.000588
10516000,0.0324,0.013523,0.002678,0.000431,0.000353
10517000,0.0324,0.013523,0.002678,0.000431,0.000588
10518000,0.0324,0.013523,0.002678,0.000431,0.000353
10519000,0.0324,0.013523,0.002678,0.000431,0.000588
10520000,0.0324,0.013523,0.002678,0.000431,0.000353
10521000,0.0324,0.013523,0.002678,0.000431,0.000470
10522000,0.0324,0.013523,0.002678,0.000431,0.000470
10523000,0.0324,0.013523,0.002678,0.000431,0.000470
10524000,0.0324,0.013523,0.002678,0.000431,0.000470
10525000,0.0324,0.013523,0.002678,0.000431,0.000470
10526000,0.0324,0.013523,0.002678,0.000431,0.000470
10527000,0.0324,0.013523,0.002678,0.000431,0.000353
10528000,0.0324,0.013523,0.002678,0.000431,0.000823
10529000,0.0324,0.013523,0.002678,0.000431,0.000353
10530000,0.0324,0.013523,0.002678,0.000431,0.000588
10531000,0.0324,0.013523,0.002678,0.000431,0.000353
10532000,0.0324,0.013523,0.002678,0.000431,0.000588
10533000,0.0324,0.013523,0.002678,0.000431,0.000353
10534000,0.0324,0.013523,0.002678,0.000431,0.000588
10535000,0.0324,0.013523,0.002678,0.000431,0.000353
10536000,0.0324,0.013523,0.002678,0.000431,0.000588
10537000,0.0324,0.013523,0.002678,0.000431,0.000353
10538000,0.0324,0.013523,0.002678,0.000431,0.000588
10539000,0.0324,0.013523,0.002678,0.000431,0.000353
10540000,0.0324,0.013523,0.002678,0.000431,0.000705
10541000,0.0324,0.013523,0.002678,0.000431,0.000470
10542000,0.0324,0.013523,0.002678,0.000431,0.000470
10543000,0.0324,0.013523,0.002678,0.000431,0.000470
10544000,0.0324,0.013523,0.002678,0.000431,0.000588
10545000,0.0324,0.013523,0.002678,0.000431,0.000353
10546000,0.0324,0.013523,0.002678,0.000431,0.000470
10547000,0.0324,0.013523,0.002678,0.000431,0.000470
10548000,0.0324,0.013523,0.002678,0.000431,0.000588
10549000,0.0324,0.013523,0.002678,0.000431,0.000470
10550000,0.0324,0.013523,0.002678,0.000431,0.000588
10551000,0.0324,0.013523,0.002678,0.000431,0.000588
10552000,0.0324,0.013523,0.002678,0.000431,0.000470
10553000,0.0324,0.013523,0.002678,0.000431,0.000705
10554000,0.0324,0.013523,0.002678,0.000431,0.000353
10555000,0.0324,0.013523,0.002678,0.000431,0.000588
10556000,0.0324,0.013523,0.002678,0.000431,0.000353
10557000,0.0324,0.013523,0.002678,0.000431,0.000588
10558000,0.0324,0.013523,0.002678,0.000431,0.000353
10559000,0.0324,0.013523,0.002678,0.000431,0.000588
10560000,0.0324,0.013523,0.002678,0.000431,0.000353
10561000,0.0324,0.013523,0.002678,0.000431,0.000588
10562000,0.0324,0.013523,0.002678,0.000431,0.000353
10563000,0.0324,0.013523,0.002678,0.000431,0.000705
10564000,0.0324,0.013523,0.002678,0.000431,0.000353
10565000,0.0324,0.013523,0.002678,0.000431,0.000470
10566000,0.0324,0.013523,0.002678,0.000431,0.000470
10567000,0.0324,0.013523,0.002678,0.000431,0.000588
10568000,0.0324,0.013523,0.002678,0.000431,0.000353
10569000,0.0324,0.013523,0.002678,0.000431,0.000588
10570000,0.0324,0.013523,0.002678,0.000431,0.000353
10571000,0.0324,0.013523,0.002678,0.000431,0.000705
10572000,0.0324,0.013523,0.002678,0.000431,0.000353
10573000,0.0324,0.013523,0.002678,0.000431,0.000470
10574000,0.0324,0.013523,0.002678,0.000431,0.000470
10575000,0.0324,0.013523,0.002678,0.000431,0.000470
10576000,0.0324,0.013523,0.002678,0.000431,0.000470
10577000,0.0324,0.013523,0.002678,0.000431,0.000588
10578000,0.0324,0.013523,0.002678,0.000431,0.000470
10579000,0.0324,0.013523,0.002678,0.000431,0.000353
10580000,0.0324,0.013523,0.002678,0.000431,0.000588
10581000,0.0324,0.013523,0.002678,0.000431,0.000353
10582000,0.0324,0.013523,0.002678,0.000431,0.000588
10583000,0.0324,0.013523,0.002678,0.000431,0.000353
10584000,0.0324,0.013523,0.002678,0.000431,0.000588
10585000,0.0324,0.013523,0.002678,0.000431,0.000353
10586000,0.0324,0.013523,0.002678,0.000431,0.000588
10587000,0.0324,0.013523,0.002678,0.000431,0.000353
10588000,0.0324,0.013523,0.002678,0.000431,0.000470
10589000,0.0324,0.013523,0.002678,0.000431,0.000470
10590000,0.0324,0.013523,0.002678,0.000431,0.000588
10591000,0.0324,0.013523,0.002678,0.000431,0.000353
10592000,0.0324,0.013523,0.002678,0.000431,0.000705
10593000,0.0324,0.013523,0.002678,0.000431,0.000588
10594000,0.0324,0.013523,0.002678,0.000431,0.000470
10595000,0.0324,0.013523,0.002678,0.000431,0.000705
10596000,0.0324,0.013523,0.002678,0.000431,0.000353
10597000,0.0324,0.013523,0.002678,0.000431,0.000588
10598000,0.0324,0.013523,0.002678,0.000431,0.000353
10599000,0.0324,0.013523,0.002678,0.000431,0.000470
10600000,0.0324,0.013523,0.002678,0.000431,0.000470
10601000,0.0324,0.013523,0.002678,0.000431,0.000470
10602000,0.0324,0.013523,0.002678,0.000431,0.000470
10603000,0.0324,0.013523,0.002678,0.000431,0.000470
10604000,0.0324,0.013523,0.002678,0.000431,0.000470
10605000,0.0324,0.013523,0.002678,0.000431,0.000470
10606000,0.0324,0.013523,0.002678,0.000431,0.000470
10607000,0.0324,0.013523,0.002678,0.000431,0.000470
10608000,0.0324,0.013523,0.002678,0.000431,0.000470
10609000,0.0324,0.013523,0.002678,0.000431,0.000588
10610000,0.0324,0.013523,0.002678,0.000431,0.000470
10611000,0.0324,0.013523,0.002678,0.000431,0.000705
10612000,0.0324,0.013523,0.002678,0.000431,0.000353
10613000,0.0324,0.013523,0.002678,0.000431,0.000705
10614000,0.0324,0.013523,0.002678,0.000431,0.000470
10615000,0.0324,0.013523,0.002678,0.000431,0.000470
10616000,0.0324,0.013523,0.002678,0.000431,0.000470
10617000,0.0324,0.013523,0.002678,0.000431,0.000470
10618000,0.0324,0.013523,0.002678,0.000431,0.000470
10619000,0.0324,0.013523,0.002678,0.000431,0.000470
10620000,0.0324,0.013523,0.002678,0.000431,0.000470
10621000,0.0324,0.013523,0.002678,0.000431,0.000588
10622000,0.0324,0.013523,0.002678,0.000431,0.000588
10623000,0.0324,0.013523,0.002678,0.000431,0.000470
10624000,0.0324,0.013523,0.002678,0.000431,0.000353
10625000,0.0324,0.013523,0.002678,0.000431,0.000588
10626000,0.0324,0.013523,0.002678,0.000431,0.000353
10627000,0.0324,0.013523,0.002678,0.000431,0.000588
10628000,0.0324,0.013523,0.002678,0.000431,0.000353
10629000,0.0324,0.013523,0.002678,0.000431,0.000588
10630000,0.0324,0.013523,0.002678,0.000431,0.000353
10631000,0.0324,0.013523,0.002678,0.000431,0.000705
10632000,0.0324,0.013523,0.002678,0.000431,0.000353
10633000,0.0324,0.013523,0.002678,0.000431,0.000705
10634000,0.0324,0.013523,0.002678,0.000431,0.000588
10635000,0.0324,0.013523,0.002678,0.000431,0.000470
10636000,0.0324,0.013523,0.002678,0.000431,0.000705
10637000,0.0324,0.013523,0.002678,0.000431,0.000353
10638000,0.0324,0.013523,0.002678,0.000431,0.000588
10639000,0.0324,0.013523,0.002678,0.000431,0.000353
10640000,0.0324,0.013523,0.002678,0.000431,0.000588
10641000,0.0324,0.013523,0.002678,0.000431,0.000353
10642000,0.0324,0.013523,0.002678,0.000431,0.000588
10643000,0.0324,0.013523,0.002678,0.000431,0.000353
10644000,0.0324,0.013523,0.002678,0.000431,0.000470
10645000,0.0324,0.013523,0.002678,0.000431,0.000470
10646000,0.0324,0.013523,0.002678,0.000431,0.000470
10647000,0.0324,0.013523,0.002678,0.000431,0.000470
10648000,0.0324,0.013523,0.002678,0.000431,0.000588
10649000,0.0324,0.013523,0.002678,0.000431,0.000470
10650000,0.0324,0.013523,0.002678,0.000431,0.000353
10651000,0.0324,0.013523,0.002678,0.000431,0.000588
10652000,0.0324,0.013523,0.002678,0.000431,0.000353
10653000,0.0324,0.013523,0.002678,0.000431,0.000470
10654000,0.0324,0.013523,0.002678,0.000431,0.000470
10655000,0.0324,0.013523,0.002678,0.000431,0.000588
10656000,0.0324,0.013523,0.002678,0.000431,0.000353
10657000,0.0324,0.013523,0.002678,0.000431,0.000588
10658000,0.0324,0.013523,0.002678,0.000431,0.000353
10659000,0.0324,0.013523,0.002678,0.000431,0.000588
10660000,0.0324,0.013523,0.002678,0.000431,0.000353
10661000,0.0324,0.013523,0.002678,0.000431,0.000470
10662000,0.0324,0.013523,0.002678,0.000431,0.000470
10663000,0.0324,0.013523,0.002678,0.000431,0.000588
10664000,0.0324,0.013523,0.002678,0.000431,0.000353
10665000,0.0324,0.013523,0.002678,0.000431,0.000588
10666000,0.0324,0.013523,0.002678,0.000431,0.000353
10667000,0.0324,0.013523,0.002678,0.000431,0.000705
10668000,0.0324,0.013523,0.002678,0.000431,0.000588
10669000,0.0324,0.013523,0.002678,0.000431,0.000470
10670000,0.0324,0.013523,0.002678,0.000431,0.000470
10671000,0.0324,0.013523,0.002678,0.000431,0.000470
10672000,0.0324,0.013523,0.002678,0.000431,0.000470
10673000,0.0324,0.013523,0.002678,0.000431,0.000470
10674000,0.0324,0.013523,0.002678,0.000431,0.000470
10675000,0.0324,0.013523,0.002678,0.000431,0.000470
10676000,0.0324,0.013523,0.002678,0.000431,0.000353
10677000,0.0324,0.013523,0.002678,0.000431,0.000588
10678000,0.0324,0.013523,0.002678,0.000431,0.000353
10679000,0.0324,0.013523,0.002678,0.000431,0.000705
10680000,0.0324,0.013523,0.002678,0.000431,0.000470
10681000,0.0324,0.013523,0.002678,0.000431,0.000470
10682000,0.0324,0.013523,0.002678,0.000431,0.000588
10683000,0.0324,0.013523,0.002678,0.000431,0.000470
10684000,0.0324,0.013523,0.002678,0.000431,0.000588
10685000,0.0324,0.013523,0.002678,0.000431,0.000353
10686000,0.0324,0.013523,0.002678,0.000431,0.000588
10687000,0.0324,0.013523,0.002678,0.000431,0.000353
10688000,0.0324,0.013523,0.002678,0.000431,0.000588
10689000,0.0324,0.013523,0.002678,0.000431,0.000353
10690000,0.0324,0.013523,0.002678,0.000431,0.000588
10691000,0.0324,0.013523,0.002678,0.000431,0.000470
10692000,0.0324,0.013523,0.002678,0.000431,0.000588
10693000,0.0324,0.013523,0.002678,0.000431,0.000470
10694000,0.0324,0.013523,0.002678,0.000431,0.000588
10695000,0.0324,0.013523,0.002678,0.000431,0.000353
10696000,0.0324,0.013523,0.002678,0.000431,0.000470
10697000,0.0324,0.013523,0.002678,0.000431,0.000470
10698000,0.0324,0.013523,0.002678,0.000431,0.000470
10699000,0.0324,0.013523,0.002678,0.000431,0.000470
10700000,0.0324,0.013523,0.002678,0.000431,0.000470
10701000,0.0324,0.013523,0.002678,0.000431,0.000470
10702000,0.0324,0.013523,0.002678,0.000431,0.000353
10703000,0.0324,0.013523,0.002678,0.000431,0.000588
10704000,0.0324,0.013523,0.002678,0.000431,0.000353
10705000,0.0324,0.013523,0.002678,0.000431,0.000588
10706000,0.0324,0.013523,0.002678,0.000431,0.000353
10707000,0.0324,0.013523,0.002678,0.000431,0.000588
10708000,0.0324,0.013523,0.002678,0.000431,0.000353
10709000,0.0324,0.013523,0.002678,0.000431,0.000588
10710000,0.0324,0.013523,0.002678,0.000431,0.000353
10711000,0.0324,0.013523,0.002678,0.000431,0.000588
10712000,0.0324,0.013523,0.002678,0.000431,0.000353
10713000,0.0324,0.013523,0.002678,0.000431,0.000588
10714000,0.0324,0.013523,0.002678,0.000431,0.000470
10715000,0.0324,0.013523,0.002678,0.000431,0.000705
10716000,0.0324,0.013523,0.002678,0.000431,0.000353
10717000,0.0324,0.013523,0.002678,0.000431,0.000588
10718000,0.0324,0.013523,0.002678,0.000431,0.000353
10719000,0.0324,0.013523,0.002678,0.000431,0.000588
10720000,0.0324,0.013523,0.002678,0.000431,0.000470
10721000,0.0324,0.013523,0.002678,0.000431,0.000588
10722000,0.0324,0.013523,0.002678,0.000431,0.000353
10723000,0.0324,0.013523,0.002678,0.000431,0.000588
10724000,0.0324,0.013523,0.002678,0.000431,0.000353
10725000,0.0324,0.013523,0.002678,0.000431,0.000588
10726000,0.0324,0.013523,0.002678,0.000431,0.000353
10727000,0.0324,0.013523,0.002678,0.000431,0.000588
10728000,0.0324,0.013523,0.002678,0.000431,0.000353
10729000,0.0324,0.013523,0.002678,0.000431,0.000470
10730000,0.0324,0.013523,0.002678,0.000431,0.000470
10731000,0.0324,0.013523,0.002678,0.000431,0.000470
10732000,0.0324,0.013523,0.002678,0.000431,0.000470
10733000,0.0324,0.013523,0.002678,0.000431,0.000353
10734000,0.0324,0.013523,0.002678,0.000431,0.000588
10735000,0.0324,0.013523,0.002678,0.000431,0.000353
10736000,0.0324,0.013523,0.002678,0.000431,0.000588
10737000,0.0324,0.013523,0.002678,0.000431,0.000353
10738000,0.0324,0.013523,0.002678,0.000431,0.000823
10739000,0.0324,0.013523,0.002678,0.000431,0.000353
10740000,0.0324,0.013523,0.002678,0.000431,0.000588
10741000,0.0324,0.013523,0.002678,0.000431,0.000353
10742000,0.0324,0.013523,0.002678,0.000431,0.000823
10743000,0.0324,0.013523,0.002678,0.000431,0.000353
10744000,0.0324,0.013523,0.002678,0.000431,0.000588
10745000,0.0324,0.013523,0.002678,0.000431,0.000353
10746000,0.0324,0.013523,0.002678,0.000431,0.000588
10747000,0.0324,0.013523,0.002678,0.000431,0.000353
10748000,0.0324,0.013523,0.002678,0.000431,0.000470
10749000,0.0324,0.013523,0.002678,0.000431,0.000470
10750000,0.0324,0.013523,0.002678,0.000431,0.000470
10751000,0.0324,0.013523,0.002678,0.000431,0.000470
10752000,0.0324,0.013523,0.002678,0.000431,0.000470
10753000,0.0324,0.013523,0.002678,0.000431,0.000470
10754000,0.0324,0.013523,0.002678,0.000431,0.000470
10755000,0.0324,0.013523,0.002678,0.000431,0.000470
10756000,0.0324,0.013523,0.002678,0.000431,0.000470
10757000,0.0324,0.013523,0.002678,0.000431,0.000470
10758000,0.0324,0.013523,0.002678,0.000431,0.000470
10759000,0.0324,0.013523,0.002678,0.000431,0.000353
10760000,0.0324,0.013523,0.002678,0.000431,0.000588
10761000,0.0324,0.013523,0.002678,0.000431,0.000353
10762000,0.0324,0.013523,0.002678,0.000431,0.000588
10763000,0.0324,0.013523,0.002678,0.000431,0.000353
10764000,0.0324,0.013523,0.002678,0.000431,0.000588
10765000,0.0324,0.013523,0.002678,0.000431,0.000353
10766000,0.0324,0.013523,0.002678,0.000431,0.000705
10767000,0.0324,0.013523,0.002678,0.000431,0.000353
10768000,0.0324,0.013523,0.002678,0.000431,0.000588
10769000,0.0324,0.013523,0.002678,0.000431,0.000353
10770000,0.0324,0.013523,0.002678,0.000431,0.000588
10771000,0.0324,0.013523,0.002678,0.000431,0.000353
10772000,0.0324,0.013523,0.002678,0.000431,0.000705
10773000,0.0324,0.013523,0.002678,0.000431,0.000353
10774000,0.0324,0.013523,0.002678,0.000431,0.000588
10775000,0.0324,0.013523,0.002678,0.000431,0.000353
10776000,0.0324,0.013523,0.002678,0.000431,0.000588
10777000,0.0324,0.013523,0.002678,0.000431,0.000353
10778000,0.0324,0.013523,0.002678,0.000431,0.000588
10779000,0.0324,0.013523,0.002678,0.000431,0.000353
10780000,0.0324,0.013523,0.002678,0.000431,0.000588
10781000,0.0324,0.013523,0.002678,0.000431,0.000353
10782000,0.0324,0.013523,0.002678,0.000431,0.000588
10783000,0.0324,0.013523,0.002678,0.000431,0.000353
10784000,0.0324,0.013523,0.002678,0.000431,0.000588
10785000,0.0324,0.013523,0.002678,0.000431,0.000353
10786000,0.0324,0.013523,0.002678,0.000431,0.000588
10787000,0.0324,0.013523,0.002678,0.000431,0.000353
10788000,0.0324,0.013523,0.002678,0.000431,0.000470
10789000,0.0324,0.013523,0.002678,0.000431,0.000470
10790000,0.0324,0.013523,0.002678,0.000431,0.000470
10791000,0.0324,0.013523,0.002678,0.000431,0.000470
10792000,0.0324,0.013523,0.002678,0.000431,0.000353
10793000,0.0324,0.013523,0.002678,0.000431,0.000588
10794000,0.0324,0.013523,0.002678,0.000431,0.000353
10795000,0.0324,0.013523,0.002678,0.000431,0.000588
10796000,0.0324,0.013523,0.002678,0.000431,0.000353
10797000,0.0324,0.013523,0.002678,0.000431,0.000705
10798000,0.0324,0.013523,0.002678,0.000431,0.000470
10799000,0.0324,0.013523,0.002678,0.000431,0.000588
10800000,0.0324,0.013523,0.002678,0.000431,0.000353
10801000,0.0324,0.013523,0.002678,0.000431,0.000588
10802000,0.0324,0.013523,0.002678,0.000431,0.000353
10803000,0.0324,0.013523,0.002678,0.000431,0.000705
10804000,0.0324,0.013523,0.002678,0.000431,0.000470
10805000,0.0324,0.013523,0.002678,0.000431,0.000470
10806000,0.0324,0.013523,0.002678,0.000431,0.000470
10807000,0.0324,0.013523,0.002678,0.000431,0.000470
10808000,0.0324,0.013523,0.002678,0.000431,0.000470
10809000,0.0324,0.013523,0.002678,0.000431,0.000470
10810000,0.0324,0.013523,0.002678,0.000431,0.000470
10811000,0.0324,0.013523,0.002678,0.000431,0.000470
10812000,0.0324,0.013523,0.002678,0.000431,0.000470
10813000,0.0324,0.013523,0.002678,0.000431,0.000470
10814000,0.0324,0.013523,0.002678,0.000431,0.000470
10815000,0.0324,0.013523,0.002678,0.000431,0.000470
10816000,0.0324,0.013523,0.002678,0.000431,0.000470
10817000,0.0324,0.013523,0.002678,0.000431,0.000470
10818000,0.0324,0.013523,0.002678,0.000431,0.000353
10819000,0.0324,0.013523,0.002678,0.000431,0.000588
10820000,0.0324,0.013523,0.002678,0.000431,0.000353
10821000,0.0324,0.013523,0.002678,0.000431,0.000705
10822000,0.0324,0.013523,0.002678,0.000431,0.000353
10823000,0.0324,0.013523,0.002678,0.000431,0.000705
10824000,0.0324,0.013523,0.002678,0.000431,0.000470
10825000,0.0324,0.013523,0.002678,0.000431,0.000470
10826000,0.0324,0.013523,0.002678,0.000431,0.000470
10827000,0.0324,0.013523,0.002678,0.000431,0.000470
10828000,0.0324,0.013523,0.002678,0.000431,0.000470
10829000,0.0324,0.013523,0.002678,0.000431,0.000470
10830000,0.0324,0.013523,0.002678,0.000431,0.000470
10831000,0.0324,0.013523,0.002678,0.000431,0.000470
10832000,0.0324,0.013523,0.002678,0.000431,0.000470
10833000,0.0324,0.013523,0.002678,0.000431,0.000588
10834000,0.0324,0.013523,0.002678,0.000431,0.000353
10835000,0.0324,0.013523,0.002678,0.000431,0.000588
10836000,0.0324,0.013523,0.002678,0.000431,0.000353
10837000,0.0324,0.013523,0.002678,0.000431,0.000470
10838000,0.0324,0.013523,0.002678,0.000431,0.000470
10839000,0.0324,0.013523,0.002678,0.000431,0.000470
10840000,0.0324,0.013523,0.002678,0.000431,0.000470
10841000,0.0324,0.013523,0.002678,0.000431,0.000588
10842000,0.0324,0.013523,0.002678,0.000431,0.000588
10843000,0.0324,0.013523,0.002678,0.000431,0.000470
10844000,0.0324,0.013523,0.002678,0.000431,0.000353
10845000,0.0324,0.013523,0.002678,0.000431,0.000588
10846000,0.0324,0.013523,0.002678,0.000431,0.000353
10847000,0.0324,0.013523,0.002678,0.000431,0.000705
10848000,0.0324,0.013523,0.002678,0.000431,0.000470
10849000,0.0324,0.013523,0.002678,0.000431,0.000588
10850000,0.0324,0.013523,0.002678,0.000431,0.000353
10851000,0.0324,0.013523,0.002678,0.000431,0.000588
10852000,0.0324,0.013523,0.002678,0.000431,0.000353
10853000,0.0324,0.013523,0.002678,0.000431,0.000588
10854000,0.0324,0.013523,0.002678,0.000431,0.000235
10855000,0.0324,0.013523,0.002678,0.000431,0.000705
10856000,0.0324,0.013523,0.002678,0.000431,0.000353
10857000,0.0324,0.013523,0.002678,0.000431,0.000588
10858000,0.0324,0.013523,0.002678,0.000431,0.000353
10859000,0.0324,0.013523,0.002678,0.000431,0.000588
10860000,0.0324,0.013523,0.002678,0.000431,0.000353
10861000,0.0324,0.013523,0.002678,0.000431,0.000588
10862000,0.0324,0.013523,0.002678,0.000431,0.000353
10863000,0.0324,0.013523,0.002678,0.000431,0.000705
10864000,0.0324,0.013523,0.002678,0.000431,0.000470
10865000,0.0324,0.013523,0.002678,0.000431,0.000588
10866000,0.0324,0.013523,0.002678,0.000431,0.000470
10867000,0.0324,0.013523,0.002678,0.000431,0.000470
10868000,0.0324,0.013523,0.002678,0.000431,0.000470
10869000,0.0324,0.013523,0.002678,0.000431,0.000470
10870000,0.0324,0.013523,0.002678,0.000431,0.000470
10871000,0.0324,0.013523,0.002678,0.000431,0.000353
10872000,0.0324,0.013523,0.002678,0.000431,0.000588
10873000,0.0324,0.013523,0.002678,0.000431,0.000588
10874000,0.0324,0.013523,0.002678,0.000431,0.000470
10875000,0.0324,0.013523,0.002678,0.000431,0.000470
10876000,0.0324,0.013523,0.002678,0.000431,0.000470
10877000,0.0324,0.013523,0.002678,0.000431,0.000588
10878000,0.0324,0.013523,0.002678,0.000431,0.000470
10879000,0.0324,0.013523,0.002678,0.000431,0.000470
10880000,0.0324,0.013523,0.002678,0.000431,0.000470
10881000,0.0324,0.013523,0.002678,0.000431,0.000588
10882000,0.0324,0.013523,0.002678,0.000431,0.000470
10883000,0.0324,0.013523,0.002678,0.000431,0.000705
10884000,0.0324,0.013523,0.002678,0.000431,0.000353
10885000,0.0324,0.013523,0.002678,0.000431,0.000705
10886000,0.0324,0.013523,0.002678,0.000431,0.000470
10887000,0.0324,0.013523,0.002678,0.000431,0.000470
10888000,0.0324,0.013523,0.002678,0.000431,0.000470
10889000,0.0324,0.013523,0.002678,0.000431,0.000705
10890000,0.0324,0.013523,0.002678,0.000431,0.000353
10891000,0.0324,0.013523,0.002678,0.000431,0.000705
10892000,0.0324,0.013523,0.002678,0.000431,0.000470
10893000,0.0324,0.013523,0.002678,0.000431,0.000470
10894000,0.0324,0.013523,0.002678,0.000431,0.000470
10895000,0.0324,0.013523,0.002678,0.000431,0.000470
10896000,0.0324,0.013523,0.002678,0.000431,0.000353
10897000,0.0324,0.013523,0.002678,0.000431,0.000588
10898000,0.0324,0.013523,0.002678,0.000431,0.000353
10899000,0.0324,0.013523,0.002678,0.000431,0.000470
10900000,0.0324,0.013523,0.002678,0.000431,0.000470
10901000,0.0324,0.013523,0.002678,0.000431,0.000588
10902000,0.0324,0.013523,0.002678,0.000431,0.000353
10903000,0.0324,0.013523,0.002678,0.000431,0.000823
10904000,0.0324,0.013523,0.002678,0.000431,0.000353
10905000,0.0324,0.013523,0.002678,0.000431,0.000588
10906000,0.0324,0.013523,0.002678,0.000431,0.000353
10907000,0.0324,0.013523,0.002678,0.000431,0.000588
10908000,0.0324,0.013523,0.002678,0.000431,0.000353
10909000,0.0324,0.013523,0.002678,0.000431,0.000588
10910000,0.0324,0.013523,0.002678,0.000431,0.000353
10911000,0.0324,0.013523,0.002678,0.000431,0.000588
10912000,0.0324,0.013523,0.002678,0.000431,0.000353
10913000,0.0324,0.013523,0.002678,0.000431,0.000705
10914000,0.0324,0.013523,0.002678,0.000431,0.000353
10915000,0.0324,0.013523,0.002678,0.000431,0.000588
10916000,0.0324,0.013523,0.002678,0.000431,0.000470
10917000,0.0324,0.013523,0.002678,0.000431,0.000353
10918000,0.0324,0.013523,0.002678,0.000431,0.000705
10919000,0.0324,0.013523,0.002678,0.000431,0.000470
10920000,0.0324,0.013523,0.002678,0.000431,0.000470
10921000,0.0324,0.013523,0.002678,0.000431,0.000353
10922000,0.0324,0.013523,0.002678,0.000431,0.000588
10923000,0.0324,0.013523,0.002678,0.000431,0.000353
10924000,0.0324,0.013523,0.002678,0.000431,0.000588
10925000,0.0324,0.013523,0.002678,0.000431,0.000353
10926000,0.0324,0.013523,0.002678,0.000431,0.000588
10927000,0.0324,0.013523,0.002678,0.000431,0.000353
10928000,0.0324,0.013523,0.002678,0.000431,0.000588
10929000,0.0324,0.013523,0.002678,0.000431,0.000353
10930000,0.0324,0.013523,0.002678,0.000431,0.000588
10931000,0.0324,0.013523,0.002678,0.000431,0.000353
10932000,0.0324,0.013523,0.002678,0.000431,0.000588
10933000,0.0324,0.013523,0.002678,0.000431,0.000353
10934000,0.0324,0.013523,0.002678,0.000431,0.000470
10935000,0.0324,0.013523,0.002678,0.000431,0.000470
10936000,0.0324,0.013523,0.002678,0.000431,0.000470
10937000,0.0324,0.013523,0.002678,0.000431,0.000470
10938000,0.0324,0.013523,0.002678,0.000431,0.000470
10939000,0.0324,0.013523,0.002678,0.000431,0.000353
10940000,0.0324,0.013523,0.002678,0.000431,0.000705
10941000,0.0324,0.013523,0.002678,0.000431,0.000353
10942000,0.0324,0.013523,0.002678,0.000431,0.000705
10943000,0.0324,0.013523,0.002678,0.000431,0.000588
10944000,0.0324,0.013523,0.002678,0.000431,0.000470
10945000,0.0324,0.013523,0.002678,0.000431,0.000588
10946000,0.0324,0.013523,0.002678,0.000431,0.000470
10947000,0.0324,0.013523,0.002678,0.000431,0.000470
10948000,0.0324,0.013523,0.002678,0.000431,0.000470
10949000,0.0324,0.013523,0.002678,0.000431,0.000588
10950000,0.0324,0.013523,0.002678,0.000431,0.000470
10951000,0.0324,0.013523,0.002678,0.000431,0.000705
10952000,0.0324,0.013523,0.002678,0.000431,0.000353
10953000,0.0324,0.013523,0.002678,0.000431,0.000470
10954000,0.0324,0.013523,0.002678,0.000431,0.000353
10955000,0.0324,0.013523,0.002678,0.000431,0.000588
10956000,0.0324,0.013523,0.002678,0.000431,0.000353
10957000,0.0324,0.013523,0.002678,0.000431,0.000588
10958000,0.0324,0.013523,0.002678,0.000431,0.000470
10959000,0.0324,0.013523,0.002678,0.000431,0.000470
10960000,0.0324,0.013523,0.002678,0.000431,0.000470
10961000,0.0324,0.013523,0.002678,0.000431,0.000470
10962000,0.0324,0.013523,0.002678,0.000431,0.000470
10963000,0.0324,0.013523,0.002678,0.000431,0.000470
10964000,0.0324,0.013523,0.002678,0.000431,0.000470
10965000,0.0324,0.013523,0.002678,0.000431,0.000470
10966000,0.0324,0.013523,0.002678,0.000431,0.000470
10967000,0.0324,0.013523,0.002678,0.000431,0.000470
10968000,0.0324,0.013523,0.002678,0.000431,0.000470
10969000,0.0324,0.013523,0.002678,0.000431,0.000470
10970000,0.0324,0.013523,0.002678,0.000431,0.000470
10971000,0.0324,0.013523,0.002678,0.000431,0.000470
10972000,0.0324,0.013523,0.002678,0.000431,0.000470
10973000,0.0324,0.013523,0.002678,0.000431,0.000470
10974000,0.0324,0.013523,0.002678,0.000431,0.000470
10975000,0.0324,0.013523,0.002678,0.000431,0.000353
10976000,0.0324,0.013523,0.002678,0.000431,0.000705
10977000,0.0324,0.013523,0.002678,0.000431,0.000353
10978000,0.0324,0.013523,0.002678,0.000431,0.000705
10979000,0.0324,0.013523,0.002678,0.000431,0.000588
10980000,0.0324,0.013523,0.002678,0.000431,0.000470
10981000,0.0324,0.013523,0.002678,0.000431,0.000705
10982000,0.0324,0.013523,0.002678,0.000431,0.000353
10983000,0.0324,0.013523,0.002678,0.000431,0.000705
10984000,0.0324,0.013523,0.002678,0.000431,0.000470
10985000,0.0324,0.013523,0.002678,0.000431,0.000470
10986000,0.0324,0.013523,0.002678,0.000431,0.000470
10987000,0.0324,0.013523,0.002678,0.000431,0.000470
10988000,0.0324,0.013523,0.002678,0.000431,0.000353
10989000,0.0324,0.013523,0.002678,0.000431,0.000588
10990000,0.0324,0.013523,0.002678,0.000431,0.000353
10991000,0.0324,0.013523,0.002678,0.000431,0.000588
10992000,0.0324,0.013523,0.002678,0.000431,0.000353
10993000,0.0324,0.013523,0.002678,0.000431,0.000588
10994000,0.0324,0.013523,0.002678,0.000431,0.000353
10995000,0.0324,0.013523,0.002678,0.000431,0.000588
10996000,0.0324,0.013523,0.002678,0.000431,0.000353
10997000,0.0324,0.013523,0.002678,0.000431,0.000588
10998000,0.0324,0.013523,0.002678,0.000431,0.000353
10999000,0.0324,0.013523,0.002678,0.000431,0.000588
