Cycle,Area(mm^2),PeakDynamic(W),SubthresholdLeakage(W),GateLeakage(W),RunTimeDynamic(W)
47000000,0.0324,0.013523,0.002678,0.000431,0.000470
47001000,0.0324,0.013523,0.002678,0.000431,0.000705
47002000,0.0324,0.013523,0.002678,0.000431,0.000470
47003000,0.0324,0.013523,0.002678,0.000431,0.000705
47004000,0.0324,0.013523,0.002678,0.000431,0.000353
47005000,0.0324,0.013523,0.002678,0.000431,0.000588
47006000,0.0324,0.013523,0.002678,0.000431,0.000470
47007000,0.0324,0.013523,0.002678,0.000431,0.000470
47008000,0.0324,0.013523,0.002678,0.000431,0.000353
47009000,0.0324,0.013523,0.002678,0.000431,0.000588
47010000,0.0324,0.013523,0.002678,0.000431,0.000353
47011000,0.0324,0.013523,0.002678,0.000431,0.000588
47012000,0.0324,0.013523,0.002678,0.000431,0.000353
47013000,0.0324,0.013523,0.002678,0.000431,0.000588
47014000,0.0324,0.013523,0.002678,0.000431,0.000353
47015000,0.0324,0.013523,0.002678,0.000431,0.000588
47016000,0.0324,0.013523,0.002678,0.000431,0.000353
47017000,0.0324,0.013523,0.002678,0.000431,0.000588
47018000,0.0324,0.013523,0.002678,0.000431,0.000353
47019000,0.0324,0.013523,0.002678,0.000431,0.000588
47020000,0.0324,0.013523,0.002678,0.000431,0.000353
47021000,0.0324,0.013523,0.002678,0.000431,0.000588
47022000,0.0324,0.013523,0.002678,0.000431,0.000353
47023000,0.0324,0.013523,0.002678,0.000431,0.000588
47024000,0.0324,0.013523,0.002678,0.000431,0.000353
47025000,0.0324,0.013523,0.002678,0.000431,0.000588
47026000,0.0324,0.013523,0.002678,0.000431,0.000470
47027000,0.0324,0.013523,0.002678,0.000431,0.000705
47028000,0.0324,0.013523,0.002678,0.000431,0.000353
47029000,0.0324,0.013523,0.002678,0.000431,0.000588
47030000,0.0324,0.013523,0.002678,0.000431,0.000353
47031000,0.0324,0.013523,0.002678,0.000431,0.000588
47032000,0.0324,0.013523,0.002678,0.000431,0.000353
47033000,0.0324,0.013523,0.002678,0.000431,0.000588
47034000,0.0324,0.013523,0.002678,0.000431,0.000353
47035000,0.0324,0.013523,0.002678,0.000431,0.000588
47036000,0.0324,0.013523,0.002678,0.000431,0.000353
47037000,0.0324,0.013523,0.002678,0.000431,0.000705
47038000,0.0324,0.013523,0.002678,0.000431,0.000353
47039000,0.0324,0.013523,0.002678,0.000431,0.000705
47040000,0.0324,0.013523,0.002678,0.000431,0.000353
47041000,0.0324,0.013523,0.002678,0.000431,0.000705
47042000,0.0324,0.013523,0.002678,0.000431,0.000470
47043000,0.0324,0.013523,0.002678,0.000431,0.000470
47044000,0.0324,0.013523,0.002678,0.000431,0.000470
47045000,0.0324,0.013523,0.002678,0.000431,0.000588
47046000,0.0324,0.013523,0.002678,0.000431,0.000353
47047000,0.0324,0.013523,0.002678,0.000431,0.000588
47048000,0.0324,0.013523,0.002678,0.000431,0.000353
47049000,0.0324,0.013523,0.002678,0.000431,0.000588
47050000,0.0324,0.013523,0.002678,0.000431,0.000353
47051000,0.0324,0.013523,0.002678,0.000431,0.000470
47052000,0.0324,0.013523,0.002678,0.000431,0.000470
47053000,0.0324,0.013523,0.002678,0.000431,0.000588
47054000,0.0324,0.013523,0.002678,0.000431,0.000470
47055000,0.0324,0.013523,0.002678,0.000431,0.000588
47056000,0.0324,0.013523,0.002678,0.000431,0.000353
47057000,0.0324,0.013523,0.002678,0.000431,0.000588
47058000,0.0324,0.013523,0.002678,0.000431,0.000353
47059000,0.0324,0.013523,0.002678,0.000431,0.000705
47060000,0.0324,0.013523,0.002678,0.000431,0.000353
47061000,0.0324,0.013523,0.002678,0.000431,0.000705
47062000,0.0324,0.013523,0.002678,0.000431,0.000588
47063000,0.0324,0.013523,0.002678,0.000431,0.000470
47064000,0.0324,0.013523,0.002678,0.000431,0.000705
47065000,0.0324,0.013523,0.002678,0.000431,0.000353
47066000,0.0324,0.013523,0.002678,0.000431,0.000588
47067000,0.0324,0.013523,0.002678,0.000431,0.000353
47068000,0.0324,0.013523,0.002678,0.000431,0.000588
47069000,0.0324,0.013523,0.002678,0.000431,0.000353
47070000,0.0324,0.013523,0.002678,0.000431,0.000470
47071000,0.0324,0.013523,0.002678,0.000431,0.000470
47072000,0.0324,0.013523,0.002678,0.000431,0.000470
47073000,0.0324,0.013523,0.002678,0.000431,0.000470
47074000,0.0324,0.013523,0.002678,0.000431,0.000470
47075000,0.0324,0.013523,0.002678,0.000431,0.000470
47076000,0.0324,0.013523,0.002678,0.000431,0.000470
47077000,0.0324,0.013523,0.002678,0.000431,0.000470
47078000,0.0324,0.013523,0.002678,0.000431,0.000470
47079000,0.0324,0.013523,0.002678,0.000431,0.000470
47080000,0.0324,0.013523,0.002678,0.000431,0.000470
47081000,0.0324,0.013523,0.002678,0.000431,0.000470
47082000,0.0324,0.013523,0.002678,0.000431,0.000470
47083000,0.0324,0.013523,0.002678,0.000431,0.000470
47084000,0.0324,0.013523,0.002678,0.000431,0.000470
47085000,0.0324,0.013523,0.002678,0.000431,0.000470
47086000,0.0324,0.013523,0.002678,0.000431,0.000588
47087000,0.0324,0.013523,0.002678,0.000431,0.000470
47088000,0.0324,0.013523,0.002678,0.000431,0.000705
47089000,0.0324,0.013523,0.002678,0.000431,0.000353
47090000,0.0324,0.013523,0.002678,0.000431,0.000588
47091000,0.0324,0.013523,0.002678,0.000431,0.000353
47092000,0.0324,0.013523,0.002678,0.000431,0.000588
47093000,0.0324,0.013523,0.002678,0.000431,0.000353
47094000,0.0324,0.013523,0.002678,0.000431,0.000588
47095000,0.0324,0.013523,0.002678,0.000431,0.000353
47096000,0.0324,0.013523,0.002678,0.000431,0.000470
47097000,0.0324,0.013523,0.002678,0.000431,0.000470
47098000,0.0324,0.013523,0.002678,0.000431,0.000470
47099000,0.0324,0.013523,0.002678,0.000431,0.000470
47100000,0.0324,0.013523,0.002678,0.000431,0.000470
47101000,0.0324,0.013523,0.002678,0.000431,0.000470
47102000,0.0324,0.013523,0.002678,0.000431,0.000470
47103000,0.0324,0.013523,0.002678,0.000431,0.000470
47104000,0.0324,0.013523,0.002678,0.000431,0.000470
47105000,0.0324,0.013523,0.002678,0.000431,0.000470
47106000,0.0324,0.013523,0.002678,0.000431,0.000470
47107000,0.0324,0.013523,0.002678,0.000431,0.000470
47108000,0.0324,0.013523,0.002678,0.000431,0.000470
47109000,0.0324,0.013523,0.002678,0.000431,0.000470
47110000,0.0324,0.013523,0.002678,0.000431,0.000470
47111000,0.0324,0.013523,0.002678,0.000431,0.000470
47112000,0.0324,0.013523,0.002678,0.000431,0.000470
47113000,0.0324,0.013523,0.002678,0.000431,0.000353
47114000,0.0324,0.013523,0.002678,0.000431,0.000588
47115000,0.0324,0.013523,0.002678,0.000431,0.000353
47116000,0.0324,0.013523,0.002678,0.000431,0.000705
47117000,0.0324,0.013523,0.002678,0.000431,0.000353
47118000,0.0324,0.013523,0.002678,0.000431,0.000588
47119000,0.0324,0.013523,0.002678,0.000431,0.000353
47120000,0.0324,0.013523,0.002678,0.000431,0.000588
47121000,0.0324,0.013523,0.002678,0.000431,0.000353
47122000,0.0324,0.013523,0.002678,0.000431,0.000705
47123000,0.0324,0.013523,0.002678,0.000431,0.000470
47124000,0.0324,0.013523,0.002678,0.000431,0.000470
47125000,0.0324,0.013523,0.002678,0.000431,0.000470
47126000,0.0324,0.013523,0.002678,0.000431,0.000353
47127000,0.0324,0.013523,0.002678,0.000431,0.000588
47128000,0.0324,0.013523,0.002678,0.000431,0.000353
47129000,0.0324,0.013523,0.002678,0.000431,0.000470
47130000,0.0324,0.013523,0.002678,0.000431,0.000353
47131000,0.0324,0.013523,0.002678,0.000431,0.000588
47132000,0.0324,0.013523,0.002678,0.000431,0.000353
47133000,0.0324,0.013523,0.002678,0.000431,0.000588
47134000,0.0324,0.013523,0.002678,0.000431,0.000353
47135000,0.0324,0.013523,0.002678,0.000431,0.000705
47136000,0.0324,0.013523,0.002678,0.000431,0.000353
47137000,0.0324,0.013523,0.002678,0.000431,0.000470
47138000,0.0324,0.013523,0.002678,0.000431,0.000353
47139000,0.0324,0.013523,0.002678,0.000431,0.000705
47140000,0.0324,0.013523,0.002678,0.000431,0.000353
47141000,0.0324,0.013523,0.002678,0.000431,0.000588
47142000,0.0324,0.013523,0.002678,0.000431,0.000353
47143000,0.0324,0.013523,0.002678,0.000431,0.000588
47144000,0.0324,0.013523,0.002678,0.000431,0.000235
47145000,0.0324,0.013523,0.002678,0.000431,0.000588
47146000,0.0324,0.013523,0.002678,0.000431,0.000353
47147000,0.0324,0.013523,0.002678,0.000431,0.000823
47148000,0.0324,0.013523,0.002678,0.000431,0.000353
47149000,0.0324,0.013523,0.002678,0.000431,0.000588
47150000,0.0324,0.013523,0.002678,0.000431,0.000470
47151000,0.0324,0.013523,0.002678,0.000431,0.000705
47152000,0.0324,0.013523,0.002678,0.000431,0.000353
47153000,0.0324,0.013523,0.002678,0.000431,0.000588
47154000,0.0324,0.013523,0.002678,0.000431,0.000353
47155000,0.0324,0.013523,0.002678,0.000431,0.000588
47156000,0.0324,0.013523,0.002678,0.000431,0.000353
47157000,0.0324,0.013523,0.002678,0.000431,0.000588
47158000,0.0324,0.013523,0.002678,0.000431,0.000353
47159000,0.0324,0.013523,0.002678,0.000431,0.000588
47160000,0.0324,0.013523,0.002678,0.000431,0.000353
47161000,0.0324,0.013523,0.002678,0.000431,0.000588
47162000,0.0324,0.013523,0.002678,0.000431,0.000353
47163000,0.0324,0.013523,0.002678,0.000431,0.000588
47164000,0.0324,0.013523,0.002678,0.000431,0.000353
47165000,0.0324,0.013523,0.002678,0.000431,0.000588
47166000,0.0324,0.013523,0.002678,0.000431,0.000353
47167000,0.0324,0.013523,0.002678,0.000431,0.000588
47168000,0.0324,0.013523,0.002678,0.000431,0.000353
47169000,0.0324,0.013523,0.002678,0.000431,0.000588
47170000,0.0324,0.013523,0.002678,0.000431,0.000353
47171000,0.0324,0.013523,0.002678,0.000431,0.000705
47172000,0.0324,0.013523,0.002678,0.000431,0.000588
47173000,0.0324,0.013523,0.002678,0.000431,0.000588
47174000,0.0324,0.013523,0.002678,0.000431,0.000470
47175000,0.0324,0.013523,0.002678,0.000431,0.000470
47176000,0.0324,0.013523,0.002678,0.000431,0.000470
47177000,0.0324,0.013523,0.002678,0.000431,0.000588
47178000,0.0324,0.013523,0.002678,0.000431,0.000353
47179000,0.0324,0.013523,0.002678,0.000431,0.000705
47180000,0.0324,0.013523,0.002678,0.000431,0.000470
47181000,0.0324,0.013523,0.002678,0.000431,0.000470
47182000,0.0324,0.013523,0.002678,0.000431,0.000588
47183000,0.0324,0.013523,0.002678,0.000431,0.000470
47184000,0.0324,0.013523,0.002678,0.000431,0.000705
47185000,0.0324,0.013523,0.002678,0.000431,0.000353
47186000,0.0324,0.013523,0.002678,0.000431,0.000705
47187000,0.0324,0.013523,0.002678,0.000431,0.000470
47188000,0.0324,0.013523,0.002678,0.000431,0.000470
47189000,0.0324,0.013523,0.002678,0.000431,0.000470
47190000,0.0324,0.013523,0.002678,0.000431,0.000470
47191000,0.0324,0.013523,0.002678,0.000431,0.000470
47192000,0.0324,0.013523,0.002678,0.000431,0.000470
47193000,0.0324,0.013523,0.002678,0.000431,0.000470
47194000,0.0324,0.013523,0.002678,0.000431,0.000470
47195000,0.0324,0.013523,0.002678,0.000431,0.000470
47196000,0.0324,0.013523,0.002678,0.000431,0.000470
47197000,0.0324,0.013523,0.002678,0.000431,0.000353
47198000,0.0324,0.013523,0.002678,0.000431,0.000588
47199000,0.0324,0.013523,0.002678,0.000431,0.000353
47200000,0.0324,0.013523,0.002678,0.000431,0.000588
47201000,0.0324,0.013523,0.002678,0.000431,0.000353
47202000,0.0324,0.013523,0.002678,0.000431,0.000588
47203000,0.0324,0.013523,0.002678,0.000431,0.000353
47204000,0.0324,0.013523,0.002678,0.000431,0.000588
47205000,0.0324,0.013523,0.002678,0.000431,0.000353
47206000,0.0324,0.013523,0.002678,0.000431,0.000705
47207000,0.0324,0.013523,0.002678,0.000431,0.000353
47208000,0.0324,0.013523,0.002678,0.000431,0.000705
47209000,0.0324,0.013523,0.002678,0.000431,0.000470
47210000,0.0324,0.013523,0.002678,0.000431,0.000470
47211000,0.0324,0.013523,0.002678,0.000431,0.000470
47212000,0.0324,0.013523,0.002678,0.000431,0.000353
47213000,0.0324,0.013523,0.002678,0.000431,0.000588
47214000,0.0324,0.013523,0.002678,0.000431,0.000470
47215000,0.0324,0.013523,0.002678,0.000431,0.000588
47216000,0.0324,0.013523,0.002678,0.000431,0.000470
47217000,0.0324,0.013523,0.002678,0.000431,0.000588
47218000,0.0324,0.013523,0.002678,0.000431,0.000353
47219000,0.0324,0.013523,0.002678,0.000431,0.000470
47220000,0.0324,0.013523,0.002678,0.000431,0.000470
47221000,0.0324,0.013523,0.002678,0.000431,0.000470
47222000,0.0324,0.013523,0.002678,0.000431,0.000470
47223000,0.0324,0.013523,0.002678,0.000431,0.000353
47224000,0.0324,0.013523,0.002678,0.000431,0.000588
47225000,0.0324,0.013523,0.002678,0.000431,0.000353
47226000,0.0324,0.013523,0.002678,0.000431,0.000588
47227000,0.0324,0.013523,0.002678,0.000431,0.000353
47228000,0.0324,0.013523,0.002678,0.000431,0.000705
47229000,0.0324,0.013523,0.002678,0.000431,0.000470
47230000,0.0324,0.013523,0.002678,0.000431,0.000470
47231000,0.0324,0.013523,0.002678,0.000431,0.000470
47232000,0.0324,0.013523,0.002678,0.000431,0.000588
47233000,0.0324,0.013523,0.002678,0.000431,0.000353
47234000,0.0324,0.013523,0.002678,0.000431,0.000588
47235000,0.0324,0.013523,0.002678,0.000431,0.000353
47236000,0.0324,0.013523,0.002678,0.000431,0.000588
47237000,0.0324,0.013523,0.002678,0.000431,0.000353
47238000,0.0324,0.013523,0.002678,0.000431,0.000588
47239000,0.0324,0.013523,0.002678,0.000431,0.000353
47240000,0.0324,0.013523,0.002678,0.000431,0.000588
47241000,0.0324,0.013523,0.002678,0.000431,0.000353
47242000,0.0324,0.013523,0.002678,0.000431,0.000588
47243000,0.0324,0.013523,0.002678,0.000431,0.000353
47244000,0.0324,0.013523,0.002678,0.000431,0.000470
47245000,0.0324,0.013523,0.002678,0.000431,0.000470
47246000,0.0324,0.013523,0.002678,0.000431,0.000588
47247000,0.0324,0.013523,0.002678,0.000431,0.000470
47248000,0.0324,0.013523,0.002678,0.000431,0.000588
47249000,0.0324,0.013523,0.002678,0.000431,0.000588
47250000,0.0324,0.013523,0.002678,0.000431,0.000470
47251000,0.0324,0.013523,0.002678,0.000431,0.000588
47252000,0.0324,0.013523,0.002678,0.000431,0.000353
47253000,0.0324,0.013523,0.002678,0.000431,0.000588
47254000,0.0324,0.013523,0.002678,0.000431,0.000353
47255000,0.0324,0.013523,0.002678,0.000431,0.000588
47256000,0.0324,0.013523,0.002678,0.000431,0.000470
47257000,0.0324,0.013523,0.002678,0.000431,0.000470
47258000,0.0324,0.013523,0.002678,0.000431,0.000470
47259000,0.0324,0.013523,0.002678,0.000431,0.000470
47260000,0.0324,0.013523,0.002678,0.000431,0.000470
47261000,0.0324,0.013523,0.002678,0.000431,0.000470
47262000,0.0324,0.013523,0.002678,0.000431,0.000353
47263000,0.0324,0.013523,0.002678,0.000431,0.000705
47264000,0.0324,0.013523,0.002678,0.000431,0.000470
47265000,0.0324,0.013523,0.002678,0.000431,0.000705
47266000,0.0324,0.013523,0.002678,0.000431,0.000353
47267000,0.0324,0.013523,0.002678,0.000431,0.000588
47268000,0.0324,0.013523,0.002678,0.000431,0.000353
47269000,0.0324,0.013523,0.002678,0.000431,0.000705
47270000,0.0324,0.013523,0.002678,0.000431,0.000588
47271000,0.0324,0.013523,0.002678,0.000431,0.000470
47272000,0.0324,0.013523,0.002678,0.000431,0.000588
47273000,0.0324,0.013523,0.002678,0.000431,0.000353
47274000,0.0324,0.013523,0.002678,0.000431,0.000705
47275000,0.0324,0.013523,0.002678,0.000431,0.000470
47276000,0.0324,0.013523,0.002678,0.000431,0.000588
47277000,0.0324,0.013523,0.002678,0.000431,0.000353
47278000,0.0324,0.013523,0.002678,0.000431,0.000588
47279000,0.0324,0.013523,0.002678,0.000431,0.000353
47280000,0.0324,0.013523,0.002678,0.000431,0.000588
47281000,0.0324,0.013523,0.002678,0.000431,0.000353
47282000,0.0324,0.013523,0.002678,0.000431,0.000588
47283000,0.0324,0.013523,0.002678,0.000431,0.000353
47284000,0.0324,0.013523,0.002678,0.000431,0.000705
47285000,0.0324,0.013523,0.002678,0.000431,0.000353
47286000,0.0324,0.013523,0.002678,0.000431,0.000823
47287000,0.0324,0.013523,0.002678,0.000431,0.000235
47288000,0.0324,0.013523,0.002678,0.000431,0.000705
47289000,0.0324,0.013523,0.002678,0.000431,0.000353
47290000,0.0324,0.013523,0.002678,0.000431,0.000705
47291000,0.0324,0.013523,0.002678,0.000431,0.000470
47292000,0.0324,0.013523,0.002678,0.000431,0.000470
47293000,0.0324,0.013523,0.002678,0.000431,0.000470
47294000,0.0324,0.013523,0.002678,0.000431,0.000588
47295000,0.0324,0.013523,0.002678,0.000431,0.000353
47296000,0.0324,0.013523,0.002678,0.000431,0.000588
47297000,0.0324,0.013523,0.002678,0.000431,0.000353
47298000,0.0324,0.013523,0.002678,0.000431,0.000470
47299000,0.0324,0.013523,0.002678,0.000431,0.000470
47300000,0.0324,0.013523,0.002678,0.000431,0.000470
47301000,0.0324,0.013523,0.002678,0.000431,0.000470
47302000,0.0324,0.013523,0.002678,0.000431,0.000470
47303000,0.0324,0.013523,0.002678,0.000431,0.000470
47304000,0.0324,0.013523,0.002678,0.000431,0.000588
47305000,0.0324,0.013523,0.002678,0.000431,0.000353
47306000,0.0324,0.013523,0.002678,0.000431,0.000588
47307000,0.0324,0.013523,0.002678,0.000431,0.000353
47308000,0.0324,0.013523,0.002678,0.000431,0.000588
47309000,0.0324,0.013523,0.002678,0.000431,0.000470
47310000,0.0324,0.013523,0.002678,0.000431,0.000705
47311000,0.0324,0.013523,0.002678,0.000431,0.000353
47312000,0.0324,0.013523,0.002678,0.000431,0.000588
47313000,0.0324,0.013523,0.002678,0.000431,0.000235
47314000,0.0324,0.013523,0.002678,0.000431,0.000705
47315000,0.0324,0.013523,0.002678,0.000431,0.000470
47316000,0.0324,0.013523,0.002678,0.000431,0.000588
47317000,0.0324,0.013523,0.002678,0.000431,0.000353
47318000,0.0324,0.013523,0.002678,0.000431,0.000588
47319000,0.0324,0.013523,0.002678,0.000431,0.000353
47320000,0.0324,0.013523,0.002678,0.000431,0.000588
47321000,0.0324,0.013523,0.002678,0.000431,0.000353
47322000,0.0324,0.013523,0.002678,0.000431,0.000588
47323000,0.0324,0.013523,0.002678,0.000431,0.000353
47324000,0.0324,0.013523,0.002678,0.000431,0.000705
47325000,0.0324,0.013523,0.002678,0.000431,0.000353
47326000,0.0324,0.013523,0.002678,0.000431,0.000705
47327000,0.0324,0.013523,0.002678,0.000431,0.000588
47328000,0.0324,0.013523,0.002678,0.000431,0.000470
47329000,0.0324,0.013523,0.002678,0.000431,0.000588
47330000,0.0324,0.013523,0.002678,0.000431,0.000353
47331000,0.0324,0.013523,0.002678,0.000431,0.000588
47332000,0.0324,0.013523,0.002678,0.000431,0.000353
47333000,0.0324,0.013523,0.002678,0.000431,0.000588
47334000,0.0324,0.013523,0.002678,0.000431,0.000353
47335000,0.0324,0.013523,0.002678,0.000431,0.000470
47336000,0.0324,0.013523,0.002678,0.000431,0.000470
47337000,0.0324,0.013523,0.002678,0.000431,0.000470
47338000,0.0324,0.013523,0.002678,0.000431,0.000470
47339000,0.0324,0.013523,0.002678,0.000431,0.000353
47340000,0.0324,0.013523,0.002678,0.000431,0.000588
47341000,0.0324,0.013523,0.002678,0.000431,0.000353
47342000,0.0324,0.013523,0.002678,0.000431,0.000588
47343000,0.0324,0.013523,0.002678,0.000431,0.000353
47344000,0.0324,0.013523,0.002678,0.000431,0.000588
47345000,0.0324,0.013523,0.002678,0.000431,0.000353
47346000,0.0324,0.013523,0.002678,0.000431,0.000588
47347000,0.0324,0.013523,0.002678,0.000431,0.000353
47348000,0.0324,0.013523,0.002678,0.000431,0.000588
47349000,0.0324,0.013523,0.002678,0.000431,0.000470
47350000,0.0324,0.013523,0.002678,0.000431,0.000470
47351000,0.0324,0.013523,0.002678,0.000431,0.000470
47352000,0.0324,0.013523,0.002678,0.000431,0.000588
47353000,0.0324,0.013523,0.002678,0.000431,0.000353
47354000,0.0324,0.013523,0.002678,0.000431,0.000588
47355000,0.0324,0.013523,0.002678,0.000431,0.000353
47356000,0.0324,0.013523,0.002678,0.000431,0.000705
47357000,0.0324,0.013523,0.002678,0.000431,0.000353
47358000,0.0324,0.013523,0.002678,0.000431,0.000705
47359000,0.0324,0.013523,0.002678,0.000431,0.000470
47360000,0.0324,0.013523,0.002678,0.000431,0.000470
47361000,0.0324,0.013523,0.002678,0.000431,0.000470
47362000,0.0324,0.013523,0.002678,0.000431,0.000470
47363000,0.0324,0.013523,0.002678,0.000431,0.000470
47364000,0.0324,0.013523,0.002678,0.000431,0.000470
47365000,0.0324,0.013523,0.002678,0.000431,0.000353
47366000,0.0324,0.013523,0.002678,0.000431,0.000588
47367000,0.0324,0.013523,0.002678,0.000431,0.000353
47368000,0.0324,0.013523,0.002678,0.000431,0.000588
47369000,0.0324,0.013523,0.002678,0.000431,0.000353
47370000,0.0324,0.013523,0.002678,0.000431,0.000588
47371000,0.0324,0.013523,0.002678,0.000431,0.000353
47372000,0.0324,0.013523,0.002678,0.000431,0.000588
47373000,0.0324,0.013523,0.002678,0.000431,0.000353
47374000,0.0324,0.013523,0.002678,0.000431,0.000588
47375000,0.0324,0.013523,0.002678,0.000431,0.000470
47376000,0.0324,0.013523,0.002678,0.000431,0.000470
47377000,0.0324,0.013523,0.002678,0.000431,0.000353
47378000,0.0324,0.013523,0.002678,0.000431,0.000588
47379000,0.0324,0.013523,0.002678,0.000431,0.000353
47380000,0.0324,0.013523,0.002678,0.000431,0.000588
47381000,0.0324,0.013523,0.002678,0.000431,0.000353
47382000,0.0324,0.013523,0.002678,0.000431,0.000588
47383000,0.0324,0.013523,0.002678,0.000431,0.000353
47384000,0.0324,0.013523,0.002678,0.000431,0.000588
47385000,0.0324,0.013523,0.002678,0.000431,0.000353
47386000,0.0324,0.013523,0.002678,0.000431,0.000588
47387000,0.0324,0.013523,0.002678,0.000431,0.000353
47388000,0.0324,0.013523,0.002678,0.000431,0.000705
47389000,0.0324,0.013523,0.002678,0.000431,0.000353
47390000,0.0324,0.013523,0.002678,0.000431,0.000823
47391000,0.0324,0.013523,0.002678,0.000431,0.000353
47392000,0.0324,0.013523,0.002678,0.000431,0.000588
47393000,0.0324,0.013523,0.002678,0.000431,0.000353
47394000,0.0324,0.013523,0.002678,0.000431,0.000470
47395000,0.0324,0.013523,0.002678,0.000431,0.000353
47396000,0.0324,0.013523,0.002678,0.000431,0.000705
47397000,0.0324,0.013523,0.002678,0.000431,0.000353
47398000,0.0324,0.013523,0.002678,0.000431,0.000588
47399000,0.0324,0.013523,0.002678,0.000431,0.000353
47400000,0.0324,0.013523,0.002678,0.000431,0.000588
47401000,0.0324,0.013523,0.002678,0.000431,0.000353
47402000,0.0324,0.013523,0.002678,0.000431,0.000588
47403000,0.0324,0.013523,0.002678,0.000431,0.000353
47404000,0.0324,0.013523,0.002678,0.000431,0.000823
47405000,0.0324,0.013523,0.002678,0.000431,0.000353
47406000,0.0324,0.013523,0.002678,0.000431,0.000588
47407000,0.0324,0.013523,0.002678,0.000431,0.000353
47408000,0.0324,0.013523,0.002678,0.000431,0.000588
47409000,0.0324,0.013523,0.002678,0.000431,0.000353
47410000,0.0324,0.013523,0.002678,0.000431,0.000588
47411000,0.0324,0.013523,0.002678,0.000431,0.000353
47412000,0.0324,0.013523,0.002678,0.000431,0.000588
47413000,0.0324,0.013523,0.002678,0.000431,0.000353
47414000,0.0324,0.013523,0.002678,0.000431,0.000588
47415000,0.0324,0.013523,0.002678,0.000431,0.000353
47416000,0.0324,0.013523,0.002678,0.000431,0.000588
47417000,0.0324,0.013523,0.002678,0.000431,0.000353
47418000,0.0324,0.013523,0.002678,0.000431,0.000588
47419000,0.0324,0.013523,0.002678,0.000431,0.000353
47420000,0.0324,0.013523,0.002678,0.000431,0.000470
47421000,0.0324,0.013523,0.002678,0.000431,0.000470
47422000,0.0324,0.013523,0.002678,0.000431,0.000470
47423000,0.0324,0.013523,0.002678,0.000431,0.000470
47424000,0.0324,0.013523,0.002678,0.000431,0.000470
47425000,0.0324,0.013523,0.002678,0.000431,0.000470
47426000,0.0324,0.013523,0.002678,0.000431,0.000588
47427000,0.0324,0.013523,0.002678,0.000431,0.000470
47428000,0.0324,0.013523,0.002678,0.000431,0.000588
47429000,0.0324,0.013523,0.002678,0.000431,0.000353
47430000,0.0324,0.013523,0.002678,0.000431,0.000705
47431000,0.0324,0.013523,0.002678,0.000431,0.000353
47432000,0.0324,0.013523,0.002678,0.000431,0.000588
47433000,0.0324,0.013523,0.002678,0.000431,0.000353
47434000,0.0324,0.013523,0.002678,0.000431,0.000705
47435000,0.0324,0.013523,0.002678,0.000431,0.000470
47436000,0.0324,0.013523,0.002678,0.000431,0.000470
47437000,0.0324,0.013523,0.002678,0.000431,0.000470
47438000,0.0324,0.013523,0.002678,0.000431,0.000470
47439000,0.0324,0.013523,0.002678,0.000431,0.000470
47440000,0.0324,0.013523,0.002678,0.000431,0.000470
47441000,0.0324,0.013523,0.002678,0.000431,0.000470
47442000,0.0324,0.013523,0.002678,0.000431,0.000470
47443000,0.0324,0.013523,0.002678,0.000431,0.000353
47444000,0.0324,0.013523,0.002678,0.000431,0.000588
47445000,0.0324,0.013523,0.002678,0.000431,0.000353
47446000,0.0324,0.013523,0.002678,0.000431,0.000705
47447000,0.0324,0.013523,0.002678,0.000431,0.000353
47448000,0.0324,0.013523,0.002678,0.000431,0.000705
47449000,0.0324,0.013523,0.002678,0.000431,0.000588
47450000,0.0324,0.013523,0.002678,0.000431,0.000470
47451000,0.0324,0.013523,0.002678,0.000431,0.000705
47452000,0.0324,0.013523,0.002678,0.000431,0.000353
47453000,0.0324,0.013523,0.002678,0.000431,0.000705
47454000,0.0324,0.013523,0.002678,0.000431,0.000470
47455000,0.0324,0.013523,0.002678,0.000431,0.000353
47456000,0.0324,0.013523,0.002678,0.000431,0.000705
47457000,0.0324,0.013523,0.002678,0.000431,0.000470
47458000,0.0324,0.013523,0.002678,0.000431,0.000353
47459000,0.0324,0.013523,0.002678,0.000431,0.000470
47460000,0.0324,0.013523,0.002678,0.000431,0.000470
47461000,0.0324,0.013523,0.002678,0.000431,0.000470
47462000,0.0324,0.013523,0.002678,0.000431,0.000470
47463000,0.0324,0.013523,0.002678,0.000431,0.000470
47464000,0.0324,0.013523,0.002678,0.000431,0.000470
47465000,0.0324,0.013523,0.002678,0.000431,0.000470
47466000,0.0324,0.013523,0.002678,0.000431,0.000588
47467000,0.0324,0.013523,0.002678,0.000431,0.000470
47468000,0.0324,0.013523,0.002678,0.000431,0.000588
47469000,0.0324,0.013523,0.002678,0.000431,0.000353
47470000,0.0324,0.013523,0.002678,0.000431,0.000588
47471000,0.0324,0.013523,0.002678,0.000431,0.000353
47472000,0.0324,0.013523,0.002678,0.000431,0.000588
47473000,0.0324,0.013523,0.002678,0.000431,0.000353
47474000,0.0324,0.013523,0.002678,0.000431,0.000588
47475000,0.0324,0.013523,0.002678,0.000431,0.000353
47476000,0.0324,0.013523,0.002678,0.000431,0.000588
47477000,0.0324,0.013523,0.002678,0.000431,0.000353
47478000,0.0324,0.013523,0.002678,0.000431,0.000588
47479000,0.0324,0.013523,0.002678,0.000431,0.000353
47480000,0.0324,0.013523,0.002678,0.000431,0.000588
47481000,0.0324,0.013523,0.002678,0.000431,0.000353
47482000,0.0324,0.013523,0.002678,0.000431,0.000588
47483000,0.0324,0.013523,0.002678,0.000431,0.000353
47484000,0.0324,0.013523,0.002678,0.000431,0.000470
47485000,0.0324,0.013523,0.002678,0.000431,0.000470
47486000,0.0324,0.013523,0.002678,0.000431,0.000470
47487000,0.0324,0.013523,0.002678,0.000431,0.000470
47488000,0.0324,0.013523,0.002678,0.000431,0.000353
47489000,0.0324,0.013523,0.002678,0.000431,0.000823
47490000,0.0324,0.013523,0.002678,0.000431,0.000353
47491000,0.0324,0.013523,0.002678,0.000431,0.000470
47492000,0.0324,0.013523,0.002678,0.000431,0.000470
47493000,0.0324,0.013523,0.002678,0.000431,0.000470
47494000,0.0324,0.013523,0.002678,0.000431,0.000588
47495000,0.0324,0.013523,0.002678,0.000431,0.000588
47496000,0.0324,0.013523,0.002678,0.000431,0.000588
47497000,0.0324,0.013523,0.002678,0.000431,0.000470
47498000,0.0324,0.013523,0.002678,0.000431,0.000705
47499000,0.0324,0.013523,0.002678,0.000431,0.000353
47500000,0.0324,0.013523,0.002678,0.000431,0.000588
47501000,0.0324,0.013523,0.002678,0.000431,0.000353
47502000,0.0324,0.013523,0.002678,0.000431,0.000470
47503000,0.0324,0.013523,0.002678,0.000431,0.000470
47504000,0.0324,0.013523,0.002678,0.000431,0.000588
47505000,0.0324,0.013523,0.002678,0.000431,0.000470
47506000,0.0324,0.013523,0.002678,0.000431,0.000588
47507000,0.0324,0.013523,0.002678,0.000431,0.000470
47508000,0.0324,0.013523,0.002678,0.000431,0.000470
47509000,0.0324,0.013523,0.002678,0.000431,0.000470
47510000,0.0324,0.013523,0.002678,0.000431,0.000470
47511000,0.0324,0.013523,0.002678,0.000431,0.000470
47512000,0.0324,0.013523,0.002678,0.000431,0.000470
47513000,0.0324,0.013523,0.002678,0.000431,0.000470
47514000,0.0324,0.013523,0.002678,0.000431,0.000470
47515000,0.0324,0.013523,0.002678,0.000431,0.000588
47516000,0.0324,0.013523,0.002678,0.000431,0.000470
47517000,0.0324,0.013523,0.002678,0.000431,0.000705
47518000,0.0324,0.013523,0.002678,0.000431,0.000353
47519000,0.0324,0.013523,0.002678,0.000431,0.000588
47520000,0.0324,0.013523,0.002678,0.000431,0.000353
47521000,0.0324,0.013523,0.002678,0.000431,0.000588
47522000,0.0324,0.013523,0.002678,0.000431,0.000353
47523000,0.0324,0.013523,0.002678,0.000431,0.000588
47524000,0.0324,0.013523,0.002678,0.000431,0.000353
47525000,0.0324,0.013523,0.002678,0.000431,0.000588
47526000,0.0324,0.013523,0.002678,0.000431,0.000353
47527000,0.0324,0.013523,0.002678,0.000431,0.000588
47528000,0.0324,0.013523,0.002678,0.000431,0.000353
47529000,0.0324,0.013523,0.002678,0.000431,0.000470
47530000,0.0324,0.013523,0.002678,0.000431,0.000470
47531000,0.0324,0.013523,0.002678,0.000431,0.000588
47532000,0.0324,0.013523,0.002678,0.000431,0.000470
47533000,0.0324,0.013523,0.002678,0.000431,0.000588
47534000,0.0324,0.013523,0.002678,0.000431,0.000353
47535000,0.0324,0.013523,0.002678,0.000431,0.000588
47536000,0.0324,0.013523,0.002678,0.000431,0.000470
47537000,0.0324,0.013523,0.002678,0.000431,0.000470
47538000,0.0324,0.013523,0.002678,0.000431,0.000353
47539000,0.0324,0.013523,0.002678,0.000431,0.000588
47540000,0.0324,0.013523,0.002678,0.000431,0.000470
47541000,0.0324,0.013523,0.002678,0.000431,0.000470
47542000,0.0324,0.013523,0.002678,0.000431,0.000470
47543000,0.0324,0.013523,0.002678,0.000431,0.000470
47544000,0.0324,0.013523,0.002678,0.000431,0.000705
47545000,0.0324,0.013523,0.002678,0.000431,0.000588
47546000,0.0324,0.013523,0.002678,0.000431,0.000470
47547000,0.0324,0.013523,0.002678,0.000431,0.000705
47548000,0.0324,0.013523,0.002678,0.000431,0.000353
47549000,0.0324,0.013523,0.002678,0.000431,0.000588
47550000,0.0324,0.013523,0.002678,0.000431,0.000588
47551000,0.0324,0.013523,0.002678,0.000431,0.000470
47552000,0.0324,0.013523,0.002678,0.000431,0.000470
47553000,0.0324,0.013523,0.002678,0.000431,0.000470
47554000,0.0324,0.013523,0.002678,0.000431,0.000353
47555000,0.0324,0.013523,0.002678,0.000431,0.000588
47556000,0.0324,0.013523,0.002678,0.000431,0.000235
47557000,0.0324,0.013523,0.002678,0.000431,0.000588
47558000,0.0324,0.013523,0.002678,0.000431,0.000353
47559000,0.0324,0.013523,0.002678,0.000431,0.000588
47560000,0.0324,0.013523,0.002678,0.000431,0.000353
47561000,0.0324,0.013523,0.002678,0.000431,0.000588
47562000,0.0324,0.013523,0.002678,0.000431,0.000353
47563000,0.0324,0.013523,0.002678,0.000431,0.000588
47564000,0.0324,0.013523,0.002678,0.000431,0.000353
47565000,0.0324,0.013523,0.002678,0.000431,0.000588
47566000,0.0324,0.013523,0.002678,0.000431,0.000353
47567000,0.0324,0.013523,0.002678,0.000431,0.000588
47568000,0.0324,0.013523,0.002678,0.000431,0.000470
47569000,0.0324,0.013523,0.002678,0.000431,0.000588
47570000,0.0324,0.013523,0.002678,0.000431,0.000353
47571000,0.0324,0.013523,0.002678,0.000431,0.000705
47572000,0.0324,0.013523,0.002678,0.000431,0.000353
47573000,0.0324,0.013523,0.002678,0.000431,0.000705
47574000,0.0324,0.013523,0.002678,0.000431,0.000470
47575000,0.0324,0.013523,0.002678,0.000431,0.000470
47576000,0.0324,0.013523,0.002678,0.000431,0.000470
47577000,0.0324,0.013523,0.002678,0.000431,0.000470
47578000,0.0324,0.013523,0.002678,0.000431,0.000470
47579000,0.0324,0.013523,0.002678,0.000431,0.000470
47580000,0.0324,0.013523,0.002678,0.000431,0.000353
47581000,0.0324,0.013523,0.002678,0.000431,0.000588
47582000,0.0324,0.013523,0.002678,0.000431,0.000353
47583000,0.0324,0.013523,0.002678,0.000431,0.000588
47584000,0.0324,0.013523,0.002678,0.000431,0.000353
47585000,0.0324,0.013523,0.002678,0.000431,0.000470
47586000,0.0324,0.013523,0.002678,0.000431,0.000353
47587000,0.0324,0.013523,0.002678,0.000431,0.000588
47588000,0.0324,0.013523,0.002678,0.000431,0.000353
47589000,0.0324,0.013523,0.002678,0.000431,0.000588
47590000,0.0324,0.013523,0.002678,0.000431,0.000353
47591000,0.0324,0.013523,0.002678,0.000431,0.000588
47592000,0.0324,0.013523,0.002678,0.000431,0.000470
47593000,0.0324,0.013523,0.002678,0.000431,0.000588
47594000,0.0324,0.013523,0.002678,0.000431,0.000235
47595000,0.0324,0.013523,0.002678,0.000431,0.000588
47596000,0.0324,0.013523,0.002678,0.000431,0.000470
47597000,0.0324,0.013523,0.002678,0.000431,0.000588
47598000,0.0324,0.013523,0.002678,0.000431,0.000353
47599000,0.0324,0.013523,0.002678,0.000431,0.000705
47600000,0.0324,0.013523,0.002678,0.000431,0.000353
47601000,0.0324,0.013523,0.002678,0.000431,0.000588
47602000,0.0324,0.013523,0.002678,0.000431,0.000588
47603000,0.0324,0.013523,0.002678,0.000431,0.000470
47604000,0.0324,0.013523,0.002678,0.000431,0.000470
47605000,0.0324,0.013523,0.002678,0.000431,0.000470
47606000,0.0324,0.013523,0.002678,0.000431,0.000353
47607000,0.0324,0.013523,0.002678,0.000431,0.000705
47608000,0.0324,0.013523,0.002678,0.000431,0.000353
47609000,0.0324,0.013523,0.002678,0.000431,0.000705
47610000,0.0324,0.013523,0.002678,0.000431,0.000588
47611000,0.0324,0.013523,0.002678,0.000431,0.000470
47612000,0.0324,0.013523,0.002678,0.000431,0.000705
47613000,0.0324,0.013523,0.002678,0.000431,0.000353
47614000,0.0324,0.013523,0.002678,0.000431,0.000705
47615000,0.0324,0.013523,0.002678,0.000431,0.000588
47616000,0.0324,0.013523,0.002678,0.000431,0.000470
47617000,0.0324,0.013523,0.002678,0.000431,0.000705
47618000,0.0324,0.013523,0.002678,0.000431,0.000235
47619000,0.0324,0.013523,0.002678,0.000431,0.000705
47620000,0.0324,0.013523,0.002678,0.000431,0.000353
47621000,0.0324,0.013523,0.002678,0.000431,0.000705
47622000,0.0324,0.013523,0.002678,0.000431,0.000588
47623000,0.0324,0.013523,0.002678,0.000431,0.000470
47624000,0.0324,0.013523,0.002678,0.000431,0.000588
47625000,0.0324,0.013523,0.002678,0.000431,0.000353
47626000,0.0324,0.013523,0.002678,0.000431,0.000588
47627000,0.0324,0.013523,0.002678,0.000431,0.000353
47628000,0.0324,0.013523,0.002678,0.000431,0.000588
47629000,0.0324,0.013523,0.002678,0.000431,0.000353
47630000,0.0324,0.013523,0.002678,0.000431,0.000588
47631000,0.0324,0.013523,0.002678,0.000431,0.000353
47632000,0.0324,0.013523,0.002678,0.000431,0.000588
47633000,0.0324,0.013523,0.002678,0.000431,0.000353
47634000,0.0324,0.013523,0.002678,0.000431,0.000588
47635000,0.0324,0.013523,0.002678,0.000431,0.000353
47636000,0.0324,0.013523,0.002678,0.000431,0.000588
47637000,0.0324,0.013523,0.002678,0.000431,0.000353
47638000,0.0324,0.013523,0.002678,0.000431,0.000588
47639000,0.0324,0.013523,0.002678,0.000431,0.000353
47640000,0.0324,0.013523,0.002678,0.000431,0.000470
47641000,0.0324,0.013523,0.002678,0.000431,0.000470
47642000,0.0324,0.013523,0.002678,0.000431,0.000470
47643000,0.0324,0.013523,0.002678,0.000431,0.000470
47644000,0.0324,0.013523,0.002678,0.000431,0.000353
47645000,0.0324,0.013523,0.002678,0.000431,0.000588
47646000,0.0324,0.013523,0.002678,0.000431,0.000353
47647000,0.0324,0.013523,0.002678,0.000431,0.000705
47648000,0.0324,0.013523,0.002678,0.000431,0.000470
47649000,0.0324,0.013523,0.002678,0.000431,0.000470
47650000,0.0324,0.013523,0.002678,0.000431,0.000470
47651000,0.0324,0.013523,0.002678,0.000431,0.000470
47652000,0.0324,0.013523,0.002678,0.000431,0.000470
47653000,0.0324,0.013523,0.002678,0.000431,0.000470
47654000,0.0324,0.013523,0.002678,0.000431,0.000470
47655000,0.0324,0.013523,0.002678,0.000431,0.000470
47656000,0.0324,0.013523,0.002678,0.000431,0.000470
47657000,0.0324,0.013523,0.002678,0.000431,0.000470
47658000,0.0324,0.013523,0.002678,0.000431,0.000470
47659000,0.0324,0.013523,0.002678,0.000431,0.000588
47660000,0.0324,0.013523,0.002678,0.000431,0.000353
47661000,0.0324,0.013523,0.002678,0.000431,0.000588
47662000,0.0324,0.013523,0.002678,0.000431,0.000353
47663000,0.0324,0.013523,0.002678,0.000431,0.000588
47664000,0.0324,0.013523,0.002678,0.000431,0.000353
47665000,0.0324,0.013523,0.002678,0.000431,0.000470
47666000,0.0324,0.013523,0.002678,0.000431,0.000470
47667000,0.0324,0.013523,0.002678,0.000431,0.000470
47668000,0.0324,0.013523,0.002678,0.000431,0.000470
47669000,0.0324,0.013523,0.002678,0.000431,0.000470
47670000,0.0324,0.013523,0.002678,0.000431,0.000353
47671000,0.0324,0.013523,0.002678,0.000431,0.000588
47672000,0.0324,0.013523,0.002678,0.000431,0.000353
47673000,0.0324,0.013523,0.002678,0.000431,0.000588
47674000,0.0324,0.013523,0.002678,0.000431,0.000353
47675000,0.0324,0.013523,0.002678,0.000431,0.000588
47676000,0.0324,0.013523,0.002678,0.000431,0.000353
47677000,0.0324,0.013523,0.002678,0.000431,0.000705
47678000,0.0324,0.013523,0.002678,0.000431,0.000353
47679000,0.0324,0.013523,0.002678,0.000431,0.000705
47680000,0.0324,0.013523,0.002678,0.000431,0.000588
47681000,0.0324,0.013523,0.002678,0.000431,0.000470
47682000,0.0324,0.013523,0.002678,0.000431,0.000705
47683000,0.0324,0.013523,0.002678,0.000431,0.000353
47684000,0.0324,0.013523,0.002678,0.000431,0.000588
47685000,0.0324,0.013523,0.002678,0.000431,0.000470
47686000,0.0324,0.013523,0.002678,0.000431,0.000705
47687000,0.0324,0.013523,0.002678,0.000431,0.000470
47688000,0.0324,0.013523,0.002678,0.000431,0.000470
47689000,0.0324,0.013523,0.002678,0.000431,0.000353
47690000,0.0324,0.013523,0.002678,0.000431,0.000588
47691000,0.0324,0.013523,0.002678,0.000431,0.000470
47692000,0.0324,0.013523,0.002678,0.000431,0.000588
47693000,0.0324,0.013523,0.002678,0.000431,0.000353
47694000,0.0324,0.013523,0.002678,0.000431,0.000588
47695000,0.0324,0.013523,0.002678,0.000431,0.000353
47696000,0.0324,0.013523,0.002678,0.000431,0.000588
47697000,0.0324,0.013523,0.002678,0.000431,0.000353
47698000,0.0324,0.013523,0.002678,0.000431,0.000588
47699000,0.0324,0.013523,0.002678,0.000431,0.000353
47700000,0.0324,0.013523,0.002678,0.000431,0.000588
47701000,0.0324,0.013523,0.002678,0.000431,0.000235
47702000,0.0324,0.013523,0.002678,0.000431,0.000705
47703000,0.0324,0.013523,0.002678,0.000431,0.000353
47704000,0.0324,0.013523,0.002678,0.000431,0.000588
47705000,0.0324,0.013523,0.002678,0.000431,0.000353
47706000,0.0324,0.013523,0.002678,0.000431,0.000588
47707000,0.0324,0.013523,0.002678,0.000431,0.000353
47708000,0.0324,0.013523,0.002678,0.000431,0.000588
47709000,0.0324,0.013523,0.002678,0.000431,0.000235
47710000,0.0324,0.013523,0.002678,0.000431,0.000588
47711000,0.0324,0.013523,0.002678,0.000431,0.000353
47712000,0.0324,0.013523,0.002678,0.000431,0.000823
47713000,0.0324,0.013523,0.002678,0.000431,0.000353
47714000,0.0324,0.013523,0.002678,0.000431,0.000588
47715000,0.0324,0.013523,0.002678,0.000431,0.000353
47716000,0.0324,0.013523,0.002678,0.000431,0.000588
47717000,0.0324,0.013523,0.002678,0.000431,0.000353
47718000,0.0324,0.013523,0.002678,0.000431,0.000705
47719000,0.0324,0.013523,0.002678,0.000431,0.000470
47720000,0.0324,0.013523,0.002678,0.000431,0.000470
47721000,0.0324,0.013523,0.002678,0.000431,0.000470
47722000,0.0324,0.013523,0.002678,0.000431,0.000470
47723000,0.0324,0.013523,0.002678,0.000431,0.000470
47724000,0.0324,0.013523,0.002678,0.000431,0.000470
47725000,0.0324,0.013523,0.002678,0.000431,0.000588
47726000,0.0324,0.013523,0.002678,0.000431,0.000470
47727000,0.0324,0.013523,0.002678,0.000431,0.000588
47728000,0.0324,0.013523,0.002678,0.000431,0.000470
47729000,0.0324,0.013523,0.002678,0.000431,0.000588
47730000,0.0324,0.013523,0.002678,0.000431,0.000470
47731000,0.0324,0.013523,0.002678,0.000431,0.000705
47732000,0.0324,0.013523,0.002678,0.000431,0.000353
47733000,0.0324,0.013523,0.002678,0.000431,0.000470
47734000,0.0324,0.013523,0.002678,0.000431,0.000353
47735000,0.0324,0.013523,0.002678,0.000431,0.000705
47736000,0.0324,0.013523,0.002678,0.000431,0.000353
47737000,0.0324,0.013523,0.002678,0.000431,0.000588
47738000,0.0324,0.013523,0.002678,0.000431,0.000353
47739000,0.0324,0.013523,0.002678,0.000431,0.000588
47740000,0.0324,0.013523,0.002678,0.000431,0.000353
47741000,0.0324,0.013523,0.002678,0.000431,0.000705
47742000,0.0324,0.013523,0.002678,0.000431,0.000470
47743000,0.0324,0.013523,0.002678,0.000431,0.000470
47744000,0.0324,0.013523,0.002678,0.000431,0.000588
47745000,0.0324,0.013523,0.002678,0.000431,0.000470
47746000,0.0324,0.013523,0.002678,0.000431,0.000705
47747000,0.0324,0.013523,0.002678,0.000431,0.000353
47748000,0.0324,0.013523,0.002678,0.000431,0.000588
47749000,0.0324,0.013523,0.002678,0.000431,0.000470
47750000,0.0324,0.013523,0.002678,0.000431,0.000588
47751000,0.0324,0.013523,0.002678,0.000431,0.000588
47752000,0.0324,0.013523,0.002678,0.000431,0.000470
47753000,0.0324,0.013523,0.002678,0.000431,0.000588
47754000,0.0324,0.013523,0.002678,0.000431,0.000353
47755000,0.0324,0.013523,0.002678,0.000431,0.000588
47756000,0.0324,0.013523,0.002678,0.000431,0.000470
47757000,0.0324,0.013523,0.002678,0.000431,0.000470
47758000,0.0324,0.013523,0.002678,0.000431,0.000470
47759000,0.0324,0.013523,0.002678,0.000431,0.000470
47760000,0.0324,0.013523,0.002678,0.000431,0.000470
47761000,0.0324,0.013523,0.002678,0.000431,0.000588
47762000,0.0324,0.013523,0.002678,0.000431,0.000470
47763000,0.0324,0.013523,0.002678,0.000431,0.000588
47764000,0.0324,0.013523,0.002678,0.000431,0.000353
47765000,0.0324,0.013523,0.002678,0.000431,0.000588
47766000,0.0324,0.013523,0.002678,0.000431,0.000353
47767000,0.0324,0.013523,0.002678,0.000431,0.000588
47768000,0.0324,0.013523,0.002678,0.000431,0.000353
47769000,0.0324,0.013523,0.002678,0.000431,0.000588
47770000,0.0324,0.013523,0.002678,0.000431,0.000353
47771000,0.0324,0.013523,0.002678,0.000431,0.000705
47772000,0.0324,0.013523,0.002678,0.000431,0.000470
47773000,0.0324,0.013523,0.002678,0.000431,0.000588
47774000,0.0324,0.013523,0.002678,0.000431,0.000353
47775000,0.0324,0.013523,0.002678,0.000431,0.000470
47776000,0.0324,0.013523,0.002678,0.000431,0.000470
47777000,0.0324,0.013523,0.002678,0.000431,0.000470
47778000,0.0324,0.013523,0.002678,0.000431,0.000470
47779000,0.0324,0.013523,0.002678,0.000431,0.000353
47780000,0.0324,0.013523,0.002678,0.000431,0.000588
47781000,0.0324,0.013523,0.002678,0.000431,0.000353
47782000,0.0324,0.013523,0.002678,0.000431,0.000588
47783000,0.0324,0.013523,0.002678,0.000431,0.000353
47784000,0.0324,0.013523,0.002678,0.000431,0.000588
47785000,0.0324,0.013523,0.002678,0.000431,0.000353
47786000,0.0324,0.013523,0.002678,0.000431,0.000705
47787000,0.0324,0.013523,0.002678,0.000431,0.000588
47788000,0.0324,0.013523,0.002678,0.000431,0.000470
47789000,0.0324,0.013523,0.002678,0.000431,0.000705
47790000,0.0324,0.013523,0.002678,0.000431,0.000470
47791000,0.0324,0.013523,0.002678,0.000431,0.000588
47792000,0.0324,0.013523,0.002678,0.000431,0.000353
47793000,0.0324,0.013523,0.002678,0.000431,0.000470
47794000,0.0324,0.013523,0.002678,0.000431,0.000353
47795000,0.0324,0.013523,0.002678,0.000431,0.000823
47796000,0.0324,0.013523,0.002678,0.000431,0.000353
47797000,0.0324,0.013523,0.002678,0.000431,0.000588
47798000,0.0324,0.013523,0.002678,0.000431,0.000353
47799000,0.0324,0.013523,0.002678,0.000431,0.000588
47800000,0.0324,0.013523,0.002678,0.000431,0.000353
47801000,0.0324,0.013523,0.002678,0.000431,0.000470
47802000,0.0324,0.013523,0.002678,0.000431,0.000470
47803000,0.0324,0.013523,0.002678,0.000431,0.000470
47804000,0.0324,0.013523,0.002678,0.000431,0.000470
47805000,0.0324,0.013523,0.002678,0.000431,0.000470
47806000,0.0324,0.013523,0.002678,0.000431,0.000470
47807000,0.0324,0.013523,0.002678,0.000431,0.000470
47808000,0.0324,0.013523,0.002678,0.000431,0.000470
47809000,0.0324,0.013523,0.002678,0.000431,0.000588
47810000,0.0324,0.013523,0.002678,0.000431,0.000470
47811000,0.0324,0.013523,0.002678,0.000431,0.000705
47812000,0.0324,0.013523,0.002678,0.000431,0.000353
47813000,0.0324,0.013523,0.002678,0.000431,0.000588
47814000,0.0324,0.013523,0.002678,0.000431,0.000705
47815000,0.0324,0.013523,0.002678,0.000431,0.000353
47816000,0.0324,0.013523,0.002678,0.000431,0.000588
47817000,0.0324,0.013523,0.002678,0.000431,0.000353
47818000,0.0324,0.013523,0.002678,0.000431,0.000588
47819000,0.0324,0.013523,0.002678,0.000431,0.000353
47820000,0.0324,0.013523,0.002678,0.000431,0.000470
47821000,0.0324,0.013523,0.002678,0.000431,0.000470
47822000,0.0324,0.013523,0.002678,0.000431,0.000588
47823000,0.0324,0.013523,0.002678,0.000431,0.000470
47824000,0.0324,0.013523,0.002678,0.000431,0.000353
47825000,0.0324,0.013523,0.002678,0.000431,0.000588
47826000,0.0324,0.013523,0.002678,0.000431,0.000353
47827000,0.0324,0.013523,0.002678,0.000431,0.000823
47828000,0.0324,0.013523,0.002678,0.000431,0.000470
47829000,0.0324,0.013523,0.002678,0.000431,0.000470
47830000,0.0324,0.013523,0.002678,0.000431,0.000705
47831000,0.0324,0.013523,0.002678,0.000431,0.000353
47832000,0.0324,0.013523,0.002678,0.000431,0.000705
47833000,0.0324,0.013523,0.002678,0.000431,0.000470
47834000,0.0324,0.013523,0.002678,0.000431,0.000470
47835000,0.0324,0.013523,0.002678,0.000431,0.000470
47836000,0.0324,0.013523,0.002678,0.000431,0.000470
47837000,0.0324,0.013523,0.002678,0.000431,0.000470
47838000,0.0324,0.013523,0.002678,0.000431,0.000470
47839000,0.0324,0.013523,0.002678,0.000431,0.000470
47840000,0.0324,0.013523,0.002678,0.000431,0.000470
47841000,0.0324,0.013523,0.002678,0.000431,0.000470
47842000,0.0324,0.013523,0.002678,0.000431,0.000470
47843000,0.0324,0.013523,0.002678,0.000431,0.000470
47844000,0.0324,0.013523,0.002678,0.000431,0.000470
47845000,0.0324,0.013523,0.002678,0.000431,0.000353
47846000,0.0324,0.013523,0.002678,0.000431,0.000588
47847000,0.0324,0.013523,0.002678,0.000431,0.000353
47848000,0.0324,0.013523,0.002678,0.000431,0.000588
47849000,0.0324,0.013523,0.002678,0.000431,0.000353
47850000,0.0324,0.013523,0.002678,0.000431,0.000588
47851000,0.0324,0.013523,0.002678,0.000431,0.000353
47852000,0.0324,0.013523,0.002678,0.000431,0.000588
47853000,0.0324,0.013523,0.002678,0.000431,0.000353
47854000,0.0324,0.013523,0.002678,0.000431,0.000588
47855000,0.0324,0.013523,0.002678,0.000431,0.000353
47856000,0.0324,0.013523,0.002678,0.000431,0.000588
47857000,0.0324,0.013523,0.002678,0.000431,0.000353
47858000,0.0324,0.013523,0.002678,0.000431,0.000588
47859000,0.0324,0.013523,0.002678,0.000431,0.000353
47860000,0.0324,0.013523,0.002678,0.000431,0.000705
47861000,0.0324,0.013523,0.002678,0.000431,0.000353
47862000,0.0324,0.013523,0.002678,0.000431,0.000705
47863000,0.0324,0.013523,0.002678,0.000431,0.000470
47864000,0.0324,0.013523,0.002678,0.000431,0.000470
47865000,0.0324,0.013523,0.002678,0.000431,0.000353
47866000,0.0324,0.013523,0.002678,0.000431,0.000588
47867000,0.0324,0.013523,0.002678,0.000431,0.000588
47868000,0.0324,0.013523,0.002678,0.000431,0.000470
47869000,0.0324,0.013523,0.002678,0.000431,0.000705
47870000,0.0324,0.013523,0.002678,0.000431,0.000353
47871000,0.0324,0.013523,0.002678,0.000431,0.000705
47872000,0.0324,0.013523,0.002678,0.000431,0.000588
47873000,0.0324,0.013523,0.002678,0.000431,0.000470
47874000,0.0324,0.013523,0.002678,0.000431,0.000588
47875000,0.0324,0.013523,0.002678,0.000431,0.000353
47876000,0.0324,0.013523,0.002678,0.000431,0.000588
47877000,0.0324,0.013523,0.002678,0.000431,0.000353
47878000,0.0324,0.013523,0.002678,0.000431,0.000588
47879000,0.0324,0.013523,0.002678,0.000431,0.000353
47880000,0.0324,0.013523,0.002678,0.000431,0.000588
47881000,0.0324,0.013523,0.002678,0.000431,0.000353
47882000,0.0324,0.013523,0.002678,0.000431,0.000588
47883000,0.0324,0.013523,0.002678,0.000431,0.000353
47884000,0.0324,0.013523,0.002678,0.000431,0.000470
47885000,0.0324,0.013523,0.002678,0.000431,0.000470
47886000,0.0324,0.013523,0.002678,0.000431,0.000470
47887000,0.0324,0.013523,0.002678,0.000431,0.000470
47888000,0.0324,0.013523,0.002678,0.000431,0.000470
47889000,0.0324,0.013523,0.002678,0.000431,0.000470
47890000,0.0324,0.013523,0.002678,0.000431,0.000353
47891000,0.0324,0.013523,0.002678,0.000431,0.000588
47892000,0.0324,0.013523,0.002678,0.000431,0.000353
47893000,0.0324,0.013523,0.002678,0.000431,0.000588
47894000,0.0324,0.013523,0.002678,0.000431,0.000353
47895000,0.0324,0.013523,0.002678,0.000431,0.000705
47896000,0.0324,0.013523,0.002678,0.000431,0.000470
47897000,0.0324,0.013523,0.002678,0.000431,0.000470
47898000,0.0324,0.013523,0.002678,0.000431,0.000470
47899000,0.0324,0.013523,0.002678,0.000431,0.000470
47900000,0.0324,0.013523,0.002678,0.000431,0.000470
47901000,0.0324,0.013523,0.002678,0.000431,0.000470
47902000,0.0324,0.013523,0.002678,0.000431,0.000470
47903000,0.0324,0.013523,0.002678,0.000431,0.000470
47904000,0.0324,0.013523,0.002678,0.000431,0.000470
47905000,0.0324,0.013523,0.002678,0.000431,0.000470
47906000,0.0324,0.013523,0.002678,0.000431,0.000470
47907000,0.0324,0.013523,0.002678,0.000431,0.000470
47908000,0.0324,0.013523,0.002678,0.000431,0.000470
47909000,0.0324,0.013523,0.002678,0.000431,0.000705
47910000,0.0324,0.013523,0.002678,0.000431,0.000353
47911000,0.0324,0.013523,0.002678,0.000431,0.000588
47912000,0.0324,0.013523,0.002678,0.000431,0.000588
47913000,0.0324,0.013523,0.002678,0.000431,0.000470
47914000,0.0324,0.013523,0.002678,0.000431,0.000588
47915000,0.0324,0.013523,0.002678,0.000431,0.000353
47916000,0.0324,0.013523,0.002678,0.000431,0.000588
47917000,0.0324,0.013523,0.002678,0.000431,0.000353
47918000,0.0324,0.013523,0.002678,0.000431,0.000588
47919000,0.0324,0.013523,0.002678,0.000431,0.000353
47920000,0.0324,0.013523,0.002678,0.000431,0.000588
47921000,0.0324,0.013523,0.002678,0.000431,0.000353
47922000,0.0324,0.013523,0.002678,0.000431,0.000588
47923000,0.0324,0.013523,0.002678,0.000431,0.000470
47924000,0.0324,0.013523,0.002678,0.000431,0.000588
47925000,0.0324,0.013523,0.002678,0.000431,0.000470
47926000,0.0324,0.013523,0.002678,0.000431,0.000588
47927000,0.0324,0.013523,0.002678,0.000431,0.000353
47928000,0.0324,0.013523,0.002678,0.000431,0.000588
47929000,0.0324,0.013523,0.002678,0.000431,0.000353
47930000,0.0324,0.013523,0.002678,0.000431,0.000588
47931000,0.0324,0.013523,0.002678,0.000431,0.000353
47932000,0.0324,0.013523,0.002678,0.000431,0.000588
47933000,0.0324,0.013523,0.002678,0.000431,0.000353
47934000,0.0324,0.013523,0.002678,0.000431,0.000588
47935000,0.0324,0.013523,0.002678,0.000431,0.000353
47936000,0.0324,0.013523,0.002678,0.000431,0.000470
47937000,0.0324,0.013523,0.002678,0.000431,0.000470
47938000,0.0324,0.013523,0.002678,0.000431,0.000470
47939000,0.0324,0.013523,0.002678,0.000431,0.000470
47940000,0.0324,0.013523,0.002678,0.000431,0.000470
47941000,0.0324,0.013523,0.002678,0.000431,0.000470
47942000,0.0324,0.013523,0.002678,0.000431,0.000353
47943000,0.0324,0.013523,0.002678,0.000431,0.000705
47944000,0.0324,0.013523,0.002678,0.000431,0.000588
47945000,0.0324,0.013523,0.002678,0.000431,0.000470
47946000,0.0324,0.013523,0.002678,0.000431,0.000588
47947000,0.0324,0.013523,0.002678,0.000431,0.000353
47948000,0.0324,0.013523,0.002678,0.000431,0.000588
47949000,0.0324,0.013523,0.002678,0.000431,0.000353
47950000,0.0324,0.013523,0.002678,0.000431,0.000588
47951000,0.0324,0.013523,0.002678,0.000431,0.000353
47952000,0.0324,0.013523,0.002678,0.000431,0.000588
47953000,0.0324,0.013523,0.002678,0.000431,0.000353
47954000,0.0324,0.013523,0.002678,0.000431,0.000588
47955000,0.0324,0.013523,0.002678,0.000431,0.000353
47956000,0.0324,0.013523,0.002678,0.000431,0.000588
47957000,0.0324,0.013523,0.002678,0.000431,0.000353
47958000,0.0324,0.013523,0.002678,0.000431,0.000588
47959000,0.0324,0.013523,0.002678,0.000431,0.000353
47960000,0.0324,0.013523,0.002678,0.000431,0.000588
47961000,0.0324,0.013523,0.002678,0.000431,0.000353
47962000,0.0324,0.013523,0.002678,0.000431,0.000470
47963000,0.0324,0.013523,0.002678,0.000431,0.000353
47964000,0.0324,0.013523,0.002678,0.000431,0.000588
47965000,0.0324,0.013523,0.002678,0.000431,0.000353
47966000,0.0324,0.013523,0.002678,0.000431,0.000588
47967000,0.0324,0.013523,0.002678,0.000431,0.000470
47968000,0.0324,0.013523,0.002678,0.000431,0.000588
47969000,0.0324,0.013523,0.002678,0.000431,0.000353
47970000,0.0324,0.013523,0.002678,0.000431,0.000588
47971000,0.0324,0.013523,0.002678,0.000431,0.000353
47972000,0.0324,0.013523,0.002678,0.000431,0.000588
47973000,0.0324,0.013523,0.002678,0.000431,0.000470
47974000,0.0324,0.013523,0.002678,0.000431,0.000588
47975000,0.0324,0.013523,0.002678,0.000431,0.000470
47976000,0.0324,0.013523,0.002678,0.000431,0.000705
47977000,0.0324,0.013523,0.002678,0.000431,0.000235
47978000,0.0324,0.013523,0.002678,0.000431,0.000588
47979000,0.0324,0.013523,0.002678,0.000431,0.000353
47980000,0.0324,0.013523,0.002678,0.000431,0.000588
47981000,0.0324,0.013523,0.002678,0.000431,0.000353
47982000,0.0324,0.013523,0.002678,0.000431,0.000588
47983000,0.0324,0.013523,0.002678,0.000431,0.000353
47984000,0.0324,0.013523,0.002678,0.000431,0.000588
47985000,0.0324,0.013523,0.002678,0.000431,0.000353
47986000,0.0324,0.013523,0.002678,0.000431,0.000705
47987000,0.0324,0.013523,0.002678,0.000431,0.000353
47988000,0.0324,0.013523,0.002678,0.000431,0.000588
47989000,0.0324,0.013523,0.002678,0.000431,0.000470
47990000,0.0324,0.013523,0.002678,0.000431,0.000588
47991000,0.0324,0.013523,0.002678,0.000431,0.000235
47992000,0.0324,0.013523,0.002678,0.000431,0.000588
47993000,0.0324,0.013523,0.002678,0.000431,0.000353
47994000,0.0324,0.013523,0.002678,0.000431,0.000705
47995000,0.0324,0.013523,0.002678,0.000431,0.000353
47996000,0.0324,0.013523,0.002678,0.000431,0.000470
47997000,0.0324,0.013523,0.002678,0.000431,0.000353
47998000,0.0324,0.013523,0.002678,0.000431,0.000588
47999000,0.0324,0.013523,0.002678,0.000431,0.000353
