Cycle,Area(mm^2),PeakDynamic(W),SubthresholdLeakage(W),GateLeakage(W),RunTimeDynamic(W)
17000000,0.0324,0.013523,0.002678,0.000431,0.000353
17001000,0.0324,0.013523,0.002678,0.000431,0.000588
17002000,0.0324,0.013523,0.002678,0.000431,0.000353
17003000,0.0324,0.013523,0.002678,0.000431,0.000470
17004000,0.0324,0.013523,0.002678,0.000431,0.000353
17005000,0.0324,0.013523,0.002678,0.000431,0.000588
17006000,0.0324,0.013523,0.002678,0.000431,0.000353
17007000,0.0324,0.013523,0.002678,0.000431,0.000588
17008000,0.0324,0.013523,0.002678,0.000431,0.000470
17009000,0.0324,0.013523,0.002678,0.000431,0.000470
17010000,0.0324,0.013523,0.002678,0.000431,0.000470
17011000,0.0324,0.013523,0.002678,0.000431,0.000470
17012000,0.0324,0.013523,0.002678,0.000431,0.000470
17013000,0.0324,0.013523,0.002678,0.000431,0.000470
17014000,0.0324,0.013523,0.002678,0.000431,0.000470
17015000,0.0324,0.013523,0.002678,0.000431,0.000470
17016000,0.0324,0.013523,0.002678,0.000431,0.000470
17017000,0.0324,0.013523,0.002678,0.000431,0.000470
17018000,0.0324,0.013523,0.002678,0.000431,0.000588
17019000,0.0324,0.013523,0.002678,0.000431,0.000353
17020000,0.0324,0.013523,0.002678,0.000431,0.000588
17021000,0.0324,0.013523,0.002678,0.000431,0.000353
17022000,0.0324,0.013523,0.002678,0.000431,0.000705
17023000,0.0324,0.013523,0.002678,0.000431,0.000588
17024000,0.0324,0.013523,0.002678,0.000431,0.000470
17025000,0.0324,0.013523,0.002678,0.000431,0.000705
17026000,0.0324,0.013523,0.002678,0.000431,0.000235
17027000,0.0324,0.013523,0.002678,0.000431,0.000823
17028000,0.0324,0.013523,0.002678,0.000431,0.000353
17029000,0.0324,0.013523,0.002678,0.000431,0.000588
17030000,0.0324,0.013523,0.002678,0.000431,0.000235
17031000,0.0324,0.013523,0.002678,0.000431,0.000588
17032000,0.0324,0.013523,0.002678,0.000431,0.000353
17033000,0.0324,0.013523,0.002678,0.000431,0.000588
17034000,0.0324,0.013523,0.002678,0.000431,0.000353
17035000,0.0324,0.013523,0.002678,0.000431,0.000588
17036000,0.0324,0.013523,0.002678,0.000431,0.000470
17037000,0.0324,0.013523,0.002678,0.000431,0.000470
17038000,0.0324,0.013523,0.002678,0.000431,0.000470
17039000,0.0324,0.013523,0.002678,0.000431,0.000588
17040000,0.0324,0.013523,0.002678,0.000431,0.000353
17041000,0.0324,0.013523,0.002678,0.000431,0.000705
17042000,0.0324,0.013523,0.002678,0.000431,0.000353
17043000,0.0324,0.013523,0.002678,0.000431,0.000705
17044000,0.0324,0.013523,0.002678,0.000431,0.000588
17045000,0.0324,0.013523,0.002678,0.000431,0.000470
17046000,0.0324,0.013523,0.002678,0.000431,0.000705
17047000,0.0324,0.013523,0.002678,0.000431,0.000235
17048000,0.0324,0.013523,0.002678,0.000431,0.000705
17049000,0.0324,0.013523,0.002678,0.000431,0.000353
17050000,0.0324,0.013523,0.002678,0.000431,0.000705
17051000,0.0324,0.013523,0.002678,0.000431,0.000588
17052000,0.0324,0.013523,0.002678,0.000431,0.000470
17053000,0.0324,0.013523,0.002678,0.000431,0.000588
17054000,0.0324,0.013523,0.002678,0.000431,0.000353
17055000,0.0324,0.013523,0.002678,0.000431,0.000588
17056000,0.0324,0.013523,0.002678,0.000431,0.000353
17057000,0.0324,0.013523,0.002678,0.000431,0.000588
17058000,0.0324,0.013523,0.002678,0.000431,0.000470
17059000,0.0324,0.013523,0.002678,0.000431,0.000470
17060000,0.0324,0.013523,0.002678,0.000431,0.000470
17061000,0.0324,0.013523,0.002678,0.000431,0.000470
17062000,0.0324,0.013523,0.002678,0.000431,0.000705
17063000,0.0324,0.013523,0.002678,0.000431,0.000588
17064000,0.0324,0.013523,0.002678,0.000431,0.000470
17065000,0.0324,0.013523,0.002678,0.000431,0.000705
17066000,0.0324,0.013523,0.002678,0.000431,0.000353
17067000,0.0324,0.013523,0.002678,0.000431,0.000470
17068000,0.0324,0.013523,0.002678,0.000431,0.000470
17069000,0.0324,0.013523,0.002678,0.000431,0.000470
17070000,0.0324,0.013523,0.002678,0.000431,0.000470
17071000,0.0324,0.013523,0.002678,0.000431,0.000470
17072000,0.0324,0.013523,0.002678,0.000431,0.000470
17073000,0.0324,0.013523,0.002678,0.000431,0.000470
17074000,0.0324,0.013523,0.002678,0.000431,0.000588
17075000,0.0324,0.013523,0.002678,0.000431,0.000353
17076000,0.0324,0.013523,0.002678,0.000431,0.000588
17077000,0.0324,0.013523,0.002678,0.000431,0.000353
17078000,0.0324,0.013523,0.002678,0.000431,0.000588
17079000,0.0324,0.013523,0.002678,0.000431,0.000353
17080000,0.0324,0.013523,0.002678,0.000431,0.000588
17081000,0.0324,0.013523,0.002678,0.000431,0.000353
17082000,0.0324,0.013523,0.002678,0.000431,0.000588
17083000,0.0324,0.013523,0.002678,0.000431,0.000353
17084000,0.0324,0.013523,0.002678,0.000431,0.000588
17085000,0.0324,0.013523,0.002678,0.000431,0.000353
17086000,0.0324,0.013523,0.002678,0.000431,0.000588
17087000,0.0324,0.013523,0.002678,0.000431,0.000353
17088000,0.0324,0.013523,0.002678,0.000431,0.000705
17089000,0.0324,0.013523,0.002678,0.000431,0.000588
17090000,0.0324,0.013523,0.002678,0.000431,0.000470
17091000,0.0324,0.013523,0.002678,0.000431,0.000588
17092000,0.0324,0.013523,0.002678,0.000431,0.000353
17093000,0.0324,0.013523,0.002678,0.000431,0.000470
17094000,0.0324,0.013523,0.002678,0.000431,0.000470
17095000,0.0324,0.013523,0.002678,0.000431,0.000470
17096000,0.0324,0.013523,0.002678,0.000431,0.000470
17097000,0.0324,0.013523,0.002678,0.000431,0.000470
17098000,0.0324,0.013523,0.002678,0.000431,0.000470
17099000,0.0324,0.013523,0.002678,0.000431,0.000353
17100000,0.0324,0.013523,0.002678,0.000431,0.000588
17101000,0.0324,0.013523,0.002678,0.000431,0.000353
17102000,0.0324,0.013523,0.002678,0.000431,0.000588
17103000,0.0324,0.013523,0.002678,0.000431,0.000353
17104000,0.0324,0.013523,0.002678,0.000431,0.000588
17105000,0.0324,0.013523,0.002678,0.000431,0.000353
17106000,0.0324,0.013523,0.002678,0.000431,0.000588
17107000,0.0324,0.013523,0.002678,0.000431,0.000353
17108000,0.0324,0.013523,0.002678,0.000431,0.000588
17109000,0.0324,0.013523,0.002678,0.000431,0.000353
17110000,0.0324,0.013523,0.002678,0.000431,0.000705
17111000,0.0324,0.013523,0.002678,0.000431,0.000470
17112000,0.0324,0.013523,0.002678,0.000431,0.000470
17113000,0.0324,0.013523,0.002678,0.000431,0.000470
17114000,0.0324,0.013523,0.002678,0.000431,0.000588
17115000,0.0324,0.013523,0.002678,0.000431,0.000353
17116000,0.0324,0.013523,0.002678,0.000431,0.000588
17117000,0.0324,0.013523,0.002678,0.000431,0.000353
17118000,0.0324,0.013523,0.002678,0.000431,0.000470
17119000,0.0324,0.013523,0.002678,0.000431,0.000470
17120000,0.0324,0.013523,0.002678,0.000431,0.000588
17121000,0.0324,0.013523,0.002678,0.000431,0.000470
17122000,0.0324,0.013523,0.002678,0.000431,0.000705
17123000,0.0324,0.013523,0.002678,0.000431,0.000470
17124000,0.0324,0.013523,0.002678,0.000431,0.000470
17125000,0.0324,0.013523,0.002678,0.000431,0.000353
17126000,0.0324,0.013523,0.002678,0.000431,0.000588
17127000,0.0324,0.013523,0.002678,0.000431,0.000353
17128000,0.0324,0.013523,0.002678,0.000431,0.000588
17129000,0.0324,0.013523,0.002678,0.000431,0.000353
17130000,0.0324,0.013523,0.002678,0.000431,0.000823
17131000,0.0324,0.013523,0.002678,0.000431,0.000353
17132000,0.0324,0.013523,0.002678,0.000431,0.000588
17133000,0.0324,0.013523,0.002678,0.000431,0.000353
17134000,0.0324,0.013523,0.002678,0.000431,0.000470
17135000,0.0324,0.013523,0.002678,0.000431,0.000470
17136000,0.0324,0.013523,0.002678,0.000431,0.000705
17137000,0.0324,0.013523,0.002678,0.000431,0.000588
17138000,0.0324,0.013523,0.002678,0.000431,0.000470
17139000,0.0324,0.013523,0.002678,0.000431,0.000588
17140000,0.0324,0.013523,0.002678,0.000431,0.000353
17141000,0.0324,0.013523,0.002678,0.000431,0.000588
17142000,0.0324,0.013523,0.002678,0.000431,0.000353
17143000,0.0324,0.013523,0.002678,0.000431,0.000588
17144000,0.0324,0.013523,0.002678,0.000431,0.000353
17145000,0.0324,0.013523,0.002678,0.000431,0.000470
17146000,0.0324,0.013523,0.002678,0.000431,0.000470
17147000,0.0324,0.013523,0.002678,0.000431,0.000470
17148000,0.0324,0.013523,0.002678,0.000431,0.000470
17149000,0.0324,0.013523,0.002678,0.000431,0.000470
17150000,0.0324,0.013523,0.002678,0.000431,0.000588
17151000,0.0324,0.013523,0.002678,0.000431,0.000353
17152000,0.0324,0.013523,0.002678,0.000431,0.000470
17153000,0.0324,0.013523,0.002678,0.000431,0.000353
17154000,0.0324,0.013523,0.002678,0.000431,0.000588
17155000,0.0324,0.013523,0.002678,0.000431,0.000470
17156000,0.0324,0.013523,0.002678,0.000431,0.000588
17157000,0.0324,0.013523,0.002678,0.000431,0.000353
17158000,0.0324,0.013523,0.002678,0.000431,0.000588
17159000,0.0324,0.013523,0.002678,0.000431,0.000353
17160000,0.0324,0.013523,0.002678,0.000431,0.000588
17161000,0.0324,0.013523,0.002678,0.000431,0.000353
17162000,0.0324,0.013523,0.002678,0.000431,0.000588
17163000,0.0324,0.013523,0.002678,0.000431,0.000470
17164000,0.0324,0.013523,0.002678,0.000431,0.000470
17165000,0.0324,0.013523,0.002678,0.000431,0.000470
17166000,0.0324,0.013523,0.002678,0.000431,0.000470
17167000,0.0324,0.013523,0.002678,0.000431,0.000470
17168000,0.0324,0.013523,0.002678,0.000431,0.000470
17169000,0.0324,0.013523,0.002678,0.000431,0.000470
17170000,0.0324,0.013523,0.002678,0.000431,0.000588
17171000,0.0324,0.013523,0.002678,0.000431,0.000470
17172000,0.0324,0.013523,0.002678,0.000431,0.000705
17173000,0.0324,0.013523,0.002678,0.000431,0.000353
17174000,0.0324,0.013523,0.002678,0.000431,0.000588
17175000,0.0324,0.013523,0.002678,0.000431,0.000353
17176000,0.0324,0.013523,0.002678,0.000431,0.000588
17177000,0.0324,0.013523,0.002678,0.000431,0.000470
17178000,0.0324,0.013523,0.002678,0.000431,0.000470
17179000,0.0324,0.013523,0.002678,0.000431,0.000588
17180000,0.0324,0.013523,0.002678,0.000431,0.000470
17181000,0.0324,0.013523,0.002678,0.000431,0.000470
17182000,0.0324,0.013523,0.002678,0.000431,0.000588
17183000,0.0324,0.013523,0.002678,0.000431,0.000470
17184000,0.0324,0.013523,0.002678,0.000431,0.000705
17185000,0.0324,0.013523,0.002678,0.000431,0.000353
17186000,0.0324,0.013523,0.002678,0.000431,0.000588
17187000,0.0324,0.013523,0.002678,0.000431,0.000353
17188000,0.0324,0.013523,0.002678,0.000431,0.000588
17189000,0.0324,0.013523,0.002678,0.000431,0.000353
17190000,0.0324,0.013523,0.002678,0.000431,0.000588
17191000,0.0324,0.013523,0.002678,0.000431,0.000353
17192000,0.0324,0.013523,0.002678,0.000431,0.000588
17193000,0.0324,0.013523,0.002678,0.000431,0.000470
17194000,0.0324,0.013523,0.002678,0.000431,0.000588
17195000,0.0324,0.013523,0.002678,0.000431,0.000353
17196000,0.0324,0.013523,0.002678,0.000431,0.000705
17197000,0.0324,0.013523,0.002678,0.000431,0.000353
17198000,0.0324,0.013523,0.002678,0.000431,0.000588
17199000,0.0324,0.013523,0.002678,0.000431,0.000353
17200000,0.0324,0.013523,0.002678,0.000431,0.000588
17201000,0.0324,0.013523,0.002678,0.000431,0.000353
17202000,0.0324,0.013523,0.002678,0.000431,0.000588
17203000,0.0324,0.013523,0.002678,0.000431,0.000353
17204000,0.0324,0.013523,0.002678,0.000431,0.000470
17205000,0.0324,0.013523,0.002678,0.000431,0.000470
17206000,0.0324,0.013523,0.002678,0.000431,0.000470
17207000,0.0324,0.013523,0.002678,0.000431,0.000470
17208000,0.0324,0.013523,0.002678,0.000431,0.000588
17209000,0.0324,0.013523,0.002678,0.000431,0.000470
17210000,0.0324,0.013523,0.002678,0.000431,0.000588
17211000,0.0324,0.013523,0.002678,0.000431,0.000470
17212000,0.0324,0.013523,0.002678,0.000431,0.000470
17213000,0.0324,0.013523,0.002678,0.000431,0.000353
17214000,0.0324,0.013523,0.002678,0.000431,0.000588
17215000,0.0324,0.013523,0.002678,0.000431,0.000470
17216000,0.0324,0.013523,0.002678,0.000431,0.000470
17217000,0.0324,0.013523,0.002678,0.000431,0.000470
17218000,0.0324,0.013523,0.002678,0.000431,0.000470
17219000,0.0324,0.013523,0.002678,0.000431,0.000470
17220000,0.0324,0.013523,0.002678,0.000431,0.000588
17221000,0.0324,0.013523,0.002678,0.000431,0.000470
17222000,0.0324,0.013523,0.002678,0.000431,0.000705
17223000,0.0324,0.013523,0.002678,0.000431,0.000353
17224000,0.0324,0.013523,0.002678,0.000431,0.000588
17225000,0.0324,0.013523,0.002678,0.000431,0.000353
17226000,0.0324,0.013523,0.002678,0.000431,0.000588
17227000,0.0324,0.013523,0.002678,0.000431,0.000353
17228000,0.0324,0.013523,0.002678,0.000431,0.000588
17229000,0.0324,0.013523,0.002678,0.000431,0.000353
17230000,0.0324,0.013523,0.002678,0.000431,0.000588
17231000,0.0324,0.013523,0.002678,0.000431,0.000470
17232000,0.0324,0.013523,0.002678,0.000431,0.000705
17233000,0.0324,0.013523,0.002678,0.000431,0.000353
17234000,0.0324,0.013523,0.002678,0.000431,0.000705
17235000,0.0324,0.013523,0.002678,0.000431,0.000588
17236000,0.0324,0.013523,0.002678,0.000431,0.000470
17237000,0.0324,0.013523,0.002678,0.000431,0.000588
17238000,0.0324,0.013523,0.002678,0.000431,0.000353
17239000,0.0324,0.013523,0.002678,0.000431,0.000588
17240000,0.0324,0.013523,0.002678,0.000431,0.000353
17241000,0.0324,0.013523,0.002678,0.000431,0.000588
17242000,0.0324,0.013523,0.002678,0.000431,0.000353
17243000,0.0324,0.013523,0.002678,0.000431,0.000588
17244000,0.0324,0.013523,0.002678,0.000431,0.000470
17245000,0.0324,0.013523,0.002678,0.000431,0.000470
17246000,0.0324,0.013523,0.002678,0.000431,0.000470
17247000,0.0324,0.013523,0.002678,0.000431,0.000470
17248000,0.0324,0.013523,0.002678,0.000431,0.000470
17249000,0.0324,0.013523,0.002678,0.000431,0.000470
17250000,0.0324,0.013523,0.002678,0.000431,0.000705
17251000,0.0324,0.013523,0.002678,0.000431,0.000470
17252000,0.0324,0.013523,0.002678,0.000431,0.000470
17253000,0.0324,0.013523,0.002678,0.000431,0.000353
17254000,0.0324,0.013523,0.002678,0.000431,0.000588
17255000,0.0324,0.013523,0.002678,0.000431,0.000353
17256000,0.0324,0.013523,0.002678,0.000431,0.000588
17257000,0.0324,0.013523,0.002678,0.000431,0.000353
17258000,0.0324,0.013523,0.002678,0.000431,0.000588
17259000,0.0324,0.013523,0.002678,0.000431,0.000353
17260000,0.0324,0.013523,0.002678,0.000431,0.000588
17261000,0.0324,0.013523,0.002678,0.000431,0.000353
17262000,0.0324,0.013523,0.002678,0.000431,0.000588
17263000,0.0324,0.013523,0.002678,0.000431,0.000353
17264000,0.0324,0.013523,0.002678,0.000431,0.000588
17265000,0.0324,0.013523,0.002678,0.000431,0.000353
17266000,0.0324,0.013523,0.002678,0.000431,0.000588
17267000,0.0324,0.013523,0.002678,0.000431,0.000353
17268000,0.0324,0.013523,0.002678,0.000431,0.000588
17269000,0.0324,0.013523,0.002678,0.000431,0.000353
17270000,0.0324,0.013523,0.002678,0.000431,0.000588
17271000,0.0324,0.013523,0.002678,0.000431,0.000353
17272000,0.0324,0.013523,0.002678,0.000431,0.000588
17273000,0.0324,0.013523,0.002678,0.000431,0.000235
17274000,0.0324,0.013523,0.002678,0.000431,0.000588
17275000,0.0324,0.013523,0.002678,0.000431,0.000470
17276000,0.0324,0.013523,0.002678,0.000431,0.000588
17277000,0.0324,0.013523,0.002678,0.000431,0.000353
17278000,0.0324,0.013523,0.002678,0.000431,0.000588
17279000,0.0324,0.013523,0.002678,0.000431,0.000353
17280000,0.0324,0.013523,0.002678,0.000431,0.000588
17281000,0.0324,0.013523,0.002678,0.000431,0.000353
17282000,0.0324,0.013523,0.002678,0.000431,0.000470
17283000,0.0324,0.013523,0.002678,0.000431,0.000470
17284000,0.0324,0.013523,0.002678,0.000431,0.000470
17285000,0.0324,0.013523,0.002678,0.000431,0.000470
17286000,0.0324,0.013523,0.002678,0.000431,0.000353
17287000,0.0324,0.013523,0.002678,0.000431,0.000588
17288000,0.0324,0.013523,0.002678,0.000431,0.000353
17289000,0.0324,0.013523,0.002678,0.000431,0.000705
17290000,0.0324,0.013523,0.002678,0.000431,0.000588
17291000,0.0324,0.013523,0.002678,0.000431,0.000470
17292000,0.0324,0.013523,0.002678,0.000431,0.000705
17293000,0.0324,0.013523,0.002678,0.000431,0.000353
17294000,0.0324,0.013523,0.002678,0.000431,0.000588
17295000,0.0324,0.013523,0.002678,0.000431,0.000353
17296000,0.0324,0.013523,0.002678,0.000431,0.000588
17297000,0.0324,0.013523,0.002678,0.000431,0.000353
17298000,0.0324,0.013523,0.002678,0.000431,0.000588
17299000,0.0324,0.013523,0.002678,0.000431,0.000353
17300000,0.0324,0.013523,0.002678,0.000431,0.000588
17301000,0.0324,0.013523,0.002678,0.000431,0.000353
17302000,0.0324,0.013523,0.002678,0.000431,0.000588
17303000,0.0324,0.013523,0.002678,0.000431,0.000470
17304000,0.0324,0.013523,0.002678,0.000431,0.000705
17305000,0.0324,0.013523,0.002678,0.000431,0.000353
17306000,0.0324,0.013523,0.002678,0.000431,0.000588
17307000,0.0324,0.013523,0.002678,0.000431,0.000353
17308000,0.0324,0.013523,0.002678,0.000431,0.000470
17309000,0.0324,0.013523,0.002678,0.000431,0.000470
17310000,0.0324,0.013523,0.002678,0.000431,0.000588
17311000,0.0324,0.013523,0.002678,0.000431,0.000470
17312000,0.0324,0.013523,0.002678,0.000431,0.000705
17313000,0.0324,0.013523,0.002678,0.000431,0.000353
17314000,0.0324,0.013523,0.002678,0.000431,0.000705
17315000,0.0324,0.013523,0.002678,0.000431,0.000470
17316000,0.0324,0.013523,0.002678,0.000431,0.000470
17317000,0.0324,0.013523,0.002678,0.000431,0.000470
17318000,0.0324,0.013523,0.002678,0.000431,0.000470
17319000,0.0324,0.013523,0.002678,0.000431,0.000470
17320000,0.0324,0.013523,0.002678,0.000431,0.000470
17321000,0.0324,0.013523,0.002678,0.000431,0.000470
17322000,0.0324,0.013523,0.002678,0.000431,0.000470
17323000,0.0324,0.013523,0.002678,0.000431,0.000470
17324000,0.0324,0.013523,0.002678,0.000431,0.000588
17325000,0.0324,0.013523,0.002678,0.000431,0.000353
17326000,0.0324,0.013523,0.002678,0.000431,0.000588
17327000,0.0324,0.013523,0.002678,0.000431,0.000470
17328000,0.0324,0.013523,0.002678,0.000431,0.000470
17329000,0.0324,0.013523,0.002678,0.000431,0.000470
17330000,0.0324,0.013523,0.002678,0.000431,0.000470
17331000,0.0324,0.013523,0.002678,0.000431,0.000353
17332000,0.0324,0.013523,0.002678,0.000431,0.000705
17333000,0.0324,0.013523,0.002678,0.000431,0.000470
17334000,0.0324,0.013523,0.002678,0.000431,0.000470
17335000,0.0324,0.013523,0.002678,0.000431,0.000470
17336000,0.0324,0.013523,0.002678,0.000431,0.000470
17337000,0.0324,0.013523,0.002678,0.000431,0.000470
17338000,0.0324,0.013523,0.002678,0.000431,0.000588
17339000,0.0324,0.013523,0.002678,0.000431,0.000353
17340000,0.0324,0.013523,0.002678,0.000431,0.000588
17341000,0.0324,0.013523,0.002678,0.000431,0.000353
17342000,0.0324,0.013523,0.002678,0.000431,0.000705
17343000,0.0324,0.013523,0.002678,0.000431,0.000470
17344000,0.0324,0.013523,0.002678,0.000431,0.000470
17345000,0.0324,0.013523,0.002678,0.000431,0.000470
17346000,0.0324,0.013523,0.002678,0.000431,0.000470
17347000,0.0324,0.013523,0.002678,0.000431,0.000470
17348000,0.0324,0.013523,0.002678,0.000431,0.000470
17349000,0.0324,0.013523,0.002678,0.000431,0.000470
17350000,0.0324,0.013523,0.002678,0.000431,0.000470
17351000,0.0324,0.013523,0.002678,0.000431,0.000470
17352000,0.0324,0.013523,0.002678,0.000431,0.000470
17353000,0.0324,0.013523,0.002678,0.000431,0.000470
17354000,0.0324,0.013523,0.002678,0.000431,0.000470
17355000,0.0324,0.013523,0.002678,0.000431,0.000470
17356000,0.0324,0.013523,0.002678,0.000431,0.000470
17357000,0.0324,0.013523,0.002678,0.000431,0.000353
17358000,0.0324,0.013523,0.002678,0.000431,0.000588
17359000,0.0324,0.013523,0.002678,0.000431,0.000353
17360000,0.0324,0.013523,0.002678,0.000431,0.000588
17361000,0.0324,0.013523,0.002678,0.000431,0.000353
17362000,0.0324,0.013523,0.002678,0.000431,0.000588
17363000,0.0324,0.013523,0.002678,0.000431,0.000353
17364000,0.0324,0.013523,0.002678,0.000431,0.000588
17365000,0.0324,0.013523,0.002678,0.000431,0.000353
17366000,0.0324,0.013523,0.002678,0.000431,0.000705
17367000,0.0324,0.013523,0.002678,0.000431,0.000353
17368000,0.0324,0.013523,0.002678,0.000431,0.000705
17369000,0.0324,0.013523,0.002678,0.000431,0.000470
17370000,0.0324,0.013523,0.002678,0.000431,0.000470
17371000,0.0324,0.013523,0.002678,0.000431,0.000470
17372000,0.0324,0.013523,0.002678,0.000431,0.000470
17373000,0.0324,0.013523,0.002678,0.000431,0.000470
17374000,0.0324,0.013523,0.002678,0.000431,0.000470
17375000,0.0324,0.013523,0.002678,0.000431,0.000470
17376000,0.0324,0.013523,0.002678,0.000431,0.000588
17377000,0.0324,0.013523,0.002678,0.000431,0.000588
17378000,0.0324,0.013523,0.002678,0.000431,0.000353
17379000,0.0324,0.013523,0.002678,0.000431,0.000470
17380000,0.0324,0.013523,0.002678,0.000431,0.000470
17381000,0.0324,0.013523,0.002678,0.000431,0.000470
17382000,0.0324,0.013523,0.002678,0.000431,0.000470
17383000,0.0324,0.013523,0.002678,0.000431,0.000353
17384000,0.0324,0.013523,0.002678,0.000431,0.000588
17385000,0.0324,0.013523,0.002678,0.000431,0.000353
17386000,0.0324,0.013523,0.002678,0.000431,0.000705
17387000,0.0324,0.013523,0.002678,0.000431,0.000588
17388000,0.0324,0.013523,0.002678,0.000431,0.000470
17389000,0.0324,0.013523,0.002678,0.000431,0.000705
17390000,0.0324,0.013523,0.002678,0.000431,0.000353
17391000,0.0324,0.013523,0.002678,0.000431,0.000588
17392000,0.0324,0.013523,0.002678,0.000431,0.000353
17393000,0.0324,0.013523,0.002678,0.000431,0.000588
17394000,0.0324,0.013523,0.002678,0.000431,0.000353
17395000,0.0324,0.013523,0.002678,0.000431,0.000705
17396000,0.0324,0.013523,0.002678,0.000431,0.000588
17397000,0.0324,0.013523,0.002678,0.000431,0.000353
17398000,0.0324,0.013523,0.002678,0.000431,0.000588
17399000,0.0324,0.013523,0.002678,0.000431,0.000470
17400000,0.0324,0.013523,0.002678,0.000431,0.000588
17401000,0.0324,0.013523,0.002678,0.000431,0.000353
17402000,0.0324,0.013523,0.002678,0.000431,0.000588
17403000,0.0324,0.013523,0.002678,0.000431,0.000470
17404000,0.0324,0.013523,0.002678,0.000431,0.000470
17405000,0.0324,0.013523,0.002678,0.000431,0.000470
17406000,0.0324,0.013523,0.002678,0.000431,0.000470
17407000,0.0324,0.013523,0.002678,0.000431,0.000470
17408000,0.0324,0.013523,0.002678,0.000431,0.000470
17409000,0.0324,0.013523,0.002678,0.000431,0.000470
17410000,0.0324,0.013523,0.002678,0.000431,0.000470
17411000,0.0324,0.013523,0.002678,0.000431,0.000470
17412000,0.0324,0.013523,0.002678,0.000431,0.000470
17413000,0.0324,0.013523,0.002678,0.000431,0.000470
17414000,0.0324,0.013523,0.002678,0.000431,0.000470
17415000,0.0324,0.013523,0.002678,0.000431,0.000353
17416000,0.0324,0.013523,0.002678,0.000431,0.000588
17417000,0.0324,0.013523,0.002678,0.000431,0.000353
17418000,0.0324,0.013523,0.002678,0.000431,0.000588
17419000,0.0324,0.013523,0.002678,0.000431,0.000353
17420000,0.0324,0.013523,0.002678,0.000431,0.000588
17421000,0.0324,0.013523,0.002678,0.000431,0.000470
17422000,0.0324,0.013523,0.002678,0.000431,0.000470
17423000,0.0324,0.013523,0.002678,0.000431,0.000353
17424000,0.0324,0.013523,0.002678,0.000431,0.000470
17425000,0.0324,0.013523,0.002678,0.000431,0.000470
17426000,0.0324,0.013523,0.002678,0.000431,0.000470
17427000,0.0324,0.013523,0.002678,0.000431,0.000470
17428000,0.0324,0.013523,0.002678,0.000431,0.000353
17429000,0.0324,0.013523,0.002678,0.000431,0.000705
17430000,0.0324,0.013523,0.002678,0.000431,0.000588
17431000,0.0324,0.013523,0.002678,0.000431,0.000470
17432000,0.0324,0.013523,0.002678,0.000431,0.000588
17433000,0.0324,0.013523,0.002678,0.000431,0.000353
17434000,0.0324,0.013523,0.002678,0.000431,0.000705
17435000,0.0324,0.013523,0.002678,0.000431,0.000353
17436000,0.0324,0.013523,0.002678,0.000431,0.000588
17437000,0.0324,0.013523,0.002678,0.000431,0.000353
17438000,0.0324,0.013523,0.002678,0.000431,0.000588
17439000,0.0324,0.013523,0.002678,0.000431,0.000470
17440000,0.0324,0.013523,0.002678,0.000431,0.000588
17441000,0.0324,0.013523,0.002678,0.000431,0.000353
17442000,0.0324,0.013523,0.002678,0.000431,0.000705
17443000,0.0324,0.013523,0.002678,0.000431,0.000353
17444000,0.0324,0.013523,0.002678,0.000431,0.000470
17445000,0.0324,0.013523,0.002678,0.000431,0.000470
17446000,0.0324,0.013523,0.002678,0.000431,0.000470
17447000,0.0324,0.013523,0.002678,0.000431,0.000353
17448000,0.0324,0.013523,0.002678,0.000431,0.000705
17449000,0.0324,0.013523,0.002678,0.000431,0.000470
17450000,0.0324,0.013523,0.002678,0.000431,0.000470
17451000,0.0324,0.013523,0.002678,0.000431,0.000470
17452000,0.0324,0.013523,0.002678,0.000431,0.000588
17453000,0.0324,0.013523,0.002678,0.000431,0.000353
17454000,0.0324,0.013523,0.002678,0.000431,0.000588
17455000,0.0324,0.013523,0.002678,0.000431,0.000353
17456000,0.0324,0.013523,0.002678,0.000431,0.000588
17457000,0.0324,0.013523,0.002678,0.000431,0.000353
17458000,0.0324,0.013523,0.002678,0.000431,0.000705
17459000,0.0324,0.013523,0.002678,0.000431,0.000353
17460000,0.0324,0.013523,0.002678,0.000431,0.000588
17461000,0.0324,0.013523,0.002678,0.000431,0.000353
17462000,0.0324,0.013523,0.002678,0.000431,0.000588
17463000,0.0324,0.013523,0.002678,0.000431,0.000353
17464000,0.0324,0.013523,0.002678,0.000431,0.000588
17465000,0.0324,0.013523,0.002678,0.000431,0.000353
17466000,0.0324,0.013523,0.002678,0.000431,0.000823
17467000,0.0324,0.013523,0.002678,0.000431,0.000353
17468000,0.0324,0.013523,0.002678,0.000431,0.000588
17469000,0.0324,0.013523,0.002678,0.000431,0.000353
17470000,0.0324,0.013523,0.002678,0.000431,0.000588
17471000,0.0324,0.013523,0.002678,0.000431,0.000353
17472000,0.0324,0.013523,0.002678,0.000431,0.000588
17473000,0.0324,0.013523,0.002678,0.000431,0.000353
17474000,0.0324,0.013523,0.002678,0.000431,0.000823
17475000,0.0324,0.013523,0.002678,0.000431,0.000353
17476000,0.0324,0.013523,0.002678,0.000431,0.000470
17477000,0.0324,0.013523,0.002678,0.000431,0.000353
17478000,0.0324,0.013523,0.002678,0.000431,0.000588
17479000,0.0324,0.013523,0.002678,0.000431,0.000353
17480000,0.0324,0.013523,0.002678,0.000431,0.000588
17481000,0.0324,0.013523,0.002678,0.000431,0.000470
17482000,0.0324,0.013523,0.002678,0.000431,0.000470
17483000,0.0324,0.013523,0.002678,0.000431,0.000353
17484000,0.0324,0.013523,0.002678,0.000431,0.000588
17485000,0.0324,0.013523,0.002678,0.000431,0.000470
17486000,0.0324,0.013523,0.002678,0.000431,0.000470
17487000,0.0324,0.013523,0.002678,0.000431,0.000470
17488000,0.0324,0.013523,0.002678,0.000431,0.000470
17489000,0.0324,0.013523,0.002678,0.000431,0.000470
17490000,0.0324,0.013523,0.002678,0.000431,0.000470
17491000,0.0324,0.013523,0.002678,0.000431,0.000470
17492000,0.0324,0.013523,0.002678,0.000431,0.000470
17493000,0.0324,0.013523,0.002678,0.000431,0.000470
17494000,0.0324,0.013523,0.002678,0.000431,0.000470
17495000,0.0324,0.013523,0.002678,0.000431,0.000470
17496000,0.0324,0.013523,0.002678,0.000431,0.000470
17497000,0.0324,0.013523,0.002678,0.000431,0.000470
17498000,0.0324,0.013523,0.002678,0.000431,0.000470
17499000,0.0324,0.013523,0.002678,0.000431,0.000470
17500000,0.0324,0.013523,0.002678,0.000431,0.000470
17501000,0.0324,0.013523,0.002678,0.000431,0.000470
17502000,0.0324,0.013523,0.002678,0.000431,0.000470
17503000,0.0324,0.013523,0.002678,0.000431,0.000470
17504000,0.0324,0.013523,0.002678,0.000431,0.000470
17505000,0.0324,0.013523,0.002678,0.000431,0.000470
17506000,0.0324,0.013523,0.002678,0.000431,0.000353
17507000,0.0324,0.013523,0.002678,0.000431,0.000588
17508000,0.0324,0.013523,0.002678,0.000431,0.000353
17509000,0.0324,0.013523,0.002678,0.000431,0.000588
17510000,0.0324,0.013523,0.002678,0.000431,0.000353
17511000,0.0324,0.013523,0.002678,0.000431,0.000588
17512000,0.0324,0.013523,0.002678,0.000431,0.000353
17513000,0.0324,0.013523,0.002678,0.000431,0.000705
17514000,0.0324,0.013523,0.002678,0.000431,0.000353
17515000,0.0324,0.013523,0.002678,0.000431,0.000705
17516000,0.0324,0.013523,0.002678,0.000431,0.000588
17517000,0.0324,0.013523,0.002678,0.000431,0.000470
17518000,0.0324,0.013523,0.002678,0.000431,0.000588
17519000,0.0324,0.013523,0.002678,0.000431,0.000353
17520000,0.0324,0.013523,0.002678,0.000431,0.000588
17521000,0.0324,0.013523,0.002678,0.000431,0.000353
17522000,0.0324,0.013523,0.002678,0.000431,0.000588
17523000,0.0324,0.013523,0.002678,0.000431,0.000353
17524000,0.0324,0.013523,0.002678,0.000431,0.000588
17525000,0.0324,0.013523,0.002678,0.000431,0.000353
17526000,0.0324,0.013523,0.002678,0.000431,0.000470
17527000,0.0324,0.013523,0.002678,0.000431,0.000470
17528000,0.0324,0.013523,0.002678,0.000431,0.000470
17529000,0.0324,0.013523,0.002678,0.000431,0.000470
17530000,0.0324,0.013523,0.002678,0.000431,0.000470
17531000,0.0324,0.013523,0.002678,0.000431,0.000470
17532000,0.0324,0.013523,0.002678,0.000431,0.000353
17533000,0.0324,0.013523,0.002678,0.000431,0.000705
17534000,0.0324,0.013523,0.002678,0.000431,0.000470
17535000,0.0324,0.013523,0.002678,0.000431,0.000470
17536000,0.0324,0.013523,0.002678,0.000431,0.000470
17537000,0.0324,0.013523,0.002678,0.000431,0.000588
17538000,0.0324,0.013523,0.002678,0.000431,0.000353
17539000,0.0324,0.013523,0.002678,0.000431,0.000705
17540000,0.0324,0.013523,0.002678,0.000431,0.000588
17541000,0.0324,0.013523,0.002678,0.000431,0.000470
17542000,0.0324,0.013523,0.002678,0.000431,0.000588
17543000,0.0324,0.013523,0.002678,0.000431,0.000353
17544000,0.0324,0.013523,0.002678,0.000431,0.000588
17545000,0.0324,0.013523,0.002678,0.000431,0.000353
17546000,0.0324,0.013523,0.002678,0.000431,0.000588
17547000,0.0324,0.013523,0.002678,0.000431,0.000353
17548000,0.0324,0.013523,0.002678,0.000431,0.000588
17549000,0.0324,0.013523,0.002678,0.000431,0.000353
17550000,0.0324,0.013523,0.002678,0.000431,0.000588
17551000,0.0324,0.013523,0.002678,0.000431,0.000353
17552000,0.0324,0.013523,0.002678,0.000431,0.000470
17553000,0.0324,0.013523,0.002678,0.000431,0.000470
17554000,0.0324,0.013523,0.002678,0.000431,0.000470
17555000,0.0324,0.013523,0.002678,0.000431,0.000470
17556000,0.0324,0.013523,0.002678,0.000431,0.000470
17557000,0.0324,0.013523,0.002678,0.000431,0.000470
17558000,0.0324,0.013523,0.002678,0.000431,0.000353
17559000,0.0324,0.013523,0.002678,0.000431,0.000705
17560000,0.0324,0.013523,0.002678,0.000431,0.000588
17561000,0.0324,0.013523,0.002678,0.000431,0.000470
17562000,0.0324,0.013523,0.002678,0.000431,0.000705
17563000,0.0324,0.013523,0.002678,0.000431,0.000353
17564000,0.0324,0.013523,0.002678,0.000431,0.000588
17565000,0.0324,0.013523,0.002678,0.000431,0.000353
17566000,0.0324,0.013523,0.002678,0.000431,0.000588
17567000,0.0324,0.013523,0.002678,0.000431,0.000353
17568000,0.0324,0.013523,0.002678,0.000431,0.000588
17569000,0.0324,0.013523,0.002678,0.000431,0.000353
17570000,0.0324,0.013523,0.002678,0.000431,0.000588
17571000,0.0324,0.013523,0.002678,0.000431,0.000353
17572000,0.0324,0.013523,0.002678,0.000431,0.000588
17573000,0.0324,0.013523,0.002678,0.000431,0.000470
17574000,0.0324,0.013523,0.002678,0.000431,0.000705
17575000,0.0324,0.013523,0.002678,0.000431,0.000470
17576000,0.0324,0.013523,0.002678,0.000431,0.000353
17577000,0.0324,0.013523,0.002678,0.000431,0.000470
17578000,0.0324,0.013523,0.002678,0.000431,0.000470
17579000,0.0324,0.013523,0.002678,0.000431,0.000588
17580000,0.0324,0.013523,0.002678,0.000431,0.000470
17581000,0.0324,0.013523,0.002678,0.000431,0.000705
17582000,0.0324,0.013523,0.002678,0.000431,0.000353
17583000,0.0324,0.013523,0.002678,0.000431,0.000705
17584000,0.0324,0.013523,0.002678,0.000431,0.000588
17585000,0.0324,0.013523,0.002678,0.000431,0.000470
17586000,0.0324,0.013523,0.002678,0.000431,0.000588
17587000,0.0324,0.013523,0.002678,0.000431,0.000353
17588000,0.0324,0.013523,0.002678,0.000431,0.000588
17589000,0.0324,0.013523,0.002678,0.000431,0.000353
17590000,0.0324,0.013523,0.002678,0.000431,0.000588
17591000,0.0324,0.013523,0.002678,0.000431,0.000353
17592000,0.0324,0.013523,0.002678,0.000431,0.000470
17593000,0.0324,0.013523,0.002678,0.000431,0.000705
17594000,0.0324,0.013523,0.002678,0.000431,0.000470
17595000,0.0324,0.013523,0.002678,0.000431,0.000705
17596000,0.0324,0.013523,0.002678,0.000431,0.000353
17597000,0.0324,0.013523,0.002678,0.000431,0.000705
17598000,0.0324,0.013523,0.002678,0.000431,0.000588
17599000,0.0324,0.013523,0.002678,0.000431,0.000470
17600000,0.0324,0.013523,0.002678,0.000431,0.000588
17601000,0.0324,0.013523,0.002678,0.000431,0.000353
17602000,0.0324,0.013523,0.002678,0.000431,0.000588
17603000,0.0324,0.013523,0.002678,0.000431,0.000353
17604000,0.0324,0.013523,0.002678,0.000431,0.000588
17605000,0.0324,0.013523,0.002678,0.000431,0.000353
17606000,0.0324,0.013523,0.002678,0.000431,0.000588
17607000,0.0324,0.013523,0.002678,0.000431,0.000470
17608000,0.0324,0.013523,0.002678,0.000431,0.000470
17609000,0.0324,0.013523,0.002678,0.000431,0.000353
17610000,0.0324,0.013523,0.002678,0.000431,0.000588
17611000,0.0324,0.013523,0.002678,0.000431,0.000353
17612000,0.0324,0.013523,0.002678,0.000431,0.000705
17613000,0.0324,0.013523,0.002678,0.000431,0.000470
17614000,0.0324,0.013523,0.002678,0.000431,0.000588
17615000,0.0324,0.013523,0.002678,0.000431,0.000353
17616000,0.0324,0.013523,0.002678,0.000431,0.000588
17617000,0.0324,0.013523,0.002678,0.000431,0.000235
17618000,0.0324,0.013523,0.002678,0.000431,0.000588
17619000,0.0324,0.013523,0.002678,0.000431,0.000470
17620000,0.0324,0.013523,0.002678,0.000431,0.000470
17621000,0.0324,0.013523,0.002678,0.000431,0.000470
17622000,0.0324,0.013523,0.002678,0.000431,0.000353
17623000,0.0324,0.013523,0.002678,0.000431,0.000588
17624000,0.0324,0.013523,0.002678,0.000431,0.000353
17625000,0.0324,0.013523,0.002678,0.000431,0.000588
17626000,0.0324,0.013523,0.002678,0.000431,0.000353
17627000,0.0324,0.013523,0.002678,0.000431,0.000588
17628000,0.0324,0.013523,0.002678,0.000431,0.000353
17629000,0.0324,0.013523,0.002678,0.000431,0.000705
17630000,0.0324,0.013523,0.002678,0.000431,0.000588
17631000,0.0324,0.013523,0.002678,0.000431,0.000470
17632000,0.0324,0.013523,0.002678,0.000431,0.000588
17633000,0.0324,0.013523,0.002678,0.000431,0.000353
17634000,0.0324,0.013523,0.002678,0.000431,0.000588
17635000,0.0324,0.013523,0.002678,0.000431,0.000353
17636000,0.0324,0.013523,0.002678,0.000431,0.000588
17637000,0.0324,0.013523,0.002678,0.000431,0.000353
17638000,0.0324,0.013523,0.002678,0.000431,0.000588
17639000,0.0324,0.013523,0.002678,0.000431,0.000353
17640000,0.0324,0.013523,0.002678,0.000431,0.000588
17641000,0.0324,0.013523,0.002678,0.000431,0.000353
17642000,0.0324,0.013523,0.002678,0.000431,0.000588
17643000,0.0324,0.013523,0.002678,0.000431,0.000470
17644000,0.0324,0.013523,0.002678,0.000431,0.000470
17645000,0.0324,0.013523,0.002678,0.000431,0.000470
17646000,0.0324,0.013523,0.002678,0.000431,0.000470
17647000,0.0324,0.013523,0.002678,0.000431,0.000470
17648000,0.0324,0.013523,0.002678,0.000431,0.000353
17649000,0.0324,0.013523,0.002678,0.000431,0.000588
17650000,0.0324,0.013523,0.002678,0.000431,0.000353
17651000,0.0324,0.013523,0.002678,0.000431,0.000588
17652000,0.0324,0.013523,0.002678,0.000431,0.000353
17653000,0.0324,0.013523,0.002678,0.000431,0.000588
17654000,0.0324,0.013523,0.002678,0.000431,0.000353
17655000,0.0324,0.013523,0.002678,0.000431,0.000588
17656000,0.0324,0.013523,0.002678,0.000431,0.000353
17657000,0.0324,0.013523,0.002678,0.000431,0.000588
17658000,0.0324,0.013523,0.002678,0.000431,0.000353
17659000,0.0324,0.013523,0.002678,0.000431,0.000588
17660000,0.0324,0.013523,0.002678,0.000431,0.000353
17661000,0.0324,0.013523,0.002678,0.000431,0.000470
17662000,0.0324,0.013523,0.002678,0.000431,0.000353
17663000,0.0324,0.013523,0.002678,0.000431,0.000588
17664000,0.0324,0.013523,0.002678,0.000431,0.000353
17665000,0.0324,0.013523,0.002678,0.000431,0.000705
17666000,0.0324,0.013523,0.002678,0.000431,0.000353
17667000,0.0324,0.013523,0.002678,0.000431,0.000470
17668000,0.0324,0.013523,0.002678,0.000431,0.000470
17669000,0.0324,0.013523,0.002678,0.000431,0.000705
17670000,0.0324,0.013523,0.002678,0.000431,0.000353
17671000,0.0324,0.013523,0.002678,0.000431,0.000588
17672000,0.0324,0.013523,0.002678,0.000431,0.000588
17673000,0.0324,0.013523,0.002678,0.000431,0.000470
17674000,0.0324,0.013523,0.002678,0.000431,0.000353
17675000,0.0324,0.013523,0.002678,0.000431,0.000588
17676000,0.0324,0.013523,0.002678,0.000431,0.000353
17677000,0.0324,0.013523,0.002678,0.000431,0.000588
17678000,0.0324,0.013523,0.002678,0.000431,0.000235
17679000,0.0324,0.013523,0.002678,0.000431,0.000588
17680000,0.0324,0.013523,0.002678,0.000431,0.000353
17681000,0.0324,0.013523,0.002678,0.000431,0.000588
17682000,0.0324,0.013523,0.002678,0.000431,0.000470
17683000,0.0324,0.013523,0.002678,0.000431,0.000588
17684000,0.0324,0.013523,0.002678,0.000431,0.000353
17685000,0.0324,0.013523,0.002678,0.000431,0.000705
17686000,0.0324,0.013523,0.002678,0.000431,0.000353
17687000,0.0324,0.013523,0.002678,0.000431,0.000588
17688000,0.0324,0.013523,0.002678,0.000431,0.000353
17689000,0.0324,0.013523,0.002678,0.000431,0.000588
17690000,0.0324,0.013523,0.002678,0.000431,0.000353
17691000,0.0324,0.013523,0.002678,0.000431,0.000588
17692000,0.0324,0.013523,0.002678,0.000431,0.000353
17693000,0.0324,0.013523,0.002678,0.000431,0.000588
17694000,0.0324,0.013523,0.002678,0.000431,0.000353
17695000,0.0324,0.013523,0.002678,0.000431,0.000588
17696000,0.0324,0.013523,0.002678,0.000431,0.000353
17697000,0.0324,0.013523,0.002678,0.000431,0.000588
17698000,0.0324,0.013523,0.002678,0.000431,0.000353
17699000,0.0324,0.013523,0.002678,0.000431,0.000588
17700000,0.0324,0.013523,0.002678,0.000431,0.000353
17701000,0.0324,0.013523,0.002678,0.000431,0.000470
17702000,0.0324,0.013523,0.002678,0.000431,0.000470
17703000,0.0324,0.013523,0.002678,0.000431,0.000588
17704000,0.0324,0.013523,0.002678,0.000431,0.000470
17705000,0.0324,0.013523,0.002678,0.000431,0.000588
17706000,0.0324,0.013523,0.002678,0.000431,0.000353
17707000,0.0324,0.013523,0.002678,0.000431,0.000588
17708000,0.0324,0.013523,0.002678,0.000431,0.000470
17709000,0.0324,0.013523,0.002678,0.000431,0.000470
17710000,0.0324,0.013523,0.002678,0.000431,0.000353
17711000,0.0324,0.013523,0.002678,0.000431,0.000588
17712000,0.0324,0.013523,0.002678,0.000431,0.000470
17713000,0.0324,0.013523,0.002678,0.000431,0.000470
17714000,0.0324,0.013523,0.002678,0.000431,0.000470
17715000,0.0324,0.013523,0.002678,0.000431,0.000470
17716000,0.0324,0.013523,0.002678,0.000431,0.000470
17717000,0.0324,0.013523,0.002678,0.000431,0.000470
17718000,0.0324,0.013523,0.002678,0.000431,0.000470
17719000,0.0324,0.013523,0.002678,0.000431,0.000588
17720000,0.0324,0.013523,0.002678,0.000431,0.000470
17721000,0.0324,0.013523,0.002678,0.000431,0.000705
17722000,0.0324,0.013523,0.002678,0.000431,0.000353
17723000,0.0324,0.013523,0.002678,0.000431,0.000588
17724000,0.0324,0.013523,0.002678,0.000431,0.000470
17725000,0.0324,0.013523,0.002678,0.000431,0.000588
17726000,0.0324,0.013523,0.002678,0.000431,0.000470
17727000,0.0324,0.013523,0.002678,0.000431,0.000588
17728000,0.0324,0.013523,0.002678,0.000431,0.000353
17729000,0.0324,0.013523,0.002678,0.000431,0.000470
17730000,0.0324,0.013523,0.002678,0.000431,0.000470
17731000,0.0324,0.013523,0.002678,0.000431,0.000588
17732000,0.0324,0.013523,0.002678,0.000431,0.000353
17733000,0.0324,0.013523,0.002678,0.000431,0.000705
17734000,0.0324,0.013523,0.002678,0.000431,0.000588
17735000,0.0324,0.013523,0.002678,0.000431,0.000470
17736000,0.0324,0.013523,0.002678,0.000431,0.000705
17737000,0.0324,0.013523,0.002678,0.000431,0.000353
17738000,0.0324,0.013523,0.002678,0.000431,0.000705
17739000,0.0324,0.013523,0.002678,0.000431,0.000470
17740000,0.0324,0.013523,0.002678,0.000431,0.000470
17741000,0.0324,0.013523,0.002678,0.000431,0.000470
17742000,0.0324,0.013523,0.002678,0.000431,0.000470
17743000,0.0324,0.013523,0.002678,0.000431,0.000470
17744000,0.0324,0.013523,0.002678,0.000431,0.000470
17745000,0.0324,0.013523,0.002678,0.000431,0.000353
17746000,0.0324,0.013523,0.002678,0.000431,0.000588
17747000,0.0324,0.013523,0.002678,0.000431,0.000353
17748000,0.0324,0.013523,0.002678,0.000431,0.000588
17749000,0.0324,0.013523,0.002678,0.000431,0.000353
17750000,0.0324,0.013523,0.002678,0.000431,0.000588
17751000,0.0324,0.013523,0.002678,0.000431,0.000353
17752000,0.0324,0.013523,0.002678,0.000431,0.000588
17753000,0.0324,0.013523,0.002678,0.000431,0.000353
17754000,0.0324,0.013523,0.002678,0.000431,0.000588
17755000,0.0324,0.013523,0.002678,0.000431,0.000353
17756000,0.0324,0.013523,0.002678,0.000431,0.000588
17757000,0.0324,0.013523,0.002678,0.000431,0.000353
17758000,0.0324,0.013523,0.002678,0.000431,0.000588
17759000,0.0324,0.013523,0.002678,0.000431,0.000353
17760000,0.0324,0.013523,0.002678,0.000431,0.000588
17761000,0.0324,0.013523,0.002678,0.000431,0.000353
17762000,0.0324,0.013523,0.002678,0.000431,0.000705
17763000,0.0324,0.013523,0.002678,0.000431,0.000353
17764000,0.0324,0.013523,0.002678,0.000431,0.000705
17765000,0.0324,0.013523,0.002678,0.000431,0.000588
17766000,0.0324,0.013523,0.002678,0.000431,0.000353
17767000,0.0324,0.013523,0.002678,0.000431,0.000588
17768000,0.0324,0.013523,0.002678,0.000431,0.000470
17769000,0.0324,0.013523,0.002678,0.000431,0.000588
17770000,0.0324,0.013523,0.002678,0.000431,0.000353
17771000,0.0324,0.013523,0.002678,0.000431,0.000588
17772000,0.0324,0.013523,0.002678,0.000431,0.000353
17773000,0.0324,0.013523,0.002678,0.000431,0.000588
17774000,0.0324,0.013523,0.002678,0.000431,0.000353
17775000,0.0324,0.013523,0.002678,0.000431,0.000588
17776000,0.0324,0.013523,0.002678,0.000431,0.000470
17777000,0.0324,0.013523,0.002678,0.000431,0.000470
17778000,0.0324,0.013523,0.002678,0.000431,0.000470
17779000,0.0324,0.013523,0.002678,0.000431,0.000470
17780000,0.0324,0.013523,0.002678,0.000431,0.000470
17781000,0.0324,0.013523,0.002678,0.000431,0.000470
17782000,0.0324,0.013523,0.002678,0.000431,0.000470
17783000,0.0324,0.013523,0.002678,0.000431,0.000588
17784000,0.0324,0.013523,0.002678,0.000431,0.000470
17785000,0.0324,0.013523,0.002678,0.000431,0.000705
17786000,0.0324,0.013523,0.002678,0.000431,0.000353
17787000,0.0324,0.013523,0.002678,0.000431,0.000588
17788000,0.0324,0.013523,0.002678,0.000431,0.000353
17789000,0.0324,0.013523,0.002678,0.000431,0.000588
17790000,0.0324,0.013523,0.002678,0.000431,0.000353
17791000,0.0324,0.013523,0.002678,0.000431,0.000588
17792000,0.0324,0.013523,0.002678,0.000431,0.000353
17793000,0.0324,0.013523,0.002678,0.000431,0.000470
17794000,0.0324,0.013523,0.002678,0.000431,0.000470
17795000,0.0324,0.013523,0.002678,0.000431,0.000470
17796000,0.0324,0.013523,0.002678,0.000431,0.000470
17797000,0.0324,0.013523,0.002678,0.000431,0.000588
17798000,0.0324,0.013523,0.002678,0.000431,0.000470
17799000,0.0324,0.013523,0.002678,0.000431,0.000588
17800000,0.0324,0.013523,0.002678,0.000431,0.000353
17801000,0.0324,0.013523,0.002678,0.000431,0.000588
17802000,0.0324,0.013523,0.002678,0.000431,0.000353
17803000,0.0324,0.013523,0.002678,0.000431,0.000588
17804000,0.0324,0.013523,0.002678,0.000431,0.000353
17805000,0.0324,0.013523,0.002678,0.000431,0.000588
17806000,0.0324,0.013523,0.002678,0.000431,0.000353
17807000,0.0324,0.013523,0.002678,0.000431,0.000588
17808000,0.0324,0.013523,0.002678,0.000431,0.000353
17809000,0.0324,0.013523,0.002678,0.000431,0.000588
17810000,0.0324,0.013523,0.002678,0.000431,0.000353
17811000,0.0324,0.013523,0.002678,0.000431,0.000705
17812000,0.0324,0.013523,0.002678,0.000431,0.000470
17813000,0.0324,0.013523,0.002678,0.000431,0.000705
17814000,0.0324,0.013523,0.002678,0.000431,0.000353
17815000,0.0324,0.013523,0.002678,0.000431,0.000588
17816000,0.0324,0.013523,0.002678,0.000431,0.000353
17817000,0.0324,0.013523,0.002678,0.000431,0.000823
17818000,0.0324,0.013523,0.002678,0.000431,0.000353
17819000,0.0324,0.013523,0.002678,0.000431,0.000470
17820000,0.0324,0.013523,0.002678,0.000431,0.000470
17821000,0.0324,0.013523,0.002678,0.000431,0.000588
17822000,0.0324,0.013523,0.002678,0.000431,0.000353
17823000,0.0324,0.013523,0.002678,0.000431,0.000588
17824000,0.0324,0.013523,0.002678,0.000431,0.000353
17825000,0.0324,0.013523,0.002678,0.000431,0.000705
17826000,0.0324,0.013523,0.002678,0.000431,0.000588
17827000,0.0324,0.013523,0.002678,0.000431,0.000470
17828000,0.0324,0.013523,0.002678,0.000431,0.000705
17829000,0.0324,0.013523,0.002678,0.000431,0.000353
17830000,0.0324,0.013523,0.002678,0.000431,0.000588
17831000,0.0324,0.013523,0.002678,0.000431,0.000353
17832000,0.0324,0.013523,0.002678,0.000431,0.000705
17833000,0.0324,0.013523,0.002678,0.000431,0.000470
17834000,0.0324,0.013523,0.002678,0.000431,0.000470
17835000,0.0324,0.013523,0.002678,0.000431,0.000353
17836000,0.0324,0.013523,0.002678,0.000431,0.000705
17837000,0.0324,0.013523,0.002678,0.000431,0.000353
17838000,0.0324,0.013523,0.002678,0.000431,0.000705
17839000,0.0324,0.013523,0.002678,0.000431,0.000588
17840000,0.0324,0.013523,0.002678,0.000431,0.000470
17841000,0.0324,0.013523,0.002678,0.000431,0.000705
17842000,0.0324,0.013523,0.002678,0.000431,0.000353
17843000,0.0324,0.013523,0.002678,0.000431,0.000588
17844000,0.0324,0.013523,0.002678,0.000431,0.000353
17845000,0.0324,0.013523,0.002678,0.000431,0.000588
17846000,0.0324,0.013523,0.002678,0.000431,0.000353
17847000,0.0324,0.013523,0.002678,0.000431,0.000588
17848000,0.0324,0.013523,0.002678,0.000431,0.000353
17849000,0.0324,0.013523,0.002678,0.000431,0.000588
17850000,0.0324,0.013523,0.002678,0.000431,0.000353
17851000,0.0324,0.013523,0.002678,0.000431,0.000588
17852000,0.0324,0.013523,0.002678,0.000431,0.000353
17853000,0.0324,0.013523,0.002678,0.000431,0.000588
17854000,0.0324,0.013523,0.002678,0.000431,0.000353
17855000,0.0324,0.013523,0.002678,0.000431,0.000823
17856000,0.0324,0.013523,0.002678,0.000431,0.000235
17857000,0.0324,0.013523,0.002678,0.000431,0.000705
17858000,0.0324,0.013523,0.002678,0.000431,0.000353
17859000,0.0324,0.013523,0.002678,0.000431,0.000588
17860000,0.0324,0.013523,0.002678,0.000431,0.000353
17861000,0.0324,0.013523,0.002678,0.000431,0.000588
17862000,0.0324,0.013523,0.002678,0.000431,0.000353
17863000,0.0324,0.013523,0.002678,0.000431,0.000588
17864000,0.0324,0.013523,0.002678,0.000431,0.000353
17865000,0.0324,0.013523,0.002678,0.000431,0.000588
17866000,0.0324,0.013523,0.002678,0.000431,0.000353
17867000,0.0324,0.013523,0.002678,0.000431,0.000705
17868000,0.0324,0.013523,0.002678,0.000431,0.000353
17869000,0.0324,0.013523,0.002678,0.000431,0.000705
17870000,0.0324,0.013523,0.002678,0.000431,0.000353
17871000,0.0324,0.013523,0.002678,0.000431,0.000470
17872000,0.0324,0.013523,0.002678,0.000431,0.000470
17873000,0.0324,0.013523,0.002678,0.000431,0.000470
17874000,0.0324,0.013523,0.002678,0.000431,0.000470
17875000,0.0324,0.013523,0.002678,0.000431,0.000470
17876000,0.0324,0.013523,0.002678,0.000431,0.000470
17877000,0.0324,0.013523,0.002678,0.000431,0.000588
17878000,0.0324,0.013523,0.002678,0.000431,0.000470
17879000,0.0324,0.013523,0.002678,0.000431,0.000705
17880000,0.0324,0.013523,0.002678,0.000431,0.000353
17881000,0.0324,0.013523,0.002678,0.000431,0.000588
17882000,0.0324,0.013523,0.002678,0.000431,0.000353
17883000,0.0324,0.013523,0.002678,0.000431,0.000470
17884000,0.0324,0.013523,0.002678,0.000431,0.000470
17885000,0.0324,0.013523,0.002678,0.000431,0.000588
17886000,0.0324,0.013523,0.002678,0.000431,0.000353
17887000,0.0324,0.013523,0.002678,0.000431,0.000588
17888000,0.0324,0.013523,0.002678,0.000431,0.000353
17889000,0.0324,0.013523,0.002678,0.000431,0.000588
17890000,0.0324,0.013523,0.002678,0.000431,0.000353
17891000,0.0324,0.013523,0.002678,0.000431,0.000470
17892000,0.0324,0.013523,0.002678,0.000431,0.000470
17893000,0.0324,0.013523,0.002678,0.000431,0.000588
17894000,0.0324,0.013523,0.002678,0.000431,0.000353
17895000,0.0324,0.013523,0.002678,0.000431,0.000588
17896000,0.0324,0.013523,0.002678,0.000431,0.000353
17897000,0.0324,0.013523,0.002678,0.000431,0.000588
17898000,0.0324,0.013523,0.002678,0.000431,0.000353
17899000,0.0324,0.013523,0.002678,0.000431,0.000588
17900000,0.0324,0.013523,0.002678,0.000431,0.000353
17901000,0.0324,0.013523,0.002678,0.000431,0.000588
17902000,0.0324,0.013523,0.002678,0.000431,0.000353
17903000,0.0324,0.013523,0.002678,0.000431,0.000588
17904000,0.0324,0.013523,0.002678,0.000431,0.000353
17905000,0.0324,0.013523,0.002678,0.000431,0.000588
17906000,0.0324,0.013523,0.002678,0.000431,0.000353
17907000,0.0324,0.013523,0.002678,0.000431,0.000588
17908000,0.0324,0.013523,0.002678,0.000431,0.000353
17909000,0.0324,0.013523,0.002678,0.000431,0.000470
17910000,0.0324,0.013523,0.002678,0.000431,0.000470
17911000,0.0324,0.013523,0.002678,0.000431,0.000588
17912000,0.0324,0.013523,0.002678,0.000431,0.000588
17913000,0.0324,0.013523,0.002678,0.000431,0.000470
17914000,0.0324,0.013523,0.002678,0.000431,0.000470
17915000,0.0324,0.013523,0.002678,0.000431,0.000588
17916000,0.0324,0.013523,0.002678,0.000431,0.000470
17917000,0.0324,0.013523,0.002678,0.000431,0.000705
17918000,0.0324,0.013523,0.002678,0.000431,0.000353
17919000,0.0324,0.013523,0.002678,0.000431,0.000705
17920000,0.0324,0.013523,0.002678,0.000431,0.000588
17921000,0.0324,0.013523,0.002678,0.000431,0.000353
17922000,0.0324,0.013523,0.002678,0.000431,0.000588
17923000,0.0324,0.013523,0.002678,0.000431,0.000470
17924000,0.0324,0.013523,0.002678,0.000431,0.000705
17925000,0.0324,0.013523,0.002678,0.000431,0.000353
17926000,0.0324,0.013523,0.002678,0.000431,0.000588
17927000,0.0324,0.013523,0.002678,0.000431,0.000353
17928000,0.0324,0.013523,0.002678,0.000431,0.000588
17929000,0.0324,0.013523,0.002678,0.000431,0.000470
17930000,0.0324,0.013523,0.002678,0.000431,0.000705
17931000,0.0324,0.013523,0.002678,0.000431,0.000470
17932000,0.0324,0.013523,0.002678,0.000431,0.000705
17933000,0.0324,0.013523,0.002678,0.000431,0.000353
17934000,0.0324,0.013523,0.002678,0.000431,0.000705
17935000,0.0324,0.013523,0.002678,0.000431,0.000588
17936000,0.0324,0.013523,0.002678,0.000431,0.000470
17937000,0.0324,0.013523,0.002678,0.000431,0.000588
17938000,0.0324,0.013523,0.002678,0.000431,0.000353
17939000,0.0324,0.013523,0.002678,0.000431,0.000588
17940000,0.0324,0.013523,0.002678,0.000431,0.000353
17941000,0.0324,0.013523,0.002678,0.000431,0.000588
17942000,0.0324,0.013523,0.002678,0.000431,0.000353
17943000,0.0324,0.013523,0.002678,0.000431,0.000470
17944000,0.0324,0.013523,0.002678,0.000431,0.000470
17945000,0.0324,0.013523,0.002678,0.000431,0.000470
17946000,0.0324,0.013523,0.002678,0.000431,0.000470
17947000,0.0324,0.013523,0.002678,0.000431,0.000353
17948000,0.0324,0.013523,0.002678,0.000431,0.000588
17949000,0.0324,0.013523,0.002678,0.000431,0.000353
17950000,0.0324,0.013523,0.002678,0.000431,0.000588
17951000,0.0324,0.013523,0.002678,0.000431,0.000353
17952000,0.0324,0.013523,0.002678,0.000431,0.000588
17953000,0.0324,0.013523,0.002678,0.000431,0.000353
17954000,0.0324,0.013523,0.002678,0.000431,0.000588
17955000,0.0324,0.013523,0.002678,0.000431,0.000353
17956000,0.0324,0.013523,0.002678,0.000431,0.000588
17957000,0.0324,0.013523,0.002678,0.000431,0.000353
17958000,0.0324,0.013523,0.002678,0.000431,0.000588
17959000,0.0324,0.013523,0.002678,0.000431,0.000353
17960000,0.0324,0.013523,0.002678,0.000431,0.000705
17961000,0.0324,0.013523,0.002678,0.000431,0.000470
17962000,0.0324,0.013523,0.002678,0.000431,0.000470
17963000,0.0324,0.013523,0.002678,0.000431,0.000470
17964000,0.0324,0.013523,0.002678,0.000431,0.000470
17965000,0.0324,0.013523,0.002678,0.000431,0.000470
17966000,0.0324,0.013523,0.002678,0.000431,0.000470
17967000,0.0324,0.013523,0.002678,0.000431,0.000353
17968000,0.0324,0.013523,0.002678,0.000431,0.000705
17969000,0.0324,0.013523,0.002678,0.000431,0.000353
17970000,0.0324,0.013523,0.002678,0.000431,0.000705
17971000,0.0324,0.013523,0.002678,0.000431,0.000588
17972000,0.0324,0.013523,0.002678,0.000431,0.000470
17973000,0.0324,0.013523,0.002678,0.000431,0.000588
17974000,0.0324,0.013523,0.002678,0.000431,0.000353
17975000,0.0324,0.013523,0.002678,0.000431,0.000588
17976000,0.0324,0.013523,0.002678,0.000431,0.000353
17977000,0.0324,0.013523,0.002678,0.000431,0.000588
17978000,0.0324,0.013523,0.002678,0.000431,0.000470
17979000,0.0324,0.013523,0.002678,0.000431,0.000470
17980000,0.0324,0.013523,0.002678,0.000431,0.000470
17981000,0.0324,0.013523,0.002678,0.000431,0.000470
17982000,0.0324,0.013523,0.002678,0.000431,0.000470
17983000,0.0324,0.013523,0.002678,0.000431,0.000470
17984000,0.0324,0.013523,0.002678,0.000431,0.000470
17985000,0.0324,0.013523,0.002678,0.000431,0.000353
17986000,0.0324,0.013523,0.002678,0.000431,0.000588
17987000,0.0324,0.013523,0.002678,0.000431,0.000353
17988000,0.0324,0.013523,0.002678,0.000431,0.000588
17989000,0.0324,0.013523,0.002678,0.000431,0.000353
17990000,0.0324,0.013523,0.002678,0.000431,0.000588
17991000,0.0324,0.013523,0.002678,0.000431,0.000353
17992000,0.0324,0.013523,0.002678,0.000431,0.000470
17993000,0.0324,0.013523,0.002678,0.000431,0.000470
17994000,0.0324,0.013523,0.002678,0.000431,0.000705
17995000,0.0324,0.013523,0.002678,0.000431,0.000353
17996000,0.0324,0.013523,0.002678,0.000431,0.000588
17997000,0.0324,0.013523,0.002678,0.000431,0.000353
17998000,0.0324,0.013523,0.002678,0.000431,0.000588
17999000,0.0324,0.013523,0.002678,0.000431,0.000353
