Cycle,Area(mm^2),PeakDynamic(W),SubthresholdLeakage(W),GateLeakage(W),RunTimeDynamic(W)
38000000,0.0324,0.013523,0.002678,0.000431,0.000588
38001000,0.0324,0.013523,0.002678,0.000431,0.000353
38002000,0.0324,0.013523,0.002678,0.000431,0.000470
38003000,0.0324,0.013523,0.002678,0.000431,0.000353
38004000,0.0324,0.013523,0.002678,0.000431,0.000705
38005000,0.0324,0.013523,0.002678,0.000431,0.000353
38006000,0.0324,0.013523,0.002678,0.000431,0.000588
38007000,0.0324,0.013523,0.002678,0.000431,0.000235
38008000,0.0324,0.013523,0.002678,0.000431,0.000705
38009000,0.0324,0.013523,0.002678,0.000431,0.000353
38010000,0.0324,0.013523,0.002678,0.000431,0.000588
38011000,0.0324,0.013523,0.002678,0.000431,0.000353
38012000,0.0324,0.013523,0.002678,0.000431,0.000470
38013000,0.0324,0.013523,0.002678,0.000431,0.000470
38014000,0.0324,0.013523,0.002678,0.000431,0.000705
38015000,0.0324,0.013523,0.002678,0.000431,0.000235
38016000,0.0324,0.013523,0.002678,0.000431,0.000705
38017000,0.0324,0.013523,0.002678,0.000431,0.000470
38018000,0.0324,0.013523,0.002678,0.000431,0.000588
38019000,0.0324,0.013523,0.002678,0.000431,0.000353
38020000,0.0324,0.013523,0.002678,0.000431,0.000588
38021000,0.0324,0.013523,0.002678,0.000431,0.000353
38022000,0.0324,0.013523,0.002678,0.000431,0.000588
38023000,0.0324,0.013523,0.002678,0.000431,0.000353
38024000,0.0324,0.013523,0.002678,0.000431,0.000588
38025000,0.0324,0.013523,0.002678,0.000431,0.000353
38026000,0.0324,0.013523,0.002678,0.000431,0.000588
38027000,0.0324,0.013523,0.002678,0.000431,0.000353
38028000,0.0324,0.013523,0.002678,0.000431,0.000588
38029000,0.0324,0.013523,0.002678,0.000431,0.000353
38030000,0.0324,0.013523,0.002678,0.000431,0.000588
38031000,0.0324,0.013523,0.002678,0.000431,0.000470
38032000,0.0324,0.013523,0.002678,0.000431,0.000588
38033000,0.0324,0.013523,0.002678,0.000431,0.000470
38034000,0.0324,0.013523,0.002678,0.000431,0.000705
38035000,0.0324,0.013523,0.002678,0.000431,0.000235
38036000,0.0324,0.013523,0.002678,0.000431,0.000823
38037000,0.0324,0.013523,0.002678,0.000431,0.000235
38038000,0.0324,0.013523,0.002678,0.000431,0.000705
38039000,0.0324,0.013523,0.002678,0.000431,0.000588
38040000,0.0324,0.013523,0.002678,0.000431,0.000588
38041000,0.0324,0.013523,0.002678,0.000431,0.000470
38042000,0.0324,0.013523,0.002678,0.000431,0.000470
38043000,0.0324,0.013523,0.002678,0.000431,0.000470
38044000,0.0324,0.013523,0.002678,0.000431,0.000588
38045000,0.0324,0.013523,0.002678,0.000431,0.000353
38046000,0.0324,0.013523,0.002678,0.000431,0.000705
38047000,0.0324,0.013523,0.002678,0.000431,0.000470
38048000,0.0324,0.013523,0.002678,0.000431,0.000588
38049000,0.0324,0.013523,0.002678,0.000431,0.000353
38050000,0.0324,0.013523,0.002678,0.000431,0.000705
38051000,0.0324,0.013523,0.002678,0.000431,0.000588
38052000,0.0324,0.013523,0.002678,0.000431,0.000470
38053000,0.0324,0.013523,0.002678,0.000431,0.000470
38054000,0.0324,0.013523,0.002678,0.000431,0.000470
38055000,0.0324,0.013523,0.002678,0.000431,0.000470
38056000,0.0324,0.013523,0.002678,0.000431,0.000470
38057000,0.0324,0.013523,0.002678,0.000431,0.000353
38058000,0.0324,0.013523,0.002678,0.000431,0.000588
38059000,0.0324,0.013523,0.002678,0.000431,0.000353
38060000,0.0324,0.013523,0.002678,0.000431,0.000588
38061000,0.0324,0.013523,0.002678,0.000431,0.000353
38062000,0.0324,0.013523,0.002678,0.000431,0.000588
38063000,0.0324,0.013523,0.002678,0.000431,0.000353
38064000,0.0324,0.013523,0.002678,0.000431,0.000705
38065000,0.0324,0.013523,0.002678,0.000431,0.000588
38066000,0.0324,0.013523,0.002678,0.000431,0.000470
38067000,0.0324,0.013523,0.002678,0.000431,0.000705
38068000,0.0324,0.013523,0.002678,0.000431,0.000353
38069000,0.0324,0.013523,0.002678,0.000431,0.000588
38070000,0.0324,0.013523,0.002678,0.000431,0.000353
38071000,0.0324,0.013523,0.002678,0.000431,0.000588
38072000,0.0324,0.013523,0.002678,0.000431,0.000353
38073000,0.0324,0.013523,0.002678,0.000431,0.000588
38074000,0.0324,0.013523,0.002678,0.000431,0.000353
38075000,0.0324,0.013523,0.002678,0.000431,0.000588
38076000,0.0324,0.013523,0.002678,0.000431,0.000470
38077000,0.0324,0.013523,0.002678,0.000431,0.000705
38078000,0.0324,0.013523,0.002678,0.000431,0.000353
38079000,0.0324,0.013523,0.002678,0.000431,0.000588
38080000,0.0324,0.013523,0.002678,0.000431,0.000353
38081000,0.0324,0.013523,0.002678,0.000431,0.000588
38082000,0.0324,0.013523,0.002678,0.000431,0.000353
38083000,0.0324,0.013523,0.002678,0.000431,0.000588
38084000,0.0324,0.013523,0.002678,0.000431,0.000353
38085000,0.0324,0.013523,0.002678,0.000431,0.000588
38086000,0.0324,0.013523,0.002678,0.000431,0.000353
38087000,0.0324,0.013523,0.002678,0.000431,0.000588
38088000,0.0324,0.013523,0.002678,0.000431,0.000353
38089000,0.0324,0.013523,0.002678,0.000431,0.000705
38090000,0.0324,0.013523,0.002678,0.000431,0.000353
38091000,0.0324,0.013523,0.002678,0.000431,0.000588
38092000,0.0324,0.013523,0.002678,0.000431,0.000353
38093000,0.0324,0.013523,0.002678,0.000431,0.000705
38094000,0.0324,0.013523,0.002678,0.000431,0.000353
38095000,0.0324,0.013523,0.002678,0.000431,0.000588
38096000,0.0324,0.013523,0.002678,0.000431,0.000470
38097000,0.0324,0.013523,0.002678,0.000431,0.000588
38098000,0.0324,0.013523,0.002678,0.000431,0.000588
38099000,0.0324,0.013523,0.002678,0.000431,0.000470
38100000,0.0324,0.013523,0.002678,0.000431,0.000470
38101000,0.0324,0.013523,0.002678,0.000431,0.000470
38102000,0.0324,0.013523,0.002678,0.000431,0.000705
38103000,0.0324,0.013523,0.002678,0.000431,0.000353
38104000,0.0324,0.013523,0.002678,0.000431,0.000705
38105000,0.0324,0.013523,0.002678,0.000431,0.000470
38106000,0.0324,0.013523,0.002678,0.000431,0.000353
38107000,0.0324,0.013523,0.002678,0.000431,0.000588
38108000,0.0324,0.013523,0.002678,0.000431,0.000353
38109000,0.0324,0.013523,0.002678,0.000431,0.000588
38110000,0.0324,0.013523,0.002678,0.000431,0.000353
38111000,0.0324,0.013523,0.002678,0.000431,0.000588
38112000,0.0324,0.013523,0.002678,0.000431,0.000353
38113000,0.0324,0.013523,0.002678,0.000431,0.000470
38114000,0.0324,0.013523,0.002678,0.000431,0.000470
38115000,0.0324,0.013523,0.002678,0.000431,0.000470
38116000,0.0324,0.013523,0.002678,0.000431,0.000470
38117000,0.0324,0.013523,0.002678,0.000431,0.000470
38118000,0.0324,0.013523,0.002678,0.000431,0.000470
38119000,0.0324,0.013523,0.002678,0.000431,0.000353
38120000,0.0324,0.013523,0.002678,0.000431,0.000705
38121000,0.0324,0.013523,0.002678,0.000431,0.000588
38122000,0.0324,0.013523,0.002678,0.000431,0.000470
38123000,0.0324,0.013523,0.002678,0.000431,0.000705
38124000,0.0324,0.013523,0.002678,0.000431,0.000353
38125000,0.0324,0.013523,0.002678,0.000431,0.000588
38126000,0.0324,0.013523,0.002678,0.000431,0.000353
38127000,0.0324,0.013523,0.002678,0.000431,0.000588
38128000,0.0324,0.013523,0.002678,0.000431,0.000353
38129000,0.0324,0.013523,0.002678,0.000431,0.000588
38130000,0.0324,0.013523,0.002678,0.000431,0.000353
38131000,0.0324,0.013523,0.002678,0.000431,0.000588
38132000,0.0324,0.013523,0.002678,0.000431,0.000353
38133000,0.0324,0.013523,0.002678,0.000431,0.000588
38134000,0.0324,0.013523,0.002678,0.000431,0.000470
38135000,0.0324,0.013523,0.002678,0.000431,0.000588
38136000,0.0324,0.013523,0.002678,0.000431,0.000353
38137000,0.0324,0.013523,0.002678,0.000431,0.000588
38138000,0.0324,0.013523,0.002678,0.000431,0.000353
38139000,0.0324,0.013523,0.002678,0.000431,0.000470
38140000,0.0324,0.013523,0.002678,0.000431,0.000470
38141000,0.0324,0.013523,0.002678,0.000431,0.000470
38142000,0.0324,0.013523,0.002678,0.000431,0.000470
38143000,0.0324,0.013523,0.002678,0.000431,0.000470
38144000,0.0324,0.013523,0.002678,0.000431,0.000588
38145000,0.0324,0.013523,0.002678,0.000431,0.000588
38146000,0.0324,0.013523,0.002678,0.000431,0.000470
38147000,0.0324,0.013523,0.002678,0.000431,0.000588
38148000,0.0324,0.013523,0.002678,0.000431,0.000353
38149000,0.0324,0.013523,0.002678,0.000431,0.000588
38150000,0.0324,0.013523,0.002678,0.000431,0.000470
38151000,0.0324,0.013523,0.002678,0.000431,0.000588
38152000,0.0324,0.013523,0.002678,0.000431,0.000470
38153000,0.0324,0.013523,0.002678,0.000431,0.000588
38154000,0.0324,0.013523,0.002678,0.000431,0.000353
38155000,0.0324,0.013523,0.002678,0.000431,0.000588
38156000,0.0324,0.013523,0.002678,0.000431,0.000353
38157000,0.0324,0.013523,0.002678,0.000431,0.000588
38158000,0.0324,0.013523,0.002678,0.000431,0.000353
38159000,0.0324,0.013523,0.002678,0.000431,0.000588
38160000,0.0324,0.013523,0.002678,0.000431,0.000353
38161000,0.0324,0.013523,0.002678,0.000431,0.000588
38162000,0.0324,0.013523,0.002678,0.000431,0.000470
38163000,0.0324,0.013523,0.002678,0.000431,0.000470
38164000,0.0324,0.013523,0.002678,0.000431,0.000470
38165000,0.0324,0.013523,0.002678,0.000431,0.000470
38166000,0.0324,0.013523,0.002678,0.000431,0.000470
38167000,0.0324,0.013523,0.002678,0.000431,0.000470
38168000,0.0324,0.013523,0.002678,0.000431,0.000470
38169000,0.0324,0.013523,0.002678,0.000431,0.000470
38170000,0.0324,0.013523,0.002678,0.000431,0.000470
38171000,0.0324,0.013523,0.002678,0.000431,0.000353
38172000,0.0324,0.013523,0.002678,0.000431,0.000705
38173000,0.0324,0.013523,0.002678,0.000431,0.000353
38174000,0.0324,0.013523,0.002678,0.000431,0.000705
38175000,0.0324,0.013523,0.002678,0.000431,0.000470
38176000,0.0324,0.013523,0.002678,0.000431,0.000470
38177000,0.0324,0.013523,0.002678,0.000431,0.000470
38178000,0.0324,0.013523,0.002678,0.000431,0.000470
38179000,0.0324,0.013523,0.002678,0.000431,0.000470
38180000,0.0324,0.013523,0.002678,0.000431,0.000470
38181000,0.0324,0.013523,0.002678,0.000431,0.000588
38182000,0.0324,0.013523,0.002678,0.000431,0.000470
38183000,0.0324,0.013523,0.002678,0.000431,0.000588
38184000,0.0324,0.013523,0.002678,0.000431,0.000353
38185000,0.0324,0.013523,0.002678,0.000431,0.000588
38186000,0.0324,0.013523,0.002678,0.000431,0.000353
38187000,0.0324,0.013523,0.002678,0.000431,0.000588
38188000,0.0324,0.013523,0.002678,0.000431,0.000353
38189000,0.0324,0.013523,0.002678,0.000431,0.000588
38190000,0.0324,0.013523,0.002678,0.000431,0.000353
38191000,0.0324,0.013523,0.002678,0.000431,0.000470
38192000,0.0324,0.013523,0.002678,0.000431,0.000470
38193000,0.0324,0.013523,0.002678,0.000431,0.000470
38194000,0.0324,0.013523,0.002678,0.000431,0.000470
38195000,0.0324,0.013523,0.002678,0.000431,0.000470
38196000,0.0324,0.013523,0.002678,0.000431,0.000470
38197000,0.0324,0.013523,0.002678,0.000431,0.000353
38198000,0.0324,0.013523,0.002678,0.000431,0.000588
38199000,0.0324,0.013523,0.002678,0.000431,0.000353
38200000,0.0324,0.013523,0.002678,0.000431,0.000705
38201000,0.0324,0.013523,0.002678,0.000431,0.000588
38202000,0.0324,0.013523,0.002678,0.000431,0.000470
38203000,0.0324,0.013523,0.002678,0.000431,0.000588
38204000,0.0324,0.013523,0.002678,0.000431,0.000353
38205000,0.0324,0.013523,0.002678,0.000431,0.000588
38206000,0.0324,0.013523,0.002678,0.000431,0.000470
38207000,0.0324,0.013523,0.002678,0.000431,0.000470
38208000,0.0324,0.013523,0.002678,0.000431,0.000470
38209000,0.0324,0.013523,0.002678,0.000431,0.000470
38210000,0.0324,0.013523,0.002678,0.000431,0.000588
38211000,0.0324,0.013523,0.002678,0.000431,0.000353
38212000,0.0324,0.013523,0.002678,0.000431,0.000705
38213000,0.0324,0.013523,0.002678,0.000431,0.000588
38214000,0.0324,0.013523,0.002678,0.000431,0.000470
38215000,0.0324,0.013523,0.002678,0.000431,0.000588
38216000,0.0324,0.013523,0.002678,0.000431,0.000353
38217000,0.0324,0.013523,0.002678,0.000431,0.000470
38218000,0.0324,0.013523,0.002678,0.000431,0.000470
38219000,0.0324,0.013523,0.002678,0.000431,0.000470
38220000,0.0324,0.013523,0.002678,0.000431,0.000470
38221000,0.0324,0.013523,0.002678,0.000431,0.000470
38222000,0.0324,0.013523,0.002678,0.000431,0.000470
38223000,0.0324,0.013523,0.002678,0.000431,0.000353
38224000,0.0324,0.013523,0.002678,0.000431,0.000705
38225000,0.0324,0.013523,0.002678,0.000431,0.000588
38226000,0.0324,0.013523,0.002678,0.000431,0.000470
38227000,0.0324,0.013523,0.002678,0.000431,0.000588
38228000,0.0324,0.013523,0.002678,0.000431,0.000353
38229000,0.0324,0.013523,0.002678,0.000431,0.000588
38230000,0.0324,0.013523,0.002678,0.000431,0.000470
38231000,0.0324,0.013523,0.002678,0.000431,0.000470
38232000,0.0324,0.013523,0.002678,0.000431,0.000470
38233000,0.0324,0.013523,0.002678,0.000431,0.000470
38234000,0.0324,0.013523,0.002678,0.000431,0.000470
38235000,0.0324,0.013523,0.002678,0.000431,0.000470
38236000,0.0324,0.013523,0.002678,0.000431,0.000470
38237000,0.0324,0.013523,0.002678,0.000431,0.000588
38238000,0.0324,0.013523,0.002678,0.000431,0.000470
38239000,0.0324,0.013523,0.002678,0.000431,0.000705
38240000,0.0324,0.013523,0.002678,0.000431,0.000353
38241000,0.0324,0.013523,0.002678,0.000431,0.000588
38242000,0.0324,0.013523,0.002678,0.000431,0.000353
38243000,0.0324,0.013523,0.002678,0.000431,0.000588
38244000,0.0324,0.013523,0.002678,0.000431,0.000353
38245000,0.0324,0.013523,0.002678,0.000431,0.000705
38246000,0.0324,0.013523,0.002678,0.000431,0.000470
38247000,0.0324,0.013523,0.002678,0.000431,0.000470
38248000,0.0324,0.013523,0.002678,0.000431,0.000470
38249000,0.0324,0.013523,0.002678,0.000431,0.000470
38250000,0.0324,0.013523,0.002678,0.000431,0.000470
38251000,0.0324,0.013523,0.002678,0.000431,0.000470
38252000,0.0324,0.013523,0.002678,0.000431,0.000470
38253000,0.0324,0.013523,0.002678,0.000431,0.000470
38254000,0.0324,0.013523,0.002678,0.000431,0.000470
38255000,0.0324,0.013523,0.002678,0.000431,0.000588
38256000,0.0324,0.013523,0.002678,0.000431,0.000353
38257000,0.0324,0.013523,0.002678,0.000431,0.000588
38258000,0.0324,0.013523,0.002678,0.000431,0.000353
38259000,0.0324,0.013523,0.002678,0.000431,0.000588
38260000,0.0324,0.013523,0.002678,0.000431,0.000353
38261000,0.0324,0.013523,0.002678,0.000431,0.000705
38262000,0.0324,0.013523,0.002678,0.000431,0.000353
38263000,0.0324,0.013523,0.002678,0.000431,0.000588
38264000,0.0324,0.013523,0.002678,0.000431,0.000588
38265000,0.0324,0.013523,0.002678,0.000431,0.000470
38266000,0.0324,0.013523,0.002678,0.000431,0.000705
38267000,0.0324,0.013523,0.002678,0.000431,0.000353
38268000,0.0324,0.013523,0.002678,0.000431,0.000705
38269000,0.0324,0.013523,0.002678,0.000431,0.000588
38270000,0.0324,0.013523,0.002678,0.000431,0.000470
38271000,0.0324,0.013523,0.002678,0.000431,0.000588
38272000,0.0324,0.013523,0.002678,0.000431,0.000353
38273000,0.0324,0.013523,0.002678,0.000431,0.000588
38274000,0.0324,0.013523,0.002678,0.000431,0.000353
38275000,0.0324,0.013523,0.002678,0.000431,0.000588
38276000,0.0324,0.013523,0.002678,0.000431,0.000353
38277000,0.0324,0.013523,0.002678,0.000431,0.000588
38278000,0.0324,0.013523,0.002678,0.000431,0.000353
38279000,0.0324,0.013523,0.002678,0.000431,0.000588
38280000,0.0324,0.013523,0.002678,0.000431,0.000470
38281000,0.0324,0.013523,0.002678,0.000431,0.000353
38282000,0.0324,0.013523,0.002678,0.000431,0.000588
38283000,0.0324,0.013523,0.002678,0.000431,0.000588
38284000,0.0324,0.013523,0.002678,0.000431,0.000470
38285000,0.0324,0.013523,0.002678,0.000431,0.000705
38286000,0.0324,0.013523,0.002678,0.000431,0.000353
38287000,0.0324,0.013523,0.002678,0.000431,0.000705
38288000,0.0324,0.013523,0.002678,0.000431,0.000470
38289000,0.0324,0.013523,0.002678,0.000431,0.000470
38290000,0.0324,0.013523,0.002678,0.000431,0.000470
38291000,0.0324,0.013523,0.002678,0.000431,0.000470
38292000,0.0324,0.013523,0.002678,0.000431,0.000588
38293000,0.0324,0.013523,0.002678,0.000431,0.000470
38294000,0.0324,0.013523,0.002678,0.000431,0.000588
38295000,0.0324,0.013523,0.002678,0.000431,0.000353
38296000,0.0324,0.013523,0.002678,0.000431,0.000588
38297000,0.0324,0.013523,0.002678,0.000431,0.000353
38298000,0.0324,0.013523,0.002678,0.000431,0.000705
38299000,0.0324,0.013523,0.002678,0.000431,0.000470
38300000,0.0324,0.013523,0.002678,0.000431,0.000705
38301000,0.0324,0.013523,0.002678,0.000431,0.000235
38302000,0.0324,0.013523,0.002678,0.000431,0.000705
38303000,0.0324,0.013523,0.002678,0.000431,0.000353
38304000,0.0324,0.013523,0.002678,0.000431,0.000705
38305000,0.0324,0.013523,0.002678,0.000431,0.000588
38306000,0.0324,0.013523,0.002678,0.000431,0.000470
38307000,0.0324,0.013523,0.002678,0.000431,0.000588
38308000,0.0324,0.013523,0.002678,0.000431,0.000353
38309000,0.0324,0.013523,0.002678,0.000431,0.000588
38310000,0.0324,0.013523,0.002678,0.000431,0.000470
38311000,0.0324,0.013523,0.002678,0.000431,0.000588
38312000,0.0324,0.013523,0.002678,0.000431,0.000588
38313000,0.0324,0.013523,0.002678,0.000431,0.000470
38314000,0.0324,0.013523,0.002678,0.000431,0.000470
38315000,0.0324,0.013523,0.002678,0.000431,0.000470
38316000,0.0324,0.013523,0.002678,0.000431,0.000470
38317000,0.0324,0.013523,0.002678,0.000431,0.000470
38318000,0.0324,0.013523,0.002678,0.000431,0.000588
38319000,0.0324,0.013523,0.002678,0.000431,0.000353
38320000,0.0324,0.013523,0.002678,0.000431,0.000470
38321000,0.0324,0.013523,0.002678,0.000431,0.000470
38322000,0.0324,0.013523,0.002678,0.000431,0.000470
38323000,0.0324,0.013523,0.002678,0.000431,0.000470
38324000,0.0324,0.013523,0.002678,0.000431,0.000470
38325000,0.0324,0.013523,0.002678,0.000431,0.000353
38326000,0.0324,0.013523,0.002678,0.000431,0.000705
38327000,0.0324,0.013523,0.002678,0.000431,0.000353
38328000,0.0324,0.013523,0.002678,0.000431,0.000705
38329000,0.0324,0.013523,0.002678,0.000431,0.000588
38330000,0.0324,0.013523,0.002678,0.000431,0.000470
38331000,0.0324,0.013523,0.002678,0.000431,0.000588
38332000,0.0324,0.013523,0.002678,0.000431,0.000353
38333000,0.0324,0.013523,0.002678,0.000431,0.000705
38334000,0.0324,0.013523,0.002678,0.000431,0.000353
38335000,0.0324,0.013523,0.002678,0.000431,0.000588
38336000,0.0324,0.013523,0.002678,0.000431,0.000353
38337000,0.0324,0.013523,0.002678,0.000431,0.000588
38338000,0.0324,0.013523,0.002678,0.000431,0.000353
38339000,0.0324,0.013523,0.002678,0.000431,0.000588
38340000,0.0324,0.013523,0.002678,0.000431,0.000353
38341000,0.0324,0.013523,0.002678,0.000431,0.000588
38342000,0.0324,0.013523,0.002678,0.000431,0.000353
38343000,0.0324,0.013523,0.002678,0.000431,0.000823
38344000,0.0324,0.013523,0.002678,0.000431,0.000235
38345000,0.0324,0.013523,0.002678,0.000431,0.000705
38346000,0.0324,0.013523,0.002678,0.000431,0.000353
38347000,0.0324,0.013523,0.002678,0.000431,0.000705
38348000,0.0324,0.013523,0.002678,0.000431,0.000470
38349000,0.0324,0.013523,0.002678,0.000431,0.000588
38350000,0.0324,0.013523,0.002678,0.000431,0.000353
38351000,0.0324,0.013523,0.002678,0.000431,0.000588
38352000,0.0324,0.013523,0.002678,0.000431,0.000353
38353000,0.0324,0.013523,0.002678,0.000431,0.000588
38354000,0.0324,0.013523,0.002678,0.000431,0.000353
38355000,0.0324,0.013523,0.002678,0.000431,0.000470
38356000,0.0324,0.013523,0.002678,0.000431,0.000470
38357000,0.0324,0.013523,0.002678,0.000431,0.000470
38358000,0.0324,0.013523,0.002678,0.000431,0.000470
38359000,0.0324,0.013523,0.002678,0.000431,0.000705
38360000,0.0324,0.013523,0.002678,0.000431,0.000588
38361000,0.0324,0.013523,0.002678,0.000431,0.000470
38362000,0.0324,0.013523,0.002678,0.000431,0.000705
38363000,0.0324,0.013523,0.002678,0.000431,0.000353
38364000,0.0324,0.013523,0.002678,0.000431,0.000588
38365000,0.0324,0.013523,0.002678,0.000431,0.000353
38366000,0.0324,0.013523,0.002678,0.000431,0.000470
38367000,0.0324,0.013523,0.002678,0.000431,0.000470
38368000,0.0324,0.013523,0.002678,0.000431,0.000470
38369000,0.0324,0.013523,0.002678,0.000431,0.000470
38370000,0.0324,0.013523,0.002678,0.000431,0.000470
38371000,0.0324,0.013523,0.002678,0.000431,0.000470
38372000,0.0324,0.013523,0.002678,0.000431,0.000470
38373000,0.0324,0.013523,0.002678,0.000431,0.000470
38374000,0.0324,0.013523,0.002678,0.000431,0.000470
38375000,0.0324,0.013523,0.002678,0.000431,0.000470
38376000,0.0324,0.013523,0.002678,0.000431,0.000470
38377000,0.0324,0.013523,0.002678,0.000431,0.000470
38378000,0.0324,0.013523,0.002678,0.000431,0.000470
38379000,0.0324,0.013523,0.002678,0.000431,0.000470
38380000,0.0324,0.013523,0.002678,0.000431,0.000588
38381000,0.0324,0.013523,0.002678,0.000431,0.000470
38382000,0.0324,0.013523,0.002678,0.000431,0.000588
38383000,0.0324,0.013523,0.002678,0.000431,0.000353
38384000,0.0324,0.013523,0.002678,0.000431,0.000588
38385000,0.0324,0.013523,0.002678,0.000431,0.000353
38386000,0.0324,0.013523,0.002678,0.000431,0.000588
38387000,0.0324,0.013523,0.002678,0.000431,0.000353
38388000,0.0324,0.013523,0.002678,0.000431,0.000705
38389000,0.0324,0.013523,0.002678,0.000431,0.000470
38390000,0.0324,0.013523,0.002678,0.000431,0.000705
38391000,0.0324,0.013523,0.002678,0.000431,0.000235
38392000,0.0324,0.013523,0.002678,0.000431,0.000705
38393000,0.0324,0.013523,0.002678,0.000431,0.000353
38394000,0.0324,0.013523,0.002678,0.000431,0.000705
38395000,0.0324,0.013523,0.002678,0.000431,0.000588
38396000,0.0324,0.013523,0.002678,0.000431,0.000470
38397000,0.0324,0.013523,0.002678,0.000431,0.000588
38398000,0.0324,0.013523,0.002678,0.000431,0.000353
38399000,0.0324,0.013523,0.002678,0.000431,0.000588
38400000,0.0324,0.013523,0.002678,0.000431,0.000353
38401000,0.0324,0.013523,0.002678,0.000431,0.000588
38402000,0.0324,0.013523,0.002678,0.000431,0.000353
38403000,0.0324,0.013523,0.002678,0.000431,0.000588
38404000,0.0324,0.013523,0.002678,0.000431,0.000353
38405000,0.0324,0.013523,0.002678,0.000431,0.000588
38406000,0.0324,0.013523,0.002678,0.000431,0.000353
38407000,0.0324,0.013523,0.002678,0.000431,0.000588
38408000,0.0324,0.013523,0.002678,0.000431,0.000353
38409000,0.0324,0.013523,0.002678,0.000431,0.000588
38410000,0.0324,0.013523,0.002678,0.000431,0.000353
38411000,0.0324,0.013523,0.002678,0.000431,0.000470
38412000,0.0324,0.013523,0.002678,0.000431,0.000470
38413000,0.0324,0.013523,0.002678,0.000431,0.000470
38414000,0.0324,0.013523,0.002678,0.000431,0.000470
38415000,0.0324,0.013523,0.002678,0.000431,0.000353
38416000,0.0324,0.013523,0.002678,0.000431,0.000588
38417000,0.0324,0.013523,0.002678,0.000431,0.000353
38418000,0.0324,0.013523,0.002678,0.000431,0.000705
38419000,0.0324,0.013523,0.002678,0.000431,0.000588
38420000,0.0324,0.013523,0.002678,0.000431,0.000588
38421000,0.0324,0.013523,0.002678,0.000431,0.000470
38422000,0.0324,0.013523,0.002678,0.000431,0.000470
38423000,0.0324,0.013523,0.002678,0.000431,0.000470
38424000,0.0324,0.013523,0.002678,0.000431,0.000470
38425000,0.0324,0.013523,0.002678,0.000431,0.000588
38426000,0.0324,0.013523,0.002678,0.000431,0.000470
38427000,0.0324,0.013523,0.002678,0.000431,0.000705
38428000,0.0324,0.013523,0.002678,0.000431,0.000353
38429000,0.0324,0.013523,0.002678,0.000431,0.000705
38430000,0.0324,0.013523,0.002678,0.000431,0.000470
38431000,0.0324,0.013523,0.002678,0.000431,0.000588
38432000,0.0324,0.013523,0.002678,0.000431,0.000470
38433000,0.0324,0.013523,0.002678,0.000431,0.000588
38434000,0.0324,0.013523,0.002678,0.000431,0.000588
38435000,0.0324,0.013523,0.002678,0.000431,0.000588
38436000,0.0324,0.013523,0.002678,0.000431,0.000470
38437000,0.0324,0.013523,0.002678,0.000431,0.000470
38438000,0.0324,0.013523,0.002678,0.000431,0.000470
38439000,0.0324,0.013523,0.002678,0.000431,0.000470
38440000,0.0324,0.013523,0.002678,0.000431,0.000470
38441000,0.0324,0.013523,0.002678,0.000431,0.000470
38442000,0.0324,0.013523,0.002678,0.000431,0.000470
38443000,0.0324,0.013523,0.002678,0.000431,0.000470
38444000,0.0324,0.013523,0.002678,0.000431,0.000470
38445000,0.0324,0.013523,0.002678,0.000431,0.000470
38446000,0.0324,0.013523,0.002678,0.000431,0.000470
38447000,0.0324,0.013523,0.002678,0.000431,0.000470
38448000,0.0324,0.013523,0.002678,0.000431,0.000470
38449000,0.0324,0.013523,0.002678,0.000431,0.000470
38450000,0.0324,0.013523,0.002678,0.000431,0.000470
38451000,0.0324,0.013523,0.002678,0.000431,0.000470
38452000,0.0324,0.013523,0.002678,0.000431,0.000470
38453000,0.0324,0.013523,0.002678,0.000431,0.000470
38454000,0.0324,0.013523,0.002678,0.000431,0.000470
38455000,0.0324,0.013523,0.002678,0.000431,0.000588
38456000,0.0324,0.013523,0.002678,0.000431,0.000353
38457000,0.0324,0.013523,0.002678,0.000431,0.000588
38458000,0.0324,0.013523,0.002678,0.000431,0.000353
38459000,0.0324,0.013523,0.002678,0.000431,0.000588
38460000,0.0324,0.013523,0.002678,0.000431,0.000353
38461000,0.0324,0.013523,0.002678,0.000431,0.000588
38462000,0.0324,0.013523,0.002678,0.000431,0.000353
38463000,0.0324,0.013523,0.002678,0.000431,0.000470
38464000,0.0324,0.013523,0.002678,0.000431,0.000470
38465000,0.0324,0.013523,0.002678,0.000431,0.000470
38466000,0.0324,0.013523,0.002678,0.000431,0.000470
38467000,0.0324,0.013523,0.002678,0.000431,0.000470
38468000,0.0324,0.013523,0.002678,0.000431,0.000470
38469000,0.0324,0.013523,0.002678,0.000431,0.000470
38470000,0.0324,0.013523,0.002678,0.000431,0.000470
38471000,0.0324,0.013523,0.002678,0.000431,0.000588
38472000,0.0324,0.013523,0.002678,0.000431,0.000470
38473000,0.0324,0.013523,0.002678,0.000431,0.000705
38474000,0.0324,0.013523,0.002678,0.000431,0.000353
38475000,0.0324,0.013523,0.002678,0.000431,0.000705
38476000,0.0324,0.013523,0.002678,0.000431,0.000470
38477000,0.0324,0.013523,0.002678,0.000431,0.000588
38478000,0.0324,0.013523,0.002678,0.000431,0.000353
38479000,0.0324,0.013523,0.002678,0.000431,0.000588
38480000,0.0324,0.013523,0.002678,0.000431,0.000353
38481000,0.0324,0.013523,0.002678,0.000431,0.000705
38482000,0.0324,0.013523,0.002678,0.000431,0.000353
38483000,0.0324,0.013523,0.002678,0.000431,0.000588
38484000,0.0324,0.013523,0.002678,0.000431,0.000588
38485000,0.0324,0.013523,0.002678,0.000431,0.000470
38486000,0.0324,0.013523,0.002678,0.000431,0.000705
38487000,0.0324,0.013523,0.002678,0.000431,0.000353
38488000,0.0324,0.013523,0.002678,0.000431,0.000705
38489000,0.0324,0.013523,0.002678,0.000431,0.000470
38490000,0.0324,0.013523,0.002678,0.000431,0.000470
38491000,0.0324,0.013523,0.002678,0.000431,0.000470
38492000,0.0324,0.013523,0.002678,0.000431,0.000470
38493000,0.0324,0.013523,0.002678,0.000431,0.000470
38494000,0.0324,0.013523,0.002678,0.000431,0.000470
38495000,0.0324,0.013523,0.002678,0.000431,0.000588
38496000,0.0324,0.013523,0.002678,0.000431,0.000470
38497000,0.0324,0.013523,0.002678,0.000431,0.000705
38498000,0.0324,0.013523,0.002678,0.000431,0.000353
38499000,0.0324,0.013523,0.002678,0.000431,0.000588
38500000,0.0324,0.013523,0.002678,0.000431,0.000470
38501000,0.0324,0.013523,0.002678,0.000431,0.000588
38502000,0.0324,0.013523,0.002678,0.000431,0.000353
38503000,0.0324,0.013523,0.002678,0.000431,0.000588
38504000,0.0324,0.013523,0.002678,0.000431,0.000353
38505000,0.0324,0.013523,0.002678,0.000431,0.000588
38506000,0.0324,0.013523,0.002678,0.000431,0.000353
38507000,0.0324,0.013523,0.002678,0.000431,0.000588
38508000,0.0324,0.013523,0.002678,0.000431,0.000353
38509000,0.0324,0.013523,0.002678,0.000431,0.000470
38510000,0.0324,0.013523,0.002678,0.000431,0.000353
38511000,0.0324,0.013523,0.002678,0.000431,0.000705
38512000,0.0324,0.013523,0.002678,0.000431,0.000353
38513000,0.0324,0.013523,0.002678,0.000431,0.000588
38514000,0.0324,0.013523,0.002678,0.000431,0.000353
38515000,0.0324,0.013523,0.002678,0.000431,0.000588
38516000,0.0324,0.013523,0.002678,0.000431,0.000353
38517000,0.0324,0.013523,0.002678,0.000431,0.000705
38518000,0.0324,0.013523,0.002678,0.000431,0.000353
38519000,0.0324,0.013523,0.002678,0.000431,0.000588
38520000,0.0324,0.013523,0.002678,0.000431,0.000353
38521000,0.0324,0.013523,0.002678,0.000431,0.000588
38522000,0.0324,0.013523,0.002678,0.000431,0.000353
38523000,0.0324,0.013523,0.002678,0.000431,0.000588
38524000,0.0324,0.013523,0.002678,0.000431,0.000353
38525000,0.0324,0.013523,0.002678,0.000431,0.000588
38526000,0.0324,0.013523,0.002678,0.000431,0.000353
38527000,0.0324,0.013523,0.002678,0.000431,0.000470
38528000,0.0324,0.013523,0.002678,0.000431,0.000470
38529000,0.0324,0.013523,0.002678,0.000431,0.000588
38530000,0.0324,0.013523,0.002678,0.000431,0.000470
38531000,0.0324,0.013523,0.002678,0.000431,0.000353
38532000,0.0324,0.013523,0.002678,0.000431,0.000588
38533000,0.0324,0.013523,0.002678,0.000431,0.000353
38534000,0.0324,0.013523,0.002678,0.000431,0.000705
38535000,0.0324,0.013523,0.002678,0.000431,0.000588
38536000,0.0324,0.013523,0.002678,0.000431,0.000470
38537000,0.0324,0.013523,0.002678,0.000431,0.000705
38538000,0.0324,0.013523,0.002678,0.000431,0.000353
38539000,0.0324,0.013523,0.002678,0.000431,0.000705
38540000,0.0324,0.013523,0.002678,0.000431,0.000588
38541000,0.0324,0.013523,0.002678,0.000431,0.000470
38542000,0.0324,0.013523,0.002678,0.000431,0.000588
38543000,0.0324,0.013523,0.002678,0.000431,0.000353
38544000,0.0324,0.013523,0.002678,0.000431,0.000588
38545000,0.0324,0.013523,0.002678,0.000431,0.000470
38546000,0.0324,0.013523,0.002678,0.000431,0.000353
38547000,0.0324,0.013523,0.002678,0.000431,0.000588
38548000,0.0324,0.013523,0.002678,0.000431,0.000588
38549000,0.0324,0.013523,0.002678,0.000431,0.000470
38550000,0.0324,0.013523,0.002678,0.000431,0.000705
38551000,0.0324,0.013523,0.002678,0.000431,0.000470
38552000,0.0324,0.013523,0.002678,0.000431,0.000588
38553000,0.0324,0.013523,0.002678,0.000431,0.000353
38554000,0.0324,0.013523,0.002678,0.000431,0.000588
38555000,0.0324,0.013523,0.002678,0.000431,0.000235
38556000,0.0324,0.013523,0.002678,0.000431,0.000705
38557000,0.0324,0.013523,0.002678,0.000431,0.000353
38558000,0.0324,0.013523,0.002678,0.000431,0.000588
38559000,0.0324,0.013523,0.002678,0.000431,0.000353
38560000,0.0324,0.013523,0.002678,0.000431,0.000588
38561000,0.0324,0.013523,0.002678,0.000431,0.000353
38562000,0.0324,0.013523,0.002678,0.000431,0.000588
38563000,0.0324,0.013523,0.002678,0.000431,0.000353
38564000,0.0324,0.013523,0.002678,0.000431,0.000588
38565000,0.0324,0.013523,0.002678,0.000431,0.000353
38566000,0.0324,0.013523,0.002678,0.000431,0.000588
38567000,0.0324,0.013523,0.002678,0.000431,0.000353
38568000,0.0324,0.013523,0.002678,0.000431,0.000588
38569000,0.0324,0.013523,0.002678,0.000431,0.000470
38570000,0.0324,0.013523,0.002678,0.000431,0.000588
38571000,0.0324,0.013523,0.002678,0.000431,0.000470
38572000,0.0324,0.013523,0.002678,0.000431,0.000470
38573000,0.0324,0.013523,0.002678,0.000431,0.000470
38574000,0.0324,0.013523,0.002678,0.000431,0.000470
38575000,0.0324,0.013523,0.002678,0.000431,0.000470
38576000,0.0324,0.013523,0.002678,0.000431,0.000470
38577000,0.0324,0.013523,0.002678,0.000431,0.000470
38578000,0.0324,0.013523,0.002678,0.000431,0.000353
38579000,0.0324,0.013523,0.002678,0.000431,0.000588
38580000,0.0324,0.013523,0.002678,0.000431,0.000353
38581000,0.0324,0.013523,0.002678,0.000431,0.000588
38582000,0.0324,0.013523,0.002678,0.000431,0.000353
38583000,0.0324,0.013523,0.002678,0.000431,0.000588
38584000,0.0324,0.013523,0.002678,0.000431,0.000353
38585000,0.0324,0.013523,0.002678,0.000431,0.000588
38586000,0.0324,0.013523,0.002678,0.000431,0.000353
38587000,0.0324,0.013523,0.002678,0.000431,0.000470
38588000,0.0324,0.013523,0.002678,0.000431,0.000470
38589000,0.0324,0.013523,0.002678,0.000431,0.000470
38590000,0.0324,0.013523,0.002678,0.000431,0.000470
38591000,0.0324,0.013523,0.002678,0.000431,0.000470
38592000,0.0324,0.013523,0.002678,0.000431,0.000470
38593000,0.0324,0.013523,0.002678,0.000431,0.000588
38594000,0.0324,0.013523,0.002678,0.000431,0.000353
38595000,0.0324,0.013523,0.002678,0.000431,0.000588
38596000,0.0324,0.013523,0.002678,0.000431,0.000353
38597000,0.0324,0.013523,0.002678,0.000431,0.000470
38598000,0.0324,0.013523,0.002678,0.000431,0.000470
38599000,0.0324,0.013523,0.002678,0.000431,0.000470
38600000,0.0324,0.013523,0.002678,0.000431,0.000470
38601000,0.0324,0.013523,0.002678,0.000431,0.000470
38602000,0.0324,0.013523,0.002678,0.000431,0.000353
38603000,0.0324,0.013523,0.002678,0.000431,0.000823
38604000,0.0324,0.013523,0.002678,0.000431,0.000353
38605000,0.0324,0.013523,0.002678,0.000431,0.000470
38606000,0.0324,0.013523,0.002678,0.000431,0.000353
38607000,0.0324,0.013523,0.002678,0.000431,0.000705
38608000,0.0324,0.013523,0.002678,0.000431,0.000353
38609000,0.0324,0.013523,0.002678,0.000431,0.000470
38610000,0.0324,0.013523,0.002678,0.000431,0.000353
38611000,0.0324,0.013523,0.002678,0.000431,0.000588
38612000,0.0324,0.013523,0.002678,0.000431,0.000470
38613000,0.0324,0.013523,0.002678,0.000431,0.000470
38614000,0.0324,0.013523,0.002678,0.000431,0.000353
38615000,0.0324,0.013523,0.002678,0.000431,0.000588
38616000,0.0324,0.013523,0.002678,0.000431,0.000353
38617000,0.0324,0.013523,0.002678,0.000431,0.000588
38618000,0.0324,0.013523,0.002678,0.000431,0.000353
38619000,0.0324,0.013523,0.002678,0.000431,0.000705
38620000,0.0324,0.013523,0.002678,0.000431,0.000353
38621000,0.0324,0.013523,0.002678,0.000431,0.000588
38622000,0.0324,0.013523,0.002678,0.000431,0.000235
38623000,0.0324,0.013523,0.002678,0.000431,0.000588
38624000,0.0324,0.013523,0.002678,0.000431,0.000353
38625000,0.0324,0.013523,0.002678,0.000431,0.000588
38626000,0.0324,0.013523,0.002678,0.000431,0.000353
38627000,0.0324,0.013523,0.002678,0.000431,0.000588
38628000,0.0324,0.013523,0.002678,0.000431,0.000353
38629000,0.0324,0.013523,0.002678,0.000431,0.000588
38630000,0.0324,0.013523,0.002678,0.000431,0.000353
38631000,0.0324,0.013523,0.002678,0.000431,0.000470
38632000,0.0324,0.013523,0.002678,0.000431,0.000353
38633000,0.0324,0.013523,0.002678,0.000431,0.000588
38634000,0.0324,0.013523,0.002678,0.000431,0.000353
38635000,0.0324,0.013523,0.002678,0.000431,0.000588
38636000,0.0324,0.013523,0.002678,0.000431,0.000353
38637000,0.0324,0.013523,0.002678,0.000431,0.000588
38638000,0.0324,0.013523,0.002678,0.000431,0.000353
38639000,0.0324,0.013523,0.002678,0.000431,0.000588
38640000,0.0324,0.013523,0.002678,0.000431,0.000353
38641000,0.0324,0.013523,0.002678,0.000431,0.000588
38642000,0.0324,0.013523,0.002678,0.000431,0.000353
38643000,0.0324,0.013523,0.002678,0.000431,0.000588
38644000,0.0324,0.013523,0.002678,0.000431,0.000353
38645000,0.0324,0.013523,0.002678,0.000431,0.000588
38646000,0.0324,0.013523,0.002678,0.000431,0.000353
38647000,0.0324,0.013523,0.002678,0.000431,0.000588
38648000,0.0324,0.013523,0.002678,0.000431,0.000353
38649000,0.0324,0.013523,0.002678,0.000431,0.000588
38650000,0.0324,0.013523,0.002678,0.000431,0.000353
38651000,0.0324,0.013523,0.002678,0.000431,0.000588
38652000,0.0324,0.013523,0.002678,0.000431,0.000353
38653000,0.0324,0.013523,0.002678,0.000431,0.000588
38654000,0.0324,0.013523,0.002678,0.000431,0.000353
38655000,0.0324,0.013523,0.002678,0.000431,0.000588
38656000,0.0324,0.013523,0.002678,0.000431,0.000353
38657000,0.0324,0.013523,0.002678,0.000431,0.000470
38658000,0.0324,0.013523,0.002678,0.000431,0.000470
38659000,0.0324,0.013523,0.002678,0.000431,0.000470
38660000,0.0324,0.013523,0.002678,0.000431,0.000470
38661000,0.0324,0.013523,0.002678,0.000431,0.000353
38662000,0.0324,0.013523,0.002678,0.000431,0.000588
38663000,0.0324,0.013523,0.002678,0.000431,0.000353
38664000,0.0324,0.013523,0.002678,0.000431,0.000588
38665000,0.0324,0.013523,0.002678,0.000431,0.000353
38666000,0.0324,0.013523,0.002678,0.000431,0.000588
38667000,0.0324,0.013523,0.002678,0.000431,0.000353
38668000,0.0324,0.013523,0.002678,0.000431,0.000588
38669000,0.0324,0.013523,0.002678,0.000431,0.000353
38670000,0.0324,0.013523,0.002678,0.000431,0.000705
38671000,0.0324,0.013523,0.002678,0.000431,0.000470
38672000,0.0324,0.013523,0.002678,0.000431,0.000470
38673000,0.0324,0.013523,0.002678,0.000431,0.000470
38674000,0.0324,0.013523,0.002678,0.000431,0.000470
38675000,0.0324,0.013523,0.002678,0.000431,0.000470
38676000,0.0324,0.013523,0.002678,0.000431,0.000470
38677000,0.0324,0.013523,0.002678,0.000431,0.000470
38678000,0.0324,0.013523,0.002678,0.000431,0.000588
38679000,0.0324,0.013523,0.002678,0.000431,0.000353
38680000,0.0324,0.013523,0.002678,0.000431,0.000588
38681000,0.0324,0.013523,0.002678,0.000431,0.000353
38682000,0.0324,0.013523,0.002678,0.000431,0.000588
38683000,0.0324,0.013523,0.002678,0.000431,0.000353
38684000,0.0324,0.013523,0.002678,0.000431,0.000588
38685000,0.0324,0.013523,0.002678,0.000431,0.000353
38686000,0.0324,0.013523,0.002678,0.000431,0.000823
38687000,0.0324,0.013523,0.002678,0.000431,0.000353
38688000,0.0324,0.013523,0.002678,0.000431,0.000588
38689000,0.0324,0.013523,0.002678,0.000431,0.000353
38690000,0.0324,0.013523,0.002678,0.000431,0.000470
38691000,0.0324,0.013523,0.002678,0.000431,0.000470
38692000,0.0324,0.013523,0.002678,0.000431,0.000470
38693000,0.0324,0.013523,0.002678,0.000431,0.000470
38694000,0.0324,0.013523,0.002678,0.000431,0.000470
38695000,0.0324,0.013523,0.002678,0.000431,0.000470
38696000,0.0324,0.013523,0.002678,0.000431,0.000470
38697000,0.0324,0.013523,0.002678,0.000431,0.000470
38698000,0.0324,0.013523,0.002678,0.000431,0.000470
38699000,0.0324,0.013523,0.002678,0.000431,0.000470
38700000,0.0324,0.013523,0.002678,0.000431,0.000470
38701000,0.0324,0.013523,0.002678,0.000431,0.000470
38702000,0.0324,0.013523,0.002678,0.000431,0.000470
38703000,0.0324,0.013523,0.002678,0.000431,0.000470
38704000,0.0324,0.013523,0.002678,0.000431,0.000470
38705000,0.0324,0.013523,0.002678,0.000431,0.000470
38706000,0.0324,0.013523,0.002678,0.000431,0.000470
38707000,0.0324,0.013523,0.002678,0.000431,0.000470
38708000,0.0324,0.013523,0.002678,0.000431,0.000470
38709000,0.0324,0.013523,0.002678,0.000431,0.000470
38710000,0.0324,0.013523,0.002678,0.000431,0.000470
38711000,0.0324,0.013523,0.002678,0.000431,0.000470
38712000,0.0324,0.013523,0.002678,0.000431,0.000470
38713000,0.0324,0.013523,0.002678,0.000431,0.000588
38714000,0.0324,0.013523,0.002678,0.000431,0.000353
38715000,0.0324,0.013523,0.002678,0.000431,0.000470
38716000,0.0324,0.013523,0.002678,0.000431,0.000470
38717000,0.0324,0.013523,0.002678,0.000431,0.000470
38718000,0.0324,0.013523,0.002678,0.000431,0.000470
38719000,0.0324,0.013523,0.002678,0.000431,0.000470
38720000,0.0324,0.013523,0.002678,0.000431,0.000353
38721000,0.0324,0.013523,0.002678,0.000431,0.000588
38722000,0.0324,0.013523,0.002678,0.000431,0.000353
38723000,0.0324,0.013523,0.002678,0.000431,0.000588
38724000,0.0324,0.013523,0.002678,0.000431,0.000353
38725000,0.0324,0.013523,0.002678,0.000431,0.000588
38726000,0.0324,0.013523,0.002678,0.000431,0.000353
38727000,0.0324,0.013523,0.002678,0.000431,0.000588
38728000,0.0324,0.013523,0.002678,0.000431,0.000353
38729000,0.0324,0.013523,0.002678,0.000431,0.000588
38730000,0.0324,0.013523,0.002678,0.000431,0.000353
38731000,0.0324,0.013523,0.002678,0.000431,0.000588
38732000,0.0324,0.013523,0.002678,0.000431,0.000353
38733000,0.0324,0.013523,0.002678,0.000431,0.000588
38734000,0.0324,0.013523,0.002678,0.000431,0.000353
38735000,0.0324,0.013523,0.002678,0.000431,0.000588
38736000,0.0324,0.013523,0.002678,0.000431,0.000353
38737000,0.0324,0.013523,0.002678,0.000431,0.000588
38738000,0.0324,0.013523,0.002678,0.000431,0.000353
38739000,0.0324,0.013523,0.002678,0.000431,0.000588
38740000,0.0324,0.013523,0.002678,0.000431,0.000353
38741000,0.0324,0.013523,0.002678,0.000431,0.000588
38742000,0.0324,0.013523,0.002678,0.000431,0.000353
38743000,0.0324,0.013523,0.002678,0.000431,0.000588
38744000,0.0324,0.013523,0.002678,0.000431,0.000353
38745000,0.0324,0.013523,0.002678,0.000431,0.000588
38746000,0.0324,0.013523,0.002678,0.000431,0.000353
38747000,0.0324,0.013523,0.002678,0.000431,0.000470
38748000,0.0324,0.013523,0.002678,0.000431,0.000470
38749000,0.0324,0.013523,0.002678,0.000431,0.000470
38750000,0.0324,0.013523,0.002678,0.000431,0.000470
38751000,0.0324,0.013523,0.002678,0.000431,0.000588
38752000,0.0324,0.013523,0.002678,0.000431,0.000470
38753000,0.0324,0.013523,0.002678,0.000431,0.000353
38754000,0.0324,0.013523,0.002678,0.000431,0.000588
38755000,0.0324,0.013523,0.002678,0.000431,0.000353
38756000,0.0324,0.013523,0.002678,0.000431,0.000588
38757000,0.0324,0.013523,0.002678,0.000431,0.000353
38758000,0.0324,0.013523,0.002678,0.000431,0.000588
38759000,0.0324,0.013523,0.002678,0.000431,0.000353
38760000,0.0324,0.013523,0.002678,0.000431,0.000588
38761000,0.0324,0.013523,0.002678,0.000431,0.000353
38762000,0.0324,0.013523,0.002678,0.000431,0.000588
38763000,0.0324,0.013523,0.002678,0.000431,0.000353
38764000,0.0324,0.013523,0.002678,0.000431,0.000705
38765000,0.0324,0.013523,0.002678,0.000431,0.000353
38766000,0.0324,0.013523,0.002678,0.000431,0.000705
38767000,0.0324,0.013523,0.002678,0.000431,0.000588
38768000,0.0324,0.013523,0.002678,0.000431,0.000470
38769000,0.0324,0.013523,0.002678,0.000431,0.000705
38770000,0.0324,0.013523,0.002678,0.000431,0.000353
38771000,0.0324,0.013523,0.002678,0.000431,0.000588
38772000,0.0324,0.013523,0.002678,0.000431,0.000470
38773000,0.0324,0.013523,0.002678,0.000431,0.000588
38774000,0.0324,0.013523,0.002678,0.000431,0.000235
38775000,0.0324,0.013523,0.002678,0.000431,0.000588
38776000,0.0324,0.013523,0.002678,0.000431,0.000470
38777000,0.0324,0.013523,0.002678,0.000431,0.000588
38778000,0.0324,0.013523,0.002678,0.000431,0.000353
38779000,0.0324,0.013523,0.002678,0.000431,0.000588
38780000,0.0324,0.013523,0.002678,0.000431,0.000353
38781000,0.0324,0.013523,0.002678,0.000431,0.000588
38782000,0.0324,0.013523,0.002678,0.000431,0.000353
38783000,0.0324,0.013523,0.002678,0.000431,0.000588
38784000,0.0324,0.013523,0.002678,0.000431,0.000353
38785000,0.0324,0.013523,0.002678,0.000431,0.000588
38786000,0.0324,0.013523,0.002678,0.000431,0.000353
38787000,0.0324,0.013523,0.002678,0.000431,0.000705
38788000,0.0324,0.013523,0.002678,0.000431,0.000353
38789000,0.0324,0.013523,0.002678,0.000431,0.000588
38790000,0.0324,0.013523,0.002678,0.000431,0.000470
38791000,0.0324,0.013523,0.002678,0.000431,0.000470
38792000,0.0324,0.013523,0.002678,0.000431,0.000353
38793000,0.0324,0.013523,0.002678,0.000431,0.000823
38794000,0.0324,0.013523,0.002678,0.000431,0.000470
38795000,0.0324,0.013523,0.002678,0.000431,0.000705
38796000,0.0324,0.013523,0.002678,0.000431,0.000353
38797000,0.0324,0.013523,0.002678,0.000431,0.000588
38798000,0.0324,0.013523,0.002678,0.000431,0.000353
38799000,0.0324,0.013523,0.002678,0.000431,0.000705
38800000,0.0324,0.013523,0.002678,0.000431,0.000588
38801000,0.0324,0.013523,0.002678,0.000431,0.000470
38802000,0.0324,0.013523,0.002678,0.000431,0.000588
38803000,0.0324,0.013523,0.002678,0.000431,0.000353
38804000,0.0324,0.013523,0.002678,0.000431,0.000705
38805000,0.0324,0.013523,0.002678,0.000431,0.000353
38806000,0.0324,0.013523,0.002678,0.000431,0.000588
38807000,0.0324,0.013523,0.002678,0.000431,0.000353
38808000,0.0324,0.013523,0.002678,0.000431,0.000588
38809000,0.0324,0.013523,0.002678,0.000431,0.000353
38810000,0.0324,0.013523,0.002678,0.000431,0.000705
38811000,0.0324,0.013523,0.002678,0.000431,0.000235
38812000,0.0324,0.013523,0.002678,0.000431,0.000588
38813000,0.0324,0.013523,0.002678,0.000431,0.000470
38814000,0.0324,0.013523,0.002678,0.000431,0.000705
38815000,0.0324,0.013523,0.002678,0.000431,0.000353
38816000,0.0324,0.013523,0.002678,0.000431,0.000588
38817000,0.0324,0.013523,0.002678,0.000431,0.000353
38818000,0.0324,0.013523,0.002678,0.000431,0.000470
38819000,0.0324,0.013523,0.002678,0.000431,0.000353
38820000,0.0324,0.013523,0.002678,0.000431,0.000588
38821000,0.0324,0.013523,0.002678,0.000431,0.000353
38822000,0.0324,0.013523,0.002678,0.000431,0.000588
38823000,0.0324,0.013523,0.002678,0.000431,0.000470
38824000,0.0324,0.013523,0.002678,0.000431,0.000470
38825000,0.0324,0.013523,0.002678,0.000431,0.000470
38826000,0.0324,0.013523,0.002678,0.000431,0.000588
38827000,0.0324,0.013523,0.002678,0.000431,0.000470
38828000,0.0324,0.013523,0.002678,0.000431,0.000588
38829000,0.0324,0.013523,0.002678,0.000431,0.000353
38830000,0.0324,0.013523,0.002678,0.000431,0.000588
38831000,0.0324,0.013523,0.002678,0.000431,0.000353
38832000,0.0324,0.013523,0.002678,0.000431,0.000588
38833000,0.0324,0.013523,0.002678,0.000431,0.000470
38834000,0.0324,0.013523,0.002678,0.000431,0.000470
38835000,0.0324,0.013523,0.002678,0.000431,0.000470
38836000,0.0324,0.013523,0.002678,0.000431,0.000588
38837000,0.0324,0.013523,0.002678,0.000431,0.000470
38838000,0.0324,0.013523,0.002678,0.000431,0.000705
38839000,0.0324,0.013523,0.002678,0.000431,0.000353
38840000,0.0324,0.013523,0.002678,0.000431,0.000588
38841000,0.0324,0.013523,0.002678,0.000431,0.000353
38842000,0.0324,0.013523,0.002678,0.000431,0.000588
38843000,0.0324,0.013523,0.002678,0.000431,0.000353
38844000,0.0324,0.013523,0.002678,0.000431,0.000470
38845000,0.0324,0.013523,0.002678,0.000431,0.000470
38846000,0.0324,0.013523,0.002678,0.000431,0.000470
38847000,0.0324,0.013523,0.002678,0.000431,0.000470
38848000,0.0324,0.013523,0.002678,0.000431,0.000470
38849000,0.0324,0.013523,0.002678,0.000431,0.000470
38850000,0.0324,0.013523,0.002678,0.000431,0.000588
38851000,0.0324,0.013523,0.002678,0.000431,0.000588
38852000,0.0324,0.013523,0.002678,0.000431,0.000470
38853000,0.0324,0.013523,0.002678,0.000431,0.000353
38854000,0.0324,0.013523,0.002678,0.000431,0.000588
38855000,0.0324,0.013523,0.002678,0.000431,0.000353
38856000,0.0324,0.013523,0.002678,0.000431,0.000588
38857000,0.0324,0.013523,0.002678,0.000431,0.000353
38858000,0.0324,0.013523,0.002678,0.000431,0.000588
38859000,0.0324,0.013523,0.002678,0.000431,0.000353
38860000,0.0324,0.013523,0.002678,0.000431,0.000588
38861000,0.0324,0.013523,0.002678,0.000431,0.000353
38862000,0.0324,0.013523,0.002678,0.000431,0.000588
38863000,0.0324,0.013523,0.002678,0.000431,0.000353
38864000,0.0324,0.013523,0.002678,0.000431,0.000588
38865000,0.0324,0.013523,0.002678,0.000431,0.000353
38866000,0.0324,0.013523,0.002678,0.000431,0.000588
38867000,0.0324,0.013523,0.002678,0.000431,0.000353
38868000,0.0324,0.013523,0.002678,0.000431,0.000588
38869000,0.0324,0.013523,0.002678,0.000431,0.000353
38870000,0.0324,0.013523,0.002678,0.000431,0.000470
38871000,0.0324,0.013523,0.002678,0.000431,0.000470
38872000,0.0324,0.013523,0.002678,0.000431,0.000470
38873000,0.0324,0.013523,0.002678,0.000431,0.000470
38874000,0.0324,0.013523,0.002678,0.000431,0.000470
38875000,0.0324,0.013523,0.002678,0.000431,0.000470
38876000,0.0324,0.013523,0.002678,0.000431,0.000353
38877000,0.0324,0.013523,0.002678,0.000431,0.000588
38878000,0.0324,0.013523,0.002678,0.000431,0.000353
38879000,0.0324,0.013523,0.002678,0.000431,0.000588
38880000,0.0324,0.013523,0.002678,0.000431,0.000470
38881000,0.0324,0.013523,0.002678,0.000431,0.000588
38882000,0.0324,0.013523,0.002678,0.000431,0.000353
38883000,0.0324,0.013523,0.002678,0.000431,0.000588
38884000,0.0324,0.013523,0.002678,0.000431,0.000353
38885000,0.0324,0.013523,0.002678,0.000431,0.000588
38886000,0.0324,0.013523,0.002678,0.000431,0.000353
38887000,0.0324,0.013523,0.002678,0.000431,0.000588
38888000,0.0324,0.013523,0.002678,0.000431,0.000353
38889000,0.0324,0.013523,0.002678,0.000431,0.000588
38890000,0.0324,0.013523,0.002678,0.000431,0.000353
38891000,0.0324,0.013523,0.002678,0.000431,0.000588
38892000,0.0324,0.013523,0.002678,0.000431,0.000353
38893000,0.0324,0.013523,0.002678,0.000431,0.000588
38894000,0.0324,0.013523,0.002678,0.000431,0.000353
38895000,0.0324,0.013523,0.002678,0.000431,0.000588
38896000,0.0324,0.013523,0.002678,0.000431,0.000353
38897000,0.0324,0.013523,0.002678,0.000431,0.000588
38898000,0.0324,0.013523,0.002678,0.000431,0.000353
38899000,0.0324,0.013523,0.002678,0.000431,0.000588
38900000,0.0324,0.013523,0.002678,0.000431,0.000353
38901000,0.0324,0.013523,0.002678,0.000431,0.000588
38902000,0.0324,0.013523,0.002678,0.000431,0.000353
38903000,0.0324,0.013523,0.002678,0.000431,0.000470
38904000,0.0324,0.013523,0.002678,0.000431,0.000470
38905000,0.0324,0.013523,0.002678,0.000431,0.000470
38906000,0.0324,0.013523,0.002678,0.000431,0.000470
38907000,0.0324,0.013523,0.002678,0.000431,0.000353
38908000,0.0324,0.013523,0.002678,0.000431,0.000588
38909000,0.0324,0.013523,0.002678,0.000431,0.000353
38910000,0.0324,0.013523,0.002678,0.000431,0.000588
38911000,0.0324,0.013523,0.002678,0.000431,0.000353
38912000,0.0324,0.013523,0.002678,0.000431,0.000470
38913000,0.0324,0.013523,0.002678,0.000431,0.000470
38914000,0.0324,0.013523,0.002678,0.000431,0.000588
38915000,0.0324,0.013523,0.002678,0.000431,0.000353
38916000,0.0324,0.013523,0.002678,0.000431,0.000588
38917000,0.0324,0.013523,0.002678,0.000431,0.000353
38918000,0.0324,0.013523,0.002678,0.000431,0.000470
38919000,0.0324,0.013523,0.002678,0.000431,0.000470
38920000,0.0324,0.013523,0.002678,0.000431,0.000588
38921000,0.0324,0.013523,0.002678,0.000431,0.000353
38922000,0.0324,0.013523,0.002678,0.000431,0.000588
38923000,0.0324,0.013523,0.002678,0.000431,0.000353
38924000,0.0324,0.013523,0.002678,0.000431,0.000588
38925000,0.0324,0.013523,0.002678,0.000431,0.000353
38926000,0.0324,0.013523,0.002678,0.000431,0.000705
38927000,0.0324,0.013523,0.002678,0.000431,0.000588
38928000,0.0324,0.013523,0.002678,0.000431,0.000470
38929000,0.0324,0.013523,0.002678,0.000431,0.000470
38930000,0.0324,0.013523,0.002678,0.000431,0.000470
38931000,0.0324,0.013523,0.002678,0.000431,0.000705
38932000,0.0324,0.013523,0.002678,0.000431,0.000353
38933000,0.0324,0.013523,0.002678,0.000431,0.000705
38934000,0.0324,0.013523,0.002678,0.000431,0.000470
38935000,0.0324,0.013523,0.002678,0.000431,0.000470
38936000,0.0324,0.013523,0.002678,0.000431,0.000588
38937000,0.0324,0.013523,0.002678,0.000431,0.000470
38938000,0.0324,0.013523,0.002678,0.000431,0.000470
38939000,0.0324,0.013523,0.002678,0.000431,0.000588
38940000,0.0324,0.013523,0.002678,0.000431,0.000353
38941000,0.0324,0.013523,0.002678,0.000431,0.000588
38942000,0.0324,0.013523,0.002678,0.000431,0.000353
38943000,0.0324,0.013523,0.002678,0.000431,0.000588
38944000,0.0324,0.013523,0.002678,0.000431,0.000353
38945000,0.0324,0.013523,0.002678,0.000431,0.000705
38946000,0.0324,0.013523,0.002678,0.000431,0.000353
38947000,0.0324,0.013523,0.002678,0.000431,0.000705
38948000,0.0324,0.013523,0.002678,0.000431,0.000470
38949000,0.0324,0.013523,0.002678,0.000431,0.000470
38950000,0.0324,0.013523,0.002678,0.000431,0.000470
38951000,0.0324,0.013523,0.002678,0.000431,0.000470
38952000,0.0324,0.013523,0.002678,0.000431,0.000353
38953000,0.0324,0.013523,0.002678,0.000431,0.000588
38954000,0.0324,0.013523,0.002678,0.000431,0.000353
38955000,0.0324,0.013523,0.002678,0.000431,0.000705
38956000,0.0324,0.013523,0.002678,0.000431,0.000353
38957000,0.0324,0.013523,0.002678,0.000431,0.000588
38958000,0.0324,0.013523,0.002678,0.000431,0.000353
38959000,0.0324,0.013523,0.002678,0.000431,0.000705
38960000,0.0324,0.013523,0.002678,0.000431,0.000588
38961000,0.0324,0.013523,0.002678,0.000431,0.000470
38962000,0.0324,0.013523,0.002678,0.000431,0.000588
38963000,0.0324,0.013523,0.002678,0.000431,0.000353
38964000,0.0324,0.013523,0.002678,0.000431,0.000588
38965000,0.0324,0.013523,0.002678,0.000431,0.000470
38966000,0.0324,0.013523,0.002678,0.000431,0.000470
38967000,0.0324,0.013523,0.002678,0.000431,0.000353
38968000,0.0324,0.013523,0.002678,0.000431,0.000588
38969000,0.0324,0.013523,0.002678,0.000431,0.000353
38970000,0.0324,0.013523,0.002678,0.000431,0.000588
38971000,0.0324,0.013523,0.002678,0.000431,0.000470
38972000,0.0324,0.013523,0.002678,0.000431,0.000588
38973000,0.0324,0.013523,0.002678,0.000431,0.000470
38974000,0.0324,0.013523,0.002678,0.000431,0.000470
38975000,0.0324,0.013523,0.002678,0.000431,0.000470
38976000,0.0324,0.013523,0.002678,0.000431,0.000705
38977000,0.0324,0.013523,0.002678,0.000431,0.000353
38978000,0.0324,0.013523,0.002678,0.000431,0.000705
38979000,0.0324,0.013523,0.002678,0.000431,0.000588
38980000,0.0324,0.013523,0.002678,0.000431,0.000470
38981000,0.0324,0.013523,0.002678,0.000431,0.000588
38982000,0.0324,0.013523,0.002678,0.000431,0.000353
38983000,0.0324,0.013523,0.002678,0.000431,0.000588
38984000,0.0324,0.013523,0.002678,0.000431,0.000353
38985000,0.0324,0.013523,0.002678,0.000431,0.000588
38986000,0.0324,0.013523,0.002678,0.000431,0.000353
38987000,0.0324,0.013523,0.002678,0.000431,0.000588
38988000,0.0324,0.013523,0.002678,0.000431,0.000353
38989000,0.0324,0.013523,0.002678,0.000431,0.000588
38990000,0.0324,0.013523,0.002678,0.000431,0.000353
38991000,0.0324,0.013523,0.002678,0.000431,0.000588
38992000,0.0324,0.013523,0.002678,0.000431,0.000353
38993000,0.0324,0.013523,0.002678,0.000431,0.000470
38994000,0.0324,0.013523,0.002678,0.000431,0.000470
38995000,0.0324,0.013523,0.002678,0.000431,0.000470
38996000,0.0324,0.013523,0.002678,0.000431,0.000470
38997000,0.0324,0.013523,0.002678,0.000431,0.000470
38998000,0.0324,0.013523,0.002678,0.000431,0.000470
38999000,0.0324,0.013523,0.002678,0.000431,0.000353
