Cycle,Area(mm^2),PeakDynamic(W),SubthresholdLeakage(W),GateLeakage(W),RunTimeDynamic(W)
53000000,0.0324,0.013523,0.002678,0.000431,0.000588
53001000,0.0324,0.013523,0.002678,0.000431,0.000353
53002000,0.0324,0.013523,0.002678,0.000431,0.000705
53003000,0.0324,0.013523,0.002678,0.000431,0.000353
53004000,0.0324,0.013523,0.002678,0.000431,0.000705
53005000,0.0324,0.013523,0.002678,0.000431,0.000353
53006000,0.0324,0.013523,0.002678,0.000431,0.000588
53007000,0.0324,0.013523,0.002678,0.000431,0.000353
53008000,0.0324,0.013523,0.002678,0.000431,0.000588
53009000,0.0324,0.013523,0.002678,0.000431,0.000353
53010000,0.0324,0.013523,0.002678,0.000431,0.000588
53011000,0.0324,0.013523,0.002678,0.000431,0.000353
53012000,0.0324,0.013523,0.002678,0.000431,0.000588
53013000,0.0324,0.013523,0.002678,0.000431,0.000353
53014000,0.0324,0.013523,0.002678,0.000431,0.000588
53015000,0.0324,0.013523,0.002678,0.000431,0.000353
53016000,0.0324,0.013523,0.002678,0.000431,0.000470
53017000,0.0324,0.013523,0.002678,0.000431,0.000470
53018000,0.0324,0.013523,0.002678,0.000431,0.000470
53019000,0.0324,0.013523,0.002678,0.000431,0.000470
53020000,0.0324,0.013523,0.002678,0.000431,0.000588
53021000,0.0324,0.013523,0.002678,0.000431,0.000470
53022000,0.0324,0.013523,0.002678,0.000431,0.000705
53023000,0.0324,0.013523,0.002678,0.000431,0.000353
53024000,0.0324,0.013523,0.002678,0.000431,0.000705
53025000,0.0324,0.013523,0.002678,0.000431,0.000470
53026000,0.0324,0.013523,0.002678,0.000431,0.000705
53027000,0.0324,0.013523,0.002678,0.000431,0.000470
53028000,0.0324,0.013523,0.002678,0.000431,0.000470
53029000,0.0324,0.013523,0.002678,0.000431,0.000470
53030000,0.0324,0.013523,0.002678,0.000431,0.000470
53031000,0.0324,0.013523,0.002678,0.000431,0.000470
53032000,0.0324,0.013523,0.002678,0.000431,0.000470
53033000,0.0324,0.013523,0.002678,0.000431,0.000470
53034000,0.0324,0.013523,0.002678,0.000431,0.000470
53035000,0.0324,0.013523,0.002678,0.000431,0.000470
53036000,0.0324,0.013523,0.002678,0.000431,0.000470
53037000,0.0324,0.013523,0.002678,0.000431,0.000470
53038000,0.0324,0.013523,0.002678,0.000431,0.000470
53039000,0.0324,0.013523,0.002678,0.000431,0.000353
53040000,0.0324,0.013523,0.002678,0.000431,0.000588
53041000,0.0324,0.013523,0.002678,0.000431,0.000353
53042000,0.0324,0.013523,0.002678,0.000431,0.000588
53043000,0.0324,0.013523,0.002678,0.000431,0.000353
53044000,0.0324,0.013523,0.002678,0.000431,0.000588
53045000,0.0324,0.013523,0.002678,0.000431,0.000353
53046000,0.0324,0.013523,0.002678,0.000431,0.000705
53047000,0.0324,0.013523,0.002678,0.000431,0.000353
53048000,0.0324,0.013523,0.002678,0.000431,0.000588
53049000,0.0324,0.013523,0.002678,0.000431,0.000470
53050000,0.0324,0.013523,0.002678,0.000431,0.000588
53051000,0.0324,0.013523,0.002678,0.000431,0.000353
53052000,0.0324,0.013523,0.002678,0.000431,0.000588
53053000,0.0324,0.013523,0.002678,0.000431,0.000235
53054000,0.0324,0.013523,0.002678,0.000431,0.000705
53055000,0.0324,0.013523,0.002678,0.000431,0.000353
53056000,0.0324,0.013523,0.002678,0.000431,0.000705
53057000,0.0324,0.013523,0.002678,0.000431,0.000470
53058000,0.0324,0.013523,0.002678,0.000431,0.000705
53059000,0.0324,0.013523,0.002678,0.000431,0.000353
53060000,0.0324,0.013523,0.002678,0.000431,0.000588
53061000,0.0324,0.013523,0.002678,0.000431,0.000470
53062000,0.0324,0.013523,0.002678,0.000431,0.000588
53063000,0.0324,0.013523,0.002678,0.000431,0.000588
53064000,0.0324,0.013523,0.002678,0.000431,0.000470
53065000,0.0324,0.013523,0.002678,0.000431,0.000353
53066000,0.0324,0.013523,0.002678,0.000431,0.000588
53067000,0.0324,0.013523,0.002678,0.000431,0.000353
53068000,0.0324,0.013523,0.002678,0.000431,0.000588
53069000,0.0324,0.013523,0.002678,0.000431,0.000353
53070000,0.0324,0.013523,0.002678,0.000431,0.000705
53071000,0.0324,0.013523,0.002678,0.000431,0.000470
53072000,0.0324,0.013523,0.002678,0.000431,0.000588
53073000,0.0324,0.013523,0.002678,0.000431,0.000353
53074000,0.0324,0.013523,0.002678,0.000431,0.000588
53075000,0.0324,0.013523,0.002678,0.000431,0.000353
53076000,0.0324,0.013523,0.002678,0.000431,0.000588
53077000,0.0324,0.013523,0.002678,0.000431,0.000353
53078000,0.0324,0.013523,0.002678,0.000431,0.000588
53079000,0.0324,0.013523,0.002678,0.000431,0.000353
53080000,0.0324,0.013523,0.002678,0.000431,0.000588
53081000,0.0324,0.013523,0.002678,0.000431,0.000353
53082000,0.0324,0.013523,0.002678,0.000431,0.000705
53083000,0.0324,0.013523,0.002678,0.000431,0.000470
53084000,0.0324,0.013523,0.002678,0.000431,0.000470
53085000,0.0324,0.013523,0.002678,0.000431,0.000470
53086000,0.0324,0.013523,0.002678,0.000431,0.000470
53087000,0.0324,0.013523,0.002678,0.000431,0.000353
53088000,0.0324,0.013523,0.002678,0.000431,0.000588
53089000,0.0324,0.013523,0.002678,0.000431,0.000588
53090000,0.0324,0.013523,0.002678,0.000431,0.000470
53091000,0.0324,0.013523,0.002678,0.000431,0.000705
53092000,0.0324,0.013523,0.002678,0.000431,0.000353
53093000,0.0324,0.013523,0.002678,0.000431,0.000588
53094000,0.0324,0.013523,0.002678,0.000431,0.000353
53095000,0.0324,0.013523,0.002678,0.000431,0.000588
53096000,0.0324,0.013523,0.002678,0.000431,0.000353
53097000,0.0324,0.013523,0.002678,0.000431,0.000705
53098000,0.0324,0.013523,0.002678,0.000431,0.000588
53099000,0.0324,0.013523,0.002678,0.000431,0.000470
53100000,0.0324,0.013523,0.002678,0.000431,0.000705
53101000,0.0324,0.013523,0.002678,0.000431,0.000353
53102000,0.0324,0.013523,0.002678,0.000431,0.000588
53103000,0.0324,0.013523,0.002678,0.000431,0.000353
53104000,0.0324,0.013523,0.002678,0.000431,0.000588
53105000,0.0324,0.013523,0.002678,0.000431,0.000353
53106000,0.0324,0.013523,0.002678,0.000431,0.000470
53107000,0.0324,0.013523,0.002678,0.000431,0.000470
53108000,0.0324,0.013523,0.002678,0.000431,0.000470
53109000,0.0324,0.013523,0.002678,0.000431,0.000470
53110000,0.0324,0.013523,0.002678,0.000431,0.000470
53111000,0.0324,0.013523,0.002678,0.000431,0.000470
53112000,0.0324,0.013523,0.002678,0.000431,0.000470
53113000,0.0324,0.013523,0.002678,0.000431,0.000470
53114000,0.0324,0.013523,0.002678,0.000431,0.000470
53115000,0.0324,0.013523,0.002678,0.000431,0.000470
53116000,0.0324,0.013523,0.002678,0.000431,0.000470
53117000,0.0324,0.013523,0.002678,0.000431,0.000470
53118000,0.0324,0.013523,0.002678,0.000431,0.000470
53119000,0.0324,0.013523,0.002678,0.000431,0.000470
53120000,0.0324,0.013523,0.002678,0.000431,0.000470
53121000,0.0324,0.013523,0.002678,0.000431,0.000470
53122000,0.0324,0.013523,0.002678,0.000431,0.000470
53123000,0.0324,0.013523,0.002678,0.000431,0.000470
53124000,0.0324,0.013523,0.002678,0.000431,0.000470
53125000,0.0324,0.013523,0.002678,0.000431,0.000470
53126000,0.0324,0.013523,0.002678,0.000431,0.000470
53127000,0.0324,0.013523,0.002678,0.000431,0.000588
53128000,0.0324,0.013523,0.002678,0.000431,0.000353
53129000,0.0324,0.013523,0.002678,0.000431,0.000705
53130000,0.0324,0.013523,0.002678,0.000431,0.000470
53131000,0.0324,0.013523,0.002678,0.000431,0.000470
53132000,0.0324,0.013523,0.002678,0.000431,0.000470
53133000,0.0324,0.013523,0.002678,0.000431,0.000470
53134000,0.0324,0.013523,0.002678,0.000431,0.000470
53135000,0.0324,0.013523,0.002678,0.000431,0.000588
53136000,0.0324,0.013523,0.002678,0.000431,0.000470
53137000,0.0324,0.013523,0.002678,0.000431,0.000588
53138000,0.0324,0.013523,0.002678,0.000431,0.000353
53139000,0.0324,0.013523,0.002678,0.000431,0.000705
53140000,0.0324,0.013523,0.002678,0.000431,0.000353
53141000,0.0324,0.013523,0.002678,0.000431,0.000588
53142000,0.0324,0.013523,0.002678,0.000431,0.000353
53143000,0.0324,0.013523,0.002678,0.000431,0.000588
53144000,0.0324,0.013523,0.002678,0.000431,0.000353
53145000,0.0324,0.013523,0.002678,0.000431,0.000588
53146000,0.0324,0.013523,0.002678,0.000431,0.000353
53147000,0.0324,0.013523,0.002678,0.000431,0.000470
53148000,0.0324,0.013523,0.002678,0.000431,0.000470
53149000,0.0324,0.013523,0.002678,0.000431,0.000470
53150000,0.0324,0.013523,0.002678,0.000431,0.000470
53151000,0.0324,0.013523,0.002678,0.000431,0.000470
53152000,0.0324,0.013523,0.002678,0.000431,0.000470
53153000,0.0324,0.013523,0.002678,0.000431,0.000705
53154000,0.0324,0.013523,0.002678,0.000431,0.000588
53155000,0.0324,0.013523,0.002678,0.000431,0.000470
53156000,0.0324,0.013523,0.002678,0.000431,0.000588
53157000,0.0324,0.013523,0.002678,0.000431,0.000353
53158000,0.0324,0.013523,0.002678,0.000431,0.000470
53159000,0.0324,0.013523,0.002678,0.000431,0.000588
53160000,0.0324,0.013523,0.002678,0.000431,0.000588
53161000,0.0324,0.013523,0.002678,0.000431,0.000470
53162000,0.0324,0.013523,0.002678,0.000431,0.000588
53163000,0.0324,0.013523,0.002678,0.000431,0.000353
53164000,0.0324,0.013523,0.002678,0.000431,0.000588
53165000,0.0324,0.013523,0.002678,0.000431,0.000470
53166000,0.0324,0.013523,0.002678,0.000431,0.000470
53167000,0.0324,0.013523,0.002678,0.000431,0.000470
53168000,0.0324,0.013523,0.002678,0.000431,0.000588
53169000,0.0324,0.013523,0.002678,0.000431,0.000470
53170000,0.0324,0.013523,0.002678,0.000431,0.000705
53171000,0.0324,0.013523,0.002678,0.000431,0.000353
53172000,0.0324,0.013523,0.002678,0.000431,0.000705
53173000,0.0324,0.013523,0.002678,0.000431,0.000588
53174000,0.0324,0.013523,0.002678,0.000431,0.000470
53175000,0.0324,0.013523,0.002678,0.000431,0.000588
53176000,0.0324,0.013523,0.002678,0.000431,0.000353
53177000,0.0324,0.013523,0.002678,0.000431,0.000470
53178000,0.0324,0.013523,0.002678,0.000431,0.000470
53179000,0.0324,0.013523,0.002678,0.000431,0.000470
53180000,0.0324,0.013523,0.002678,0.000431,0.000470
53181000,0.0324,0.013523,0.002678,0.000431,0.000353
53182000,0.0324,0.013523,0.002678,0.000431,0.000588
53183000,0.0324,0.013523,0.002678,0.000431,0.000353
53184000,0.0324,0.013523,0.002678,0.000431,0.000588
53185000,0.0324,0.013523,0.002678,0.000431,0.000353
53186000,0.0324,0.013523,0.002678,0.000431,0.000588
53187000,0.0324,0.013523,0.002678,0.000431,0.000353
53188000,0.0324,0.013523,0.002678,0.000431,0.000705
53189000,0.0324,0.013523,0.002678,0.000431,0.000588
53190000,0.0324,0.013523,0.002678,0.000431,0.000470
53191000,0.0324,0.013523,0.002678,0.000431,0.000705
53192000,0.0324,0.013523,0.002678,0.000431,0.000353
53193000,0.0324,0.013523,0.002678,0.000431,0.000705
53194000,0.0324,0.013523,0.002678,0.000431,0.000588
53195000,0.0324,0.013523,0.002678,0.000431,0.000470
53196000,0.0324,0.013523,0.002678,0.000431,0.000470
53197000,0.0324,0.013523,0.002678,0.000431,0.000470
53198000,0.0324,0.013523,0.002678,0.000431,0.000705
53199000,0.0324,0.013523,0.002678,0.000431,0.000353
53200000,0.0324,0.013523,0.002678,0.000431,0.000705
53201000,0.0324,0.013523,0.002678,0.000431,0.000470
53202000,0.0324,0.013523,0.002678,0.000431,0.000470
53203000,0.0324,0.013523,0.002678,0.000431,0.000470
53204000,0.0324,0.013523,0.002678,0.000431,0.000470
53205000,0.0324,0.013523,0.002678,0.000431,0.000470
53206000,0.0324,0.013523,0.002678,0.000431,0.000588
53207000,0.0324,0.013523,0.002678,0.000431,0.000353
53208000,0.0324,0.013523,0.002678,0.000431,0.000588
53209000,0.0324,0.013523,0.002678,0.000431,0.000353
53210000,0.0324,0.013523,0.002678,0.000431,0.000588
53211000,0.0324,0.013523,0.002678,0.000431,0.000353
53212000,0.0324,0.013523,0.002678,0.000431,0.000588
53213000,0.0324,0.013523,0.002678,0.000431,0.000353
53214000,0.0324,0.013523,0.002678,0.000431,0.000470
53215000,0.0324,0.013523,0.002678,0.000431,0.000470
53216000,0.0324,0.013523,0.002678,0.000431,0.000588
53217000,0.0324,0.013523,0.002678,0.000431,0.000588
53218000,0.0324,0.013523,0.002678,0.000431,0.000470
53219000,0.0324,0.013523,0.002678,0.000431,0.000470
53220000,0.0324,0.013523,0.002678,0.000431,0.000470
53221000,0.0324,0.013523,0.002678,0.000431,0.000353
53222000,0.0324,0.013523,0.002678,0.000431,0.000588
53223000,0.0324,0.013523,0.002678,0.000431,0.000353
53224000,0.0324,0.013523,0.002678,0.000431,0.000588
53225000,0.0324,0.013523,0.002678,0.000431,0.000353
53226000,0.0324,0.013523,0.002678,0.000431,0.000588
53227000,0.0324,0.013523,0.002678,0.000431,0.000353
53228000,0.0324,0.013523,0.002678,0.000431,0.000588
53229000,0.0324,0.013523,0.002678,0.000431,0.000353
53230000,0.0324,0.013523,0.002678,0.000431,0.000588
53231000,0.0324,0.013523,0.002678,0.000431,0.000353
53232000,0.0324,0.013523,0.002678,0.000431,0.000705
53233000,0.0324,0.013523,0.002678,0.000431,0.000353
53234000,0.0324,0.013523,0.002678,0.000431,0.000705
53235000,0.0324,0.013523,0.002678,0.000431,0.000588
53236000,0.0324,0.013523,0.002678,0.000431,0.000470
53237000,0.0324,0.013523,0.002678,0.000431,0.000588
53238000,0.0324,0.013523,0.002678,0.000431,0.000353
53239000,0.0324,0.013523,0.002678,0.000431,0.000588
53240000,0.0324,0.013523,0.002678,0.000431,0.000353
53241000,0.0324,0.013523,0.002678,0.000431,0.000470
53242000,0.0324,0.013523,0.002678,0.000431,0.000470
53243000,0.0324,0.013523,0.002678,0.000431,0.000470
53244000,0.0324,0.013523,0.002678,0.000431,0.000470
53245000,0.0324,0.013523,0.002678,0.000431,0.000470
53246000,0.0324,0.013523,0.002678,0.000431,0.000470
53247000,0.0324,0.013523,0.002678,0.000431,0.000353
53248000,0.0324,0.013523,0.002678,0.000431,0.000588
53249000,0.0324,0.013523,0.002678,0.000431,0.000353
53250000,0.0324,0.013523,0.002678,0.000431,0.000588
53251000,0.0324,0.013523,0.002678,0.000431,0.000353
53252000,0.0324,0.013523,0.002678,0.000431,0.000588
53253000,0.0324,0.013523,0.002678,0.000431,0.000353
53254000,0.0324,0.013523,0.002678,0.000431,0.000588
53255000,0.0324,0.013523,0.002678,0.000431,0.000353
53256000,0.0324,0.013523,0.002678,0.000431,0.000588
53257000,0.0324,0.013523,0.002678,0.000431,0.000353
53258000,0.0324,0.013523,0.002678,0.000431,0.000588
53259000,0.0324,0.013523,0.002678,0.000431,0.000353
53260000,0.0324,0.013523,0.002678,0.000431,0.000705
53261000,0.0324,0.013523,0.002678,0.000431,0.000470
53262000,0.0324,0.013523,0.002678,0.000431,0.000470
53263000,0.0324,0.013523,0.002678,0.000431,0.000470
53264000,0.0324,0.013523,0.002678,0.000431,0.000470
53265000,0.0324,0.013523,0.002678,0.000431,0.000470
53266000,0.0324,0.013523,0.002678,0.000431,0.000470
53267000,0.0324,0.013523,0.002678,0.000431,0.000470
53268000,0.0324,0.013523,0.002678,0.000431,0.000470
53269000,0.0324,0.013523,0.002678,0.000431,0.000470
53270000,0.0324,0.013523,0.002678,0.000431,0.000470
53271000,0.0324,0.013523,0.002678,0.000431,0.000470
53272000,0.0324,0.013523,0.002678,0.000431,0.000470
53273000,0.0324,0.013523,0.002678,0.000431,0.000353
53274000,0.0324,0.013523,0.002678,0.000431,0.000588
53275000,0.0324,0.013523,0.002678,0.000431,0.000353
53276000,0.0324,0.013523,0.002678,0.000431,0.000705
53277000,0.0324,0.013523,0.002678,0.000431,0.000353
53278000,0.0324,0.013523,0.002678,0.000431,0.000588
53279000,0.0324,0.013523,0.002678,0.000431,0.000353
53280000,0.0324,0.013523,0.002678,0.000431,0.000705
53281000,0.0324,0.013523,0.002678,0.000431,0.000470
53282000,0.0324,0.013523,0.002678,0.000431,0.000470
53283000,0.0324,0.013523,0.002678,0.000431,0.000470
53284000,0.0324,0.013523,0.002678,0.000431,0.000470
53285000,0.0324,0.013523,0.002678,0.000431,0.000470
53286000,0.0324,0.013523,0.002678,0.000431,0.000470
53287000,0.0324,0.013523,0.002678,0.000431,0.000470
53288000,0.0324,0.013523,0.002678,0.000431,0.000470
53289000,0.0324,0.013523,0.002678,0.000431,0.000470
53290000,0.0324,0.013523,0.002678,0.000431,0.000470
53291000,0.0324,0.013523,0.002678,0.000431,0.000470
53292000,0.0324,0.013523,0.002678,0.000431,0.000470
53293000,0.0324,0.013523,0.002678,0.000431,0.000470
53294000,0.0324,0.013523,0.002678,0.000431,0.000588
53295000,0.0324,0.013523,0.002678,0.000431,0.000470
53296000,0.0324,0.013523,0.002678,0.000431,0.000470
53297000,0.0324,0.013523,0.002678,0.000431,0.000470
53298000,0.0324,0.013523,0.002678,0.000431,0.000470
53299000,0.0324,0.013523,0.002678,0.000431,0.000353
53300000,0.0324,0.013523,0.002678,0.000431,0.000588
53301000,0.0324,0.013523,0.002678,0.000431,0.000353
53302000,0.0324,0.013523,0.002678,0.000431,0.000705
53303000,0.0324,0.013523,0.002678,0.000431,0.000588
53304000,0.0324,0.013523,0.002678,0.000431,0.000470
53305000,0.0324,0.013523,0.002678,0.000431,0.000705
53306000,0.0324,0.013523,0.002678,0.000431,0.000353
53307000,0.0324,0.013523,0.002678,0.000431,0.000588
53308000,0.0324,0.013523,0.002678,0.000431,0.000353
53309000,0.0324,0.013523,0.002678,0.000431,0.000705
53310000,0.0324,0.013523,0.002678,0.000431,0.000588
53311000,0.0324,0.013523,0.002678,0.000431,0.000470
53312000,0.0324,0.013523,0.002678,0.000431,0.000353
53313000,0.0324,0.013523,0.002678,0.000431,0.000470
53314000,0.0324,0.013523,0.002678,0.000431,0.000470
53315000,0.0324,0.013523,0.002678,0.000431,0.000470
53316000,0.0324,0.013523,0.002678,0.000431,0.000588
53317000,0.0324,0.013523,0.002678,0.000431,0.000470
53318000,0.0324,0.013523,0.002678,0.000431,0.000705
53319000,0.0324,0.013523,0.002678,0.000431,0.000353
53320000,0.0324,0.013523,0.002678,0.000431,0.000705
53321000,0.0324,0.013523,0.002678,0.000431,0.000470
53322000,0.0324,0.013523,0.002678,0.000431,0.000470
53323000,0.0324,0.013523,0.002678,0.000431,0.000470
53324000,0.0324,0.013523,0.002678,0.000431,0.000470
53325000,0.0324,0.013523,0.002678,0.000431,0.000470
53326000,0.0324,0.013523,0.002678,0.000431,0.000470
53327000,0.0324,0.013523,0.002678,0.000431,0.000470
53328000,0.0324,0.013523,0.002678,0.000431,0.000470
53329000,0.0324,0.013523,0.002678,0.000431,0.000470
53330000,0.0324,0.013523,0.002678,0.000431,0.000470
53331000,0.0324,0.013523,0.002678,0.000431,0.000470
53332000,0.0324,0.013523,0.002678,0.000431,0.000470
53333000,0.0324,0.013523,0.002678,0.000431,0.000470
53334000,0.0324,0.013523,0.002678,0.000431,0.000470
53335000,0.0324,0.013523,0.002678,0.000431,0.000470
53336000,0.0324,0.013523,0.002678,0.000431,0.000588
53337000,0.0324,0.013523,0.002678,0.000431,0.000353
53338000,0.0324,0.013523,0.002678,0.000431,0.000705
53339000,0.0324,0.013523,0.002678,0.000431,0.000470
53340000,0.0324,0.013523,0.002678,0.000431,0.000470
53341000,0.0324,0.013523,0.002678,0.000431,0.000470
53342000,0.0324,0.013523,0.002678,0.000431,0.000588
53343000,0.0324,0.013523,0.002678,0.000431,0.000353
53344000,0.0324,0.013523,0.002678,0.000431,0.000588
53345000,0.0324,0.013523,0.002678,0.000431,0.000353
53346000,0.0324,0.013523,0.002678,0.000431,0.000588
53347000,0.0324,0.013523,0.002678,0.000431,0.000353
53348000,0.0324,0.013523,0.002678,0.000431,0.000588
53349000,0.0324,0.013523,0.002678,0.000431,0.000353
53350000,0.0324,0.013523,0.002678,0.000431,0.000588
53351000,0.0324,0.013523,0.002678,0.000431,0.000353
53352000,0.0324,0.013523,0.002678,0.000431,0.000588
53353000,0.0324,0.013523,0.002678,0.000431,0.000353
53354000,0.0324,0.013523,0.002678,0.000431,0.000588
53355000,0.0324,0.013523,0.002678,0.000431,0.000353
53356000,0.0324,0.013523,0.002678,0.000431,0.000588
53357000,0.0324,0.013523,0.002678,0.000431,0.000353
53358000,0.0324,0.013523,0.002678,0.000431,0.000588
53359000,0.0324,0.013523,0.002678,0.000431,0.000353
53360000,0.0324,0.013523,0.002678,0.000431,0.000588
53361000,0.0324,0.013523,0.002678,0.000431,0.000353
53362000,0.0324,0.013523,0.002678,0.000431,0.000588
53363000,0.0324,0.013523,0.002678,0.000431,0.000353
53364000,0.0324,0.013523,0.002678,0.000431,0.000588
53365000,0.0324,0.013523,0.002678,0.000431,0.000470
53366000,0.0324,0.013523,0.002678,0.000431,0.000705
53367000,0.0324,0.013523,0.002678,0.000431,0.000353
53368000,0.0324,0.013523,0.002678,0.000431,0.000588
53369000,0.0324,0.013523,0.002678,0.000431,0.000353
53370000,0.0324,0.013523,0.002678,0.000431,0.000705
53371000,0.0324,0.013523,0.002678,0.000431,0.000588
53372000,0.0324,0.013523,0.002678,0.000431,0.000470
53373000,0.0324,0.013523,0.002678,0.000431,0.000705
53374000,0.0324,0.013523,0.002678,0.000431,0.000353
53375000,0.0324,0.013523,0.002678,0.000431,0.000705
53376000,0.0324,0.013523,0.002678,0.000431,0.000588
53377000,0.0324,0.013523,0.002678,0.000431,0.000470
53378000,0.0324,0.013523,0.002678,0.000431,0.000470
53379000,0.0324,0.013523,0.002678,0.000431,0.000470
53380000,0.0324,0.013523,0.002678,0.000431,0.000588
53381000,0.0324,0.013523,0.002678,0.000431,0.000353
53382000,0.0324,0.013523,0.002678,0.000431,0.000705
53383000,0.0324,0.013523,0.002678,0.000431,0.000353
53384000,0.0324,0.013523,0.002678,0.000431,0.000705
53385000,0.0324,0.013523,0.002678,0.000431,0.000470
53386000,0.0324,0.013523,0.002678,0.000431,0.000470
53387000,0.0324,0.013523,0.002678,0.000431,0.000470
53388000,0.0324,0.013523,0.002678,0.000431,0.000470
53389000,0.0324,0.013523,0.002678,0.000431,0.000470
53390000,0.0324,0.013523,0.002678,0.000431,0.000470
53391000,0.0324,0.013523,0.002678,0.000431,0.000470
53392000,0.0324,0.013523,0.002678,0.000431,0.000470
53393000,0.0324,0.013523,0.002678,0.000431,0.000588
53394000,0.0324,0.013523,0.002678,0.000431,0.000470
53395000,0.0324,0.013523,0.002678,0.000431,0.000588
53396000,0.0324,0.013523,0.002678,0.000431,0.000235
53397000,0.0324,0.013523,0.002678,0.000431,0.000588
53398000,0.0324,0.013523,0.002678,0.000431,0.000470
53399000,0.0324,0.013523,0.002678,0.000431,0.000588
53400000,0.0324,0.013523,0.002678,0.000431,0.000353
53401000,0.0324,0.013523,0.002678,0.000431,0.000588
53402000,0.0324,0.013523,0.002678,0.000431,0.000353
53403000,0.0324,0.013523,0.002678,0.000431,0.000588
53404000,0.0324,0.013523,0.002678,0.000431,0.000353
53405000,0.0324,0.013523,0.002678,0.000431,0.000588
53406000,0.0324,0.013523,0.002678,0.000431,0.000470
53407000,0.0324,0.013523,0.002678,0.000431,0.000470
53408000,0.0324,0.013523,0.002678,0.000431,0.000470
53409000,0.0324,0.013523,0.002678,0.000431,0.000470
53410000,0.0324,0.013523,0.002678,0.000431,0.000470
53411000,0.0324,0.013523,0.002678,0.000431,0.000588
53412000,0.0324,0.013523,0.002678,0.000431,0.000470
53413000,0.0324,0.013523,0.002678,0.000431,0.000705
53414000,0.0324,0.013523,0.002678,0.000431,0.000353
53415000,0.0324,0.013523,0.002678,0.000431,0.000588
53416000,0.0324,0.013523,0.002678,0.000431,0.000470
53417000,0.0324,0.013523,0.002678,0.000431,0.000588
53418000,0.0324,0.013523,0.002678,0.000431,0.000588
53419000,0.0324,0.013523,0.002678,0.000431,0.000470
53420000,0.0324,0.013523,0.002678,0.000431,0.000588
53421000,0.0324,0.013523,0.002678,0.000431,0.000353
53422000,0.0324,0.013523,0.002678,0.000431,0.000588
53423000,0.0324,0.013523,0.002678,0.000431,0.000470
53424000,0.0324,0.013523,0.002678,0.000431,0.000470
53425000,0.0324,0.013523,0.002678,0.000431,0.000353
53426000,0.0324,0.013523,0.002678,0.000431,0.000588
53427000,0.0324,0.013523,0.002678,0.000431,0.000470
53428000,0.0324,0.013523,0.002678,0.000431,0.000470
53429000,0.0324,0.013523,0.002678,0.000431,0.000470
53430000,0.0324,0.013523,0.002678,0.000431,0.000470
53431000,0.0324,0.013523,0.002678,0.000431,0.000470
53432000,0.0324,0.013523,0.002678,0.000431,0.000470
53433000,0.0324,0.013523,0.002678,0.000431,0.000470
53434000,0.0324,0.013523,0.002678,0.000431,0.000588
53435000,0.0324,0.013523,0.002678,0.000431,0.000470
53436000,0.0324,0.013523,0.002678,0.000431,0.000705
53437000,0.0324,0.013523,0.002678,0.000431,0.000353
53438000,0.0324,0.013523,0.002678,0.000431,0.000588
53439000,0.0324,0.013523,0.002678,0.000431,0.000470
53440000,0.0324,0.013523,0.002678,0.000431,0.000588
53441000,0.0324,0.013523,0.002678,0.000431,0.000588
53442000,0.0324,0.013523,0.002678,0.000431,0.000470
53443000,0.0324,0.013523,0.002678,0.000431,0.000588
53444000,0.0324,0.013523,0.002678,0.000431,0.000353
53445000,0.0324,0.013523,0.002678,0.000431,0.000705
53446000,0.0324,0.013523,0.002678,0.000431,0.000353
53447000,0.0324,0.013523,0.002678,0.000431,0.000705
53448000,0.0324,0.013523,0.002678,0.000431,0.000470
53449000,0.0324,0.013523,0.002678,0.000431,0.000588
53450000,0.0324,0.013523,0.002678,0.000431,0.000353
53451000,0.0324,0.013523,0.002678,0.000431,0.000588
53452000,0.0324,0.013523,0.002678,0.000431,0.000353
53453000,0.0324,0.013523,0.002678,0.000431,0.000470
53454000,0.0324,0.013523,0.002678,0.000431,0.000470
53455000,0.0324,0.013523,0.002678,0.000431,0.000470
53456000,0.0324,0.013523,0.002678,0.000431,0.000470
53457000,0.0324,0.013523,0.002678,0.000431,0.000470
53458000,0.0324,0.013523,0.002678,0.000431,0.000470
53459000,0.0324,0.013523,0.002678,0.000431,0.000470
53460000,0.0324,0.013523,0.002678,0.000431,0.000353
53461000,0.0324,0.013523,0.002678,0.000431,0.000588
53462000,0.0324,0.013523,0.002678,0.000431,0.000353
53463000,0.0324,0.013523,0.002678,0.000431,0.000588
53464000,0.0324,0.013523,0.002678,0.000431,0.000353
53465000,0.0324,0.013523,0.002678,0.000431,0.000705
53466000,0.0324,0.013523,0.002678,0.000431,0.000353
53467000,0.0324,0.013523,0.002678,0.000431,0.000705
53468000,0.0324,0.013523,0.002678,0.000431,0.000588
53469000,0.0324,0.013523,0.002678,0.000431,0.000470
53470000,0.0324,0.013523,0.002678,0.000431,0.000705
53471000,0.0324,0.013523,0.002678,0.000431,0.000353
53472000,0.0324,0.013523,0.002678,0.000431,0.000588
53473000,0.0324,0.013523,0.002678,0.000431,0.000353
53474000,0.0324,0.013523,0.002678,0.000431,0.000823
53475000,0.0324,0.013523,0.002678,0.000431,0.000353
53476000,0.0324,0.013523,0.002678,0.000431,0.000705
53477000,0.0324,0.013523,0.002678,0.000431,0.000470
53478000,0.0324,0.013523,0.002678,0.000431,0.000470
53479000,0.0324,0.013523,0.002678,0.000431,0.000353
53480000,0.0324,0.013523,0.002678,0.000431,0.000588
53481000,0.0324,0.013523,0.002678,0.000431,0.000353
53482000,0.0324,0.013523,0.002678,0.000431,0.000588
53483000,0.0324,0.013523,0.002678,0.000431,0.000353
53484000,0.0324,0.013523,0.002678,0.000431,0.000588
53485000,0.0324,0.013523,0.002678,0.000431,0.000353
53486000,0.0324,0.013523,0.002678,0.000431,0.000588
53487000,0.0324,0.013523,0.002678,0.000431,0.000353
53488000,0.0324,0.013523,0.002678,0.000431,0.000588
53489000,0.0324,0.013523,0.002678,0.000431,0.000353
53490000,0.0324,0.013523,0.002678,0.000431,0.000588
53491000,0.0324,0.013523,0.002678,0.000431,0.000353
53492000,0.0324,0.013523,0.002678,0.000431,0.000588
53493000,0.0324,0.013523,0.002678,0.000431,0.000353
53494000,0.0324,0.013523,0.002678,0.000431,0.000588
53495000,0.0324,0.013523,0.002678,0.000431,0.000353
53496000,0.0324,0.013523,0.002678,0.000431,0.000588
53497000,0.0324,0.013523,0.002678,0.000431,0.000470
53498000,0.0324,0.013523,0.002678,0.000431,0.000470
53499000,0.0324,0.013523,0.002678,0.000431,0.000353
53500000,0.0324,0.013523,0.002678,0.000431,0.000588
53501000,0.0324,0.013523,0.002678,0.000431,0.000353
53502000,0.0324,0.013523,0.002678,0.000431,0.000588
53503000,0.0324,0.013523,0.002678,0.000431,0.000353
53504000,0.0324,0.013523,0.002678,0.000431,0.000705
53505000,0.0324,0.013523,0.002678,0.000431,0.000470
53506000,0.0324,0.013523,0.002678,0.000431,0.000470
53507000,0.0324,0.013523,0.002678,0.000431,0.000588
53508000,0.0324,0.013523,0.002678,0.000431,0.000470
53509000,0.0324,0.013523,0.002678,0.000431,0.000470
53510000,0.0324,0.013523,0.002678,0.000431,0.000588
53511000,0.0324,0.013523,0.002678,0.000431,0.000470
53512000,0.0324,0.013523,0.002678,0.000431,0.000705
53513000,0.0324,0.013523,0.002678,0.000431,0.000353
53514000,0.0324,0.013523,0.002678,0.000431,0.000705
53515000,0.0324,0.013523,0.002678,0.000431,0.000588
53516000,0.0324,0.013523,0.002678,0.000431,0.000470
53517000,0.0324,0.013523,0.002678,0.000431,0.000705
53518000,0.0324,0.013523,0.002678,0.000431,0.000353
53519000,0.0324,0.013523,0.002678,0.000431,0.000588
53520000,0.0324,0.013523,0.002678,0.000431,0.000470
53521000,0.0324,0.013523,0.002678,0.000431,0.000588
53522000,0.0324,0.013523,0.002678,0.000431,0.000588
53523000,0.0324,0.013523,0.002678,0.000431,0.000470
53524000,0.0324,0.013523,0.002678,0.000431,0.000705
53525000,0.0324,0.013523,0.002678,0.000431,0.000353
53526000,0.0324,0.013523,0.002678,0.000431,0.000588
53527000,0.0324,0.013523,0.002678,0.000431,0.000470
53528000,0.0324,0.013523,0.002678,0.000431,0.000470
53529000,0.0324,0.013523,0.002678,0.000431,0.000353
53530000,0.0324,0.013523,0.002678,0.000431,0.000588
53531000,0.0324,0.013523,0.002678,0.000431,0.000353
53532000,0.0324,0.013523,0.002678,0.000431,0.000588
53533000,0.0324,0.013523,0.002678,0.000431,0.000470
53534000,0.0324,0.013523,0.002678,0.000431,0.000588
53535000,0.0324,0.013523,0.002678,0.000431,0.000353
53536000,0.0324,0.013523,0.002678,0.000431,0.000588
53537000,0.0324,0.013523,0.002678,0.000431,0.000235
53538000,0.0324,0.013523,0.002678,0.000431,0.000588
53539000,0.0324,0.013523,0.002678,0.000431,0.000353
53540000,0.0324,0.013523,0.002678,0.000431,0.000588
53541000,0.0324,0.013523,0.002678,0.000431,0.000353
53542000,0.0324,0.013523,0.002678,0.000431,0.000588
53543000,0.0324,0.013523,0.002678,0.000431,0.000353
53544000,0.0324,0.013523,0.002678,0.000431,0.000588
53545000,0.0324,0.013523,0.002678,0.000431,0.000353
53546000,0.0324,0.013523,0.002678,0.000431,0.000470
53547000,0.0324,0.013523,0.002678,0.000431,0.000470
53548000,0.0324,0.013523,0.002678,0.000431,0.000470
53549000,0.0324,0.013523,0.002678,0.000431,0.000470
53550000,0.0324,0.013523,0.002678,0.000431,0.000470
53551000,0.0324,0.013523,0.002678,0.000431,0.000470
53552000,0.0324,0.013523,0.002678,0.000431,0.000588
53553000,0.0324,0.013523,0.002678,0.000431,0.000470
53554000,0.0324,0.013523,0.002678,0.000431,0.000705
53555000,0.0324,0.013523,0.002678,0.000431,0.000353
53556000,0.0324,0.013523,0.002678,0.000431,0.000705
53557000,0.0324,0.013523,0.002678,0.000431,0.000470
53558000,0.0324,0.013523,0.002678,0.000431,0.000470
53559000,0.0324,0.013523,0.002678,0.000431,0.000470
53560000,0.0324,0.013523,0.002678,0.000431,0.000470
53561000,0.0324,0.013523,0.002678,0.000431,0.000470
53562000,0.0324,0.013523,0.002678,0.000431,0.000470
53563000,0.0324,0.013523,0.002678,0.000431,0.000470
53564000,0.0324,0.013523,0.002678,0.000431,0.000470
53565000,0.0324,0.013523,0.002678,0.000431,0.000470
53566000,0.0324,0.013523,0.002678,0.000431,0.000588
53567000,0.0324,0.013523,0.002678,0.000431,0.000470
53568000,0.0324,0.013523,0.002678,0.000431,0.000588
53569000,0.0324,0.013523,0.002678,0.000431,0.000588
53570000,0.0324,0.013523,0.002678,0.000431,0.000470
53571000,0.0324,0.013523,0.002678,0.000431,0.000588
53572000,0.0324,0.013523,0.002678,0.000431,0.000470
53573000,0.0324,0.013523,0.002678,0.000431,0.000470
53574000,0.0324,0.013523,0.002678,0.000431,0.000470
53575000,0.0324,0.013523,0.002678,0.000431,0.000588
53576000,0.0324,0.013523,0.002678,0.000431,0.000470
53577000,0.0324,0.013523,0.002678,0.000431,0.000705
53578000,0.0324,0.013523,0.002678,0.000431,0.000353
53579000,0.0324,0.013523,0.002678,0.000431,0.000588
53580000,0.0324,0.013523,0.002678,0.000431,0.000353
53581000,0.0324,0.013523,0.002678,0.000431,0.000588
53582000,0.0324,0.013523,0.002678,0.000431,0.000353
53583000,0.0324,0.013523,0.002678,0.000431,0.000588
53584000,0.0324,0.013523,0.002678,0.000431,0.000353
53585000,0.0324,0.013523,0.002678,0.000431,0.000588
53586000,0.0324,0.013523,0.002678,0.000431,0.000353
53587000,0.0324,0.013523,0.002678,0.000431,0.000588
53588000,0.0324,0.013523,0.002678,0.000431,0.000353
53589000,0.0324,0.013523,0.002678,0.000431,0.000588
53590000,0.0324,0.013523,0.002678,0.000431,0.000353
53591000,0.0324,0.013523,0.002678,0.000431,0.000470
53592000,0.0324,0.013523,0.002678,0.000431,0.000470
53593000,0.0324,0.013523,0.002678,0.000431,0.000470
53594000,0.0324,0.013523,0.002678,0.000431,0.000470
53595000,0.0324,0.013523,0.002678,0.000431,0.000588
53596000,0.0324,0.013523,0.002678,0.000431,0.000470
53597000,0.0324,0.013523,0.002678,0.000431,0.000705
53598000,0.0324,0.013523,0.002678,0.000431,0.000353
53599000,0.0324,0.013523,0.002678,0.000431,0.000588
53600000,0.0324,0.013523,0.002678,0.000431,0.000353
53601000,0.0324,0.013523,0.002678,0.000431,0.000588
53602000,0.0324,0.013523,0.002678,0.000431,0.000353
53603000,0.0324,0.013523,0.002678,0.000431,0.000588
53604000,0.0324,0.013523,0.002678,0.000431,0.000353
53605000,0.0324,0.013523,0.002678,0.000431,0.000588
53606000,0.0324,0.013523,0.002678,0.000431,0.000353
53607000,0.0324,0.013523,0.002678,0.000431,0.000588
53608000,0.0324,0.013523,0.002678,0.000431,0.000353
53609000,0.0324,0.013523,0.002678,0.000431,0.000588
53610000,0.0324,0.013523,0.002678,0.000431,0.000353
53611000,0.0324,0.013523,0.002678,0.000431,0.000588
53612000,0.0324,0.013523,0.002678,0.000431,0.000353
53613000,0.0324,0.013523,0.002678,0.000431,0.000588
53614000,0.0324,0.013523,0.002678,0.000431,0.000353
53615000,0.0324,0.013523,0.002678,0.000431,0.000588
53616000,0.0324,0.013523,0.002678,0.000431,0.000353
53617000,0.0324,0.013523,0.002678,0.000431,0.000470
53618000,0.0324,0.013523,0.002678,0.000431,0.000470
53619000,0.0324,0.013523,0.002678,0.000431,0.000470
53620000,0.0324,0.013523,0.002678,0.000431,0.000470
53621000,0.0324,0.013523,0.002678,0.000431,0.000588
53622000,0.0324,0.013523,0.002678,0.000431,0.000470
53623000,0.0324,0.013523,0.002678,0.000431,0.000588
53624000,0.0324,0.013523,0.002678,0.000431,0.000353
53625000,0.0324,0.013523,0.002678,0.000431,0.000705
53626000,0.0324,0.013523,0.002678,0.000431,0.000353
53627000,0.0324,0.013523,0.002678,0.000431,0.000588
53628000,0.0324,0.013523,0.002678,0.000431,0.000705
53629000,0.0324,0.013523,0.002678,0.000431,0.000470
53630000,0.0324,0.013523,0.002678,0.000431,0.000705
53631000,0.0324,0.013523,0.002678,0.000431,0.000353
53632000,0.0324,0.013523,0.002678,0.000431,0.000588
53633000,0.0324,0.013523,0.002678,0.000431,0.000353
53634000,0.0324,0.013523,0.002678,0.000431,0.000588
53635000,0.0324,0.013523,0.002678,0.000431,0.000353
53636000,0.0324,0.013523,0.002678,0.000431,0.000588
53637000,0.0324,0.013523,0.002678,0.000431,0.000353
53638000,0.0324,0.013523,0.002678,0.000431,0.000588
53639000,0.0324,0.013523,0.002678,0.000431,0.000353
53640000,0.0324,0.013523,0.002678,0.000431,0.000705
53641000,0.0324,0.013523,0.002678,0.000431,0.000588
53642000,0.0324,0.013523,0.002678,0.000431,0.000470
53643000,0.0324,0.013523,0.002678,0.000431,0.000588
53644000,0.0324,0.013523,0.002678,0.000431,0.000353
53645000,0.0324,0.013523,0.002678,0.000431,0.000588
53646000,0.0324,0.013523,0.002678,0.000431,0.000353
53647000,0.0324,0.013523,0.002678,0.000431,0.000588
53648000,0.0324,0.013523,0.002678,0.000431,0.000353
53649000,0.0324,0.013523,0.002678,0.000431,0.000705
53650000,0.0324,0.013523,0.002678,0.000431,0.000353
53651000,0.0324,0.013523,0.002678,0.000431,0.000588
53652000,0.0324,0.013523,0.002678,0.000431,0.000470
53653000,0.0324,0.013523,0.002678,0.000431,0.000588
53654000,0.0324,0.013523,0.002678,0.000431,0.000470
53655000,0.0324,0.013523,0.002678,0.000431,0.000470
53656000,0.0324,0.013523,0.002678,0.000431,0.000588
53657000,0.0324,0.013523,0.002678,0.000431,0.000470
53658000,0.0324,0.013523,0.002678,0.000431,0.000705
53659000,0.0324,0.013523,0.002678,0.000431,0.000353
53660000,0.0324,0.013523,0.002678,0.000431,0.000705
53661000,0.0324,0.013523,0.002678,0.000431,0.000588
53662000,0.0324,0.013523,0.002678,0.000431,0.000470
53663000,0.0324,0.013523,0.002678,0.000431,0.000705
53664000,0.0324,0.013523,0.002678,0.000431,0.000353
53665000,0.0324,0.013523,0.002678,0.000431,0.000588
53666000,0.0324,0.013523,0.002678,0.000431,0.000353
53667000,0.0324,0.013523,0.002678,0.000431,0.000705
53668000,0.0324,0.013523,0.002678,0.000431,0.000588
53669000,0.0324,0.013523,0.002678,0.000431,0.000470
53670000,0.0324,0.013523,0.002678,0.000431,0.000588
53671000,0.0324,0.013523,0.002678,0.000431,0.000353
53672000,0.0324,0.013523,0.002678,0.000431,0.000588
53673000,0.0324,0.013523,0.002678,0.000431,0.000353
53674000,0.0324,0.013523,0.002678,0.000431,0.000705
53675000,0.0324,0.013523,0.002678,0.000431,0.000353
53676000,0.0324,0.013523,0.002678,0.000431,0.000705
53677000,0.0324,0.013523,0.002678,0.000431,0.000588
53678000,0.0324,0.013523,0.002678,0.000431,0.000470
53679000,0.0324,0.013523,0.002678,0.000431,0.000588
53680000,0.0324,0.013523,0.002678,0.000431,0.000353
53681000,0.0324,0.013523,0.002678,0.000431,0.000470
53682000,0.0324,0.013523,0.002678,0.000431,0.000470
53683000,0.0324,0.013523,0.002678,0.000431,0.000470
53684000,0.0324,0.013523,0.002678,0.000431,0.000353
53685000,0.0324,0.013523,0.002678,0.000431,0.000470
53686000,0.0324,0.013523,0.002678,0.000431,0.000588
53687000,0.0324,0.013523,0.002678,0.000431,0.000353
53688000,0.0324,0.013523,0.002678,0.000431,0.000470
53689000,0.0324,0.013523,0.002678,0.000431,0.000470
53690000,0.0324,0.013523,0.002678,0.000431,0.000470
53691000,0.0324,0.013523,0.002678,0.000431,0.000470
53692000,0.0324,0.013523,0.002678,0.000431,0.000588
53693000,0.0324,0.013523,0.002678,0.000431,0.000353
53694000,0.0324,0.013523,0.002678,0.000431,0.000705
53695000,0.0324,0.013523,0.002678,0.000431,0.000588
53696000,0.0324,0.013523,0.002678,0.000431,0.000470
53697000,0.0324,0.013523,0.002678,0.000431,0.000588
53698000,0.0324,0.013523,0.002678,0.000431,0.000353
53699000,0.0324,0.013523,0.002678,0.000431,0.000588
53700000,0.0324,0.013523,0.002678,0.000431,0.000353
53701000,0.0324,0.013523,0.002678,0.000431,0.000588
53702000,0.0324,0.013523,0.002678,0.000431,0.000353
53703000,0.0324,0.013523,0.002678,0.000431,0.000470
53704000,0.0324,0.013523,0.002678,0.000431,0.000470
53705000,0.0324,0.013523,0.002678,0.000431,0.000470
53706000,0.0324,0.013523,0.002678,0.000431,0.000470
53707000,0.0324,0.013523,0.002678,0.000431,0.000353
53708000,0.0324,0.013523,0.002678,0.000431,0.000588
53709000,0.0324,0.013523,0.002678,0.000431,0.000353
53710000,0.0324,0.013523,0.002678,0.000431,0.000705
53711000,0.0324,0.013523,0.002678,0.000431,0.000588
53712000,0.0324,0.013523,0.002678,0.000431,0.000470
53713000,0.0324,0.013523,0.002678,0.000431,0.000588
53714000,0.0324,0.013523,0.002678,0.000431,0.000353
53715000,0.0324,0.013523,0.002678,0.000431,0.000588
53716000,0.0324,0.013523,0.002678,0.000431,0.000353
53717000,0.0324,0.013523,0.002678,0.000431,0.000588
53718000,0.0324,0.013523,0.002678,0.000431,0.000353
53719000,0.0324,0.013523,0.002678,0.000431,0.000588
53720000,0.0324,0.013523,0.002678,0.000431,0.000353
53721000,0.0324,0.013523,0.002678,0.000431,0.000470
53722000,0.0324,0.013523,0.002678,0.000431,0.000470
53723000,0.0324,0.013523,0.002678,0.000431,0.000470
53724000,0.0324,0.013523,0.002678,0.000431,0.000470
53725000,0.0324,0.013523,0.002678,0.000431,0.000353
53726000,0.0324,0.013523,0.002678,0.000431,0.000588
53727000,0.0324,0.013523,0.002678,0.000431,0.000353
53728000,0.0324,0.013523,0.002678,0.000431,0.000588
53729000,0.0324,0.013523,0.002678,0.000431,0.000353
53730000,0.0324,0.013523,0.002678,0.000431,0.000705
53731000,0.0324,0.013523,0.002678,0.000431,0.000470
53732000,0.0324,0.013523,0.002678,0.000431,0.000470
53733000,0.0324,0.013523,0.002678,0.000431,0.000470
53734000,0.0324,0.013523,0.002678,0.000431,0.000470
53735000,0.0324,0.013523,0.002678,0.000431,0.000588
53736000,0.0324,0.013523,0.002678,0.000431,0.000470
53737000,0.0324,0.013523,0.002678,0.000431,0.000588
53738000,0.0324,0.013523,0.002678,0.000431,0.000353
53739000,0.0324,0.013523,0.002678,0.000431,0.000588
53740000,0.0324,0.013523,0.002678,0.000431,0.000353
53741000,0.0324,0.013523,0.002678,0.000431,0.000470
53742000,0.0324,0.013523,0.002678,0.000431,0.000470
53743000,0.0324,0.013523,0.002678,0.000431,0.000470
53744000,0.0324,0.013523,0.002678,0.000431,0.000705
53745000,0.0324,0.013523,0.002678,0.000431,0.000353
53746000,0.0324,0.013523,0.002678,0.000431,0.000470
53747000,0.0324,0.013523,0.002678,0.000431,0.000470
53748000,0.0324,0.013523,0.002678,0.000431,0.000588
53749000,0.0324,0.013523,0.002678,0.000431,0.000353
53750000,0.0324,0.013523,0.002678,0.000431,0.000588
53751000,0.0324,0.013523,0.002678,0.000431,0.000353
53752000,0.0324,0.013523,0.002678,0.000431,0.000705
53753000,0.0324,0.013523,0.002678,0.000431,0.000470
53754000,0.0324,0.013523,0.002678,0.000431,0.000470
53755000,0.0324,0.013523,0.002678,0.000431,0.000470
53756000,0.0324,0.013523,0.002678,0.000431,0.000470
53757000,0.0324,0.013523,0.002678,0.000431,0.000470
53758000,0.0324,0.013523,0.002678,0.000431,0.000470
53759000,0.0324,0.013523,0.002678,0.000431,0.000470
53760000,0.0324,0.013523,0.002678,0.000431,0.000470
53761000,0.0324,0.013523,0.002678,0.000431,0.000470
53762000,0.0324,0.013523,0.002678,0.000431,0.000470
53763000,0.0324,0.013523,0.002678,0.000431,0.000353
53764000,0.0324,0.013523,0.002678,0.000431,0.000588
53765000,0.0324,0.013523,0.002678,0.000431,0.000353
53766000,0.0324,0.013523,0.002678,0.000431,0.000588
53767000,0.0324,0.013523,0.002678,0.000431,0.000353
53768000,0.0324,0.013523,0.002678,0.000431,0.000588
53769000,0.0324,0.013523,0.002678,0.000431,0.000353
53770000,0.0324,0.013523,0.002678,0.000431,0.000470
53771000,0.0324,0.013523,0.002678,0.000431,0.000470
53772000,0.0324,0.013523,0.002678,0.000431,0.000588
53773000,0.0324,0.013523,0.002678,0.000431,0.000353
53774000,0.0324,0.013523,0.002678,0.000431,0.000705
53775000,0.0324,0.013523,0.002678,0.000431,0.000353
53776000,0.0324,0.013523,0.002678,0.000431,0.000470
53777000,0.0324,0.013523,0.002678,0.000431,0.000470
53778000,0.0324,0.013523,0.002678,0.000431,0.000470
53779000,0.0324,0.013523,0.002678,0.000431,0.000470
53780000,0.0324,0.013523,0.002678,0.000431,0.000470
53781000,0.0324,0.013523,0.002678,0.000431,0.000470
53782000,0.0324,0.013523,0.002678,0.000431,0.000470
53783000,0.0324,0.013523,0.002678,0.000431,0.000353
53784000,0.0324,0.013523,0.002678,0.000431,0.000588
53785000,0.0324,0.013523,0.002678,0.000431,0.000353
53786000,0.0324,0.013523,0.002678,0.000431,0.000588
53787000,0.0324,0.013523,0.002678,0.000431,0.000470
53788000,0.0324,0.013523,0.002678,0.000431,0.000470
53789000,0.0324,0.013523,0.002678,0.000431,0.000470
53790000,0.0324,0.013523,0.002678,0.000431,0.000470
53791000,0.0324,0.013523,0.002678,0.000431,0.000588
53792000,0.0324,0.013523,0.002678,0.000431,0.000353
53793000,0.0324,0.013523,0.002678,0.000431,0.000588
53794000,0.0324,0.013523,0.002678,0.000431,0.000353
53795000,0.0324,0.013523,0.002678,0.000431,0.000588
53796000,0.0324,0.013523,0.002678,0.000431,0.000353
53797000,0.0324,0.013523,0.002678,0.000431,0.000705
53798000,0.0324,0.013523,0.002678,0.000431,0.000588
53799000,0.0324,0.013523,0.002678,0.000431,0.000470
53800000,0.0324,0.013523,0.002678,0.000431,0.000705
53801000,0.0324,0.013523,0.002678,0.000431,0.000353
53802000,0.0324,0.013523,0.002678,0.000431,0.000588
53803000,0.0324,0.013523,0.002678,0.000431,0.000470
53804000,0.0324,0.013523,0.002678,0.000431,0.000588
53805000,0.0324,0.013523,0.002678,0.000431,0.000588
53806000,0.0324,0.013523,0.002678,0.000431,0.000470
53807000,0.0324,0.013523,0.002678,0.000431,0.000588
53808000,0.0324,0.013523,0.002678,0.000431,0.000353
53809000,0.0324,0.013523,0.002678,0.000431,0.000588
53810000,0.0324,0.013523,0.002678,0.000431,0.000353
53811000,0.0324,0.013523,0.002678,0.000431,0.000588
53812000,0.0324,0.013523,0.002678,0.000431,0.000353
53813000,0.0324,0.013523,0.002678,0.000431,0.000588
53814000,0.0324,0.013523,0.002678,0.000431,0.000353
53815000,0.0324,0.013523,0.002678,0.000431,0.000588
53816000,0.0324,0.013523,0.002678,0.000431,0.000353
53817000,0.0324,0.013523,0.002678,0.000431,0.000588
53818000,0.0324,0.013523,0.002678,0.000431,0.000353
53819000,0.0324,0.013523,0.002678,0.000431,0.000588
53820000,0.0324,0.013523,0.002678,0.000431,0.000353
53821000,0.0324,0.013523,0.002678,0.000431,0.000588
53822000,0.0324,0.013523,0.002678,0.000431,0.000353
53823000,0.0324,0.013523,0.002678,0.000431,0.000588
53824000,0.0324,0.013523,0.002678,0.000431,0.000470
53825000,0.0324,0.013523,0.002678,0.000431,0.000353
53826000,0.0324,0.013523,0.002678,0.000431,0.000588
53827000,0.0324,0.013523,0.002678,0.000431,0.000588
53828000,0.0324,0.013523,0.002678,0.000431,0.000470
53829000,0.0324,0.013523,0.002678,0.000431,0.000705
53830000,0.0324,0.013523,0.002678,0.000431,0.000470
53831000,0.0324,0.013523,0.002678,0.000431,0.000588
53832000,0.0324,0.013523,0.002678,0.000431,0.000353
53833000,0.0324,0.013523,0.002678,0.000431,0.000823
53834000,0.0324,0.013523,0.002678,0.000431,0.000353
53835000,0.0324,0.013523,0.002678,0.000431,0.000705
53836000,0.0324,0.013523,0.002678,0.000431,0.000353
53837000,0.0324,0.013523,0.002678,0.000431,0.000705
53838000,0.0324,0.013523,0.002678,0.000431,0.000588
53839000,0.0324,0.013523,0.002678,0.000431,0.000470
53840000,0.0324,0.013523,0.002678,0.000431,0.000470
53841000,0.0324,0.013523,0.002678,0.000431,0.000353
53842000,0.0324,0.013523,0.002678,0.000431,0.000823
53843000,0.0324,0.013523,0.002678,0.000431,0.000353
53844000,0.0324,0.013523,0.002678,0.000431,0.000470
53845000,0.0324,0.013523,0.002678,0.000431,0.000470
53846000,0.0324,0.013523,0.002678,0.000431,0.000470
53847000,0.0324,0.013523,0.002678,0.000431,0.000470
53848000,0.0324,0.013523,0.002678,0.000431,0.000470
53849000,0.0324,0.013523,0.002678,0.000431,0.000470
53850000,0.0324,0.013523,0.002678,0.000431,0.000470
53851000,0.0324,0.013523,0.002678,0.000431,0.000470
53852000,0.0324,0.013523,0.002678,0.000431,0.000470
53853000,0.0324,0.013523,0.002678,0.000431,0.000353
53854000,0.0324,0.013523,0.002678,0.000431,0.000588
53855000,0.0324,0.013523,0.002678,0.000431,0.000353
53856000,0.0324,0.013523,0.002678,0.000431,0.000588
53857000,0.0324,0.013523,0.002678,0.000431,0.000353
53858000,0.0324,0.013523,0.002678,0.000431,0.000588
53859000,0.0324,0.013523,0.002678,0.000431,0.000470
53860000,0.0324,0.013523,0.002678,0.000431,0.000470
53861000,0.0324,0.013523,0.002678,0.000431,0.000470
53862000,0.0324,0.013523,0.002678,0.000431,0.000470
53863000,0.0324,0.013523,0.002678,0.000431,0.000470
53864000,0.0324,0.013523,0.002678,0.000431,0.000588
53865000,0.0324,0.013523,0.002678,0.000431,0.000470
53866000,0.0324,0.013523,0.002678,0.000431,0.000705
53867000,0.0324,0.013523,0.002678,0.000431,0.000353
53868000,0.0324,0.013523,0.002678,0.000431,0.000588
53869000,0.0324,0.013523,0.002678,0.000431,0.000353
53870000,0.0324,0.013523,0.002678,0.000431,0.000470
53871000,0.0324,0.013523,0.002678,0.000431,0.000470
53872000,0.0324,0.013523,0.002678,0.000431,0.000588
53873000,0.0324,0.013523,0.002678,0.000431,0.000470
53874000,0.0324,0.013523,0.002678,0.000431,0.000588
53875000,0.0324,0.013523,0.002678,0.000431,0.000470
53876000,0.0324,0.013523,0.002678,0.000431,0.000470
53877000,0.0324,0.013523,0.002678,0.000431,0.000470
53878000,0.0324,0.013523,0.002678,0.000431,0.000470
53879000,0.0324,0.013523,0.002678,0.000431,0.000353
53880000,0.0324,0.013523,0.002678,0.000431,0.000588
53881000,0.0324,0.013523,0.002678,0.000431,0.000470
53882000,0.0324,0.013523,0.002678,0.000431,0.000470
53883000,0.0324,0.013523,0.002678,0.000431,0.000470
53884000,0.0324,0.013523,0.002678,0.000431,0.000470
53885000,0.0324,0.013523,0.002678,0.000431,0.000470
53886000,0.0324,0.013523,0.002678,0.000431,0.000470
53887000,0.0324,0.013523,0.002678,0.000431,0.000470
53888000,0.0324,0.013523,0.002678,0.000431,0.000470
53889000,0.0324,0.013523,0.002678,0.000431,0.000470
53890000,0.0324,0.013523,0.002678,0.000431,0.000470
53891000,0.0324,0.013523,0.002678,0.000431,0.000470
53892000,0.0324,0.013523,0.002678,0.000431,0.000470
53893000,0.0324,0.013523,0.002678,0.000431,0.000470
53894000,0.0324,0.013523,0.002678,0.000431,0.000470
53895000,0.0324,0.013523,0.002678,0.000431,0.000470
53896000,0.0324,0.013523,0.002678,0.000431,0.000470
53897000,0.0324,0.013523,0.002678,0.000431,0.000470
53898000,0.0324,0.013523,0.002678,0.000431,0.000470
53899000,0.0324,0.013523,0.002678,0.000431,0.000470
53900000,0.0324,0.013523,0.002678,0.000431,0.000353
53901000,0.0324,0.013523,0.002678,0.000431,0.000588
53902000,0.0324,0.013523,0.002678,0.000431,0.000353
53903000,0.0324,0.013523,0.002678,0.000431,0.000588
53904000,0.0324,0.013523,0.002678,0.000431,0.000353
53905000,0.0324,0.013523,0.002678,0.000431,0.000588
53906000,0.0324,0.013523,0.002678,0.000431,0.000353
53907000,0.0324,0.013523,0.002678,0.000431,0.000588
53908000,0.0324,0.013523,0.002678,0.000431,0.000353
53909000,0.0324,0.013523,0.002678,0.000431,0.000588
53910000,0.0324,0.013523,0.002678,0.000431,0.000353
53911000,0.0324,0.013523,0.002678,0.000431,0.000588
53912000,0.0324,0.013523,0.002678,0.000431,0.000353
53913000,0.0324,0.013523,0.002678,0.000431,0.000588
53914000,0.0324,0.013523,0.002678,0.000431,0.000353
53915000,0.0324,0.013523,0.002678,0.000431,0.000588
53916000,0.0324,0.013523,0.002678,0.000431,0.000353
53917000,0.0324,0.013523,0.002678,0.000431,0.000588
53918000,0.0324,0.013523,0.002678,0.000431,0.000353
53919000,0.0324,0.013523,0.002678,0.000431,0.000588
53920000,0.0324,0.013523,0.002678,0.000431,0.000353
53921000,0.0324,0.013523,0.002678,0.000431,0.000470
53922000,0.0324,0.013523,0.002678,0.000431,0.000353
53923000,0.0324,0.013523,0.002678,0.000431,0.000588
53924000,0.0324,0.013523,0.002678,0.000431,0.000353
53925000,0.0324,0.013523,0.002678,0.000431,0.000588
53926000,0.0324,0.013523,0.002678,0.000431,0.000470
53927000,0.0324,0.013523,0.002678,0.000431,0.000705
53928000,0.0324,0.013523,0.002678,0.000431,0.000235
53929000,0.0324,0.013523,0.002678,0.000431,0.000705
53930000,0.0324,0.013523,0.002678,0.000431,0.000353
53931000,0.0324,0.013523,0.002678,0.000431,0.000588
53932000,0.0324,0.013523,0.002678,0.000431,0.000353
53933000,0.0324,0.013523,0.002678,0.000431,0.000823
53934000,0.0324,0.013523,0.002678,0.000431,0.000353
53935000,0.0324,0.013523,0.002678,0.000431,0.000588
53936000,0.0324,0.013523,0.002678,0.000431,0.000353
53937000,0.0324,0.013523,0.002678,0.000431,0.000588
53938000,0.0324,0.013523,0.002678,0.000431,0.000353
53939000,0.0324,0.013523,0.002678,0.000431,0.000705
53940000,0.0324,0.013523,0.002678,0.000431,0.000470
53941000,0.0324,0.013523,0.002678,0.000431,0.000353
53942000,0.0324,0.013523,0.002678,0.000431,0.000588
53943000,0.0324,0.013523,0.002678,0.000431,0.000353
53944000,0.0324,0.013523,0.002678,0.000431,0.000588
53945000,0.0324,0.013523,0.002678,0.000431,0.000353
53946000,0.0324,0.013523,0.002678,0.000431,0.000588
53947000,0.0324,0.013523,0.002678,0.000431,0.000353
53948000,0.0324,0.013523,0.002678,0.000431,0.000470
53949000,0.0324,0.013523,0.002678,0.000431,0.000470
53950000,0.0324,0.013523,0.002678,0.000431,0.000470
53951000,0.0324,0.013523,0.002678,0.000431,0.000470
53952000,0.0324,0.013523,0.002678,0.000431,0.000353
53953000,0.0324,0.013523,0.002678,0.000431,0.000705
53954000,0.0324,0.013523,0.002678,0.000431,0.000588
53955000,0.0324,0.013523,0.002678,0.000431,0.000470
53956000,0.0324,0.013523,0.002678,0.000431,0.000705
53957000,0.0324,0.013523,0.002678,0.000431,0.000353
53958000,0.0324,0.013523,0.002678,0.000431,0.000705
53959000,0.0324,0.013523,0.002678,0.000431,0.000588
53960000,0.0324,0.013523,0.002678,0.000431,0.000470
53961000,0.0324,0.013523,0.002678,0.000431,0.000588
53962000,0.0324,0.013523,0.002678,0.000431,0.000353
53963000,0.0324,0.013523,0.002678,0.000431,0.000588
53964000,0.0324,0.013523,0.002678,0.000431,0.000353
53965000,0.0324,0.013523,0.002678,0.000431,0.000588
53966000,0.0324,0.013523,0.002678,0.000431,0.000353
53967000,0.0324,0.013523,0.002678,0.000431,0.000470
53968000,0.0324,0.013523,0.002678,0.000431,0.000470
53969000,0.0324,0.013523,0.002678,0.000431,0.000470
53970000,0.0324,0.013523,0.002678,0.000431,0.000705
53971000,0.0324,0.013523,0.002678,0.000431,0.000470
53972000,0.0324,0.013523,0.002678,0.000431,0.000470
53973000,0.0324,0.013523,0.002678,0.000431,0.000353
53974000,0.0324,0.013523,0.002678,0.000431,0.000588
53975000,0.0324,0.013523,0.002678,0.000431,0.000353
53976000,0.0324,0.013523,0.002678,0.000431,0.000470
53977000,0.0324,0.013523,0.002678,0.000431,0.000470
53978000,0.0324,0.013523,0.002678,0.000431,0.000588
53979000,0.0324,0.013523,0.002678,0.000431,0.000353
53980000,0.0324,0.013523,0.002678,0.000431,0.000588
53981000,0.0324,0.013523,0.002678,0.000431,0.000353
53982000,0.0324,0.013523,0.002678,0.000431,0.000470
53983000,0.0324,0.013523,0.002678,0.000431,0.000470
53984000,0.0324,0.013523,0.002678,0.000431,0.000588
53985000,0.0324,0.013523,0.002678,0.000431,0.000353
53986000,0.0324,0.013523,0.002678,0.000431,0.000588
53987000,0.0324,0.013523,0.002678,0.000431,0.000353
53988000,0.0324,0.013523,0.002678,0.000431,0.000705
53989000,0.0324,0.013523,0.002678,0.000431,0.000470
53990000,0.0324,0.013523,0.002678,0.000431,0.000353
53991000,0.0324,0.013523,0.002678,0.000431,0.000588
53992000,0.0324,0.013523,0.002678,0.000431,0.000353
53993000,0.0324,0.013523,0.002678,0.000431,0.000470
53994000,0.0324,0.013523,0.002678,0.000431,0.000470
53995000,0.0324,0.013523,0.002678,0.000431,0.000470
53996000,0.0324,0.013523,0.002678,0.000431,0.000470
53997000,0.0324,0.013523,0.002678,0.000431,0.000470
53998000,0.0324,0.013523,0.002678,0.000431,0.000588
53999000,0.0324,0.013523,0.002678,0.000431,0.000588
