Cycle,Area(mm^2),PeakDynamic(W),SubthresholdLeakage(W),GateLeakage(W),RunTimeDynamic(W)
28000000,0.0324,0.013523,0.002678,0.000431,0.000588
28001000,0.0324,0.013523,0.002678,0.000431,0.000353
28002000,0.0324,0.013523,0.002678,0.000431,0.000588
28003000,0.0324,0.013523,0.002678,0.000431,0.000353
28004000,0.0324,0.013523,0.002678,0.000431,0.000588
28005000,0.0324,0.013523,0.002678,0.000431,0.000353
28006000,0.0324,0.013523,0.002678,0.000431,0.000588
28007000,0.0324,0.013523,0.002678,0.000431,0.000353
28008000,0.0324,0.013523,0.002678,0.000431,0.000470
28009000,0.0324,0.013523,0.002678,0.000431,0.000470
28010000,0.0324,0.013523,0.002678,0.000431,0.000353
28011000,0.0324,0.013523,0.002678,0.000431,0.000588
28012000,0.0324,0.013523,0.002678,0.000431,0.000353
28013000,0.0324,0.013523,0.002678,0.000431,0.000588
28014000,0.0324,0.013523,0.002678,0.000431,0.000470
28015000,0.0324,0.013523,0.002678,0.000431,0.000588
28016000,0.0324,0.013523,0.002678,0.000431,0.000353
28017000,0.0324,0.013523,0.002678,0.000431,0.000470
28018000,0.0324,0.013523,0.002678,0.000431,0.000353
28019000,0.0324,0.013523,0.002678,0.000431,0.000588
28020000,0.0324,0.013523,0.002678,0.000431,0.000353
28021000,0.0324,0.013523,0.002678,0.000431,0.000588
28022000,0.0324,0.013523,0.002678,0.000431,0.000353
28023000,0.0324,0.013523,0.002678,0.000431,0.000588
28024000,0.0324,0.013523,0.002678,0.000431,0.000353
28025000,0.0324,0.013523,0.002678,0.000431,0.000588
28026000,0.0324,0.013523,0.002678,0.000431,0.000353
28027000,0.0324,0.013523,0.002678,0.000431,0.000470
28028000,0.0324,0.013523,0.002678,0.000431,0.000470
28029000,0.0324,0.013523,0.002678,0.000431,0.000470
28030000,0.0324,0.013523,0.002678,0.000431,0.000470
28031000,0.0324,0.013523,0.002678,0.000431,0.000470
28032000,0.0324,0.013523,0.002678,0.000431,0.000470
28033000,0.0324,0.013523,0.002678,0.000431,0.000588
28034000,0.0324,0.013523,0.002678,0.000431,0.000470
28035000,0.0324,0.013523,0.002678,0.000431,0.000705
28036000,0.0324,0.013523,0.002678,0.000431,0.000353
28037000,0.0324,0.013523,0.002678,0.000431,0.000705
28038000,0.0324,0.013523,0.002678,0.000431,0.000470
28039000,0.0324,0.013523,0.002678,0.000431,0.000353
28040000,0.0324,0.013523,0.002678,0.000431,0.000470
28041000,0.0324,0.013523,0.002678,0.000431,0.000705
28042000,0.0324,0.013523,0.002678,0.000431,0.000470
28043000,0.0324,0.013523,0.002678,0.000431,0.000470
28044000,0.0324,0.013523,0.002678,0.000431,0.000353
28045000,0.0324,0.013523,0.002678,0.000431,0.000588
28046000,0.0324,0.013523,0.002678,0.000431,0.000353
28047000,0.0324,0.013523,0.002678,0.000431,0.000588
28048000,0.0324,0.013523,0.002678,0.000431,0.000353
28049000,0.0324,0.013523,0.002678,0.000431,0.000588
28050000,0.0324,0.013523,0.002678,0.000431,0.000353
28051000,0.0324,0.013523,0.002678,0.000431,0.000588
28052000,0.0324,0.013523,0.002678,0.000431,0.000353
28053000,0.0324,0.013523,0.002678,0.000431,0.000588
28054000,0.0324,0.013523,0.002678,0.000431,0.000353
28055000,0.0324,0.013523,0.002678,0.000431,0.000470
28056000,0.0324,0.013523,0.002678,0.000431,0.000470
28057000,0.0324,0.013523,0.002678,0.000431,0.000470
28058000,0.0324,0.013523,0.002678,0.000431,0.000470
28059000,0.0324,0.013523,0.002678,0.000431,0.000470
28060000,0.0324,0.013523,0.002678,0.000431,0.000470
28061000,0.0324,0.013523,0.002678,0.000431,0.000470
28062000,0.0324,0.013523,0.002678,0.000431,0.000470
28063000,0.0324,0.013523,0.002678,0.000431,0.000588
28064000,0.0324,0.013523,0.002678,0.000431,0.000470
28065000,0.0324,0.013523,0.002678,0.000431,0.000705
28066000,0.0324,0.013523,0.002678,0.000431,0.000353
28067000,0.0324,0.013523,0.002678,0.000431,0.000588
28068000,0.0324,0.013523,0.002678,0.000431,0.000353
28069000,0.0324,0.013523,0.002678,0.000431,0.000588
28070000,0.0324,0.013523,0.002678,0.000431,0.000353
28071000,0.0324,0.013523,0.002678,0.000431,0.000588
28072000,0.0324,0.013523,0.002678,0.000431,0.000353
28073000,0.0324,0.013523,0.002678,0.000431,0.000588
28074000,0.0324,0.013523,0.002678,0.000431,0.000353
28075000,0.0324,0.013523,0.002678,0.000431,0.000588
28076000,0.0324,0.013523,0.002678,0.000431,0.000353
28077000,0.0324,0.013523,0.002678,0.000431,0.000588
28078000,0.0324,0.013523,0.002678,0.000431,0.000470
28079000,0.0324,0.013523,0.002678,0.000431,0.000470
28080000,0.0324,0.013523,0.002678,0.000431,0.000470
28081000,0.0324,0.013523,0.002678,0.000431,0.000353
28082000,0.0324,0.013523,0.002678,0.000431,0.000588
28083000,0.0324,0.013523,0.002678,0.000431,0.000470
28084000,0.0324,0.013523,0.002678,0.000431,0.000588
28085000,0.0324,0.013523,0.002678,0.000431,0.000353
28086000,0.0324,0.013523,0.002678,0.000431,0.000588
28087000,0.0324,0.013523,0.002678,0.000431,0.000353
28088000,0.0324,0.013523,0.002678,0.000431,0.000588
28089000,0.0324,0.013523,0.002678,0.000431,0.000353
28090000,0.0324,0.013523,0.002678,0.000431,0.000588
28091000,0.0324,0.013523,0.002678,0.000431,0.000353
28092000,0.0324,0.013523,0.002678,0.000431,0.000588
28093000,0.0324,0.013523,0.002678,0.000431,0.000353
28094000,0.0324,0.013523,0.002678,0.000431,0.000705
28095000,0.0324,0.013523,0.002678,0.000431,0.000470
28096000,0.0324,0.013523,0.002678,0.000431,0.000588
28097000,0.0324,0.013523,0.002678,0.000431,0.000353
28098000,0.0324,0.013523,0.002678,0.000431,0.000588
28099000,0.0324,0.013523,0.002678,0.000431,0.000353
28100000,0.0324,0.013523,0.002678,0.000431,0.000588
28101000,0.0324,0.013523,0.002678,0.000431,0.000353
28102000,0.0324,0.013523,0.002678,0.000431,0.000588
28103000,0.0324,0.013523,0.002678,0.000431,0.000353
28104000,0.0324,0.013523,0.002678,0.000431,0.000470
28105000,0.0324,0.013523,0.002678,0.000431,0.000470
28106000,0.0324,0.013523,0.002678,0.000431,0.000470
28107000,0.0324,0.013523,0.002678,0.000431,0.000470
28108000,0.0324,0.013523,0.002678,0.000431,0.000470
28109000,0.0324,0.013523,0.002678,0.000431,0.000470
28110000,0.0324,0.013523,0.002678,0.000431,0.000353
28111000,0.0324,0.013523,0.002678,0.000431,0.000588
28112000,0.0324,0.013523,0.002678,0.000431,0.000353
28113000,0.0324,0.013523,0.002678,0.000431,0.000588
28114000,0.0324,0.013523,0.002678,0.000431,0.000353
28115000,0.0324,0.013523,0.002678,0.000431,0.000588
28116000,0.0324,0.013523,0.002678,0.000431,0.000353
28117000,0.0324,0.013523,0.002678,0.000431,0.000588
28118000,0.0324,0.013523,0.002678,0.000431,0.000353
28119000,0.0324,0.013523,0.002678,0.000431,0.000588
28120000,0.0324,0.013523,0.002678,0.000431,0.000353
28121000,0.0324,0.013523,0.002678,0.000431,0.000588
28122000,0.0324,0.013523,0.002678,0.000431,0.000353
28123000,0.0324,0.013523,0.002678,0.000431,0.000705
28124000,0.0324,0.013523,0.002678,0.000431,0.000470
28125000,0.0324,0.013523,0.002678,0.000431,0.000470
28126000,0.0324,0.013523,0.002678,0.000431,0.000470
28127000,0.0324,0.013523,0.002678,0.000431,0.000588
28128000,0.0324,0.013523,0.002678,0.000431,0.000588
28129000,0.0324,0.013523,0.002678,0.000431,0.000470
28130000,0.0324,0.013523,0.002678,0.000431,0.000353
28131000,0.0324,0.013523,0.002678,0.000431,0.000588
28132000,0.0324,0.013523,0.002678,0.000431,0.000353
28133000,0.0324,0.013523,0.002678,0.000431,0.000588
28134000,0.0324,0.013523,0.002678,0.000431,0.000353
28135000,0.0324,0.013523,0.002678,0.000431,0.000588
28136000,0.0324,0.013523,0.002678,0.000431,0.000353
28137000,0.0324,0.013523,0.002678,0.000431,0.000588
28138000,0.0324,0.013523,0.002678,0.000431,0.000353
28139000,0.0324,0.013523,0.002678,0.000431,0.000470
28140000,0.0324,0.013523,0.002678,0.000431,0.000470
28141000,0.0324,0.013523,0.002678,0.000431,0.000705
28142000,0.0324,0.013523,0.002678,0.000431,0.000353
28143000,0.0324,0.013523,0.002678,0.000431,0.000588
28144000,0.0324,0.013523,0.002678,0.000431,0.000353
28145000,0.0324,0.013523,0.002678,0.000431,0.000705
28146000,0.0324,0.013523,0.002678,0.000431,0.000353
28147000,0.0324,0.013523,0.002678,0.000431,0.000588
28148000,0.0324,0.013523,0.002678,0.000431,0.000588
28149000,0.0324,0.013523,0.002678,0.000431,0.000470
28150000,0.0324,0.013523,0.002678,0.000431,0.000705
28151000,0.0324,0.013523,0.002678,0.000431,0.000353
28152000,0.0324,0.013523,0.002678,0.000431,0.000705
28153000,0.0324,0.013523,0.002678,0.000431,0.000470
28154000,0.0324,0.013523,0.002678,0.000431,0.000470
28155000,0.0324,0.013523,0.002678,0.000431,0.000470
28156000,0.0324,0.013523,0.002678,0.000431,0.000470
28157000,0.0324,0.013523,0.002678,0.000431,0.000470
28158000,0.0324,0.013523,0.002678,0.000431,0.000470
28159000,0.0324,0.013523,0.002678,0.000431,0.000470
28160000,0.0324,0.013523,0.002678,0.000431,0.000470
28161000,0.0324,0.013523,0.002678,0.000431,0.000353
28162000,0.0324,0.013523,0.002678,0.000431,0.000588
28163000,0.0324,0.013523,0.002678,0.000431,0.000235
28164000,0.0324,0.013523,0.002678,0.000431,0.000588
28165000,0.0324,0.013523,0.002678,0.000431,0.000353
28166000,0.0324,0.013523,0.002678,0.000431,0.000588
28167000,0.0324,0.013523,0.002678,0.000431,0.000353
28168000,0.0324,0.013523,0.002678,0.000431,0.000588
28169000,0.0324,0.013523,0.002678,0.000431,0.000353
28170000,0.0324,0.013523,0.002678,0.000431,0.000588
28171000,0.0324,0.013523,0.002678,0.000431,0.000353
28172000,0.0324,0.013523,0.002678,0.000431,0.000588
28173000,0.0324,0.013523,0.002678,0.000431,0.000353
28174000,0.0324,0.013523,0.002678,0.000431,0.000588
28175000,0.0324,0.013523,0.002678,0.000431,0.000353
28176000,0.0324,0.013523,0.002678,0.000431,0.000588
28177000,0.0324,0.013523,0.002678,0.000431,0.000353
28178000,0.0324,0.013523,0.002678,0.000431,0.000588
28179000,0.0324,0.013523,0.002678,0.000431,0.000353
28180000,0.0324,0.013523,0.002678,0.000431,0.000470
28181000,0.0324,0.013523,0.002678,0.000431,0.000470
28182000,0.0324,0.013523,0.002678,0.000431,0.000470
28183000,0.0324,0.013523,0.002678,0.000431,0.000470
28184000,0.0324,0.013523,0.002678,0.000431,0.000470
28185000,0.0324,0.013523,0.002678,0.000431,0.000353
28186000,0.0324,0.013523,0.002678,0.000431,0.000588
28187000,0.0324,0.013523,0.002678,0.000431,0.000470
28188000,0.0324,0.013523,0.002678,0.000431,0.000470
28189000,0.0324,0.013523,0.002678,0.000431,0.000353
28190000,0.0324,0.013523,0.002678,0.000431,0.000588
28191000,0.0324,0.013523,0.002678,0.000431,0.000353
28192000,0.0324,0.013523,0.002678,0.000431,0.000705
28193000,0.0324,0.013523,0.002678,0.000431,0.000470
28194000,0.0324,0.013523,0.002678,0.000431,0.000705
28195000,0.0324,0.013523,0.002678,0.000431,0.000235
28196000,0.0324,0.013523,0.002678,0.000431,0.000705
28197000,0.0324,0.013523,0.002678,0.000431,0.000353
28198000,0.0324,0.013523,0.002678,0.000431,0.000705
28199000,0.0324,0.013523,0.002678,0.000431,0.000470
28200000,0.0324,0.013523,0.002678,0.000431,0.000588
28201000,0.0324,0.013523,0.002678,0.000431,0.000353
28202000,0.0324,0.013523,0.002678,0.000431,0.000588
28203000,0.0324,0.013523,0.002678,0.000431,0.000353
28204000,0.0324,0.013523,0.002678,0.000431,0.000588
28205000,0.0324,0.013523,0.002678,0.000431,0.000353
28206000,0.0324,0.013523,0.002678,0.000431,0.000705
28207000,0.0324,0.013523,0.002678,0.000431,0.000353
28208000,0.0324,0.013523,0.002678,0.000431,0.000588
28209000,0.0324,0.013523,0.002678,0.000431,0.000588
28210000,0.0324,0.013523,0.002678,0.000431,0.000470
28211000,0.0324,0.013523,0.002678,0.000431,0.000705
28212000,0.0324,0.013523,0.002678,0.000431,0.000353
28213000,0.0324,0.013523,0.002678,0.000431,0.000588
28214000,0.0324,0.013523,0.002678,0.000431,0.000353
28215000,0.0324,0.013523,0.002678,0.000431,0.000588
28216000,0.0324,0.013523,0.002678,0.000431,0.000353
28217000,0.0324,0.013523,0.002678,0.000431,0.000588
28218000,0.0324,0.013523,0.002678,0.000431,0.000353
28219000,0.0324,0.013523,0.002678,0.000431,0.000588
28220000,0.0324,0.013523,0.002678,0.000431,0.000353
28221000,0.0324,0.013523,0.002678,0.000431,0.000588
28222000,0.0324,0.013523,0.002678,0.000431,0.000470
28223000,0.0324,0.013523,0.002678,0.000431,0.000470
28224000,0.0324,0.013523,0.002678,0.000431,0.000470
28225000,0.0324,0.013523,0.002678,0.000431,0.000353
28226000,0.0324,0.013523,0.002678,0.000431,0.000588
28227000,0.0324,0.013523,0.002678,0.000431,0.000353
28228000,0.0324,0.013523,0.002678,0.000431,0.000588
28229000,0.0324,0.013523,0.002678,0.000431,0.000353
28230000,0.0324,0.013523,0.002678,0.000431,0.000588
28231000,0.0324,0.013523,0.002678,0.000431,0.000353
28232000,0.0324,0.013523,0.002678,0.000431,0.000705
28233000,0.0324,0.013523,0.002678,0.000431,0.000470
28234000,0.0324,0.013523,0.002678,0.000431,0.000470
28235000,0.0324,0.013523,0.002678,0.000431,0.000470
28236000,0.0324,0.013523,0.002678,0.000431,0.000470
28237000,0.0324,0.013523,0.002678,0.000431,0.000470
28238000,0.0324,0.013523,0.002678,0.000431,0.000470
28239000,0.0324,0.013523,0.002678,0.000431,0.000470
28240000,0.0324,0.013523,0.002678,0.000431,0.000470
28241000,0.0324,0.013523,0.002678,0.000431,0.000470
28242000,0.0324,0.013523,0.002678,0.000431,0.000470
28243000,0.0324,0.013523,0.002678,0.000431,0.000353
28244000,0.0324,0.013523,0.002678,0.000431,0.000588
28245000,0.0324,0.013523,0.002678,0.000431,0.000353
28246000,0.0324,0.013523,0.002678,0.000431,0.000588
28247000,0.0324,0.013523,0.002678,0.000431,0.000353
28248000,0.0324,0.013523,0.002678,0.000431,0.000588
28249000,0.0324,0.013523,0.002678,0.000431,0.000353
28250000,0.0324,0.013523,0.002678,0.000431,0.000705
28251000,0.0324,0.013523,0.002678,0.000431,0.000353
28252000,0.0324,0.013523,0.002678,0.000431,0.000705
28253000,0.0324,0.013523,0.002678,0.000431,0.000588
28254000,0.0324,0.013523,0.002678,0.000431,0.000470
28255000,0.0324,0.013523,0.002678,0.000431,0.000705
28256000,0.0324,0.013523,0.002678,0.000431,0.000353
28257000,0.0324,0.013523,0.002678,0.000431,0.000705
28258000,0.0324,0.013523,0.002678,0.000431,0.000470
28259000,0.0324,0.013523,0.002678,0.000431,0.000470
28260000,0.0324,0.013523,0.002678,0.000431,0.000353
28261000,0.0324,0.013523,0.002678,0.000431,0.000588
28262000,0.0324,0.013523,0.002678,0.000431,0.000470
28263000,0.0324,0.013523,0.002678,0.000431,0.000470
28264000,0.0324,0.013523,0.002678,0.000431,0.000470
28265000,0.0324,0.013523,0.002678,0.000431,0.000470
28266000,0.0324,0.013523,0.002678,0.000431,0.000353
28267000,0.0324,0.013523,0.002678,0.000431,0.000705
28268000,0.0324,0.013523,0.002678,0.000431,0.000470
28269000,0.0324,0.013523,0.002678,0.000431,0.000588
28270000,0.0324,0.013523,0.002678,0.000431,0.000353
28271000,0.0324,0.013523,0.002678,0.000431,0.000588
28272000,0.0324,0.013523,0.002678,0.000431,0.000353
28273000,0.0324,0.013523,0.002678,0.000431,0.000588
28274000,0.0324,0.013523,0.002678,0.000431,0.000470
28275000,0.0324,0.013523,0.002678,0.000431,0.000588
28276000,0.0324,0.013523,0.002678,0.000431,0.000470
28277000,0.0324,0.013523,0.002678,0.000431,0.000705
28278000,0.0324,0.013523,0.002678,0.000431,0.000353
28279000,0.0324,0.013523,0.002678,0.000431,0.000588
28280000,0.0324,0.013523,0.002678,0.000431,0.000353
28281000,0.0324,0.013523,0.002678,0.000431,0.000588
28282000,0.0324,0.013523,0.002678,0.000431,0.000353
28283000,0.0324,0.013523,0.002678,0.000431,0.000470
28284000,0.0324,0.013523,0.002678,0.000431,0.000470
28285000,0.0324,0.013523,0.002678,0.000431,0.000470
28286000,0.0324,0.013523,0.002678,0.000431,0.000470
28287000,0.0324,0.013523,0.002678,0.000431,0.000588
28288000,0.0324,0.013523,0.002678,0.000431,0.000470
28289000,0.0324,0.013523,0.002678,0.000431,0.000705
28290000,0.0324,0.013523,0.002678,0.000431,0.000353
28291000,0.0324,0.013523,0.002678,0.000431,0.000588
28292000,0.0324,0.013523,0.002678,0.000431,0.000353
28293000,0.0324,0.013523,0.002678,0.000431,0.000588
28294000,0.0324,0.013523,0.002678,0.000431,0.000353
28295000,0.0324,0.013523,0.002678,0.000431,0.000588
28296000,0.0324,0.013523,0.002678,0.000431,0.000353
28297000,0.0324,0.013523,0.002678,0.000431,0.000588
28298000,0.0324,0.013523,0.002678,0.000431,0.000353
28299000,0.0324,0.013523,0.002678,0.000431,0.000588
28300000,0.0324,0.013523,0.002678,0.000431,0.000353
28301000,0.0324,0.013523,0.002678,0.000431,0.000588
28302000,0.0324,0.013523,0.002678,0.000431,0.000353
28303000,0.0324,0.013523,0.002678,0.000431,0.000588
28304000,0.0324,0.013523,0.002678,0.000431,0.000353
28305000,0.0324,0.013523,0.002678,0.000431,0.000470
28306000,0.0324,0.013523,0.002678,0.000431,0.000353
28307000,0.0324,0.013523,0.002678,0.000431,0.000588
28308000,0.0324,0.013523,0.002678,0.000431,0.000470
28309000,0.0324,0.013523,0.002678,0.000431,0.000470
28310000,0.0324,0.013523,0.002678,0.000431,0.000470
28311000,0.0324,0.013523,0.002678,0.000431,0.000470
28312000,0.0324,0.013523,0.002678,0.000431,0.000470
28313000,0.0324,0.013523,0.002678,0.000431,0.000588
28314000,0.0324,0.013523,0.002678,0.000431,0.000470
28315000,0.0324,0.013523,0.002678,0.000431,0.000588
28316000,0.0324,0.013523,0.002678,0.000431,0.000235
28317000,0.0324,0.013523,0.002678,0.000431,0.000588
28318000,0.0324,0.013523,0.002678,0.000431,0.000353
28319000,0.0324,0.013523,0.002678,0.000431,0.000588
28320000,0.0324,0.013523,0.002678,0.000431,0.000353
28321000,0.0324,0.013523,0.002678,0.000431,0.000588
28322000,0.0324,0.013523,0.002678,0.000431,0.000353
28323000,0.0324,0.013523,0.002678,0.000431,0.000470
28324000,0.0324,0.013523,0.002678,0.000431,0.000470
28325000,0.0324,0.013523,0.002678,0.000431,0.000588
28326000,0.0324,0.013523,0.002678,0.000431,0.000470
28327000,0.0324,0.013523,0.002678,0.000431,0.000705
28328000,0.0324,0.013523,0.002678,0.000431,0.000353
28329000,0.0324,0.013523,0.002678,0.000431,0.000588
28330000,0.0324,0.013523,0.002678,0.000431,0.000353
28331000,0.0324,0.013523,0.002678,0.000431,0.000588
28332000,0.0324,0.013523,0.002678,0.000431,0.000353
28333000,0.0324,0.013523,0.002678,0.000431,0.000588
28334000,0.0324,0.013523,0.002678,0.000431,0.000353
28335000,0.0324,0.013523,0.002678,0.000431,0.000588
28336000,0.0324,0.013523,0.002678,0.000431,0.000470
28337000,0.0324,0.013523,0.002678,0.000431,0.000588
28338000,0.0324,0.013523,0.002678,0.000431,0.000353
28339000,0.0324,0.013523,0.002678,0.000431,0.000588
28340000,0.0324,0.013523,0.002678,0.000431,0.000353
28341000,0.0324,0.013523,0.002678,0.000431,0.000588
28342000,0.0324,0.013523,0.002678,0.000431,0.000470
28343000,0.0324,0.013523,0.002678,0.000431,0.000470
28344000,0.0324,0.013523,0.002678,0.000431,0.000353
28345000,0.0324,0.013523,0.002678,0.000431,0.000588
28346000,0.0324,0.013523,0.002678,0.000431,0.000353
28347000,0.0324,0.013523,0.002678,0.000431,0.000588
28348000,0.0324,0.013523,0.002678,0.000431,0.000353
28349000,0.0324,0.013523,0.002678,0.000431,0.000705
28350000,0.0324,0.013523,0.002678,0.000431,0.000470
28351000,0.0324,0.013523,0.002678,0.000431,0.000588
28352000,0.0324,0.013523,0.002678,0.000431,0.000353
28353000,0.0324,0.013523,0.002678,0.000431,0.000588
28354000,0.0324,0.013523,0.002678,0.000431,0.000353
28355000,0.0324,0.013523,0.002678,0.000431,0.000470
28356000,0.0324,0.013523,0.002678,0.000431,0.000470
28357000,0.0324,0.013523,0.002678,0.000431,0.000470
28358000,0.0324,0.013523,0.002678,0.000431,0.000588
28359000,0.0324,0.013523,0.002678,0.000431,0.000353
28360000,0.0324,0.013523,0.002678,0.000431,0.000705
28361000,0.0324,0.013523,0.002678,0.000431,0.000353
28362000,0.0324,0.013523,0.002678,0.000431,0.000705
28363000,0.0324,0.013523,0.002678,0.000431,0.000470
28364000,0.0324,0.013523,0.002678,0.000431,0.000588
28365000,0.0324,0.013523,0.002678,0.000431,0.000353
28366000,0.0324,0.013523,0.002678,0.000431,0.000588
28367000,0.0324,0.013523,0.002678,0.000431,0.000353
28368000,0.0324,0.013523,0.002678,0.000431,0.000588
28369000,0.0324,0.013523,0.002678,0.000431,0.000353
28370000,0.0324,0.013523,0.002678,0.000431,0.000470
28371000,0.0324,0.013523,0.002678,0.000431,0.000470
28372000,0.0324,0.013523,0.002678,0.000431,0.000588
28373000,0.0324,0.013523,0.002678,0.000431,0.000353
28374000,0.0324,0.013523,0.002678,0.000431,0.000705
28375000,0.0324,0.013523,0.002678,0.000431,0.000470
28376000,0.0324,0.013523,0.002678,0.000431,0.000470
28377000,0.0324,0.013523,0.002678,0.000431,0.000470
28378000,0.0324,0.013523,0.002678,0.000431,0.000470
28379000,0.0324,0.013523,0.002678,0.000431,0.000470
28380000,0.0324,0.013523,0.002678,0.000431,0.000470
28381000,0.0324,0.013523,0.002678,0.000431,0.000470
28382000,0.0324,0.013523,0.002678,0.000431,0.000470
28383000,0.0324,0.013523,0.002678,0.000431,0.000470
28384000,0.0324,0.013523,0.002678,0.000431,0.000588
28385000,0.0324,0.013523,0.002678,0.000431,0.000353
28386000,0.0324,0.013523,0.002678,0.000431,0.000588
28387000,0.0324,0.013523,0.002678,0.000431,0.000353
28388000,0.0324,0.013523,0.002678,0.000431,0.000470
28389000,0.0324,0.013523,0.002678,0.000431,0.000470
28390000,0.0324,0.013523,0.002678,0.000431,0.000470
28391000,0.0324,0.013523,0.002678,0.000431,0.000470
28392000,0.0324,0.013523,0.002678,0.000431,0.000470
28393000,0.0324,0.013523,0.002678,0.000431,0.000470
28394000,0.0324,0.013523,0.002678,0.000431,0.000588
28395000,0.0324,0.013523,0.002678,0.000431,0.000470
28396000,0.0324,0.013523,0.002678,0.000431,0.000705
28397000,0.0324,0.013523,0.002678,0.000431,0.000353
28398000,0.0324,0.013523,0.002678,0.000431,0.000705
28399000,0.0324,0.013523,0.002678,0.000431,0.000470
28400000,0.0324,0.013523,0.002678,0.000431,0.000470
28401000,0.0324,0.013523,0.002678,0.000431,0.000470
28402000,0.0324,0.013523,0.002678,0.000431,0.000470
28403000,0.0324,0.013523,0.002678,0.000431,0.000353
28404000,0.0324,0.013523,0.002678,0.000431,0.000588
28405000,0.0324,0.013523,0.002678,0.000431,0.000353
28406000,0.0324,0.013523,0.002678,0.000431,0.000705
28407000,0.0324,0.013523,0.002678,0.000431,0.000353
28408000,0.0324,0.013523,0.002678,0.000431,0.000588
28409000,0.0324,0.013523,0.002678,0.000431,0.000353
28410000,0.0324,0.013523,0.002678,0.000431,0.000705
28411000,0.0324,0.013523,0.002678,0.000431,0.000353
28412000,0.0324,0.013523,0.002678,0.000431,0.000470
28413000,0.0324,0.013523,0.002678,0.000431,0.000353
28414000,0.0324,0.013523,0.002678,0.000431,0.000705
28415000,0.0324,0.013523,0.002678,0.000431,0.000353
28416000,0.0324,0.013523,0.002678,0.000431,0.000588
28417000,0.0324,0.013523,0.002678,0.000431,0.000353
28418000,0.0324,0.013523,0.002678,0.000431,0.000705
28419000,0.0324,0.013523,0.002678,0.000431,0.000353
28420000,0.0324,0.013523,0.002678,0.000431,0.000588
28421000,0.0324,0.013523,0.002678,0.000431,0.000353
28422000,0.0324,0.013523,0.002678,0.000431,0.000588
28423000,0.0324,0.013523,0.002678,0.000431,0.000353
28424000,0.0324,0.013523,0.002678,0.000431,0.000588
28425000,0.0324,0.013523,0.002678,0.000431,0.000353
28426000,0.0324,0.013523,0.002678,0.000431,0.000588
28427000,0.0324,0.013523,0.002678,0.000431,0.000353
28428000,0.0324,0.013523,0.002678,0.000431,0.000470
28429000,0.0324,0.013523,0.002678,0.000431,0.000470
28430000,0.0324,0.013523,0.002678,0.000431,0.000470
28431000,0.0324,0.013523,0.002678,0.000431,0.000470
28432000,0.0324,0.013523,0.002678,0.000431,0.000470
28433000,0.0324,0.013523,0.002678,0.000431,0.000470
28434000,0.0324,0.013523,0.002678,0.000431,0.000470
28435000,0.0324,0.013523,0.002678,0.000431,0.000588
28436000,0.0324,0.013523,0.002678,0.000431,0.000353
28437000,0.0324,0.013523,0.002678,0.000431,0.000588
28438000,0.0324,0.013523,0.002678,0.000431,0.000353
28439000,0.0324,0.013523,0.002678,0.000431,0.000588
28440000,0.0324,0.013523,0.002678,0.000431,0.000353
28441000,0.0324,0.013523,0.002678,0.000431,0.000470
28442000,0.0324,0.013523,0.002678,0.000431,0.000470
28443000,0.0324,0.013523,0.002678,0.000431,0.000588
28444000,0.0324,0.013523,0.002678,0.000431,0.000353
28445000,0.0324,0.013523,0.002678,0.000431,0.000588
28446000,0.0324,0.013523,0.002678,0.000431,0.000353
28447000,0.0324,0.013523,0.002678,0.000431,0.000470
28448000,0.0324,0.013523,0.002678,0.000431,0.000470
28449000,0.0324,0.013523,0.002678,0.000431,0.000588
28450000,0.0324,0.013523,0.002678,0.000431,0.000353
28451000,0.0324,0.013523,0.002678,0.000431,0.000588
28452000,0.0324,0.013523,0.002678,0.000431,0.000353
28453000,0.0324,0.013523,0.002678,0.000431,0.000470
28454000,0.0324,0.013523,0.002678,0.000431,0.000353
28455000,0.0324,0.013523,0.002678,0.000431,0.000705
28456000,0.0324,0.013523,0.002678,0.000431,0.000353
28457000,0.0324,0.013523,0.002678,0.000431,0.000705
28458000,0.0324,0.013523,0.002678,0.000431,0.000470
28459000,0.0324,0.013523,0.002678,0.000431,0.000470
28460000,0.0324,0.013523,0.002678,0.000431,0.000470
28461000,0.0324,0.013523,0.002678,0.000431,0.000470
28462000,0.0324,0.013523,0.002678,0.000431,0.000470
28463000,0.0324,0.013523,0.002678,0.000431,0.000470
28464000,0.0324,0.013523,0.002678,0.000431,0.000470
28465000,0.0324,0.013523,0.002678,0.000431,0.000470
28466000,0.0324,0.013523,0.002678,0.000431,0.000470
28467000,0.0324,0.013523,0.002678,0.000431,0.000470
28468000,0.0324,0.013523,0.002678,0.000431,0.000470
28469000,0.0324,0.013523,0.002678,0.000431,0.000470
28470000,0.0324,0.013523,0.002678,0.000431,0.000470
28471000,0.0324,0.013523,0.002678,0.000431,0.000470
28472000,0.0324,0.013523,0.002678,0.000431,0.000470
28473000,0.0324,0.013523,0.002678,0.000431,0.000470
28474000,0.0324,0.013523,0.002678,0.000431,0.000353
28475000,0.0324,0.013523,0.002678,0.000431,0.000588
28476000,0.0324,0.013523,0.002678,0.000431,0.000353
28477000,0.0324,0.013523,0.002678,0.000431,0.000588
28478000,0.0324,0.013523,0.002678,0.000431,0.000353
28479000,0.0324,0.013523,0.002678,0.000431,0.000705
28480000,0.0324,0.013523,0.002678,0.000431,0.000353
28481000,0.0324,0.013523,0.002678,0.000431,0.000705
28482000,0.0324,0.013523,0.002678,0.000431,0.000588
28483000,0.0324,0.013523,0.002678,0.000431,0.000470
28484000,0.0324,0.013523,0.002678,0.000431,0.000705
28485000,0.0324,0.013523,0.002678,0.000431,0.000353
28486000,0.0324,0.013523,0.002678,0.000431,0.000588
28487000,0.0324,0.013523,0.002678,0.000431,0.000353
28488000,0.0324,0.013523,0.002678,0.000431,0.000470
28489000,0.0324,0.013523,0.002678,0.000431,0.000470
28490000,0.0324,0.013523,0.002678,0.000431,0.000470
28491000,0.0324,0.013523,0.002678,0.000431,0.000353
28492000,0.0324,0.013523,0.002678,0.000431,0.000588
28493000,0.0324,0.013523,0.002678,0.000431,0.000353
28494000,0.0324,0.013523,0.002678,0.000431,0.000588
28495000,0.0324,0.013523,0.002678,0.000431,0.000353
28496000,0.0324,0.013523,0.002678,0.000431,0.000588
28497000,0.0324,0.013523,0.002678,0.000431,0.000353
28498000,0.0324,0.013523,0.002678,0.000431,0.000588
28499000,0.0324,0.013523,0.002678,0.000431,0.000353
28500000,0.0324,0.013523,0.002678,0.000431,0.000588
28501000,0.0324,0.013523,0.002678,0.000431,0.000353
28502000,0.0324,0.013523,0.002678,0.000431,0.000588
28503000,0.0324,0.013523,0.002678,0.000431,0.000353
28504000,0.0324,0.013523,0.002678,0.000431,0.000588
28505000,0.0324,0.013523,0.002678,0.000431,0.000470
28506000,0.0324,0.013523,0.002678,0.000431,0.000470
28507000,0.0324,0.013523,0.002678,0.000431,0.000470
28508000,0.0324,0.013523,0.002678,0.000431,0.000353
28509000,0.0324,0.013523,0.002678,0.000431,0.000588
28510000,0.0324,0.013523,0.002678,0.000431,0.000353
28511000,0.0324,0.013523,0.002678,0.000431,0.000588
28512000,0.0324,0.013523,0.002678,0.000431,0.000353
28513000,0.0324,0.013523,0.002678,0.000431,0.000705
28514000,0.0324,0.013523,0.002678,0.000431,0.000353
28515000,0.0324,0.013523,0.002678,0.000431,0.000705
28516000,0.0324,0.013523,0.002678,0.000431,0.000588
28517000,0.0324,0.013523,0.002678,0.000431,0.000470
28518000,0.0324,0.013523,0.002678,0.000431,0.000588
28519000,0.0324,0.013523,0.002678,0.000431,0.000353
28520000,0.0324,0.013523,0.002678,0.000431,0.000588
28521000,0.0324,0.013523,0.002678,0.000431,0.000353
28522000,0.0324,0.013523,0.002678,0.000431,0.000470
28523000,0.0324,0.013523,0.002678,0.000431,0.000470
28524000,0.0324,0.013523,0.002678,0.000431,0.000353
28525000,0.0324,0.013523,0.002678,0.000431,0.000588
28526000,0.0324,0.013523,0.002678,0.000431,0.000353
28527000,0.0324,0.013523,0.002678,0.000431,0.000588
28528000,0.0324,0.013523,0.002678,0.000431,0.000353
28529000,0.0324,0.013523,0.002678,0.000431,0.000588
28530000,0.0324,0.013523,0.002678,0.000431,0.000353
28531000,0.0324,0.013523,0.002678,0.000431,0.000588
28532000,0.0324,0.013523,0.002678,0.000431,0.000353
28533000,0.0324,0.013523,0.002678,0.000431,0.000588
28534000,0.0324,0.013523,0.002678,0.000431,0.000353
28535000,0.0324,0.013523,0.002678,0.000431,0.000588
28536000,0.0324,0.013523,0.002678,0.000431,0.000353
28537000,0.0324,0.013523,0.002678,0.000431,0.000588
28538000,0.0324,0.013523,0.002678,0.000431,0.000353
28539000,0.0324,0.013523,0.002678,0.000431,0.000588
28540000,0.0324,0.013523,0.002678,0.000431,0.000353
28541000,0.0324,0.013523,0.002678,0.000431,0.000470
28542000,0.0324,0.013523,0.002678,0.000431,0.000470
28543000,0.0324,0.013523,0.002678,0.000431,0.000470
28544000,0.0324,0.013523,0.002678,0.000431,0.000470
28545000,0.0324,0.013523,0.002678,0.000431,0.000588
28546000,0.0324,0.013523,0.002678,0.000431,0.000470
28547000,0.0324,0.013523,0.002678,0.000431,0.000705
28548000,0.0324,0.013523,0.002678,0.000431,0.000353
28549000,0.0324,0.013523,0.002678,0.000431,0.000588
28550000,0.0324,0.013523,0.002678,0.000431,0.000353
28551000,0.0324,0.013523,0.002678,0.000431,0.000588
28552000,0.0324,0.013523,0.002678,0.000431,0.000353
28553000,0.0324,0.013523,0.002678,0.000431,0.000588
28554000,0.0324,0.013523,0.002678,0.000431,0.000353
28555000,0.0324,0.013523,0.002678,0.000431,0.000588
28556000,0.0324,0.013523,0.002678,0.000431,0.000353
28557000,0.0324,0.013523,0.002678,0.000431,0.000470
28558000,0.0324,0.013523,0.002678,0.000431,0.000470
28559000,0.0324,0.013523,0.002678,0.000431,0.000470
28560000,0.0324,0.013523,0.002678,0.000431,0.000470
28561000,0.0324,0.013523,0.002678,0.000431,0.000470
28562000,0.0324,0.013523,0.002678,0.000431,0.000470
28563000,0.0324,0.013523,0.002678,0.000431,0.000470
28564000,0.0324,0.013523,0.002678,0.000431,0.000470
28565000,0.0324,0.013523,0.002678,0.000431,0.000588
28566000,0.0324,0.013523,0.002678,0.000431,0.000353
28567000,0.0324,0.013523,0.002678,0.000431,0.000588
28568000,0.0324,0.013523,0.002678,0.000431,0.000353
28569000,0.0324,0.013523,0.002678,0.000431,0.000588
28570000,0.0324,0.013523,0.002678,0.000431,0.000353
28571000,0.0324,0.013523,0.002678,0.000431,0.000470
28572000,0.0324,0.013523,0.002678,0.000431,0.000470
28573000,0.0324,0.013523,0.002678,0.000431,0.000588
28574000,0.0324,0.013523,0.002678,0.000431,0.000470
28575000,0.0324,0.013523,0.002678,0.000431,0.000705
28576000,0.0324,0.013523,0.002678,0.000431,0.000353
28577000,0.0324,0.013523,0.002678,0.000431,0.000705
28578000,0.0324,0.013523,0.002678,0.000431,0.000353
28579000,0.0324,0.013523,0.002678,0.000431,0.000470
28580000,0.0324,0.013523,0.002678,0.000431,0.000353
28581000,0.0324,0.013523,0.002678,0.000431,0.000588
28582000,0.0324,0.013523,0.002678,0.000431,0.000470
28583000,0.0324,0.013523,0.002678,0.000431,0.000588
28584000,0.0324,0.013523,0.002678,0.000431,0.000353
28585000,0.0324,0.013523,0.002678,0.000431,0.000705
28586000,0.0324,0.013523,0.002678,0.000431,0.000353
28587000,0.0324,0.013523,0.002678,0.000431,0.000588
28588000,0.0324,0.013523,0.002678,0.000431,0.000353
28589000,0.0324,0.013523,0.002678,0.000431,0.000588
28590000,0.0324,0.013523,0.002678,0.000431,0.000353
28591000,0.0324,0.013523,0.002678,0.000431,0.000588
28592000,0.0324,0.013523,0.002678,0.000431,0.000353
28593000,0.0324,0.013523,0.002678,0.000431,0.000470
28594000,0.0324,0.013523,0.002678,0.000431,0.000470
28595000,0.0324,0.013523,0.002678,0.000431,0.000470
28596000,0.0324,0.013523,0.002678,0.000431,0.000470
28597000,0.0324,0.013523,0.002678,0.000431,0.000470
28598000,0.0324,0.013523,0.002678,0.000431,0.000470
28599000,0.0324,0.013523,0.002678,0.000431,0.000470
28600000,0.0324,0.013523,0.002678,0.000431,0.000470
28601000,0.0324,0.013523,0.002678,0.000431,0.000470
28602000,0.0324,0.013523,0.002678,0.000431,0.000470
28603000,0.0324,0.013523,0.002678,0.000431,0.000470
28604000,0.0324,0.013523,0.002678,0.000431,0.000470
28605000,0.0324,0.013523,0.002678,0.000431,0.000588
28606000,0.0324,0.013523,0.002678,0.000431,0.000470
28607000,0.0324,0.013523,0.002678,0.000431,0.000705
28608000,0.0324,0.013523,0.002678,0.000431,0.000353
28609000,0.0324,0.013523,0.002678,0.000431,0.000588
28610000,0.0324,0.013523,0.002678,0.000431,0.000353
28611000,0.0324,0.013523,0.002678,0.000431,0.000588
28612000,0.0324,0.013523,0.002678,0.000431,0.000353
28613000,0.0324,0.013523,0.002678,0.000431,0.000588
28614000,0.0324,0.013523,0.002678,0.000431,0.000353
28615000,0.0324,0.013523,0.002678,0.000431,0.000470
28616000,0.0324,0.013523,0.002678,0.000431,0.000470
28617000,0.0324,0.013523,0.002678,0.000431,0.000470
28618000,0.0324,0.013523,0.002678,0.000431,0.000470
28619000,0.0324,0.013523,0.002678,0.000431,0.000470
28620000,0.0324,0.013523,0.002678,0.000431,0.000470
28621000,0.0324,0.013523,0.002678,0.000431,0.000470
28622000,0.0324,0.013523,0.002678,0.000431,0.000470
28623000,0.0324,0.013523,0.002678,0.000431,0.000588
28624000,0.0324,0.013523,0.002678,0.000431,0.000470
28625000,0.0324,0.013523,0.002678,0.000431,0.000705
28626000,0.0324,0.013523,0.002678,0.000431,0.000353
28627000,0.0324,0.013523,0.002678,0.000431,0.000705
28628000,0.0324,0.013523,0.002678,0.000431,0.000588
28629000,0.0324,0.013523,0.002678,0.000431,0.000470
28630000,0.0324,0.013523,0.002678,0.000431,0.000470
28631000,0.0324,0.013523,0.002678,0.000431,0.000588
28632000,0.0324,0.013523,0.002678,0.000431,0.000470
28633000,0.0324,0.013523,0.002678,0.000431,0.000470
28634000,0.0324,0.013523,0.002678,0.000431,0.000470
28635000,0.0324,0.013523,0.002678,0.000431,0.000470
28636000,0.0324,0.013523,0.002678,0.000431,0.000470
28637000,0.0324,0.013523,0.002678,0.000431,0.000353
28638000,0.0324,0.013523,0.002678,0.000431,0.000588
28639000,0.0324,0.013523,0.002678,0.000431,0.000353
28640000,0.0324,0.013523,0.002678,0.000431,0.000588
28641000,0.0324,0.013523,0.002678,0.000431,0.000470
28642000,0.0324,0.013523,0.002678,0.000431,0.000470
28643000,0.0324,0.013523,0.002678,0.000431,0.000470
28644000,0.0324,0.013523,0.002678,0.000431,0.000470
28645000,0.0324,0.013523,0.002678,0.000431,0.000470
28646000,0.0324,0.013523,0.002678,0.000431,0.000470
28647000,0.0324,0.013523,0.002678,0.000431,0.000470
28648000,0.0324,0.013523,0.002678,0.000431,0.000470
28649000,0.0324,0.013523,0.002678,0.000431,0.000470
28650000,0.0324,0.013523,0.002678,0.000431,0.000470
28651000,0.0324,0.013523,0.002678,0.000431,0.000470
28652000,0.0324,0.013523,0.002678,0.000431,0.000470
28653000,0.0324,0.013523,0.002678,0.000431,0.000588
28654000,0.0324,0.013523,0.002678,0.000431,0.000353
28655000,0.0324,0.013523,0.002678,0.000431,0.000823
28656000,0.0324,0.013523,0.002678,0.000431,0.000353
28657000,0.0324,0.013523,0.002678,0.000431,0.000470
28658000,0.0324,0.013523,0.002678,0.000431,0.000470
28659000,0.0324,0.013523,0.002678,0.000431,0.000470
28660000,0.0324,0.013523,0.002678,0.000431,0.000588
28661000,0.0324,0.013523,0.002678,0.000431,0.000470
28662000,0.0324,0.013523,0.002678,0.000431,0.000705
28663000,0.0324,0.013523,0.002678,0.000431,0.000353
28664000,0.0324,0.013523,0.002678,0.000431,0.000588
28665000,0.0324,0.013523,0.002678,0.000431,0.000353
28666000,0.0324,0.013523,0.002678,0.000431,0.000588
28667000,0.0324,0.013523,0.002678,0.000431,0.000353
28668000,0.0324,0.013523,0.002678,0.000431,0.000470
28669000,0.0324,0.013523,0.002678,0.000431,0.000470
28670000,0.0324,0.013523,0.002678,0.000431,0.000470
28671000,0.0324,0.013523,0.002678,0.000431,0.000588
28672000,0.0324,0.013523,0.002678,0.000431,0.000353
28673000,0.0324,0.013523,0.002678,0.000431,0.000470
28674000,0.0324,0.013523,0.002678,0.000431,0.000470
28675000,0.0324,0.013523,0.002678,0.000431,0.000470
28676000,0.0324,0.013523,0.002678,0.000431,0.000470
28677000,0.0324,0.013523,0.002678,0.000431,0.000588
28678000,0.0324,0.013523,0.002678,0.000431,0.000353
28679000,0.0324,0.013523,0.002678,0.000431,0.000588
28680000,0.0324,0.013523,0.002678,0.000431,0.000353
28681000,0.0324,0.013523,0.002678,0.000431,0.000588
28682000,0.0324,0.013523,0.002678,0.000431,0.000353
28683000,0.0324,0.013523,0.002678,0.000431,0.000705
28684000,0.0324,0.013523,0.002678,0.000431,0.000353
28685000,0.0324,0.013523,0.002678,0.000431,0.000588
28686000,0.0324,0.013523,0.002678,0.000431,0.000470
28687000,0.0324,0.013523,0.002678,0.000431,0.000470
28688000,0.0324,0.013523,0.002678,0.000431,0.000470
28689000,0.0324,0.013523,0.002678,0.000431,0.000470
28690000,0.0324,0.013523,0.002678,0.000431,0.000470
28691000,0.0324,0.013523,0.002678,0.000431,0.000588
28692000,0.0324,0.013523,0.002678,0.000431,0.000353
28693000,0.0324,0.013523,0.002678,0.000431,0.000470
28694000,0.0324,0.013523,0.002678,0.000431,0.000470
28695000,0.0324,0.013523,0.002678,0.000431,0.000470
28696000,0.0324,0.013523,0.002678,0.000431,0.000470
28697000,0.0324,0.013523,0.002678,0.000431,0.000470
28698000,0.0324,0.013523,0.002678,0.000431,0.000470
28699000,0.0324,0.013523,0.002678,0.000431,0.000470
28700000,0.0324,0.013523,0.002678,0.000431,0.000470
28701000,0.0324,0.013523,0.002678,0.000431,0.000470
28702000,0.0324,0.013523,0.002678,0.000431,0.000353
28703000,0.0324,0.013523,0.002678,0.000431,0.000588
28704000,0.0324,0.013523,0.002678,0.000431,0.000235
28705000,0.0324,0.013523,0.002678,0.000431,0.000588
28706000,0.0324,0.013523,0.002678,0.000431,0.000353
28707000,0.0324,0.013523,0.002678,0.000431,0.000588
28708000,0.0324,0.013523,0.002678,0.000431,0.000353
28709000,0.0324,0.013523,0.002678,0.000431,0.000588
28710000,0.0324,0.013523,0.002678,0.000431,0.000353
28711000,0.0324,0.013523,0.002678,0.000431,0.000705
28712000,0.0324,0.013523,0.002678,0.000431,0.000470
28713000,0.0324,0.013523,0.002678,0.000431,0.000470
28714000,0.0324,0.013523,0.002678,0.000431,0.000470
28715000,0.0324,0.013523,0.002678,0.000431,0.000470
28716000,0.0324,0.013523,0.002678,0.000431,0.000470
28717000,0.0324,0.013523,0.002678,0.000431,0.000470
28718000,0.0324,0.013523,0.002678,0.000431,0.000470
28719000,0.0324,0.013523,0.002678,0.000431,0.000470
28720000,0.0324,0.013523,0.002678,0.000431,0.000353
28721000,0.0324,0.013523,0.002678,0.000431,0.000588
28722000,0.0324,0.013523,0.002678,0.000431,0.000353
28723000,0.0324,0.013523,0.002678,0.000431,0.000705
28724000,0.0324,0.013523,0.002678,0.000431,0.000353
28725000,0.0324,0.013523,0.002678,0.000431,0.000705
28726000,0.0324,0.013523,0.002678,0.000431,0.000588
28727000,0.0324,0.013523,0.002678,0.000431,0.000470
28728000,0.0324,0.013523,0.002678,0.000431,0.000588
28729000,0.0324,0.013523,0.002678,0.000431,0.000353
28730000,0.0324,0.013523,0.002678,0.000431,0.000588
28731000,0.0324,0.013523,0.002678,0.000431,0.000353
28732000,0.0324,0.013523,0.002678,0.000431,0.000470
28733000,0.0324,0.013523,0.002678,0.000431,0.000470
28734000,0.0324,0.013523,0.002678,0.000431,0.000353
28735000,0.0324,0.013523,0.002678,0.000431,0.000588
28736000,0.0324,0.013523,0.002678,0.000431,0.000353
28737000,0.0324,0.013523,0.002678,0.000431,0.000588
28738000,0.0324,0.013523,0.002678,0.000431,0.000353
28739000,0.0324,0.013523,0.002678,0.000431,0.000588
28740000,0.0324,0.013523,0.002678,0.000431,0.000353
28741000,0.0324,0.013523,0.002678,0.000431,0.000470
28742000,0.0324,0.013523,0.002678,0.000431,0.000470
28743000,0.0324,0.013523,0.002678,0.000431,0.000470
28744000,0.0324,0.013523,0.002678,0.000431,0.000588
28745000,0.0324,0.013523,0.002678,0.000431,0.000588
28746000,0.0324,0.013523,0.002678,0.000431,0.000353
28747000,0.0324,0.013523,0.002678,0.000431,0.000470
28748000,0.0324,0.013523,0.002678,0.000431,0.000470
28749000,0.0324,0.013523,0.002678,0.000431,0.000470
28750000,0.0324,0.013523,0.002678,0.000431,0.000470
28751000,0.0324,0.013523,0.002678,0.000431,0.000353
28752000,0.0324,0.013523,0.002678,0.000431,0.000588
28753000,0.0324,0.013523,0.002678,0.000431,0.000353
28754000,0.0324,0.013523,0.002678,0.000431,0.000588
28755000,0.0324,0.013523,0.002678,0.000431,0.000353
28756000,0.0324,0.013523,0.002678,0.000431,0.000588
28757000,0.0324,0.013523,0.002678,0.000431,0.000353
28758000,0.0324,0.013523,0.002678,0.000431,0.000588
28759000,0.0324,0.013523,0.002678,0.000431,0.000353
28760000,0.0324,0.013523,0.002678,0.000431,0.000588
28761000,0.0324,0.013523,0.002678,0.000431,0.000353
28762000,0.0324,0.013523,0.002678,0.000431,0.000470
28763000,0.0324,0.013523,0.002678,0.000431,0.000470
28764000,0.0324,0.013523,0.002678,0.000431,0.000588
28765000,0.0324,0.013523,0.002678,0.000431,0.000353
28766000,0.0324,0.013523,0.002678,0.000431,0.000705
28767000,0.0324,0.013523,0.002678,0.000431,0.000470
28768000,0.0324,0.013523,0.002678,0.000431,0.000470
28769000,0.0324,0.013523,0.002678,0.000431,0.000470
28770000,0.0324,0.013523,0.002678,0.000431,0.000470
28771000,0.0324,0.013523,0.002678,0.000431,0.000470
28772000,0.0324,0.013523,0.002678,0.000431,0.000470
28773000,0.0324,0.013523,0.002678,0.000431,0.000353
28774000,0.0324,0.013523,0.002678,0.000431,0.000588
28775000,0.0324,0.013523,0.002678,0.000431,0.000353
28776000,0.0324,0.013523,0.002678,0.000431,0.000588
28777000,0.0324,0.013523,0.002678,0.000431,0.000353
28778000,0.0324,0.013523,0.002678,0.000431,0.000588
28779000,0.0324,0.013523,0.002678,0.000431,0.000353
28780000,0.0324,0.013523,0.002678,0.000431,0.000588
28781000,0.0324,0.013523,0.002678,0.000431,0.000353
28782000,0.0324,0.013523,0.002678,0.000431,0.000705
28783000,0.0324,0.013523,0.002678,0.000431,0.000353
28784000,0.0324,0.013523,0.002678,0.000431,0.000588
28785000,0.0324,0.013523,0.002678,0.000431,0.000353
28786000,0.0324,0.013523,0.002678,0.000431,0.000588
28787000,0.0324,0.013523,0.002678,0.000431,0.000353
28788000,0.0324,0.013523,0.002678,0.000431,0.000705
28789000,0.0324,0.013523,0.002678,0.000431,0.000235
28790000,0.0324,0.013523,0.002678,0.000431,0.000823
28791000,0.0324,0.013523,0.002678,0.000431,0.000353
28792000,0.0324,0.013523,0.002678,0.000431,0.000588
28793000,0.0324,0.013523,0.002678,0.000431,0.000470
28794000,0.0324,0.013523,0.002678,0.000431,0.000705
28795000,0.0324,0.013523,0.002678,0.000431,0.000353
28796000,0.0324,0.013523,0.002678,0.000431,0.000588
28797000,0.0324,0.013523,0.002678,0.000431,0.000353
28798000,0.0324,0.013523,0.002678,0.000431,0.000588
28799000,0.0324,0.013523,0.002678,0.000431,0.000353
28800000,0.0324,0.013523,0.002678,0.000431,0.000588
28801000,0.0324,0.013523,0.002678,0.000431,0.000353
28802000,0.0324,0.013523,0.002678,0.000431,0.000588
28803000,0.0324,0.013523,0.002678,0.000431,0.000353
28804000,0.0324,0.013523,0.002678,0.000431,0.000588
28805000,0.0324,0.013523,0.002678,0.000431,0.000353
28806000,0.0324,0.013523,0.002678,0.000431,0.000588
28807000,0.0324,0.013523,0.002678,0.000431,0.000353
28808000,0.0324,0.013523,0.002678,0.000431,0.000705
28809000,0.0324,0.013523,0.002678,0.000431,0.000588
28810000,0.0324,0.013523,0.002678,0.000431,0.000470
28811000,0.0324,0.013523,0.002678,0.000431,0.000588
28812000,0.0324,0.013523,0.002678,0.000431,0.000353
28813000,0.0324,0.013523,0.002678,0.000431,0.000470
28814000,0.0324,0.013523,0.002678,0.000431,0.000470
28815000,0.0324,0.013523,0.002678,0.000431,0.000353
28816000,0.0324,0.013523,0.002678,0.000431,0.000588
28817000,0.0324,0.013523,0.002678,0.000431,0.000353
28818000,0.0324,0.013523,0.002678,0.000431,0.000705
28819000,0.0324,0.013523,0.002678,0.000431,0.000588
28820000,0.0324,0.013523,0.002678,0.000431,0.000470
28821000,0.0324,0.013523,0.002678,0.000431,0.000705
28822000,0.0324,0.013523,0.002678,0.000431,0.000353
28823000,0.0324,0.013523,0.002678,0.000431,0.000705
28824000,0.0324,0.013523,0.002678,0.000431,0.000470
28825000,0.0324,0.013523,0.002678,0.000431,0.000470
28826000,0.0324,0.013523,0.002678,0.000431,0.000470
28827000,0.0324,0.013523,0.002678,0.000431,0.000470
28828000,0.0324,0.013523,0.002678,0.000431,0.000470
28829000,0.0324,0.013523,0.002678,0.000431,0.000470
28830000,0.0324,0.013523,0.002678,0.000431,0.000353
28831000,0.0324,0.013523,0.002678,0.000431,0.000588
28832000,0.0324,0.013523,0.002678,0.000431,0.000353
28833000,0.0324,0.013523,0.002678,0.000431,0.000588
28834000,0.0324,0.013523,0.002678,0.000431,0.000353
28835000,0.0324,0.013523,0.002678,0.000431,0.000588
28836000,0.0324,0.013523,0.002678,0.000431,0.000235
28837000,0.0324,0.013523,0.002678,0.000431,0.000588
28838000,0.0324,0.013523,0.002678,0.000431,0.000470
28839000,0.0324,0.013523,0.002678,0.000431,0.000705
28840000,0.0324,0.013523,0.002678,0.000431,0.000353
28841000,0.0324,0.013523,0.002678,0.000431,0.000588
28842000,0.0324,0.013523,0.002678,0.000431,0.000353
28843000,0.0324,0.013523,0.002678,0.000431,0.000588
28844000,0.0324,0.013523,0.002678,0.000431,0.000588
28845000,0.0324,0.013523,0.002678,0.000431,0.000470
28846000,0.0324,0.013523,0.002678,0.000431,0.000235
28847000,0.0324,0.013523,0.002678,0.000431,0.000705
28848000,0.0324,0.013523,0.002678,0.000431,0.000353
28849000,0.0324,0.013523,0.002678,0.000431,0.000588
28850000,0.0324,0.013523,0.002678,0.000431,0.000353
28851000,0.0324,0.013523,0.002678,0.000431,0.000588
28852000,0.0324,0.013523,0.002678,0.000431,0.000353
28853000,0.0324,0.013523,0.002678,0.000431,0.000705
28854000,0.0324,0.013523,0.002678,0.000431,0.000353
28855000,0.0324,0.013523,0.002678,0.000431,0.000705
28856000,0.0324,0.013523,0.002678,0.000431,0.000470
28857000,0.0324,0.013523,0.002678,0.000431,0.000353
28858000,0.0324,0.013523,0.002678,0.000431,0.000470
28859000,0.0324,0.013523,0.002678,0.000431,0.000588
28860000,0.0324,0.013523,0.002678,0.000431,0.000588
28861000,0.0324,0.013523,0.002678,0.000431,0.000470
28862000,0.0324,0.013523,0.002678,0.000431,0.000705
28863000,0.0324,0.013523,0.002678,0.000431,0.000353
28864000,0.0324,0.013523,0.002678,0.000431,0.000705
28865000,0.0324,0.013523,0.002678,0.000431,0.000470
28866000,0.0324,0.013523,0.002678,0.000431,0.000470
28867000,0.0324,0.013523,0.002678,0.000431,0.000470
28868000,0.0324,0.013523,0.002678,0.000431,0.000470
28869000,0.0324,0.013523,0.002678,0.000431,0.000470
28870000,0.0324,0.013523,0.002678,0.000431,0.000470
28871000,0.0324,0.013523,0.002678,0.000431,0.000470
28872000,0.0324,0.013523,0.002678,0.000431,0.000470
28873000,0.0324,0.013523,0.002678,0.000431,0.000353
28874000,0.0324,0.013523,0.002678,0.000431,0.000588
28875000,0.0324,0.013523,0.002678,0.000431,0.000353
28876000,0.0324,0.013523,0.002678,0.000431,0.000588
28877000,0.0324,0.013523,0.002678,0.000431,0.000353
28878000,0.0324,0.013523,0.002678,0.000431,0.000588
28879000,0.0324,0.013523,0.002678,0.000431,0.000353
28880000,0.0324,0.013523,0.002678,0.000431,0.000588
28881000,0.0324,0.013523,0.002678,0.000431,0.000353
28882000,0.0324,0.013523,0.002678,0.000431,0.000705
28883000,0.0324,0.013523,0.002678,0.000431,0.000353
28884000,0.0324,0.013523,0.002678,0.000431,0.000588
28885000,0.0324,0.013523,0.002678,0.000431,0.000353
28886000,0.0324,0.013523,0.002678,0.000431,0.000588
28887000,0.0324,0.013523,0.002678,0.000431,0.000353
28888000,0.0324,0.013523,0.002678,0.000431,0.000588
28889000,0.0324,0.013523,0.002678,0.000431,0.000353
28890000,0.0324,0.013523,0.002678,0.000431,0.000588
28891000,0.0324,0.013523,0.002678,0.000431,0.000353
28892000,0.0324,0.013523,0.002678,0.000431,0.000470
28893000,0.0324,0.013523,0.002678,0.000431,0.000470
28894000,0.0324,0.013523,0.002678,0.000431,0.000470
28895000,0.0324,0.013523,0.002678,0.000431,0.000470
28896000,0.0324,0.013523,0.002678,0.000431,0.000470
28897000,0.0324,0.013523,0.002678,0.000431,0.000470
28898000,0.0324,0.013523,0.002678,0.000431,0.000470
28899000,0.0324,0.013523,0.002678,0.000431,0.000470
28900000,0.0324,0.013523,0.002678,0.000431,0.000470
28901000,0.0324,0.013523,0.002678,0.000431,0.000470
28902000,0.0324,0.013523,0.002678,0.000431,0.000588
28903000,0.0324,0.013523,0.002678,0.000431,0.000470
28904000,0.0324,0.013523,0.002678,0.000431,0.000588
28905000,0.0324,0.013523,0.002678,0.000431,0.000353
28906000,0.0324,0.013523,0.002678,0.000431,0.000470
28907000,0.0324,0.013523,0.002678,0.000431,0.000470
28908000,0.0324,0.013523,0.002678,0.000431,0.000353
28909000,0.0324,0.013523,0.002678,0.000431,0.000470
28910000,0.0324,0.013523,0.002678,0.000431,0.000470
28911000,0.0324,0.013523,0.002678,0.000431,0.000588
28912000,0.0324,0.013523,0.002678,0.000431,0.000353
28913000,0.0324,0.013523,0.002678,0.000431,0.000588
28914000,0.0324,0.013523,0.002678,0.000431,0.000353
28915000,0.0324,0.013523,0.002678,0.000431,0.000588
28916000,0.0324,0.013523,0.002678,0.000431,0.000353
28917000,0.0324,0.013523,0.002678,0.000431,0.000588
28918000,0.0324,0.013523,0.002678,0.000431,0.000353
28919000,0.0324,0.013523,0.002678,0.000431,0.000588
28920000,0.0324,0.013523,0.002678,0.000431,0.000353
28921000,0.0324,0.013523,0.002678,0.000431,0.000705
28922000,0.0324,0.013523,0.002678,0.000431,0.000588
28923000,0.0324,0.013523,0.002678,0.000431,0.000353
28924000,0.0324,0.013523,0.002678,0.000431,0.000588
28925000,0.0324,0.013523,0.002678,0.000431,0.000470
28926000,0.0324,0.013523,0.002678,0.000431,0.000588
28927000,0.0324,0.013523,0.002678,0.000431,0.000353
28928000,0.0324,0.013523,0.002678,0.000431,0.000588
28929000,0.0324,0.013523,0.002678,0.000431,0.000470
28930000,0.0324,0.013523,0.002678,0.000431,0.000470
28931000,0.0324,0.013523,0.002678,0.000431,0.000353
28932000,0.0324,0.013523,0.002678,0.000431,0.000588
28933000,0.0324,0.013523,0.002678,0.000431,0.000353
28934000,0.0324,0.013523,0.002678,0.000431,0.000588
28935000,0.0324,0.013523,0.002678,0.000431,0.000353
28936000,0.0324,0.013523,0.002678,0.000431,0.000588
28937000,0.0324,0.013523,0.002678,0.000431,0.000470
28938000,0.0324,0.013523,0.002678,0.000431,0.000470
28939000,0.0324,0.013523,0.002678,0.000431,0.000470
28940000,0.0324,0.013523,0.002678,0.000431,0.000470
28941000,0.0324,0.013523,0.002678,0.000431,0.000470
28942000,0.0324,0.013523,0.002678,0.000431,0.000470
28943000,0.0324,0.013523,0.002678,0.000431,0.000470
28944000,0.0324,0.013523,0.002678,0.000431,0.000470
28945000,0.0324,0.013523,0.002678,0.000431,0.000470
28946000,0.0324,0.013523,0.002678,0.000431,0.000470
28947000,0.0324,0.013523,0.002678,0.000431,0.000470
28948000,0.0324,0.013523,0.002678,0.000431,0.000470
28949000,0.0324,0.013523,0.002678,0.000431,0.000470
28950000,0.0324,0.013523,0.002678,0.000431,0.000353
28951000,0.0324,0.013523,0.002678,0.000431,0.000470
28952000,0.0324,0.013523,0.002678,0.000431,0.000470
28953000,0.0324,0.013523,0.002678,0.000431,0.000705
28954000,0.0324,0.013523,0.002678,0.000431,0.000470
28955000,0.0324,0.013523,0.002678,0.000431,0.000588
28956000,0.0324,0.013523,0.002678,0.000431,0.000353
28957000,0.0324,0.013523,0.002678,0.000431,0.000470
28958000,0.0324,0.013523,0.002678,0.000431,0.000353
28959000,0.0324,0.013523,0.002678,0.000431,0.000588
28960000,0.0324,0.013523,0.002678,0.000431,0.000353
28961000,0.0324,0.013523,0.002678,0.000431,0.000588
28962000,0.0324,0.013523,0.002678,0.000431,0.000353
28963000,0.0324,0.013523,0.002678,0.000431,0.000588
28964000,0.0324,0.013523,0.002678,0.000431,0.000470
28965000,0.0324,0.013523,0.002678,0.000431,0.000470
28966000,0.0324,0.013523,0.002678,0.000431,0.000470
28967000,0.0324,0.013523,0.002678,0.000431,0.000705
28968000,0.0324,0.013523,0.002678,0.000431,0.000470
28969000,0.0324,0.013523,0.002678,0.000431,0.000588
28970000,0.0324,0.013523,0.002678,0.000431,0.000353
28971000,0.0324,0.013523,0.002678,0.000431,0.000588
28972000,0.0324,0.013523,0.002678,0.000431,0.000353
28973000,0.0324,0.013523,0.002678,0.000431,0.000470
28974000,0.0324,0.013523,0.002678,0.000431,0.000470
28975000,0.0324,0.013523,0.002678,0.000431,0.000353
28976000,0.0324,0.013523,0.002678,0.000431,0.000588
28977000,0.0324,0.013523,0.002678,0.000431,0.000353
28978000,0.0324,0.013523,0.002678,0.000431,0.000588
28979000,0.0324,0.013523,0.002678,0.000431,0.000353
28980000,0.0324,0.013523,0.002678,0.000431,0.000588
28981000,0.0324,0.013523,0.002678,0.000431,0.000353
28982000,0.0324,0.013523,0.002678,0.000431,0.000588
28983000,0.0324,0.013523,0.002678,0.000431,0.000353
28984000,0.0324,0.013523,0.002678,0.000431,0.000588
28985000,0.0324,0.013523,0.002678,0.000431,0.000353
28986000,0.0324,0.013523,0.002678,0.000431,0.000588
28987000,0.0324,0.013523,0.002678,0.000431,0.000470
28988000,0.0324,0.013523,0.002678,0.000431,0.000588
28989000,0.0324,0.013523,0.002678,0.000431,0.000353
28990000,0.0324,0.013523,0.002678,0.000431,0.000705
28991000,0.0324,0.013523,0.002678,0.000431,0.000353
28992000,0.0324,0.013523,0.002678,0.000431,0.000588
28993000,0.0324,0.013523,0.002678,0.000431,0.000588
28994000,0.0324,0.013523,0.002678,0.000431,0.000353
28995000,0.0324,0.013523,0.002678,0.000431,0.000470
28996000,0.0324,0.013523,0.002678,0.000431,0.000588
28997000,0.0324,0.013523,0.002678,0.000431,0.000353
28998000,0.0324,0.013523,0.002678,0.000431,0.000588
28999000,0.0324,0.013523,0.002678,0.000431,0.000353
