Cycle,Area(mm^2),PeakDynamic(W),SubthresholdLeakage(W),GateLeakage(W),RunTimeDynamic(W)
14000000,0.0324,0.013523,0.002678,0.000431,0.000353
14001000,0.0324,0.013523,0.002678,0.000431,0.000588
14002000,0.0324,0.013523,0.002678,0.000431,0.000353
14003000,0.0324,0.013523,0.002678,0.000431,0.000588
14004000,0.0324,0.013523,0.002678,0.000431,0.000353
14005000,0.0324,0.013523,0.002678,0.000431,0.000588
14006000,0.0324,0.013523,0.002678,0.000431,0.000353
14007000,0.0324,0.013523,0.002678,0.000431,0.000588
14008000,0.0324,0.013523,0.002678,0.000431,0.000353
14009000,0.0324,0.013523,0.002678,0.000431,0.000588
14010000,0.0324,0.013523,0.002678,0.000431,0.000353
14011000,0.0324,0.013523,0.002678,0.000431,0.000588
14012000,0.0324,0.013523,0.002678,0.000431,0.000353
14013000,0.0324,0.013523,0.002678,0.000431,0.000470
14014000,0.0324,0.013523,0.002678,0.000431,0.000470
14015000,0.0324,0.013523,0.002678,0.000431,0.000353
14016000,0.0324,0.013523,0.002678,0.000431,0.000588
14017000,0.0324,0.013523,0.002678,0.000431,0.000353
14018000,0.0324,0.013523,0.002678,0.000431,0.000588
14019000,0.0324,0.013523,0.002678,0.000431,0.000353
14020000,0.0324,0.013523,0.002678,0.000431,0.000588
14021000,0.0324,0.013523,0.002678,0.000431,0.000353
14022000,0.0324,0.013523,0.002678,0.000431,0.000588
14023000,0.0324,0.013523,0.002678,0.000431,0.000353
14024000,0.0324,0.013523,0.002678,0.000431,0.000705
14025000,0.0324,0.013523,0.002678,0.000431,0.000470
14026000,0.0324,0.013523,0.002678,0.000431,0.000588
14027000,0.0324,0.013523,0.002678,0.000431,0.000353
14028000,0.0324,0.013523,0.002678,0.000431,0.000588
14029000,0.0324,0.013523,0.002678,0.000431,0.000353
14030000,0.0324,0.013523,0.002678,0.000431,0.000588
14031000,0.0324,0.013523,0.002678,0.000431,0.000470
14032000,0.0324,0.013523,0.002678,0.000431,0.000470
14033000,0.0324,0.013523,0.002678,0.000431,0.000470
14034000,0.0324,0.013523,0.002678,0.000431,0.000588
14035000,0.0324,0.013523,0.002678,0.000431,0.000353
14036000,0.0324,0.013523,0.002678,0.000431,0.000588
14037000,0.0324,0.013523,0.002678,0.000431,0.000353
14038000,0.0324,0.013523,0.002678,0.000431,0.000588
14039000,0.0324,0.013523,0.002678,0.000431,0.000353
14040000,0.0324,0.013523,0.002678,0.000431,0.000588
14041000,0.0324,0.013523,0.002678,0.000431,0.000470
14042000,0.0324,0.013523,0.002678,0.000431,0.000588
14043000,0.0324,0.013523,0.002678,0.000431,0.000470
14044000,0.0324,0.013523,0.002678,0.000431,0.000588
14045000,0.0324,0.013523,0.002678,0.000431,0.000353
14046000,0.0324,0.013523,0.002678,0.000431,0.000588
14047000,0.0324,0.013523,0.002678,0.000431,0.000353
14048000,0.0324,0.013523,0.002678,0.000431,0.000470
14049000,0.0324,0.013523,0.002678,0.000431,0.000470
14050000,0.0324,0.013523,0.002678,0.000431,0.000470
14051000,0.0324,0.013523,0.002678,0.000431,0.000470
14052000,0.0324,0.013523,0.002678,0.000431,0.000353
14053000,0.0324,0.013523,0.002678,0.000431,0.000588
14054000,0.0324,0.013523,0.002678,0.000431,0.000353
14055000,0.0324,0.013523,0.002678,0.000431,0.000705
14056000,0.0324,0.013523,0.002678,0.000431,0.000353
14057000,0.0324,0.013523,0.002678,0.000431,0.000705
14058000,0.0324,0.013523,0.002678,0.000431,0.000353
14059000,0.0324,0.013523,0.002678,0.000431,0.000588
14060000,0.0324,0.013523,0.002678,0.000431,0.000353
14061000,0.0324,0.013523,0.002678,0.000431,0.000588
14062000,0.0324,0.013523,0.002678,0.000431,0.000353
14063000,0.0324,0.013523,0.002678,0.000431,0.000705
14064000,0.0324,0.013523,0.002678,0.000431,0.000235
14065000,0.0324,0.013523,0.002678,0.000431,0.000588
14066000,0.0324,0.013523,0.002678,0.000431,0.000353
14067000,0.0324,0.013523,0.002678,0.000431,0.000588
14068000,0.0324,0.013523,0.002678,0.000431,0.000353
14069000,0.0324,0.013523,0.002678,0.000431,0.000588
14070000,0.0324,0.013523,0.002678,0.000431,0.000470
14071000,0.0324,0.013523,0.002678,0.000431,0.000470
14072000,0.0324,0.013523,0.002678,0.000431,0.000470
14073000,0.0324,0.013523,0.002678,0.000431,0.000353
14074000,0.0324,0.013523,0.002678,0.000431,0.000470
14075000,0.0324,0.013523,0.002678,0.000431,0.000470
14076000,0.0324,0.013523,0.002678,0.000431,0.000588
14077000,0.0324,0.013523,0.002678,0.000431,0.000353
14078000,0.0324,0.013523,0.002678,0.000431,0.000470
14079000,0.0324,0.013523,0.002678,0.000431,0.000470
14080000,0.0324,0.013523,0.002678,0.000431,0.000470
14081000,0.0324,0.013523,0.002678,0.000431,0.000470
14082000,0.0324,0.013523,0.002678,0.000431,0.000705
14083000,0.0324,0.013523,0.002678,0.000431,0.000470
14084000,0.0324,0.013523,0.002678,0.000431,0.000470
14085000,0.0324,0.013523,0.002678,0.000431,0.000470
14086000,0.0324,0.013523,0.002678,0.000431,0.000470
14087000,0.0324,0.013523,0.002678,0.000431,0.000353
14088000,0.0324,0.013523,0.002678,0.000431,0.000470
14089000,0.0324,0.013523,0.002678,0.000431,0.000353
14090000,0.0324,0.013523,0.002678,0.000431,0.000588
14091000,0.0324,0.013523,0.002678,0.000431,0.000353
14092000,0.0324,0.013523,0.002678,0.000431,0.000588
14093000,0.0324,0.013523,0.002678,0.000431,0.000353
14094000,0.0324,0.013523,0.002678,0.000431,0.000588
14095000,0.0324,0.013523,0.002678,0.000431,0.000353
14096000,0.0324,0.013523,0.002678,0.000431,0.000823
14097000,0.0324,0.013523,0.002678,0.000431,0.000353
14098000,0.0324,0.013523,0.002678,0.000431,0.000588
14099000,0.0324,0.013523,0.002678,0.000431,0.000353
14100000,0.0324,0.013523,0.002678,0.000431,0.000705
14101000,0.0324,0.013523,0.002678,0.000431,0.000470
14102000,0.0324,0.013523,0.002678,0.000431,0.000470
14103000,0.0324,0.013523,0.002678,0.000431,0.000470
14104000,0.0324,0.013523,0.002678,0.000431,0.000470
14105000,0.0324,0.013523,0.002678,0.000431,0.000470
14106000,0.0324,0.013523,0.002678,0.000431,0.000588
14107000,0.0324,0.013523,0.002678,0.000431,0.000353
14108000,0.0324,0.013523,0.002678,0.000431,0.000470
14109000,0.0324,0.013523,0.002678,0.000431,0.000470
14110000,0.0324,0.013523,0.002678,0.000431,0.000588
14111000,0.0324,0.013523,0.002678,0.000431,0.000470
14112000,0.0324,0.013523,0.002678,0.000431,0.000588
14113000,0.0324,0.013523,0.002678,0.000431,0.000353
14114000,0.0324,0.013523,0.002678,0.000431,0.000588
14115000,0.0324,0.013523,0.002678,0.000431,0.000353
14116000,0.0324,0.013523,0.002678,0.000431,0.000470
14117000,0.0324,0.013523,0.002678,0.000431,0.000470
14118000,0.0324,0.013523,0.002678,0.000431,0.000705
14119000,0.0324,0.013523,0.002678,0.000431,0.000353
14120000,0.0324,0.013523,0.002678,0.000431,0.000588
14121000,0.0324,0.013523,0.002678,0.000431,0.000353
14122000,0.0324,0.013523,0.002678,0.000431,0.000470
14123000,0.0324,0.013523,0.002678,0.000431,0.000470
14124000,0.0324,0.013523,0.002678,0.000431,0.000470
14125000,0.0324,0.013523,0.002678,0.000431,0.000470
14126000,0.0324,0.013523,0.002678,0.000431,0.000588
14127000,0.0324,0.013523,0.002678,0.000431,0.000470
14128000,0.0324,0.013523,0.002678,0.000431,0.000588
14129000,0.0324,0.013523,0.002678,0.000431,0.000353
14130000,0.0324,0.013523,0.002678,0.000431,0.000588
14131000,0.0324,0.013523,0.002678,0.000431,0.000353
14132000,0.0324,0.013523,0.002678,0.000431,0.000705
14133000,0.0324,0.013523,0.002678,0.000431,0.000353
14134000,0.0324,0.013523,0.002678,0.000431,0.000705
14135000,0.0324,0.013523,0.002678,0.000431,0.000470
14136000,0.0324,0.013523,0.002678,0.000431,0.000470
14137000,0.0324,0.013523,0.002678,0.000431,0.000470
14138000,0.0324,0.013523,0.002678,0.000431,0.000470
14139000,0.0324,0.013523,0.002678,0.000431,0.000470
14140000,0.0324,0.013523,0.002678,0.000431,0.000470
14141000,0.0324,0.013523,0.002678,0.000431,0.000470
14142000,0.0324,0.013523,0.002678,0.000431,0.000470
14143000,0.0324,0.013523,0.002678,0.000431,0.000353
14144000,0.0324,0.013523,0.002678,0.000431,0.000588
14145000,0.0324,0.013523,0.002678,0.000431,0.000353
14146000,0.0324,0.013523,0.002678,0.000431,0.000588
14147000,0.0324,0.013523,0.002678,0.000431,0.000353
14148000,0.0324,0.013523,0.002678,0.000431,0.000588
14149000,0.0324,0.013523,0.002678,0.000431,0.000353
14150000,0.0324,0.013523,0.002678,0.000431,0.000588
14151000,0.0324,0.013523,0.002678,0.000431,0.000353
14152000,0.0324,0.013523,0.002678,0.000431,0.000588
14153000,0.0324,0.013523,0.002678,0.000431,0.000353
14154000,0.0324,0.013523,0.002678,0.000431,0.000588
14155000,0.0324,0.013523,0.002678,0.000431,0.000353
14156000,0.0324,0.013523,0.002678,0.000431,0.000588
14157000,0.0324,0.013523,0.002678,0.000431,0.000353
14158000,0.0324,0.013523,0.002678,0.000431,0.000588
14159000,0.0324,0.013523,0.002678,0.000431,0.000353
14160000,0.0324,0.013523,0.002678,0.000431,0.000705
14161000,0.0324,0.013523,0.002678,0.000431,0.000353
14162000,0.0324,0.013523,0.002678,0.000431,0.000588
14163000,0.0324,0.013523,0.002678,0.000431,0.000470
14164000,0.0324,0.013523,0.002678,0.000431,0.000705
14165000,0.0324,0.013523,0.002678,0.000431,0.000353
14166000,0.0324,0.013523,0.002678,0.000431,0.000588
14167000,0.0324,0.013523,0.002678,0.000431,0.000353
14168000,0.0324,0.013523,0.002678,0.000431,0.000705
14169000,0.0324,0.013523,0.002678,0.000431,0.000588
14170000,0.0324,0.013523,0.002678,0.000431,0.000470
14171000,0.0324,0.013523,0.002678,0.000431,0.000588
14172000,0.0324,0.013523,0.002678,0.000431,0.000353
14173000,0.0324,0.013523,0.002678,0.000431,0.000588
14174000,0.0324,0.013523,0.002678,0.000431,0.000353
14175000,0.0324,0.013523,0.002678,0.000431,0.000588
14176000,0.0324,0.013523,0.002678,0.000431,0.000353
14177000,0.0324,0.013523,0.002678,0.000431,0.000588
14178000,0.0324,0.013523,0.002678,0.000431,0.000353
14179000,0.0324,0.013523,0.002678,0.000431,0.000588
14180000,0.0324,0.013523,0.002678,0.000431,0.000353
14181000,0.0324,0.013523,0.002678,0.000431,0.000470
14182000,0.0324,0.013523,0.002678,0.000431,0.000588
14183000,0.0324,0.013523,0.002678,0.000431,0.000588
14184000,0.0324,0.013523,0.002678,0.000431,0.000470
14185000,0.0324,0.013523,0.002678,0.000431,0.000705
14186000,0.0324,0.013523,0.002678,0.000431,0.000353
14187000,0.0324,0.013523,0.002678,0.000431,0.000705
14188000,0.0324,0.013523,0.002678,0.000431,0.000588
14189000,0.0324,0.013523,0.002678,0.000431,0.000470
14190000,0.0324,0.013523,0.002678,0.000431,0.000705
14191000,0.0324,0.013523,0.002678,0.000431,0.000235
14192000,0.0324,0.013523,0.002678,0.000431,0.000823
14193000,0.0324,0.013523,0.002678,0.000431,0.000235
14194000,0.0324,0.013523,0.002678,0.000431,0.000588
14195000,0.0324,0.013523,0.002678,0.000431,0.000353
14196000,0.0324,0.013523,0.002678,0.000431,0.000588
14197000,0.0324,0.013523,0.002678,0.000431,0.000353
14198000,0.0324,0.013523,0.002678,0.000431,0.000588
14199000,0.0324,0.013523,0.002678,0.000431,0.000470
14200000,0.0324,0.013523,0.002678,0.000431,0.000588
14201000,0.0324,0.013523,0.002678,0.000431,0.000353
14202000,0.0324,0.013523,0.002678,0.000431,0.000588
14203000,0.0324,0.013523,0.002678,0.000431,0.000353
14204000,0.0324,0.013523,0.002678,0.000431,0.000705
14205000,0.0324,0.013523,0.002678,0.000431,0.000353
14206000,0.0324,0.013523,0.002678,0.000431,0.000588
14207000,0.0324,0.013523,0.002678,0.000431,0.000353
14208000,0.0324,0.013523,0.002678,0.000431,0.000588
14209000,0.0324,0.013523,0.002678,0.000431,0.000470
14210000,0.0324,0.013523,0.002678,0.000431,0.000705
14211000,0.0324,0.013523,0.002678,0.000431,0.000353
14212000,0.0324,0.013523,0.002678,0.000431,0.000588
14213000,0.0324,0.013523,0.002678,0.000431,0.000353
14214000,0.0324,0.013523,0.002678,0.000431,0.000588
14215000,0.0324,0.013523,0.002678,0.000431,0.000353
14216000,0.0324,0.013523,0.002678,0.000431,0.000705
14217000,0.0324,0.013523,0.002678,0.000431,0.000353
14218000,0.0324,0.013523,0.002678,0.000431,0.000705
14219000,0.0324,0.013523,0.002678,0.000431,0.000353
14220000,0.0324,0.013523,0.002678,0.000431,0.000588
14221000,0.0324,0.013523,0.002678,0.000431,0.000470
14222000,0.0324,0.013523,0.002678,0.000431,0.000588
14223000,0.0324,0.013523,0.002678,0.000431,0.000470
14224000,0.0324,0.013523,0.002678,0.000431,0.000470
14225000,0.0324,0.013523,0.002678,0.000431,0.000470
14226000,0.0324,0.013523,0.002678,0.000431,0.000470
14227000,0.0324,0.013523,0.002678,0.000431,0.000470
14228000,0.0324,0.013523,0.002678,0.000431,0.000470
14229000,0.0324,0.013523,0.002678,0.000431,0.000470
14230000,0.0324,0.013523,0.002678,0.000431,0.000470
14231000,0.0324,0.013523,0.002678,0.000431,0.000470
14232000,0.0324,0.013523,0.002678,0.000431,0.000470
14233000,0.0324,0.013523,0.002678,0.000431,0.000470
14234000,0.0324,0.013523,0.002678,0.000431,0.000470
14235000,0.0324,0.013523,0.002678,0.000431,0.000470
14236000,0.0324,0.013523,0.002678,0.000431,0.000470
14237000,0.0324,0.013523,0.002678,0.000431,0.000470
14238000,0.0324,0.013523,0.002678,0.000431,0.000470
14239000,0.0324,0.013523,0.002678,0.000431,0.000470
14240000,0.0324,0.013523,0.002678,0.000431,0.000470
14241000,0.0324,0.013523,0.002678,0.000431,0.000353
14242000,0.0324,0.013523,0.002678,0.000431,0.000705
14243000,0.0324,0.013523,0.002678,0.000431,0.000470
14244000,0.0324,0.013523,0.002678,0.000431,0.000588
14245000,0.0324,0.013523,0.002678,0.000431,0.000353
14246000,0.0324,0.013523,0.002678,0.000431,0.000470
14247000,0.0324,0.013523,0.002678,0.000431,0.000353
14248000,0.0324,0.013523,0.002678,0.000431,0.000588
14249000,0.0324,0.013523,0.002678,0.000431,0.000353
14250000,0.0324,0.013523,0.002678,0.000431,0.000588
14251000,0.0324,0.013523,0.002678,0.000431,0.000353
14252000,0.0324,0.013523,0.002678,0.000431,0.000588
14253000,0.0324,0.013523,0.002678,0.000431,0.000353
14254000,0.0324,0.013523,0.002678,0.000431,0.000470
14255000,0.0324,0.013523,0.002678,0.000431,0.000470
14256000,0.0324,0.013523,0.002678,0.000431,0.000470
14257000,0.0324,0.013523,0.002678,0.000431,0.000470
14258000,0.0324,0.013523,0.002678,0.000431,0.000588
14259000,0.0324,0.013523,0.002678,0.000431,0.000470
14260000,0.0324,0.013523,0.002678,0.000431,0.000705
14261000,0.0324,0.013523,0.002678,0.000431,0.000353
14262000,0.0324,0.013523,0.002678,0.000431,0.000705
14263000,0.0324,0.013523,0.002678,0.000431,0.000353
14264000,0.0324,0.013523,0.002678,0.000431,0.000705
14265000,0.0324,0.013523,0.002678,0.000431,0.000470
14266000,0.0324,0.013523,0.002678,0.000431,0.000470
14267000,0.0324,0.013523,0.002678,0.000431,0.000470
14268000,0.0324,0.013523,0.002678,0.000431,0.000705
14269000,0.0324,0.013523,0.002678,0.000431,0.000353
14270000,0.0324,0.013523,0.002678,0.000431,0.000588
14271000,0.0324,0.013523,0.002678,0.000431,0.000353
14272000,0.0324,0.013523,0.002678,0.000431,0.000588
14273000,0.0324,0.013523,0.002678,0.000431,0.000353
14274000,0.0324,0.013523,0.002678,0.000431,0.000588
14275000,0.0324,0.013523,0.002678,0.000431,0.000353
14276000,0.0324,0.013523,0.002678,0.000431,0.000588
14277000,0.0324,0.013523,0.002678,0.000431,0.000353
14278000,0.0324,0.013523,0.002678,0.000431,0.000470
14279000,0.0324,0.013523,0.002678,0.000431,0.000470
14280000,0.0324,0.013523,0.002678,0.000431,0.000470
14281000,0.0324,0.013523,0.002678,0.000431,0.000470
14282000,0.0324,0.013523,0.002678,0.000431,0.000470
14283000,0.0324,0.013523,0.002678,0.000431,0.000470
14284000,0.0324,0.013523,0.002678,0.000431,0.000588
14285000,0.0324,0.013523,0.002678,0.000431,0.000353
14286000,0.0324,0.013523,0.002678,0.000431,0.000470
14287000,0.0324,0.013523,0.002678,0.000431,0.000470
14288000,0.0324,0.013523,0.002678,0.000431,0.000470
14289000,0.0324,0.013523,0.002678,0.000431,0.000353
14290000,0.0324,0.013523,0.002678,0.000431,0.000705
14291000,0.0324,0.013523,0.002678,0.000431,0.000353
14292000,0.0324,0.013523,0.002678,0.000431,0.000705
14293000,0.0324,0.013523,0.002678,0.000431,0.000470
14294000,0.0324,0.013523,0.002678,0.000431,0.000470
14295000,0.0324,0.013523,0.002678,0.000431,0.000470
14296000,0.0324,0.013523,0.002678,0.000431,0.000470
14297000,0.0324,0.013523,0.002678,0.000431,0.000470
14298000,0.0324,0.013523,0.002678,0.000431,0.000470
14299000,0.0324,0.013523,0.002678,0.000431,0.000470
14300000,0.0324,0.013523,0.002678,0.000431,0.000588
14301000,0.0324,0.013523,0.002678,0.000431,0.000353
14302000,0.0324,0.013523,0.002678,0.000431,0.000588
14303000,0.0324,0.013523,0.002678,0.000431,0.000353
14304000,0.0324,0.013523,0.002678,0.000431,0.000705
14305000,0.0324,0.013523,0.002678,0.000431,0.000353
14306000,0.0324,0.013523,0.002678,0.000431,0.000705
14307000,0.0324,0.013523,0.002678,0.000431,0.000470
14308000,0.0324,0.013523,0.002678,0.000431,0.000470
14309000,0.0324,0.013523,0.002678,0.000431,0.000470
14310000,0.0324,0.013523,0.002678,0.000431,0.000470
14311000,0.0324,0.013523,0.002678,0.000431,0.000353
14312000,0.0324,0.013523,0.002678,0.000431,0.000470
14313000,0.0324,0.013523,0.002678,0.000431,0.000470
14314000,0.0324,0.013523,0.002678,0.000431,0.000588
14315000,0.0324,0.013523,0.002678,0.000431,0.000353
14316000,0.0324,0.013523,0.002678,0.000431,0.000588
14317000,0.0324,0.013523,0.002678,0.000431,0.000353
14318000,0.0324,0.013523,0.002678,0.000431,0.000588
14319000,0.0324,0.013523,0.002678,0.000431,0.000353
14320000,0.0324,0.013523,0.002678,0.000431,0.000588
14321000,0.0324,0.013523,0.002678,0.000431,0.000353
14322000,0.0324,0.013523,0.002678,0.000431,0.000588
14323000,0.0324,0.013523,0.002678,0.000431,0.000353
14324000,0.0324,0.013523,0.002678,0.000431,0.000588
14325000,0.0324,0.013523,0.002678,0.000431,0.000353
14326000,0.0324,0.013523,0.002678,0.000431,0.000588
14327000,0.0324,0.013523,0.002678,0.000431,0.000353
14328000,0.0324,0.013523,0.002678,0.000431,0.000588
14329000,0.0324,0.013523,0.002678,0.000431,0.000353
14330000,0.0324,0.013523,0.002678,0.000431,0.000588
14331000,0.0324,0.013523,0.002678,0.000431,0.000353
14332000,0.0324,0.013523,0.002678,0.000431,0.000588
14333000,0.0324,0.013523,0.002678,0.000431,0.000353
14334000,0.0324,0.013523,0.002678,0.000431,0.000470
14335000,0.0324,0.013523,0.002678,0.000431,0.000470
14336000,0.0324,0.013523,0.002678,0.000431,0.000470
14337000,0.0324,0.013523,0.002678,0.000431,0.000470
14338000,0.0324,0.013523,0.002678,0.000431,0.000588
14339000,0.0324,0.013523,0.002678,0.000431,0.000588
14340000,0.0324,0.013523,0.002678,0.000431,0.000470
14341000,0.0324,0.013523,0.002678,0.000431,0.000470
14342000,0.0324,0.013523,0.002678,0.000431,0.000470
14343000,0.0324,0.013523,0.002678,0.000431,0.000470
14344000,0.0324,0.013523,0.002678,0.000431,0.000470
14345000,0.0324,0.013523,0.002678,0.000431,0.000470
14346000,0.0324,0.013523,0.002678,0.000431,0.000470
14347000,0.0324,0.013523,0.002678,0.000431,0.000353
14348000,0.0324,0.013523,0.002678,0.000431,0.000705
14349000,0.0324,0.013523,0.002678,0.000431,0.000470
14350000,0.0324,0.013523,0.002678,0.000431,0.000705
14351000,0.0324,0.013523,0.002678,0.000431,0.000353
14352000,0.0324,0.013523,0.002678,0.000431,0.000470
14353000,0.0324,0.013523,0.002678,0.000431,0.000353
14354000,0.0324,0.013523,0.002678,0.000431,0.000588
14355000,0.0324,0.013523,0.002678,0.000431,0.000353
14356000,0.0324,0.013523,0.002678,0.000431,0.000588
14357000,0.0324,0.013523,0.002678,0.000431,0.000353
14358000,0.0324,0.013523,0.002678,0.000431,0.000588
14359000,0.0324,0.013523,0.002678,0.000431,0.000353
14360000,0.0324,0.013523,0.002678,0.000431,0.000588
14361000,0.0324,0.013523,0.002678,0.000431,0.000470
14362000,0.0324,0.013523,0.002678,0.000431,0.000470
14363000,0.0324,0.013523,0.002678,0.000431,0.000353
14364000,0.0324,0.013523,0.002678,0.000431,0.000705
14365000,0.0324,0.013523,0.002678,0.000431,0.000470
14366000,0.0324,0.013523,0.002678,0.000431,0.000705
14367000,0.0324,0.013523,0.002678,0.000431,0.000235
14368000,0.0324,0.013523,0.002678,0.000431,0.000705
14369000,0.0324,0.013523,0.002678,0.000431,0.000353
14370000,0.0324,0.013523,0.002678,0.000431,0.000588
14371000,0.0324,0.013523,0.002678,0.000431,0.000470
14372000,0.0324,0.013523,0.002678,0.000431,0.000588
14373000,0.0324,0.013523,0.002678,0.000431,0.000353
14374000,0.0324,0.013523,0.002678,0.000431,0.000588
14375000,0.0324,0.013523,0.002678,0.000431,0.000353
14376000,0.0324,0.013523,0.002678,0.000431,0.000588
14377000,0.0324,0.013523,0.002678,0.000431,0.000353
14378000,0.0324,0.013523,0.002678,0.000431,0.000705
14379000,0.0324,0.013523,0.002678,0.000431,0.000353
14380000,0.0324,0.013523,0.002678,0.000431,0.000588
14381000,0.0324,0.013523,0.002678,0.000431,0.000353
14382000,0.0324,0.013523,0.002678,0.000431,0.000705
14383000,0.0324,0.013523,0.002678,0.000431,0.000353
14384000,0.0324,0.013523,0.002678,0.000431,0.000588
14385000,0.0324,0.013523,0.002678,0.000431,0.000235
14386000,0.0324,0.013523,0.002678,0.000431,0.000588
14387000,0.0324,0.013523,0.002678,0.000431,0.000353
14388000,0.0324,0.013523,0.002678,0.000431,0.000705
14389000,0.0324,0.013523,0.002678,0.000431,0.000353
14390000,0.0324,0.013523,0.002678,0.000431,0.000470
14391000,0.0324,0.013523,0.002678,0.000431,0.000353
14392000,0.0324,0.013523,0.002678,0.000431,0.000588
14393000,0.0324,0.013523,0.002678,0.000431,0.000353
14394000,0.0324,0.013523,0.002678,0.000431,0.000705
14395000,0.0324,0.013523,0.002678,0.000431,0.000353
14396000,0.0324,0.013523,0.002678,0.000431,0.000705
14397000,0.0324,0.013523,0.002678,0.000431,0.000353
14398000,0.0324,0.013523,0.002678,0.000431,0.000588
14399000,0.0324,0.013523,0.002678,0.000431,0.000470
14400000,0.0324,0.013523,0.002678,0.000431,0.000705
14401000,0.0324,0.013523,0.002678,0.000431,0.000353
14402000,0.0324,0.013523,0.002678,0.000431,0.000705
14403000,0.0324,0.013523,0.002678,0.000431,0.000353
14404000,0.0324,0.013523,0.002678,0.000431,0.000588
14405000,0.0324,0.013523,0.002678,0.000431,0.000353
14406000,0.0324,0.013523,0.002678,0.000431,0.000470
14407000,0.0324,0.013523,0.002678,0.000431,0.000353
14408000,0.0324,0.013523,0.002678,0.000431,0.000588
14409000,0.0324,0.013523,0.002678,0.000431,0.000353
14410000,0.0324,0.013523,0.002678,0.000431,0.000588
14411000,0.0324,0.013523,0.002678,0.000431,0.000353
14412000,0.0324,0.013523,0.002678,0.000431,0.000588
14413000,0.0324,0.013523,0.002678,0.000431,0.000353
14414000,0.0324,0.013523,0.002678,0.000431,0.000588
14415000,0.0324,0.013523,0.002678,0.000431,0.000353
14416000,0.0324,0.013523,0.002678,0.000431,0.000588
14417000,0.0324,0.013523,0.002678,0.000431,0.000470
14418000,0.0324,0.013523,0.002678,0.000431,0.000353
14419000,0.0324,0.013523,0.002678,0.000431,0.000588
14420000,0.0324,0.013523,0.002678,0.000431,0.000353
14421000,0.0324,0.013523,0.002678,0.000431,0.000588
14422000,0.0324,0.013523,0.002678,0.000431,0.000353
14423000,0.0324,0.013523,0.002678,0.000431,0.000470
14424000,0.0324,0.013523,0.002678,0.000431,0.000470
14425000,0.0324,0.013523,0.002678,0.000431,0.000470
14426000,0.0324,0.013523,0.002678,0.000431,0.000470
14427000,0.0324,0.013523,0.002678,0.000431,0.000470
14428000,0.0324,0.013523,0.002678,0.000431,0.000470
14429000,0.0324,0.013523,0.002678,0.000431,0.000823
14430000,0.0324,0.013523,0.002678,0.000431,0.000235
14431000,0.0324,0.013523,0.002678,0.000431,0.000823
14432000,0.0324,0.013523,0.002678,0.000431,0.000353
14433000,0.0324,0.013523,0.002678,0.000431,0.000588
14434000,0.0324,0.013523,0.002678,0.000431,0.000353
14435000,0.0324,0.013523,0.002678,0.000431,0.000588
14436000,0.0324,0.013523,0.002678,0.000431,0.000353
14437000,0.0324,0.013523,0.002678,0.000431,0.000588
14438000,0.0324,0.013523,0.002678,0.000431,0.000353
14439000,0.0324,0.013523,0.002678,0.000431,0.000588
14440000,0.0324,0.013523,0.002678,0.000431,0.000353
14441000,0.0324,0.013523,0.002678,0.000431,0.000588
14442000,0.0324,0.013523,0.002678,0.000431,0.000353
14443000,0.0324,0.013523,0.002678,0.000431,0.000588
14444000,0.0324,0.013523,0.002678,0.000431,0.000353
14445000,0.0324,0.013523,0.002678,0.000431,0.000588
14446000,0.0324,0.013523,0.002678,0.000431,0.000353
14447000,0.0324,0.013523,0.002678,0.000431,0.000588
14448000,0.0324,0.013523,0.002678,0.000431,0.000353
14449000,0.0324,0.013523,0.002678,0.000431,0.000588
14450000,0.0324,0.013523,0.002678,0.000431,0.000353
14451000,0.0324,0.013523,0.002678,0.000431,0.000588
14452000,0.0324,0.013523,0.002678,0.000431,0.000353
14453000,0.0324,0.013523,0.002678,0.000431,0.000470
14454000,0.0324,0.013523,0.002678,0.000431,0.000470
14455000,0.0324,0.013523,0.002678,0.000431,0.000470
14456000,0.0324,0.013523,0.002678,0.000431,0.000470
14457000,0.0324,0.013523,0.002678,0.000431,0.000353
14458000,0.0324,0.013523,0.002678,0.000431,0.000588
14459000,0.0324,0.013523,0.002678,0.000431,0.000353
14460000,0.0324,0.013523,0.002678,0.000431,0.000588
14461000,0.0324,0.013523,0.002678,0.000431,0.000353
14462000,0.0324,0.013523,0.002678,0.000431,0.000588
14463000,0.0324,0.013523,0.002678,0.000431,0.000353
14464000,0.0324,0.013523,0.002678,0.000431,0.000588
14465000,0.0324,0.013523,0.002678,0.000431,0.000353
14466000,0.0324,0.013523,0.002678,0.000431,0.000588
14467000,0.0324,0.013523,0.002678,0.000431,0.000353
14468000,0.0324,0.013523,0.002678,0.000431,0.000588
14469000,0.0324,0.013523,0.002678,0.000431,0.000470
14470000,0.0324,0.013523,0.002678,0.000431,0.000705
14471000,0.0324,0.013523,0.002678,0.000431,0.000353
14472000,0.0324,0.013523,0.002678,0.000431,0.000588
14473000,0.0324,0.013523,0.002678,0.000431,0.000353
14474000,0.0324,0.013523,0.002678,0.000431,0.000588
14475000,0.0324,0.013523,0.002678,0.000431,0.000353
14476000,0.0324,0.013523,0.002678,0.000431,0.000588
14477000,0.0324,0.013523,0.002678,0.000431,0.000353
14478000,0.0324,0.013523,0.002678,0.000431,0.000588
14479000,0.0324,0.013523,0.002678,0.000431,0.000353
14480000,0.0324,0.013523,0.002678,0.000431,0.000588
14481000,0.0324,0.013523,0.002678,0.000431,0.000353
14482000,0.0324,0.013523,0.002678,0.000431,0.000470
14483000,0.0324,0.013523,0.002678,0.000431,0.000470
14484000,0.0324,0.013523,0.002678,0.000431,0.000588
14485000,0.0324,0.013523,0.002678,0.000431,0.000588
14486000,0.0324,0.013523,0.002678,0.000431,0.000470
14487000,0.0324,0.013523,0.002678,0.000431,0.000470
14488000,0.0324,0.013523,0.002678,0.000431,0.000470
14489000,0.0324,0.013523,0.002678,0.000431,0.000470
14490000,0.0324,0.013523,0.002678,0.000431,0.000470
14491000,0.0324,0.013523,0.002678,0.000431,0.000470
14492000,0.0324,0.013523,0.002678,0.000431,0.000470
14493000,0.0324,0.013523,0.002678,0.000431,0.000588
14494000,0.0324,0.013523,0.002678,0.000431,0.000353
14495000,0.0324,0.013523,0.002678,0.000431,0.000588
14496000,0.0324,0.013523,0.002678,0.000431,0.000353
14497000,0.0324,0.013523,0.002678,0.000431,0.000705
14498000,0.0324,0.013523,0.002678,0.000431,0.000588
14499000,0.0324,0.013523,0.002678,0.000431,0.000470
14500000,0.0324,0.013523,0.002678,0.000431,0.000705
14501000,0.0324,0.013523,0.002678,0.000431,0.000235
14502000,0.0324,0.013523,0.002678,0.000431,0.000588
14503000,0.0324,0.013523,0.002678,0.000431,0.000353
14504000,0.0324,0.013523,0.002678,0.000431,0.000823
14505000,0.0324,0.013523,0.002678,0.000431,0.000353
14506000,0.0324,0.013523,0.002678,0.000431,0.000588
14507000,0.0324,0.013523,0.002678,0.000431,0.000353
14508000,0.0324,0.013523,0.002678,0.000431,0.000588
14509000,0.0324,0.013523,0.002678,0.000431,0.000353
14510000,0.0324,0.013523,0.002678,0.000431,0.000588
14511000,0.0324,0.013523,0.002678,0.000431,0.000353
14512000,0.0324,0.013523,0.002678,0.000431,0.000588
14513000,0.0324,0.013523,0.002678,0.000431,0.000353
14514000,0.0324,0.013523,0.002678,0.000431,0.000588
14515000,0.0324,0.013523,0.002678,0.000431,0.000235
14516000,0.0324,0.013523,0.002678,0.000431,0.000588
14517000,0.0324,0.013523,0.002678,0.000431,0.000353
14518000,0.0324,0.013523,0.002678,0.000431,0.000823
14519000,0.0324,0.013523,0.002678,0.000431,0.000235
14520000,0.0324,0.013523,0.002678,0.000431,0.000705
14521000,0.0324,0.013523,0.002678,0.000431,0.000353
14522000,0.0324,0.013523,0.002678,0.000431,0.000705
14523000,0.0324,0.013523,0.002678,0.000431,0.000588
14524000,0.0324,0.013523,0.002678,0.000431,0.000470
14525000,0.0324,0.013523,0.002678,0.000431,0.000705
14526000,0.0324,0.013523,0.002678,0.000431,0.000353
14527000,0.0324,0.013523,0.002678,0.000431,0.000588
14528000,0.0324,0.013523,0.002678,0.000431,0.000353
14529000,0.0324,0.013523,0.002678,0.000431,0.000588
14530000,0.0324,0.013523,0.002678,0.000431,0.000353
14531000,0.0324,0.013523,0.002678,0.000431,0.000588
14532000,0.0324,0.013523,0.002678,0.000431,0.000470
14533000,0.0324,0.013523,0.002678,0.000431,0.000705
14534000,0.0324,0.013523,0.002678,0.000431,0.000470
14535000,0.0324,0.013523,0.002678,0.000431,0.000588
14536000,0.0324,0.013523,0.002678,0.000431,0.000353
14537000,0.0324,0.013523,0.002678,0.000431,0.000470
14538000,0.0324,0.013523,0.002678,0.000431,0.000470
14539000,0.0324,0.013523,0.002678,0.000431,0.000705
14540000,0.0324,0.013523,0.002678,0.000431,0.000353
14541000,0.0324,0.013523,0.002678,0.000431,0.000705
14542000,0.0324,0.013523,0.002678,0.000431,0.000470
14543000,0.0324,0.013523,0.002678,0.000431,0.000470
14544000,0.0324,0.013523,0.002678,0.000431,0.000470
14545000,0.0324,0.013523,0.002678,0.000431,0.000470
14546000,0.0324,0.013523,0.002678,0.000431,0.000353
14547000,0.0324,0.013523,0.002678,0.000431,0.000588
14548000,0.0324,0.013523,0.002678,0.000431,0.000353
14549000,0.0324,0.013523,0.002678,0.000431,0.000588
14550000,0.0324,0.013523,0.002678,0.000431,0.000353
14551000,0.0324,0.013523,0.002678,0.000431,0.000705
14552000,0.0324,0.013523,0.002678,0.000431,0.000353
14553000,0.0324,0.013523,0.002678,0.000431,0.000705
14554000,0.0324,0.013523,0.002678,0.000431,0.000470
14555000,0.0324,0.013523,0.002678,0.000431,0.000470
14556000,0.0324,0.013523,0.002678,0.000431,0.000470
14557000,0.0324,0.013523,0.002678,0.000431,0.000470
14558000,0.0324,0.013523,0.002678,0.000431,0.000470
14559000,0.0324,0.013523,0.002678,0.000431,0.000470
14560000,0.0324,0.013523,0.002678,0.000431,0.000470
14561000,0.0324,0.013523,0.002678,0.000431,0.000470
14562000,0.0324,0.013523,0.002678,0.000431,0.000353
14563000,0.0324,0.013523,0.002678,0.000431,0.000588
14564000,0.0324,0.013523,0.002678,0.000431,0.000353
14565000,0.0324,0.013523,0.002678,0.000431,0.000588
14566000,0.0324,0.013523,0.002678,0.000431,0.000353
14567000,0.0324,0.013523,0.002678,0.000431,0.000588
14568000,0.0324,0.013523,0.002678,0.000431,0.000353
14569000,0.0324,0.013523,0.002678,0.000431,0.000470
14570000,0.0324,0.013523,0.002678,0.000431,0.000353
14571000,0.0324,0.013523,0.002678,0.000431,0.000588
14572000,0.0324,0.013523,0.002678,0.000431,0.000353
14573000,0.0324,0.013523,0.002678,0.000431,0.000588
14574000,0.0324,0.013523,0.002678,0.000431,0.000353
14575000,0.0324,0.013523,0.002678,0.000431,0.000705
14576000,0.0324,0.013523,0.002678,0.000431,0.000353
14577000,0.0324,0.013523,0.002678,0.000431,0.000588
14578000,0.0324,0.013523,0.002678,0.000431,0.000353
14579000,0.0324,0.013523,0.002678,0.000431,0.000470
14580000,0.0324,0.013523,0.002678,0.000431,0.000705
14581000,0.0324,0.013523,0.002678,0.000431,0.000353
14582000,0.0324,0.013523,0.002678,0.000431,0.000470
14583000,0.0324,0.013523,0.002678,0.000431,0.000470
14584000,0.0324,0.013523,0.002678,0.000431,0.000588
14585000,0.0324,0.013523,0.002678,0.000431,0.000353
14586000,0.0324,0.013523,0.002678,0.000431,0.000470
14587000,0.0324,0.013523,0.002678,0.000431,0.000470
14588000,0.0324,0.013523,0.002678,0.000431,0.000470
14589000,0.0324,0.013523,0.002678,0.000431,0.000470
14590000,0.0324,0.013523,0.002678,0.000431,0.000470
14591000,0.0324,0.013523,0.002678,0.000431,0.000470
14592000,0.0324,0.013523,0.002678,0.000431,0.000470
14593000,0.0324,0.013523,0.002678,0.000431,0.000470
14594000,0.0324,0.013523,0.002678,0.000431,0.000470
14595000,0.0324,0.013523,0.002678,0.000431,0.000353
14596000,0.0324,0.013523,0.002678,0.000431,0.000823
14597000,0.0324,0.013523,0.002678,0.000431,0.000353
14598000,0.0324,0.013523,0.002678,0.000431,0.000588
14599000,0.0324,0.013523,0.002678,0.000431,0.000353
14600000,0.0324,0.013523,0.002678,0.000431,0.000705
14601000,0.0324,0.013523,0.002678,0.000431,0.000353
14602000,0.0324,0.013523,0.002678,0.000431,0.000588
14603000,0.0324,0.013523,0.002678,0.000431,0.000353
14604000,0.0324,0.013523,0.002678,0.000431,0.000588
14605000,0.0324,0.013523,0.002678,0.000431,0.000353
14606000,0.0324,0.013523,0.002678,0.000431,0.000588
14607000,0.0324,0.013523,0.002678,0.000431,0.000353
14608000,0.0324,0.013523,0.002678,0.000431,0.000588
14609000,0.0324,0.013523,0.002678,0.000431,0.000353
14610000,0.0324,0.013523,0.002678,0.000431,0.000588
14611000,0.0324,0.013523,0.002678,0.000431,0.000353
14612000,0.0324,0.013523,0.002678,0.000431,0.000588
14613000,0.0324,0.013523,0.002678,0.000431,0.000353
14614000,0.0324,0.013523,0.002678,0.000431,0.000588
14615000,0.0324,0.013523,0.002678,0.000431,0.000353
14616000,0.0324,0.013523,0.002678,0.000431,0.000588
14617000,0.0324,0.013523,0.002678,0.000431,0.000470
14618000,0.0324,0.013523,0.002678,0.000431,0.000470
14619000,0.0324,0.013523,0.002678,0.000431,0.000470
14620000,0.0324,0.013523,0.002678,0.000431,0.000705
14621000,0.0324,0.013523,0.002678,0.000431,0.000353
14622000,0.0324,0.013523,0.002678,0.000431,0.000705
14623000,0.0324,0.013523,0.002678,0.000431,0.000470
14624000,0.0324,0.013523,0.002678,0.000431,0.000470
14625000,0.0324,0.013523,0.002678,0.000431,0.000470
14626000,0.0324,0.013523,0.002678,0.000431,0.000470
14627000,0.0324,0.013523,0.002678,0.000431,0.000470
14628000,0.0324,0.013523,0.002678,0.000431,0.000470
14629000,0.0324,0.013523,0.002678,0.000431,0.000470
14630000,0.0324,0.013523,0.002678,0.000431,0.000470
14631000,0.0324,0.013523,0.002678,0.000431,0.000470
14632000,0.0324,0.013523,0.002678,0.000431,0.000470
14633000,0.0324,0.013523,0.002678,0.000431,0.000470
14634000,0.0324,0.013523,0.002678,0.000431,0.000470
14635000,0.0324,0.013523,0.002678,0.000431,0.000470
14636000,0.0324,0.013523,0.002678,0.000431,0.000470
14637000,0.0324,0.013523,0.002678,0.000431,0.000353
14638000,0.0324,0.013523,0.002678,0.000431,0.000588
14639000,0.0324,0.013523,0.002678,0.000431,0.000353
14640000,0.0324,0.013523,0.002678,0.000431,0.000705
14641000,0.0324,0.013523,0.002678,0.000431,0.000353
14642000,0.0324,0.013523,0.002678,0.000431,0.000705
14643000,0.0324,0.013523,0.002678,0.000431,0.000588
14644000,0.0324,0.013523,0.002678,0.000431,0.000470
14645000,0.0324,0.013523,0.002678,0.000431,0.000588
14646000,0.0324,0.013523,0.002678,0.000431,0.000353
14647000,0.0324,0.013523,0.002678,0.000431,0.000588
14648000,0.0324,0.013523,0.002678,0.000431,0.000353
14649000,0.0324,0.013523,0.002678,0.000431,0.000588
14650000,0.0324,0.013523,0.002678,0.000431,0.000353
14651000,0.0324,0.013523,0.002678,0.000431,0.000588
14652000,0.0324,0.013523,0.002678,0.000431,0.000353
14653000,0.0324,0.013523,0.002678,0.000431,0.000588
14654000,0.0324,0.013523,0.002678,0.000431,0.000353
14655000,0.0324,0.013523,0.002678,0.000431,0.000470
14656000,0.0324,0.013523,0.002678,0.000431,0.000470
14657000,0.0324,0.013523,0.002678,0.000431,0.000470
14658000,0.0324,0.013523,0.002678,0.000431,0.000470
14659000,0.0324,0.013523,0.002678,0.000431,0.000353
14660000,0.0324,0.013523,0.002678,0.000431,0.000588
14661000,0.0324,0.013523,0.002678,0.000431,0.000353
14662000,0.0324,0.013523,0.002678,0.000431,0.000588
14663000,0.0324,0.013523,0.002678,0.000431,0.000353
14664000,0.0324,0.013523,0.002678,0.000431,0.000588
14665000,0.0324,0.013523,0.002678,0.000431,0.000353
14666000,0.0324,0.013523,0.002678,0.000431,0.000705
14667000,0.0324,0.013523,0.002678,0.000431,0.000588
14668000,0.0324,0.013523,0.002678,0.000431,0.000470
14669000,0.0324,0.013523,0.002678,0.000431,0.000705
14670000,0.0324,0.013523,0.002678,0.000431,0.000353
14671000,0.0324,0.013523,0.002678,0.000431,0.000588
14672000,0.0324,0.013523,0.002678,0.000431,0.000470
14673000,0.0324,0.013523,0.002678,0.000431,0.000588
14674000,0.0324,0.013523,0.002678,0.000431,0.000470
14675000,0.0324,0.013523,0.002678,0.000431,0.000588
14676000,0.0324,0.013523,0.002678,0.000431,0.000353
14677000,0.0324,0.013523,0.002678,0.000431,0.000470
14678000,0.0324,0.013523,0.002678,0.000431,0.000470
14679000,0.0324,0.013523,0.002678,0.000431,0.000588
14680000,0.0324,0.013523,0.002678,0.000431,0.000353
14681000,0.0324,0.013523,0.002678,0.000431,0.000588
14682000,0.0324,0.013523,0.002678,0.000431,0.000353
14683000,0.0324,0.013523,0.002678,0.000431,0.000588
14684000,0.0324,0.013523,0.002678,0.000431,0.000353
14685000,0.0324,0.013523,0.002678,0.000431,0.000588
14686000,0.0324,0.013523,0.002678,0.000431,0.000353
14687000,0.0324,0.013523,0.002678,0.000431,0.000705
14688000,0.0324,0.013523,0.002678,0.000431,0.000470
14689000,0.0324,0.013523,0.002678,0.000431,0.000470
14690000,0.0324,0.013523,0.002678,0.000431,0.000353
14691000,0.0324,0.013523,0.002678,0.000431,0.000588
14692000,0.0324,0.013523,0.002678,0.000431,0.000588
14693000,0.0324,0.013523,0.002678,0.000431,0.000470
14694000,0.0324,0.013523,0.002678,0.000431,0.000705
14695000,0.0324,0.013523,0.002678,0.000431,0.000353
14696000,0.0324,0.013523,0.002678,0.000431,0.000588
14697000,0.0324,0.013523,0.002678,0.000431,0.000353
14698000,0.0324,0.013523,0.002678,0.000431,0.000588
14699000,0.0324,0.013523,0.002678,0.000431,0.000470
14700000,0.0324,0.013523,0.002678,0.000431,0.000588
14701000,0.0324,0.013523,0.002678,0.000431,0.000470
14702000,0.0324,0.013523,0.002678,0.000431,0.000470
14703000,0.0324,0.013523,0.002678,0.000431,0.000470
14704000,0.0324,0.013523,0.002678,0.000431,0.000470
14705000,0.0324,0.013523,0.002678,0.000431,0.000470
14706000,0.0324,0.013523,0.002678,0.000431,0.000353
14707000,0.0324,0.013523,0.002678,0.000431,0.000588
14708000,0.0324,0.013523,0.002678,0.000431,0.000235
14709000,0.0324,0.013523,0.002678,0.000431,0.000705
14710000,0.0324,0.013523,0.002678,0.000431,0.000588
14711000,0.0324,0.013523,0.002678,0.000431,0.000470
14712000,0.0324,0.013523,0.002678,0.000431,0.000705
14713000,0.0324,0.013523,0.002678,0.000431,0.000353
14714000,0.0324,0.013523,0.002678,0.000431,0.000705
14715000,0.0324,0.013523,0.002678,0.000431,0.000470
14716000,0.0324,0.013523,0.002678,0.000431,0.000470
14717000,0.0324,0.013523,0.002678,0.000431,0.000470
14718000,0.0324,0.013523,0.002678,0.000431,0.000470
14719000,0.0324,0.013523,0.002678,0.000431,0.000353
14720000,0.0324,0.013523,0.002678,0.000431,0.000588
14721000,0.0324,0.013523,0.002678,0.000431,0.000353
14722000,0.0324,0.013523,0.002678,0.000431,0.000588
14723000,0.0324,0.013523,0.002678,0.000431,0.000353
14724000,0.0324,0.013523,0.002678,0.000431,0.000588
14725000,0.0324,0.013523,0.002678,0.000431,0.000353
14726000,0.0324,0.013523,0.002678,0.000431,0.000588
14727000,0.0324,0.013523,0.002678,0.000431,0.000353
14728000,0.0324,0.013523,0.002678,0.000431,0.000588
14729000,0.0324,0.013523,0.002678,0.000431,0.000470
14730000,0.0324,0.013523,0.002678,0.000431,0.000470
14731000,0.0324,0.013523,0.002678,0.000431,0.000470
14732000,0.0324,0.013523,0.002678,0.000431,0.000588
14733000,0.0324,0.013523,0.002678,0.000431,0.000470
14734000,0.0324,0.013523,0.002678,0.000431,0.000705
14735000,0.0324,0.013523,0.002678,0.000431,0.000353
14736000,0.0324,0.013523,0.002678,0.000431,0.000470
14737000,0.0324,0.013523,0.002678,0.000431,0.000470
14738000,0.0324,0.013523,0.002678,0.000431,0.000470
14739000,0.0324,0.013523,0.002678,0.000431,0.000470
14740000,0.0324,0.013523,0.002678,0.000431,0.000470
14741000,0.0324,0.013523,0.002678,0.000431,0.000470
14742000,0.0324,0.013523,0.002678,0.000431,0.000470
14743000,0.0324,0.013523,0.002678,0.000431,0.000588
14744000,0.0324,0.013523,0.002678,0.000431,0.000353
14745000,0.0324,0.013523,0.002678,0.000431,0.000470
14746000,0.0324,0.013523,0.002678,0.000431,0.000470
14747000,0.0324,0.013523,0.002678,0.000431,0.000588
14748000,0.0324,0.013523,0.002678,0.000431,0.000353
14749000,0.0324,0.013523,0.002678,0.000431,0.000470
14750000,0.0324,0.013523,0.002678,0.000431,0.000470
14751000,0.0324,0.013523,0.002678,0.000431,0.000470
14752000,0.0324,0.013523,0.002678,0.000431,0.000470
14753000,0.0324,0.013523,0.002678,0.000431,0.000588
14754000,0.0324,0.013523,0.002678,0.000431,0.000353
14755000,0.0324,0.013523,0.002678,0.000431,0.000588
14756000,0.0324,0.013523,0.002678,0.000431,0.000353
14757000,0.0324,0.013523,0.002678,0.000431,0.000705
14758000,0.0324,0.013523,0.002678,0.000431,0.000353
14759000,0.0324,0.013523,0.002678,0.000431,0.000470
14760000,0.0324,0.013523,0.002678,0.000431,0.000353
14761000,0.0324,0.013523,0.002678,0.000431,0.000588
14762000,0.0324,0.013523,0.002678,0.000431,0.000353
14763000,0.0324,0.013523,0.002678,0.000431,0.000588
14764000,0.0324,0.013523,0.002678,0.000431,0.000353
14765000,0.0324,0.013523,0.002678,0.000431,0.000588
14766000,0.0324,0.013523,0.002678,0.000431,0.000353
14767000,0.0324,0.013523,0.002678,0.000431,0.000588
14768000,0.0324,0.013523,0.002678,0.000431,0.000353
14769000,0.0324,0.013523,0.002678,0.000431,0.000588
14770000,0.0324,0.013523,0.002678,0.000431,0.000470
14771000,0.0324,0.013523,0.002678,0.000431,0.000705
14772000,0.0324,0.013523,0.002678,0.000431,0.000235
14773000,0.0324,0.013523,0.002678,0.000431,0.000823
14774000,0.0324,0.013523,0.002678,0.000431,0.000353
14775000,0.0324,0.013523,0.002678,0.000431,0.000588
14776000,0.0324,0.013523,0.002678,0.000431,0.000353
14777000,0.0324,0.013523,0.002678,0.000431,0.000705
14778000,0.0324,0.013523,0.002678,0.000431,0.000353
14779000,0.0324,0.013523,0.002678,0.000431,0.000705
14780000,0.0324,0.013523,0.002678,0.000431,0.000470
14781000,0.0324,0.013523,0.002678,0.000431,0.000470
14782000,0.0324,0.013523,0.002678,0.000431,0.000470
14783000,0.0324,0.013523,0.002678,0.000431,0.000470
14784000,0.0324,0.013523,0.002678,0.000431,0.000470
14785000,0.0324,0.013523,0.002678,0.000431,0.000470
14786000,0.0324,0.013523,0.002678,0.000431,0.000470
14787000,0.0324,0.013523,0.002678,0.000431,0.000470
14788000,0.0324,0.013523,0.002678,0.000431,0.000470
14789000,0.0324,0.013523,0.002678,0.000431,0.000470
14790000,0.0324,0.013523,0.002678,0.000431,0.000470
14791000,0.0324,0.013523,0.002678,0.000431,0.000470
14792000,0.0324,0.013523,0.002678,0.000431,0.000470
14793000,0.0324,0.013523,0.002678,0.000431,0.000470
14794000,0.0324,0.013523,0.002678,0.000431,0.000353
14795000,0.0324,0.013523,0.002678,0.000431,0.000588
14796000,0.0324,0.013523,0.002678,0.000431,0.000353
14797000,0.0324,0.013523,0.002678,0.000431,0.000588
14798000,0.0324,0.013523,0.002678,0.000431,0.000353
14799000,0.0324,0.013523,0.002678,0.000431,0.000588
14800000,0.0324,0.013523,0.002678,0.000431,0.000353
14801000,0.0324,0.013523,0.002678,0.000431,0.000588
14802000,0.0324,0.013523,0.002678,0.000431,0.000353
14803000,0.0324,0.013523,0.002678,0.000431,0.000705
14804000,0.0324,0.013523,0.002678,0.000431,0.000353
14805000,0.0324,0.013523,0.002678,0.000431,0.000705
14806000,0.0324,0.013523,0.002678,0.000431,0.000470
14807000,0.0324,0.013523,0.002678,0.000431,0.000470
14808000,0.0324,0.013523,0.002678,0.000431,0.000470
14809000,0.0324,0.013523,0.002678,0.000431,0.000705
14810000,0.0324,0.013523,0.002678,0.000431,0.000470
14811000,0.0324,0.013523,0.002678,0.000431,0.000470
14812000,0.0324,0.013523,0.002678,0.000431,0.000470
14813000,0.0324,0.013523,0.002678,0.000431,0.000470
14814000,0.0324,0.013523,0.002678,0.000431,0.000470
14815000,0.0324,0.013523,0.002678,0.000431,0.000588
14816000,0.0324,0.013523,0.002678,0.000431,0.000353
14817000,0.0324,0.013523,0.002678,0.000431,0.000705
14818000,0.0324,0.013523,0.002678,0.000431,0.000588
14819000,0.0324,0.013523,0.002678,0.000431,0.000470
14820000,0.0324,0.013523,0.002678,0.000431,0.000588
14821000,0.0324,0.013523,0.002678,0.000431,0.000353
14822000,0.0324,0.013523,0.002678,0.000431,0.000588
14823000,0.0324,0.013523,0.002678,0.000431,0.000470
14824000,0.0324,0.013523,0.002678,0.000431,0.000588
14825000,0.0324,0.013523,0.002678,0.000431,0.000470
14826000,0.0324,0.013523,0.002678,0.000431,0.000588
14827000,0.0324,0.013523,0.002678,0.000431,0.000353
14828000,0.0324,0.013523,0.002678,0.000431,0.000588
14829000,0.0324,0.013523,0.002678,0.000431,0.000353
14830000,0.0324,0.013523,0.002678,0.000431,0.000588
14831000,0.0324,0.013523,0.002678,0.000431,0.000353
14832000,0.0324,0.013523,0.002678,0.000431,0.000470
14833000,0.0324,0.013523,0.002678,0.000431,0.000470
14834000,0.0324,0.013523,0.002678,0.000431,0.000470
14835000,0.0324,0.013523,0.002678,0.000431,0.000470
14836000,0.0324,0.013523,0.002678,0.000431,0.000353
14837000,0.0324,0.013523,0.002678,0.000431,0.000588
14838000,0.0324,0.013523,0.002678,0.000431,0.000353
14839000,0.0324,0.013523,0.002678,0.000431,0.000588
14840000,0.0324,0.013523,0.002678,0.000431,0.000353
14841000,0.0324,0.013523,0.002678,0.000431,0.000705
14842000,0.0324,0.013523,0.002678,0.000431,0.000588
14843000,0.0324,0.013523,0.002678,0.000431,0.000470
14844000,0.0324,0.013523,0.002678,0.000431,0.000705
14845000,0.0324,0.013523,0.002678,0.000431,0.000353
14846000,0.0324,0.013523,0.002678,0.000431,0.000588
14847000,0.0324,0.013523,0.002678,0.000431,0.000353
14848000,0.0324,0.013523,0.002678,0.000431,0.000588
14849000,0.0324,0.013523,0.002678,0.000431,0.000353
14850000,0.0324,0.013523,0.002678,0.000431,0.000470
14851000,0.0324,0.013523,0.002678,0.000431,0.000470
14852000,0.0324,0.013523,0.002678,0.000431,0.000588
14853000,0.0324,0.013523,0.002678,0.000431,0.000470
14854000,0.0324,0.013523,0.002678,0.000431,0.000705
14855000,0.0324,0.013523,0.002678,0.000431,0.000353
14856000,0.0324,0.013523,0.002678,0.000431,0.000705
14857000,0.0324,0.013523,0.002678,0.000431,0.000588
14858000,0.0324,0.013523,0.002678,0.000431,0.000470
14859000,0.0324,0.013523,0.002678,0.000431,0.000588
14860000,0.0324,0.013523,0.002678,0.000431,0.000353
14861000,0.0324,0.013523,0.002678,0.000431,0.000470
14862000,0.0324,0.013523,0.002678,0.000431,0.000353
14863000,0.0324,0.013523,0.002678,0.000431,0.000470
14864000,0.0324,0.013523,0.002678,0.000431,0.000470
14865000,0.0324,0.013523,0.002678,0.000431,0.000470
14866000,0.0324,0.013523,0.002678,0.000431,0.000470
14867000,0.0324,0.013523,0.002678,0.000431,0.000470
14868000,0.0324,0.013523,0.002678,0.000431,0.000588
14869000,0.0324,0.013523,0.002678,0.000431,0.000353
14870000,0.0324,0.013523,0.002678,0.000431,0.000588
14871000,0.0324,0.013523,0.002678,0.000431,0.000353
14872000,0.0324,0.013523,0.002678,0.000431,0.000470
14873000,0.0324,0.013523,0.002678,0.000431,0.000470
14874000,0.0324,0.013523,0.002678,0.000431,0.000470
14875000,0.0324,0.013523,0.002678,0.000431,0.000470
14876000,0.0324,0.013523,0.002678,0.000431,0.000470
14877000,0.0324,0.013523,0.002678,0.000431,0.000470
14878000,0.0324,0.013523,0.002678,0.000431,0.000470
14879000,0.0324,0.013523,0.002678,0.000431,0.000470
14880000,0.0324,0.013523,0.002678,0.000431,0.000470
14881000,0.0324,0.013523,0.002678,0.000431,0.000353
14882000,0.0324,0.013523,0.002678,0.000431,0.000705
14883000,0.0324,0.013523,0.002678,0.000431,0.000353
14884000,0.0324,0.013523,0.002678,0.000431,0.000705
14885000,0.0324,0.013523,0.002678,0.000431,0.000588
14886000,0.0324,0.013523,0.002678,0.000431,0.000470
14887000,0.0324,0.013523,0.002678,0.000431,0.000588
14888000,0.0324,0.013523,0.002678,0.000431,0.000353
14889000,0.0324,0.013523,0.002678,0.000431,0.000588
14890000,0.0324,0.013523,0.002678,0.000431,0.000353
14891000,0.0324,0.013523,0.002678,0.000431,0.000588
14892000,0.0324,0.013523,0.002678,0.000431,0.000353
14893000,0.0324,0.013523,0.002678,0.000431,0.000470
14894000,0.0324,0.013523,0.002678,0.000431,0.000470
14895000,0.0324,0.013523,0.002678,0.000431,0.000470
14896000,0.0324,0.013523,0.002678,0.000431,0.000470
14897000,0.0324,0.013523,0.002678,0.000431,0.000353
14898000,0.0324,0.013523,0.002678,0.000431,0.000588
14899000,0.0324,0.013523,0.002678,0.000431,0.000353
14900000,0.0324,0.013523,0.002678,0.000431,0.000588
14901000,0.0324,0.013523,0.002678,0.000431,0.000470
14902000,0.0324,0.013523,0.002678,0.000431,0.000588
14903000,0.0324,0.013523,0.002678,0.000431,0.000235
14904000,0.0324,0.013523,0.002678,0.000431,0.000588
14905000,0.0324,0.013523,0.002678,0.000431,0.000353
14906000,0.0324,0.013523,0.002678,0.000431,0.000588
14907000,0.0324,0.013523,0.002678,0.000431,0.000353
14908000,0.0324,0.013523,0.002678,0.000431,0.000823
14909000,0.0324,0.013523,0.002678,0.000431,0.000353
14910000,0.0324,0.013523,0.002678,0.000431,0.000705
14911000,0.0324,0.013523,0.002678,0.000431,0.000470
14912000,0.0324,0.013523,0.002678,0.000431,0.000470
14913000,0.0324,0.013523,0.002678,0.000431,0.000353
14914000,0.0324,0.013523,0.002678,0.000431,0.000470
14915000,0.0324,0.013523,0.002678,0.000431,0.000470
14916000,0.0324,0.013523,0.002678,0.000431,0.000588
14917000,0.0324,0.013523,0.002678,0.000431,0.000353
14918000,0.0324,0.013523,0.002678,0.000431,0.000588
14919000,0.0324,0.013523,0.002678,0.000431,0.000353
14920000,0.0324,0.013523,0.002678,0.000431,0.000588
14921000,0.0324,0.013523,0.002678,0.000431,0.000353
14922000,0.0324,0.013523,0.002678,0.000431,0.000705
14923000,0.0324,0.013523,0.002678,0.000431,0.000353
14924000,0.0324,0.013523,0.002678,0.000431,0.000705
14925000,0.0324,0.013523,0.002678,0.000431,0.000470
14926000,0.0324,0.013523,0.002678,0.000431,0.000470
14927000,0.0324,0.013523,0.002678,0.000431,0.000353
14928000,0.0324,0.013523,0.002678,0.000431,0.000588
14929000,0.0324,0.013523,0.002678,0.000431,0.000353
14930000,0.0324,0.013523,0.002678,0.000431,0.000588
14931000,0.0324,0.013523,0.002678,0.000431,0.000235
14932000,0.0324,0.013523,0.002678,0.000431,0.000588
14933000,0.0324,0.013523,0.002678,0.000431,0.000353
14934000,0.0324,0.013523,0.002678,0.000431,0.000823
14935000,0.0324,0.013523,0.002678,0.000431,0.000353
14936000,0.0324,0.013523,0.002678,0.000431,0.000705
14937000,0.0324,0.013523,0.002678,0.000431,0.000470
14938000,0.0324,0.013523,0.002678,0.000431,0.000470
14939000,0.0324,0.013523,0.002678,0.000431,0.000470
14940000,0.0324,0.013523,0.002678,0.000431,0.000470
14941000,0.0324,0.013523,0.002678,0.000431,0.000470
14942000,0.0324,0.013523,0.002678,0.000431,0.000470
14943000,0.0324,0.013523,0.002678,0.000431,0.000470
14944000,0.0324,0.013523,0.002678,0.000431,0.000470
14945000,0.0324,0.013523,0.002678,0.000431,0.000470
14946000,0.0324,0.013523,0.002678,0.000431,0.000470
14947000,0.0324,0.013523,0.002678,0.000431,0.000470
14948000,0.0324,0.013523,0.002678,0.000431,0.000470
14949000,0.0324,0.013523,0.002678,0.000431,0.000353
14950000,0.0324,0.013523,0.002678,0.000431,0.000588
14951000,0.0324,0.013523,0.002678,0.000431,0.000353
14952000,0.0324,0.013523,0.002678,0.000431,0.000588
14953000,0.0324,0.013523,0.002678,0.000431,0.000353
14954000,0.0324,0.013523,0.002678,0.000431,0.000588
14955000,0.0324,0.013523,0.002678,0.000431,0.000353
14956000,0.0324,0.013523,0.002678,0.000431,0.000588
14957000,0.0324,0.013523,0.002678,0.000431,0.000353
14958000,0.0324,0.013523,0.002678,0.000431,0.000588
14959000,0.0324,0.013523,0.002678,0.000431,0.000353
14960000,0.0324,0.013523,0.002678,0.000431,0.000588
14961000,0.0324,0.013523,0.002678,0.000431,0.000470
14962000,0.0324,0.013523,0.002678,0.000431,0.000588
14963000,0.0324,0.013523,0.002678,0.000431,0.000470
14964000,0.0324,0.013523,0.002678,0.000431,0.000705
14965000,0.0324,0.013523,0.002678,0.000431,0.000353
14966000,0.0324,0.013523,0.002678,0.000431,0.000588
14967000,0.0324,0.013523,0.002678,0.000431,0.000353
14968000,0.0324,0.013523,0.002678,0.000431,0.000588
14969000,0.0324,0.013523,0.002678,0.000431,0.000353
14970000,0.0324,0.013523,0.002678,0.000431,0.000588
14971000,0.0324,0.013523,0.002678,0.000431,0.000353
14972000,0.0324,0.013523,0.002678,0.000431,0.000470
14973000,0.0324,0.013523,0.002678,0.000431,0.000353
14974000,0.0324,0.013523,0.002678,0.000431,0.000588
14975000,0.0324,0.013523,0.002678,0.000431,0.000353
14976000,0.0324,0.013523,0.002678,0.000431,0.000588
14977000,0.0324,0.013523,0.002678,0.000431,0.000353
14978000,0.0324,0.013523,0.002678,0.000431,0.000588
14979000,0.0324,0.013523,0.002678,0.000431,0.000353
14980000,0.0324,0.013523,0.002678,0.000431,0.000588
14981000,0.0324,0.013523,0.002678,0.000431,0.000470
14982000,0.0324,0.013523,0.002678,0.000431,0.000470
14983000,0.0324,0.013523,0.002678,0.000431,0.000470
14984000,0.0324,0.013523,0.002678,0.000431,0.000588
14985000,0.0324,0.013523,0.002678,0.000431,0.000470
14986000,0.0324,0.013523,0.002678,0.000431,0.000588
14987000,0.0324,0.013523,0.002678,0.000431,0.000353
14988000,0.0324,0.013523,0.002678,0.000431,0.000588
14989000,0.0324,0.013523,0.002678,0.000431,0.000353
14990000,0.0324,0.013523,0.002678,0.000431,0.000588
14991000,0.0324,0.013523,0.002678,0.000431,0.000353
14992000,0.0324,0.013523,0.002678,0.000431,0.000470
14993000,0.0324,0.013523,0.002678,0.000431,0.000588
14994000,0.0324,0.013523,0.002678,0.000431,0.000470
14995000,0.0324,0.013523,0.002678,0.000431,0.000470
14996000,0.0324,0.013523,0.002678,0.000431,0.000470
14997000,0.0324,0.013523,0.002678,0.000431,0.000588
14998000,0.0324,0.013523,0.002678,0.000431,0.000353
14999000,0.0324,0.013523,0.002678,0.000431,0.000588
