Cycle,Area(mm^2),PeakDynamic(W),SubthresholdLeakage(W),GateLeakage(W),RunTimeDynamic(W)
59000000,0.0324,0.013523,0.002678,0.000431,0.000353
59001000,0.0324,0.013523,0.002678,0.000431,0.000705
59002000,0.0324,0.013523,0.002678,0.000431,0.000588
59003000,0.0324,0.013523,0.002678,0.000431,0.000470
59004000,0.0324,0.013523,0.002678,0.000431,0.000705
59005000,0.0324,0.013523,0.002678,0.000431,0.000353
59006000,0.0324,0.013523,0.002678,0.000431,0.000588
59007000,0.0324,0.013523,0.002678,0.000431,0.000470
59008000,0.0324,0.013523,0.002678,0.000431,0.000588
59009000,0.0324,0.013523,0.002678,0.000431,0.000470
59010000,0.0324,0.013523,0.002678,0.000431,0.000470
59011000,0.0324,0.013523,0.002678,0.000431,0.000470
59012000,0.0324,0.013523,0.002678,0.000431,0.000588
59013000,0.0324,0.013523,0.002678,0.000431,0.000353
59014000,0.0324,0.013523,0.002678,0.000431,0.000588
59015000,0.0324,0.013523,0.002678,0.000431,0.000353
59016000,0.0324,0.013523,0.002678,0.000431,0.000823
59017000,0.0324,0.013523,0.002678,0.000431,0.000353
59018000,0.0324,0.013523,0.002678,0.000431,0.000588
59019000,0.0324,0.013523,0.002678,0.000431,0.000353
59020000,0.0324,0.013523,0.002678,0.000431,0.000705
59021000,0.0324,0.013523,0.002678,0.000431,0.000353
59022000,0.0324,0.013523,0.002678,0.000431,0.000705
59023000,0.0324,0.013523,0.002678,0.000431,0.000470
59024000,0.0324,0.013523,0.002678,0.000431,0.000470
59025000,0.0324,0.013523,0.002678,0.000431,0.000353
59026000,0.0324,0.013523,0.002678,0.000431,0.000588
59027000,0.0324,0.013523,0.002678,0.000431,0.000353
59028000,0.0324,0.013523,0.002678,0.000431,0.000588
59029000,0.0324,0.013523,0.002678,0.000431,0.000353
59030000,0.0324,0.013523,0.002678,0.000431,0.000705
59031000,0.0324,0.013523,0.002678,0.000431,0.000588
59032000,0.0324,0.013523,0.002678,0.000431,0.000470
59033000,0.0324,0.013523,0.002678,0.000431,0.000705
59034000,0.0324,0.013523,0.002678,0.000431,0.000353
59035000,0.0324,0.013523,0.002678,0.000431,0.000705
59036000,0.0324,0.013523,0.002678,0.000431,0.000470
59037000,0.0324,0.013523,0.002678,0.000431,0.000470
59038000,0.0324,0.013523,0.002678,0.000431,0.000235
59039000,0.0324,0.013523,0.002678,0.000431,0.000705
59040000,0.0324,0.013523,0.002678,0.000431,0.000353
59041000,0.0324,0.013523,0.002678,0.000431,0.000588
59042000,0.0324,0.013523,0.002678,0.000431,0.000353
59043000,0.0324,0.013523,0.002678,0.000431,0.000470
59044000,0.0324,0.013523,0.002678,0.000431,0.000470
59045000,0.0324,0.013523,0.002678,0.000431,0.000588
59046000,0.0324,0.013523,0.002678,0.000431,0.000353
59047000,0.0324,0.013523,0.002678,0.000431,0.000588
59048000,0.0324,0.013523,0.002678,0.000431,0.000353
59049000,0.0324,0.013523,0.002678,0.000431,0.000470
59050000,0.0324,0.013523,0.002678,0.000431,0.000470
59051000,0.0324,0.013523,0.002678,0.000431,0.000705
59052000,0.0324,0.013523,0.002678,0.000431,0.000353
59053000,0.0324,0.013523,0.002678,0.000431,0.000588
59054000,0.0324,0.013523,0.002678,0.000431,0.000353
59055000,0.0324,0.013523,0.002678,0.000431,0.000705
59056000,0.0324,0.013523,0.002678,0.000431,0.000588
59057000,0.0324,0.013523,0.002678,0.000431,0.000470
59058000,0.0324,0.013523,0.002678,0.000431,0.000705
59059000,0.0324,0.013523,0.002678,0.000431,0.000353
59060000,0.0324,0.013523,0.002678,0.000431,0.000588
59061000,0.0324,0.013523,0.002678,0.000431,0.000353
59062000,0.0324,0.013523,0.002678,0.000431,0.000470
59063000,0.0324,0.013523,0.002678,0.000431,0.000470
59064000,0.0324,0.013523,0.002678,0.000431,0.000588
59065000,0.0324,0.013523,0.002678,0.000431,0.000353
59066000,0.0324,0.013523,0.002678,0.000431,0.000588
59067000,0.0324,0.013523,0.002678,0.000431,0.000470
59068000,0.0324,0.013523,0.002678,0.000431,0.000588
59069000,0.0324,0.013523,0.002678,0.000431,0.000235
59070000,0.0324,0.013523,0.002678,0.000431,0.000588
59071000,0.0324,0.013523,0.002678,0.000431,0.000353
59072000,0.0324,0.013523,0.002678,0.000431,0.000588
59073000,0.0324,0.013523,0.002678,0.000431,0.000353
59074000,0.0324,0.013523,0.002678,0.000431,0.000588
59075000,0.0324,0.013523,0.002678,0.000431,0.000353
59076000,0.0324,0.013523,0.002678,0.000431,0.000588
59077000,0.0324,0.013523,0.002678,0.000431,0.000470
59078000,0.0324,0.013523,0.002678,0.000431,0.000470
59079000,0.0324,0.013523,0.002678,0.000431,0.000470
59080000,0.0324,0.013523,0.002678,0.000431,0.000470
59081000,0.0324,0.013523,0.002678,0.000431,0.000470
59082000,0.0324,0.013523,0.002678,0.000431,0.000470
59083000,0.0324,0.013523,0.002678,0.000431,0.000470
59084000,0.0324,0.013523,0.002678,0.000431,0.000353
59085000,0.0324,0.013523,0.002678,0.000431,0.000470
59086000,0.0324,0.013523,0.002678,0.000431,0.000470
59087000,0.0324,0.013523,0.002678,0.000431,0.000470
59088000,0.0324,0.013523,0.002678,0.000431,0.000470
59089000,0.0324,0.013523,0.002678,0.000431,0.000588
59090000,0.0324,0.013523,0.002678,0.000431,0.000353
59091000,0.0324,0.013523,0.002678,0.000431,0.000588
59092000,0.0324,0.013523,0.002678,0.000431,0.000353
59093000,0.0324,0.013523,0.002678,0.000431,0.000705
59094000,0.0324,0.013523,0.002678,0.000431,0.000470
59095000,0.0324,0.013523,0.002678,0.000431,0.000353
59096000,0.0324,0.013523,0.002678,0.000431,0.000588
59097000,0.0324,0.013523,0.002678,0.000431,0.000470
59098000,0.0324,0.013523,0.002678,0.000431,0.000470
59099000,0.0324,0.013523,0.002678,0.000431,0.000353
59100000,0.0324,0.013523,0.002678,0.000431,0.000470
59101000,0.0324,0.013523,0.002678,0.000431,0.000470
59102000,0.0324,0.013523,0.002678,0.000431,0.000470
59103000,0.0324,0.013523,0.002678,0.000431,0.000470
59104000,0.0324,0.013523,0.002678,0.000431,0.000470
59105000,0.0324,0.013523,0.002678,0.000431,0.000705
59106000,0.0324,0.013523,0.002678,0.000431,0.000353
59107000,0.0324,0.013523,0.002678,0.000431,0.000588
59108000,0.0324,0.013523,0.002678,0.000431,0.000353
59109000,0.0324,0.013523,0.002678,0.000431,0.000470
59110000,0.0324,0.013523,0.002678,0.000431,0.000470
59111000,0.0324,0.013523,0.002678,0.000431,0.000588
59112000,0.0324,0.013523,0.002678,0.000431,0.000353
59113000,0.0324,0.013523,0.002678,0.000431,0.000588
59114000,0.0324,0.013523,0.002678,0.000431,0.000353
59115000,0.0324,0.013523,0.002678,0.000431,0.000470
59116000,0.0324,0.013523,0.002678,0.000431,0.000470
59117000,0.0324,0.013523,0.002678,0.000431,0.000588
59118000,0.0324,0.013523,0.002678,0.000431,0.000353
59119000,0.0324,0.013523,0.002678,0.000431,0.000588
59120000,0.0324,0.013523,0.002678,0.000431,0.000353
59121000,0.0324,0.013523,0.002678,0.000431,0.000705
59122000,0.0324,0.013523,0.002678,0.000431,0.000470
59123000,0.0324,0.013523,0.002678,0.000431,0.000470
59124000,0.0324,0.013523,0.002678,0.000431,0.000588
59125000,0.0324,0.013523,0.002678,0.000431,0.000470
59126000,0.0324,0.013523,0.002678,0.000431,0.000588
59127000,0.0324,0.013523,0.002678,0.000431,0.000470
59128000,0.0324,0.013523,0.002678,0.000431,0.000470
59129000,0.0324,0.013523,0.002678,0.000431,0.000470
59130000,0.0324,0.013523,0.002678,0.000431,0.000470
59131000,0.0324,0.013523,0.002678,0.000431,0.000353
59132000,0.0324,0.013523,0.002678,0.000431,0.000588
59133000,0.0324,0.013523,0.002678,0.000431,0.000470
59134000,0.0324,0.013523,0.002678,0.000431,0.000470
59135000,0.0324,0.013523,0.002678,0.000431,0.000470
59136000,0.0324,0.013523,0.002678,0.000431,0.000588
59137000,0.0324,0.013523,0.002678,0.000431,0.000470
59138000,0.0324,0.013523,0.002678,0.000431,0.000705
59139000,0.0324,0.013523,0.002678,0.000431,0.000353
59140000,0.0324,0.013523,0.002678,0.000431,0.000588
59141000,0.0324,0.013523,0.002678,0.000431,0.000588
59142000,0.0324,0.013523,0.002678,0.000431,0.000470
59143000,0.0324,0.013523,0.002678,0.000431,0.000353
59144000,0.0324,0.013523,0.002678,0.000431,0.000588
59145000,0.0324,0.013523,0.002678,0.000431,0.000235
59146000,0.0324,0.013523,0.002678,0.000431,0.000705
59147000,0.0324,0.013523,0.002678,0.000431,0.000353
59148000,0.0324,0.013523,0.002678,0.000431,0.000588
59149000,0.0324,0.013523,0.002678,0.000431,0.000353
59150000,0.0324,0.013523,0.002678,0.000431,0.000588
59151000,0.0324,0.013523,0.002678,0.000431,0.000353
59152000,0.0324,0.013523,0.002678,0.000431,0.000588
59153000,0.0324,0.013523,0.002678,0.000431,0.000353
59154000,0.0324,0.013523,0.002678,0.000431,0.000588
59155000,0.0324,0.013523,0.002678,0.000431,0.000353
59156000,0.0324,0.013523,0.002678,0.000431,0.000588
59157000,0.0324,0.013523,0.002678,0.000431,0.000353
59158000,0.0324,0.013523,0.002678,0.000431,0.000588
59159000,0.0324,0.013523,0.002678,0.000431,0.000235
59160000,0.0324,0.013523,0.002678,0.000431,0.000588
59161000,0.0324,0.013523,0.002678,0.000431,0.000353
59162000,0.0324,0.013523,0.002678,0.000431,0.000823
59163000,0.0324,0.013523,0.002678,0.000431,0.000235
59164000,0.0324,0.013523,0.002678,0.000431,0.000705
59165000,0.0324,0.013523,0.002678,0.000431,0.000353
59166000,0.0324,0.013523,0.002678,0.000431,0.000705
59167000,0.0324,0.013523,0.002678,0.000431,0.000588
59168000,0.0324,0.013523,0.002678,0.000431,0.000470
59169000,0.0324,0.013523,0.002678,0.000431,0.000588
59170000,0.0324,0.013523,0.002678,0.000431,0.000353
59171000,0.0324,0.013523,0.002678,0.000431,0.000588
59172000,0.0324,0.013523,0.002678,0.000431,0.000353
59173000,0.0324,0.013523,0.002678,0.000431,0.000588
59174000,0.0324,0.013523,0.002678,0.000431,0.000353
59175000,0.0324,0.013523,0.002678,0.000431,0.000588
59176000,0.0324,0.013523,0.002678,0.000431,0.000353
59177000,0.0324,0.013523,0.002678,0.000431,0.000470
59178000,0.0324,0.013523,0.002678,0.000431,0.000470
59179000,0.0324,0.013523,0.002678,0.000431,0.000353
59180000,0.0324,0.013523,0.002678,0.000431,0.000588
59181000,0.0324,0.013523,0.002678,0.000431,0.000353
59182000,0.0324,0.013523,0.002678,0.000431,0.000588
59183000,0.0324,0.013523,0.002678,0.000431,0.000353
59184000,0.0324,0.013523,0.002678,0.000431,0.000588
59185000,0.0324,0.013523,0.002678,0.000431,0.000353
59186000,0.0324,0.013523,0.002678,0.000431,0.000705
59187000,0.0324,0.013523,0.002678,0.000431,0.000588
59188000,0.0324,0.013523,0.002678,0.000431,0.000470
59189000,0.0324,0.013523,0.002678,0.000431,0.000705
59190000,0.0324,0.013523,0.002678,0.000431,0.000235
59191000,0.0324,0.013523,0.002678,0.000431,0.000823
59192000,0.0324,0.013523,0.002678,0.000431,0.000353
59193000,0.0324,0.013523,0.002678,0.000431,0.000470
59194000,0.0324,0.013523,0.002678,0.000431,0.000353
59195000,0.0324,0.013523,0.002678,0.000431,0.000705
59196000,0.0324,0.013523,0.002678,0.000431,0.000470
59197000,0.0324,0.013523,0.002678,0.000431,0.000470
59198000,0.0324,0.013523,0.002678,0.000431,0.000470
59199000,0.0324,0.013523,0.002678,0.000431,0.000470
59200000,0.0324,0.013523,0.002678,0.000431,0.000470
59201000,0.0324,0.013523,0.002678,0.000431,0.000470
59202000,0.0324,0.013523,0.002678,0.000431,0.000470
59203000,0.0324,0.013523,0.002678,0.000431,0.000470
59204000,0.0324,0.013523,0.002678,0.000431,0.000470
59205000,0.0324,0.013523,0.002678,0.000431,0.000470
59206000,0.0324,0.013523,0.002678,0.000431,0.000470
59207000,0.0324,0.013523,0.002678,0.000431,0.000470
59208000,0.0324,0.013523,0.002678,0.000431,0.000353
59209000,0.0324,0.013523,0.002678,0.000431,0.000588
59210000,0.0324,0.013523,0.002678,0.000431,0.000353
59211000,0.0324,0.013523,0.002678,0.000431,0.000588
59212000,0.0324,0.013523,0.002678,0.000431,0.000353
59213000,0.0324,0.013523,0.002678,0.000431,0.000705
59214000,0.0324,0.013523,0.002678,0.000431,0.000353
59215000,0.0324,0.013523,0.002678,0.000431,0.000705
59216000,0.0324,0.013523,0.002678,0.000431,0.000588
59217000,0.0324,0.013523,0.002678,0.000431,0.000470
59218000,0.0324,0.013523,0.002678,0.000431,0.000588
59219000,0.0324,0.013523,0.002678,0.000431,0.000353
59220000,0.0324,0.013523,0.002678,0.000431,0.000470
59221000,0.0324,0.013523,0.002678,0.000431,0.000470
59222000,0.0324,0.013523,0.002678,0.000431,0.000470
59223000,0.0324,0.013523,0.002678,0.000431,0.000470
59224000,0.0324,0.013523,0.002678,0.000431,0.000353
59225000,0.0324,0.013523,0.002678,0.000431,0.000588
59226000,0.0324,0.013523,0.002678,0.000431,0.000353
59227000,0.0324,0.013523,0.002678,0.000431,0.000588
59228000,0.0324,0.013523,0.002678,0.000431,0.000353
59229000,0.0324,0.013523,0.002678,0.000431,0.000588
59230000,0.0324,0.013523,0.002678,0.000431,0.000353
59231000,0.0324,0.013523,0.002678,0.000431,0.000588
59232000,0.0324,0.013523,0.002678,0.000431,0.000353
59233000,0.0324,0.013523,0.002678,0.000431,0.000588
59234000,0.0324,0.013523,0.002678,0.000431,0.000353
59235000,0.0324,0.013523,0.002678,0.000431,0.000588
59236000,0.0324,0.013523,0.002678,0.000431,0.000353
59237000,0.0324,0.013523,0.002678,0.000431,0.000588
59238000,0.0324,0.013523,0.002678,0.000431,0.000353
59239000,0.0324,0.013523,0.002678,0.000431,0.000588
59240000,0.0324,0.013523,0.002678,0.000431,0.000353
59241000,0.0324,0.013523,0.002678,0.000431,0.000470
59242000,0.0324,0.013523,0.002678,0.000431,0.000353
59243000,0.0324,0.013523,0.002678,0.000431,0.000588
59244000,0.0324,0.013523,0.002678,0.000431,0.000353
59245000,0.0324,0.013523,0.002678,0.000431,0.000588
59246000,0.0324,0.013523,0.002678,0.000431,0.000353
59247000,0.0324,0.013523,0.002678,0.000431,0.000588
59248000,0.0324,0.013523,0.002678,0.000431,0.000353
59249000,0.0324,0.013523,0.002678,0.000431,0.000588
59250000,0.0324,0.013523,0.002678,0.000431,0.000353
59251000,0.0324,0.013523,0.002678,0.000431,0.000588
59252000,0.0324,0.013523,0.002678,0.000431,0.000353
59253000,0.0324,0.013523,0.002678,0.000431,0.000705
59254000,0.0324,0.013523,0.002678,0.000431,0.000353
59255000,0.0324,0.013523,0.002678,0.000431,0.000470
59256000,0.0324,0.013523,0.002678,0.000431,0.000353
59257000,0.0324,0.013523,0.002678,0.000431,0.000588
59258000,0.0324,0.013523,0.002678,0.000431,0.000353
59259000,0.0324,0.013523,0.002678,0.000431,0.000588
59260000,0.0324,0.013523,0.002678,0.000431,0.000353
59261000,0.0324,0.013523,0.002678,0.000431,0.000705
59262000,0.0324,0.013523,0.002678,0.000431,0.000353
59263000,0.0324,0.013523,0.002678,0.000431,0.000588
59264000,0.0324,0.013523,0.002678,0.000431,0.000353
59265000,0.0324,0.013523,0.002678,0.000431,0.000588
59266000,0.0324,0.013523,0.002678,0.000431,0.000353
59267000,0.0324,0.013523,0.002678,0.000431,0.000705
59268000,0.0324,0.013523,0.002678,0.000431,0.000588
59269000,0.0324,0.013523,0.002678,0.000431,0.000470
59270000,0.0324,0.013523,0.002678,0.000431,0.000470
59271000,0.0324,0.013523,0.002678,0.000431,0.000470
59272000,0.0324,0.013523,0.002678,0.000431,0.000470
59273000,0.0324,0.013523,0.002678,0.000431,0.000353
59274000,0.0324,0.013523,0.002678,0.000431,0.000588
59275000,0.0324,0.013523,0.002678,0.000431,0.000470
59276000,0.0324,0.013523,0.002678,0.000431,0.000588
59277000,0.0324,0.013523,0.002678,0.000431,0.000353
59278000,0.0324,0.013523,0.002678,0.000431,0.000588
59279000,0.0324,0.013523,0.002678,0.000431,0.000353
59280000,0.0324,0.013523,0.002678,0.000431,0.000588
59281000,0.0324,0.013523,0.002678,0.000431,0.000353
59282000,0.0324,0.013523,0.002678,0.000431,0.000588
59283000,0.0324,0.013523,0.002678,0.000431,0.000353
59284000,0.0324,0.013523,0.002678,0.000431,0.000588
59285000,0.0324,0.013523,0.002678,0.000431,0.000353
59286000,0.0324,0.013523,0.002678,0.000431,0.000588
59287000,0.0324,0.013523,0.002678,0.000431,0.000353
59288000,0.0324,0.013523,0.002678,0.000431,0.000588
59289000,0.0324,0.013523,0.002678,0.000431,0.000353
59290000,0.0324,0.013523,0.002678,0.000431,0.000588
59291000,0.0324,0.013523,0.002678,0.000431,0.000353
59292000,0.0324,0.013523,0.002678,0.000431,0.000470
59293000,0.0324,0.013523,0.002678,0.000431,0.000470
59294000,0.0324,0.013523,0.002678,0.000431,0.000470
59295000,0.0324,0.013523,0.002678,0.000431,0.000470
59296000,0.0324,0.013523,0.002678,0.000431,0.000353
59297000,0.0324,0.013523,0.002678,0.000431,0.000588
59298000,0.0324,0.013523,0.002678,0.000431,0.000353
59299000,0.0324,0.013523,0.002678,0.000431,0.000588
59300000,0.0324,0.013523,0.002678,0.000431,0.000353
59301000,0.0324,0.013523,0.002678,0.000431,0.000588
59302000,0.0324,0.013523,0.002678,0.000431,0.000353
59303000,0.0324,0.013523,0.002678,0.000431,0.000588
59304000,0.0324,0.013523,0.002678,0.000431,0.000353
59305000,0.0324,0.013523,0.002678,0.000431,0.000588
59306000,0.0324,0.013523,0.002678,0.000431,0.000353
59307000,0.0324,0.013523,0.002678,0.000431,0.000588
59308000,0.0324,0.013523,0.002678,0.000431,0.000353
59309000,0.0324,0.013523,0.002678,0.000431,0.000588
59310000,0.0324,0.013523,0.002678,0.000431,0.000353
59311000,0.0324,0.013523,0.002678,0.000431,0.000705
59312000,0.0324,0.013523,0.002678,0.000431,0.000353
59313000,0.0324,0.013523,0.002678,0.000431,0.000705
59314000,0.0324,0.013523,0.002678,0.000431,0.000353
59315000,0.0324,0.013523,0.002678,0.000431,0.000588
59316000,0.0324,0.013523,0.002678,0.000431,0.000470
59317000,0.0324,0.013523,0.002678,0.000431,0.000588
59318000,0.0324,0.013523,0.002678,0.000431,0.000588
59319000,0.0324,0.013523,0.002678,0.000431,0.000470
59320000,0.0324,0.013523,0.002678,0.000431,0.000705
59321000,0.0324,0.013523,0.002678,0.000431,0.000353
59322000,0.0324,0.013523,0.002678,0.000431,0.000588
59323000,0.0324,0.013523,0.002678,0.000431,0.000353
59324000,0.0324,0.013523,0.002678,0.000431,0.000588
59325000,0.0324,0.013523,0.002678,0.000431,0.000353
59326000,0.0324,0.013523,0.002678,0.000431,0.000588
59327000,0.0324,0.013523,0.002678,0.000431,0.000588
59328000,0.0324,0.013523,0.002678,0.000431,0.000353
59329000,0.0324,0.013523,0.002678,0.000431,0.000470
59330000,0.0324,0.013523,0.002678,0.000431,0.000470
59331000,0.0324,0.013523,0.002678,0.000431,0.000470
59332000,0.0324,0.013523,0.002678,0.000431,0.000470
59333000,0.0324,0.013523,0.002678,0.000431,0.000470
59334000,0.0324,0.013523,0.002678,0.000431,0.000588
59335000,0.0324,0.013523,0.002678,0.000431,0.000588
59336000,0.0324,0.013523,0.002678,0.000431,0.000470
59337000,0.0324,0.013523,0.002678,0.000431,0.000588
59338000,0.0324,0.013523,0.002678,0.000431,0.000353
59339000,0.0324,0.013523,0.002678,0.000431,0.000588
59340000,0.0324,0.013523,0.002678,0.000431,0.000353
59341000,0.0324,0.013523,0.002678,0.000431,0.000588
59342000,0.0324,0.013523,0.002678,0.000431,0.000353
59343000,0.0324,0.013523,0.002678,0.000431,0.000588
59344000,0.0324,0.013523,0.002678,0.000431,0.000353
59345000,0.0324,0.013523,0.002678,0.000431,0.000588
59346000,0.0324,0.013523,0.002678,0.000431,0.000353
59347000,0.0324,0.013523,0.002678,0.000431,0.000470
59348000,0.0324,0.013523,0.002678,0.000431,0.000470
59349000,0.0324,0.013523,0.002678,0.000431,0.000470
59350000,0.0324,0.013523,0.002678,0.000431,0.000470
59351000,0.0324,0.013523,0.002678,0.000431,0.000353
59352000,0.0324,0.013523,0.002678,0.000431,0.000470
59353000,0.0324,0.013523,0.002678,0.000431,0.000470
59354000,0.0324,0.013523,0.002678,0.000431,0.000588
59355000,0.0324,0.013523,0.002678,0.000431,0.000353
59356000,0.0324,0.013523,0.002678,0.000431,0.000705
59357000,0.0324,0.013523,0.002678,0.000431,0.000470
59358000,0.0324,0.013523,0.002678,0.000431,0.000470
59359000,0.0324,0.013523,0.002678,0.000431,0.000470
59360000,0.0324,0.013523,0.002678,0.000431,0.000353
59361000,0.0324,0.013523,0.002678,0.000431,0.000588
59362000,0.0324,0.013523,0.002678,0.000431,0.000353
59363000,0.0324,0.013523,0.002678,0.000431,0.000588
59364000,0.0324,0.013523,0.002678,0.000431,0.000353
59365000,0.0324,0.013523,0.002678,0.000431,0.000470
59366000,0.0324,0.013523,0.002678,0.000431,0.000470
59367000,0.0324,0.013523,0.002678,0.000431,0.000353
59368000,0.0324,0.013523,0.002678,0.000431,0.000588
59369000,0.0324,0.013523,0.002678,0.000431,0.000353
59370000,0.0324,0.013523,0.002678,0.000431,0.000705
59371000,0.0324,0.013523,0.002678,0.000431,0.000470
59372000,0.0324,0.013523,0.002678,0.000431,0.000588
59373000,0.0324,0.013523,0.002678,0.000431,0.000353
59374000,0.0324,0.013523,0.002678,0.000431,0.000470
59375000,0.0324,0.013523,0.002678,0.000431,0.000470
59376000,0.0324,0.013523,0.002678,0.000431,0.000470
59377000,0.0324,0.013523,0.002678,0.000431,0.000470
59378000,0.0324,0.013523,0.002678,0.000431,0.000470
59379000,0.0324,0.013523,0.002678,0.000431,0.000470
59380000,0.0324,0.013523,0.002678,0.000431,0.000588
59381000,0.0324,0.013523,0.002678,0.000431,0.000470
59382000,0.0324,0.013523,0.002678,0.000431,0.000705
59383000,0.0324,0.013523,0.002678,0.000431,0.000353
59384000,0.0324,0.013523,0.002678,0.000431,0.000588
59385000,0.0324,0.013523,0.002678,0.000431,0.000353
59386000,0.0324,0.013523,0.002678,0.000431,0.000705
59387000,0.0324,0.013523,0.002678,0.000431,0.000470
59388000,0.0324,0.013523,0.002678,0.000431,0.000470
59389000,0.0324,0.013523,0.002678,0.000431,0.000470
59390000,0.0324,0.013523,0.002678,0.000431,0.000470
59391000,0.0324,0.013523,0.002678,0.000431,0.000588
59392000,0.0324,0.013523,0.002678,0.000431,0.000470
59393000,0.0324,0.013523,0.002678,0.000431,0.000705
59394000,0.0324,0.013523,0.002678,0.000431,0.000353
59395000,0.0324,0.013523,0.002678,0.000431,0.000588
59396000,0.0324,0.013523,0.002678,0.000431,0.000353
59397000,0.0324,0.013523,0.002678,0.000431,0.000470
59398000,0.0324,0.013523,0.002678,0.000431,0.000470
59399000,0.0324,0.013523,0.002678,0.000431,0.000470
59400000,0.0324,0.013523,0.002678,0.000431,0.000470
59401000,0.0324,0.013523,0.002678,0.000431,0.000470
59402000,0.0324,0.013523,0.002678,0.000431,0.000470
59403000,0.0324,0.013523,0.002678,0.000431,0.000470
59404000,0.0324,0.013523,0.002678,0.000431,0.000470
59405000,0.0324,0.013523,0.002678,0.000431,0.000588
59406000,0.0324,0.013523,0.002678,0.000431,0.000470
59407000,0.0324,0.013523,0.002678,0.000431,0.000705
59408000,0.0324,0.013523,0.002678,0.000431,0.000353
59409000,0.0324,0.013523,0.002678,0.000431,0.000588
59410000,0.0324,0.013523,0.002678,0.000431,0.000470
59411000,0.0324,0.013523,0.002678,0.000431,0.000588
59412000,0.0324,0.013523,0.002678,0.000431,0.000588
59413000,0.0324,0.013523,0.002678,0.000431,0.000470
59414000,0.0324,0.013523,0.002678,0.000431,0.000705
59415000,0.0324,0.013523,0.002678,0.000431,0.000353
59416000,0.0324,0.013523,0.002678,0.000431,0.000588
59417000,0.0324,0.013523,0.002678,0.000431,0.000353
59418000,0.0324,0.013523,0.002678,0.000431,0.000588
59419000,0.0324,0.013523,0.002678,0.000431,0.000353
59420000,0.0324,0.013523,0.002678,0.000431,0.000588
59421000,0.0324,0.013523,0.002678,0.000431,0.000353
59422000,0.0324,0.013523,0.002678,0.000431,0.000470
59423000,0.0324,0.013523,0.002678,0.000431,0.000470
59424000,0.0324,0.013523,0.002678,0.000431,0.000588
59425000,0.0324,0.013523,0.002678,0.000431,0.000588
59426000,0.0324,0.013523,0.002678,0.000431,0.000470
59427000,0.0324,0.013523,0.002678,0.000431,0.000470
59428000,0.0324,0.013523,0.002678,0.000431,0.000470
59429000,0.0324,0.013523,0.002678,0.000431,0.000470
59430000,0.0324,0.013523,0.002678,0.000431,0.000470
59431000,0.0324,0.013523,0.002678,0.000431,0.000470
59432000,0.0324,0.013523,0.002678,0.000431,0.000470
59433000,0.0324,0.013523,0.002678,0.000431,0.000353
59434000,0.0324,0.013523,0.002678,0.000431,0.000705
59435000,0.0324,0.013523,0.002678,0.000431,0.000470
59436000,0.0324,0.013523,0.002678,0.000431,0.000705
59437000,0.0324,0.013523,0.002678,0.000431,0.000353
59438000,0.0324,0.013523,0.002678,0.000431,0.000470
59439000,0.0324,0.013523,0.002678,0.000431,0.000353
59440000,0.0324,0.013523,0.002678,0.000431,0.000588
59441000,0.0324,0.013523,0.002678,0.000431,0.000353
59442000,0.0324,0.013523,0.002678,0.000431,0.000588
59443000,0.0324,0.013523,0.002678,0.000431,0.000353
59444000,0.0324,0.013523,0.002678,0.000431,0.000588
59445000,0.0324,0.013523,0.002678,0.000431,0.000353
59446000,0.0324,0.013523,0.002678,0.000431,0.000588
59447000,0.0324,0.013523,0.002678,0.000431,0.000353
59448000,0.0324,0.013523,0.002678,0.000431,0.000470
59449000,0.0324,0.013523,0.002678,0.000431,0.000353
59450000,0.0324,0.013523,0.002678,0.000431,0.000588
59451000,0.0324,0.013523,0.002678,0.000431,0.000470
59452000,0.0324,0.013523,0.002678,0.000431,0.000588
59453000,0.0324,0.013523,0.002678,0.000431,0.000353
59454000,0.0324,0.013523,0.002678,0.000431,0.000705
59455000,0.0324,0.013523,0.002678,0.000431,0.000353
59456000,0.0324,0.013523,0.002678,0.000431,0.000470
59457000,0.0324,0.013523,0.002678,0.000431,0.000470
59458000,0.0324,0.013523,0.002678,0.000431,0.000588
59459000,0.0324,0.013523,0.002678,0.000431,0.000588
59460000,0.0324,0.013523,0.002678,0.000431,0.000470
59461000,0.0324,0.013523,0.002678,0.000431,0.000353
59462000,0.0324,0.013523,0.002678,0.000431,0.000588
59463000,0.0324,0.013523,0.002678,0.000431,0.000235
59464000,0.0324,0.013523,0.002678,0.000431,0.000705
59465000,0.0324,0.013523,0.002678,0.000431,0.000353
59466000,0.0324,0.013523,0.002678,0.000431,0.000588
59467000,0.0324,0.013523,0.002678,0.000431,0.000353
59468000,0.0324,0.013523,0.002678,0.000431,0.000588
59469000,0.0324,0.013523,0.002678,0.000431,0.000235
59470000,0.0324,0.013523,0.002678,0.000431,0.000588
59471000,0.0324,0.013523,0.002678,0.000431,0.000353
59472000,0.0324,0.013523,0.002678,0.000431,0.000705
59473000,0.0324,0.013523,0.002678,0.000431,0.000235
59474000,0.0324,0.013523,0.002678,0.000431,0.000588
59475000,0.0324,0.013523,0.002678,0.000431,0.000353
59476000,0.0324,0.013523,0.002678,0.000431,0.000588
59477000,0.0324,0.013523,0.002678,0.000431,0.000353
59478000,0.0324,0.013523,0.002678,0.000431,0.000588
59479000,0.0324,0.013523,0.002678,0.000431,0.000353
59480000,0.0324,0.013523,0.002678,0.000431,0.000588
59481000,0.0324,0.013523,0.002678,0.000431,0.000353
59482000,0.0324,0.013523,0.002678,0.000431,0.000588
59483000,0.0324,0.013523,0.002678,0.000431,0.000353
59484000,0.0324,0.013523,0.002678,0.000431,0.000588
59485000,0.0324,0.013523,0.002678,0.000431,0.000470
59486000,0.0324,0.013523,0.002678,0.000431,0.000705
59487000,0.0324,0.013523,0.002678,0.000431,0.000353
59488000,0.0324,0.013523,0.002678,0.000431,0.000705
59489000,0.0324,0.013523,0.002678,0.000431,0.000470
59490000,0.0324,0.013523,0.002678,0.000431,0.000470
59491000,0.0324,0.013523,0.002678,0.000431,0.000470
59492000,0.0324,0.013523,0.002678,0.000431,0.000470
59493000,0.0324,0.013523,0.002678,0.000431,0.000470
59494000,0.0324,0.013523,0.002678,0.000431,0.000470
59495000,0.0324,0.013523,0.002678,0.000431,0.000470
59496000,0.0324,0.013523,0.002678,0.000431,0.000470
59497000,0.0324,0.013523,0.002678,0.000431,0.000470
59498000,0.0324,0.013523,0.002678,0.000431,0.000470
59499000,0.0324,0.013523,0.002678,0.000431,0.000353
59500000,0.0324,0.013523,0.002678,0.000431,0.000588
59501000,0.0324,0.013523,0.002678,0.000431,0.000353
59502000,0.0324,0.013523,0.002678,0.000431,0.000588
59503000,0.0324,0.013523,0.002678,0.000431,0.000353
59504000,0.0324,0.013523,0.002678,0.000431,0.000705
59505000,0.0324,0.013523,0.002678,0.000431,0.000353
59506000,0.0324,0.013523,0.002678,0.000431,0.000705
59507000,0.0324,0.013523,0.002678,0.000431,0.000588
59508000,0.0324,0.013523,0.002678,0.000431,0.000353
59509000,0.0324,0.013523,0.002678,0.000431,0.000823
59510000,0.0324,0.013523,0.002678,0.000431,0.000353
59511000,0.0324,0.013523,0.002678,0.000431,0.000470
59512000,0.0324,0.013523,0.002678,0.000431,0.000470
59513000,0.0324,0.013523,0.002678,0.000431,0.000470
59514000,0.0324,0.013523,0.002678,0.000431,0.000470
59515000,0.0324,0.013523,0.002678,0.000431,0.000470
59516000,0.0324,0.013523,0.002678,0.000431,0.000470
59517000,0.0324,0.013523,0.002678,0.000431,0.000470
59518000,0.0324,0.013523,0.002678,0.000431,0.000353
59519000,0.0324,0.013523,0.002678,0.000431,0.000588
59520000,0.0324,0.013523,0.002678,0.000431,0.000470
59521000,0.0324,0.013523,0.002678,0.000431,0.000588
59522000,0.0324,0.013523,0.002678,0.000431,0.000470
59523000,0.0324,0.013523,0.002678,0.000431,0.000705
59524000,0.0324,0.013523,0.002678,0.000431,0.000353
59525000,0.0324,0.013523,0.002678,0.000431,0.000705
59526000,0.0324,0.013523,0.002678,0.000431,0.000353
59527000,0.0324,0.013523,0.002678,0.000431,0.000588
59528000,0.0324,0.013523,0.002678,0.000431,0.000353
59529000,0.0324,0.013523,0.002678,0.000431,0.000588
59530000,0.0324,0.013523,0.002678,0.000431,0.000353
59531000,0.0324,0.013523,0.002678,0.000431,0.000588
59532000,0.0324,0.013523,0.002678,0.000431,0.000353
59533000,0.0324,0.013523,0.002678,0.000431,0.000588
59534000,0.0324,0.013523,0.002678,0.000431,0.000353
59535000,0.0324,0.013523,0.002678,0.000431,0.000588
59536000,0.0324,0.013523,0.002678,0.000431,0.000353
59537000,0.0324,0.013523,0.002678,0.000431,0.000588
59538000,0.0324,0.013523,0.002678,0.000431,0.000353
59539000,0.0324,0.013523,0.002678,0.000431,0.000705
59540000,0.0324,0.013523,0.002678,0.000431,0.000353
59541000,0.0324,0.013523,0.002678,0.000431,0.000588
59542000,0.0324,0.013523,0.002678,0.000431,0.000353
59543000,0.0324,0.013523,0.002678,0.000431,0.000705
59544000,0.0324,0.013523,0.002678,0.000431,0.000588
59545000,0.0324,0.013523,0.002678,0.000431,0.000470
59546000,0.0324,0.013523,0.002678,0.000431,0.000705
59547000,0.0324,0.013523,0.002678,0.000431,0.000353
59548000,0.0324,0.013523,0.002678,0.000431,0.000588
59549000,0.0324,0.013523,0.002678,0.000431,0.000353
59550000,0.0324,0.013523,0.002678,0.000431,0.000588
59551000,0.0324,0.013523,0.002678,0.000431,0.000353
59552000,0.0324,0.013523,0.002678,0.000431,0.000588
59553000,0.0324,0.013523,0.002678,0.000431,0.000353
59554000,0.0324,0.013523,0.002678,0.000431,0.000588
59555000,0.0324,0.013523,0.002678,0.000431,0.000353
59556000,0.0324,0.013523,0.002678,0.000431,0.000470
59557000,0.0324,0.013523,0.002678,0.000431,0.000470
59558000,0.0324,0.013523,0.002678,0.000431,0.000588
59559000,0.0324,0.013523,0.002678,0.000431,0.000470
59560000,0.0324,0.013523,0.002678,0.000431,0.000705
59561000,0.0324,0.013523,0.002678,0.000431,0.000353
59562000,0.0324,0.013523,0.002678,0.000431,0.000588
59563000,0.0324,0.013523,0.002678,0.000431,0.000705
59564000,0.0324,0.013523,0.002678,0.000431,0.000470
59565000,0.0324,0.013523,0.002678,0.000431,0.000705
59566000,0.0324,0.013523,0.002678,0.000431,0.000235
59567000,0.0324,0.013523,0.002678,0.000431,0.000705
59568000,0.0324,0.013523,0.002678,0.000431,0.000353
59569000,0.0324,0.013523,0.002678,0.000431,0.000588
59570000,0.0324,0.013523,0.002678,0.000431,0.000353
59571000,0.0324,0.013523,0.002678,0.000431,0.000588
59572000,0.0324,0.013523,0.002678,0.000431,0.000353
59573000,0.0324,0.013523,0.002678,0.000431,0.000588
59574000,0.0324,0.013523,0.002678,0.000431,0.000353
59575000,0.0324,0.013523,0.002678,0.000431,0.000705
59576000,0.0324,0.013523,0.002678,0.000431,0.000353
59577000,0.0324,0.013523,0.002678,0.000431,0.000470
59578000,0.0324,0.013523,0.002678,0.000431,0.000353
59579000,0.0324,0.013523,0.002678,0.000431,0.000588
59580000,0.0324,0.013523,0.002678,0.000431,0.000353
59581000,0.0324,0.013523,0.002678,0.000431,0.000588
59582000,0.0324,0.013523,0.002678,0.000431,0.000353
59583000,0.0324,0.013523,0.002678,0.000431,0.000588
59584000,0.0324,0.013523,0.002678,0.000431,0.000353
59585000,0.0324,0.013523,0.002678,0.000431,0.000588
59586000,0.0324,0.013523,0.002678,0.000431,0.000353
59587000,0.0324,0.013523,0.002678,0.000431,0.000588
59588000,0.0324,0.013523,0.002678,0.000431,0.000353
59589000,0.0324,0.013523,0.002678,0.000431,0.000470
59590000,0.0324,0.013523,0.002678,0.000431,0.000470
59591000,0.0324,0.013523,0.002678,0.000431,0.000588
59592000,0.0324,0.013523,0.002678,0.000431,0.000588
59593000,0.0324,0.013523,0.002678,0.000431,0.000470
59594000,0.0324,0.013523,0.002678,0.000431,0.000470
59595000,0.0324,0.013523,0.002678,0.000431,0.000470
59596000,0.0324,0.013523,0.002678,0.000431,0.000353
59597000,0.0324,0.013523,0.002678,0.000431,0.000588
59598000,0.0324,0.013523,0.002678,0.000431,0.000470
59599000,0.0324,0.013523,0.002678,0.000431,0.000470
59600000,0.0324,0.013523,0.002678,0.000431,0.000470
59601000,0.0324,0.013523,0.002678,0.000431,0.000470
59602000,0.0324,0.013523,0.002678,0.000431,0.000470
59603000,0.0324,0.013523,0.002678,0.000431,0.000470
59604000,0.0324,0.013523,0.002678,0.000431,0.000470
59605000,0.0324,0.013523,0.002678,0.000431,0.000470
59606000,0.0324,0.013523,0.002678,0.000431,0.000470
59607000,0.0324,0.013523,0.002678,0.000431,0.000470
59608000,0.0324,0.013523,0.002678,0.000431,0.000470
59609000,0.0324,0.013523,0.002678,0.000431,0.000470
59610000,0.0324,0.013523,0.002678,0.000431,0.000470
59611000,0.0324,0.013523,0.002678,0.000431,0.000470
59612000,0.0324,0.013523,0.002678,0.000431,0.000470
59613000,0.0324,0.013523,0.002678,0.000431,0.000470
59614000,0.0324,0.013523,0.002678,0.000431,0.000470
59615000,0.0324,0.013523,0.002678,0.000431,0.000353
59616000,0.0324,0.013523,0.002678,0.000431,0.000588
59617000,0.0324,0.013523,0.002678,0.000431,0.000353
59618000,0.0324,0.013523,0.002678,0.000431,0.000588
59619000,0.0324,0.013523,0.002678,0.000431,0.000353
59620000,0.0324,0.013523,0.002678,0.000431,0.000588
59621000,0.0324,0.013523,0.002678,0.000431,0.000353
59622000,0.0324,0.013523,0.002678,0.000431,0.000588
59623000,0.0324,0.013523,0.002678,0.000431,0.000353
59624000,0.0324,0.013523,0.002678,0.000431,0.000588
59625000,0.0324,0.013523,0.002678,0.000431,0.000353
59626000,0.0324,0.013523,0.002678,0.000431,0.000588
59627000,0.0324,0.013523,0.002678,0.000431,0.000353
59628000,0.0324,0.013523,0.002678,0.000431,0.000588
59629000,0.0324,0.013523,0.002678,0.000431,0.000235
59630000,0.0324,0.013523,0.002678,0.000431,0.000705
59631000,0.0324,0.013523,0.002678,0.000431,0.000353
59632000,0.0324,0.013523,0.002678,0.000431,0.000705
59633000,0.0324,0.013523,0.002678,0.000431,0.000353
59634000,0.0324,0.013523,0.002678,0.000431,0.000588
59635000,0.0324,0.013523,0.002678,0.000431,0.000353
59636000,0.0324,0.013523,0.002678,0.000431,0.000588
59637000,0.0324,0.013523,0.002678,0.000431,0.000353
59638000,0.0324,0.013523,0.002678,0.000431,0.000588
59639000,0.0324,0.013523,0.002678,0.000431,0.000353
59640000,0.0324,0.013523,0.002678,0.000431,0.000588
59641000,0.0324,0.013523,0.002678,0.000431,0.000353
59642000,0.0324,0.013523,0.002678,0.000431,0.000588
59643000,0.0324,0.013523,0.002678,0.000431,0.000353
59644000,0.0324,0.013523,0.002678,0.000431,0.000470
59645000,0.0324,0.013523,0.002678,0.000431,0.000470
59646000,0.0324,0.013523,0.002678,0.000431,0.000470
59647000,0.0324,0.013523,0.002678,0.000431,0.000470
59648000,0.0324,0.013523,0.002678,0.000431,0.000470
59649000,0.0324,0.013523,0.002678,0.000431,0.000470
59650000,0.0324,0.013523,0.002678,0.000431,0.000470
59651000,0.0324,0.013523,0.002678,0.000431,0.000470
59652000,0.0324,0.013523,0.002678,0.000431,0.000470
59653000,0.0324,0.013523,0.002678,0.000431,0.000353
59654000,0.0324,0.013523,0.002678,0.000431,0.000588
59655000,0.0324,0.013523,0.002678,0.000431,0.000470
59656000,0.0324,0.013523,0.002678,0.000431,0.000470
59657000,0.0324,0.013523,0.002678,0.000431,0.000470
59658000,0.0324,0.013523,0.002678,0.000431,0.000588
59659000,0.0324,0.013523,0.002678,0.000431,0.000470
59660000,0.0324,0.013523,0.002678,0.000431,0.000588
59661000,0.0324,0.013523,0.002678,0.000431,0.000353
59662000,0.0324,0.013523,0.002678,0.000431,0.000588
59663000,0.0324,0.013523,0.002678,0.000431,0.000353
59664000,0.0324,0.013523,0.002678,0.000431,0.000588
59665000,0.0324,0.013523,0.002678,0.000431,0.000353
59666000,0.0324,0.013523,0.002678,0.000431,0.000588
59667000,0.0324,0.013523,0.002678,0.000431,0.000353
59668000,0.0324,0.013523,0.002678,0.000431,0.000705
59669000,0.0324,0.013523,0.002678,0.000431,0.000470
59670000,0.0324,0.013523,0.002678,0.000431,0.000470
59671000,0.0324,0.013523,0.002678,0.000431,0.000470
59672000,0.0324,0.013523,0.002678,0.000431,0.000705
59673000,0.0324,0.013523,0.002678,0.000431,0.000353
59674000,0.0324,0.013523,0.002678,0.000431,0.000705
59675000,0.0324,0.013523,0.002678,0.000431,0.000588
59676000,0.0324,0.013523,0.002678,0.000431,0.000470
59677000,0.0324,0.013523,0.002678,0.000431,0.000705
59678000,0.0324,0.013523,0.002678,0.000431,0.000353
59679000,0.0324,0.013523,0.002678,0.000431,0.000705
59680000,0.0324,0.013523,0.002678,0.000431,0.000470
59681000,0.0324,0.013523,0.002678,0.000431,0.000470
59682000,0.0324,0.013523,0.002678,0.000431,0.000470
59683000,0.0324,0.013523,0.002678,0.000431,0.000470
59684000,0.0324,0.013523,0.002678,0.000431,0.000470
59685000,0.0324,0.013523,0.002678,0.000431,0.000470
59686000,0.0324,0.013523,0.002678,0.000431,0.000470
59687000,0.0324,0.013523,0.002678,0.000431,0.000470
59688000,0.0324,0.013523,0.002678,0.000431,0.000353
59689000,0.0324,0.013523,0.002678,0.000431,0.000588
59690000,0.0324,0.013523,0.002678,0.000431,0.000353
59691000,0.0324,0.013523,0.002678,0.000431,0.000588
59692000,0.0324,0.013523,0.002678,0.000431,0.000353
59693000,0.0324,0.013523,0.002678,0.000431,0.000705
59694000,0.0324,0.013523,0.002678,0.000431,0.000353
59695000,0.0324,0.013523,0.002678,0.000431,0.000705
59696000,0.0324,0.013523,0.002678,0.000431,0.000470
59697000,0.0324,0.013523,0.002678,0.000431,0.000470
59698000,0.0324,0.013523,0.002678,0.000431,0.000470
59699000,0.0324,0.013523,0.002678,0.000431,0.000470
59700000,0.0324,0.013523,0.002678,0.000431,0.000470
59701000,0.0324,0.013523,0.002678,0.000431,0.000470
59702000,0.0324,0.013523,0.002678,0.000431,0.000470
59703000,0.0324,0.013523,0.002678,0.000431,0.000470
59704000,0.0324,0.013523,0.002678,0.000431,0.000588
59705000,0.0324,0.013523,0.002678,0.000431,0.000470
59706000,0.0324,0.013523,0.002678,0.000431,0.000588
59707000,0.0324,0.013523,0.002678,0.000431,0.000353
59708000,0.0324,0.013523,0.002678,0.000431,0.000470
59709000,0.0324,0.013523,0.002678,0.000431,0.000470
59710000,0.0324,0.013523,0.002678,0.000431,0.000470
59711000,0.0324,0.013523,0.002678,0.000431,0.000470
59712000,0.0324,0.013523,0.002678,0.000431,0.000705
59713000,0.0324,0.013523,0.002678,0.000431,0.000353
59714000,0.0324,0.013523,0.002678,0.000431,0.000588
59715000,0.0324,0.013523,0.002678,0.000431,0.000353
59716000,0.0324,0.013523,0.002678,0.000431,0.000705
59717000,0.0324,0.013523,0.002678,0.000431,0.000235
59718000,0.0324,0.013523,0.002678,0.000431,0.000588
59719000,0.0324,0.013523,0.002678,0.000431,0.000353
59720000,0.0324,0.013523,0.002678,0.000431,0.000588
59721000,0.0324,0.013523,0.002678,0.000431,0.000353
59722000,0.0324,0.013523,0.002678,0.000431,0.000588
59723000,0.0324,0.013523,0.002678,0.000431,0.000353
59724000,0.0324,0.013523,0.002678,0.000431,0.000588
59725000,0.0324,0.013523,0.002678,0.000431,0.000353
59726000,0.0324,0.013523,0.002678,0.000431,0.000588
59727000,0.0324,0.013523,0.002678,0.000431,0.000353
59728000,0.0324,0.013523,0.002678,0.000431,0.000823
59729000,0.0324,0.013523,0.002678,0.000431,0.000353
59730000,0.0324,0.013523,0.002678,0.000431,0.000588
59731000,0.0324,0.013523,0.002678,0.000431,0.000470
59732000,0.0324,0.013523,0.002678,0.000431,0.000705
59733000,0.0324,0.013523,0.002678,0.000431,0.000470
59734000,0.0324,0.013523,0.002678,0.000431,0.000588
59735000,0.0324,0.013523,0.002678,0.000431,0.000235
59736000,0.0324,0.013523,0.002678,0.000431,0.000705
59737000,0.0324,0.013523,0.002678,0.000431,0.000353
59738000,0.0324,0.013523,0.002678,0.000431,0.000470
59739000,0.0324,0.013523,0.002678,0.000431,0.000353
59740000,0.0324,0.013523,0.002678,0.000431,0.000588
59741000,0.0324,0.013523,0.002678,0.000431,0.000470
59742000,0.0324,0.013523,0.002678,0.000431,0.000588
59743000,0.0324,0.013523,0.002678,0.000431,0.000235
59744000,0.0324,0.013523,0.002678,0.000431,0.000705
59745000,0.0324,0.013523,0.002678,0.000431,0.000353
59746000,0.0324,0.013523,0.002678,0.000431,0.000588
59747000,0.0324,0.013523,0.002678,0.000431,0.000353
59748000,0.0324,0.013523,0.002678,0.000431,0.000705
59749000,0.0324,0.013523,0.002678,0.000431,0.000353
59750000,0.0324,0.013523,0.002678,0.000431,0.000705
59751000,0.0324,0.013523,0.002678,0.000431,0.000588
59752000,0.0324,0.013523,0.002678,0.000431,0.000470
59753000,0.0324,0.013523,0.002678,0.000431,0.000470
59754000,0.0324,0.013523,0.002678,0.000431,0.000470
59755000,0.0324,0.013523,0.002678,0.000431,0.000470
59756000,0.0324,0.013523,0.002678,0.000431,0.000470
59757000,0.0324,0.013523,0.002678,0.000431,0.000470
59758000,0.0324,0.013523,0.002678,0.000431,0.000470
59759000,0.0324,0.013523,0.002678,0.000431,0.000353
59760000,0.0324,0.013523,0.002678,0.000431,0.000588
59761000,0.0324,0.013523,0.002678,0.000431,0.000353
59762000,0.0324,0.013523,0.002678,0.000431,0.000588
59763000,0.0324,0.013523,0.002678,0.000431,0.000353
59764000,0.0324,0.013523,0.002678,0.000431,0.000588
59765000,0.0324,0.013523,0.002678,0.000431,0.000353
59766000,0.0324,0.013523,0.002678,0.000431,0.000588
59767000,0.0324,0.013523,0.002678,0.000431,0.000353
59768000,0.0324,0.013523,0.002678,0.000431,0.000588
59769000,0.0324,0.013523,0.002678,0.000431,0.000353
59770000,0.0324,0.013523,0.002678,0.000431,0.000588
59771000,0.0324,0.013523,0.002678,0.000431,0.000353
59772000,0.0324,0.013523,0.002678,0.000431,0.000588
59773000,0.0324,0.013523,0.002678,0.000431,0.000353
59774000,0.0324,0.013523,0.002678,0.000431,0.000588
59775000,0.0324,0.013523,0.002678,0.000431,0.000353
59776000,0.0324,0.013523,0.002678,0.000431,0.000588
59777000,0.0324,0.013523,0.002678,0.000431,0.000353
59778000,0.0324,0.013523,0.002678,0.000431,0.000588
59779000,0.0324,0.013523,0.002678,0.000431,0.000353
59780000,0.0324,0.013523,0.002678,0.000431,0.000588
59781000,0.0324,0.013523,0.002678,0.000431,0.000353
59782000,0.0324,0.013523,0.002678,0.000431,0.000588
59783000,0.0324,0.013523,0.002678,0.000431,0.000470
59784000,0.0324,0.013523,0.002678,0.000431,0.000588
59785000,0.0324,0.013523,0.002678,0.000431,0.000353
59786000,0.0324,0.013523,0.002678,0.000431,0.000470
59787000,0.0324,0.013523,0.002678,0.000431,0.000470
59788000,0.0324,0.013523,0.002678,0.000431,0.000470
59789000,0.0324,0.013523,0.002678,0.000431,0.000470
59790000,0.0324,0.013523,0.002678,0.000431,0.000470
59791000,0.0324,0.013523,0.002678,0.000431,0.000470
59792000,0.0324,0.013523,0.002678,0.000431,0.000353
59793000,0.0324,0.013523,0.002678,0.000431,0.000588
59794000,0.0324,0.013523,0.002678,0.000431,0.000353
59795000,0.0324,0.013523,0.002678,0.000431,0.000705
59796000,0.0324,0.013523,0.002678,0.000431,0.000588
59797000,0.0324,0.013523,0.002678,0.000431,0.000470
59798000,0.0324,0.013523,0.002678,0.000431,0.000588
59799000,0.0324,0.013523,0.002678,0.000431,0.000470
59800000,0.0324,0.013523,0.002678,0.000431,0.000470
59801000,0.0324,0.013523,0.002678,0.000431,0.000470
59802000,0.0324,0.013523,0.002678,0.000431,0.000588
59803000,0.0324,0.013523,0.002678,0.000431,0.000470
59804000,0.0324,0.013523,0.002678,0.000431,0.000705
59805000,0.0324,0.013523,0.002678,0.000431,0.000353
59806000,0.0324,0.013523,0.002678,0.000431,0.000588
59807000,0.0324,0.013523,0.002678,0.000431,0.000588
59808000,0.0324,0.013523,0.002678,0.000431,0.000470
59809000,0.0324,0.013523,0.002678,0.000431,0.000470
59810000,0.0324,0.013523,0.002678,0.000431,0.000470
59811000,0.0324,0.013523,0.002678,0.000431,0.000353
59812000,0.0324,0.013523,0.002678,0.000431,0.000588
59813000,0.0324,0.013523,0.002678,0.000431,0.000235
59814000,0.0324,0.013523,0.002678,0.000431,0.000588
59815000,0.0324,0.013523,0.002678,0.000431,0.000353
59816000,0.0324,0.013523,0.002678,0.000431,0.000705
59817000,0.0324,0.013523,0.002678,0.000431,0.000353
59818000,0.0324,0.013523,0.002678,0.000431,0.000588
59819000,0.0324,0.013523,0.002678,0.000431,0.000353
59820000,0.0324,0.013523,0.002678,0.000431,0.000470
59821000,0.0324,0.013523,0.002678,0.000431,0.000353
59822000,0.0324,0.013523,0.002678,0.000431,0.000588
59823000,0.0324,0.013523,0.002678,0.000431,0.000353
59824000,0.0324,0.013523,0.002678,0.000431,0.000588
59825000,0.0324,0.013523,0.002678,0.000431,0.000353
59826000,0.0324,0.013523,0.002678,0.000431,0.000588
59827000,0.0324,0.013523,0.002678,0.000431,0.000353
59828000,0.0324,0.013523,0.002678,0.000431,0.000588
59829000,0.0324,0.013523,0.002678,0.000431,0.000470
59830000,0.0324,0.013523,0.002678,0.000431,0.000470
59831000,0.0324,0.013523,0.002678,0.000431,0.000353
59832000,0.0324,0.013523,0.002678,0.000431,0.000588
59833000,0.0324,0.013523,0.002678,0.000431,0.000353
59834000,0.0324,0.013523,0.002678,0.000431,0.000588
59835000,0.0324,0.013523,0.002678,0.000431,0.000470
59836000,0.0324,0.013523,0.002678,0.000431,0.000470
59837000,0.0324,0.013523,0.002678,0.000431,0.000470
59838000,0.0324,0.013523,0.002678,0.000431,0.000470
59839000,0.0324,0.013523,0.002678,0.000431,0.000470
59840000,0.0324,0.013523,0.002678,0.000431,0.000705
59841000,0.0324,0.013523,0.002678,0.000431,0.000353
59842000,0.0324,0.013523,0.002678,0.000431,0.000705
59843000,0.0324,0.013523,0.002678,0.000431,0.000470
59844000,0.0324,0.013523,0.002678,0.000431,0.000470
59845000,0.0324,0.013523,0.002678,0.000431,0.000588
59846000,0.0324,0.013523,0.002678,0.000431,0.000470
59847000,0.0324,0.013523,0.002678,0.000431,0.000705
59848000,0.0324,0.013523,0.002678,0.000431,0.000353
59849000,0.0324,0.013523,0.002678,0.000431,0.000705
59850000,0.0324,0.013523,0.002678,0.000431,0.000470
59851000,0.0324,0.013523,0.002678,0.000431,0.000470
59852000,0.0324,0.013523,0.002678,0.000431,0.000470
59853000,0.0324,0.013523,0.002678,0.000431,0.000470
59854000,0.0324,0.013523,0.002678,0.000431,0.000470
59855000,0.0324,0.013523,0.002678,0.000431,0.000470
59856000,0.0324,0.013523,0.002678,0.000431,0.000353
59857000,0.0324,0.013523,0.002678,0.000431,0.000588
59858000,0.0324,0.013523,0.002678,0.000431,0.000353
59859000,0.0324,0.013523,0.002678,0.000431,0.000588
59860000,0.0324,0.013523,0.002678,0.000431,0.000353
59861000,0.0324,0.013523,0.002678,0.000431,0.000588
59862000,0.0324,0.013523,0.002678,0.000431,0.000353
59863000,0.0324,0.013523,0.002678,0.000431,0.000588
59864000,0.0324,0.013523,0.002678,0.000431,0.000353
59865000,0.0324,0.013523,0.002678,0.000431,0.000705
59866000,0.0324,0.013523,0.002678,0.000431,0.000353
59867000,0.0324,0.013523,0.002678,0.000431,0.000705
59868000,0.0324,0.013523,0.002678,0.000431,0.000588
59869000,0.0324,0.013523,0.002678,0.000431,0.000470
59870000,0.0324,0.013523,0.002678,0.000431,0.000588
59871000,0.0324,0.013523,0.002678,0.000431,0.000353
59872000,0.0324,0.013523,0.002678,0.000431,0.000588
59873000,0.0324,0.013523,0.002678,0.000431,0.000235
59874000,0.0324,0.013523,0.002678,0.000431,0.000588
59875000,0.0324,0.013523,0.002678,0.000431,0.000353
59876000,0.0324,0.013523,0.002678,0.000431,0.000588
59877000,0.0324,0.013523,0.002678,0.000431,0.000588
59878000,0.0324,0.013523,0.002678,0.000431,0.000588
59879000,0.0324,0.013523,0.002678,0.000431,0.000470
59880000,0.0324,0.013523,0.002678,0.000431,0.000705
59881000,0.0324,0.013523,0.002678,0.000431,0.000353
59882000,0.0324,0.013523,0.002678,0.000431,0.000705
59883000,0.0324,0.013523,0.002678,0.000431,0.000470
59884000,0.0324,0.013523,0.002678,0.000431,0.000470
59885000,0.0324,0.013523,0.002678,0.000431,0.000588
59886000,0.0324,0.013523,0.002678,0.000431,0.000470
59887000,0.0324,0.013523,0.002678,0.000431,0.000588
59888000,0.0324,0.013523,0.002678,0.000431,0.000353
59889000,0.0324,0.013523,0.002678,0.000431,0.000588
59890000,0.0324,0.013523,0.002678,0.000431,0.000353
59891000,0.0324,0.013523,0.002678,0.000431,0.000588
59892000,0.0324,0.013523,0.002678,0.000431,0.000353
59893000,0.0324,0.013523,0.002678,0.000431,0.000588
59894000,0.0324,0.013523,0.002678,0.000431,0.000470
59895000,0.0324,0.013523,0.002678,0.000431,0.000470
59896000,0.0324,0.013523,0.002678,0.000431,0.000588
59897000,0.0324,0.013523,0.002678,0.000431,0.000470
59898000,0.0324,0.013523,0.002678,0.000431,0.000470
59899000,0.0324,0.013523,0.002678,0.000431,0.000470
59900000,0.0324,0.013523,0.002678,0.000431,0.000470
59901000,0.0324,0.013523,0.002678,0.000431,0.000353
59902000,0.0324,0.013523,0.002678,0.000431,0.000588
59903000,0.0324,0.013523,0.002678,0.000431,0.000353
59904000,0.0324,0.013523,0.002678,0.000431,0.000705
59905000,0.0324,0.013523,0.002678,0.000431,0.000470
59906000,0.0324,0.013523,0.002678,0.000431,0.000470
59907000,0.0324,0.013523,0.002678,0.000431,0.000588
59908000,0.0324,0.013523,0.002678,0.000431,0.000470
59909000,0.0324,0.013523,0.002678,0.000431,0.000588
59910000,0.0324,0.013523,0.002678,0.000431,0.000353
59911000,0.0324,0.013523,0.002678,0.000431,0.000588
59912000,0.0324,0.013523,0.002678,0.000431,0.000353
59913000,0.0324,0.013523,0.002678,0.000431,0.000588
59914000,0.0324,0.013523,0.002678,0.000431,0.000353
59915000,0.0324,0.013523,0.002678,0.000431,0.000588
59916000,0.0324,0.013523,0.002678,0.000431,0.000353
59917000,0.0324,0.013523,0.002678,0.000431,0.000588
59918000,0.0324,0.013523,0.002678,0.000431,0.000353
59919000,0.0324,0.013523,0.002678,0.000431,0.000588
59920000,0.0324,0.013523,0.002678,0.000431,0.000353
59921000,0.0324,0.013523,0.002678,0.000431,0.000470
59922000,0.0324,0.013523,0.002678,0.000431,0.000470
59923000,0.0324,0.013523,0.002678,0.000431,0.000470
59924000,0.0324,0.013523,0.002678,0.000431,0.000470
59925000,0.0324,0.013523,0.002678,0.000431,0.000470
59926000,0.0324,0.013523,0.002678,0.000431,0.000705
59927000,0.0324,0.013523,0.002678,0.000431,0.000353
59928000,0.0324,0.013523,0.002678,0.000431,0.000588
59929000,0.0324,0.013523,0.002678,0.000431,0.000353
59930000,0.0324,0.013523,0.002678,0.000431,0.000470
59931000,0.0324,0.013523,0.002678,0.000431,0.000470
59932000,0.0324,0.013523,0.002678,0.000431,0.000588
59933000,0.0324,0.013523,0.002678,0.000431,0.000353
59934000,0.0324,0.013523,0.002678,0.000431,0.000588
59935000,0.0324,0.013523,0.002678,0.000431,0.000353
59936000,0.0324,0.013523,0.002678,0.000431,0.000588
59937000,0.0324,0.013523,0.002678,0.000431,0.000353
59938000,0.0324,0.013523,0.002678,0.000431,0.000588
59939000,0.0324,0.013523,0.002678,0.000431,0.000353
59940000,0.0324,0.013523,0.002678,0.000431,0.000705
59941000,0.0324,0.013523,0.002678,0.000431,0.000353
59942000,0.0324,0.013523,0.002678,0.000431,0.000705
59943000,0.0324,0.013523,0.002678,0.000431,0.000353
59944000,0.0324,0.013523,0.002678,0.000431,0.000705
59945000,0.0324,0.013523,0.002678,0.000431,0.000470
59946000,0.0324,0.013523,0.002678,0.000431,0.000470
59947000,0.0324,0.013523,0.002678,0.000431,0.000353
59948000,0.0324,0.013523,0.002678,0.000431,0.000705
59949000,0.0324,0.013523,0.002678,0.000431,0.000470
59950000,0.0324,0.013523,0.002678,0.000431,0.000470
59951000,0.0324,0.013523,0.002678,0.000431,0.000470
59952000,0.0324,0.013523,0.002678,0.000431,0.000470
59953000,0.0324,0.013523,0.002678,0.000431,0.000353
59954000,0.0324,0.013523,0.002678,0.000431,0.000823
59955000,0.0324,0.013523,0.002678,0.000431,0.000353
59956000,0.0324,0.013523,0.002678,0.000431,0.000588
59957000,0.0324,0.013523,0.002678,0.000431,0.000353
59958000,0.0324,0.013523,0.002678,0.000431,0.000588
59959000,0.0324,0.013523,0.002678,0.000431,0.000353
59960000,0.0324,0.013523,0.002678,0.000431,0.000588
59961000,0.0324,0.013523,0.002678,0.000431,0.000353
59962000,0.0324,0.013523,0.002678,0.000431,0.000588
59963000,0.0324,0.013523,0.002678,0.000431,0.000353
59964000,0.0324,0.013523,0.002678,0.000431,0.000705
59965000,0.0324,0.013523,0.002678,0.000431,0.000470
59966000,0.0324,0.013523,0.002678,0.000431,0.000470
59967000,0.0324,0.013523,0.002678,0.000431,0.000470
59968000,0.0324,0.013523,0.002678,0.000431,0.000470
59969000,0.0324,0.013523,0.002678,0.000431,0.000588
59970000,0.0324,0.013523,0.002678,0.000431,0.000470
59971000,0.0324,0.013523,0.002678,0.000431,0.000705
59972000,0.0324,0.013523,0.002678,0.000431,0.000235
59973000,0.0324,0.013523,0.002678,0.000431,0.000823
59974000,0.0324,0.013523,0.002678,0.000431,0.000353
59975000,0.0324,0.013523,0.002678,0.000431,0.000470
59976000,0.0324,0.013523,0.002678,0.000431,0.000470
59977000,0.0324,0.013523,0.002678,0.000431,0.000705
59978000,0.0324,0.013523,0.002678,0.000431,0.000353
59979000,0.0324,0.013523,0.002678,0.000431,0.000705
59980000,0.0324,0.013523,0.002678,0.000431,0.000470
59981000,0.0324,0.013523,0.002678,0.000431,0.000588
59982000,0.0324,0.013523,0.002678,0.000431,0.000353
59983000,0.0324,0.013523,0.002678,0.000431,0.000470
59984000,0.0324,0.013523,0.002678,0.000431,0.000470
59985000,0.0324,0.013523,0.002678,0.000431,0.000470
59986000,0.0324,0.013523,0.002678,0.000431,0.000470
59987000,0.0324,0.013523,0.002678,0.000431,0.000470
59988000,0.0324,0.013523,0.002678,0.000431,0.000470
59989000,0.0324,0.013523,0.002678,0.000431,0.000588
59990000,0.0324,0.013523,0.002678,0.000431,0.000353
59991000,0.0324,0.013523,0.002678,0.000431,0.000588
59992000,0.0324,0.013523,0.002678,0.000431,0.000353
59993000,0.0324,0.013523,0.002678,0.000431,0.000588
59994000,0.0324,0.013523,0.002678,0.000431,0.000353
59995000,0.0324,0.013523,0.002678,0.000431,0.000588
59996000,0.0324,0.013523,0.002678,0.000431,0.000353
59997000,0.0324,0.013523,0.002678,0.000431,0.000588
59998000,0.0324,0.013523,0.002678,0.000431,0.000353
59999000,0.0324,0.013523,0.002678,0.000431,0.000470
