Cycle,Area(mm^2),PeakDynamic(W),SubthresholdLeakage(W),GateLeakage(W),RunTimeDynamic(W)
20000000,0.0324,0.013523,0.002678,0.000431,0.000588
20001000,0.0324,0.013523,0.002678,0.000431,0.000353
20002000,0.0324,0.013523,0.002678,0.000431,0.000588
20003000,0.0324,0.013523,0.002678,0.000431,0.000353
20004000,0.0324,0.013523,0.002678,0.000431,0.000705
20005000,0.0324,0.013523,0.002678,0.000431,0.000588
20006000,0.0324,0.013523,0.002678,0.000431,0.000470
20007000,0.0324,0.013523,0.002678,0.000431,0.000588
20008000,0.0324,0.013523,0.002678,0.000431,0.000353
20009000,0.0324,0.013523,0.002678,0.000431,0.000470
20010000,0.0324,0.013523,0.002678,0.000431,0.000470
20011000,0.0324,0.013523,0.002678,0.000431,0.000470
20012000,0.0324,0.013523,0.002678,0.000431,0.000470
20013000,0.0324,0.013523,0.002678,0.000431,0.000588
20014000,0.0324,0.013523,0.002678,0.000431,0.000470
20015000,0.0324,0.013523,0.002678,0.000431,0.000353
20016000,0.0324,0.013523,0.002678,0.000431,0.000588
20017000,0.0324,0.013523,0.002678,0.000431,0.000353
20018000,0.0324,0.013523,0.002678,0.000431,0.000588
20019000,0.0324,0.013523,0.002678,0.000431,0.000353
20020000,0.0324,0.013523,0.002678,0.000431,0.000588
20021000,0.0324,0.013523,0.002678,0.000431,0.000353
20022000,0.0324,0.013523,0.002678,0.000431,0.000588
20023000,0.0324,0.013523,0.002678,0.000431,0.000353
20024000,0.0324,0.013523,0.002678,0.000431,0.000705
20025000,0.0324,0.013523,0.002678,0.000431,0.000353
20026000,0.0324,0.013523,0.002678,0.000431,0.000705
20027000,0.0324,0.013523,0.002678,0.000431,0.000470
20028000,0.0324,0.013523,0.002678,0.000431,0.000470
20029000,0.0324,0.013523,0.002678,0.000431,0.000470
20030000,0.0324,0.013523,0.002678,0.000431,0.000470
20031000,0.0324,0.013523,0.002678,0.000431,0.000470
20032000,0.0324,0.013523,0.002678,0.000431,0.000588
20033000,0.0324,0.013523,0.002678,0.000431,0.000353
20034000,0.0324,0.013523,0.002678,0.000431,0.000470
20035000,0.0324,0.013523,0.002678,0.000431,0.000470
20036000,0.0324,0.013523,0.002678,0.000431,0.000588
20037000,0.0324,0.013523,0.002678,0.000431,0.000588
20038000,0.0324,0.013523,0.002678,0.000431,0.000470
20039000,0.0324,0.013523,0.002678,0.000431,0.000470
20040000,0.0324,0.013523,0.002678,0.000431,0.000588
20041000,0.0324,0.013523,0.002678,0.000431,0.000470
20042000,0.0324,0.013523,0.002678,0.000431,0.000588
20043000,0.0324,0.013523,0.002678,0.000431,0.000235
20044000,0.0324,0.013523,0.002678,0.000431,0.000705
20045000,0.0324,0.013523,0.002678,0.000431,0.000353
20046000,0.0324,0.013523,0.002678,0.000431,0.000588
20047000,0.0324,0.013523,0.002678,0.000431,0.000353
20048000,0.0324,0.013523,0.002678,0.000431,0.000588
20049000,0.0324,0.013523,0.002678,0.000431,0.000353
20050000,0.0324,0.013523,0.002678,0.000431,0.000705
20051000,0.0324,0.013523,0.002678,0.000431,0.000353
20052000,0.0324,0.013523,0.002678,0.000431,0.000588
20053000,0.0324,0.013523,0.002678,0.000431,0.000353
20054000,0.0324,0.013523,0.002678,0.000431,0.000588
20055000,0.0324,0.013523,0.002678,0.000431,0.000470
20056000,0.0324,0.013523,0.002678,0.000431,0.000588
20057000,0.0324,0.013523,0.002678,0.000431,0.000353
20058000,0.0324,0.013523,0.002678,0.000431,0.000588
20059000,0.0324,0.013523,0.002678,0.000431,0.000353
20060000,0.0324,0.013523,0.002678,0.000431,0.000588
20061000,0.0324,0.013523,0.002678,0.000431,0.000353
20062000,0.0324,0.013523,0.002678,0.000431,0.000588
20063000,0.0324,0.013523,0.002678,0.000431,0.000353
20064000,0.0324,0.013523,0.002678,0.000431,0.000588
20065000,0.0324,0.013523,0.002678,0.000431,0.000470
20066000,0.0324,0.013523,0.002678,0.000431,0.000470
20067000,0.0324,0.013523,0.002678,0.000431,0.000470
20068000,0.0324,0.013523,0.002678,0.000431,0.000470
20069000,0.0324,0.013523,0.002678,0.000431,0.000470
20070000,0.0324,0.013523,0.002678,0.000431,0.000470
20071000,0.0324,0.013523,0.002678,0.000431,0.000353
20072000,0.0324,0.013523,0.002678,0.000431,0.000470
20073000,0.0324,0.013523,0.002678,0.000431,0.000588
20074000,0.0324,0.013523,0.002678,0.000431,0.000588
20075000,0.0324,0.013523,0.002678,0.000431,0.000470
20076000,0.0324,0.013523,0.002678,0.000431,0.000588
20077000,0.0324,0.013523,0.002678,0.000431,0.000353
20078000,0.0324,0.013523,0.002678,0.000431,0.000588
20079000,0.0324,0.013523,0.002678,0.000431,0.000353
20080000,0.0324,0.013523,0.002678,0.000431,0.000588
20081000,0.0324,0.013523,0.002678,0.000431,0.000470
20082000,0.0324,0.013523,0.002678,0.000431,0.000470
20083000,0.0324,0.013523,0.002678,0.000431,0.000353
20084000,0.0324,0.013523,0.002678,0.000431,0.000588
20085000,0.0324,0.013523,0.002678,0.000431,0.000353
20086000,0.0324,0.013523,0.002678,0.000431,0.000588
20087000,0.0324,0.013523,0.002678,0.000431,0.000353
20088000,0.0324,0.013523,0.002678,0.000431,0.000588
20089000,0.0324,0.013523,0.002678,0.000431,0.000470
20090000,0.0324,0.013523,0.002678,0.000431,0.000470
20091000,0.0324,0.013523,0.002678,0.000431,0.000470
20092000,0.0324,0.013523,0.002678,0.000431,0.000470
20093000,0.0324,0.013523,0.002678,0.000431,0.000470
20094000,0.0324,0.013523,0.002678,0.000431,0.000470
20095000,0.0324,0.013523,0.002678,0.000431,0.000470
20096000,0.0324,0.013523,0.002678,0.000431,0.000470
20097000,0.0324,0.013523,0.002678,0.000431,0.000705
20098000,0.0324,0.013523,0.002678,0.000431,0.000353
20099000,0.0324,0.013523,0.002678,0.000431,0.000588
20100000,0.0324,0.013523,0.002678,0.000431,0.000353
20101000,0.0324,0.013523,0.002678,0.000431,0.000705
20102000,0.0324,0.013523,0.002678,0.000431,0.000353
20103000,0.0324,0.013523,0.002678,0.000431,0.000705
20104000,0.0324,0.013523,0.002678,0.000431,0.000588
20105000,0.0324,0.013523,0.002678,0.000431,0.000470
20106000,0.0324,0.013523,0.002678,0.000431,0.000705
20107000,0.0324,0.013523,0.002678,0.000431,0.000353
20108000,0.0324,0.013523,0.002678,0.000431,0.000705
20109000,0.0324,0.013523,0.002678,0.000431,0.000470
20110000,0.0324,0.013523,0.002678,0.000431,0.000470
20111000,0.0324,0.013523,0.002678,0.000431,0.000470
20112000,0.0324,0.013523,0.002678,0.000431,0.000470
20113000,0.0324,0.013523,0.002678,0.000431,0.000470
20114000,0.0324,0.013523,0.002678,0.000431,0.000470
20115000,0.0324,0.013523,0.002678,0.000431,0.000470
20116000,0.0324,0.013523,0.002678,0.000431,0.000470
20117000,0.0324,0.013523,0.002678,0.000431,0.000470
20118000,0.0324,0.013523,0.002678,0.000431,0.000470
20119000,0.0324,0.013523,0.002678,0.000431,0.000353
20120000,0.0324,0.013523,0.002678,0.000431,0.000588
20121000,0.0324,0.013523,0.002678,0.000431,0.000235
20122000,0.0324,0.013523,0.002678,0.000431,0.000705
20123000,0.0324,0.013523,0.002678,0.000431,0.000353
20124000,0.0324,0.013523,0.002678,0.000431,0.000705
20125000,0.0324,0.013523,0.002678,0.000431,0.000353
20126000,0.0324,0.013523,0.002678,0.000431,0.000705
20127000,0.0324,0.013523,0.002678,0.000431,0.000588
20128000,0.0324,0.013523,0.002678,0.000431,0.000470
20129000,0.0324,0.013523,0.002678,0.000431,0.000588
20130000,0.0324,0.013523,0.002678,0.000431,0.000353
20131000,0.0324,0.013523,0.002678,0.000431,0.000588
20132000,0.0324,0.013523,0.002678,0.000431,0.000353
20133000,0.0324,0.013523,0.002678,0.000431,0.000588
20134000,0.0324,0.013523,0.002678,0.000431,0.000353
20135000,0.0324,0.013523,0.002678,0.000431,0.000588
20136000,0.0324,0.013523,0.002678,0.000431,0.000353
20137000,0.0324,0.013523,0.002678,0.000431,0.000588
20138000,0.0324,0.013523,0.002678,0.000431,0.000470
20139000,0.0324,0.013523,0.002678,0.000431,0.000470
20140000,0.0324,0.013523,0.002678,0.000431,0.000470
20141000,0.0324,0.013523,0.002678,0.000431,0.000470
20142000,0.0324,0.013523,0.002678,0.000431,0.000470
20143000,0.0324,0.013523,0.002678,0.000431,0.000353
20144000,0.0324,0.013523,0.002678,0.000431,0.000588
20145000,0.0324,0.013523,0.002678,0.000431,0.000353
20146000,0.0324,0.013523,0.002678,0.000431,0.000588
20147000,0.0324,0.013523,0.002678,0.000431,0.000235
20148000,0.0324,0.013523,0.002678,0.000431,0.000705
20149000,0.0324,0.013523,0.002678,0.000431,0.000353
20150000,0.0324,0.013523,0.002678,0.000431,0.000705
20151000,0.0324,0.013523,0.002678,0.000431,0.000353
20152000,0.0324,0.013523,0.002678,0.000431,0.000588
20153000,0.0324,0.013523,0.002678,0.000431,0.000353
20154000,0.0324,0.013523,0.002678,0.000431,0.000588
20155000,0.0324,0.013523,0.002678,0.000431,0.000353
20156000,0.0324,0.013523,0.002678,0.000431,0.000588
20157000,0.0324,0.013523,0.002678,0.000431,0.000353
20158000,0.0324,0.013523,0.002678,0.000431,0.000588
20159000,0.0324,0.013523,0.002678,0.000431,0.000353
20160000,0.0324,0.013523,0.002678,0.000431,0.000588
20161000,0.0324,0.013523,0.002678,0.000431,0.000353
20162000,0.0324,0.013523,0.002678,0.000431,0.000588
20163000,0.0324,0.013523,0.002678,0.000431,0.000353
20164000,0.0324,0.013523,0.002678,0.000431,0.000588
20165000,0.0324,0.013523,0.002678,0.000431,0.000353
20166000,0.0324,0.013523,0.002678,0.000431,0.000588
20167000,0.0324,0.013523,0.002678,0.000431,0.000353
20168000,0.0324,0.013523,0.002678,0.000431,0.000588
20169000,0.0324,0.013523,0.002678,0.000431,0.000353
20170000,0.0324,0.013523,0.002678,0.000431,0.000588
20171000,0.0324,0.013523,0.002678,0.000431,0.000353
20172000,0.0324,0.013523,0.002678,0.000431,0.000470
20173000,0.0324,0.013523,0.002678,0.000431,0.000470
20174000,0.0324,0.013523,0.002678,0.000431,0.000470
20175000,0.0324,0.013523,0.002678,0.000431,0.000470
20176000,0.0324,0.013523,0.002678,0.000431,0.000588
20177000,0.0324,0.013523,0.002678,0.000431,0.000470
20178000,0.0324,0.013523,0.002678,0.000431,0.000705
20179000,0.0324,0.013523,0.002678,0.000431,0.000353
20180000,0.0324,0.013523,0.002678,0.000431,0.000588
20181000,0.0324,0.013523,0.002678,0.000431,0.000353
20182000,0.0324,0.013523,0.002678,0.000431,0.000588
20183000,0.0324,0.013523,0.002678,0.000431,0.000353
20184000,0.0324,0.013523,0.002678,0.000431,0.000588
20185000,0.0324,0.013523,0.002678,0.000431,0.000353
20186000,0.0324,0.013523,0.002678,0.000431,0.000588
20187000,0.0324,0.013523,0.002678,0.000431,0.000353
20188000,0.0324,0.013523,0.002678,0.000431,0.000588
20189000,0.0324,0.013523,0.002678,0.000431,0.000353
20190000,0.0324,0.013523,0.002678,0.000431,0.000588
20191000,0.0324,0.013523,0.002678,0.000431,0.000353
20192000,0.0324,0.013523,0.002678,0.000431,0.000823
20193000,0.0324,0.013523,0.002678,0.000431,0.000353
20194000,0.0324,0.013523,0.002678,0.000431,0.000588
20195000,0.0324,0.013523,0.002678,0.000431,0.000353
20196000,0.0324,0.013523,0.002678,0.000431,0.000588
20197000,0.0324,0.013523,0.002678,0.000431,0.000353
20198000,0.0324,0.013523,0.002678,0.000431,0.000470
20199000,0.0324,0.013523,0.002678,0.000431,0.000470
20200000,0.0324,0.013523,0.002678,0.000431,0.000588
20201000,0.0324,0.013523,0.002678,0.000431,0.000470
20202000,0.0324,0.013523,0.002678,0.000431,0.000705
20203000,0.0324,0.013523,0.002678,0.000431,0.000353
20204000,0.0324,0.013523,0.002678,0.000431,0.000705
20205000,0.0324,0.013523,0.002678,0.000431,0.000588
20206000,0.0324,0.013523,0.002678,0.000431,0.000470
20207000,0.0324,0.013523,0.002678,0.000431,0.000705
20208000,0.0324,0.013523,0.002678,0.000431,0.000353
20209000,0.0324,0.013523,0.002678,0.000431,0.000588
20210000,0.0324,0.013523,0.002678,0.000431,0.000353
20211000,0.0324,0.013523,0.002678,0.000431,0.000588
20212000,0.0324,0.013523,0.002678,0.000431,0.000353
20213000,0.0324,0.013523,0.002678,0.000431,0.000588
20214000,0.0324,0.013523,0.002678,0.000431,0.000353
20215000,0.0324,0.013523,0.002678,0.000431,0.000588
20216000,0.0324,0.013523,0.002678,0.000431,0.000353
20217000,0.0324,0.013523,0.002678,0.000431,0.000588
20218000,0.0324,0.013523,0.002678,0.000431,0.000470
20219000,0.0324,0.013523,0.002678,0.000431,0.000588
20220000,0.0324,0.013523,0.002678,0.000431,0.000353
20221000,0.0324,0.013523,0.002678,0.000431,0.000588
20222000,0.0324,0.013523,0.002678,0.000431,0.000353
20223000,0.0324,0.013523,0.002678,0.000431,0.000705
20224000,0.0324,0.013523,0.002678,0.000431,0.000353
20225000,0.0324,0.013523,0.002678,0.000431,0.000705
20226000,0.0324,0.013523,0.002678,0.000431,0.000588
20227000,0.0324,0.013523,0.002678,0.000431,0.000470
20228000,0.0324,0.013523,0.002678,0.000431,0.000705
20229000,0.0324,0.013523,0.002678,0.000431,0.000353
20230000,0.0324,0.013523,0.002678,0.000431,0.000705
20231000,0.0324,0.013523,0.002678,0.000431,0.000470
20232000,0.0324,0.013523,0.002678,0.000431,0.000470
20233000,0.0324,0.013523,0.002678,0.000431,0.000470
20234000,0.0324,0.013523,0.002678,0.000431,0.000470
20235000,0.0324,0.013523,0.002678,0.000431,0.000353
20236000,0.0324,0.013523,0.002678,0.000431,0.000588
20237000,0.0324,0.013523,0.002678,0.000431,0.000353
20238000,0.0324,0.013523,0.002678,0.000431,0.000588
20239000,0.0324,0.013523,0.002678,0.000431,0.000353
20240000,0.0324,0.013523,0.002678,0.000431,0.000588
20241000,0.0324,0.013523,0.002678,0.000431,0.000353
20242000,0.0324,0.013523,0.002678,0.000431,0.000705
20243000,0.0324,0.013523,0.002678,0.000431,0.000353
20244000,0.0324,0.013523,0.002678,0.000431,0.000705
20245000,0.0324,0.013523,0.002678,0.000431,0.000588
20246000,0.0324,0.013523,0.002678,0.000431,0.000470
20247000,0.0324,0.013523,0.002678,0.000431,0.000588
20248000,0.0324,0.013523,0.002678,0.000431,0.000353
20249000,0.0324,0.013523,0.002678,0.000431,0.000588
20250000,0.0324,0.013523,0.002678,0.000431,0.000353
20251000,0.0324,0.013523,0.002678,0.000431,0.000705
20252000,0.0324,0.013523,0.002678,0.000431,0.000470
20253000,0.0324,0.013523,0.002678,0.000431,0.000705
20254000,0.0324,0.013523,0.002678,0.000431,0.000470
20255000,0.0324,0.013523,0.002678,0.000431,0.000470
20256000,0.0324,0.013523,0.002678,0.000431,0.000588
20257000,0.0324,0.013523,0.002678,0.000431,0.000470
20258000,0.0324,0.013523,0.002678,0.000431,0.000470
20259000,0.0324,0.013523,0.002678,0.000431,0.000470
20260000,0.0324,0.013523,0.002678,0.000431,0.000470
20261000,0.0324,0.013523,0.002678,0.000431,0.000588
20262000,0.0324,0.013523,0.002678,0.000431,0.000470
20263000,0.0324,0.013523,0.002678,0.000431,0.000588
20264000,0.0324,0.013523,0.002678,0.000431,0.000353
20265000,0.0324,0.013523,0.002678,0.000431,0.000588
20266000,0.0324,0.013523,0.002678,0.000431,0.000353
20267000,0.0324,0.013523,0.002678,0.000431,0.000588
20268000,0.0324,0.013523,0.002678,0.000431,0.000353
20269000,0.0324,0.013523,0.002678,0.000431,0.000588
20270000,0.0324,0.013523,0.002678,0.000431,0.000470
20271000,0.0324,0.013523,0.002678,0.000431,0.000588
20272000,0.0324,0.013523,0.002678,0.000431,0.000470
20273000,0.0324,0.013523,0.002678,0.000431,0.000588
20274000,0.0324,0.013523,0.002678,0.000431,0.000353
20275000,0.0324,0.013523,0.002678,0.000431,0.000588
20276000,0.0324,0.013523,0.002678,0.000431,0.000353
20277000,0.0324,0.013523,0.002678,0.000431,0.000588
20278000,0.0324,0.013523,0.002678,0.000431,0.000353
20279000,0.0324,0.013523,0.002678,0.000431,0.000705
20280000,0.0324,0.013523,0.002678,0.000431,0.000470
20281000,0.0324,0.013523,0.002678,0.000431,0.000470
20282000,0.0324,0.013523,0.002678,0.000431,0.000470
20283000,0.0324,0.013523,0.002678,0.000431,0.000470
20284000,0.0324,0.013523,0.002678,0.000431,0.000470
20285000,0.0324,0.013523,0.002678,0.000431,0.000470
20286000,0.0324,0.013523,0.002678,0.000431,0.000470
20287000,0.0324,0.013523,0.002678,0.000431,0.000353
20288000,0.0324,0.013523,0.002678,0.000431,0.000705
20289000,0.0324,0.013523,0.002678,0.000431,0.000588
20290000,0.0324,0.013523,0.002678,0.000431,0.000470
20291000,0.0324,0.013523,0.002678,0.000431,0.000705
20292000,0.0324,0.013523,0.002678,0.000431,0.000353
20293000,0.0324,0.013523,0.002678,0.000431,0.000705
20294000,0.0324,0.013523,0.002678,0.000431,0.000588
20295000,0.0324,0.013523,0.002678,0.000431,0.000470
20296000,0.0324,0.013523,0.002678,0.000431,0.000705
20297000,0.0324,0.013523,0.002678,0.000431,0.000353
20298000,0.0324,0.013523,0.002678,0.000431,0.000588
20299000,0.0324,0.013523,0.002678,0.000431,0.000353
20300000,0.0324,0.013523,0.002678,0.000431,0.000588
20301000,0.0324,0.013523,0.002678,0.000431,0.000353
20302000,0.0324,0.013523,0.002678,0.000431,0.000470
20303000,0.0324,0.013523,0.002678,0.000431,0.000470
20304000,0.0324,0.013523,0.002678,0.000431,0.000470
20305000,0.0324,0.013523,0.002678,0.000431,0.000470
20306000,0.0324,0.013523,0.002678,0.000431,0.000470
20307000,0.0324,0.013523,0.002678,0.000431,0.000470
20308000,0.0324,0.013523,0.002678,0.000431,0.000588
20309000,0.0324,0.013523,0.002678,0.000431,0.000470
20310000,0.0324,0.013523,0.002678,0.000431,0.000705
20311000,0.0324,0.013523,0.002678,0.000431,0.000353
20312000,0.0324,0.013523,0.002678,0.000431,0.000588
20313000,0.0324,0.013523,0.002678,0.000431,0.000353
20314000,0.0324,0.013523,0.002678,0.000431,0.000588
20315000,0.0324,0.013523,0.002678,0.000431,0.000353
20316000,0.0324,0.013523,0.002678,0.000431,0.000588
20317000,0.0324,0.013523,0.002678,0.000431,0.000353
20318000,0.0324,0.013523,0.002678,0.000431,0.000588
20319000,0.0324,0.013523,0.002678,0.000431,0.000353
20320000,0.0324,0.013523,0.002678,0.000431,0.000588
20321000,0.0324,0.013523,0.002678,0.000431,0.000353
20322000,0.0324,0.013523,0.002678,0.000431,0.000588
20323000,0.0324,0.013523,0.002678,0.000431,0.000353
20324000,0.0324,0.013523,0.002678,0.000431,0.000588
20325000,0.0324,0.013523,0.002678,0.000431,0.000353
20326000,0.0324,0.013523,0.002678,0.000431,0.000588
20327000,0.0324,0.013523,0.002678,0.000431,0.000353
20328000,0.0324,0.013523,0.002678,0.000431,0.000588
20329000,0.0324,0.013523,0.002678,0.000431,0.000470
20330000,0.0324,0.013523,0.002678,0.000431,0.000470
20331000,0.0324,0.013523,0.002678,0.000431,0.000588
20332000,0.0324,0.013523,0.002678,0.000431,0.000353
20333000,0.0324,0.013523,0.002678,0.000431,0.000588
20334000,0.0324,0.013523,0.002678,0.000431,0.000353
20335000,0.0324,0.013523,0.002678,0.000431,0.000588
20336000,0.0324,0.013523,0.002678,0.000431,0.000353
20337000,0.0324,0.013523,0.002678,0.000431,0.000588
20338000,0.0324,0.013523,0.002678,0.000431,0.000353
20339000,0.0324,0.013523,0.002678,0.000431,0.000588
20340000,0.0324,0.013523,0.002678,0.000431,0.000353
20341000,0.0324,0.013523,0.002678,0.000431,0.000588
20342000,0.0324,0.013523,0.002678,0.000431,0.000235
20343000,0.0324,0.013523,0.002678,0.000431,0.000588
20344000,0.0324,0.013523,0.002678,0.000431,0.000353
20345000,0.0324,0.013523,0.002678,0.000431,0.000588
20346000,0.0324,0.013523,0.002678,0.000431,0.000470
20347000,0.0324,0.013523,0.002678,0.000431,0.000588
20348000,0.0324,0.013523,0.002678,0.000431,0.000353
20349000,0.0324,0.013523,0.002678,0.000431,0.000588
20350000,0.0324,0.013523,0.002678,0.000431,0.000353
20351000,0.0324,0.013523,0.002678,0.000431,0.000470
20352000,0.0324,0.013523,0.002678,0.000431,0.000353
20353000,0.0324,0.013523,0.002678,0.000431,0.000588
20354000,0.0324,0.013523,0.002678,0.000431,0.000353
20355000,0.0324,0.013523,0.002678,0.000431,0.000588
20356000,0.0324,0.013523,0.002678,0.000431,0.000353
20357000,0.0324,0.013523,0.002678,0.000431,0.000588
20358000,0.0324,0.013523,0.002678,0.000431,0.000353
20359000,0.0324,0.013523,0.002678,0.000431,0.000470
20360000,0.0324,0.013523,0.002678,0.000431,0.000470
20361000,0.0324,0.013523,0.002678,0.000431,0.000470
20362000,0.0324,0.013523,0.002678,0.000431,0.000470
20363000,0.0324,0.013523,0.002678,0.000431,0.000470
20364000,0.0324,0.013523,0.002678,0.000431,0.000470
20365000,0.0324,0.013523,0.002678,0.000431,0.000470
20366000,0.0324,0.013523,0.002678,0.000431,0.000470
20367000,0.0324,0.013523,0.002678,0.000431,0.000470
20368000,0.0324,0.013523,0.002678,0.000431,0.000470
20369000,0.0324,0.013523,0.002678,0.000431,0.000470
20370000,0.0324,0.013523,0.002678,0.000431,0.000470
20371000,0.0324,0.013523,0.002678,0.000431,0.000470
20372000,0.0324,0.013523,0.002678,0.000431,0.000470
20373000,0.0324,0.013523,0.002678,0.000431,0.000588
20374000,0.0324,0.013523,0.002678,0.000431,0.000470
20375000,0.0324,0.013523,0.002678,0.000431,0.000588
20376000,0.0324,0.013523,0.002678,0.000431,0.000353
20377000,0.0324,0.013523,0.002678,0.000431,0.000588
20378000,0.0324,0.013523,0.002678,0.000431,0.000353
20379000,0.0324,0.013523,0.002678,0.000431,0.000588
20380000,0.0324,0.013523,0.002678,0.000431,0.000353
20381000,0.0324,0.013523,0.002678,0.000431,0.000588
20382000,0.0324,0.013523,0.002678,0.000431,0.000353
20383000,0.0324,0.013523,0.002678,0.000431,0.000588
20384000,0.0324,0.013523,0.002678,0.000431,0.000353
20385000,0.0324,0.013523,0.002678,0.000431,0.000470
20386000,0.0324,0.013523,0.002678,0.000431,0.000470
20387000,0.0324,0.013523,0.002678,0.000431,0.000470
20388000,0.0324,0.013523,0.002678,0.000431,0.000470
20389000,0.0324,0.013523,0.002678,0.000431,0.000470
20390000,0.0324,0.013523,0.002678,0.000431,0.000470
20391000,0.0324,0.013523,0.002678,0.000431,0.000353
20392000,0.0324,0.013523,0.002678,0.000431,0.000705
20393000,0.0324,0.013523,0.002678,0.000431,0.000588
20394000,0.0324,0.013523,0.002678,0.000431,0.000470
20395000,0.0324,0.013523,0.002678,0.000431,0.000705
20396000,0.0324,0.013523,0.002678,0.000431,0.000353
20397000,0.0324,0.013523,0.002678,0.000431,0.000588
20398000,0.0324,0.013523,0.002678,0.000431,0.000353
20399000,0.0324,0.013523,0.002678,0.000431,0.000588
20400000,0.0324,0.013523,0.002678,0.000431,0.000353
20401000,0.0324,0.013523,0.002678,0.000431,0.000588
20402000,0.0324,0.013523,0.002678,0.000431,0.000353
20403000,0.0324,0.013523,0.002678,0.000431,0.000588
20404000,0.0324,0.013523,0.002678,0.000431,0.000353
20405000,0.0324,0.013523,0.002678,0.000431,0.000588
20406000,0.0324,0.013523,0.002678,0.000431,0.000353
20407000,0.0324,0.013523,0.002678,0.000431,0.000588
20408000,0.0324,0.013523,0.002678,0.000431,0.000353
20409000,0.0324,0.013523,0.002678,0.000431,0.000588
20410000,0.0324,0.013523,0.002678,0.000431,0.000353
20411000,0.0324,0.013523,0.002678,0.000431,0.000470
20412000,0.0324,0.013523,0.002678,0.000431,0.000353
20413000,0.0324,0.013523,0.002678,0.000431,0.000588
20414000,0.0324,0.013523,0.002678,0.000431,0.000470
20415000,0.0324,0.013523,0.002678,0.000431,0.000588
20416000,0.0324,0.013523,0.002678,0.000431,0.000470
20417000,0.0324,0.013523,0.002678,0.000431,0.000705
20418000,0.0324,0.013523,0.002678,0.000431,0.000353
20419000,0.0324,0.013523,0.002678,0.000431,0.000705
20420000,0.0324,0.013523,0.002678,0.000431,0.000470
20421000,0.0324,0.013523,0.002678,0.000431,0.000588
20422000,0.0324,0.013523,0.002678,0.000431,0.000353
20423000,0.0324,0.013523,0.002678,0.000431,0.000705
20424000,0.0324,0.013523,0.002678,0.000431,0.000588
20425000,0.0324,0.013523,0.002678,0.000431,0.000470
20426000,0.0324,0.013523,0.002678,0.000431,0.000588
20427000,0.0324,0.013523,0.002678,0.000431,0.000353
20428000,0.0324,0.013523,0.002678,0.000431,0.000588
20429000,0.0324,0.013523,0.002678,0.000431,0.000353
20430000,0.0324,0.013523,0.002678,0.000431,0.000470
20431000,0.0324,0.013523,0.002678,0.000431,0.000470
20432000,0.0324,0.013523,0.002678,0.000431,0.000470
20433000,0.0324,0.013523,0.002678,0.000431,0.000470
20434000,0.0324,0.013523,0.002678,0.000431,0.000470
20435000,0.0324,0.013523,0.002678,0.000431,0.000470
20436000,0.0324,0.013523,0.002678,0.000431,0.000353
20437000,0.0324,0.013523,0.002678,0.000431,0.000588
20438000,0.0324,0.013523,0.002678,0.000431,0.000353
20439000,0.0324,0.013523,0.002678,0.000431,0.000705
20440000,0.0324,0.013523,0.002678,0.000431,0.000588
20441000,0.0324,0.013523,0.002678,0.000431,0.000470
20442000,0.0324,0.013523,0.002678,0.000431,0.000705
20443000,0.0324,0.013523,0.002678,0.000431,0.000353
20444000,0.0324,0.013523,0.002678,0.000431,0.000705
20445000,0.0324,0.013523,0.002678,0.000431,0.000470
20446000,0.0324,0.013523,0.002678,0.000431,0.000470
20447000,0.0324,0.013523,0.002678,0.000431,0.000470
20448000,0.0324,0.013523,0.002678,0.000431,0.000470
20449000,0.0324,0.013523,0.002678,0.000431,0.000470
20450000,0.0324,0.013523,0.002678,0.000431,0.000588
20451000,0.0324,0.013523,0.002678,0.000431,0.000470
20452000,0.0324,0.013523,0.002678,0.000431,0.000588
20453000,0.0324,0.013523,0.002678,0.000431,0.000588
20454000,0.0324,0.013523,0.002678,0.000431,0.000588
20455000,0.0324,0.013523,0.002678,0.000431,0.000470
20456000,0.0324,0.013523,0.002678,0.000431,0.000470
20457000,0.0324,0.013523,0.002678,0.000431,0.000470
20458000,0.0324,0.013523,0.002678,0.000431,0.000353
20459000,0.0324,0.013523,0.002678,0.000431,0.000588
20460000,0.0324,0.013523,0.002678,0.000431,0.000353
20461000,0.0324,0.013523,0.002678,0.000431,0.000588
20462000,0.0324,0.013523,0.002678,0.000431,0.000353
20463000,0.0324,0.013523,0.002678,0.000431,0.000588
20464000,0.0324,0.013523,0.002678,0.000431,0.000353
20465000,0.0324,0.013523,0.002678,0.000431,0.000588
20466000,0.0324,0.013523,0.002678,0.000431,0.000470
20467000,0.0324,0.013523,0.002678,0.000431,0.000470
20468000,0.0324,0.013523,0.002678,0.000431,0.000353
20469000,0.0324,0.013523,0.002678,0.000431,0.000588
20470000,0.0324,0.013523,0.002678,0.000431,0.000353
20471000,0.0324,0.013523,0.002678,0.000431,0.000588
20472000,0.0324,0.013523,0.002678,0.000431,0.000470
20473000,0.0324,0.013523,0.002678,0.000431,0.000588
20474000,0.0324,0.013523,0.002678,0.000431,0.000470
20475000,0.0324,0.013523,0.002678,0.000431,0.000588
20476000,0.0324,0.013523,0.002678,0.000431,0.000353
20477000,0.0324,0.013523,0.002678,0.000431,0.000588
20478000,0.0324,0.013523,0.002678,0.000431,0.000470
20479000,0.0324,0.013523,0.002678,0.000431,0.000470
20480000,0.0324,0.013523,0.002678,0.000431,0.000470
20481000,0.0324,0.013523,0.002678,0.000431,0.000470
20482000,0.0324,0.013523,0.002678,0.000431,0.000470
20483000,0.0324,0.013523,0.002678,0.000431,0.000470
20484000,0.0324,0.013523,0.002678,0.000431,0.000353
20485000,0.0324,0.013523,0.002678,0.000431,0.000588
20486000,0.0324,0.013523,0.002678,0.000431,0.000470
20487000,0.0324,0.013523,0.002678,0.000431,0.000470
20488000,0.0324,0.013523,0.002678,0.000431,0.000470
20489000,0.0324,0.013523,0.002678,0.000431,0.000470
20490000,0.0324,0.013523,0.002678,0.000431,0.000470
20491000,0.0324,0.013523,0.002678,0.000431,0.000470
20492000,0.0324,0.013523,0.002678,0.000431,0.000470
20493000,0.0324,0.013523,0.002678,0.000431,0.000470
20494000,0.0324,0.013523,0.002678,0.000431,0.000470
20495000,0.0324,0.013523,0.002678,0.000431,0.000588
20496000,0.0324,0.013523,0.002678,0.000431,0.000470
20497000,0.0324,0.013523,0.002678,0.000431,0.000705
20498000,0.0324,0.013523,0.002678,0.000431,0.000353
20499000,0.0324,0.013523,0.002678,0.000431,0.000588
20500000,0.0324,0.013523,0.002678,0.000431,0.000353
20501000,0.0324,0.013523,0.002678,0.000431,0.000705
20502000,0.0324,0.013523,0.002678,0.000431,0.000588
20503000,0.0324,0.013523,0.002678,0.000431,0.000470
20504000,0.0324,0.013523,0.002678,0.000431,0.000705
20505000,0.0324,0.013523,0.002678,0.000431,0.000353
20506000,0.0324,0.013523,0.002678,0.000431,0.000588
20507000,0.0324,0.013523,0.002678,0.000431,0.000353
20508000,0.0324,0.013523,0.002678,0.000431,0.000588
20509000,0.0324,0.013523,0.002678,0.000431,0.000353
20510000,0.0324,0.013523,0.002678,0.000431,0.000588
20511000,0.0324,0.013523,0.002678,0.000431,0.000353
20512000,0.0324,0.013523,0.002678,0.000431,0.000588
20513000,0.0324,0.013523,0.002678,0.000431,0.000353
20514000,0.0324,0.013523,0.002678,0.000431,0.000705
20515000,0.0324,0.013523,0.002678,0.000431,0.000470
20516000,0.0324,0.013523,0.002678,0.000431,0.000588
20517000,0.0324,0.013523,0.002678,0.000431,0.000470
20518000,0.0324,0.013523,0.002678,0.000431,0.000705
20519000,0.0324,0.013523,0.002678,0.000431,0.000353
20520000,0.0324,0.013523,0.002678,0.000431,0.000588
20521000,0.0324,0.013523,0.002678,0.000431,0.000353
20522000,0.0324,0.013523,0.002678,0.000431,0.000470
20523000,0.0324,0.013523,0.002678,0.000431,0.000470
20524000,0.0324,0.013523,0.002678,0.000431,0.000470
20525000,0.0324,0.013523,0.002678,0.000431,0.000470
20526000,0.0324,0.013523,0.002678,0.000431,0.000588
20527000,0.0324,0.013523,0.002678,0.000431,0.000470
20528000,0.0324,0.013523,0.002678,0.000431,0.000588
20529000,0.0324,0.013523,0.002678,0.000431,0.000353
20530000,0.0324,0.013523,0.002678,0.000431,0.000705
20531000,0.0324,0.013523,0.002678,0.000431,0.000353
20532000,0.0324,0.013523,0.002678,0.000431,0.000705
20533000,0.0324,0.013523,0.002678,0.000431,0.000470
20534000,0.0324,0.013523,0.002678,0.000431,0.000470
20535000,0.0324,0.013523,0.002678,0.000431,0.000470
20536000,0.0324,0.013523,0.002678,0.000431,0.000588
20537000,0.0324,0.013523,0.002678,0.000431,0.000353
20538000,0.0324,0.013523,0.002678,0.000431,0.000588
20539000,0.0324,0.013523,0.002678,0.000431,0.000353
20540000,0.0324,0.013523,0.002678,0.000431,0.000588
20541000,0.0324,0.013523,0.002678,0.000431,0.000470
20542000,0.0324,0.013523,0.002678,0.000431,0.000588
20543000,0.0324,0.013523,0.002678,0.000431,0.000588
20544000,0.0324,0.013523,0.002678,0.000431,0.000470
20545000,0.0324,0.013523,0.002678,0.000431,0.000353
20546000,0.0324,0.013523,0.002678,0.000431,0.000588
20547000,0.0324,0.013523,0.002678,0.000431,0.000353
20548000,0.0324,0.013523,0.002678,0.000431,0.000588
20549000,0.0324,0.013523,0.002678,0.000431,0.000353
20550000,0.0324,0.013523,0.002678,0.000431,0.000588
20551000,0.0324,0.013523,0.002678,0.000431,0.000353
20552000,0.0324,0.013523,0.002678,0.000431,0.000588
20553000,0.0324,0.013523,0.002678,0.000431,0.000353
20554000,0.0324,0.013523,0.002678,0.000431,0.000588
20555000,0.0324,0.013523,0.002678,0.000431,0.000470
20556000,0.0324,0.013523,0.002678,0.000431,0.000470
20557000,0.0324,0.013523,0.002678,0.000431,0.000470
20558000,0.0324,0.013523,0.002678,0.000431,0.000588
20559000,0.0324,0.013523,0.002678,0.000431,0.000353
20560000,0.0324,0.013523,0.002678,0.000431,0.000588
20561000,0.0324,0.013523,0.002678,0.000431,0.000353
20562000,0.0324,0.013523,0.002678,0.000431,0.000705
20563000,0.0324,0.013523,0.002678,0.000431,0.000353
20564000,0.0324,0.013523,0.002678,0.000431,0.000705
20565000,0.0324,0.013523,0.002678,0.000431,0.000470
20566000,0.0324,0.013523,0.002678,0.000431,0.000470
20567000,0.0324,0.013523,0.002678,0.000431,0.000470
20568000,0.0324,0.013523,0.002678,0.000431,0.000470
20569000,0.0324,0.013523,0.002678,0.000431,0.000470
20570000,0.0324,0.013523,0.002678,0.000431,0.000470
20571000,0.0324,0.013523,0.002678,0.000431,0.000353
20572000,0.0324,0.013523,0.002678,0.000431,0.000588
20573000,0.0324,0.013523,0.002678,0.000431,0.000353
20574000,0.0324,0.013523,0.002678,0.000431,0.000470
20575000,0.0324,0.013523,0.002678,0.000431,0.000353
20576000,0.0324,0.013523,0.002678,0.000431,0.000588
20577000,0.0324,0.013523,0.002678,0.000431,0.000353
20578000,0.0324,0.013523,0.002678,0.000431,0.000588
20579000,0.0324,0.013523,0.002678,0.000431,0.000353
20580000,0.0324,0.013523,0.002678,0.000431,0.000588
20581000,0.0324,0.013523,0.002678,0.000431,0.000353
20582000,0.0324,0.013523,0.002678,0.000431,0.000588
20583000,0.0324,0.013523,0.002678,0.000431,0.000353
20584000,0.0324,0.013523,0.002678,0.000431,0.000588
20585000,0.0324,0.013523,0.002678,0.000431,0.000353
20586000,0.0324,0.013523,0.002678,0.000431,0.000588
20587000,0.0324,0.013523,0.002678,0.000431,0.000353
20588000,0.0324,0.013523,0.002678,0.000431,0.000588
20589000,0.0324,0.013523,0.002678,0.000431,0.000353
20590000,0.0324,0.013523,0.002678,0.000431,0.000588
20591000,0.0324,0.013523,0.002678,0.000431,0.000353
20592000,0.0324,0.013523,0.002678,0.000431,0.000588
20593000,0.0324,0.013523,0.002678,0.000431,0.000353
20594000,0.0324,0.013523,0.002678,0.000431,0.000588
20595000,0.0324,0.013523,0.002678,0.000431,0.000353
20596000,0.0324,0.013523,0.002678,0.000431,0.000588
20597000,0.0324,0.013523,0.002678,0.000431,0.000353
20598000,0.0324,0.013523,0.002678,0.000431,0.000470
20599000,0.0324,0.013523,0.002678,0.000431,0.000470
20600000,0.0324,0.013523,0.002678,0.000431,0.000470
20601000,0.0324,0.013523,0.002678,0.000431,0.000470
20602000,0.0324,0.013523,0.002678,0.000431,0.000470
20603000,0.0324,0.013523,0.002678,0.000431,0.000470
20604000,0.0324,0.013523,0.002678,0.000431,0.000470
20605000,0.0324,0.013523,0.002678,0.000431,0.000470
20606000,0.0324,0.013523,0.002678,0.000431,0.000470
20607000,0.0324,0.013523,0.002678,0.000431,0.000470
20608000,0.0324,0.013523,0.002678,0.000431,0.000588
20609000,0.0324,0.013523,0.002678,0.000431,0.000470
20610000,0.0324,0.013523,0.002678,0.000431,0.000588
20611000,0.0324,0.013523,0.002678,0.000431,0.000353
20612000,0.0324,0.013523,0.002678,0.000431,0.000588
20613000,0.0324,0.013523,0.002678,0.000431,0.000353
20614000,0.0324,0.013523,0.002678,0.000431,0.000588
20615000,0.0324,0.013523,0.002678,0.000431,0.000353
20616000,0.0324,0.013523,0.002678,0.000431,0.000588
20617000,0.0324,0.013523,0.002678,0.000431,0.000353
20618000,0.0324,0.013523,0.002678,0.000431,0.000705
20619000,0.0324,0.013523,0.002678,0.000431,0.000470
20620000,0.0324,0.013523,0.002678,0.000431,0.000705
20621000,0.0324,0.013523,0.002678,0.000431,0.000353
20622000,0.0324,0.013523,0.002678,0.000431,0.000588
20623000,0.0324,0.013523,0.002678,0.000431,0.000353
20624000,0.0324,0.013523,0.002678,0.000431,0.000705
20625000,0.0324,0.013523,0.002678,0.000431,0.000470
20626000,0.0324,0.013523,0.002678,0.000431,0.000470
20627000,0.0324,0.013523,0.002678,0.000431,0.000470
20628000,0.0324,0.013523,0.002678,0.000431,0.000470
20629000,0.0324,0.013523,0.002678,0.000431,0.000470
20630000,0.0324,0.013523,0.002678,0.000431,0.000470
20631000,0.0324,0.013523,0.002678,0.000431,0.000470
20632000,0.0324,0.013523,0.002678,0.000431,0.000470
20633000,0.0324,0.013523,0.002678,0.000431,0.000470
20634000,0.0324,0.013523,0.002678,0.000431,0.000470
20635000,0.0324,0.013523,0.002678,0.000431,0.000470
20636000,0.0324,0.013523,0.002678,0.000431,0.000470
20637000,0.0324,0.013523,0.002678,0.000431,0.000470
20638000,0.0324,0.013523,0.002678,0.000431,0.000470
20639000,0.0324,0.013523,0.002678,0.000431,0.000470
20640000,0.0324,0.013523,0.002678,0.000431,0.000470
20641000,0.0324,0.013523,0.002678,0.000431,0.000470
20642000,0.0324,0.013523,0.002678,0.000431,0.000705
20643000,0.0324,0.013523,0.002678,0.000431,0.000470
20644000,0.0324,0.013523,0.002678,0.000431,0.000470
20645000,0.0324,0.013523,0.002678,0.000431,0.000470
20646000,0.0324,0.013523,0.002678,0.000431,0.000470
20647000,0.0324,0.013523,0.002678,0.000431,0.000470
20648000,0.0324,0.013523,0.002678,0.000431,0.000588
20649000,0.0324,0.013523,0.002678,0.000431,0.000353
20650000,0.0324,0.013523,0.002678,0.000431,0.000470
20651000,0.0324,0.013523,0.002678,0.000431,0.000470
20652000,0.0324,0.013523,0.002678,0.000431,0.000470
20653000,0.0324,0.013523,0.002678,0.000431,0.000470
20654000,0.0324,0.013523,0.002678,0.000431,0.000470
20655000,0.0324,0.013523,0.002678,0.000431,0.000470
20656000,0.0324,0.013523,0.002678,0.000431,0.000470
20657000,0.0324,0.013523,0.002678,0.000431,0.000470
20658000,0.0324,0.013523,0.002678,0.000431,0.000470
20659000,0.0324,0.013523,0.002678,0.000431,0.000470
20660000,0.0324,0.013523,0.002678,0.000431,0.000470
20661000,0.0324,0.013523,0.002678,0.000431,0.000470
20662000,0.0324,0.013523,0.002678,0.000431,0.000470
20663000,0.0324,0.013523,0.002678,0.000431,0.000588
20664000,0.0324,0.013523,0.002678,0.000431,0.000353
20665000,0.0324,0.013523,0.002678,0.000431,0.000588
20666000,0.0324,0.013523,0.002678,0.000431,0.000353
20667000,0.0324,0.013523,0.002678,0.000431,0.000588
20668000,0.0324,0.013523,0.002678,0.000431,0.000353
20669000,0.0324,0.013523,0.002678,0.000431,0.000588
20670000,0.0324,0.013523,0.002678,0.000431,0.000353
20671000,0.0324,0.013523,0.002678,0.000431,0.000705
20672000,0.0324,0.013523,0.002678,0.000431,0.000588
20673000,0.0324,0.013523,0.002678,0.000431,0.000470
20674000,0.0324,0.013523,0.002678,0.000431,0.000705
20675000,0.0324,0.013523,0.002678,0.000431,0.000353
20676000,0.0324,0.013523,0.002678,0.000431,0.000470
20677000,0.0324,0.013523,0.002678,0.000431,0.000353
20678000,0.0324,0.013523,0.002678,0.000431,0.000588
20679000,0.0324,0.013523,0.002678,0.000431,0.000353
20680000,0.0324,0.013523,0.002678,0.000431,0.000588
20681000,0.0324,0.013523,0.002678,0.000431,0.000470
20682000,0.0324,0.013523,0.002678,0.000431,0.000470
20683000,0.0324,0.013523,0.002678,0.000431,0.000470
20684000,0.0324,0.013523,0.002678,0.000431,0.000470
20685000,0.0324,0.013523,0.002678,0.000431,0.000470
20686000,0.0324,0.013523,0.002678,0.000431,0.000470
20687000,0.0324,0.013523,0.002678,0.000431,0.000470
20688000,0.0324,0.013523,0.002678,0.000431,0.000588
20689000,0.0324,0.013523,0.002678,0.000431,0.000470
20690000,0.0324,0.013523,0.002678,0.000431,0.000588
20691000,0.0324,0.013523,0.002678,0.000431,0.000353
20692000,0.0324,0.013523,0.002678,0.000431,0.000588
20693000,0.0324,0.013523,0.002678,0.000431,0.000353
20694000,0.0324,0.013523,0.002678,0.000431,0.000588
20695000,0.0324,0.013523,0.002678,0.000431,0.000353
20696000,0.0324,0.013523,0.002678,0.000431,0.000588
20697000,0.0324,0.013523,0.002678,0.000431,0.000353
20698000,0.0324,0.013523,0.002678,0.000431,0.000588
20699000,0.0324,0.013523,0.002678,0.000431,0.000353
20700000,0.0324,0.013523,0.002678,0.000431,0.000588
20701000,0.0324,0.013523,0.002678,0.000431,0.000353
20702000,0.0324,0.013523,0.002678,0.000431,0.000588
20703000,0.0324,0.013523,0.002678,0.000431,0.000705
20704000,0.0324,0.013523,0.002678,0.000431,0.000470
20705000,0.0324,0.013523,0.002678,0.000431,0.000470
20706000,0.0324,0.013523,0.002678,0.000431,0.000470
20707000,0.0324,0.013523,0.002678,0.000431,0.000588
20708000,0.0324,0.013523,0.002678,0.000431,0.000353
20709000,0.0324,0.013523,0.002678,0.000431,0.000588
20710000,0.0324,0.013523,0.002678,0.000431,0.000353
20711000,0.0324,0.013523,0.002678,0.000431,0.000705
20712000,0.0324,0.013523,0.002678,0.000431,0.000588
20713000,0.0324,0.013523,0.002678,0.000431,0.000470
20714000,0.0324,0.013523,0.002678,0.000431,0.000588
20715000,0.0324,0.013523,0.002678,0.000431,0.000353
20716000,0.0324,0.013523,0.002678,0.000431,0.000588
20717000,0.0324,0.013523,0.002678,0.000431,0.000353
20718000,0.0324,0.013523,0.002678,0.000431,0.000588
20719000,0.0324,0.013523,0.002678,0.000431,0.000353
20720000,0.0324,0.013523,0.002678,0.000431,0.000588
20721000,0.0324,0.013523,0.002678,0.000431,0.000353
20722000,0.0324,0.013523,0.002678,0.000431,0.000588
20723000,0.0324,0.013523,0.002678,0.000431,0.000353
20724000,0.0324,0.013523,0.002678,0.000431,0.000588
20725000,0.0324,0.013523,0.002678,0.000431,0.000353
20726000,0.0324,0.013523,0.002678,0.000431,0.000588
20727000,0.0324,0.013523,0.002678,0.000431,0.000470
20728000,0.0324,0.013523,0.002678,0.000431,0.000353
20729000,0.0324,0.013523,0.002678,0.000431,0.000588
20730000,0.0324,0.013523,0.002678,0.000431,0.000588
20731000,0.0324,0.013523,0.002678,0.000431,0.000470
20732000,0.0324,0.013523,0.002678,0.000431,0.000470
20733000,0.0324,0.013523,0.002678,0.000431,0.000470
20734000,0.0324,0.013523,0.002678,0.000431,0.000353
20735000,0.0324,0.013523,0.002678,0.000431,0.000588
20736000,0.0324,0.013523,0.002678,0.000431,0.000353
20737000,0.0324,0.013523,0.002678,0.000431,0.000588
20738000,0.0324,0.013523,0.002678,0.000431,0.000353
20739000,0.0324,0.013523,0.002678,0.000431,0.000588
20740000,0.0324,0.013523,0.002678,0.000431,0.000353
20741000,0.0324,0.013523,0.002678,0.000431,0.000588
20742000,0.0324,0.013523,0.002678,0.000431,0.000470
20743000,0.0324,0.013523,0.002678,0.000431,0.000470
20744000,0.0324,0.013523,0.002678,0.000431,0.000353
20745000,0.0324,0.013523,0.002678,0.000431,0.000705
20746000,0.0324,0.013523,0.002678,0.000431,0.000353
20747000,0.0324,0.013523,0.002678,0.000431,0.000705
20748000,0.0324,0.013523,0.002678,0.000431,0.000353
20749000,0.0324,0.013523,0.002678,0.000431,0.000705
20750000,0.0324,0.013523,0.002678,0.000431,0.000470
20751000,0.0324,0.013523,0.002678,0.000431,0.000470
20752000,0.0324,0.013523,0.002678,0.000431,0.000470
20753000,0.0324,0.013523,0.002678,0.000431,0.000470
20754000,0.0324,0.013523,0.002678,0.000431,0.000470
20755000,0.0324,0.013523,0.002678,0.000431,0.000470
20756000,0.0324,0.013523,0.002678,0.000431,0.000470
20757000,0.0324,0.013523,0.002678,0.000431,0.000470
20758000,0.0324,0.013523,0.002678,0.000431,0.000353
20759000,0.0324,0.013523,0.002678,0.000431,0.000823
20760000,0.0324,0.013523,0.002678,0.000431,0.000353
20761000,0.0324,0.013523,0.002678,0.000431,0.000470
20762000,0.0324,0.013523,0.002678,0.000431,0.000470
20763000,0.0324,0.013523,0.002678,0.000431,0.000588
20764000,0.0324,0.013523,0.002678,0.000431,0.000353
20765000,0.0324,0.013523,0.002678,0.000431,0.000588
20766000,0.0324,0.013523,0.002678,0.000431,0.000353
20767000,0.0324,0.013523,0.002678,0.000431,0.000705
20768000,0.0324,0.013523,0.002678,0.000431,0.000353
20769000,0.0324,0.013523,0.002678,0.000431,0.000705
20770000,0.0324,0.013523,0.002678,0.000431,0.000470
20771000,0.0324,0.013523,0.002678,0.000431,0.000588
20772000,0.0324,0.013523,0.002678,0.000431,0.000353
20773000,0.0324,0.013523,0.002678,0.000431,0.000705
20774000,0.0324,0.013523,0.002678,0.000431,0.000470
20775000,0.0324,0.013523,0.002678,0.000431,0.000470
20776000,0.0324,0.013523,0.002678,0.000431,0.000470
20777000,0.0324,0.013523,0.002678,0.000431,0.000588
20778000,0.0324,0.013523,0.002678,0.000431,0.000353
20779000,0.0324,0.013523,0.002678,0.000431,0.000705
20780000,0.0324,0.013523,0.002678,0.000431,0.000470
20781000,0.0324,0.013523,0.002678,0.000431,0.000353
20782000,0.0324,0.013523,0.002678,0.000431,0.000470
20783000,0.0324,0.013523,0.002678,0.000431,0.000705
20784000,0.0324,0.013523,0.002678,0.000431,0.000470
20785000,0.0324,0.013523,0.002678,0.000431,0.000470
20786000,0.0324,0.013523,0.002678,0.000431,0.000353
20787000,0.0324,0.013523,0.002678,0.000431,0.000470
20788000,0.0324,0.013523,0.002678,0.000431,0.000470
20789000,0.0324,0.013523,0.002678,0.000431,0.000588
20790000,0.0324,0.013523,0.002678,0.000431,0.000353
20791000,0.0324,0.013523,0.002678,0.000431,0.000588
20792000,0.0324,0.013523,0.002678,0.000431,0.000353
20793000,0.0324,0.013523,0.002678,0.000431,0.000470
20794000,0.0324,0.013523,0.002678,0.000431,0.000470
20795000,0.0324,0.013523,0.002678,0.000431,0.000470
20796000,0.0324,0.013523,0.002678,0.000431,0.000470
20797000,0.0324,0.013523,0.002678,0.000431,0.000588
20798000,0.0324,0.013523,0.002678,0.000431,0.000353
20799000,0.0324,0.013523,0.002678,0.000431,0.000705
20800000,0.0324,0.013523,0.002678,0.000431,0.000470
20801000,0.0324,0.013523,0.002678,0.000431,0.000470
20802000,0.0324,0.013523,0.002678,0.000431,0.000353
20803000,0.0324,0.013523,0.002678,0.000431,0.000588
20804000,0.0324,0.013523,0.002678,0.000431,0.000235
20805000,0.0324,0.013523,0.002678,0.000431,0.000588
20806000,0.0324,0.013523,0.002678,0.000431,0.000470
20807000,0.0324,0.013523,0.002678,0.000431,0.000588
20808000,0.0324,0.013523,0.002678,0.000431,0.000353
20809000,0.0324,0.013523,0.002678,0.000431,0.000588
20810000,0.0324,0.013523,0.002678,0.000431,0.000353
20811000,0.0324,0.013523,0.002678,0.000431,0.000588
20812000,0.0324,0.013523,0.002678,0.000431,0.000353
20813000,0.0324,0.013523,0.002678,0.000431,0.000705
20814000,0.0324,0.013523,0.002678,0.000431,0.000353
20815000,0.0324,0.013523,0.002678,0.000431,0.000705
20816000,0.0324,0.013523,0.002678,0.000431,0.000588
20817000,0.0324,0.013523,0.002678,0.000431,0.000470
20818000,0.0324,0.013523,0.002678,0.000431,0.000470
20819000,0.0324,0.013523,0.002678,0.000431,0.000470
20820000,0.0324,0.013523,0.002678,0.000431,0.000470
20821000,0.0324,0.013523,0.002678,0.000431,0.000470
20822000,0.0324,0.013523,0.002678,0.000431,0.000353
20823000,0.0324,0.013523,0.002678,0.000431,0.000588
20824000,0.0324,0.013523,0.002678,0.000431,0.000353
20825000,0.0324,0.013523,0.002678,0.000431,0.000588
20826000,0.0324,0.013523,0.002678,0.000431,0.000353
20827000,0.0324,0.013523,0.002678,0.000431,0.000588
20828000,0.0324,0.013523,0.002678,0.000431,0.000353
20829000,0.0324,0.013523,0.002678,0.000431,0.000588
20830000,0.0324,0.013523,0.002678,0.000431,0.000353
20831000,0.0324,0.013523,0.002678,0.000431,0.000588
20832000,0.0324,0.013523,0.002678,0.000431,0.000353
20833000,0.0324,0.013523,0.002678,0.000431,0.000588
20834000,0.0324,0.013523,0.002678,0.000431,0.000353
20835000,0.0324,0.013523,0.002678,0.000431,0.000470
20836000,0.0324,0.013523,0.002678,0.000431,0.000470
20837000,0.0324,0.013523,0.002678,0.000431,0.000588
20838000,0.0324,0.013523,0.002678,0.000431,0.000470
20839000,0.0324,0.013523,0.002678,0.000431,0.000588
20840000,0.0324,0.013523,0.002678,0.000431,0.000588
20841000,0.0324,0.013523,0.002678,0.000431,0.000588
20842000,0.0324,0.013523,0.002678,0.000431,0.000470
20843000,0.0324,0.013523,0.002678,0.000431,0.000353
20844000,0.0324,0.013523,0.002678,0.000431,0.000588
20845000,0.0324,0.013523,0.002678,0.000431,0.000353
20846000,0.0324,0.013523,0.002678,0.000431,0.000588
20847000,0.0324,0.013523,0.002678,0.000431,0.000353
20848000,0.0324,0.013523,0.002678,0.000431,0.000588
20849000,0.0324,0.013523,0.002678,0.000431,0.000353
20850000,0.0324,0.013523,0.002678,0.000431,0.000588
20851000,0.0324,0.013523,0.002678,0.000431,0.000353
20852000,0.0324,0.013523,0.002678,0.000431,0.000588
20853000,0.0324,0.013523,0.002678,0.000431,0.000353
20854000,0.0324,0.013523,0.002678,0.000431,0.000470
20855000,0.0324,0.013523,0.002678,0.000431,0.000588
20856000,0.0324,0.013523,0.002678,0.000431,0.000588
20857000,0.0324,0.013523,0.002678,0.000431,0.000470
20858000,0.0324,0.013523,0.002678,0.000431,0.000588
20859000,0.0324,0.013523,0.002678,0.000431,0.000470
20860000,0.0324,0.013523,0.002678,0.000431,0.000470
20861000,0.0324,0.013523,0.002678,0.000431,0.000470
20862000,0.0324,0.013523,0.002678,0.000431,0.000470
20863000,0.0324,0.013523,0.002678,0.000431,0.000588
20864000,0.0324,0.013523,0.002678,0.000431,0.000353
20865000,0.0324,0.013523,0.002678,0.000431,0.000588
20866000,0.0324,0.013523,0.002678,0.000431,0.000353
20867000,0.0324,0.013523,0.002678,0.000431,0.000588
20868000,0.0324,0.013523,0.002678,0.000431,0.000353
20869000,0.0324,0.013523,0.002678,0.000431,0.000588
20870000,0.0324,0.013523,0.002678,0.000431,0.000353
20871000,0.0324,0.013523,0.002678,0.000431,0.000588
20872000,0.0324,0.013523,0.002678,0.000431,0.000353
20873000,0.0324,0.013523,0.002678,0.000431,0.000588
20874000,0.0324,0.013523,0.002678,0.000431,0.000353
20875000,0.0324,0.013523,0.002678,0.000431,0.000823
20876000,0.0324,0.013523,0.002678,0.000431,0.000353
20877000,0.0324,0.013523,0.002678,0.000431,0.000588
20878000,0.0324,0.013523,0.002678,0.000431,0.000353
20879000,0.0324,0.013523,0.002678,0.000431,0.000470
20880000,0.0324,0.013523,0.002678,0.000431,0.000470
20881000,0.0324,0.013523,0.002678,0.000431,0.000588
20882000,0.0324,0.013523,0.002678,0.000431,0.000588
20883000,0.0324,0.013523,0.002678,0.000431,0.000470
20884000,0.0324,0.013523,0.002678,0.000431,0.000353
20885000,0.0324,0.013523,0.002678,0.000431,0.000588
20886000,0.0324,0.013523,0.002678,0.000431,0.000470
20887000,0.0324,0.013523,0.002678,0.000431,0.000470
20888000,0.0324,0.013523,0.002678,0.000431,0.000470
20889000,0.0324,0.013523,0.002678,0.000431,0.000588
20890000,0.0324,0.013523,0.002678,0.000431,0.000470
20891000,0.0324,0.013523,0.002678,0.000431,0.000705
20892000,0.0324,0.013523,0.002678,0.000431,0.000353
20893000,0.0324,0.013523,0.002678,0.000431,0.000588
20894000,0.0324,0.013523,0.002678,0.000431,0.000353
20895000,0.0324,0.013523,0.002678,0.000431,0.000823
20896000,0.0324,0.013523,0.002678,0.000431,0.000353
20897000,0.0324,0.013523,0.002678,0.000431,0.000705
20898000,0.0324,0.013523,0.002678,0.000431,0.000353
20899000,0.0324,0.013523,0.002678,0.000431,0.000588
20900000,0.0324,0.013523,0.002678,0.000431,0.000588
20901000,0.0324,0.013523,0.002678,0.000431,0.000470
20902000,0.0324,0.013523,0.002678,0.000431,0.000588
20903000,0.0324,0.013523,0.002678,0.000431,0.000470
20904000,0.0324,0.013523,0.002678,0.000431,0.000470
20905000,0.0324,0.013523,0.002678,0.000431,0.000470
20906000,0.0324,0.013523,0.002678,0.000431,0.000470
20907000,0.0324,0.013523,0.002678,0.000431,0.000470
20908000,0.0324,0.013523,0.002678,0.000431,0.000470
20909000,0.0324,0.013523,0.002678,0.000431,0.000470
20910000,0.0324,0.013523,0.002678,0.000431,0.000588
20911000,0.0324,0.013523,0.002678,0.000431,0.000470
20912000,0.0324,0.013523,0.002678,0.000431,0.000588
20913000,0.0324,0.013523,0.002678,0.000431,0.000353
20914000,0.0324,0.013523,0.002678,0.000431,0.000588
20915000,0.0324,0.013523,0.002678,0.000431,0.000470
20916000,0.0324,0.013523,0.002678,0.000431,0.000588
20917000,0.0324,0.013523,0.002678,0.000431,0.000470
20918000,0.0324,0.013523,0.002678,0.000431,0.000588
20919000,0.0324,0.013523,0.002678,0.000431,0.000353
20920000,0.0324,0.013523,0.002678,0.000431,0.000588
20921000,0.0324,0.013523,0.002678,0.000431,0.000353
20922000,0.0324,0.013523,0.002678,0.000431,0.000588
20923000,0.0324,0.013523,0.002678,0.000431,0.000353
20924000,0.0324,0.013523,0.002678,0.000431,0.000470
20925000,0.0324,0.013523,0.002678,0.000431,0.000470
20926000,0.0324,0.013523,0.002678,0.000431,0.000470
20927000,0.0324,0.013523,0.002678,0.000431,0.000588
20928000,0.0324,0.013523,0.002678,0.000431,0.000588
20929000,0.0324,0.013523,0.002678,0.000431,0.000470
20930000,0.0324,0.013523,0.002678,0.000431,0.000705
20931000,0.0324,0.013523,0.002678,0.000431,0.000353
20932000,0.0324,0.013523,0.002678,0.000431,0.000705
20933000,0.0324,0.013523,0.002678,0.000431,0.000470
20934000,0.0324,0.013523,0.002678,0.000431,0.000470
20935000,0.0324,0.013523,0.002678,0.000431,0.000470
20936000,0.0324,0.013523,0.002678,0.000431,0.000470
20937000,0.0324,0.013523,0.002678,0.000431,0.000470
20938000,0.0324,0.013523,0.002678,0.000431,0.000470
20939000,0.0324,0.013523,0.002678,0.000431,0.000470
20940000,0.0324,0.013523,0.002678,0.000431,0.000470
20941000,0.0324,0.013523,0.002678,0.000431,0.000470
20942000,0.0324,0.013523,0.002678,0.000431,0.000470
20943000,0.0324,0.013523,0.002678,0.000431,0.000470
20944000,0.0324,0.013523,0.002678,0.000431,0.000470
20945000,0.0324,0.013523,0.002678,0.000431,0.000470
20946000,0.0324,0.013523,0.002678,0.000431,0.000588
20947000,0.0324,0.013523,0.002678,0.000431,0.000470
20948000,0.0324,0.013523,0.002678,0.000431,0.000588
20949000,0.0324,0.013523,0.002678,0.000431,0.000470
20950000,0.0324,0.013523,0.002678,0.000431,0.000588
20951000,0.0324,0.013523,0.002678,0.000431,0.000353
20952000,0.0324,0.013523,0.002678,0.000431,0.000588
20953000,0.0324,0.013523,0.002678,0.000431,0.000353
20954000,0.0324,0.013523,0.002678,0.000431,0.000588
20955000,0.0324,0.013523,0.002678,0.000431,0.000470
20956000,0.0324,0.013523,0.002678,0.000431,0.000588
20957000,0.0324,0.013523,0.002678,0.000431,0.000353
20958000,0.0324,0.013523,0.002678,0.000431,0.000470
20959000,0.0324,0.013523,0.002678,0.000431,0.000470
20960000,0.0324,0.013523,0.002678,0.000431,0.000588
20961000,0.0324,0.013523,0.002678,0.000431,0.000353
20962000,0.0324,0.013523,0.002678,0.000431,0.000588
20963000,0.0324,0.013523,0.002678,0.000431,0.000353
20964000,0.0324,0.013523,0.002678,0.000431,0.000588
20965000,0.0324,0.013523,0.002678,0.000431,0.000353
20966000,0.0324,0.013523,0.002678,0.000431,0.000588
20967000,0.0324,0.013523,0.002678,0.000431,0.000353
20968000,0.0324,0.013523,0.002678,0.000431,0.000705
20969000,0.0324,0.013523,0.002678,0.000431,0.000353
20970000,0.0324,0.013523,0.002678,0.000431,0.000588
20971000,0.0324,0.013523,0.002678,0.000431,0.000353
20972000,0.0324,0.013523,0.002678,0.000431,0.000588
20973000,0.0324,0.013523,0.002678,0.000431,0.000353
20974000,0.0324,0.013523,0.002678,0.000431,0.000588
20975000,0.0324,0.013523,0.002678,0.000431,0.000353
20976000,0.0324,0.013523,0.002678,0.000431,0.000470
20977000,0.0324,0.013523,0.002678,0.000431,0.000470
20978000,0.0324,0.013523,0.002678,0.000431,0.000470
20979000,0.0324,0.013523,0.002678,0.000431,0.000470
20980000,0.0324,0.013523,0.002678,0.000431,0.000470
20981000,0.0324,0.013523,0.002678,0.000431,0.000470
20982000,0.0324,0.013523,0.002678,0.000431,0.000470
20983000,0.0324,0.013523,0.002678,0.000431,0.000588
20984000,0.0324,0.013523,0.002678,0.000431,0.000353
20985000,0.0324,0.013523,0.002678,0.000431,0.000470
20986000,0.0324,0.013523,0.002678,0.000431,0.000470
20987000,0.0324,0.013523,0.002678,0.000431,0.000588
20988000,0.0324,0.013523,0.002678,0.000431,0.000353
20989000,0.0324,0.013523,0.002678,0.000431,0.000470
20990000,0.0324,0.013523,0.002678,0.000431,0.000470
20991000,0.0324,0.013523,0.002678,0.000431,0.000470
20992000,0.0324,0.013523,0.002678,0.000431,0.000470
20993000,0.0324,0.013523,0.002678,0.000431,0.000470
20994000,0.0324,0.013523,0.002678,0.000431,0.000470
20995000,0.0324,0.013523,0.002678,0.000431,0.000705
20996000,0.0324,0.013523,0.002678,0.000431,0.000470
20997000,0.0324,0.013523,0.002678,0.000431,0.000470
20998000,0.0324,0.013523,0.002678,0.000431,0.000470
20999000,0.0324,0.013523,0.002678,0.000431,0.000588
