Cycle,Area(mm^2),PeakDynamic(W),SubthresholdLeakage(W),GateLeakage(W),RunTimeDynamic(W)
56000000,0.0324,0.013523,0.002678,0.000431,0.000353
56001000,0.0324,0.013523,0.002678,0.000431,0.000588
56002000,0.0324,0.013523,0.002678,0.000431,0.000353
56003000,0.0324,0.013523,0.002678,0.000431,0.000588
56004000,0.0324,0.013523,0.002678,0.000431,0.000353
56005000,0.0324,0.013523,0.002678,0.000431,0.000588
56006000,0.0324,0.013523,0.002678,0.000431,0.000470
56007000,0.0324,0.013523,0.002678,0.000431,0.000470
56008000,0.0324,0.013523,0.002678,0.000431,0.000470
56009000,0.0324,0.013523,0.002678,0.000431,0.000470
56010000,0.0324,0.013523,0.002678,0.000431,0.000470
56011000,0.0324,0.013523,0.002678,0.000431,0.000588
56012000,0.0324,0.013523,0.002678,0.000431,0.000353
56013000,0.0324,0.013523,0.002678,0.000431,0.000588
56014000,0.0324,0.013523,0.002678,0.000431,0.000353
56015000,0.0324,0.013523,0.002678,0.000431,0.000823
56016000,0.0324,0.013523,0.002678,0.000431,0.000235
56017000,0.0324,0.013523,0.002678,0.000431,0.000823
56018000,0.0324,0.013523,0.002678,0.000431,0.000235
56019000,0.0324,0.013523,0.002678,0.000431,0.000705
56020000,0.0324,0.013523,0.002678,0.000431,0.000470
56021000,0.0324,0.013523,0.002678,0.000431,0.000470
56022000,0.0324,0.013523,0.002678,0.000431,0.000470
56023000,0.0324,0.013523,0.002678,0.000431,0.000470
56024000,0.0324,0.013523,0.002678,0.000431,0.000470
56025000,0.0324,0.013523,0.002678,0.000431,0.000470
56026000,0.0324,0.013523,0.002678,0.000431,0.000470
56027000,0.0324,0.013523,0.002678,0.000431,0.000588
56028000,0.0324,0.013523,0.002678,0.000431,0.000353
56029000,0.0324,0.013523,0.002678,0.000431,0.000705
56030000,0.0324,0.013523,0.002678,0.000431,0.000588
56031000,0.0324,0.013523,0.002678,0.000431,0.000470
56032000,0.0324,0.013523,0.002678,0.000431,0.000705
56033000,0.0324,0.013523,0.002678,0.000431,0.000353
56034000,0.0324,0.013523,0.002678,0.000431,0.000588
56035000,0.0324,0.013523,0.002678,0.000431,0.000353
56036000,0.0324,0.013523,0.002678,0.000431,0.000470
56037000,0.0324,0.013523,0.002678,0.000431,0.000470
56038000,0.0324,0.013523,0.002678,0.000431,0.000470
56039000,0.0324,0.013523,0.002678,0.000431,0.000470
56040000,0.0324,0.013523,0.002678,0.000431,0.000470
56041000,0.0324,0.013523,0.002678,0.000431,0.000470
56042000,0.0324,0.013523,0.002678,0.000431,0.000470
56043000,0.0324,0.013523,0.002678,0.000431,0.000470
56044000,0.0324,0.013523,0.002678,0.000431,0.000470
56045000,0.0324,0.013523,0.002678,0.000431,0.000470
56046000,0.0324,0.013523,0.002678,0.000431,0.000470
56047000,0.0324,0.013523,0.002678,0.000431,0.000470
56048000,0.0324,0.013523,0.002678,0.000431,0.000470
56049000,0.0324,0.013523,0.002678,0.000431,0.000470
56050000,0.0324,0.013523,0.002678,0.000431,0.000470
56051000,0.0324,0.013523,0.002678,0.000431,0.000470
56052000,0.0324,0.013523,0.002678,0.000431,0.000470
56053000,0.0324,0.013523,0.002678,0.000431,0.000470
56054000,0.0324,0.013523,0.002678,0.000431,0.000588
56055000,0.0324,0.013523,0.002678,0.000431,0.000470
56056000,0.0324,0.013523,0.002678,0.000431,0.000705
56057000,0.0324,0.013523,0.002678,0.000431,0.000353
56058000,0.0324,0.013523,0.002678,0.000431,0.000588
56059000,0.0324,0.013523,0.002678,0.000431,0.000470
56060000,0.0324,0.013523,0.002678,0.000431,0.000470
56061000,0.0324,0.013523,0.002678,0.000431,0.000353
56062000,0.0324,0.013523,0.002678,0.000431,0.000588
56063000,0.0324,0.013523,0.002678,0.000431,0.000353
56064000,0.0324,0.013523,0.002678,0.000431,0.000705
56065000,0.0324,0.013523,0.002678,0.000431,0.000470
56066000,0.0324,0.013523,0.002678,0.000431,0.000470
56067000,0.0324,0.013523,0.002678,0.000431,0.000470
56068000,0.0324,0.013523,0.002678,0.000431,0.000470
56069000,0.0324,0.013523,0.002678,0.000431,0.000470
56070000,0.0324,0.013523,0.002678,0.000431,0.000470
56071000,0.0324,0.013523,0.002678,0.000431,0.000470
56072000,0.0324,0.013523,0.002678,0.000431,0.000470
56073000,0.0324,0.013523,0.002678,0.000431,0.000470
56074000,0.0324,0.013523,0.002678,0.000431,0.000470
56075000,0.0324,0.013523,0.002678,0.000431,0.000470
56076000,0.0324,0.013523,0.002678,0.000431,0.000470
56077000,0.0324,0.013523,0.002678,0.000431,0.000470
56078000,0.0324,0.013523,0.002678,0.000431,0.000470
56079000,0.0324,0.013523,0.002678,0.000431,0.000470
56080000,0.0324,0.013523,0.002678,0.000431,0.000470
56081000,0.0324,0.013523,0.002678,0.000431,0.000470
56082000,0.0324,0.013523,0.002678,0.000431,0.000470
56083000,0.0324,0.013523,0.002678,0.000431,0.000470
56084000,0.0324,0.013523,0.002678,0.000431,0.000470
56085000,0.0324,0.013523,0.002678,0.000431,0.000470
56086000,0.0324,0.013523,0.002678,0.000431,0.000470
56087000,0.0324,0.013523,0.002678,0.000431,0.000353
56088000,0.0324,0.013523,0.002678,0.000431,0.000588
56089000,0.0324,0.013523,0.002678,0.000431,0.000353
56090000,0.0324,0.013523,0.002678,0.000431,0.000588
56091000,0.0324,0.013523,0.002678,0.000431,0.000353
56092000,0.0324,0.013523,0.002678,0.000431,0.000588
56093000,0.0324,0.013523,0.002678,0.000431,0.000353
56094000,0.0324,0.013523,0.002678,0.000431,0.000588
56095000,0.0324,0.013523,0.002678,0.000431,0.000353
56096000,0.0324,0.013523,0.002678,0.000431,0.000588
56097000,0.0324,0.013523,0.002678,0.000431,0.000353
56098000,0.0324,0.013523,0.002678,0.000431,0.000705
56099000,0.0324,0.013523,0.002678,0.000431,0.000353
56100000,0.0324,0.013523,0.002678,0.000431,0.000705
56101000,0.0324,0.013523,0.002678,0.000431,0.000588
56102000,0.0324,0.013523,0.002678,0.000431,0.000470
56103000,0.0324,0.013523,0.002678,0.000431,0.000705
56104000,0.0324,0.013523,0.002678,0.000431,0.000353
56105000,0.0324,0.013523,0.002678,0.000431,0.000588
56106000,0.0324,0.013523,0.002678,0.000431,0.000353
56107000,0.0324,0.013523,0.002678,0.000431,0.000588
56108000,0.0324,0.013523,0.002678,0.000431,0.000353
56109000,0.0324,0.013523,0.002678,0.000431,0.000470
56110000,0.0324,0.013523,0.002678,0.000431,0.000470
56111000,0.0324,0.013523,0.002678,0.000431,0.000470
56112000,0.0324,0.013523,0.002678,0.000431,0.000470
56113000,0.0324,0.013523,0.002678,0.000431,0.000470
56114000,0.0324,0.013523,0.002678,0.000431,0.000470
56115000,0.0324,0.013523,0.002678,0.000431,0.000470
56116000,0.0324,0.013523,0.002678,0.000431,0.000470
56117000,0.0324,0.013523,0.002678,0.000431,0.000470
56118000,0.0324,0.013523,0.002678,0.000431,0.000470
56119000,0.0324,0.013523,0.002678,0.000431,0.000470
56120000,0.0324,0.013523,0.002678,0.000431,0.000470
56121000,0.0324,0.013523,0.002678,0.000431,0.000588
56122000,0.0324,0.013523,0.002678,0.000431,0.000470
56123000,0.0324,0.013523,0.002678,0.000431,0.000588
56124000,0.0324,0.013523,0.002678,0.000431,0.000353
56125000,0.0324,0.013523,0.002678,0.000431,0.000588
56126000,0.0324,0.013523,0.002678,0.000431,0.000353
56127000,0.0324,0.013523,0.002678,0.000431,0.000588
56128000,0.0324,0.013523,0.002678,0.000431,0.000353
56129000,0.0324,0.013523,0.002678,0.000431,0.000588
56130000,0.0324,0.013523,0.002678,0.000431,0.000353
56131000,0.0324,0.013523,0.002678,0.000431,0.000705
56132000,0.0324,0.013523,0.002678,0.000431,0.000353
56133000,0.0324,0.013523,0.002678,0.000431,0.000470
56134000,0.0324,0.013523,0.002678,0.000431,0.000470
56135000,0.0324,0.013523,0.002678,0.000431,0.000588
56136000,0.0324,0.013523,0.002678,0.000431,0.000470
56137000,0.0324,0.013523,0.002678,0.000431,0.000705
56138000,0.0324,0.013523,0.002678,0.000431,0.000353
56139000,0.0324,0.013523,0.002678,0.000431,0.000705
56140000,0.0324,0.013523,0.002678,0.000431,0.000588
56141000,0.0324,0.013523,0.002678,0.000431,0.000470
56142000,0.0324,0.013523,0.002678,0.000431,0.000705
56143000,0.0324,0.013523,0.002678,0.000431,0.000353
56144000,0.0324,0.013523,0.002678,0.000431,0.000705
56145000,0.0324,0.013523,0.002678,0.000431,0.000588
56146000,0.0324,0.013523,0.002678,0.000431,0.000470
56147000,0.0324,0.013523,0.002678,0.000431,0.000470
56148000,0.0324,0.013523,0.002678,0.000431,0.000470
56149000,0.0324,0.013523,0.002678,0.000431,0.000470
56150000,0.0324,0.013523,0.002678,0.000431,0.000470
56151000,0.0324,0.013523,0.002678,0.000431,0.000353
56152000,0.0324,0.013523,0.002678,0.000431,0.000588
56153000,0.0324,0.013523,0.002678,0.000431,0.000353
56154000,0.0324,0.013523,0.002678,0.000431,0.000470
56155000,0.0324,0.013523,0.002678,0.000431,0.000470
56156000,0.0324,0.013523,0.002678,0.000431,0.000588
56157000,0.0324,0.013523,0.002678,0.000431,0.000353
56158000,0.0324,0.013523,0.002678,0.000431,0.000588
56159000,0.0324,0.013523,0.002678,0.000431,0.000353
56160000,0.0324,0.013523,0.002678,0.000431,0.000470
56161000,0.0324,0.013523,0.002678,0.000431,0.000470
56162000,0.0324,0.013523,0.002678,0.000431,0.000470
56163000,0.0324,0.013523,0.002678,0.000431,0.000470
56164000,0.0324,0.013523,0.002678,0.000431,0.000470
56165000,0.0324,0.013523,0.002678,0.000431,0.000470
56166000,0.0324,0.013523,0.002678,0.000431,0.000470
56167000,0.0324,0.013523,0.002678,0.000431,0.000470
56168000,0.0324,0.013523,0.002678,0.000431,0.000470
56169000,0.0324,0.013523,0.002678,0.000431,0.000470
56170000,0.0324,0.013523,0.002678,0.000431,0.000470
56171000,0.0324,0.013523,0.002678,0.000431,0.000470
56172000,0.0324,0.013523,0.002678,0.000431,0.000470
56173000,0.0324,0.013523,0.002678,0.000431,0.000470
56174000,0.0324,0.013523,0.002678,0.000431,0.000588
56175000,0.0324,0.013523,0.002678,0.000431,0.000353
56176000,0.0324,0.013523,0.002678,0.000431,0.000588
56177000,0.0324,0.013523,0.002678,0.000431,0.000353
56178000,0.0324,0.013523,0.002678,0.000431,0.000588
56179000,0.0324,0.013523,0.002678,0.000431,0.000353
56180000,0.0324,0.013523,0.002678,0.000431,0.000470
56181000,0.0324,0.013523,0.002678,0.000431,0.000353
56182000,0.0324,0.013523,0.002678,0.000431,0.000588
56183000,0.0324,0.013523,0.002678,0.000431,0.000353
56184000,0.0324,0.013523,0.002678,0.000431,0.000588
56185000,0.0324,0.013523,0.002678,0.000431,0.000470
56186000,0.0324,0.013523,0.002678,0.000431,0.000470
56187000,0.0324,0.013523,0.002678,0.000431,0.000353
56188000,0.0324,0.013523,0.002678,0.000431,0.000588
56189000,0.0324,0.013523,0.002678,0.000431,0.000353
56190000,0.0324,0.013523,0.002678,0.000431,0.000588
56191000,0.0324,0.013523,0.002678,0.000431,0.000353
56192000,0.0324,0.013523,0.002678,0.000431,0.000588
56193000,0.0324,0.013523,0.002678,0.000431,0.000470
56194000,0.0324,0.013523,0.002678,0.000431,0.000470
56195000,0.0324,0.013523,0.002678,0.000431,0.000470
56196000,0.0324,0.013523,0.002678,0.000431,0.000470
56197000,0.0324,0.013523,0.002678,0.000431,0.000588
56198000,0.0324,0.013523,0.002678,0.000431,0.000353
56199000,0.0324,0.013523,0.002678,0.000431,0.000588
56200000,0.0324,0.013523,0.002678,0.000431,0.000353
56201000,0.0324,0.013523,0.002678,0.000431,0.000705
56202000,0.0324,0.013523,0.002678,0.000431,0.000470
56203000,0.0324,0.013523,0.002678,0.000431,0.000470
56204000,0.0324,0.013523,0.002678,0.000431,0.000470
56205000,0.0324,0.013523,0.002678,0.000431,0.000470
56206000,0.0324,0.013523,0.002678,0.000431,0.000470
56207000,0.0324,0.013523,0.002678,0.000431,0.000470
56208000,0.0324,0.013523,0.002678,0.000431,0.000470
56209000,0.0324,0.013523,0.002678,0.000431,0.000470
56210000,0.0324,0.013523,0.002678,0.000431,0.000353
56211000,0.0324,0.013523,0.002678,0.000431,0.000588
56212000,0.0324,0.013523,0.002678,0.000431,0.000353
56213000,0.0324,0.013523,0.002678,0.000431,0.000588
56214000,0.0324,0.013523,0.002678,0.000431,0.000353
56215000,0.0324,0.013523,0.002678,0.000431,0.000588
56216000,0.0324,0.013523,0.002678,0.000431,0.000353
56217000,0.0324,0.013523,0.002678,0.000431,0.000588
56218000,0.0324,0.013523,0.002678,0.000431,0.000353
56219000,0.0324,0.013523,0.002678,0.000431,0.000588
56220000,0.0324,0.013523,0.002678,0.000431,0.000353
56221000,0.0324,0.013523,0.002678,0.000431,0.000705
56222000,0.0324,0.013523,0.002678,0.000431,0.000353
56223000,0.0324,0.013523,0.002678,0.000431,0.000588
56224000,0.0324,0.013523,0.002678,0.000431,0.000353
56225000,0.0324,0.013523,0.002678,0.000431,0.000588
56226000,0.0324,0.013523,0.002678,0.000431,0.000353
56227000,0.0324,0.013523,0.002678,0.000431,0.000588
56228000,0.0324,0.013523,0.002678,0.000431,0.000353
56229000,0.0324,0.013523,0.002678,0.000431,0.000588
56230000,0.0324,0.013523,0.002678,0.000431,0.000353
56231000,0.0324,0.013523,0.002678,0.000431,0.000588
56232000,0.0324,0.013523,0.002678,0.000431,0.000470
56233000,0.0324,0.013523,0.002678,0.000431,0.000705
56234000,0.0324,0.013523,0.002678,0.000431,0.000353
56235000,0.0324,0.013523,0.002678,0.000431,0.000588
56236000,0.0324,0.013523,0.002678,0.000431,0.000353
56237000,0.0324,0.013523,0.002678,0.000431,0.000470
56238000,0.0324,0.013523,0.002678,0.000431,0.000353
56239000,0.0324,0.013523,0.002678,0.000431,0.000588
56240000,0.0324,0.013523,0.002678,0.000431,0.000470
56241000,0.0324,0.013523,0.002678,0.000431,0.000470
56242000,0.0324,0.013523,0.002678,0.000431,0.000470
56243000,0.0324,0.013523,0.002678,0.000431,0.000588
56244000,0.0324,0.013523,0.002678,0.000431,0.000470
56245000,0.0324,0.013523,0.002678,0.000431,0.000588
56246000,0.0324,0.013523,0.002678,0.000431,0.000353
56247000,0.0324,0.013523,0.002678,0.000431,0.000588
56248000,0.0324,0.013523,0.002678,0.000431,0.000353
56249000,0.0324,0.013523,0.002678,0.000431,0.000705
56250000,0.0324,0.013523,0.002678,0.000431,0.000353
56251000,0.0324,0.013523,0.002678,0.000431,0.000588
56252000,0.0324,0.013523,0.002678,0.000431,0.000353
56253000,0.0324,0.013523,0.002678,0.000431,0.000705
56254000,0.0324,0.013523,0.002678,0.000431,0.000235
56255000,0.0324,0.013523,0.002678,0.000431,0.000588
56256000,0.0324,0.013523,0.002678,0.000431,0.000353
56257000,0.0324,0.013523,0.002678,0.000431,0.000588
56258000,0.0324,0.013523,0.002678,0.000431,0.000353
56259000,0.0324,0.013523,0.002678,0.000431,0.000823
56260000,0.0324,0.013523,0.002678,0.000431,0.000353
56261000,0.0324,0.013523,0.002678,0.000431,0.000588
56262000,0.0324,0.013523,0.002678,0.000431,0.000353
56263000,0.0324,0.013523,0.002678,0.000431,0.000705
56264000,0.0324,0.013523,0.002678,0.000431,0.000588
56265000,0.0324,0.013523,0.002678,0.000431,0.000470
56266000,0.0324,0.013523,0.002678,0.000431,0.000705
56267000,0.0324,0.013523,0.002678,0.000431,0.000353
56268000,0.0324,0.013523,0.002678,0.000431,0.000588
56269000,0.0324,0.013523,0.002678,0.000431,0.000588
56270000,0.0324,0.013523,0.002678,0.000431,0.000353
56271000,0.0324,0.013523,0.002678,0.000431,0.000588
56272000,0.0324,0.013523,0.002678,0.000431,0.000353
56273000,0.0324,0.013523,0.002678,0.000431,0.000588
56274000,0.0324,0.013523,0.002678,0.000431,0.000353
56275000,0.0324,0.013523,0.002678,0.000431,0.000470
56276000,0.0324,0.013523,0.002678,0.000431,0.000470
56277000,0.0324,0.013523,0.002678,0.000431,0.000470
56278000,0.0324,0.013523,0.002678,0.000431,0.000470
56279000,0.0324,0.013523,0.002678,0.000431,0.000470
56280000,0.0324,0.013523,0.002678,0.000431,0.000470
56281000,0.0324,0.013523,0.002678,0.000431,0.000353
56282000,0.0324,0.013523,0.002678,0.000431,0.000588
56283000,0.0324,0.013523,0.002678,0.000431,0.000353
56284000,0.0324,0.013523,0.002678,0.000431,0.000705
56285000,0.0324,0.013523,0.002678,0.000431,0.000588
56286000,0.0324,0.013523,0.002678,0.000431,0.000470
56287000,0.0324,0.013523,0.002678,0.000431,0.000588
56288000,0.0324,0.013523,0.002678,0.000431,0.000470
56289000,0.0324,0.013523,0.002678,0.000431,0.000588
56290000,0.0324,0.013523,0.002678,0.000431,0.000470
56291000,0.0324,0.013523,0.002678,0.000431,0.000705
56292000,0.0324,0.013523,0.002678,0.000431,0.000353
56293000,0.0324,0.013523,0.002678,0.000431,0.000588
56294000,0.0324,0.013523,0.002678,0.000431,0.000353
56295000,0.0324,0.013523,0.002678,0.000431,0.000588
56296000,0.0324,0.013523,0.002678,0.000431,0.000353
56297000,0.0324,0.013523,0.002678,0.000431,0.000588
56298000,0.0324,0.013523,0.002678,0.000431,0.000353
56299000,0.0324,0.013523,0.002678,0.000431,0.000588
56300000,0.0324,0.013523,0.002678,0.000431,0.000353
56301000,0.0324,0.013523,0.002678,0.000431,0.000588
56302000,0.0324,0.013523,0.002678,0.000431,0.000470
56303000,0.0324,0.013523,0.002678,0.000431,0.000470
56304000,0.0324,0.013523,0.002678,0.000431,0.000470
56305000,0.0324,0.013523,0.002678,0.000431,0.000470
56306000,0.0324,0.013523,0.002678,0.000431,0.000470
56307000,0.0324,0.013523,0.002678,0.000431,0.000353
56308000,0.0324,0.013523,0.002678,0.000431,0.000588
56309000,0.0324,0.013523,0.002678,0.000431,0.000353
56310000,0.0324,0.013523,0.002678,0.000431,0.000470
56311000,0.0324,0.013523,0.002678,0.000431,0.000470
56312000,0.0324,0.013523,0.002678,0.000431,0.000470
56313000,0.0324,0.013523,0.002678,0.000431,0.000470
56314000,0.0324,0.013523,0.002678,0.000431,0.000470
56315000,0.0324,0.013523,0.002678,0.000431,0.000470
56316000,0.0324,0.013523,0.002678,0.000431,0.000588
56317000,0.0324,0.013523,0.002678,0.000431,0.000353
56318000,0.0324,0.013523,0.002678,0.000431,0.000470
56319000,0.0324,0.013523,0.002678,0.000431,0.000470
56320000,0.0324,0.013523,0.002678,0.000431,0.000588
56321000,0.0324,0.013523,0.002678,0.000431,0.000353
56322000,0.0324,0.013523,0.002678,0.000431,0.000588
56323000,0.0324,0.013523,0.002678,0.000431,0.000353
56324000,0.0324,0.013523,0.002678,0.000431,0.000588
56325000,0.0324,0.013523,0.002678,0.000431,0.000353
56326000,0.0324,0.013523,0.002678,0.000431,0.000588
56327000,0.0324,0.013523,0.002678,0.000431,0.000353
56328000,0.0324,0.013523,0.002678,0.000431,0.000588
56329000,0.0324,0.013523,0.002678,0.000431,0.000353
56330000,0.0324,0.013523,0.002678,0.000431,0.000588
56331000,0.0324,0.013523,0.002678,0.000431,0.000353
56332000,0.0324,0.013523,0.002678,0.000431,0.000588
56333000,0.0324,0.013523,0.002678,0.000431,0.000353
56334000,0.0324,0.013523,0.002678,0.000431,0.000470
56335000,0.0324,0.013523,0.002678,0.000431,0.000353
56336000,0.0324,0.013523,0.002678,0.000431,0.000588
56337000,0.0324,0.013523,0.002678,0.000431,0.000470
56338000,0.0324,0.013523,0.002678,0.000431,0.000470
56339000,0.0324,0.013523,0.002678,0.000431,0.000470
56340000,0.0324,0.013523,0.002678,0.000431,0.000470
56341000,0.0324,0.013523,0.002678,0.000431,0.000470
56342000,0.0324,0.013523,0.002678,0.000431,0.000470
56343000,0.0324,0.013523,0.002678,0.000431,0.000470
56344000,0.0324,0.013523,0.002678,0.000431,0.000470
56345000,0.0324,0.013523,0.002678,0.000431,0.000470
56346000,0.0324,0.013523,0.002678,0.000431,0.000470
56347000,0.0324,0.013523,0.002678,0.000431,0.000588
56348000,0.0324,0.013523,0.002678,0.000431,0.000353
56349000,0.0324,0.013523,0.002678,0.000431,0.000588
56350000,0.0324,0.013523,0.002678,0.000431,0.000353
56351000,0.0324,0.013523,0.002678,0.000431,0.000588
56352000,0.0324,0.013523,0.002678,0.000431,0.000353
56353000,0.0324,0.013523,0.002678,0.000431,0.000705
56354000,0.0324,0.013523,0.002678,0.000431,0.000588
56355000,0.0324,0.013523,0.002678,0.000431,0.000470
56356000,0.0324,0.013523,0.002678,0.000431,0.000588
56357000,0.0324,0.013523,0.002678,0.000431,0.000353
56358000,0.0324,0.013523,0.002678,0.000431,0.000588
56359000,0.0324,0.013523,0.002678,0.000431,0.000353
56360000,0.0324,0.013523,0.002678,0.000431,0.000470
56361000,0.0324,0.013523,0.002678,0.000431,0.000470
56362000,0.0324,0.013523,0.002678,0.000431,0.000470
56363000,0.0324,0.013523,0.002678,0.000431,0.000470
56364000,0.0324,0.013523,0.002678,0.000431,0.000470
56365000,0.0324,0.013523,0.002678,0.000431,0.000470
56366000,0.0324,0.013523,0.002678,0.000431,0.000353
56367000,0.0324,0.013523,0.002678,0.000431,0.000588
56368000,0.0324,0.013523,0.002678,0.000431,0.000353
56369000,0.0324,0.013523,0.002678,0.000431,0.000705
56370000,0.0324,0.013523,0.002678,0.000431,0.000588
56371000,0.0324,0.013523,0.002678,0.000431,0.000470
56372000,0.0324,0.013523,0.002678,0.000431,0.000705
56373000,0.0324,0.013523,0.002678,0.000431,0.000353
56374000,0.0324,0.013523,0.002678,0.000431,0.000705
56375000,0.0324,0.013523,0.002678,0.000431,0.000588
56376000,0.0324,0.013523,0.002678,0.000431,0.000470
56377000,0.0324,0.013523,0.002678,0.000431,0.000588
56378000,0.0324,0.013523,0.002678,0.000431,0.000353
56379000,0.0324,0.013523,0.002678,0.000431,0.000470
56380000,0.0324,0.013523,0.002678,0.000431,0.000470
56381000,0.0324,0.013523,0.002678,0.000431,0.000470
56382000,0.0324,0.013523,0.002678,0.000431,0.000470
56383000,0.0324,0.013523,0.002678,0.000431,0.000470
56384000,0.0324,0.013523,0.002678,0.000431,0.000470
56385000,0.0324,0.013523,0.002678,0.000431,0.000353
56386000,0.0324,0.013523,0.002678,0.000431,0.000588
56387000,0.0324,0.013523,0.002678,0.000431,0.000353
56388000,0.0324,0.013523,0.002678,0.000431,0.000588
56389000,0.0324,0.013523,0.002678,0.000431,0.000353
56390000,0.0324,0.013523,0.002678,0.000431,0.000588
56391000,0.0324,0.013523,0.002678,0.000431,0.000353
56392000,0.0324,0.013523,0.002678,0.000431,0.000823
56393000,0.0324,0.013523,0.002678,0.000431,0.000353
56394000,0.0324,0.013523,0.002678,0.000431,0.000588
56395000,0.0324,0.013523,0.002678,0.000431,0.000353
56396000,0.0324,0.013523,0.002678,0.000431,0.000588
56397000,0.0324,0.013523,0.002678,0.000431,0.000353
56398000,0.0324,0.013523,0.002678,0.000431,0.000588
56399000,0.0324,0.013523,0.002678,0.000431,0.000353
56400000,0.0324,0.013523,0.002678,0.000431,0.000588
56401000,0.0324,0.013523,0.002678,0.000431,0.000353
56402000,0.0324,0.013523,0.002678,0.000431,0.000588
56403000,0.0324,0.013523,0.002678,0.000431,0.000353
56404000,0.0324,0.013523,0.002678,0.000431,0.000588
56405000,0.0324,0.013523,0.002678,0.000431,0.000353
56406000,0.0324,0.013523,0.002678,0.000431,0.000588
56407000,0.0324,0.013523,0.002678,0.000431,0.000353
56408000,0.0324,0.013523,0.002678,0.000431,0.000588
56409000,0.0324,0.013523,0.002678,0.000431,0.000353
56410000,0.0324,0.013523,0.002678,0.000431,0.000588
56411000,0.0324,0.013523,0.002678,0.000431,0.000353
56412000,0.0324,0.013523,0.002678,0.000431,0.000470
56413000,0.0324,0.013523,0.002678,0.000431,0.000470
56414000,0.0324,0.013523,0.002678,0.000431,0.000588
56415000,0.0324,0.013523,0.002678,0.000431,0.000470
56416000,0.0324,0.013523,0.002678,0.000431,0.000588
56417000,0.0324,0.013523,0.002678,0.000431,0.000353
56418000,0.0324,0.013523,0.002678,0.000431,0.000588
56419000,0.0324,0.013523,0.002678,0.000431,0.000353
56420000,0.0324,0.013523,0.002678,0.000431,0.000588
56421000,0.0324,0.013523,0.002678,0.000431,0.000353
56422000,0.0324,0.013523,0.002678,0.000431,0.000588
56423000,0.0324,0.013523,0.002678,0.000431,0.000353
56424000,0.0324,0.013523,0.002678,0.000431,0.000588
56425000,0.0324,0.013523,0.002678,0.000431,0.000353
56426000,0.0324,0.013523,0.002678,0.000431,0.000588
56427000,0.0324,0.013523,0.002678,0.000431,0.000353
56428000,0.0324,0.013523,0.002678,0.000431,0.000588
56429000,0.0324,0.013523,0.002678,0.000431,0.000470
56430000,0.0324,0.013523,0.002678,0.000431,0.000470
56431000,0.0324,0.013523,0.002678,0.000431,0.000353
56432000,0.0324,0.013523,0.002678,0.000431,0.000705
56433000,0.0324,0.013523,0.002678,0.000431,0.000470
56434000,0.0324,0.013523,0.002678,0.000431,0.000588
56435000,0.0324,0.013523,0.002678,0.000431,0.000353
56436000,0.0324,0.013523,0.002678,0.000431,0.000588
56437000,0.0324,0.013523,0.002678,0.000431,0.000353
56438000,0.0324,0.013523,0.002678,0.000431,0.000470
56439000,0.0324,0.013523,0.002678,0.000431,0.000470
56440000,0.0324,0.013523,0.002678,0.000431,0.000470
56441000,0.0324,0.013523,0.002678,0.000431,0.000470
56442000,0.0324,0.013523,0.002678,0.000431,0.000353
56443000,0.0324,0.013523,0.002678,0.000431,0.000588
56444000,0.0324,0.013523,0.002678,0.000431,0.000353
56445000,0.0324,0.013523,0.002678,0.000431,0.000588
56446000,0.0324,0.013523,0.002678,0.000431,0.000353
56447000,0.0324,0.013523,0.002678,0.000431,0.000588
56448000,0.0324,0.013523,0.002678,0.000431,0.000353
56449000,0.0324,0.013523,0.002678,0.000431,0.000588
56450000,0.0324,0.013523,0.002678,0.000431,0.000353
56451000,0.0324,0.013523,0.002678,0.000431,0.000588
56452000,0.0324,0.013523,0.002678,0.000431,0.000353
56453000,0.0324,0.013523,0.002678,0.000431,0.000588
56454000,0.0324,0.013523,0.002678,0.000431,0.000353
56455000,0.0324,0.013523,0.002678,0.000431,0.000705
56456000,0.0324,0.013523,0.002678,0.000431,0.000470
56457000,0.0324,0.013523,0.002678,0.000431,0.000470
56458000,0.0324,0.013523,0.002678,0.000431,0.000470
56459000,0.0324,0.013523,0.002678,0.000431,0.000470
56460000,0.0324,0.013523,0.002678,0.000431,0.000470
56461000,0.0324,0.013523,0.002678,0.000431,0.000470
56462000,0.0324,0.013523,0.002678,0.000431,0.000470
56463000,0.0324,0.013523,0.002678,0.000431,0.000470
56464000,0.0324,0.013523,0.002678,0.000431,0.000470
56465000,0.0324,0.013523,0.002678,0.000431,0.000470
56466000,0.0324,0.013523,0.002678,0.000431,0.000470
56467000,0.0324,0.013523,0.002678,0.000431,0.000470
56468000,0.0324,0.013523,0.002678,0.000431,0.000353
56469000,0.0324,0.013523,0.002678,0.000431,0.000588
56470000,0.0324,0.013523,0.002678,0.000431,0.000353
56471000,0.0324,0.013523,0.002678,0.000431,0.000588
56472000,0.0324,0.013523,0.002678,0.000431,0.000353
56473000,0.0324,0.013523,0.002678,0.000431,0.000588
56474000,0.0324,0.013523,0.002678,0.000431,0.000353
56475000,0.0324,0.013523,0.002678,0.000431,0.000588
56476000,0.0324,0.013523,0.002678,0.000431,0.000353
56477000,0.0324,0.013523,0.002678,0.000431,0.000588
56478000,0.0324,0.013523,0.002678,0.000431,0.000353
56479000,0.0324,0.013523,0.002678,0.000431,0.000588
56480000,0.0324,0.013523,0.002678,0.000431,0.000353
56481000,0.0324,0.013523,0.002678,0.000431,0.000588
56482000,0.0324,0.013523,0.002678,0.000431,0.000353
56483000,0.0324,0.013523,0.002678,0.000431,0.000705
56484000,0.0324,0.013523,0.002678,0.000431,0.000353
56485000,0.0324,0.013523,0.002678,0.000431,0.000705
56486000,0.0324,0.013523,0.002678,0.000431,0.000470
56487000,0.0324,0.013523,0.002678,0.000431,0.000470
56488000,0.0324,0.013523,0.002678,0.000431,0.000470
56489000,0.0324,0.013523,0.002678,0.000431,0.000470
56490000,0.0324,0.013523,0.002678,0.000431,0.000470
56491000,0.0324,0.013523,0.002678,0.000431,0.000470
56492000,0.0324,0.013523,0.002678,0.000431,0.000470
56493000,0.0324,0.013523,0.002678,0.000431,0.000470
56494000,0.0324,0.013523,0.002678,0.000431,0.000353
56495000,0.0324,0.013523,0.002678,0.000431,0.000588
56496000,0.0324,0.013523,0.002678,0.000431,0.000470
56497000,0.0324,0.013523,0.002678,0.000431,0.000470
56498000,0.0324,0.013523,0.002678,0.000431,0.000353
56499000,0.0324,0.013523,0.002678,0.000431,0.000588
56500000,0.0324,0.013523,0.002678,0.000431,0.000470
56501000,0.0324,0.013523,0.002678,0.000431,0.000470
56502000,0.0324,0.013523,0.002678,0.000431,0.000470
56503000,0.0324,0.013523,0.002678,0.000431,0.000470
56504000,0.0324,0.013523,0.002678,0.000431,0.000470
56505000,0.0324,0.013523,0.002678,0.000431,0.000470
56506000,0.0324,0.013523,0.002678,0.000431,0.000470
56507000,0.0324,0.013523,0.002678,0.000431,0.000470
56508000,0.0324,0.013523,0.002678,0.000431,0.000470
56509000,0.0324,0.013523,0.002678,0.000431,0.000588
56510000,0.0324,0.013523,0.002678,0.000431,0.000470
56511000,0.0324,0.013523,0.002678,0.000431,0.000705
56512000,0.0324,0.013523,0.002678,0.000431,0.000353
56513000,0.0324,0.013523,0.002678,0.000431,0.000705
56514000,0.0324,0.013523,0.002678,0.000431,0.000470
56515000,0.0324,0.013523,0.002678,0.000431,0.000470
56516000,0.0324,0.013523,0.002678,0.000431,0.000470
56517000,0.0324,0.013523,0.002678,0.000431,0.000470
56518000,0.0324,0.013523,0.002678,0.000431,0.000470
56519000,0.0324,0.013523,0.002678,0.000431,0.000470
56520000,0.0324,0.013523,0.002678,0.000431,0.000353
56521000,0.0324,0.013523,0.002678,0.000431,0.000588
56522000,0.0324,0.013523,0.002678,0.000431,0.000353
56523000,0.0324,0.013523,0.002678,0.000431,0.000588
56524000,0.0324,0.013523,0.002678,0.000431,0.000353
56525000,0.0324,0.013523,0.002678,0.000431,0.000588
56526000,0.0324,0.013523,0.002678,0.000431,0.000353
56527000,0.0324,0.013523,0.002678,0.000431,0.000588
56528000,0.0324,0.013523,0.002678,0.000431,0.000353
56529000,0.0324,0.013523,0.002678,0.000431,0.000588
56530000,0.0324,0.013523,0.002678,0.000431,0.000353
56531000,0.0324,0.013523,0.002678,0.000431,0.000705
56532000,0.0324,0.013523,0.002678,0.000431,0.000353
56533000,0.0324,0.013523,0.002678,0.000431,0.000705
56534000,0.0324,0.013523,0.002678,0.000431,0.000588
56535000,0.0324,0.013523,0.002678,0.000431,0.000470
56536000,0.0324,0.013523,0.002678,0.000431,0.000705
56537000,0.0324,0.013523,0.002678,0.000431,0.000353
56538000,0.0324,0.013523,0.002678,0.000431,0.000588
56539000,0.0324,0.013523,0.002678,0.000431,0.000470
56540000,0.0324,0.013523,0.002678,0.000431,0.000588
56541000,0.0324,0.013523,0.002678,0.000431,0.000588
56542000,0.0324,0.013523,0.002678,0.000431,0.000470
56543000,0.0324,0.013523,0.002678,0.000431,0.000705
56544000,0.0324,0.013523,0.002678,0.000431,0.000353
56545000,0.0324,0.013523,0.002678,0.000431,0.000705
56546000,0.0324,0.013523,0.002678,0.000431,0.000588
56547000,0.0324,0.013523,0.002678,0.000431,0.000470
56548000,0.0324,0.013523,0.002678,0.000431,0.000705
56549000,0.0324,0.013523,0.002678,0.000431,0.000353
56550000,0.0324,0.013523,0.002678,0.000431,0.000705
56551000,0.0324,0.013523,0.002678,0.000431,0.000470
56552000,0.0324,0.013523,0.002678,0.000431,0.000470
56553000,0.0324,0.013523,0.002678,0.000431,0.000353
56554000,0.0324,0.013523,0.002678,0.000431,0.000588
56555000,0.0324,0.013523,0.002678,0.000431,0.000353
56556000,0.0324,0.013523,0.002678,0.000431,0.000705
56557000,0.0324,0.013523,0.002678,0.000431,0.000353
56558000,0.0324,0.013523,0.002678,0.000431,0.000705
56559000,0.0324,0.013523,0.002678,0.000431,0.000470
56560000,0.0324,0.013523,0.002678,0.000431,0.000470
56561000,0.0324,0.013523,0.002678,0.000431,0.000470
56562000,0.0324,0.013523,0.002678,0.000431,0.000588
56563000,0.0324,0.013523,0.002678,0.000431,0.000353
56564000,0.0324,0.013523,0.002678,0.000431,0.000588
56565000,0.0324,0.013523,0.002678,0.000431,0.000353
56566000,0.0324,0.013523,0.002678,0.000431,0.000705
56567000,0.0324,0.013523,0.002678,0.000431,0.000470
56568000,0.0324,0.013523,0.002678,0.000431,0.000470
56569000,0.0324,0.013523,0.002678,0.000431,0.000470
56570000,0.0324,0.013523,0.002678,0.000431,0.000470
56571000,0.0324,0.013523,0.002678,0.000431,0.000470
56572000,0.0324,0.013523,0.002678,0.000431,0.000470
56573000,0.0324,0.013523,0.002678,0.000431,0.000470
56574000,0.0324,0.013523,0.002678,0.000431,0.000470
56575000,0.0324,0.013523,0.002678,0.000431,0.000470
56576000,0.0324,0.013523,0.002678,0.000431,0.000470
56577000,0.0324,0.013523,0.002678,0.000431,0.000470
56578000,0.0324,0.013523,0.002678,0.000431,0.000470
56579000,0.0324,0.013523,0.002678,0.000431,0.000353
56580000,0.0324,0.013523,0.002678,0.000431,0.000588
56581000,0.0324,0.013523,0.002678,0.000431,0.000353
56582000,0.0324,0.013523,0.002678,0.000431,0.000588
56583000,0.0324,0.013523,0.002678,0.000431,0.000353
56584000,0.0324,0.013523,0.002678,0.000431,0.000705
56585000,0.0324,0.013523,0.002678,0.000431,0.000353
56586000,0.0324,0.013523,0.002678,0.000431,0.000705
56587000,0.0324,0.013523,0.002678,0.000431,0.000470
56588000,0.0324,0.013523,0.002678,0.000431,0.000470
56589000,0.0324,0.013523,0.002678,0.000431,0.000470
56590000,0.0324,0.013523,0.002678,0.000431,0.000470
56591000,0.0324,0.013523,0.002678,0.000431,0.000470
56592000,0.0324,0.013523,0.002678,0.000431,0.000470
56593000,0.0324,0.013523,0.002678,0.000431,0.000470
56594000,0.0324,0.013523,0.002678,0.000431,0.000470
56595000,0.0324,0.013523,0.002678,0.000431,0.000470
56596000,0.0324,0.013523,0.002678,0.000431,0.000470
56597000,0.0324,0.013523,0.002678,0.000431,0.000470
56598000,0.0324,0.013523,0.002678,0.000431,0.000470
56599000,0.0324,0.013523,0.002678,0.000431,0.000353
56600000,0.0324,0.013523,0.002678,0.000431,0.000588
56601000,0.0324,0.013523,0.002678,0.000431,0.000353
56602000,0.0324,0.013523,0.002678,0.000431,0.000588
56603000,0.0324,0.013523,0.002678,0.000431,0.000353
56604000,0.0324,0.013523,0.002678,0.000431,0.000588
56605000,0.0324,0.013523,0.002678,0.000431,0.000353
56606000,0.0324,0.013523,0.002678,0.000431,0.000588
56607000,0.0324,0.013523,0.002678,0.000431,0.000353
56608000,0.0324,0.013523,0.002678,0.000431,0.000588
56609000,0.0324,0.013523,0.002678,0.000431,0.000353
56610000,0.0324,0.013523,0.002678,0.000431,0.000588
56611000,0.0324,0.013523,0.002678,0.000431,0.000353
56612000,0.0324,0.013523,0.002678,0.000431,0.000588
56613000,0.0324,0.013523,0.002678,0.000431,0.000353
56614000,0.0324,0.013523,0.002678,0.000431,0.000588
56615000,0.0324,0.013523,0.002678,0.000431,0.000353
56616000,0.0324,0.013523,0.002678,0.000431,0.000470
56617000,0.0324,0.013523,0.002678,0.000431,0.000470
56618000,0.0324,0.013523,0.002678,0.000431,0.000470
56619000,0.0324,0.013523,0.002678,0.000431,0.000470
56620000,0.0324,0.013523,0.002678,0.000431,0.000353
56621000,0.0324,0.013523,0.002678,0.000431,0.000588
56622000,0.0324,0.013523,0.002678,0.000431,0.000353
56623000,0.0324,0.013523,0.002678,0.000431,0.000470
56624000,0.0324,0.013523,0.002678,0.000431,0.000470
56625000,0.0324,0.013523,0.002678,0.000431,0.000470
56626000,0.0324,0.013523,0.002678,0.000431,0.000470
56627000,0.0324,0.013523,0.002678,0.000431,0.000470
56628000,0.0324,0.013523,0.002678,0.000431,0.000470
56629000,0.0324,0.013523,0.002678,0.000431,0.000588
56630000,0.0324,0.013523,0.002678,0.000431,0.000353
56631000,0.0324,0.013523,0.002678,0.000431,0.000705
56632000,0.0324,0.013523,0.002678,0.000431,0.000588
56633000,0.0324,0.013523,0.002678,0.000431,0.000470
56634000,0.0324,0.013523,0.002678,0.000431,0.000588
56635000,0.0324,0.013523,0.002678,0.000431,0.000235
56636000,0.0324,0.013523,0.002678,0.000431,0.000588
56637000,0.0324,0.013523,0.002678,0.000431,0.000470
56638000,0.0324,0.013523,0.002678,0.000431,0.000588
56639000,0.0324,0.013523,0.002678,0.000431,0.000470
56640000,0.0324,0.013523,0.002678,0.000431,0.000470
56641000,0.0324,0.013523,0.002678,0.000431,0.000470
56642000,0.0324,0.013523,0.002678,0.000431,0.000588
56643000,0.0324,0.013523,0.002678,0.000431,0.000470
56644000,0.0324,0.013523,0.002678,0.000431,0.000588
56645000,0.0324,0.013523,0.002678,0.000431,0.000353
56646000,0.0324,0.013523,0.002678,0.000431,0.000588
56647000,0.0324,0.013523,0.002678,0.000431,0.000353
56648000,0.0324,0.013523,0.002678,0.000431,0.000588
56649000,0.0324,0.013523,0.002678,0.000431,0.000470
56650000,0.0324,0.013523,0.002678,0.000431,0.000353
56651000,0.0324,0.013523,0.002678,0.000431,0.000588
56652000,0.0324,0.013523,0.002678,0.000431,0.000470
56653000,0.0324,0.013523,0.002678,0.000431,0.000470
56654000,0.0324,0.013523,0.002678,0.000431,0.000470
56655000,0.0324,0.013523,0.002678,0.000431,0.000470
56656000,0.0324,0.013523,0.002678,0.000431,0.000588
56657000,0.0324,0.013523,0.002678,0.000431,0.000470
56658000,0.0324,0.013523,0.002678,0.000431,0.000470
56659000,0.0324,0.013523,0.002678,0.000431,0.000353
56660000,0.0324,0.013523,0.002678,0.000431,0.000470
56661000,0.0324,0.013523,0.002678,0.000431,0.000470
56662000,0.0324,0.013523,0.002678,0.000431,0.000470
56663000,0.0324,0.013523,0.002678,0.000431,0.000470
56664000,0.0324,0.013523,0.002678,0.000431,0.000470
56665000,0.0324,0.013523,0.002678,0.000431,0.000470
56666000,0.0324,0.013523,0.002678,0.000431,0.000470
56667000,0.0324,0.013523,0.002678,0.000431,0.000470
56668000,0.0324,0.013523,0.002678,0.000431,0.000470
56669000,0.0324,0.013523,0.002678,0.000431,0.000470
56670000,0.0324,0.013523,0.002678,0.000431,0.000588
56671000,0.0324,0.013523,0.002678,0.000431,0.000470
56672000,0.0324,0.013523,0.002678,0.000431,0.000705
56673000,0.0324,0.013523,0.002678,0.000431,0.000353
56674000,0.0324,0.013523,0.002678,0.000431,0.000705
56675000,0.0324,0.013523,0.002678,0.000431,0.000470
56676000,0.0324,0.013523,0.002678,0.000431,0.000470
56677000,0.0324,0.013523,0.002678,0.000431,0.000470
56678000,0.0324,0.013523,0.002678,0.000431,0.000470
56679000,0.0324,0.013523,0.002678,0.000431,0.000353
56680000,0.0324,0.013523,0.002678,0.000431,0.000588
56681000,0.0324,0.013523,0.002678,0.000431,0.000353
56682000,0.0324,0.013523,0.002678,0.000431,0.000588
56683000,0.0324,0.013523,0.002678,0.000431,0.000353
56684000,0.0324,0.013523,0.002678,0.000431,0.000588
56685000,0.0324,0.013523,0.002678,0.000431,0.000353
56686000,0.0324,0.013523,0.002678,0.000431,0.000705
56687000,0.0324,0.013523,0.002678,0.000431,0.000353
56688000,0.0324,0.013523,0.002678,0.000431,0.000588
56689000,0.0324,0.013523,0.002678,0.000431,0.000353
56690000,0.0324,0.013523,0.002678,0.000431,0.000588
56691000,0.0324,0.013523,0.002678,0.000431,0.000353
56692000,0.0324,0.013523,0.002678,0.000431,0.000588
56693000,0.0324,0.013523,0.002678,0.000431,0.000353
56694000,0.0324,0.013523,0.002678,0.000431,0.000588
56695000,0.0324,0.013523,0.002678,0.000431,0.000353
56696000,0.0324,0.013523,0.002678,0.000431,0.000588
56697000,0.0324,0.013523,0.002678,0.000431,0.000353
56698000,0.0324,0.013523,0.002678,0.000431,0.000588
56699000,0.0324,0.013523,0.002678,0.000431,0.000353
56700000,0.0324,0.013523,0.002678,0.000431,0.000588
56701000,0.0324,0.013523,0.002678,0.000431,0.000353
56702000,0.0324,0.013523,0.002678,0.000431,0.000470
56703000,0.0324,0.013523,0.002678,0.000431,0.000470
56704000,0.0324,0.013523,0.002678,0.000431,0.000470
56705000,0.0324,0.013523,0.002678,0.000431,0.000470
56706000,0.0324,0.013523,0.002678,0.000431,0.000470
56707000,0.0324,0.013523,0.002678,0.000431,0.000470
56708000,0.0324,0.013523,0.002678,0.000431,0.000470
56709000,0.0324,0.013523,0.002678,0.000431,0.000470
56710000,0.0324,0.013523,0.002678,0.000431,0.000470
56711000,0.0324,0.013523,0.002678,0.000431,0.000470
56712000,0.0324,0.013523,0.002678,0.000431,0.000588
56713000,0.0324,0.013523,0.002678,0.000431,0.000470
56714000,0.0324,0.013523,0.002678,0.000431,0.000588
56715000,0.0324,0.013523,0.002678,0.000431,0.000353
56716000,0.0324,0.013523,0.002678,0.000431,0.000588
56717000,0.0324,0.013523,0.002678,0.000431,0.000353
56718000,0.0324,0.013523,0.002678,0.000431,0.000588
56719000,0.0324,0.013523,0.002678,0.000431,0.000353
56720000,0.0324,0.013523,0.002678,0.000431,0.000588
56721000,0.0324,0.013523,0.002678,0.000431,0.000353
56722000,0.0324,0.013523,0.002678,0.000431,0.000588
56723000,0.0324,0.013523,0.002678,0.000431,0.000353
56724000,0.0324,0.013523,0.002678,0.000431,0.000470
56725000,0.0324,0.013523,0.002678,0.000431,0.000470
56726000,0.0324,0.013523,0.002678,0.000431,0.000353
56727000,0.0324,0.013523,0.002678,0.000431,0.000588
56728000,0.0324,0.013523,0.002678,0.000431,0.000353
56729000,0.0324,0.013523,0.002678,0.000431,0.000705
56730000,0.0324,0.013523,0.002678,0.000431,0.000588
56731000,0.0324,0.013523,0.002678,0.000431,0.000470
56732000,0.0324,0.013523,0.002678,0.000431,0.000705
56733000,0.0324,0.013523,0.002678,0.000431,0.000353
56734000,0.0324,0.013523,0.002678,0.000431,0.000705
56735000,0.0324,0.013523,0.002678,0.000431,0.000588
56736000,0.0324,0.013523,0.002678,0.000431,0.000470
56737000,0.0324,0.013523,0.002678,0.000431,0.000705
56738000,0.0324,0.013523,0.002678,0.000431,0.000353
56739000,0.0324,0.013523,0.002678,0.000431,0.000470
56740000,0.0324,0.013523,0.002678,0.000431,0.000470
56741000,0.0324,0.013523,0.002678,0.000431,0.000470
56742000,0.0324,0.013523,0.002678,0.000431,0.000470
56743000,0.0324,0.013523,0.002678,0.000431,0.000588
56744000,0.0324,0.013523,0.002678,0.000431,0.000470
56745000,0.0324,0.013523,0.002678,0.000431,0.000705
56746000,0.0324,0.013523,0.002678,0.000431,0.000353
56747000,0.0324,0.013523,0.002678,0.000431,0.000705
56748000,0.0324,0.013523,0.002678,0.000431,0.000588
56749000,0.0324,0.013523,0.002678,0.000431,0.000470
56750000,0.0324,0.013523,0.002678,0.000431,0.000470
56751000,0.0324,0.013523,0.002678,0.000431,0.000470
56752000,0.0324,0.013523,0.002678,0.000431,0.000470
56753000,0.0324,0.013523,0.002678,0.000431,0.000470
56754000,0.0324,0.013523,0.002678,0.000431,0.000353
56755000,0.0324,0.013523,0.002678,0.000431,0.000705
56756000,0.0324,0.013523,0.002678,0.000431,0.000588
56757000,0.0324,0.013523,0.002678,0.000431,0.000470
56758000,0.0324,0.013523,0.002678,0.000431,0.000588
56759000,0.0324,0.013523,0.002678,0.000431,0.000353
56760000,0.0324,0.013523,0.002678,0.000431,0.000588
56761000,0.0324,0.013523,0.002678,0.000431,0.000353
56762000,0.0324,0.013523,0.002678,0.000431,0.000588
56763000,0.0324,0.013523,0.002678,0.000431,0.000353
56764000,0.0324,0.013523,0.002678,0.000431,0.000588
56765000,0.0324,0.013523,0.002678,0.000431,0.000470
56766000,0.0324,0.013523,0.002678,0.000431,0.000353
56767000,0.0324,0.013523,0.002678,0.000431,0.000705
56768000,0.0324,0.013523,0.002678,0.000431,0.000470
56769000,0.0324,0.013523,0.002678,0.000431,0.000470
56770000,0.0324,0.013523,0.002678,0.000431,0.000353
56771000,0.0324,0.013523,0.002678,0.000431,0.000588
56772000,0.0324,0.013523,0.002678,0.000431,0.000353
56773000,0.0324,0.013523,0.002678,0.000431,0.000588
56774000,0.0324,0.013523,0.002678,0.000431,0.000353
56775000,0.0324,0.013523,0.002678,0.000431,0.000588
56776000,0.0324,0.013523,0.002678,0.000431,0.000353
56777000,0.0324,0.013523,0.002678,0.000431,0.000705
56778000,0.0324,0.013523,0.002678,0.000431,0.000470
56779000,0.0324,0.013523,0.002678,0.000431,0.000470
56780000,0.0324,0.013523,0.002678,0.000431,0.000470
56781000,0.0324,0.013523,0.002678,0.000431,0.000470
56782000,0.0324,0.013523,0.002678,0.000431,0.000470
56783000,0.0324,0.013523,0.002678,0.000431,0.000470
56784000,0.0324,0.013523,0.002678,0.000431,0.000470
56785000,0.0324,0.013523,0.002678,0.000431,0.000470
56786000,0.0324,0.013523,0.002678,0.000431,0.000470
56787000,0.0324,0.013523,0.002678,0.000431,0.000470
56788000,0.0324,0.013523,0.002678,0.000431,0.000353
56789000,0.0324,0.013523,0.002678,0.000431,0.000588
56790000,0.0324,0.013523,0.002678,0.000431,0.000353
56791000,0.0324,0.013523,0.002678,0.000431,0.000705
56792000,0.0324,0.013523,0.002678,0.000431,0.000353
56793000,0.0324,0.013523,0.002678,0.000431,0.000588
56794000,0.0324,0.013523,0.002678,0.000431,0.000353
56795000,0.0324,0.013523,0.002678,0.000431,0.000588
56796000,0.0324,0.013523,0.002678,0.000431,0.000353
56797000,0.0324,0.013523,0.002678,0.000431,0.000705
56798000,0.0324,0.013523,0.002678,0.000431,0.000470
56799000,0.0324,0.013523,0.002678,0.000431,0.000470
56800000,0.0324,0.013523,0.002678,0.000431,0.000470
56801000,0.0324,0.013523,0.002678,0.000431,0.000470
56802000,0.0324,0.013523,0.002678,0.000431,0.000353
56803000,0.0324,0.013523,0.002678,0.000431,0.000588
56804000,0.0324,0.013523,0.002678,0.000431,0.000470
56805000,0.0324,0.013523,0.002678,0.000431,0.000470
56806000,0.0324,0.013523,0.002678,0.000431,0.000470
56807000,0.0324,0.013523,0.002678,0.000431,0.000470
56808000,0.0324,0.013523,0.002678,0.000431,0.000470
56809000,0.0324,0.013523,0.002678,0.000431,0.000470
56810000,0.0324,0.013523,0.002678,0.000431,0.000470
56811000,0.0324,0.013523,0.002678,0.000431,0.000470
56812000,0.0324,0.013523,0.002678,0.000431,0.000470
56813000,0.0324,0.013523,0.002678,0.000431,0.000470
56814000,0.0324,0.013523,0.002678,0.000431,0.000470
56815000,0.0324,0.013523,0.002678,0.000431,0.000588
56816000,0.0324,0.013523,0.002678,0.000431,0.000470
56817000,0.0324,0.013523,0.002678,0.000431,0.000470
56818000,0.0324,0.013523,0.002678,0.000431,0.000470
56819000,0.0324,0.013523,0.002678,0.000431,0.000353
56820000,0.0324,0.013523,0.002678,0.000431,0.000588
56821000,0.0324,0.013523,0.002678,0.000431,0.000353
56822000,0.0324,0.013523,0.002678,0.000431,0.000470
56823000,0.0324,0.013523,0.002678,0.000431,0.000588
56824000,0.0324,0.013523,0.002678,0.000431,0.000470
56825000,0.0324,0.013523,0.002678,0.000431,0.000705
56826000,0.0324,0.013523,0.002678,0.000431,0.000353
56827000,0.0324,0.013523,0.002678,0.000431,0.000588
56828000,0.0324,0.013523,0.002678,0.000431,0.000470
56829000,0.0324,0.013523,0.002678,0.000431,0.000588
56830000,0.0324,0.013523,0.002678,0.000431,0.000470
56831000,0.0324,0.013523,0.002678,0.000431,0.000588
56832000,0.0324,0.013523,0.002678,0.000431,0.000353
56833000,0.0324,0.013523,0.002678,0.000431,0.000470
56834000,0.0324,0.013523,0.002678,0.000431,0.000470
56835000,0.0324,0.013523,0.002678,0.000431,0.000470
56836000,0.0324,0.013523,0.002678,0.000431,0.000470
56837000,0.0324,0.013523,0.002678,0.000431,0.000588
56838000,0.0324,0.013523,0.002678,0.000431,0.000353
56839000,0.0324,0.013523,0.002678,0.000431,0.000588
56840000,0.0324,0.013523,0.002678,0.000431,0.000353
56841000,0.0324,0.013523,0.002678,0.000431,0.000588
56842000,0.0324,0.013523,0.002678,0.000431,0.000353
56843000,0.0324,0.013523,0.002678,0.000431,0.000588
56844000,0.0324,0.013523,0.002678,0.000431,0.000470
56845000,0.0324,0.013523,0.002678,0.000431,0.000705
56846000,0.0324,0.013523,0.002678,0.000431,0.000353
56847000,0.0324,0.013523,0.002678,0.000431,0.000588
56848000,0.0324,0.013523,0.002678,0.000431,0.000588
56849000,0.0324,0.013523,0.002678,0.000431,0.000470
56850000,0.0324,0.013523,0.002678,0.000431,0.000470
56851000,0.0324,0.013523,0.002678,0.000431,0.000470
56852000,0.0324,0.013523,0.002678,0.000431,0.000353
56853000,0.0324,0.013523,0.002678,0.000431,0.000588
56854000,0.0324,0.013523,0.002678,0.000431,0.000353
56855000,0.0324,0.013523,0.002678,0.000431,0.000588
56856000,0.0324,0.013523,0.002678,0.000431,0.000353
56857000,0.0324,0.013523,0.002678,0.000431,0.000588
56858000,0.0324,0.013523,0.002678,0.000431,0.000353
56859000,0.0324,0.013523,0.002678,0.000431,0.000588
56860000,0.0324,0.013523,0.002678,0.000431,0.000353
56861000,0.0324,0.013523,0.002678,0.000431,0.000588
56862000,0.0324,0.013523,0.002678,0.000431,0.000353
56863000,0.0324,0.013523,0.002678,0.000431,0.000588
56864000,0.0324,0.013523,0.002678,0.000431,0.000353
56865000,0.0324,0.013523,0.002678,0.000431,0.000588
56866000,0.0324,0.013523,0.002678,0.000431,0.000353
56867000,0.0324,0.013523,0.002678,0.000431,0.000588
56868000,0.0324,0.013523,0.002678,0.000431,0.000353
56869000,0.0324,0.013523,0.002678,0.000431,0.000470
56870000,0.0324,0.013523,0.002678,0.000431,0.000353
56871000,0.0324,0.013523,0.002678,0.000431,0.000588
56872000,0.0324,0.013523,0.002678,0.000431,0.000353
56873000,0.0324,0.013523,0.002678,0.000431,0.000823
56874000,0.0324,0.013523,0.002678,0.000431,0.000235
56875000,0.0324,0.013523,0.002678,0.000431,0.000705
56876000,0.0324,0.013523,0.002678,0.000431,0.000353
56877000,0.0324,0.013523,0.002678,0.000431,0.000705
56878000,0.0324,0.013523,0.002678,0.000431,0.000588
56879000,0.0324,0.013523,0.002678,0.000431,0.000470
56880000,0.0324,0.013523,0.002678,0.000431,0.000588
56881000,0.0324,0.013523,0.002678,0.000431,0.000353
56882000,0.0324,0.013523,0.002678,0.000431,0.000588
56883000,0.0324,0.013523,0.002678,0.000431,0.000353
56884000,0.0324,0.013523,0.002678,0.000431,0.000705
56885000,0.0324,0.013523,0.002678,0.000431,0.000353
56886000,0.0324,0.013523,0.002678,0.000431,0.000588
56887000,0.0324,0.013523,0.002678,0.000431,0.000353
56888000,0.0324,0.013523,0.002678,0.000431,0.000588
56889000,0.0324,0.013523,0.002678,0.000431,0.000353
56890000,0.0324,0.013523,0.002678,0.000431,0.000588
56891000,0.0324,0.013523,0.002678,0.000431,0.000353
56892000,0.0324,0.013523,0.002678,0.000431,0.000470
56893000,0.0324,0.013523,0.002678,0.000431,0.000470
56894000,0.0324,0.013523,0.002678,0.000431,0.000588
56895000,0.0324,0.013523,0.002678,0.000431,0.000470
56896000,0.0324,0.013523,0.002678,0.000431,0.000705
56897000,0.0324,0.013523,0.002678,0.000431,0.000353
56898000,0.0324,0.013523,0.002678,0.000431,0.000588
56899000,0.0324,0.013523,0.002678,0.000431,0.000353
56900000,0.0324,0.013523,0.002678,0.000431,0.000588
56901000,0.0324,0.013523,0.002678,0.000431,0.000353
56902000,0.0324,0.013523,0.002678,0.000431,0.000588
56903000,0.0324,0.013523,0.002678,0.000431,0.000470
56904000,0.0324,0.013523,0.002678,0.000431,0.000705
56905000,0.0324,0.013523,0.002678,0.000431,0.000353
56906000,0.0324,0.013523,0.002678,0.000431,0.000588
56907000,0.0324,0.013523,0.002678,0.000431,0.000353
56908000,0.0324,0.013523,0.002678,0.000431,0.000588
56909000,0.0324,0.013523,0.002678,0.000431,0.000353
56910000,0.0324,0.013523,0.002678,0.000431,0.000470
56911000,0.0324,0.013523,0.002678,0.000431,0.000470
56912000,0.0324,0.013523,0.002678,0.000431,0.000470
56913000,0.0324,0.013523,0.002678,0.000431,0.000470
56914000,0.0324,0.013523,0.002678,0.000431,0.000470
56915000,0.0324,0.013523,0.002678,0.000431,0.000470
56916000,0.0324,0.013523,0.002678,0.000431,0.000470
56917000,0.0324,0.013523,0.002678,0.000431,0.000470
56918000,0.0324,0.013523,0.002678,0.000431,0.000470
56919000,0.0324,0.013523,0.002678,0.000431,0.000470
56920000,0.0324,0.013523,0.002678,0.000431,0.000470
56921000,0.0324,0.013523,0.002678,0.000431,0.000470
56922000,0.0324,0.013523,0.002678,0.000431,0.000470
56923000,0.0324,0.013523,0.002678,0.000431,0.000353
56924000,0.0324,0.013523,0.002678,0.000431,0.000588
56925000,0.0324,0.013523,0.002678,0.000431,0.000353
56926000,0.0324,0.013523,0.002678,0.000431,0.000470
56927000,0.0324,0.013523,0.002678,0.000431,0.000470
56928000,0.0324,0.013523,0.002678,0.000431,0.000470
56929000,0.0324,0.013523,0.002678,0.000431,0.000470
56930000,0.0324,0.013523,0.002678,0.000431,0.000353
56931000,0.0324,0.013523,0.002678,0.000431,0.000588
56932000,0.0324,0.013523,0.002678,0.000431,0.000353
56933000,0.0324,0.013523,0.002678,0.000431,0.000588
56934000,0.0324,0.013523,0.002678,0.000431,0.000353
56935000,0.0324,0.013523,0.002678,0.000431,0.000588
56936000,0.0324,0.013523,0.002678,0.000431,0.000353
56937000,0.0324,0.013523,0.002678,0.000431,0.000705
56938000,0.0324,0.013523,0.002678,0.000431,0.000470
56939000,0.0324,0.013523,0.002678,0.000431,0.000470
56940000,0.0324,0.013523,0.002678,0.000431,0.000470
56941000,0.0324,0.013523,0.002678,0.000431,0.000470
56942000,0.0324,0.013523,0.002678,0.000431,0.000470
56943000,0.0324,0.013523,0.002678,0.000431,0.000470
56944000,0.0324,0.013523,0.002678,0.000431,0.000470
56945000,0.0324,0.013523,0.002678,0.000431,0.000470
56946000,0.0324,0.013523,0.002678,0.000431,0.000353
56947000,0.0324,0.013523,0.002678,0.000431,0.000588
56948000,0.0324,0.013523,0.002678,0.000431,0.000353
56949000,0.0324,0.013523,0.002678,0.000431,0.000470
56950000,0.0324,0.013523,0.002678,0.000431,0.000470
56951000,0.0324,0.013523,0.002678,0.000431,0.000588
56952000,0.0324,0.013523,0.002678,0.000431,0.000353
56953000,0.0324,0.013523,0.002678,0.000431,0.000470
56954000,0.0324,0.013523,0.002678,0.000431,0.000353
56955000,0.0324,0.013523,0.002678,0.000431,0.000588
56956000,0.0324,0.013523,0.002678,0.000431,0.000353
56957000,0.0324,0.013523,0.002678,0.000431,0.000588
56958000,0.0324,0.013523,0.002678,0.000431,0.000353
56959000,0.0324,0.013523,0.002678,0.000431,0.000588
56960000,0.0324,0.013523,0.002678,0.000431,0.000353
56961000,0.0324,0.013523,0.002678,0.000431,0.000588
56962000,0.0324,0.013523,0.002678,0.000431,0.000353
56963000,0.0324,0.013523,0.002678,0.000431,0.000588
56964000,0.0324,0.013523,0.002678,0.000431,0.000353
56965000,0.0324,0.013523,0.002678,0.000431,0.000470
56966000,0.0324,0.013523,0.002678,0.000431,0.000470
56967000,0.0324,0.013523,0.002678,0.000431,0.000470
56968000,0.0324,0.013523,0.002678,0.000431,0.000470
56969000,0.0324,0.013523,0.002678,0.000431,0.000588
56970000,0.0324,0.013523,0.002678,0.000431,0.000470
56971000,0.0324,0.013523,0.002678,0.000431,0.000705
56972000,0.0324,0.013523,0.002678,0.000431,0.000353
56973000,0.0324,0.013523,0.002678,0.000431,0.000705
56974000,0.0324,0.013523,0.002678,0.000431,0.000470
56975000,0.0324,0.013523,0.002678,0.000431,0.000470
56976000,0.0324,0.013523,0.002678,0.000431,0.000470
56977000,0.0324,0.013523,0.002678,0.000431,0.000470
56978000,0.0324,0.013523,0.002678,0.000431,0.000470
56979000,0.0324,0.013523,0.002678,0.000431,0.000470
56980000,0.0324,0.013523,0.002678,0.000431,0.000353
56981000,0.0324,0.013523,0.002678,0.000431,0.000588
56982000,0.0324,0.013523,0.002678,0.000431,0.000353
56983000,0.0324,0.013523,0.002678,0.000431,0.000588
56984000,0.0324,0.013523,0.002678,0.000431,0.000353
56985000,0.0324,0.013523,0.002678,0.000431,0.000588
56986000,0.0324,0.013523,0.002678,0.000431,0.000353
56987000,0.0324,0.013523,0.002678,0.000431,0.000588
56988000,0.0324,0.013523,0.002678,0.000431,0.000353
56989000,0.0324,0.013523,0.002678,0.000431,0.000588
56990000,0.0324,0.013523,0.002678,0.000431,0.000353
56991000,0.0324,0.013523,0.002678,0.000431,0.000470
56992000,0.0324,0.013523,0.002678,0.000431,0.000353
56993000,0.0324,0.013523,0.002678,0.000431,0.000588
56994000,0.0324,0.013523,0.002678,0.000431,0.000353
56995000,0.0324,0.013523,0.002678,0.000431,0.000470
56996000,0.0324,0.013523,0.002678,0.000431,0.000470
56997000,0.0324,0.013523,0.002678,0.000431,0.000470
56998000,0.0324,0.013523,0.002678,0.000431,0.000470
56999000,0.0324,0.013523,0.002678,0.000431,0.000470
