Cycle,Area(mm^2),PeakDynamic(W),SubthresholdLeakage(W),GateLeakage(W),RunTimeDynamic(W)
36000000,0.0324,0.013523,0.002678,0.000431,0.000470
36001000,0.0324,0.013523,0.002678,0.000431,0.000705
36002000,0.0324,0.013523,0.002678,0.000431,0.000470
36003000,0.0324,0.013523,0.002678,0.000431,0.000470
36004000,0.0324,0.013523,0.002678,0.000431,0.000470
36005000,0.0324,0.013523,0.002678,0.000431,0.000470
36006000,0.0324,0.013523,0.002678,0.000431,0.000470
36007000,0.0324,0.013523,0.002678,0.000431,0.000470
36008000,0.0324,0.013523,0.002678,0.000431,0.000353
36009000,0.0324,0.013523,0.002678,0.000431,0.000588
36010000,0.0324,0.013523,0.002678,0.000431,0.000235
36011000,0.0324,0.013523,0.002678,0.000431,0.000588
36012000,0.0324,0.013523,0.002678,0.000431,0.000353
36013000,0.0324,0.013523,0.002678,0.000431,0.000588
36014000,0.0324,0.013523,0.002678,0.000431,0.000353
36015000,0.0324,0.013523,0.002678,0.000431,0.000588
36016000,0.0324,0.013523,0.002678,0.000431,0.000353
36017000,0.0324,0.013523,0.002678,0.000431,0.000588
36018000,0.0324,0.013523,0.002678,0.000431,0.000353
36019000,0.0324,0.013523,0.002678,0.000431,0.000588
36020000,0.0324,0.013523,0.002678,0.000431,0.000353
36021000,0.0324,0.013523,0.002678,0.000431,0.000588
36022000,0.0324,0.013523,0.002678,0.000431,0.000353
36023000,0.0324,0.013523,0.002678,0.000431,0.000588
36024000,0.0324,0.013523,0.002678,0.000431,0.000353
36025000,0.0324,0.013523,0.002678,0.000431,0.000588
36026000,0.0324,0.013523,0.002678,0.000431,0.000353
36027000,0.0324,0.013523,0.002678,0.000431,0.000588
36028000,0.0324,0.013523,0.002678,0.000431,0.000353
36029000,0.0324,0.013523,0.002678,0.000431,0.000588
36030000,0.0324,0.013523,0.002678,0.000431,0.000235
36031000,0.0324,0.013523,0.002678,0.000431,0.000588
36032000,0.0324,0.013523,0.002678,0.000431,0.000353
36033000,0.0324,0.013523,0.002678,0.000431,0.000588
36034000,0.0324,0.013523,0.002678,0.000431,0.000353
36035000,0.0324,0.013523,0.002678,0.000431,0.000588
36036000,0.0324,0.013523,0.002678,0.000431,0.000353
36037000,0.0324,0.013523,0.002678,0.000431,0.000588
36038000,0.0324,0.013523,0.002678,0.000431,0.000353
36039000,0.0324,0.013523,0.002678,0.000431,0.000588
36040000,0.0324,0.013523,0.002678,0.000431,0.000470
36041000,0.0324,0.013523,0.002678,0.000431,0.000588
36042000,0.0324,0.013523,0.002678,0.000431,0.000470
36043000,0.0324,0.013523,0.002678,0.000431,0.000588
36044000,0.0324,0.013523,0.002678,0.000431,0.000353
36045000,0.0324,0.013523,0.002678,0.000431,0.000588
36046000,0.0324,0.013523,0.002678,0.000431,0.000353
36047000,0.0324,0.013523,0.002678,0.000431,0.000470
36048000,0.0324,0.013523,0.002678,0.000431,0.000470
36049000,0.0324,0.013523,0.002678,0.000431,0.000353
36050000,0.0324,0.013523,0.002678,0.000431,0.000705
36051000,0.0324,0.013523,0.002678,0.000431,0.000588
36052000,0.0324,0.013523,0.002678,0.000431,0.000470
36053000,0.0324,0.013523,0.002678,0.000431,0.000705
36054000,0.0324,0.013523,0.002678,0.000431,0.000353
36055000,0.0324,0.013523,0.002678,0.000431,0.000705
36056000,0.0324,0.013523,0.002678,0.000431,0.000588
36057000,0.0324,0.013523,0.002678,0.000431,0.000353
36058000,0.0324,0.013523,0.002678,0.000431,0.000588
36059000,0.0324,0.013523,0.002678,0.000431,0.000470
36060000,0.0324,0.013523,0.002678,0.000431,0.000588
36061000,0.0324,0.013523,0.002678,0.000431,0.000470
36062000,0.0324,0.013523,0.002678,0.000431,0.000470
36063000,0.0324,0.013523,0.002678,0.000431,0.000353
36064000,0.0324,0.013523,0.002678,0.000431,0.000588
36065000,0.0324,0.013523,0.002678,0.000431,0.000470
36066000,0.0324,0.013523,0.002678,0.000431,0.000470
36067000,0.0324,0.013523,0.002678,0.000431,0.000470
36068000,0.0324,0.013523,0.002678,0.000431,0.000588
36069000,0.0324,0.013523,0.002678,0.000431,0.000470
36070000,0.0324,0.013523,0.002678,0.000431,0.000705
36071000,0.0324,0.013523,0.002678,0.000431,0.000353
36072000,0.0324,0.013523,0.002678,0.000431,0.000588
36073000,0.0324,0.013523,0.002678,0.000431,0.000353
36074000,0.0324,0.013523,0.002678,0.000431,0.000705
36075000,0.0324,0.013523,0.002678,0.000431,0.000588
36076000,0.0324,0.013523,0.002678,0.000431,0.000470
36077000,0.0324,0.013523,0.002678,0.000431,0.000588
36078000,0.0324,0.013523,0.002678,0.000431,0.000353
36079000,0.0324,0.013523,0.002678,0.000431,0.000588
36080000,0.0324,0.013523,0.002678,0.000431,0.000353
36081000,0.0324,0.013523,0.002678,0.000431,0.000588
36082000,0.0324,0.013523,0.002678,0.000431,0.000353
36083000,0.0324,0.013523,0.002678,0.000431,0.000588
36084000,0.0324,0.013523,0.002678,0.000431,0.000353
36085000,0.0324,0.013523,0.002678,0.000431,0.000470
36086000,0.0324,0.013523,0.002678,0.000431,0.000470
36087000,0.0324,0.013523,0.002678,0.000431,0.000470
36088000,0.0324,0.013523,0.002678,0.000431,0.000470
36089000,0.0324,0.013523,0.002678,0.000431,0.000353
36090000,0.0324,0.013523,0.002678,0.000431,0.000588
36091000,0.0324,0.013523,0.002678,0.000431,0.000353
36092000,0.0324,0.013523,0.002678,0.000431,0.000588
36093000,0.0324,0.013523,0.002678,0.000431,0.000353
36094000,0.0324,0.013523,0.002678,0.000431,0.000588
36095000,0.0324,0.013523,0.002678,0.000431,0.000353
36096000,0.0324,0.013523,0.002678,0.000431,0.000588
36097000,0.0324,0.013523,0.002678,0.000431,0.000353
36098000,0.0324,0.013523,0.002678,0.000431,0.000705
36099000,0.0324,0.013523,0.002678,0.000431,0.000588
36100000,0.0324,0.013523,0.002678,0.000431,0.000470
36101000,0.0324,0.013523,0.002678,0.000431,0.000470
36102000,0.0324,0.013523,0.002678,0.000431,0.000470
36103000,0.0324,0.013523,0.002678,0.000431,0.000705
36104000,0.0324,0.013523,0.002678,0.000431,0.000353
36105000,0.0324,0.013523,0.002678,0.000431,0.000588
36106000,0.0324,0.013523,0.002678,0.000431,0.000353
36107000,0.0324,0.013523,0.002678,0.000431,0.000588
36108000,0.0324,0.013523,0.002678,0.000431,0.000353
36109000,0.0324,0.013523,0.002678,0.000431,0.000588
36110000,0.0324,0.013523,0.002678,0.000431,0.000353
36111000,0.0324,0.013523,0.002678,0.000431,0.000588
36112000,0.0324,0.013523,0.002678,0.000431,0.000353
36113000,0.0324,0.013523,0.002678,0.000431,0.000588
36114000,0.0324,0.013523,0.002678,0.000431,0.000353
36115000,0.0324,0.013523,0.002678,0.000431,0.000588
36116000,0.0324,0.013523,0.002678,0.000431,0.000470
36117000,0.0324,0.013523,0.002678,0.000431,0.000470
36118000,0.0324,0.013523,0.002678,0.000431,0.000470
36119000,0.0324,0.013523,0.002678,0.000431,0.000353
36120000,0.0324,0.013523,0.002678,0.000431,0.000588
36121000,0.0324,0.013523,0.002678,0.000431,0.000353
36122000,0.0324,0.013523,0.002678,0.000431,0.000470
36123000,0.0324,0.013523,0.002678,0.000431,0.000470
36124000,0.0324,0.013523,0.002678,0.000431,0.000470
36125000,0.0324,0.013523,0.002678,0.000431,0.000470
36126000,0.0324,0.013523,0.002678,0.000431,0.000470
36127000,0.0324,0.013523,0.002678,0.000431,0.000470
36128000,0.0324,0.013523,0.002678,0.000431,0.000470
36129000,0.0324,0.013523,0.002678,0.000431,0.000588
36130000,0.0324,0.013523,0.002678,0.000431,0.000470
36131000,0.0324,0.013523,0.002678,0.000431,0.000705
36132000,0.0324,0.013523,0.002678,0.000431,0.000353
36133000,0.0324,0.013523,0.002678,0.000431,0.000588
36134000,0.0324,0.013523,0.002678,0.000431,0.000353
36135000,0.0324,0.013523,0.002678,0.000431,0.000588
36136000,0.0324,0.013523,0.002678,0.000431,0.000353
36137000,0.0324,0.013523,0.002678,0.000431,0.000470
36138000,0.0324,0.013523,0.002678,0.000431,0.000470
36139000,0.0324,0.013523,0.002678,0.000431,0.000470
36140000,0.0324,0.013523,0.002678,0.000431,0.000470
36141000,0.0324,0.013523,0.002678,0.000431,0.000588
36142000,0.0324,0.013523,0.002678,0.000431,0.000470
36143000,0.0324,0.013523,0.002678,0.000431,0.000705
36144000,0.0324,0.013523,0.002678,0.000431,0.000353
36145000,0.0324,0.013523,0.002678,0.000431,0.000588
36146000,0.0324,0.013523,0.002678,0.000431,0.000353
36147000,0.0324,0.013523,0.002678,0.000431,0.000588
36148000,0.0324,0.013523,0.002678,0.000431,0.000353
36149000,0.0324,0.013523,0.002678,0.000431,0.000705
36150000,0.0324,0.013523,0.002678,0.000431,0.000588
36151000,0.0324,0.013523,0.002678,0.000431,0.000470
36152000,0.0324,0.013523,0.002678,0.000431,0.000705
36153000,0.0324,0.013523,0.002678,0.000431,0.000235
36154000,0.0324,0.013523,0.002678,0.000431,0.000705
36155000,0.0324,0.013523,0.002678,0.000431,0.000353
36156000,0.0324,0.013523,0.002678,0.000431,0.000705
36157000,0.0324,0.013523,0.002678,0.000431,0.000470
36158000,0.0324,0.013523,0.002678,0.000431,0.000470
36159000,0.0324,0.013523,0.002678,0.000431,0.000470
36160000,0.0324,0.013523,0.002678,0.000431,0.000470
36161000,0.0324,0.013523,0.002678,0.000431,0.000470
36162000,0.0324,0.013523,0.002678,0.000431,0.000470
36163000,0.0324,0.013523,0.002678,0.000431,0.000470
36164000,0.0324,0.013523,0.002678,0.000431,0.000470
36165000,0.0324,0.013523,0.002678,0.000431,0.000470
36166000,0.0324,0.013523,0.002678,0.000431,0.000470
36167000,0.0324,0.013523,0.002678,0.000431,0.000470
36168000,0.0324,0.013523,0.002678,0.000431,0.000470
36169000,0.0324,0.013523,0.002678,0.000431,0.000470
36170000,0.0324,0.013523,0.002678,0.000431,0.000470
36171000,0.0324,0.013523,0.002678,0.000431,0.000470
36172000,0.0324,0.013523,0.002678,0.000431,0.000470
36173000,0.0324,0.013523,0.002678,0.000431,0.000353
36174000,0.0324,0.013523,0.002678,0.000431,0.000588
36175000,0.0324,0.013523,0.002678,0.000431,0.000353
36176000,0.0324,0.013523,0.002678,0.000431,0.000588
36177000,0.0324,0.013523,0.002678,0.000431,0.000353
36178000,0.0324,0.013523,0.002678,0.000431,0.000588
36179000,0.0324,0.013523,0.002678,0.000431,0.000353
36180000,0.0324,0.013523,0.002678,0.000431,0.000588
36181000,0.0324,0.013523,0.002678,0.000431,0.000470
36182000,0.0324,0.013523,0.002678,0.000431,0.000588
36183000,0.0324,0.013523,0.002678,0.000431,0.000470
36184000,0.0324,0.013523,0.002678,0.000431,0.000588
36185000,0.0324,0.013523,0.002678,0.000431,0.000353
36186000,0.0324,0.013523,0.002678,0.000431,0.000588
36187000,0.0324,0.013523,0.002678,0.000431,0.000353
36188000,0.0324,0.013523,0.002678,0.000431,0.000588
36189000,0.0324,0.013523,0.002678,0.000431,0.000353
36190000,0.0324,0.013523,0.002678,0.000431,0.000588
36191000,0.0324,0.013523,0.002678,0.000431,0.000353
36192000,0.0324,0.013523,0.002678,0.000431,0.000705
36193000,0.0324,0.013523,0.002678,0.000431,0.000353
36194000,0.0324,0.013523,0.002678,0.000431,0.000588
36195000,0.0324,0.013523,0.002678,0.000431,0.000470
36196000,0.0324,0.013523,0.002678,0.000431,0.000470
36197000,0.0324,0.013523,0.002678,0.000431,0.000353
36198000,0.0324,0.013523,0.002678,0.000431,0.000705
36199000,0.0324,0.013523,0.002678,0.000431,0.000353
36200000,0.0324,0.013523,0.002678,0.000431,0.000588
36201000,0.0324,0.013523,0.002678,0.000431,0.000353
36202000,0.0324,0.013523,0.002678,0.000431,0.000588
36203000,0.0324,0.013523,0.002678,0.000431,0.000353
36204000,0.0324,0.013523,0.002678,0.000431,0.000588
36205000,0.0324,0.013523,0.002678,0.000431,0.000353
36206000,0.0324,0.013523,0.002678,0.000431,0.000588
36207000,0.0324,0.013523,0.002678,0.000431,0.000353
36208000,0.0324,0.013523,0.002678,0.000431,0.000705
36209000,0.0324,0.013523,0.002678,0.000431,0.000353
36210000,0.0324,0.013523,0.002678,0.000431,0.000705
36211000,0.0324,0.013523,0.002678,0.000431,0.000353
36212000,0.0324,0.013523,0.002678,0.000431,0.000588
36213000,0.0324,0.013523,0.002678,0.000431,0.000235
36214000,0.0324,0.013523,0.002678,0.000431,0.000705
36215000,0.0324,0.013523,0.002678,0.000431,0.000353
36216000,0.0324,0.013523,0.002678,0.000431,0.000588
36217000,0.0324,0.013523,0.002678,0.000431,0.000353
36218000,0.0324,0.013523,0.002678,0.000431,0.000705
36219000,0.0324,0.013523,0.002678,0.000431,0.000353
36220000,0.0324,0.013523,0.002678,0.000431,0.000705
36221000,0.0324,0.013523,0.002678,0.000431,0.000588
36222000,0.0324,0.013523,0.002678,0.000431,0.000470
36223000,0.0324,0.013523,0.002678,0.000431,0.000588
36224000,0.0324,0.013523,0.002678,0.000431,0.000353
36225000,0.0324,0.013523,0.002678,0.000431,0.000470
36226000,0.0324,0.013523,0.002678,0.000431,0.000470
36227000,0.0324,0.013523,0.002678,0.000431,0.000353
36228000,0.0324,0.013523,0.002678,0.000431,0.000705
36229000,0.0324,0.013523,0.002678,0.000431,0.000588
36230000,0.0324,0.013523,0.002678,0.000431,0.000470
36231000,0.0324,0.013523,0.002678,0.000431,0.000588
36232000,0.0324,0.013523,0.002678,0.000431,0.000353
36233000,0.0324,0.013523,0.002678,0.000431,0.000588
36234000,0.0324,0.013523,0.002678,0.000431,0.000353
36235000,0.0324,0.013523,0.002678,0.000431,0.000588
36236000,0.0324,0.013523,0.002678,0.000431,0.000353
36237000,0.0324,0.013523,0.002678,0.000431,0.000588
36238000,0.0324,0.013523,0.002678,0.000431,0.000353
36239000,0.0324,0.013523,0.002678,0.000431,0.000470
36240000,0.0324,0.013523,0.002678,0.000431,0.000470
36241000,0.0324,0.013523,0.002678,0.000431,0.000470
36242000,0.0324,0.013523,0.002678,0.000431,0.000470
36243000,0.0324,0.013523,0.002678,0.000431,0.000353
36244000,0.0324,0.013523,0.002678,0.000431,0.000588
36245000,0.0324,0.013523,0.002678,0.000431,0.000353
36246000,0.0324,0.013523,0.002678,0.000431,0.000588
36247000,0.0324,0.013523,0.002678,0.000431,0.000353
36248000,0.0324,0.013523,0.002678,0.000431,0.000588
36249000,0.0324,0.013523,0.002678,0.000431,0.000353
36250000,0.0324,0.013523,0.002678,0.000431,0.000588
36251000,0.0324,0.013523,0.002678,0.000431,0.000353
36252000,0.0324,0.013523,0.002678,0.000431,0.000705
36253000,0.0324,0.013523,0.002678,0.000431,0.000470
36254000,0.0324,0.013523,0.002678,0.000431,0.000470
36255000,0.0324,0.013523,0.002678,0.000431,0.000470
36256000,0.0324,0.013523,0.002678,0.000431,0.000470
36257000,0.0324,0.013523,0.002678,0.000431,0.000470
36258000,0.0324,0.013523,0.002678,0.000431,0.000470
36259000,0.0324,0.013523,0.002678,0.000431,0.000353
36260000,0.0324,0.013523,0.002678,0.000431,0.000705
36261000,0.0324,0.013523,0.002678,0.000431,0.000353
36262000,0.0324,0.013523,0.002678,0.000431,0.000705
36263000,0.0324,0.013523,0.002678,0.000431,0.000588
36264000,0.0324,0.013523,0.002678,0.000431,0.000588
36265000,0.0324,0.013523,0.002678,0.000431,0.000470
36266000,0.0324,0.013523,0.002678,0.000431,0.000470
36267000,0.0324,0.013523,0.002678,0.000431,0.000588
36268000,0.0324,0.013523,0.002678,0.000431,0.000470
36269000,0.0324,0.013523,0.002678,0.000431,0.000705
36270000,0.0324,0.013523,0.002678,0.000431,0.000353
36271000,0.0324,0.013523,0.002678,0.000431,0.000588
36272000,0.0324,0.013523,0.002678,0.000431,0.000353
36273000,0.0324,0.013523,0.002678,0.000431,0.000470
36274000,0.0324,0.013523,0.002678,0.000431,0.000470
36275000,0.0324,0.013523,0.002678,0.000431,0.000470
36276000,0.0324,0.013523,0.002678,0.000431,0.000470
36277000,0.0324,0.013523,0.002678,0.000431,0.000470
36278000,0.0324,0.013523,0.002678,0.000431,0.000470
36279000,0.0324,0.013523,0.002678,0.000431,0.000470
36280000,0.0324,0.013523,0.002678,0.000431,0.000470
36281000,0.0324,0.013523,0.002678,0.000431,0.000588
36282000,0.0324,0.013523,0.002678,0.000431,0.000470
36283000,0.0324,0.013523,0.002678,0.000431,0.000705
36284000,0.0324,0.013523,0.002678,0.000431,0.000235
36285000,0.0324,0.013523,0.002678,0.000431,0.000705
36286000,0.0324,0.013523,0.002678,0.000431,0.000353
36287000,0.0324,0.013523,0.002678,0.000431,0.000705
36288000,0.0324,0.013523,0.002678,0.000431,0.000470
36289000,0.0324,0.013523,0.002678,0.000431,0.000470
36290000,0.0324,0.013523,0.002678,0.000431,0.000588
36291000,0.0324,0.013523,0.002678,0.000431,0.000470
36292000,0.0324,0.013523,0.002678,0.000431,0.000705
36293000,0.0324,0.013523,0.002678,0.000431,0.000353
36294000,0.0324,0.013523,0.002678,0.000431,0.000588
36295000,0.0324,0.013523,0.002678,0.000431,0.000353
36296000,0.0324,0.013523,0.002678,0.000431,0.000588
36297000,0.0324,0.013523,0.002678,0.000431,0.000353
36298000,0.0324,0.013523,0.002678,0.000431,0.000588
36299000,0.0324,0.013523,0.002678,0.000431,0.000470
36300000,0.0324,0.013523,0.002678,0.000431,0.000705
36301000,0.0324,0.013523,0.002678,0.000431,0.000235
36302000,0.0324,0.013523,0.002678,0.000431,0.000705
36303000,0.0324,0.013523,0.002678,0.000431,0.000353
36304000,0.0324,0.013523,0.002678,0.000431,0.000705
36305000,0.0324,0.013523,0.002678,0.000431,0.000588
36306000,0.0324,0.013523,0.002678,0.000431,0.000470
36307000,0.0324,0.013523,0.002678,0.000431,0.000705
36308000,0.0324,0.013523,0.002678,0.000431,0.000353
36309000,0.0324,0.013523,0.002678,0.000431,0.000588
36310000,0.0324,0.013523,0.002678,0.000431,0.000353
36311000,0.0324,0.013523,0.002678,0.000431,0.000588
36312000,0.0324,0.013523,0.002678,0.000431,0.000353
36313000,0.0324,0.013523,0.002678,0.000431,0.000588
36314000,0.0324,0.013523,0.002678,0.000431,0.000353
36315000,0.0324,0.013523,0.002678,0.000431,0.000588
36316000,0.0324,0.013523,0.002678,0.000431,0.000353
36317000,0.0324,0.013523,0.002678,0.000431,0.000470
36318000,0.0324,0.013523,0.002678,0.000431,0.000470
36319000,0.0324,0.013523,0.002678,0.000431,0.000470
36320000,0.0324,0.013523,0.002678,0.000431,0.000470
36321000,0.0324,0.013523,0.002678,0.000431,0.000470
36322000,0.0324,0.013523,0.002678,0.000431,0.000470
36323000,0.0324,0.013523,0.002678,0.000431,0.000470
36324000,0.0324,0.013523,0.002678,0.000431,0.000470
36325000,0.0324,0.013523,0.002678,0.000431,0.000588
36326000,0.0324,0.013523,0.002678,0.000431,0.000470
36327000,0.0324,0.013523,0.002678,0.000431,0.000705
36328000,0.0324,0.013523,0.002678,0.000431,0.000353
36329000,0.0324,0.013523,0.002678,0.000431,0.000705
36330000,0.0324,0.013523,0.002678,0.000431,0.000470
36331000,0.0324,0.013523,0.002678,0.000431,0.000470
36332000,0.0324,0.013523,0.002678,0.000431,0.000470
36333000,0.0324,0.013523,0.002678,0.000431,0.000470
36334000,0.0324,0.013523,0.002678,0.000431,0.000470
36335000,0.0324,0.013523,0.002678,0.000431,0.000470
36336000,0.0324,0.013523,0.002678,0.000431,0.000470
36337000,0.0324,0.013523,0.002678,0.000431,0.000470
36338000,0.0324,0.013523,0.002678,0.000431,0.000235
36339000,0.0324,0.013523,0.002678,0.000431,0.000705
36340000,0.0324,0.013523,0.002678,0.000431,0.000353
36341000,0.0324,0.013523,0.002678,0.000431,0.000588
36342000,0.0324,0.013523,0.002678,0.000431,0.000353
36343000,0.0324,0.013523,0.002678,0.000431,0.000705
36344000,0.0324,0.013523,0.002678,0.000431,0.000353
36345000,0.0324,0.013523,0.002678,0.000431,0.000588
36346000,0.0324,0.013523,0.002678,0.000431,0.000353
36347000,0.0324,0.013523,0.002678,0.000431,0.000588
36348000,0.0324,0.013523,0.002678,0.000431,0.000353
36349000,0.0324,0.013523,0.002678,0.000431,0.000588
36350000,0.0324,0.013523,0.002678,0.000431,0.000353
36351000,0.0324,0.013523,0.002678,0.000431,0.000588
36352000,0.0324,0.013523,0.002678,0.000431,0.000353
36353000,0.0324,0.013523,0.002678,0.000431,0.000588
36354000,0.0324,0.013523,0.002678,0.000431,0.000353
36355000,0.0324,0.013523,0.002678,0.000431,0.000588
36356000,0.0324,0.013523,0.002678,0.000431,0.000353
36357000,0.0324,0.013523,0.002678,0.000431,0.000470
36358000,0.0324,0.013523,0.002678,0.000431,0.000470
36359000,0.0324,0.013523,0.002678,0.000431,0.000588
36360000,0.0324,0.013523,0.002678,0.000431,0.000588
36361000,0.0324,0.013523,0.002678,0.000431,0.000470
36362000,0.0324,0.013523,0.002678,0.000431,0.000353
36363000,0.0324,0.013523,0.002678,0.000431,0.000588
36364000,0.0324,0.013523,0.002678,0.000431,0.000470
36365000,0.0324,0.013523,0.002678,0.000431,0.000588
36366000,0.0324,0.013523,0.002678,0.000431,0.000470
36367000,0.0324,0.013523,0.002678,0.000431,0.000588
36368000,0.0324,0.013523,0.002678,0.000431,0.000353
36369000,0.0324,0.013523,0.002678,0.000431,0.000705
36370000,0.0324,0.013523,0.002678,0.000431,0.000353
36371000,0.0324,0.013523,0.002678,0.000431,0.000588
36372000,0.0324,0.013523,0.002678,0.000431,0.000235
36373000,0.0324,0.013523,0.002678,0.000431,0.000705
36374000,0.0324,0.013523,0.002678,0.000431,0.000353
36375000,0.0324,0.013523,0.002678,0.000431,0.000705
36376000,0.0324,0.013523,0.002678,0.000431,0.000588
36377000,0.0324,0.013523,0.002678,0.000431,0.000470
36378000,0.0324,0.013523,0.002678,0.000431,0.000588
36379000,0.0324,0.013523,0.002678,0.000431,0.000353
36380000,0.0324,0.013523,0.002678,0.000431,0.000588
36381000,0.0324,0.013523,0.002678,0.000431,0.000353
36382000,0.0324,0.013523,0.002678,0.000431,0.000588
36383000,0.0324,0.013523,0.002678,0.000431,0.000353
36384000,0.0324,0.013523,0.002678,0.000431,0.000470
36385000,0.0324,0.013523,0.002678,0.000431,0.000470
36386000,0.0324,0.013523,0.002678,0.000431,0.000353
36387000,0.0324,0.013523,0.002678,0.000431,0.000588
36388000,0.0324,0.013523,0.002678,0.000431,0.000353
36389000,0.0324,0.013523,0.002678,0.000431,0.000588
36390000,0.0324,0.013523,0.002678,0.000431,0.000353
36391000,0.0324,0.013523,0.002678,0.000431,0.000588
36392000,0.0324,0.013523,0.002678,0.000431,0.000353
36393000,0.0324,0.013523,0.002678,0.000431,0.000588
36394000,0.0324,0.013523,0.002678,0.000431,0.000353
36395000,0.0324,0.013523,0.002678,0.000431,0.000588
36396000,0.0324,0.013523,0.002678,0.000431,0.000353
36397000,0.0324,0.013523,0.002678,0.000431,0.000588
36398000,0.0324,0.013523,0.002678,0.000431,0.000353
36399000,0.0324,0.013523,0.002678,0.000431,0.000588
36400000,0.0324,0.013523,0.002678,0.000431,0.000353
36401000,0.0324,0.013523,0.002678,0.000431,0.000823
36402000,0.0324,0.013523,0.002678,0.000431,0.000353
36403000,0.0324,0.013523,0.002678,0.000431,0.000470
36404000,0.0324,0.013523,0.002678,0.000431,0.000470
36405000,0.0324,0.013523,0.002678,0.000431,0.000470
36406000,0.0324,0.013523,0.002678,0.000431,0.000470
36407000,0.0324,0.013523,0.002678,0.000431,0.000470
36408000,0.0324,0.013523,0.002678,0.000431,0.000470
36409000,0.0324,0.013523,0.002678,0.000431,0.000470
36410000,0.0324,0.013523,0.002678,0.000431,0.000470
36411000,0.0324,0.013523,0.002678,0.000431,0.000588
36412000,0.0324,0.013523,0.002678,0.000431,0.000470
36413000,0.0324,0.013523,0.002678,0.000431,0.000705
36414000,0.0324,0.013523,0.002678,0.000431,0.000353
36415000,0.0324,0.013523,0.002678,0.000431,0.000588
36416000,0.0324,0.013523,0.002678,0.000431,0.000353
36417000,0.0324,0.013523,0.002678,0.000431,0.000705
36418000,0.0324,0.013523,0.002678,0.000431,0.000588
36419000,0.0324,0.013523,0.002678,0.000431,0.000470
36420000,0.0324,0.013523,0.002678,0.000431,0.000705
36421000,0.0324,0.013523,0.002678,0.000431,0.000353
36422000,0.0324,0.013523,0.002678,0.000431,0.000705
36423000,0.0324,0.013523,0.002678,0.000431,0.000353
36424000,0.0324,0.013523,0.002678,0.000431,0.000705
36425000,0.0324,0.013523,0.002678,0.000431,0.000353
36426000,0.0324,0.013523,0.002678,0.000431,0.000588
36427000,0.0324,0.013523,0.002678,0.000431,0.000353
36428000,0.0324,0.013523,0.002678,0.000431,0.000470
36429000,0.0324,0.013523,0.002678,0.000431,0.000470
36430000,0.0324,0.013523,0.002678,0.000431,0.000470
36431000,0.0324,0.013523,0.002678,0.000431,0.000470
36432000,0.0324,0.013523,0.002678,0.000431,0.000470
36433000,0.0324,0.013523,0.002678,0.000431,0.000470
36434000,0.0324,0.013523,0.002678,0.000431,0.000588
36435000,0.0324,0.013523,0.002678,0.000431,0.000353
36436000,0.0324,0.013523,0.002678,0.000431,0.000588
36437000,0.0324,0.013523,0.002678,0.000431,0.000353
36438000,0.0324,0.013523,0.002678,0.000431,0.000470
36439000,0.0324,0.013523,0.002678,0.000431,0.000353
36440000,0.0324,0.013523,0.002678,0.000431,0.000705
36441000,0.0324,0.013523,0.002678,0.000431,0.000353
36442000,0.0324,0.013523,0.002678,0.000431,0.000705
36443000,0.0324,0.013523,0.002678,0.000431,0.000588
36444000,0.0324,0.013523,0.002678,0.000431,0.000470
36445000,0.0324,0.013523,0.002678,0.000431,0.000705
36446000,0.0324,0.013523,0.002678,0.000431,0.000353
36447000,0.0324,0.013523,0.002678,0.000431,0.000588
36448000,0.0324,0.013523,0.002678,0.000431,0.000470
36449000,0.0324,0.013523,0.002678,0.000431,0.000705
36450000,0.0324,0.013523,0.002678,0.000431,0.000235
36451000,0.0324,0.013523,0.002678,0.000431,0.000705
36452000,0.0324,0.013523,0.002678,0.000431,0.000353
36453000,0.0324,0.013523,0.002678,0.000431,0.000705
36454000,0.0324,0.013523,0.002678,0.000431,0.000470
36455000,0.0324,0.013523,0.002678,0.000431,0.000470
36456000,0.0324,0.013523,0.002678,0.000431,0.000470
36457000,0.0324,0.013523,0.002678,0.000431,0.000470
36458000,0.0324,0.013523,0.002678,0.000431,0.000470
36459000,0.0324,0.013523,0.002678,0.000431,0.000470
36460000,0.0324,0.013523,0.002678,0.000431,0.000470
36461000,0.0324,0.013523,0.002678,0.000431,0.000588
36462000,0.0324,0.013523,0.002678,0.000431,0.000353
36463000,0.0324,0.013523,0.002678,0.000431,0.000470
36464000,0.0324,0.013523,0.002678,0.000431,0.000470
36465000,0.0324,0.013523,0.002678,0.000431,0.000588
36466000,0.0324,0.013523,0.002678,0.000431,0.000588
36467000,0.0324,0.013523,0.002678,0.000431,0.000470
36468000,0.0324,0.013523,0.002678,0.000431,0.000353
36469000,0.0324,0.013523,0.002678,0.000431,0.000588
36470000,0.0324,0.013523,0.002678,0.000431,0.000353
36471000,0.0324,0.013523,0.002678,0.000431,0.000588
36472000,0.0324,0.013523,0.002678,0.000431,0.000353
36473000,0.0324,0.013523,0.002678,0.000431,0.000588
36474000,0.0324,0.013523,0.002678,0.000431,0.000353
36475000,0.0324,0.013523,0.002678,0.000431,0.000588
36476000,0.0324,0.013523,0.002678,0.000431,0.000353
36477000,0.0324,0.013523,0.002678,0.000431,0.000588
36478000,0.0324,0.013523,0.002678,0.000431,0.000353
36479000,0.0324,0.013523,0.002678,0.000431,0.000588
36480000,0.0324,0.013523,0.002678,0.000431,0.000353
36481000,0.0324,0.013523,0.002678,0.000431,0.000470
36482000,0.0324,0.013523,0.002678,0.000431,0.000353
36483000,0.0324,0.013523,0.002678,0.000431,0.000823
36484000,0.0324,0.013523,0.002678,0.000431,0.000353
36485000,0.0324,0.013523,0.002678,0.000431,0.000588
36486000,0.0324,0.013523,0.002678,0.000431,0.000353
36487000,0.0324,0.013523,0.002678,0.000431,0.000705
36488000,0.0324,0.013523,0.002678,0.000431,0.000588
36489000,0.0324,0.013523,0.002678,0.000431,0.000470
36490000,0.0324,0.013523,0.002678,0.000431,0.000588
36491000,0.0324,0.013523,0.002678,0.000431,0.000353
36492000,0.0324,0.013523,0.002678,0.000431,0.000588
36493000,0.0324,0.013523,0.002678,0.000431,0.000470
36494000,0.0324,0.013523,0.002678,0.000431,0.000470
36495000,0.0324,0.013523,0.002678,0.000431,0.000353
36496000,0.0324,0.013523,0.002678,0.000431,0.000588
36497000,0.0324,0.013523,0.002678,0.000431,0.000353
36498000,0.0324,0.013523,0.002678,0.000431,0.000470
36499000,0.0324,0.013523,0.002678,0.000431,0.000470
36500000,0.0324,0.013523,0.002678,0.000431,0.000470
36501000,0.0324,0.013523,0.002678,0.000431,0.000470
36502000,0.0324,0.013523,0.002678,0.000431,0.000353
36503000,0.0324,0.013523,0.002678,0.000431,0.000705
36504000,0.0324,0.013523,0.002678,0.000431,0.000588
36505000,0.0324,0.013523,0.002678,0.000431,0.000470
36506000,0.0324,0.013523,0.002678,0.000431,0.000705
36507000,0.0324,0.013523,0.002678,0.000431,0.000353
36508000,0.0324,0.013523,0.002678,0.000431,0.000705
36509000,0.0324,0.013523,0.002678,0.000431,0.000353
36510000,0.0324,0.013523,0.002678,0.000431,0.000588
36511000,0.0324,0.013523,0.002678,0.000431,0.000588
36512000,0.0324,0.013523,0.002678,0.000431,0.000470
36513000,0.0324,0.013523,0.002678,0.000431,0.000705
36514000,0.0324,0.013523,0.002678,0.000431,0.000353
36515000,0.0324,0.013523,0.002678,0.000431,0.000705
36516000,0.0324,0.013523,0.002678,0.000431,0.000470
36517000,0.0324,0.013523,0.002678,0.000431,0.000470
36518000,0.0324,0.013523,0.002678,0.000431,0.000470
36519000,0.0324,0.013523,0.002678,0.000431,0.000588
36520000,0.0324,0.013523,0.002678,0.000431,0.000353
36521000,0.0324,0.013523,0.002678,0.000431,0.000588
36522000,0.0324,0.013523,0.002678,0.000431,0.000470
36523000,0.0324,0.013523,0.002678,0.000431,0.000588
36524000,0.0324,0.013523,0.002678,0.000431,0.000588
36525000,0.0324,0.013523,0.002678,0.000431,0.000470
36526000,0.0324,0.013523,0.002678,0.000431,0.000588
36527000,0.0324,0.013523,0.002678,0.000431,0.000353
36528000,0.0324,0.013523,0.002678,0.000431,0.000588
36529000,0.0324,0.013523,0.002678,0.000431,0.000353
36530000,0.0324,0.013523,0.002678,0.000431,0.000588
36531000,0.0324,0.013523,0.002678,0.000431,0.000353
36532000,0.0324,0.013523,0.002678,0.000431,0.000588
36533000,0.0324,0.013523,0.002678,0.000431,0.000353
36534000,0.0324,0.013523,0.002678,0.000431,0.000588
36535000,0.0324,0.013523,0.002678,0.000431,0.000353
36536000,0.0324,0.013523,0.002678,0.000431,0.000470
36537000,0.0324,0.013523,0.002678,0.000431,0.000470
36538000,0.0324,0.013523,0.002678,0.000431,0.000470
36539000,0.0324,0.013523,0.002678,0.000431,0.000470
36540000,0.0324,0.013523,0.002678,0.000431,0.000353
36541000,0.0324,0.013523,0.002678,0.000431,0.000470
36542000,0.0324,0.013523,0.002678,0.000431,0.000470
36543000,0.0324,0.013523,0.002678,0.000431,0.000470
36544000,0.0324,0.013523,0.002678,0.000431,0.000470
36545000,0.0324,0.013523,0.002678,0.000431,0.000470
36546000,0.0324,0.013523,0.002678,0.000431,0.000470
36547000,0.0324,0.013523,0.002678,0.000431,0.000470
36548000,0.0324,0.013523,0.002678,0.000431,0.000470
36549000,0.0324,0.013523,0.002678,0.000431,0.000470
36550000,0.0324,0.013523,0.002678,0.000431,0.000470
36551000,0.0324,0.013523,0.002678,0.000431,0.000470
36552000,0.0324,0.013523,0.002678,0.000431,0.000470
36553000,0.0324,0.013523,0.002678,0.000431,0.000470
36554000,0.0324,0.013523,0.002678,0.000431,0.000470
36555000,0.0324,0.013523,0.002678,0.000431,0.000470
36556000,0.0324,0.013523,0.002678,0.000431,0.000353
36557000,0.0324,0.013523,0.002678,0.000431,0.000588
36558000,0.0324,0.013523,0.002678,0.000431,0.000353
36559000,0.0324,0.013523,0.002678,0.000431,0.000588
36560000,0.0324,0.013523,0.002678,0.000431,0.000353
36561000,0.0324,0.013523,0.002678,0.000431,0.000705
36562000,0.0324,0.013523,0.002678,0.000431,0.000353
36563000,0.0324,0.013523,0.002678,0.000431,0.000588
36564000,0.0324,0.013523,0.002678,0.000431,0.000353
36565000,0.0324,0.013523,0.002678,0.000431,0.000470
36566000,0.0324,0.013523,0.002678,0.000431,0.000470
36567000,0.0324,0.013523,0.002678,0.000431,0.000588
36568000,0.0324,0.013523,0.002678,0.000431,0.000353
36569000,0.0324,0.013523,0.002678,0.000431,0.000470
36570000,0.0324,0.013523,0.002678,0.000431,0.000470
36571000,0.0324,0.013523,0.002678,0.000431,0.000470
36572000,0.0324,0.013523,0.002678,0.000431,0.000353
36573000,0.0324,0.013523,0.002678,0.000431,0.000588
36574000,0.0324,0.013523,0.002678,0.000431,0.000353
36575000,0.0324,0.013523,0.002678,0.000431,0.000588
36576000,0.0324,0.013523,0.002678,0.000431,0.000353
36577000,0.0324,0.013523,0.002678,0.000431,0.000588
36578000,0.0324,0.013523,0.002678,0.000431,0.000353
36579000,0.0324,0.013523,0.002678,0.000431,0.000588
36580000,0.0324,0.013523,0.002678,0.000431,0.000353
36581000,0.0324,0.013523,0.002678,0.000431,0.000705
36582000,0.0324,0.013523,0.002678,0.000431,0.000353
36583000,0.0324,0.013523,0.002678,0.000431,0.000705
36584000,0.0324,0.013523,0.002678,0.000431,0.000470
36585000,0.0324,0.013523,0.002678,0.000431,0.000470
36586000,0.0324,0.013523,0.002678,0.000431,0.000470
36587000,0.0324,0.013523,0.002678,0.000431,0.000470
36588000,0.0324,0.013523,0.002678,0.000431,0.000470
36589000,0.0324,0.013523,0.002678,0.000431,0.000470
36590000,0.0324,0.013523,0.002678,0.000431,0.000470
36591000,0.0324,0.013523,0.002678,0.000431,0.000470
36592000,0.0324,0.013523,0.002678,0.000431,0.000353
36593000,0.0324,0.013523,0.002678,0.000431,0.000588
36594000,0.0324,0.013523,0.002678,0.000431,0.000353
36595000,0.0324,0.013523,0.002678,0.000431,0.000588
36596000,0.0324,0.013523,0.002678,0.000431,0.000353
36597000,0.0324,0.013523,0.002678,0.000431,0.000588
36598000,0.0324,0.013523,0.002678,0.000431,0.000353
36599000,0.0324,0.013523,0.002678,0.000431,0.000705
36600000,0.0324,0.013523,0.002678,0.000431,0.000353
36601000,0.0324,0.013523,0.002678,0.000431,0.000588
36602000,0.0324,0.013523,0.002678,0.000431,0.000353
36603000,0.0324,0.013523,0.002678,0.000431,0.000588
36604000,0.0324,0.013523,0.002678,0.000431,0.000353
36605000,0.0324,0.013523,0.002678,0.000431,0.000588
36606000,0.0324,0.013523,0.002678,0.000431,0.000353
36607000,0.0324,0.013523,0.002678,0.000431,0.000705
36608000,0.0324,0.013523,0.002678,0.000431,0.000353
36609000,0.0324,0.013523,0.002678,0.000431,0.000470
36610000,0.0324,0.013523,0.002678,0.000431,0.000353
36611000,0.0324,0.013523,0.002678,0.000431,0.000823
36612000,0.0324,0.013523,0.002678,0.000431,0.000353
36613000,0.0324,0.013523,0.002678,0.000431,0.000588
36614000,0.0324,0.013523,0.002678,0.000431,0.000470
36615000,0.0324,0.013523,0.002678,0.000431,0.000588
36616000,0.0324,0.013523,0.002678,0.000431,0.000353
36617000,0.0324,0.013523,0.002678,0.000431,0.000588
36618000,0.0324,0.013523,0.002678,0.000431,0.000470
36619000,0.0324,0.013523,0.002678,0.000431,0.000588
36620000,0.0324,0.013523,0.002678,0.000431,0.000470
36621000,0.0324,0.013523,0.002678,0.000431,0.000588
36622000,0.0324,0.013523,0.002678,0.000431,0.000353
36623000,0.0324,0.013523,0.002678,0.000431,0.000588
36624000,0.0324,0.013523,0.002678,0.000431,0.000353
36625000,0.0324,0.013523,0.002678,0.000431,0.000588
36626000,0.0324,0.013523,0.002678,0.000431,0.000353
36627000,0.0324,0.013523,0.002678,0.000431,0.000705
36628000,0.0324,0.013523,0.002678,0.000431,0.000353
36629000,0.0324,0.013523,0.002678,0.000431,0.000705
36630000,0.0324,0.013523,0.002678,0.000431,0.000588
36631000,0.0324,0.013523,0.002678,0.000431,0.000470
36632000,0.0324,0.013523,0.002678,0.000431,0.000705
36633000,0.0324,0.013523,0.002678,0.000431,0.000235
36634000,0.0324,0.013523,0.002678,0.000431,0.000705
36635000,0.0324,0.013523,0.002678,0.000431,0.000353
36636000,0.0324,0.013523,0.002678,0.000431,0.000705
36637000,0.0324,0.013523,0.002678,0.000431,0.000470
36638000,0.0324,0.013523,0.002678,0.000431,0.000470
36639000,0.0324,0.013523,0.002678,0.000431,0.000470
36640000,0.0324,0.013523,0.002678,0.000431,0.000470
36641000,0.0324,0.013523,0.002678,0.000431,0.000470
36642000,0.0324,0.013523,0.002678,0.000431,0.000470
36643000,0.0324,0.013523,0.002678,0.000431,0.000470
36644000,0.0324,0.013523,0.002678,0.000431,0.000470
36645000,0.0324,0.013523,0.002678,0.000431,0.000470
36646000,0.0324,0.013523,0.002678,0.000431,0.000470
36647000,0.0324,0.013523,0.002678,0.000431,0.000470
36648000,0.0324,0.013523,0.002678,0.000431,0.000470
36649000,0.0324,0.013523,0.002678,0.000431,0.000470
36650000,0.0324,0.013523,0.002678,0.000431,0.000588
36651000,0.0324,0.013523,0.002678,0.000431,0.000353
36652000,0.0324,0.013523,0.002678,0.000431,0.000588
36653000,0.0324,0.013523,0.002678,0.000431,0.000353
36654000,0.0324,0.013523,0.002678,0.000431,0.000588
36655000,0.0324,0.013523,0.002678,0.000431,0.000353
36656000,0.0324,0.013523,0.002678,0.000431,0.000823
36657000,0.0324,0.013523,0.002678,0.000431,0.000235
36658000,0.0324,0.013523,0.002678,0.000431,0.000705
36659000,0.0324,0.013523,0.002678,0.000431,0.000470
36660000,0.0324,0.013523,0.002678,0.000431,0.000470
36661000,0.0324,0.013523,0.002678,0.000431,0.000353
36662000,0.0324,0.013523,0.002678,0.000431,0.000705
36663000,0.0324,0.013523,0.002678,0.000431,0.000353
36664000,0.0324,0.013523,0.002678,0.000431,0.000588
36665000,0.0324,0.013523,0.002678,0.000431,0.000353
36666000,0.0324,0.013523,0.002678,0.000431,0.000470
36667000,0.0324,0.013523,0.002678,0.000431,0.000353
36668000,0.0324,0.013523,0.002678,0.000431,0.000588
36669000,0.0324,0.013523,0.002678,0.000431,0.000353
36670000,0.0324,0.013523,0.002678,0.000431,0.000705
36671000,0.0324,0.013523,0.002678,0.000431,0.000353
36672000,0.0324,0.013523,0.002678,0.000431,0.000588
36673000,0.0324,0.013523,0.002678,0.000431,0.000353
36674000,0.0324,0.013523,0.002678,0.000431,0.000705
36675000,0.0324,0.013523,0.002678,0.000431,0.000353
36676000,0.0324,0.013523,0.002678,0.000431,0.000705
36677000,0.0324,0.013523,0.002678,0.000431,0.000470
36678000,0.0324,0.013523,0.002678,0.000431,0.000470
36679000,0.0324,0.013523,0.002678,0.000431,0.000470
36680000,0.0324,0.013523,0.002678,0.000431,0.000470
36681000,0.0324,0.013523,0.002678,0.000431,0.000353
36682000,0.0324,0.013523,0.002678,0.000431,0.000588
36683000,0.0324,0.013523,0.002678,0.000431,0.000353
36684000,0.0324,0.013523,0.002678,0.000431,0.000470
36685000,0.0324,0.013523,0.002678,0.000431,0.000353
36686000,0.0324,0.013523,0.002678,0.000431,0.000705
36687000,0.0324,0.013523,0.002678,0.000431,0.000353
36688000,0.0324,0.013523,0.002678,0.000431,0.000588
36689000,0.0324,0.013523,0.002678,0.000431,0.000353
36690000,0.0324,0.013523,0.002678,0.000431,0.000470
36691000,0.0324,0.013523,0.002678,0.000431,0.000470
36692000,0.0324,0.013523,0.002678,0.000431,0.000705
36693000,0.0324,0.013523,0.002678,0.000431,0.000470
36694000,0.0324,0.013523,0.002678,0.000431,0.000588
36695000,0.0324,0.013523,0.002678,0.000431,0.000353
36696000,0.0324,0.013523,0.002678,0.000431,0.000588
36697000,0.0324,0.013523,0.002678,0.000431,0.000353
36698000,0.0324,0.013523,0.002678,0.000431,0.000588
36699000,0.0324,0.013523,0.002678,0.000431,0.000353
36700000,0.0324,0.013523,0.002678,0.000431,0.000588
36701000,0.0324,0.013523,0.002678,0.000431,0.000353
36702000,0.0324,0.013523,0.002678,0.000431,0.000588
36703000,0.0324,0.013523,0.002678,0.000431,0.000353
36704000,0.0324,0.013523,0.002678,0.000431,0.000588
36705000,0.0324,0.013523,0.002678,0.000431,0.000353
36706000,0.0324,0.013523,0.002678,0.000431,0.000470
36707000,0.0324,0.013523,0.002678,0.000431,0.000470
36708000,0.0324,0.013523,0.002678,0.000431,0.000470
36709000,0.0324,0.013523,0.002678,0.000431,0.000588
36710000,0.0324,0.013523,0.002678,0.000431,0.000470
36711000,0.0324,0.013523,0.002678,0.000431,0.000588
36712000,0.0324,0.013523,0.002678,0.000431,0.000353
36713000,0.0324,0.013523,0.002678,0.000431,0.000470
36714000,0.0324,0.013523,0.002678,0.000431,0.000470
36715000,0.0324,0.013523,0.002678,0.000431,0.000470
36716000,0.0324,0.013523,0.002678,0.000431,0.000470
36717000,0.0324,0.013523,0.002678,0.000431,0.000470
36718000,0.0324,0.013523,0.002678,0.000431,0.000470
36719000,0.0324,0.013523,0.002678,0.000431,0.000588
36720000,0.0324,0.013523,0.002678,0.000431,0.000353
36721000,0.0324,0.013523,0.002678,0.000431,0.000470
36722000,0.0324,0.013523,0.002678,0.000431,0.000470
36723000,0.0324,0.013523,0.002678,0.000431,0.000588
36724000,0.0324,0.013523,0.002678,0.000431,0.000353
36725000,0.0324,0.013523,0.002678,0.000431,0.000705
36726000,0.0324,0.013523,0.002678,0.000431,0.000588
36727000,0.0324,0.013523,0.002678,0.000431,0.000470
36728000,0.0324,0.013523,0.002678,0.000431,0.000705
36729000,0.0324,0.013523,0.002678,0.000431,0.000235
36730000,0.0324,0.013523,0.002678,0.000431,0.000705
36731000,0.0324,0.013523,0.002678,0.000431,0.000353
36732000,0.0324,0.013523,0.002678,0.000431,0.000705
36733000,0.0324,0.013523,0.002678,0.000431,0.000588
36734000,0.0324,0.013523,0.002678,0.000431,0.000470
36735000,0.0324,0.013523,0.002678,0.000431,0.000588
36736000,0.0324,0.013523,0.002678,0.000431,0.000353
36737000,0.0324,0.013523,0.002678,0.000431,0.000705
36738000,0.0324,0.013523,0.002678,0.000431,0.000353
36739000,0.0324,0.013523,0.002678,0.000431,0.000705
36740000,0.0324,0.013523,0.002678,0.000431,0.000353
36741000,0.0324,0.013523,0.002678,0.000431,0.000588
36742000,0.0324,0.013523,0.002678,0.000431,0.000588
36743000,0.0324,0.013523,0.002678,0.000431,0.000470
36744000,0.0324,0.013523,0.002678,0.000431,0.000588
36745000,0.0324,0.013523,0.002678,0.000431,0.000353
36746000,0.0324,0.013523,0.002678,0.000431,0.000588
36747000,0.0324,0.013523,0.002678,0.000431,0.000353
36748000,0.0324,0.013523,0.002678,0.000431,0.000588
36749000,0.0324,0.013523,0.002678,0.000431,0.000353
36750000,0.0324,0.013523,0.002678,0.000431,0.000588
36751000,0.0324,0.013523,0.002678,0.000431,0.000353
36752000,0.0324,0.013523,0.002678,0.000431,0.000588
36753000,0.0324,0.013523,0.002678,0.000431,0.000353
36754000,0.0324,0.013523,0.002678,0.000431,0.000588
36755000,0.0324,0.013523,0.002678,0.000431,0.000353
36756000,0.0324,0.013523,0.002678,0.000431,0.000588
36757000,0.0324,0.013523,0.002678,0.000431,0.000353
36758000,0.0324,0.013523,0.002678,0.000431,0.000588
36759000,0.0324,0.013523,0.002678,0.000431,0.000353
36760000,0.0324,0.013523,0.002678,0.000431,0.000588
36761000,0.0324,0.013523,0.002678,0.000431,0.000353
36762000,0.0324,0.013523,0.002678,0.000431,0.000470
36763000,0.0324,0.013523,0.002678,0.000431,0.000470
36764000,0.0324,0.013523,0.002678,0.000431,0.000353
36765000,0.0324,0.013523,0.002678,0.000431,0.000588
36766000,0.0324,0.013523,0.002678,0.000431,0.000353
36767000,0.0324,0.013523,0.002678,0.000431,0.000588
36768000,0.0324,0.013523,0.002678,0.000431,0.000353
36769000,0.0324,0.013523,0.002678,0.000431,0.000588
36770000,0.0324,0.013523,0.002678,0.000431,0.000353
36771000,0.0324,0.013523,0.002678,0.000431,0.000705
36772000,0.0324,0.013523,0.002678,0.000431,0.000470
36773000,0.0324,0.013523,0.002678,0.000431,0.000470
36774000,0.0324,0.013523,0.002678,0.000431,0.000470
36775000,0.0324,0.013523,0.002678,0.000431,0.000470
36776000,0.0324,0.013523,0.002678,0.000431,0.000470
36777000,0.0324,0.013523,0.002678,0.000431,0.000470
36778000,0.0324,0.013523,0.002678,0.000431,0.000353
36779000,0.0324,0.013523,0.002678,0.000431,0.000588
36780000,0.0324,0.013523,0.002678,0.000431,0.000235
36781000,0.0324,0.013523,0.002678,0.000431,0.000705
36782000,0.0324,0.013523,0.002678,0.000431,0.000353
36783000,0.0324,0.013523,0.002678,0.000431,0.000588
36784000,0.0324,0.013523,0.002678,0.000431,0.000353
36785000,0.0324,0.013523,0.002678,0.000431,0.000705
36786000,0.0324,0.013523,0.002678,0.000431,0.000353
36787000,0.0324,0.013523,0.002678,0.000431,0.000588
36788000,0.0324,0.013523,0.002678,0.000431,0.000470
36789000,0.0324,0.013523,0.002678,0.000431,0.000588
36790000,0.0324,0.013523,0.002678,0.000431,0.000588
36791000,0.0324,0.013523,0.002678,0.000431,0.000588
36792000,0.0324,0.013523,0.002678,0.000431,0.000470
36793000,0.0324,0.013523,0.002678,0.000431,0.000470
36794000,0.0324,0.013523,0.002678,0.000431,0.000470
36795000,0.0324,0.013523,0.002678,0.000431,0.000470
36796000,0.0324,0.013523,0.002678,0.000431,0.000470
36797000,0.0324,0.013523,0.002678,0.000431,0.000470
36798000,0.0324,0.013523,0.002678,0.000431,0.000588
36799000,0.0324,0.013523,0.002678,0.000431,0.000470
36800000,0.0324,0.013523,0.002678,0.000431,0.000705
36801000,0.0324,0.013523,0.002678,0.000431,0.000353
36802000,0.0324,0.013523,0.002678,0.000431,0.000588
36803000,0.0324,0.013523,0.002678,0.000431,0.000353
36804000,0.0324,0.013523,0.002678,0.000431,0.000588
36805000,0.0324,0.013523,0.002678,0.000431,0.000353
36806000,0.0324,0.013523,0.002678,0.000431,0.000588
36807000,0.0324,0.013523,0.002678,0.000431,0.000353
36808000,0.0324,0.013523,0.002678,0.000431,0.000470
36809000,0.0324,0.013523,0.002678,0.000431,0.000470
36810000,0.0324,0.013523,0.002678,0.000431,0.000588
36811000,0.0324,0.013523,0.002678,0.000431,0.000470
36812000,0.0324,0.013523,0.002678,0.000431,0.000705
36813000,0.0324,0.013523,0.002678,0.000431,0.000353
36814000,0.0324,0.013523,0.002678,0.000431,0.000705
36815000,0.0324,0.013523,0.002678,0.000431,0.000470
36816000,0.0324,0.013523,0.002678,0.000431,0.000470
36817000,0.0324,0.013523,0.002678,0.000431,0.000470
36818000,0.0324,0.013523,0.002678,0.000431,0.000470
36819000,0.0324,0.013523,0.002678,0.000431,0.000470
36820000,0.0324,0.013523,0.002678,0.000431,0.000470
36821000,0.0324,0.013523,0.002678,0.000431,0.000470
36822000,0.0324,0.013523,0.002678,0.000431,0.000470
36823000,0.0324,0.013523,0.002678,0.000431,0.000470
36824000,0.0324,0.013523,0.002678,0.000431,0.000470
36825000,0.0324,0.013523,0.002678,0.000431,0.000470
36826000,0.0324,0.013523,0.002678,0.000431,0.000470
36827000,0.0324,0.013523,0.002678,0.000431,0.000470
36828000,0.0324,0.013523,0.002678,0.000431,0.000470
36829000,0.0324,0.013523,0.002678,0.000431,0.000353
36830000,0.0324,0.013523,0.002678,0.000431,0.000588
36831000,0.0324,0.013523,0.002678,0.000431,0.000353
36832000,0.0324,0.013523,0.002678,0.000431,0.000588
36833000,0.0324,0.013523,0.002678,0.000431,0.000353
36834000,0.0324,0.013523,0.002678,0.000431,0.000588
36835000,0.0324,0.013523,0.002678,0.000431,0.000353
36836000,0.0324,0.013523,0.002678,0.000431,0.000588
36837000,0.0324,0.013523,0.002678,0.000431,0.000353
36838000,0.0324,0.013523,0.002678,0.000431,0.000588
36839000,0.0324,0.013523,0.002678,0.000431,0.000353
36840000,0.0324,0.013523,0.002678,0.000431,0.000588
36841000,0.0324,0.013523,0.002678,0.000431,0.000353
36842000,0.0324,0.013523,0.002678,0.000431,0.000588
36843000,0.0324,0.013523,0.002678,0.000431,0.000353
36844000,0.0324,0.013523,0.002678,0.000431,0.000588
36845000,0.0324,0.013523,0.002678,0.000431,0.000353
36846000,0.0324,0.013523,0.002678,0.000431,0.000588
36847000,0.0324,0.013523,0.002678,0.000431,0.000353
36848000,0.0324,0.013523,0.002678,0.000431,0.000705
36849000,0.0324,0.013523,0.002678,0.000431,0.000470
36850000,0.0324,0.013523,0.002678,0.000431,0.000470
36851000,0.0324,0.013523,0.002678,0.000431,0.000470
36852000,0.0324,0.013523,0.002678,0.000431,0.000588
36853000,0.0324,0.013523,0.002678,0.000431,0.000353
36854000,0.0324,0.013523,0.002678,0.000431,0.000705
36855000,0.0324,0.013523,0.002678,0.000431,0.000353
36856000,0.0324,0.013523,0.002678,0.000431,0.000705
36857000,0.0324,0.013523,0.002678,0.000431,0.000353
36858000,0.0324,0.013523,0.002678,0.000431,0.000588
36859000,0.0324,0.013523,0.002678,0.000431,0.000353
36860000,0.0324,0.013523,0.002678,0.000431,0.000588
36861000,0.0324,0.013523,0.002678,0.000431,0.000353
36862000,0.0324,0.013523,0.002678,0.000431,0.000705
36863000,0.0324,0.013523,0.002678,0.000431,0.000353
36864000,0.0324,0.013523,0.002678,0.000431,0.000705
36865000,0.0324,0.013523,0.002678,0.000431,0.000353
36866000,0.0324,0.013523,0.002678,0.000431,0.000705
36867000,0.0324,0.013523,0.002678,0.000431,0.000470
36868000,0.0324,0.013523,0.002678,0.000431,0.000470
36869000,0.0324,0.013523,0.002678,0.000431,0.000353
36870000,0.0324,0.013523,0.002678,0.000431,0.000588
36871000,0.0324,0.013523,0.002678,0.000431,0.000353
36872000,0.0324,0.013523,0.002678,0.000431,0.000470
36873000,0.0324,0.013523,0.002678,0.000431,0.000470
36874000,0.0324,0.013523,0.002678,0.000431,0.000588
36875000,0.0324,0.013523,0.002678,0.000431,0.000353
36876000,0.0324,0.013523,0.002678,0.000431,0.000470
36877000,0.0324,0.013523,0.002678,0.000431,0.000470
36878000,0.0324,0.013523,0.002678,0.000431,0.000470
36879000,0.0324,0.013523,0.002678,0.000431,0.000470
36880000,0.0324,0.013523,0.002678,0.000431,0.000470
36881000,0.0324,0.013523,0.002678,0.000431,0.000470
36882000,0.0324,0.013523,0.002678,0.000431,0.000470
36883000,0.0324,0.013523,0.002678,0.000431,0.000470
36884000,0.0324,0.013523,0.002678,0.000431,0.000470
36885000,0.0324,0.013523,0.002678,0.000431,0.000353
36886000,0.0324,0.013523,0.002678,0.000431,0.000588
36887000,0.0324,0.013523,0.002678,0.000431,0.000353
36888000,0.0324,0.013523,0.002678,0.000431,0.000588
36889000,0.0324,0.013523,0.002678,0.000431,0.000353
36890000,0.0324,0.013523,0.002678,0.000431,0.000588
36891000,0.0324,0.013523,0.002678,0.000431,0.000353
36892000,0.0324,0.013523,0.002678,0.000431,0.000588
36893000,0.0324,0.013523,0.002678,0.000431,0.000353
36894000,0.0324,0.013523,0.002678,0.000431,0.000588
36895000,0.0324,0.013523,0.002678,0.000431,0.000353
36896000,0.0324,0.013523,0.002678,0.000431,0.000588
36897000,0.0324,0.013523,0.002678,0.000431,0.000353
36898000,0.0324,0.013523,0.002678,0.000431,0.000588
36899000,0.0324,0.013523,0.002678,0.000431,0.000353
36900000,0.0324,0.013523,0.002678,0.000431,0.000588
36901000,0.0324,0.013523,0.002678,0.000431,0.000470
36902000,0.0324,0.013523,0.002678,0.000431,0.000470
36903000,0.0324,0.013523,0.002678,0.000431,0.000470
36904000,0.0324,0.013523,0.002678,0.000431,0.000470
36905000,0.0324,0.013523,0.002678,0.000431,0.000470
36906000,0.0324,0.013523,0.002678,0.000431,0.000470
36907000,0.0324,0.013523,0.002678,0.000431,0.000470
36908000,0.0324,0.013523,0.002678,0.000431,0.000353
36909000,0.0324,0.013523,0.002678,0.000431,0.000588
36910000,0.0324,0.013523,0.002678,0.000431,0.000470
36911000,0.0324,0.013523,0.002678,0.000431,0.000470
36912000,0.0324,0.013523,0.002678,0.000431,0.000470
36913000,0.0324,0.013523,0.002678,0.000431,0.000470
36914000,0.0324,0.013523,0.002678,0.000431,0.000470
36915000,0.0324,0.013523,0.002678,0.000431,0.000470
36916000,0.0324,0.013523,0.002678,0.000431,0.000470
36917000,0.0324,0.013523,0.002678,0.000431,0.000470
36918000,0.0324,0.013523,0.002678,0.000431,0.000470
36919000,0.0324,0.013523,0.002678,0.000431,0.000470
36920000,0.0324,0.013523,0.002678,0.000431,0.000470
36921000,0.0324,0.013523,0.002678,0.000431,0.000588
36922000,0.0324,0.013523,0.002678,0.000431,0.000470
36923000,0.0324,0.013523,0.002678,0.000431,0.000588
36924000,0.0324,0.013523,0.002678,0.000431,0.000353
36925000,0.0324,0.013523,0.002678,0.000431,0.000588
36926000,0.0324,0.013523,0.002678,0.000431,0.000470
36927000,0.0324,0.013523,0.002678,0.000431,0.000470
36928000,0.0324,0.013523,0.002678,0.000431,0.000470
36929000,0.0324,0.013523,0.002678,0.000431,0.000470
36930000,0.0324,0.013523,0.002678,0.000431,0.000470
36931000,0.0324,0.013523,0.002678,0.000431,0.000470
36932000,0.0324,0.013523,0.002678,0.000431,0.000353
36933000,0.0324,0.013523,0.002678,0.000431,0.000588
36934000,0.0324,0.013523,0.002678,0.000431,0.000470
36935000,0.0324,0.013523,0.002678,0.000431,0.000470
36936000,0.0324,0.013523,0.002678,0.000431,0.000353
36937000,0.0324,0.013523,0.002678,0.000431,0.000588
36938000,0.0324,0.013523,0.002678,0.000431,0.000353
36939000,0.0324,0.013523,0.002678,0.000431,0.000470
36940000,0.0324,0.013523,0.002678,0.000431,0.000705
36941000,0.0324,0.013523,0.002678,0.000431,0.000470
36942000,0.0324,0.013523,0.002678,0.000431,0.000470
36943000,0.0324,0.013523,0.002678,0.000431,0.000353
36944000,0.0324,0.013523,0.002678,0.000431,0.000588
36945000,0.0324,0.013523,0.002678,0.000431,0.000353
36946000,0.0324,0.013523,0.002678,0.000431,0.000588
36947000,0.0324,0.013523,0.002678,0.000431,0.000470
36948000,0.0324,0.013523,0.002678,0.000431,0.000588
36949000,0.0324,0.013523,0.002678,0.000431,0.000235
36950000,0.0324,0.013523,0.002678,0.000431,0.000588
36951000,0.0324,0.013523,0.002678,0.000431,0.000353
36952000,0.0324,0.013523,0.002678,0.000431,0.000588
36953000,0.0324,0.013523,0.002678,0.000431,0.000353
36954000,0.0324,0.013523,0.002678,0.000431,0.000588
36955000,0.0324,0.013523,0.002678,0.000431,0.000353
36956000,0.0324,0.013523,0.002678,0.000431,0.000470
36957000,0.0324,0.013523,0.002678,0.000431,0.000353
36958000,0.0324,0.013523,0.002678,0.000431,0.000588
36959000,0.0324,0.013523,0.002678,0.000431,0.000470
36960000,0.0324,0.013523,0.002678,0.000431,0.000470
36961000,0.0324,0.013523,0.002678,0.000431,0.000353
36962000,0.0324,0.013523,0.002678,0.000431,0.000588
36963000,0.0324,0.013523,0.002678,0.000431,0.000353
36964000,0.0324,0.013523,0.002678,0.000431,0.000588
36965000,0.0324,0.013523,0.002678,0.000431,0.000470
36966000,0.0324,0.013523,0.002678,0.000431,0.000588
36967000,0.0324,0.013523,0.002678,0.000431,0.000470
36968000,0.0324,0.013523,0.002678,0.000431,0.000705
36969000,0.0324,0.013523,0.002678,0.000431,0.000353
36970000,0.0324,0.013523,0.002678,0.000431,0.000705
36971000,0.0324,0.013523,0.002678,0.000431,0.000470
36972000,0.0324,0.013523,0.002678,0.000431,0.000470
36973000,0.0324,0.013523,0.002678,0.000431,0.000353
36974000,0.0324,0.013523,0.002678,0.000431,0.000588
36975000,0.0324,0.013523,0.002678,0.000431,0.000353
36976000,0.0324,0.013523,0.002678,0.000431,0.000588
36977000,0.0324,0.013523,0.002678,0.000431,0.000235
36978000,0.0324,0.013523,0.002678,0.000431,0.000588
36979000,0.0324,0.013523,0.002678,0.000431,0.000353
36980000,0.0324,0.013523,0.002678,0.000431,0.000588
36981000,0.0324,0.013523,0.002678,0.000431,0.000353
36982000,0.0324,0.013523,0.002678,0.000431,0.000588
36983000,0.0324,0.013523,0.002678,0.000431,0.000353
36984000,0.0324,0.013523,0.002678,0.000431,0.000588
36985000,0.0324,0.013523,0.002678,0.000431,0.000353
36986000,0.0324,0.013523,0.002678,0.000431,0.000705
36987000,0.0324,0.013523,0.002678,0.000431,0.000470
36988000,0.0324,0.013523,0.002678,0.000431,0.000470
36989000,0.0324,0.013523,0.002678,0.000431,0.000470
36990000,0.0324,0.013523,0.002678,0.000431,0.000470
36991000,0.0324,0.013523,0.002678,0.000431,0.000470
36992000,0.0324,0.013523,0.002678,0.000431,0.000470
36993000,0.0324,0.013523,0.002678,0.000431,0.000470
36994000,0.0324,0.013523,0.002678,0.000431,0.000470
36995000,0.0324,0.013523,0.002678,0.000431,0.000470
36996000,0.0324,0.013523,0.002678,0.000431,0.000470
36997000,0.0324,0.013523,0.002678,0.000431,0.000353
36998000,0.0324,0.013523,0.002678,0.000431,0.000588
36999000,0.0324,0.013523,0.002678,0.000431,0.000353
