Cycle,Area(mm^2),PeakDynamic(W),SubthresholdLeakage(W),GateLeakage(W),RunTimeDynamic(W)
11000000,0.0324,0.013523,0.002678,0.000431,0.000353
11001000,0.0324,0.013523,0.002678,0.000431,0.000588
11002000,0.0324,0.013523,0.002678,0.000431,0.000353
11003000,0.0324,0.013523,0.002678,0.000431,0.000588
11004000,0.0324,0.013523,0.002678,0.000431,0.000353
11005000,0.0324,0.013523,0.002678,0.000431,0.000588
11006000,0.0324,0.013523,0.002678,0.000431,0.000353
11007000,0.0324,0.013523,0.002678,0.000431,0.000588
11008000,0.0324,0.013523,0.002678,0.000431,0.000353
11009000,0.0324,0.013523,0.002678,0.000431,0.000588
11010000,0.0324,0.013523,0.002678,0.000431,0.000353
11011000,0.0324,0.013523,0.002678,0.000431,0.000705
11012000,0.0324,0.013523,0.002678,0.000431,0.000470
11013000,0.0324,0.013523,0.002678,0.000431,0.000705
11014000,0.0324,0.013523,0.002678,0.000431,0.000235
11015000,0.0324,0.013523,0.002678,0.000431,0.000705
11016000,0.0324,0.013523,0.002678,0.000431,0.000353
11017000,0.0324,0.013523,0.002678,0.000431,0.000705
11018000,0.0324,0.013523,0.002678,0.000431,0.000470
11019000,0.0324,0.013523,0.002678,0.000431,0.000588
11020000,0.0324,0.013523,0.002678,0.000431,0.000353
11021000,0.0324,0.013523,0.002678,0.000431,0.000705
11022000,0.0324,0.013523,0.002678,0.000431,0.000588
11023000,0.0324,0.013523,0.002678,0.000431,0.000470
11024000,0.0324,0.013523,0.002678,0.000431,0.000705
11025000,0.0324,0.013523,0.002678,0.000431,0.000353
11026000,0.0324,0.013523,0.002678,0.000431,0.000705
11027000,0.0324,0.013523,0.002678,0.000431,0.000353
11028000,0.0324,0.013523,0.002678,0.000431,0.000588
11029000,0.0324,0.013523,0.002678,0.000431,0.000588
11030000,0.0324,0.013523,0.002678,0.000431,0.000470
11031000,0.0324,0.013523,0.002678,0.000431,0.000588
11032000,0.0324,0.013523,0.002678,0.000431,0.000353
11033000,0.0324,0.013523,0.002678,0.000431,0.000705
11034000,0.0324,0.013523,0.002678,0.000431,0.000353
11035000,0.0324,0.013523,0.002678,0.000431,0.000705
11036000,0.0324,0.013523,0.002678,0.000431,0.000470
11037000,0.0324,0.013523,0.002678,0.000431,0.000470
11038000,0.0324,0.013523,0.002678,0.000431,0.000470
11039000,0.0324,0.013523,0.002678,0.000431,0.000588
11040000,0.0324,0.013523,0.002678,0.000431,0.000353
11041000,0.0324,0.013523,0.002678,0.000431,0.000588
11042000,0.0324,0.013523,0.002678,0.000431,0.000353
11043000,0.0324,0.013523,0.002678,0.000431,0.000588
11044000,0.0324,0.013523,0.002678,0.000431,0.000353
11045000,0.0324,0.013523,0.002678,0.000431,0.000470
11046000,0.0324,0.013523,0.002678,0.000431,0.000470
11047000,0.0324,0.013523,0.002678,0.000431,0.000470
11048000,0.0324,0.013523,0.002678,0.000431,0.000470
11049000,0.0324,0.013523,0.002678,0.000431,0.000470
11050000,0.0324,0.013523,0.002678,0.000431,0.000470
11051000,0.0324,0.013523,0.002678,0.000431,0.000470
11052000,0.0324,0.013523,0.002678,0.000431,0.000353
11053000,0.0324,0.013523,0.002678,0.000431,0.000705
11054000,0.0324,0.013523,0.002678,0.000431,0.000353
11055000,0.0324,0.013523,0.002678,0.000431,0.000705
11056000,0.0324,0.013523,0.002678,0.000431,0.000588
11057000,0.0324,0.013523,0.002678,0.000431,0.000470
11058000,0.0324,0.013523,0.002678,0.000431,0.000705
11059000,0.0324,0.013523,0.002678,0.000431,0.000353
11060000,0.0324,0.013523,0.002678,0.000431,0.000588
11061000,0.0324,0.013523,0.002678,0.000431,0.000353
11062000,0.0324,0.013523,0.002678,0.000431,0.000588
11063000,0.0324,0.013523,0.002678,0.000431,0.000353
11064000,0.0324,0.013523,0.002678,0.000431,0.000588
11065000,0.0324,0.013523,0.002678,0.000431,0.000353
11066000,0.0324,0.013523,0.002678,0.000431,0.000588
11067000,0.0324,0.013523,0.002678,0.000431,0.000353
11068000,0.0324,0.013523,0.002678,0.000431,0.000588
11069000,0.0324,0.013523,0.002678,0.000431,0.000353
11070000,0.0324,0.013523,0.002678,0.000431,0.000588
11071000,0.0324,0.013523,0.002678,0.000431,0.000353
11072000,0.0324,0.013523,0.002678,0.000431,0.000470
11073000,0.0324,0.013523,0.002678,0.000431,0.000353
11074000,0.0324,0.013523,0.002678,0.000431,0.000588
11075000,0.0324,0.013523,0.002678,0.000431,0.000470
11076000,0.0324,0.013523,0.002678,0.000431,0.000470
11077000,0.0324,0.013523,0.002678,0.000431,0.000470
11078000,0.0324,0.013523,0.002678,0.000431,0.000470
11079000,0.0324,0.013523,0.002678,0.000431,0.000353
11080000,0.0324,0.013523,0.002678,0.000431,0.000588
11081000,0.0324,0.013523,0.002678,0.000431,0.000353
11082000,0.0324,0.013523,0.002678,0.000431,0.000588
11083000,0.0324,0.013523,0.002678,0.000431,0.000353
11084000,0.0324,0.013523,0.002678,0.000431,0.000588
11085000,0.0324,0.013523,0.002678,0.000431,0.000353
11086000,0.0324,0.013523,0.002678,0.000431,0.000588
11087000,0.0324,0.013523,0.002678,0.000431,0.000470
11088000,0.0324,0.013523,0.002678,0.000431,0.000470
11089000,0.0324,0.013523,0.002678,0.000431,0.000470
11090000,0.0324,0.013523,0.002678,0.000431,0.000470
11091000,0.0324,0.013523,0.002678,0.000431,0.000353
11092000,0.0324,0.013523,0.002678,0.000431,0.000588
11093000,0.0324,0.013523,0.002678,0.000431,0.000470
11094000,0.0324,0.013523,0.002678,0.000431,0.000588
11095000,0.0324,0.013523,0.002678,0.000431,0.000470
11096000,0.0324,0.013523,0.002678,0.000431,0.000705
11097000,0.0324,0.013523,0.002678,0.000431,0.000353
11098000,0.0324,0.013523,0.002678,0.000431,0.000470
11099000,0.0324,0.013523,0.002678,0.000431,0.000470
11100000,0.0324,0.013523,0.002678,0.000431,0.000470
11101000,0.0324,0.013523,0.002678,0.000431,0.000470
11102000,0.0324,0.013523,0.002678,0.000431,0.000470
11103000,0.0324,0.013523,0.002678,0.000431,0.000470
11104000,0.0324,0.013523,0.002678,0.000431,0.000470
11105000,0.0324,0.013523,0.002678,0.000431,0.000470
11106000,0.0324,0.013523,0.002678,0.000431,0.000470
11107000,0.0324,0.013523,0.002678,0.000431,0.000470
11108000,0.0324,0.013523,0.002678,0.000431,0.000470
11109000,0.0324,0.013523,0.002678,0.000431,0.000470
11110000,0.0324,0.013523,0.002678,0.000431,0.000470
11111000,0.0324,0.013523,0.002678,0.000431,0.000470
11112000,0.0324,0.013523,0.002678,0.000431,0.000470
11113000,0.0324,0.013523,0.002678,0.000431,0.000470
11114000,0.0324,0.013523,0.002678,0.000431,0.000588
11115000,0.0324,0.013523,0.002678,0.000431,0.000470
11116000,0.0324,0.013523,0.002678,0.000431,0.000705
11117000,0.0324,0.013523,0.002678,0.000431,0.000353
11118000,0.0324,0.013523,0.002678,0.000431,0.000588
11119000,0.0324,0.013523,0.002678,0.000431,0.000353
11120000,0.0324,0.013523,0.002678,0.000431,0.000588
11121000,0.0324,0.013523,0.002678,0.000431,0.000470
11122000,0.0324,0.013523,0.002678,0.000431,0.000588
11123000,0.0324,0.013523,0.002678,0.000431,0.000470
11124000,0.0324,0.013523,0.002678,0.000431,0.000588
11125000,0.0324,0.013523,0.002678,0.000431,0.000353
11126000,0.0324,0.013523,0.002678,0.000431,0.000588
11127000,0.0324,0.013523,0.002678,0.000431,0.000353
11128000,0.0324,0.013523,0.002678,0.000431,0.000588
11129000,0.0324,0.013523,0.002678,0.000431,0.000353
11130000,0.0324,0.013523,0.002678,0.000431,0.000588
11131000,0.0324,0.013523,0.002678,0.000431,0.000353
11132000,0.0324,0.013523,0.002678,0.000431,0.000705
11133000,0.0324,0.013523,0.002678,0.000431,0.000353
11134000,0.0324,0.013523,0.002678,0.000431,0.000588
11135000,0.0324,0.013523,0.002678,0.000431,0.000353
11136000,0.0324,0.013523,0.002678,0.000431,0.000588
11137000,0.0324,0.013523,0.002678,0.000431,0.000353
11138000,0.0324,0.013523,0.002678,0.000431,0.000588
11139000,0.0324,0.013523,0.002678,0.000431,0.000353
11140000,0.0324,0.013523,0.002678,0.000431,0.000705
11141000,0.0324,0.013523,0.002678,0.000431,0.000353
11142000,0.0324,0.013523,0.002678,0.000431,0.000705
11143000,0.0324,0.013523,0.002678,0.000431,0.000353
11144000,0.0324,0.013523,0.002678,0.000431,0.000588
11145000,0.0324,0.013523,0.002678,0.000431,0.000470
11146000,0.0324,0.013523,0.002678,0.000431,0.000470
11147000,0.0324,0.013523,0.002678,0.000431,0.000470
11148000,0.0324,0.013523,0.002678,0.000431,0.000470
11149000,0.0324,0.013523,0.002678,0.000431,0.000470
11150000,0.0324,0.013523,0.002678,0.000431,0.000470
11151000,0.0324,0.013523,0.002678,0.000431,0.000470
11152000,0.0324,0.013523,0.002678,0.000431,0.000470
11153000,0.0324,0.013523,0.002678,0.000431,0.000470
11154000,0.0324,0.013523,0.002678,0.000431,0.000470
11155000,0.0324,0.013523,0.002678,0.000431,0.000470
11156000,0.0324,0.013523,0.002678,0.000431,0.000470
11157000,0.0324,0.013523,0.002678,0.000431,0.000470
11158000,0.0324,0.013523,0.002678,0.000431,0.000470
11159000,0.0324,0.013523,0.002678,0.000431,0.000470
11160000,0.0324,0.013523,0.002678,0.000431,0.000705
11161000,0.0324,0.013523,0.002678,0.000431,0.000470
11162000,0.0324,0.013523,0.002678,0.000431,0.000588
11163000,0.0324,0.013523,0.002678,0.000431,0.000353
11164000,0.0324,0.013523,0.002678,0.000431,0.000705
11165000,0.0324,0.013523,0.002678,0.000431,0.000588
11166000,0.0324,0.013523,0.002678,0.000431,0.000470
11167000,0.0324,0.013523,0.002678,0.000431,0.000705
11168000,0.0324,0.013523,0.002678,0.000431,0.000235
11169000,0.0324,0.013523,0.002678,0.000431,0.000705
11170000,0.0324,0.013523,0.002678,0.000431,0.000353
11171000,0.0324,0.013523,0.002678,0.000431,0.000705
11172000,0.0324,0.013523,0.002678,0.000431,0.000588
11173000,0.0324,0.013523,0.002678,0.000431,0.000470
11174000,0.0324,0.013523,0.002678,0.000431,0.000588
11175000,0.0324,0.013523,0.002678,0.000431,0.000353
11176000,0.0324,0.013523,0.002678,0.000431,0.000705
11177000,0.0324,0.013523,0.002678,0.000431,0.000353
11178000,0.0324,0.013523,0.002678,0.000431,0.000705
11179000,0.0324,0.013523,0.002678,0.000431,0.000588
11180000,0.0324,0.013523,0.002678,0.000431,0.000470
11181000,0.0324,0.013523,0.002678,0.000431,0.000470
11182000,0.0324,0.013523,0.002678,0.000431,0.000470
11183000,0.0324,0.013523,0.002678,0.000431,0.000470
11184000,0.0324,0.013523,0.002678,0.000431,0.000470
11185000,0.0324,0.013523,0.002678,0.000431,0.000470
11186000,0.0324,0.013523,0.002678,0.000431,0.000470
11187000,0.0324,0.013523,0.002678,0.000431,0.000353
11188000,0.0324,0.013523,0.002678,0.000431,0.000588
11189000,0.0324,0.013523,0.002678,0.000431,0.000353
11190000,0.0324,0.013523,0.002678,0.000431,0.000588
11191000,0.0324,0.013523,0.002678,0.000431,0.000353
11192000,0.0324,0.013523,0.002678,0.000431,0.000588
11193000,0.0324,0.013523,0.002678,0.000431,0.000353
11194000,0.0324,0.013523,0.002678,0.000431,0.000588
11195000,0.0324,0.013523,0.002678,0.000431,0.000353
11196000,0.0324,0.013523,0.002678,0.000431,0.000588
11197000,0.0324,0.013523,0.002678,0.000431,0.000353
11198000,0.0324,0.013523,0.002678,0.000431,0.000705
11199000,0.0324,0.013523,0.002678,0.000431,0.000588
11200000,0.0324,0.013523,0.002678,0.000431,0.000470
11201000,0.0324,0.013523,0.002678,0.000431,0.000588
11202000,0.0324,0.013523,0.002678,0.000431,0.000353
11203000,0.0324,0.013523,0.002678,0.000431,0.000588
11204000,0.0324,0.013523,0.002678,0.000431,0.000353
11205000,0.0324,0.013523,0.002678,0.000431,0.000588
11206000,0.0324,0.013523,0.002678,0.000431,0.000353
11207000,0.0324,0.013523,0.002678,0.000431,0.000470
11208000,0.0324,0.013523,0.002678,0.000431,0.000470
11209000,0.0324,0.013523,0.002678,0.000431,0.000470
11210000,0.0324,0.013523,0.002678,0.000431,0.000470
11211000,0.0324,0.013523,0.002678,0.000431,0.000470
11212000,0.0324,0.013523,0.002678,0.000431,0.000588
11213000,0.0324,0.013523,0.002678,0.000431,0.000588
11214000,0.0324,0.013523,0.002678,0.000431,0.000470
11215000,0.0324,0.013523,0.002678,0.000431,0.000705
11216000,0.0324,0.013523,0.002678,0.000431,0.000353
11217000,0.0324,0.013523,0.002678,0.000431,0.000705
11218000,0.0324,0.013523,0.002678,0.000431,0.000588
11219000,0.0324,0.013523,0.002678,0.000431,0.000470
11220000,0.0324,0.013523,0.002678,0.000431,0.000588
11221000,0.0324,0.013523,0.002678,0.000431,0.000353
11222000,0.0324,0.013523,0.002678,0.000431,0.000588
11223000,0.0324,0.013523,0.002678,0.000431,0.000353
11224000,0.0324,0.013523,0.002678,0.000431,0.000588
11225000,0.0324,0.013523,0.002678,0.000431,0.000353
11226000,0.0324,0.013523,0.002678,0.000431,0.000588
11227000,0.0324,0.013523,0.002678,0.000431,0.000353
11228000,0.0324,0.013523,0.002678,0.000431,0.000470
11229000,0.0324,0.013523,0.002678,0.000431,0.000470
11230000,0.0324,0.013523,0.002678,0.000431,0.000588
11231000,0.0324,0.013523,0.002678,0.000431,0.000470
11232000,0.0324,0.013523,0.002678,0.000431,0.000353
11233000,0.0324,0.013523,0.002678,0.000431,0.000588
11234000,0.0324,0.013523,0.002678,0.000431,0.000353
11235000,0.0324,0.013523,0.002678,0.000431,0.000588
11236000,0.0324,0.013523,0.002678,0.000431,0.000353
11237000,0.0324,0.013523,0.002678,0.000431,0.000588
11238000,0.0324,0.013523,0.002678,0.000431,0.000353
11239000,0.0324,0.013523,0.002678,0.000431,0.000588
11240000,0.0324,0.013523,0.002678,0.000431,0.000353
11241000,0.0324,0.013523,0.002678,0.000431,0.000588
11242000,0.0324,0.013523,0.002678,0.000431,0.000235
11243000,0.0324,0.013523,0.002678,0.000431,0.000705
11244000,0.0324,0.013523,0.002678,0.000431,0.000353
11245000,0.0324,0.013523,0.002678,0.000431,0.000588
11246000,0.0324,0.013523,0.002678,0.000431,0.000353
11247000,0.0324,0.013523,0.002678,0.000431,0.000705
11248000,0.0324,0.013523,0.002678,0.000431,0.000353
11249000,0.0324,0.013523,0.002678,0.000431,0.000705
11250000,0.0324,0.013523,0.002678,0.000431,0.000353
11251000,0.0324,0.013523,0.002678,0.000431,0.000588
11252000,0.0324,0.013523,0.002678,0.000431,0.000235
11253000,0.0324,0.013523,0.002678,0.000431,0.000588
11254000,0.0324,0.013523,0.002678,0.000431,0.000470
11255000,0.0324,0.013523,0.002678,0.000431,0.000705
11256000,0.0324,0.013523,0.002678,0.000431,0.000353
11257000,0.0324,0.013523,0.002678,0.000431,0.000588
11258000,0.0324,0.013523,0.002678,0.000431,0.000353
11259000,0.0324,0.013523,0.002678,0.000431,0.000705
11260000,0.0324,0.013523,0.002678,0.000431,0.000588
11261000,0.0324,0.013523,0.002678,0.000431,0.000470
11262000,0.0324,0.013523,0.002678,0.000431,0.000705
11263000,0.0324,0.013523,0.002678,0.000431,0.000353
11264000,0.0324,0.013523,0.002678,0.000431,0.000705
11265000,0.0324,0.013523,0.002678,0.000431,0.000353
11266000,0.0324,0.013523,0.002678,0.000431,0.000588
11267000,0.0324,0.013523,0.002678,0.000431,0.000353
11268000,0.0324,0.013523,0.002678,0.000431,0.000588
11269000,0.0324,0.013523,0.002678,0.000431,0.000353
11270000,0.0324,0.013523,0.002678,0.000431,0.000588
11271000,0.0324,0.013523,0.002678,0.000431,0.000353
11272000,0.0324,0.013523,0.002678,0.000431,0.000588
11273000,0.0324,0.013523,0.002678,0.000431,0.000353
11274000,0.0324,0.013523,0.002678,0.000431,0.000588
11275000,0.0324,0.013523,0.002678,0.000431,0.000353
11276000,0.0324,0.013523,0.002678,0.000431,0.000588
11277000,0.0324,0.013523,0.002678,0.000431,0.000353
11278000,0.0324,0.013523,0.002678,0.000431,0.000588
11279000,0.0324,0.013523,0.002678,0.000431,0.000353
11280000,0.0324,0.013523,0.002678,0.000431,0.000470
11281000,0.0324,0.013523,0.002678,0.000431,0.000470
11282000,0.0324,0.013523,0.002678,0.000431,0.000470
11283000,0.0324,0.013523,0.002678,0.000431,0.000470
11284000,0.0324,0.013523,0.002678,0.000431,0.000353
11285000,0.0324,0.013523,0.002678,0.000431,0.000588
11286000,0.0324,0.013523,0.002678,0.000431,0.000353
11287000,0.0324,0.013523,0.002678,0.000431,0.000588
11288000,0.0324,0.013523,0.002678,0.000431,0.000353
11289000,0.0324,0.013523,0.002678,0.000431,0.000588
11290000,0.0324,0.013523,0.002678,0.000431,0.000353
11291000,0.0324,0.013523,0.002678,0.000431,0.000588
11292000,0.0324,0.013523,0.002678,0.000431,0.000353
11293000,0.0324,0.013523,0.002678,0.000431,0.000705
11294000,0.0324,0.013523,0.002678,0.000431,0.000235
11295000,0.0324,0.013523,0.002678,0.000431,0.000588
11296000,0.0324,0.013523,0.002678,0.000431,0.000353
11297000,0.0324,0.013523,0.002678,0.000431,0.000588
11298000,0.0324,0.013523,0.002678,0.000431,0.000353
11299000,0.0324,0.013523,0.002678,0.000431,0.000588
11300000,0.0324,0.013523,0.002678,0.000431,0.000353
11301000,0.0324,0.013523,0.002678,0.000431,0.000588
11302000,0.0324,0.013523,0.002678,0.000431,0.000353
11303000,0.0324,0.013523,0.002678,0.000431,0.000588
11304000,0.0324,0.013523,0.002678,0.000431,0.000353
11305000,0.0324,0.013523,0.002678,0.000431,0.000823
11306000,0.0324,0.013523,0.002678,0.000431,0.000353
11307000,0.0324,0.013523,0.002678,0.000431,0.000588
11308000,0.0324,0.013523,0.002678,0.000431,0.000353
11309000,0.0324,0.013523,0.002678,0.000431,0.000823
11310000,0.0324,0.013523,0.002678,0.000431,0.000235
11311000,0.0324,0.013523,0.002678,0.000431,0.000705
11312000,0.0324,0.013523,0.002678,0.000431,0.000353
11313000,0.0324,0.013523,0.002678,0.000431,0.000705
11314000,0.0324,0.013523,0.002678,0.000431,0.000588
11315000,0.0324,0.013523,0.002678,0.000431,0.000588
11316000,0.0324,0.013523,0.002678,0.000431,0.000588
11317000,0.0324,0.013523,0.002678,0.000431,0.000470
11318000,0.0324,0.013523,0.002678,0.000431,0.000705
11319000,0.0324,0.013523,0.002678,0.000431,0.000353
11320000,0.0324,0.013523,0.002678,0.000431,0.000588
11321000,0.0324,0.013523,0.002678,0.000431,0.000353
11322000,0.0324,0.013523,0.002678,0.000431,0.000588
11323000,0.0324,0.013523,0.002678,0.000431,0.000353
11324000,0.0324,0.013523,0.002678,0.000431,0.000588
11325000,0.0324,0.013523,0.002678,0.000431,0.000353
11326000,0.0324,0.013523,0.002678,0.000431,0.000588
11327000,0.0324,0.013523,0.002678,0.000431,0.000353
11328000,0.0324,0.013523,0.002678,0.000431,0.000588
11329000,0.0324,0.013523,0.002678,0.000431,0.000353
11330000,0.0324,0.013523,0.002678,0.000431,0.000588
11331000,0.0324,0.013523,0.002678,0.000431,0.000353
11332000,0.0324,0.013523,0.002678,0.000431,0.000470
11333000,0.0324,0.013523,0.002678,0.000431,0.000470
11334000,0.0324,0.013523,0.002678,0.000431,0.000588
11335000,0.0324,0.013523,0.002678,0.000431,0.000470
11336000,0.0324,0.013523,0.002678,0.000431,0.000705
11337000,0.0324,0.013523,0.002678,0.000431,0.000353
11338000,0.0324,0.013523,0.002678,0.000431,0.000705
11339000,0.0324,0.013523,0.002678,0.000431,0.000588
11340000,0.0324,0.013523,0.002678,0.000431,0.000470
11341000,0.0324,0.013523,0.002678,0.000431,0.000705
11342000,0.0324,0.013523,0.002678,0.000431,0.000353
11343000,0.0324,0.013523,0.002678,0.000431,0.000588
11344000,0.0324,0.013523,0.002678,0.000431,0.000470
11345000,0.0324,0.013523,0.002678,0.000431,0.000588
11346000,0.0324,0.013523,0.002678,0.000431,0.000588
11347000,0.0324,0.013523,0.002678,0.000431,0.000470
11348000,0.0324,0.013523,0.002678,0.000431,0.000705
11349000,0.0324,0.013523,0.002678,0.000431,0.000353
11350000,0.0324,0.013523,0.002678,0.000431,0.000588
11351000,0.0324,0.013523,0.002678,0.000431,0.000353
11352000,0.0324,0.013523,0.002678,0.000431,0.000588
11353000,0.0324,0.013523,0.002678,0.000431,0.000353
11354000,0.0324,0.013523,0.002678,0.000431,0.000588
11355000,0.0324,0.013523,0.002678,0.000431,0.000353
11356000,0.0324,0.013523,0.002678,0.000431,0.000588
11357000,0.0324,0.013523,0.002678,0.000431,0.000353
11358000,0.0324,0.013523,0.002678,0.000431,0.000588
11359000,0.0324,0.013523,0.002678,0.000431,0.000353
11360000,0.0324,0.013523,0.002678,0.000431,0.000588
11361000,0.0324,0.013523,0.002678,0.000431,0.000353
11362000,0.0324,0.013523,0.002678,0.000431,0.000588
11363000,0.0324,0.013523,0.002678,0.000431,0.000353
11364000,0.0324,0.013523,0.002678,0.000431,0.000588
11365000,0.0324,0.013523,0.002678,0.000431,0.000353
11366000,0.0324,0.013523,0.002678,0.000431,0.000588
11367000,0.0324,0.013523,0.002678,0.000431,0.000353
11368000,0.0324,0.013523,0.002678,0.000431,0.000823
11369000,0.0324,0.013523,0.002678,0.000431,0.000353
11370000,0.0324,0.013523,0.002678,0.000431,0.000470
11371000,0.0324,0.013523,0.002678,0.000431,0.000470
11372000,0.0324,0.013523,0.002678,0.000431,0.000470
11373000,0.0324,0.013523,0.002678,0.000431,0.000470
11374000,0.0324,0.013523,0.002678,0.000431,0.000470
11375000,0.0324,0.013523,0.002678,0.000431,0.000470
11376000,0.0324,0.013523,0.002678,0.000431,0.000588
11377000,0.0324,0.013523,0.002678,0.000431,0.000470
11378000,0.0324,0.013523,0.002678,0.000431,0.000588
11379000,0.0324,0.013523,0.002678,0.000431,0.000353
11380000,0.0324,0.013523,0.002678,0.000431,0.000588
11381000,0.0324,0.013523,0.002678,0.000431,0.000353
11382000,0.0324,0.013523,0.002678,0.000431,0.000588
11383000,0.0324,0.013523,0.002678,0.000431,0.000353
11384000,0.0324,0.013523,0.002678,0.000431,0.000588
11385000,0.0324,0.013523,0.002678,0.000431,0.000470
11386000,0.0324,0.013523,0.002678,0.000431,0.000470
11387000,0.0324,0.013523,0.002678,0.000431,0.000470
11388000,0.0324,0.013523,0.002678,0.000431,0.000470
11389000,0.0324,0.013523,0.002678,0.000431,0.000470
11390000,0.0324,0.013523,0.002678,0.000431,0.000470
11391000,0.0324,0.013523,0.002678,0.000431,0.000470
11392000,0.0324,0.013523,0.002678,0.000431,0.000470
11393000,0.0324,0.013523,0.002678,0.000431,0.000588
11394000,0.0324,0.013523,0.002678,0.000431,0.000353
11395000,0.0324,0.013523,0.002678,0.000431,0.000470
11396000,0.0324,0.013523,0.002678,0.000431,0.000470
11397000,0.0324,0.013523,0.002678,0.000431,0.000470
11398000,0.0324,0.013523,0.002678,0.000431,0.000470
11399000,0.0324,0.013523,0.002678,0.000431,0.000588
11400000,0.0324,0.013523,0.002678,0.000431,0.000353
11401000,0.0324,0.013523,0.002678,0.000431,0.000470
11402000,0.0324,0.013523,0.002678,0.000431,0.000470
11403000,0.0324,0.013523,0.002678,0.000431,0.000470
11404000,0.0324,0.013523,0.002678,0.000431,0.000470
11405000,0.0324,0.013523,0.002678,0.000431,0.000470
11406000,0.0324,0.013523,0.002678,0.000431,0.000470
11407000,0.0324,0.013523,0.002678,0.000431,0.000470
11408000,0.0324,0.013523,0.002678,0.000431,0.000470
11409000,0.0324,0.013523,0.002678,0.000431,0.000470
11410000,0.0324,0.013523,0.002678,0.000431,0.000470
11411000,0.0324,0.013523,0.002678,0.000431,0.000470
11412000,0.0324,0.013523,0.002678,0.000431,0.000353
11413000,0.0324,0.013523,0.002678,0.000431,0.000588
11414000,0.0324,0.013523,0.002678,0.000431,0.000470
11415000,0.0324,0.013523,0.002678,0.000431,0.000470
11416000,0.0324,0.013523,0.002678,0.000431,0.000470
11417000,0.0324,0.013523,0.002678,0.000431,0.000470
11418000,0.0324,0.013523,0.002678,0.000431,0.000470
11419000,0.0324,0.013523,0.002678,0.000431,0.000470
11420000,0.0324,0.013523,0.002678,0.000431,0.000353
11421000,0.0324,0.013523,0.002678,0.000431,0.000588
11422000,0.0324,0.013523,0.002678,0.000431,0.000470
11423000,0.0324,0.013523,0.002678,0.000431,0.000470
11424000,0.0324,0.013523,0.002678,0.000431,0.000470
11425000,0.0324,0.013523,0.002678,0.000431,0.000470
11426000,0.0324,0.013523,0.002678,0.000431,0.000470
11427000,0.0324,0.013523,0.002678,0.000431,0.000470
11428000,0.0324,0.013523,0.002678,0.000431,0.000470
11429000,0.0324,0.013523,0.002678,0.000431,0.000470
11430000,0.0324,0.013523,0.002678,0.000431,0.000470
11431000,0.0324,0.013523,0.002678,0.000431,0.000470
11432000,0.0324,0.013523,0.002678,0.000431,0.000470
11433000,0.0324,0.013523,0.002678,0.000431,0.000353
11434000,0.0324,0.013523,0.002678,0.000431,0.000588
11435000,0.0324,0.013523,0.002678,0.000431,0.000353
11436000,0.0324,0.013523,0.002678,0.000431,0.000588
11437000,0.0324,0.013523,0.002678,0.000431,0.000353
11438000,0.0324,0.013523,0.002678,0.000431,0.000823
11439000,0.0324,0.013523,0.002678,0.000431,0.000353
11440000,0.0324,0.013523,0.002678,0.000431,0.000588
11441000,0.0324,0.013523,0.002678,0.000431,0.000353
11442000,0.0324,0.013523,0.002678,0.000431,0.000588
11443000,0.0324,0.013523,0.002678,0.000431,0.000353
11444000,0.0324,0.013523,0.002678,0.000431,0.000705
11445000,0.0324,0.013523,0.002678,0.000431,0.000353
11446000,0.0324,0.013523,0.002678,0.000431,0.000705
11447000,0.0324,0.013523,0.002678,0.000431,0.000588
11448000,0.0324,0.013523,0.002678,0.000431,0.000470
11449000,0.0324,0.013523,0.002678,0.000431,0.000705
11450000,0.0324,0.013523,0.002678,0.000431,0.000353
11451000,0.0324,0.013523,0.002678,0.000431,0.000588
11452000,0.0324,0.013523,0.002678,0.000431,0.000353
11453000,0.0324,0.013523,0.002678,0.000431,0.000705
11454000,0.0324,0.013523,0.002678,0.000431,0.000588
11455000,0.0324,0.013523,0.002678,0.000431,0.000470
11456000,0.0324,0.013523,0.002678,0.000431,0.000705
11457000,0.0324,0.013523,0.002678,0.000431,0.000353
11458000,0.0324,0.013523,0.002678,0.000431,0.000823
11459000,0.0324,0.013523,0.002678,0.000431,0.000353
11460000,0.0324,0.013523,0.002678,0.000431,0.000705
11461000,0.0324,0.013523,0.002678,0.000431,0.000353
11462000,0.0324,0.013523,0.002678,0.000431,0.000705
11463000,0.0324,0.013523,0.002678,0.000431,0.000353
11464000,0.0324,0.013523,0.002678,0.000431,0.000705
11465000,0.0324,0.013523,0.002678,0.000431,0.000470
11466000,0.0324,0.013523,0.002678,0.000431,0.000470
11467000,0.0324,0.013523,0.002678,0.000431,0.000470
11468000,0.0324,0.013523,0.002678,0.000431,0.000470
11469000,0.0324,0.013523,0.002678,0.000431,0.000470
11470000,0.0324,0.013523,0.002678,0.000431,0.000470
11471000,0.0324,0.013523,0.002678,0.000431,0.000353
11472000,0.0324,0.013523,0.002678,0.000431,0.000588
11473000,0.0324,0.013523,0.002678,0.000431,0.000353
11474000,0.0324,0.013523,0.002678,0.000431,0.000588
11475000,0.0324,0.013523,0.002678,0.000431,0.000353
11476000,0.0324,0.013523,0.002678,0.000431,0.000588
11477000,0.0324,0.013523,0.002678,0.000431,0.000353
11478000,0.0324,0.013523,0.002678,0.000431,0.000588
11479000,0.0324,0.013523,0.002678,0.000431,0.000353
11480000,0.0324,0.013523,0.002678,0.000431,0.000588
11481000,0.0324,0.013523,0.002678,0.000431,0.000353
11482000,0.0324,0.013523,0.002678,0.000431,0.000705
11483000,0.0324,0.013523,0.002678,0.000431,0.000353
11484000,0.0324,0.013523,0.002678,0.000431,0.000588
11485000,0.0324,0.013523,0.002678,0.000431,0.000353
11486000,0.0324,0.013523,0.002678,0.000431,0.000588
11487000,0.0324,0.013523,0.002678,0.000431,0.000353
11488000,0.0324,0.013523,0.002678,0.000431,0.000588
11489000,0.0324,0.013523,0.002678,0.000431,0.000470
11490000,0.0324,0.013523,0.002678,0.000431,0.000588
11491000,0.0324,0.013523,0.002678,0.000431,0.000235
11492000,0.0324,0.013523,0.002678,0.000431,0.000588
11493000,0.0324,0.013523,0.002678,0.000431,0.000353
11494000,0.0324,0.013523,0.002678,0.000431,0.000588
11495000,0.0324,0.013523,0.002678,0.000431,0.000470
11496000,0.0324,0.013523,0.002678,0.000431,0.000588
11497000,0.0324,0.013523,0.002678,0.000431,0.000353
11498000,0.0324,0.013523,0.002678,0.000431,0.000470
11499000,0.0324,0.013523,0.002678,0.000431,0.000470
11500000,0.0324,0.013523,0.002678,0.000431,0.000470
11501000,0.0324,0.013523,0.002678,0.000431,0.000588
11502000,0.0324,0.013523,0.002678,0.000431,0.000470
11503000,0.0324,0.013523,0.002678,0.000431,0.000470
11504000,0.0324,0.013523,0.002678,0.000431,0.000353
11505000,0.0324,0.013523,0.002678,0.000431,0.000588
11506000,0.0324,0.013523,0.002678,0.000431,0.000353
11507000,0.0324,0.013523,0.002678,0.000431,0.000588
11508000,0.0324,0.013523,0.002678,0.000431,0.000353
11509000,0.0324,0.013523,0.002678,0.000431,0.000588
11510000,0.0324,0.013523,0.002678,0.000431,0.000353
11511000,0.0324,0.013523,0.002678,0.000431,0.000588
11512000,0.0324,0.013523,0.002678,0.000431,0.000353
11513000,0.0324,0.013523,0.002678,0.000431,0.000588
11514000,0.0324,0.013523,0.002678,0.000431,0.000353
11515000,0.0324,0.013523,0.002678,0.000431,0.000588
11516000,0.0324,0.013523,0.002678,0.000431,0.000353
11517000,0.0324,0.013523,0.002678,0.000431,0.000588
11518000,0.0324,0.013523,0.002678,0.000431,0.000353
11519000,0.0324,0.013523,0.002678,0.000431,0.000588
11520000,0.0324,0.013523,0.002678,0.000431,0.000353
11521000,0.0324,0.013523,0.002678,0.000431,0.000588
11522000,0.0324,0.013523,0.002678,0.000431,0.000353
11523000,0.0324,0.013523,0.002678,0.000431,0.000470
11524000,0.0324,0.013523,0.002678,0.000431,0.000353
11525000,0.0324,0.013523,0.002678,0.000431,0.000588
11526000,0.0324,0.013523,0.002678,0.000431,0.000353
11527000,0.0324,0.013523,0.002678,0.000431,0.000588
11528000,0.0324,0.013523,0.002678,0.000431,0.000353
11529000,0.0324,0.013523,0.002678,0.000431,0.000588
11530000,0.0324,0.013523,0.002678,0.000431,0.000470
11531000,0.0324,0.013523,0.002678,0.000431,0.000470
11532000,0.0324,0.013523,0.002678,0.000431,0.000470
11533000,0.0324,0.013523,0.002678,0.000431,0.000705
11534000,0.0324,0.013523,0.002678,0.000431,0.000353
11535000,0.0324,0.013523,0.002678,0.000431,0.000705
11536000,0.0324,0.013523,0.002678,0.000431,0.000470
11537000,0.0324,0.013523,0.002678,0.000431,0.000470
11538000,0.0324,0.013523,0.002678,0.000431,0.000470
11539000,0.0324,0.013523,0.002678,0.000431,0.000470
11540000,0.0324,0.013523,0.002678,0.000431,0.000470
11541000,0.0324,0.013523,0.002678,0.000431,0.000470
11542000,0.0324,0.013523,0.002678,0.000431,0.000470
11543000,0.0324,0.013523,0.002678,0.000431,0.000588
11544000,0.0324,0.013523,0.002678,0.000431,0.000353
11545000,0.0324,0.013523,0.002678,0.000431,0.000588
11546000,0.0324,0.013523,0.002678,0.000431,0.000353
11547000,0.0324,0.013523,0.002678,0.000431,0.000588
11548000,0.0324,0.013523,0.002678,0.000431,0.000353
11549000,0.0324,0.013523,0.002678,0.000431,0.000470
11550000,0.0324,0.013523,0.002678,0.000431,0.000470
11551000,0.0324,0.013523,0.002678,0.000431,0.000588
11552000,0.0324,0.013523,0.002678,0.000431,0.000470
11553000,0.0324,0.013523,0.002678,0.000431,0.000705
11554000,0.0324,0.013523,0.002678,0.000431,0.000470
11555000,0.0324,0.013523,0.002678,0.000431,0.000470
11556000,0.0324,0.013523,0.002678,0.000431,0.000353
11557000,0.0324,0.013523,0.002678,0.000431,0.000588
11558000,0.0324,0.013523,0.002678,0.000431,0.000353
11559000,0.0324,0.013523,0.002678,0.000431,0.000588
11560000,0.0324,0.013523,0.002678,0.000431,0.000353
11561000,0.0324,0.013523,0.002678,0.000431,0.000588
11562000,0.0324,0.013523,0.002678,0.000431,0.000353
11563000,0.0324,0.013523,0.002678,0.000431,0.000705
11564000,0.0324,0.013523,0.002678,0.000431,0.000588
11565000,0.0324,0.013523,0.002678,0.000431,0.000470
11566000,0.0324,0.013523,0.002678,0.000431,0.000705
11567000,0.0324,0.013523,0.002678,0.000431,0.000353
11568000,0.0324,0.013523,0.002678,0.000431,0.000588
11569000,0.0324,0.013523,0.002678,0.000431,0.000353
11570000,0.0324,0.013523,0.002678,0.000431,0.000588
11571000,0.0324,0.013523,0.002678,0.000431,0.000353
11572000,0.0324,0.013523,0.002678,0.000431,0.000588
11573000,0.0324,0.013523,0.002678,0.000431,0.000353
11574000,0.0324,0.013523,0.002678,0.000431,0.000588
11575000,0.0324,0.013523,0.002678,0.000431,0.000353
11576000,0.0324,0.013523,0.002678,0.000431,0.000470
11577000,0.0324,0.013523,0.002678,0.000431,0.000470
11578000,0.0324,0.013523,0.002678,0.000431,0.000588
11579000,0.0324,0.013523,0.002678,0.000431,0.000470
11580000,0.0324,0.013523,0.002678,0.000431,0.000705
11581000,0.0324,0.013523,0.002678,0.000431,0.000353
11582000,0.0324,0.013523,0.002678,0.000431,0.000588
11583000,0.0324,0.013523,0.002678,0.000431,0.000353
11584000,0.0324,0.013523,0.002678,0.000431,0.000588
11585000,0.0324,0.013523,0.002678,0.000431,0.000353
11586000,0.0324,0.013523,0.002678,0.000431,0.000588
11587000,0.0324,0.013523,0.002678,0.000431,0.000353
11588000,0.0324,0.013523,0.002678,0.000431,0.000588
11589000,0.0324,0.013523,0.002678,0.000431,0.000353
11590000,0.0324,0.013523,0.002678,0.000431,0.000705
11591000,0.0324,0.013523,0.002678,0.000431,0.000353
11592000,0.0324,0.013523,0.002678,0.000431,0.000588
11593000,0.0324,0.013523,0.002678,0.000431,0.000353
11594000,0.0324,0.013523,0.002678,0.000431,0.000470
11595000,0.0324,0.013523,0.002678,0.000431,0.000353
11596000,0.0324,0.013523,0.002678,0.000431,0.000588
11597000,0.0324,0.013523,0.002678,0.000431,0.000470
11598000,0.0324,0.013523,0.002678,0.000431,0.000588
11599000,0.0324,0.013523,0.002678,0.000431,0.000353
11600000,0.0324,0.013523,0.002678,0.000431,0.000588
11601000,0.0324,0.013523,0.002678,0.000431,0.000353
11602000,0.0324,0.013523,0.002678,0.000431,0.000470
11603000,0.0324,0.013523,0.002678,0.000431,0.000470
11604000,0.0324,0.013523,0.002678,0.000431,0.000470
11605000,0.0324,0.013523,0.002678,0.000431,0.000470
11606000,0.0324,0.013523,0.002678,0.000431,0.000470
11607000,0.0324,0.013523,0.002678,0.000431,0.000470
11608000,0.0324,0.013523,0.002678,0.000431,0.000470
11609000,0.0324,0.013523,0.002678,0.000431,0.000588
11610000,0.0324,0.013523,0.002678,0.000431,0.000353
11611000,0.0324,0.013523,0.002678,0.000431,0.000588
11612000,0.0324,0.013523,0.002678,0.000431,0.000353
11613000,0.0324,0.013523,0.002678,0.000431,0.000705
11614000,0.0324,0.013523,0.002678,0.000431,0.000353
11615000,0.0324,0.013523,0.002678,0.000431,0.000705
11616000,0.0324,0.013523,0.002678,0.000431,0.000470
11617000,0.0324,0.013523,0.002678,0.000431,0.000470
11618000,0.0324,0.013523,0.002678,0.000431,0.000470
11619000,0.0324,0.013523,0.002678,0.000431,0.000470
11620000,0.0324,0.013523,0.002678,0.000431,0.000470
11621000,0.0324,0.013523,0.002678,0.000431,0.000470
11622000,0.0324,0.013523,0.002678,0.000431,0.000470
11623000,0.0324,0.013523,0.002678,0.000431,0.000470
11624000,0.0324,0.013523,0.002678,0.000431,0.000470
11625000,0.0324,0.013523,0.002678,0.000431,0.000470
11626000,0.0324,0.013523,0.002678,0.000431,0.000470
11627000,0.0324,0.013523,0.002678,0.000431,0.000470
11628000,0.0324,0.013523,0.002678,0.000431,0.000470
11629000,0.0324,0.013523,0.002678,0.000431,0.000470
11630000,0.0324,0.013523,0.002678,0.000431,0.000470
11631000,0.0324,0.013523,0.002678,0.000431,0.000470
11632000,0.0324,0.013523,0.002678,0.000431,0.000470
11633000,0.0324,0.013523,0.002678,0.000431,0.000470
11634000,0.0324,0.013523,0.002678,0.000431,0.000353
11635000,0.0324,0.013523,0.002678,0.000431,0.000588
11636000,0.0324,0.013523,0.002678,0.000431,0.000353
11637000,0.0324,0.013523,0.002678,0.000431,0.000588
11638000,0.0324,0.013523,0.002678,0.000431,0.000470
11639000,0.0324,0.013523,0.002678,0.000431,0.000470
11640000,0.0324,0.013523,0.002678,0.000431,0.000470
11641000,0.0324,0.013523,0.002678,0.000431,0.000470
11642000,0.0324,0.013523,0.002678,0.000431,0.000470
11643000,0.0324,0.013523,0.002678,0.000431,0.000470
11644000,0.0324,0.013523,0.002678,0.000431,0.000705
11645000,0.0324,0.013523,0.002678,0.000431,0.000588
11646000,0.0324,0.013523,0.002678,0.000431,0.000470
11647000,0.0324,0.013523,0.002678,0.000431,0.000705
11648000,0.0324,0.013523,0.002678,0.000431,0.000353
11649000,0.0324,0.013523,0.002678,0.000431,0.000588
11650000,0.0324,0.013523,0.002678,0.000431,0.000353
11651000,0.0324,0.013523,0.002678,0.000431,0.000588
11652000,0.0324,0.013523,0.002678,0.000431,0.000353
11653000,0.0324,0.013523,0.002678,0.000431,0.000588
11654000,0.0324,0.013523,0.002678,0.000431,0.000353
11655000,0.0324,0.013523,0.002678,0.000431,0.000588
11656000,0.0324,0.013523,0.002678,0.000431,0.000353
11657000,0.0324,0.013523,0.002678,0.000431,0.000588
11658000,0.0324,0.013523,0.002678,0.000431,0.000353
11659000,0.0324,0.013523,0.002678,0.000431,0.000588
11660000,0.0324,0.013523,0.002678,0.000431,0.000353
11661000,0.0324,0.013523,0.002678,0.000431,0.000470
11662000,0.0324,0.013523,0.002678,0.000431,0.000470
11663000,0.0324,0.013523,0.002678,0.000431,0.000470
11664000,0.0324,0.013523,0.002678,0.000431,0.000470
11665000,0.0324,0.013523,0.002678,0.000431,0.000588
11666000,0.0324,0.013523,0.002678,0.000431,0.000470
11667000,0.0324,0.013523,0.002678,0.000431,0.000588
11668000,0.0324,0.013523,0.002678,0.000431,0.000353
11669000,0.0324,0.013523,0.002678,0.000431,0.000588
11670000,0.0324,0.013523,0.002678,0.000431,0.000353
11671000,0.0324,0.013523,0.002678,0.000431,0.000588
11672000,0.0324,0.013523,0.002678,0.000431,0.000470
11673000,0.0324,0.013523,0.002678,0.000431,0.000470
11674000,0.0324,0.013523,0.002678,0.000431,0.000470
11675000,0.0324,0.013523,0.002678,0.000431,0.000470
11676000,0.0324,0.013523,0.002678,0.000431,0.000470
11677000,0.0324,0.013523,0.002678,0.000431,0.000588
11678000,0.0324,0.013523,0.002678,0.000431,0.000470
11679000,0.0324,0.013523,0.002678,0.000431,0.000588
11680000,0.0324,0.013523,0.002678,0.000431,0.000470
11681000,0.0324,0.013523,0.002678,0.000431,0.000588
11682000,0.0324,0.013523,0.002678,0.000431,0.000470
11683000,0.0324,0.013523,0.002678,0.000431,0.000588
11684000,0.0324,0.013523,0.002678,0.000431,0.000353
11685000,0.0324,0.013523,0.002678,0.000431,0.000588
11686000,0.0324,0.013523,0.002678,0.000431,0.000353
11687000,0.0324,0.013523,0.002678,0.000431,0.000470
11688000,0.0324,0.013523,0.002678,0.000431,0.000588
11689000,0.0324,0.013523,0.002678,0.000431,0.000588
11690000,0.0324,0.013523,0.002678,0.000431,0.000470
11691000,0.0324,0.013523,0.002678,0.000431,0.000705
11692000,0.0324,0.013523,0.002678,0.000431,0.000353
11693000,0.0324,0.013523,0.002678,0.000431,0.000705
11694000,0.0324,0.013523,0.002678,0.000431,0.000588
11695000,0.0324,0.013523,0.002678,0.000431,0.000470
11696000,0.0324,0.013523,0.002678,0.000431,0.000588
11697000,0.0324,0.013523,0.002678,0.000431,0.000353
11698000,0.0324,0.013523,0.002678,0.000431,0.000705
11699000,0.0324,0.013523,0.002678,0.000431,0.000353
11700000,0.0324,0.013523,0.002678,0.000431,0.000705
11701000,0.0324,0.013523,0.002678,0.000431,0.000470
11702000,0.0324,0.013523,0.002678,0.000431,0.000470
11703000,0.0324,0.013523,0.002678,0.000431,0.000470
11704000,0.0324,0.013523,0.002678,0.000431,0.000470
11705000,0.0324,0.013523,0.002678,0.000431,0.000353
11706000,0.0324,0.013523,0.002678,0.000431,0.000588
11707000,0.0324,0.013523,0.002678,0.000431,0.000353
11708000,0.0324,0.013523,0.002678,0.000431,0.000705
11709000,0.0324,0.013523,0.002678,0.000431,0.000353
11710000,0.0324,0.013523,0.002678,0.000431,0.000588
11711000,0.0324,0.013523,0.002678,0.000431,0.000353
11712000,0.0324,0.013523,0.002678,0.000431,0.000705
11713000,0.0324,0.013523,0.002678,0.000431,0.000588
11714000,0.0324,0.013523,0.002678,0.000431,0.000470
11715000,0.0324,0.013523,0.002678,0.000431,0.000705
11716000,0.0324,0.013523,0.002678,0.000431,0.000353
11717000,0.0324,0.013523,0.002678,0.000431,0.000470
11718000,0.0324,0.013523,0.002678,0.000431,0.000470
11719000,0.0324,0.013523,0.002678,0.000431,0.000588
11720000,0.0324,0.013523,0.002678,0.000431,0.000470
11721000,0.0324,0.013523,0.002678,0.000431,0.000588
11722000,0.0324,0.013523,0.002678,0.000431,0.000588
11723000,0.0324,0.013523,0.002678,0.000431,0.000470
11724000,0.0324,0.013523,0.002678,0.000431,0.000705
11725000,0.0324,0.013523,0.002678,0.000431,0.000353
11726000,0.0324,0.013523,0.002678,0.000431,0.000705
11727000,0.0324,0.013523,0.002678,0.000431,0.000588
11728000,0.0324,0.013523,0.002678,0.000431,0.000470
11729000,0.0324,0.013523,0.002678,0.000431,0.000588
11730000,0.0324,0.013523,0.002678,0.000431,0.000353
11731000,0.0324,0.013523,0.002678,0.000431,0.000588
11732000,0.0324,0.013523,0.002678,0.000431,0.000353
11733000,0.0324,0.013523,0.002678,0.000431,0.000588
11734000,0.0324,0.013523,0.002678,0.000431,0.000353
11735000,0.0324,0.013523,0.002678,0.000431,0.000588
11736000,0.0324,0.013523,0.002678,0.000431,0.000353
11737000,0.0324,0.013523,0.002678,0.000431,0.000588
11738000,0.0324,0.013523,0.002678,0.000431,0.000353
11739000,0.0324,0.013523,0.002678,0.000431,0.000470
11740000,0.0324,0.013523,0.002678,0.000431,0.000588
11741000,0.0324,0.013523,0.002678,0.000431,0.000588
11742000,0.0324,0.013523,0.002678,0.000431,0.000470
11743000,0.0324,0.013523,0.002678,0.000431,0.000705
11744000,0.0324,0.013523,0.002678,0.000431,0.000353
11745000,0.0324,0.013523,0.002678,0.000431,0.000705
11746000,0.0324,0.013523,0.002678,0.000431,0.000588
11747000,0.0324,0.013523,0.002678,0.000431,0.000470
11748000,0.0324,0.013523,0.002678,0.000431,0.000705
11749000,0.0324,0.013523,0.002678,0.000431,0.000353
11750000,0.0324,0.013523,0.002678,0.000431,0.000588
11751000,0.0324,0.013523,0.002678,0.000431,0.000353
11752000,0.0324,0.013523,0.002678,0.000431,0.000823
11753000,0.0324,0.013523,0.002678,0.000431,0.000353
11754000,0.0324,0.013523,0.002678,0.000431,0.000588
11755000,0.0324,0.013523,0.002678,0.000431,0.000470
11756000,0.0324,0.013523,0.002678,0.000431,0.000588
11757000,0.0324,0.013523,0.002678,0.000431,0.000353
11758000,0.0324,0.013523,0.002678,0.000431,0.000588
11759000,0.0324,0.013523,0.002678,0.000431,0.000353
11760000,0.0324,0.013523,0.002678,0.000431,0.000588
11761000,0.0324,0.013523,0.002678,0.000431,0.000353
11762000,0.0324,0.013523,0.002678,0.000431,0.000588
11763000,0.0324,0.013523,0.002678,0.000431,0.000353
11764000,0.0324,0.013523,0.002678,0.000431,0.000588
11765000,0.0324,0.013523,0.002678,0.000431,0.000353
11766000,0.0324,0.013523,0.002678,0.000431,0.000470
11767000,0.0324,0.013523,0.002678,0.000431,0.000353
11768000,0.0324,0.013523,0.002678,0.000431,0.000588
11769000,0.0324,0.013523,0.002678,0.000431,0.000353
11770000,0.0324,0.013523,0.002678,0.000431,0.000705
11771000,0.0324,0.013523,0.002678,0.000431,0.000353
11772000,0.0324,0.013523,0.002678,0.000431,0.000588
11773000,0.0324,0.013523,0.002678,0.000431,0.000353
11774000,0.0324,0.013523,0.002678,0.000431,0.000588
11775000,0.0324,0.013523,0.002678,0.000431,0.000353
11776000,0.0324,0.013523,0.002678,0.000431,0.000470
11777000,0.0324,0.013523,0.002678,0.000431,0.000353
11778000,0.0324,0.013523,0.002678,0.000431,0.000823
11779000,0.0324,0.013523,0.002678,0.000431,0.000353
11780000,0.0324,0.013523,0.002678,0.000431,0.000588
11781000,0.0324,0.013523,0.002678,0.000431,0.000353
11782000,0.0324,0.013523,0.002678,0.000431,0.000705
11783000,0.0324,0.013523,0.002678,0.000431,0.000470
11784000,0.0324,0.013523,0.002678,0.000431,0.000470
11785000,0.0324,0.013523,0.002678,0.000431,0.000588
11786000,0.0324,0.013523,0.002678,0.000431,0.000470
11787000,0.0324,0.013523,0.002678,0.000431,0.000588
11788000,0.0324,0.013523,0.002678,0.000431,0.000353
11789000,0.0324,0.013523,0.002678,0.000431,0.000588
11790000,0.0324,0.013523,0.002678,0.000431,0.000353
11791000,0.0324,0.013523,0.002678,0.000431,0.000588
11792000,0.0324,0.013523,0.002678,0.000431,0.000470
11793000,0.0324,0.013523,0.002678,0.000431,0.000470
11794000,0.0324,0.013523,0.002678,0.000431,0.000470
11795000,0.0324,0.013523,0.002678,0.000431,0.000470
11796000,0.0324,0.013523,0.002678,0.000431,0.000470
11797000,0.0324,0.013523,0.002678,0.000431,0.000588
11798000,0.0324,0.013523,0.002678,0.000431,0.000470
11799000,0.0324,0.013523,0.002678,0.000431,0.000705
11800000,0.0324,0.013523,0.002678,0.000431,0.000353
11801000,0.0324,0.013523,0.002678,0.000431,0.000588
11802000,0.0324,0.013523,0.002678,0.000431,0.000353
11803000,0.0324,0.013523,0.002678,0.000431,0.000470
11804000,0.0324,0.013523,0.002678,0.000431,0.000588
11805000,0.0324,0.013523,0.002678,0.000431,0.000470
11806000,0.0324,0.013523,0.002678,0.000431,0.000470
11807000,0.0324,0.013523,0.002678,0.000431,0.000353
11808000,0.0324,0.013523,0.002678,0.000431,0.000588
11809000,0.0324,0.013523,0.002678,0.000431,0.000353
11810000,0.0324,0.013523,0.002678,0.000431,0.000705
11811000,0.0324,0.013523,0.002678,0.000431,0.000588
11812000,0.0324,0.013523,0.002678,0.000431,0.000470
11813000,0.0324,0.013523,0.002678,0.000431,0.000705
11814000,0.0324,0.013523,0.002678,0.000431,0.000353
11815000,0.0324,0.013523,0.002678,0.000431,0.000588
11816000,0.0324,0.013523,0.002678,0.000431,0.000353
11817000,0.0324,0.013523,0.002678,0.000431,0.000588
11818000,0.0324,0.013523,0.002678,0.000431,0.000353
11819000,0.0324,0.013523,0.002678,0.000431,0.000588
11820000,0.0324,0.013523,0.002678,0.000431,0.000353
11821000,0.0324,0.013523,0.002678,0.000431,0.000588
11822000,0.0324,0.013523,0.002678,0.000431,0.000353
11823000,0.0324,0.013523,0.002678,0.000431,0.000588
11824000,0.0324,0.013523,0.002678,0.000431,0.000353
11825000,0.0324,0.013523,0.002678,0.000431,0.000588
11826000,0.0324,0.013523,0.002678,0.000431,0.000353
11827000,0.0324,0.013523,0.002678,0.000431,0.000588
11828000,0.0324,0.013523,0.002678,0.000431,0.000353
11829000,0.0324,0.013523,0.002678,0.000431,0.000470
11830000,0.0324,0.013523,0.002678,0.000431,0.000470
11831000,0.0324,0.013523,0.002678,0.000431,0.000470
11832000,0.0324,0.013523,0.002678,0.000431,0.000470
11833000,0.0324,0.013523,0.002678,0.000431,0.000588
11834000,0.0324,0.013523,0.002678,0.000431,0.000470
11835000,0.0324,0.013523,0.002678,0.000431,0.000705
11836000,0.0324,0.013523,0.002678,0.000431,0.000353
11837000,0.0324,0.013523,0.002678,0.000431,0.000588
11838000,0.0324,0.013523,0.002678,0.000431,0.000353
11839000,0.0324,0.013523,0.002678,0.000431,0.000588
11840000,0.0324,0.013523,0.002678,0.000431,0.000353
11841000,0.0324,0.013523,0.002678,0.000431,0.000705
11842000,0.0324,0.013523,0.002678,0.000431,0.000353
11843000,0.0324,0.013523,0.002678,0.000431,0.000588
11844000,0.0324,0.013523,0.002678,0.000431,0.000353
11845000,0.0324,0.013523,0.002678,0.000431,0.000705
11846000,0.0324,0.013523,0.002678,0.000431,0.000353
11847000,0.0324,0.013523,0.002678,0.000431,0.000588
11848000,0.0324,0.013523,0.002678,0.000431,0.000470
11849000,0.0324,0.013523,0.002678,0.000431,0.000705
11850000,0.0324,0.013523,0.002678,0.000431,0.000470
11851000,0.0324,0.013523,0.002678,0.000431,0.000470
11852000,0.0324,0.013523,0.002678,0.000431,0.000353
11853000,0.0324,0.013523,0.002678,0.000431,0.000588
11854000,0.0324,0.013523,0.002678,0.000431,0.000353
11855000,0.0324,0.013523,0.002678,0.000431,0.000588
11856000,0.0324,0.013523,0.002678,0.000431,0.000353
11857000,0.0324,0.013523,0.002678,0.000431,0.000705
11858000,0.0324,0.013523,0.002678,0.000431,0.000470
11859000,0.0324,0.013523,0.002678,0.000431,0.000470
11860000,0.0324,0.013523,0.002678,0.000431,0.000470
11861000,0.0324,0.013523,0.002678,0.000431,0.000470
11862000,0.0324,0.013523,0.002678,0.000431,0.000470
11863000,0.0324,0.013523,0.002678,0.000431,0.000470
11864000,0.0324,0.013523,0.002678,0.000431,0.000588
11865000,0.0324,0.013523,0.002678,0.000431,0.000470
11866000,0.0324,0.013523,0.002678,0.000431,0.000705
11867000,0.0324,0.013523,0.002678,0.000431,0.000353
11868000,0.0324,0.013523,0.002678,0.000431,0.000588
11869000,0.0324,0.013523,0.002678,0.000431,0.000353
11870000,0.0324,0.013523,0.002678,0.000431,0.000823
11871000,0.0324,0.013523,0.002678,0.000431,0.000235
11872000,0.0324,0.013523,0.002678,0.000431,0.000705
11873000,0.0324,0.013523,0.002678,0.000431,0.000353
11874000,0.0324,0.013523,0.002678,0.000431,0.000705
11875000,0.0324,0.013523,0.002678,0.000431,0.000588
11876000,0.0324,0.013523,0.002678,0.000431,0.000470
11877000,0.0324,0.013523,0.002678,0.000431,0.000705
11878000,0.0324,0.013523,0.002678,0.000431,0.000353
11879000,0.0324,0.013523,0.002678,0.000431,0.000588
11880000,0.0324,0.013523,0.002678,0.000431,0.000353
11881000,0.0324,0.013523,0.002678,0.000431,0.000588
11882000,0.0324,0.013523,0.002678,0.000431,0.000353
11883000,0.0324,0.013523,0.002678,0.000431,0.000588
11884000,0.0324,0.013523,0.002678,0.000431,0.000470
11885000,0.0324,0.013523,0.002678,0.000431,0.000470
11886000,0.0324,0.013523,0.002678,0.000431,0.000353
11887000,0.0324,0.013523,0.002678,0.000431,0.000823
11888000,0.0324,0.013523,0.002678,0.000431,0.000353
11889000,0.0324,0.013523,0.002678,0.000431,0.000588
11890000,0.0324,0.013523,0.002678,0.000431,0.000470
11891000,0.0324,0.013523,0.002678,0.000431,0.000588
11892000,0.0324,0.013523,0.002678,0.000431,0.000470
11893000,0.0324,0.013523,0.002678,0.000431,0.000705
11894000,0.0324,0.013523,0.002678,0.000431,0.000588
11895000,0.0324,0.013523,0.002678,0.000431,0.000470
11896000,0.0324,0.013523,0.002678,0.000431,0.000705
11897000,0.0324,0.013523,0.002678,0.000431,0.000353
11898000,0.0324,0.013523,0.002678,0.000431,0.000705
11899000,0.0324,0.013523,0.002678,0.000431,0.000588
11900000,0.0324,0.013523,0.002678,0.000431,0.000470
11901000,0.0324,0.013523,0.002678,0.000431,0.000588
11902000,0.0324,0.013523,0.002678,0.000431,0.000353
11903000,0.0324,0.013523,0.002678,0.000431,0.000588
11904000,0.0324,0.013523,0.002678,0.000431,0.000353
11905000,0.0324,0.013523,0.002678,0.000431,0.000470
11906000,0.0324,0.013523,0.002678,0.000431,0.000470
11907000,0.0324,0.013523,0.002678,0.000431,0.000470
11908000,0.0324,0.013523,0.002678,0.000431,0.000470
11909000,0.0324,0.013523,0.002678,0.000431,0.000470
11910000,0.0324,0.013523,0.002678,0.000431,0.000470
11911000,0.0324,0.013523,0.002678,0.000431,0.000353
11912000,0.0324,0.013523,0.002678,0.000431,0.000588
11913000,0.0324,0.013523,0.002678,0.000431,0.000353
11914000,0.0324,0.013523,0.002678,0.000431,0.000588
11915000,0.0324,0.013523,0.002678,0.000431,0.000353
11916000,0.0324,0.013523,0.002678,0.000431,0.000705
11917000,0.0324,0.013523,0.002678,0.000431,0.000588
11918000,0.0324,0.013523,0.002678,0.000431,0.000470
11919000,0.0324,0.013523,0.002678,0.000431,0.000588
11920000,0.0324,0.013523,0.002678,0.000431,0.000353
11921000,0.0324,0.013523,0.002678,0.000431,0.000588
11922000,0.0324,0.013523,0.002678,0.000431,0.000353
11923000,0.0324,0.013523,0.002678,0.000431,0.000588
11924000,0.0324,0.013523,0.002678,0.000431,0.000353
11925000,0.0324,0.013523,0.002678,0.000431,0.000588
11926000,0.0324,0.013523,0.002678,0.000431,0.000353
11927000,0.0324,0.013523,0.002678,0.000431,0.000588
11928000,0.0324,0.013523,0.002678,0.000431,0.000353
11929000,0.0324,0.013523,0.002678,0.000431,0.000470
11930000,0.0324,0.013523,0.002678,0.000431,0.000470
11931000,0.0324,0.013523,0.002678,0.000431,0.000588
11932000,0.0324,0.013523,0.002678,0.000431,0.000470
11933000,0.0324,0.013523,0.002678,0.000431,0.000353
11934000,0.0324,0.013523,0.002678,0.000431,0.000588
11935000,0.0324,0.013523,0.002678,0.000431,0.000353
11936000,0.0324,0.013523,0.002678,0.000431,0.000588
11937000,0.0324,0.013523,0.002678,0.000431,0.000353
11938000,0.0324,0.013523,0.002678,0.000431,0.000705
11939000,0.0324,0.013523,0.002678,0.000431,0.000353
11940000,0.0324,0.013523,0.002678,0.000431,0.000705
11941000,0.0324,0.013523,0.002678,0.000431,0.000588
11942000,0.0324,0.013523,0.002678,0.000431,0.000470
11943000,0.0324,0.013523,0.002678,0.000431,0.000705
11944000,0.0324,0.013523,0.002678,0.000431,0.000353
11945000,0.0324,0.013523,0.002678,0.000431,0.000588
11946000,0.0324,0.013523,0.002678,0.000431,0.000353
11947000,0.0324,0.013523,0.002678,0.000431,0.000588
11948000,0.0324,0.013523,0.002678,0.000431,0.000353
11949000,0.0324,0.013523,0.002678,0.000431,0.000588
11950000,0.0324,0.013523,0.002678,0.000431,0.000353
11951000,0.0324,0.013523,0.002678,0.000431,0.000470
11952000,0.0324,0.013523,0.002678,0.000431,0.000470
11953000,0.0324,0.013523,0.002678,0.000431,0.000470
11954000,0.0324,0.013523,0.002678,0.000431,0.000470
11955000,0.0324,0.013523,0.002678,0.000431,0.000470
11956000,0.0324,0.013523,0.002678,0.000431,0.000470
11957000,0.0324,0.013523,0.002678,0.000431,0.000470
11958000,0.0324,0.013523,0.002678,0.000431,0.000353
11959000,0.0324,0.013523,0.002678,0.000431,0.000588
11960000,0.0324,0.013523,0.002678,0.000431,0.000353
11961000,0.0324,0.013523,0.002678,0.000431,0.000588
11962000,0.0324,0.013523,0.002678,0.000431,0.000470
11963000,0.0324,0.013523,0.002678,0.000431,0.000588
11964000,0.0324,0.013523,0.002678,0.000431,0.000470
11965000,0.0324,0.013523,0.002678,0.000431,0.000588
11966000,0.0324,0.013523,0.002678,0.000431,0.000353
11967000,0.0324,0.013523,0.002678,0.000431,0.000705
11968000,0.0324,0.013523,0.002678,0.000431,0.000470
11969000,0.0324,0.013523,0.002678,0.000431,0.000705
11970000,0.0324,0.013523,0.002678,0.000431,0.000235
11971000,0.0324,0.013523,0.002678,0.000431,0.000823
11972000,0.0324,0.013523,0.002678,0.000431,0.000235
11973000,0.0324,0.013523,0.002678,0.000431,0.000588
11974000,0.0324,0.013523,0.002678,0.000431,0.000470
11975000,0.0324,0.013523,0.002678,0.000431,0.000588
11976000,0.0324,0.013523,0.002678,0.000431,0.000353
11977000,0.0324,0.013523,0.002678,0.000431,0.000588
11978000,0.0324,0.013523,0.002678,0.000431,0.000353
11979000,0.0324,0.013523,0.002678,0.000431,0.000705
11980000,0.0324,0.013523,0.002678,0.000431,0.000353
11981000,0.0324,0.013523,0.002678,0.000431,0.000705
11982000,0.0324,0.013523,0.002678,0.000431,0.000470
11983000,0.0324,0.013523,0.002678,0.000431,0.000470
11984000,0.0324,0.013523,0.002678,0.000431,0.000470
11985000,0.0324,0.013523,0.002678,0.000431,0.000470
11986000,0.0324,0.013523,0.002678,0.000431,0.000470
11987000,0.0324,0.013523,0.002678,0.000431,0.000470
11988000,0.0324,0.013523,0.002678,0.000431,0.000588
11989000,0.0324,0.013523,0.002678,0.000431,0.000705
11990000,0.0324,0.013523,0.002678,0.000431,0.000353
11991000,0.0324,0.013523,0.002678,0.000431,0.000588
11992000,0.0324,0.013523,0.002678,0.000431,0.000353
11993000,0.0324,0.013523,0.002678,0.000431,0.000823
11994000,0.0324,0.013523,0.002678,0.000431,0.000353
11995000,0.0324,0.013523,0.002678,0.000431,0.000470
11996000,0.0324,0.013523,0.002678,0.000431,0.000470
11997000,0.0324,0.013523,0.002678,0.000431,0.000470
11998000,0.0324,0.013523,0.002678,0.000431,0.000470
11999000,0.0324,0.013523,0.002678,0.000431,0.000470
