Cycle,Area(mm^2),PeakDynamic(W),SubthresholdLeakage(W),GateLeakage(W),RunTimeDynamic(W)
50000000,0.0324,0.013523,0.002678,0.000431,0.000353
50001000,0.0324,0.013523,0.002678,0.000431,0.000705
50002000,0.0324,0.013523,0.002678,0.000431,0.000588
50003000,0.0324,0.013523,0.002678,0.000431,0.000470
50004000,0.0324,0.013523,0.002678,0.000431,0.000470
50005000,0.0324,0.013523,0.002678,0.000431,0.000470
50006000,0.0324,0.013523,0.002678,0.000431,0.000705
50007000,0.0324,0.013523,0.002678,0.000431,0.000353
50008000,0.0324,0.013523,0.002678,0.000431,0.000705
50009000,0.0324,0.013523,0.002678,0.000431,0.000353
50010000,0.0324,0.013523,0.002678,0.000431,0.000588
50011000,0.0324,0.013523,0.002678,0.000431,0.000353
50012000,0.0324,0.013523,0.002678,0.000431,0.000588
50013000,0.0324,0.013523,0.002678,0.000431,0.000353
50014000,0.0324,0.013523,0.002678,0.000431,0.000705
50015000,0.0324,0.013523,0.002678,0.000431,0.000353
50016000,0.0324,0.013523,0.002678,0.000431,0.000588
50017000,0.0324,0.013523,0.002678,0.000431,0.000470
50018000,0.0324,0.013523,0.002678,0.000431,0.000588
50019000,0.0324,0.013523,0.002678,0.000431,0.000588
50020000,0.0324,0.013523,0.002678,0.000431,0.000470
50021000,0.0324,0.013523,0.002678,0.000431,0.000705
50022000,0.0324,0.013523,0.002678,0.000431,0.000353
50023000,0.0324,0.013523,0.002678,0.000431,0.000588
50024000,0.0324,0.013523,0.002678,0.000431,0.000353
50025000,0.0324,0.013523,0.002678,0.000431,0.000588
50026000,0.0324,0.013523,0.002678,0.000431,0.000353
50027000,0.0324,0.013523,0.002678,0.000431,0.000588
50028000,0.0324,0.013523,0.002678,0.000431,0.000353
50029000,0.0324,0.013523,0.002678,0.000431,0.000823
50030000,0.0324,0.013523,0.002678,0.000431,0.000353
50031000,0.0324,0.013523,0.002678,0.000431,0.000470
50032000,0.0324,0.013523,0.002678,0.000431,0.000353
50033000,0.0324,0.013523,0.002678,0.000431,0.000588
50034000,0.0324,0.013523,0.002678,0.000431,0.000353
50035000,0.0324,0.013523,0.002678,0.000431,0.000588
50036000,0.0324,0.013523,0.002678,0.000431,0.000353
50037000,0.0324,0.013523,0.002678,0.000431,0.000588
50038000,0.0324,0.013523,0.002678,0.000431,0.000470
50039000,0.0324,0.013523,0.002678,0.000431,0.000470
50040000,0.0324,0.013523,0.002678,0.000431,0.000470
50041000,0.0324,0.013523,0.002678,0.000431,0.000588
50042000,0.0324,0.013523,0.002678,0.000431,0.000470
50043000,0.0324,0.013523,0.002678,0.000431,0.000705
50044000,0.0324,0.013523,0.002678,0.000431,0.000235
50045000,0.0324,0.013523,0.002678,0.000431,0.000823
50046000,0.0324,0.013523,0.002678,0.000431,0.000353
50047000,0.0324,0.013523,0.002678,0.000431,0.000470
50048000,0.0324,0.013523,0.002678,0.000431,0.000470
50049000,0.0324,0.013523,0.002678,0.000431,0.000588
50050000,0.0324,0.013523,0.002678,0.000431,0.000353
50051000,0.0324,0.013523,0.002678,0.000431,0.000588
50052000,0.0324,0.013523,0.002678,0.000431,0.000353
50053000,0.0324,0.013523,0.002678,0.000431,0.000470
50054000,0.0324,0.013523,0.002678,0.000431,0.000353
50055000,0.0324,0.013523,0.002678,0.000431,0.000588
50056000,0.0324,0.013523,0.002678,0.000431,0.000353
50057000,0.0324,0.013523,0.002678,0.000431,0.000588
50058000,0.0324,0.013523,0.002678,0.000431,0.000353
50059000,0.0324,0.013523,0.002678,0.000431,0.000940
50060000,0.0324,0.013523,0.002678,0.000431,0.000353
50061000,0.0324,0.013523,0.002678,0.000431,0.000470
50062000,0.0324,0.013523,0.002678,0.000431,0.000353
50063000,0.0324,0.013523,0.002678,0.000431,0.000588
50064000,0.0324,0.013523,0.002678,0.000431,0.000353
50065000,0.0324,0.013523,0.002678,0.000431,0.000705
50066000,0.0324,0.013523,0.002678,0.000431,0.000470
50067000,0.0324,0.013523,0.002678,0.000431,0.000353
50068000,0.0324,0.013523,0.002678,0.000431,0.000705
50069000,0.0324,0.013523,0.002678,0.000431,0.000470
50070000,0.0324,0.013523,0.002678,0.000431,0.000470
50071000,0.0324,0.013523,0.002678,0.000431,0.000470
50072000,0.0324,0.013523,0.002678,0.000431,0.000470
50073000,0.0324,0.013523,0.002678,0.000431,0.000353
50074000,0.0324,0.013523,0.002678,0.000431,0.000588
50075000,0.0324,0.013523,0.002678,0.000431,0.000353
50076000,0.0324,0.013523,0.002678,0.000431,0.000588
50077000,0.0324,0.013523,0.002678,0.000431,0.000353
50078000,0.0324,0.013523,0.002678,0.000431,0.000588
50079000,0.0324,0.013523,0.002678,0.000431,0.000353
50080000,0.0324,0.013523,0.002678,0.000431,0.000588
50081000,0.0324,0.013523,0.002678,0.000431,0.000353
50082000,0.0324,0.013523,0.002678,0.000431,0.000705
50083000,0.0324,0.013523,0.002678,0.000431,0.000588
50084000,0.0324,0.013523,0.002678,0.000431,0.000470
50085000,0.0324,0.013523,0.002678,0.000431,0.000588
50086000,0.0324,0.013523,0.002678,0.000431,0.000353
50087000,0.0324,0.013523,0.002678,0.000431,0.000588
50088000,0.0324,0.013523,0.002678,0.000431,0.000353
50089000,0.0324,0.013523,0.002678,0.000431,0.000588
50090000,0.0324,0.013523,0.002678,0.000431,0.000353
50091000,0.0324,0.013523,0.002678,0.000431,0.000470
50092000,0.0324,0.013523,0.002678,0.000431,0.000470
50093000,0.0324,0.013523,0.002678,0.000431,0.000353
50094000,0.0324,0.013523,0.002678,0.000431,0.000588
50095000,0.0324,0.013523,0.002678,0.000431,0.000353
50096000,0.0324,0.013523,0.002678,0.000431,0.000588
50097000,0.0324,0.013523,0.002678,0.000431,0.000353
50098000,0.0324,0.013523,0.002678,0.000431,0.000588
50099000,0.0324,0.013523,0.002678,0.000431,0.000353
50100000,0.0324,0.013523,0.002678,0.000431,0.000588
50101000,0.0324,0.013523,0.002678,0.000431,0.000353
50102000,0.0324,0.013523,0.002678,0.000431,0.000705
50103000,0.0324,0.013523,0.002678,0.000431,0.000588
50104000,0.0324,0.013523,0.002678,0.000431,0.000588
50105000,0.0324,0.013523,0.002678,0.000431,0.000470
50106000,0.0324,0.013523,0.002678,0.000431,0.000353
50107000,0.0324,0.013523,0.002678,0.000431,0.000588
50108000,0.0324,0.013523,0.002678,0.000431,0.000470
50109000,0.0324,0.013523,0.002678,0.000431,0.000470
50110000,0.0324,0.013523,0.002678,0.000431,0.000470
50111000,0.0324,0.013523,0.002678,0.000431,0.000470
50112000,0.0324,0.013523,0.002678,0.000431,0.000470
50113000,0.0324,0.013523,0.002678,0.000431,0.000470
50114000,0.0324,0.013523,0.002678,0.000431,0.000470
50115000,0.0324,0.013523,0.002678,0.000431,0.000353
50116000,0.0324,0.013523,0.002678,0.000431,0.000588
50117000,0.0324,0.013523,0.002678,0.000431,0.000353
50118000,0.0324,0.013523,0.002678,0.000431,0.000588
50119000,0.0324,0.013523,0.002678,0.000431,0.000353
50120000,0.0324,0.013523,0.002678,0.000431,0.000705
50121000,0.0324,0.013523,0.002678,0.000431,0.000353
50122000,0.0324,0.013523,0.002678,0.000431,0.000705
50123000,0.0324,0.013523,0.002678,0.000431,0.000470
50124000,0.0324,0.013523,0.002678,0.000431,0.000470
50125000,0.0324,0.013523,0.002678,0.000431,0.000470
50126000,0.0324,0.013523,0.002678,0.000431,0.000470
50127000,0.0324,0.013523,0.002678,0.000431,0.000470
50128000,0.0324,0.013523,0.002678,0.000431,0.000470
50129000,0.0324,0.013523,0.002678,0.000431,0.000470
50130000,0.0324,0.013523,0.002678,0.000431,0.000470
50131000,0.0324,0.013523,0.002678,0.000431,0.000470
50132000,0.0324,0.013523,0.002678,0.000431,0.000470
50133000,0.0324,0.013523,0.002678,0.000431,0.000353
50134000,0.0324,0.013523,0.002678,0.000431,0.000588
50135000,0.0324,0.013523,0.002678,0.000431,0.000353
50136000,0.0324,0.013523,0.002678,0.000431,0.000588
50137000,0.0324,0.013523,0.002678,0.000431,0.000353
50138000,0.0324,0.013523,0.002678,0.000431,0.000588
50139000,0.0324,0.013523,0.002678,0.000431,0.000353
50140000,0.0324,0.013523,0.002678,0.000431,0.000705
50141000,0.0324,0.013523,0.002678,0.000431,0.000353
50142000,0.0324,0.013523,0.002678,0.000431,0.000588
50143000,0.0324,0.013523,0.002678,0.000431,0.000353
50144000,0.0324,0.013523,0.002678,0.000431,0.000588
50145000,0.0324,0.013523,0.002678,0.000431,0.000353
50146000,0.0324,0.013523,0.002678,0.000431,0.000588
50147000,0.0324,0.013523,0.002678,0.000431,0.000353
50148000,0.0324,0.013523,0.002678,0.000431,0.000588
50149000,0.0324,0.013523,0.002678,0.000431,0.000353
50150000,0.0324,0.013523,0.002678,0.000431,0.000588
50151000,0.0324,0.013523,0.002678,0.000431,0.000353
50152000,0.0324,0.013523,0.002678,0.000431,0.000470
50153000,0.0324,0.013523,0.002678,0.000431,0.000470
50154000,0.0324,0.013523,0.002678,0.000431,0.000470
50155000,0.0324,0.013523,0.002678,0.000431,0.000470
50156000,0.0324,0.013523,0.002678,0.000431,0.000470
50157000,0.0324,0.013523,0.002678,0.000431,0.000470
50158000,0.0324,0.013523,0.002678,0.000431,0.000470
50159000,0.0324,0.013523,0.002678,0.000431,0.000470
50160000,0.0324,0.013523,0.002678,0.000431,0.000588
50161000,0.0324,0.013523,0.002678,0.000431,0.000470
50162000,0.0324,0.013523,0.002678,0.000431,0.000705
50163000,0.0324,0.013523,0.002678,0.000431,0.000353
50164000,0.0324,0.013523,0.002678,0.000431,0.000588
50165000,0.0324,0.013523,0.002678,0.000431,0.000353
50166000,0.0324,0.013523,0.002678,0.000431,0.000705
50167000,0.0324,0.013523,0.002678,0.000431,0.000588
50168000,0.0324,0.013523,0.002678,0.000431,0.000470
50169000,0.0324,0.013523,0.002678,0.000431,0.000705
50170000,0.0324,0.013523,0.002678,0.000431,0.000353
50171000,0.0324,0.013523,0.002678,0.000431,0.000705
50172000,0.0324,0.013523,0.002678,0.000431,0.000588
50173000,0.0324,0.013523,0.002678,0.000431,0.000353
50174000,0.0324,0.013523,0.002678,0.000431,0.000588
50175000,0.0324,0.013523,0.002678,0.000431,0.000353
50176000,0.0324,0.013523,0.002678,0.000431,0.000470
50177000,0.0324,0.013523,0.002678,0.000431,0.000470
50178000,0.0324,0.013523,0.002678,0.000431,0.000470
50179000,0.0324,0.013523,0.002678,0.000431,0.000470
50180000,0.0324,0.013523,0.002678,0.000431,0.000470
50181000,0.0324,0.013523,0.002678,0.000431,0.000470
50182000,0.0324,0.013523,0.002678,0.000431,0.000470
50183000,0.0324,0.013523,0.002678,0.000431,0.000470
50184000,0.0324,0.013523,0.002678,0.000431,0.000470
50185000,0.0324,0.013523,0.002678,0.000431,0.000470
50186000,0.0324,0.013523,0.002678,0.000431,0.000470
50187000,0.0324,0.013523,0.002678,0.000431,0.000470
50188000,0.0324,0.013523,0.002678,0.000431,0.000470
50189000,0.0324,0.013523,0.002678,0.000431,0.000470
50190000,0.0324,0.013523,0.002678,0.000431,0.000470
50191000,0.0324,0.013523,0.002678,0.000431,0.000470
50192000,0.0324,0.013523,0.002678,0.000431,0.000470
50193000,0.0324,0.013523,0.002678,0.000431,0.000470
50194000,0.0324,0.013523,0.002678,0.000431,0.000353
50195000,0.0324,0.013523,0.002678,0.000431,0.000588
50196000,0.0324,0.013523,0.002678,0.000431,0.000353
50197000,0.0324,0.013523,0.002678,0.000431,0.000705
50198000,0.0324,0.013523,0.002678,0.000431,0.000353
50199000,0.0324,0.013523,0.002678,0.000431,0.000588
50200000,0.0324,0.013523,0.002678,0.000431,0.000353
50201000,0.0324,0.013523,0.002678,0.000431,0.000588
50202000,0.0324,0.013523,0.002678,0.000431,0.000353
50203000,0.0324,0.013523,0.002678,0.000431,0.000588
50204000,0.0324,0.013523,0.002678,0.000431,0.000353
50205000,0.0324,0.013523,0.002678,0.000431,0.000588
50206000,0.0324,0.013523,0.002678,0.000431,0.000353
50207000,0.0324,0.013523,0.002678,0.000431,0.000588
50208000,0.0324,0.013523,0.002678,0.000431,0.000353
50209000,0.0324,0.013523,0.002678,0.000431,0.000588
50210000,0.0324,0.013523,0.002678,0.000431,0.000470
50211000,0.0324,0.013523,0.002678,0.000431,0.000705
50212000,0.0324,0.013523,0.002678,0.000431,0.000353
50213000,0.0324,0.013523,0.002678,0.000431,0.000588
50214000,0.0324,0.013523,0.002678,0.000431,0.000353
50215000,0.0324,0.013523,0.002678,0.000431,0.000588
50216000,0.0324,0.013523,0.002678,0.000431,0.000353
50217000,0.0324,0.013523,0.002678,0.000431,0.000705
50218000,0.0324,0.013523,0.002678,0.000431,0.000470
50219000,0.0324,0.013523,0.002678,0.000431,0.000470
50220000,0.0324,0.013523,0.002678,0.000431,0.000470
50221000,0.0324,0.013523,0.002678,0.000431,0.000470
50222000,0.0324,0.013523,0.002678,0.000431,0.000470
50223000,0.0324,0.013523,0.002678,0.000431,0.000470
50224000,0.0324,0.013523,0.002678,0.000431,0.000470
50225000,0.0324,0.013523,0.002678,0.000431,0.000470
50226000,0.0324,0.013523,0.002678,0.000431,0.000470
50227000,0.0324,0.013523,0.002678,0.000431,0.000588
50228000,0.0324,0.013523,0.002678,0.000431,0.000353
50229000,0.0324,0.013523,0.002678,0.000431,0.000470
50230000,0.0324,0.013523,0.002678,0.000431,0.000470
50231000,0.0324,0.013523,0.002678,0.000431,0.000470
50232000,0.0324,0.013523,0.002678,0.000431,0.000470
50233000,0.0324,0.013523,0.002678,0.000431,0.000470
50234000,0.0324,0.013523,0.002678,0.000431,0.000470
50235000,0.0324,0.013523,0.002678,0.000431,0.000470
50236000,0.0324,0.013523,0.002678,0.000431,0.000470
50237000,0.0324,0.013523,0.002678,0.000431,0.000470
50238000,0.0324,0.013523,0.002678,0.000431,0.000353
50239000,0.0324,0.013523,0.002678,0.000431,0.000588
50240000,0.0324,0.013523,0.002678,0.000431,0.000470
50241000,0.0324,0.013523,0.002678,0.000431,0.000470
50242000,0.0324,0.013523,0.002678,0.000431,0.000470
50243000,0.0324,0.013523,0.002678,0.000431,0.000470
50244000,0.0324,0.013523,0.002678,0.000431,0.000353
50245000,0.0324,0.013523,0.002678,0.000431,0.000588
50246000,0.0324,0.013523,0.002678,0.000431,0.000353
50247000,0.0324,0.013523,0.002678,0.000431,0.000588
50248000,0.0324,0.013523,0.002678,0.000431,0.000353
50249000,0.0324,0.013523,0.002678,0.000431,0.000588
50250000,0.0324,0.013523,0.002678,0.000431,0.000353
50251000,0.0324,0.013523,0.002678,0.000431,0.000470
50252000,0.0324,0.013523,0.002678,0.000431,0.000470
50253000,0.0324,0.013523,0.002678,0.000431,0.000470
50254000,0.0324,0.013523,0.002678,0.000431,0.000470
50255000,0.0324,0.013523,0.002678,0.000431,0.000353
50256000,0.0324,0.013523,0.002678,0.000431,0.000588
50257000,0.0324,0.013523,0.002678,0.000431,0.000353
50258000,0.0324,0.013523,0.002678,0.000431,0.000588
50259000,0.0324,0.013523,0.002678,0.000431,0.000353
50260000,0.0324,0.013523,0.002678,0.000431,0.000588
50261000,0.0324,0.013523,0.002678,0.000431,0.000353
50262000,0.0324,0.013523,0.002678,0.000431,0.000588
50263000,0.0324,0.013523,0.002678,0.000431,0.000353
50264000,0.0324,0.013523,0.002678,0.000431,0.000705
50265000,0.0324,0.013523,0.002678,0.000431,0.000588
50266000,0.0324,0.013523,0.002678,0.000431,0.000470
50267000,0.0324,0.013523,0.002678,0.000431,0.000588
50268000,0.0324,0.013523,0.002678,0.000431,0.000353
50269000,0.0324,0.013523,0.002678,0.000431,0.000588
50270000,0.0324,0.013523,0.002678,0.000431,0.000353
50271000,0.0324,0.013523,0.002678,0.000431,0.000705
50272000,0.0324,0.013523,0.002678,0.000431,0.000470
50273000,0.0324,0.013523,0.002678,0.000431,0.000470
50274000,0.0324,0.013523,0.002678,0.000431,0.000470
50275000,0.0324,0.013523,0.002678,0.000431,0.000705
50276000,0.0324,0.013523,0.002678,0.000431,0.000353
50277000,0.0324,0.013523,0.002678,0.000431,0.000705
50278000,0.0324,0.013523,0.002678,0.000431,0.000588
50279000,0.0324,0.013523,0.002678,0.000431,0.000470
50280000,0.0324,0.013523,0.002678,0.000431,0.000705
50281000,0.0324,0.013523,0.002678,0.000431,0.000353
50282000,0.0324,0.013523,0.002678,0.000431,0.000705
50283000,0.0324,0.013523,0.002678,0.000431,0.000470
50284000,0.0324,0.013523,0.002678,0.000431,0.000470
50285000,0.0324,0.013523,0.002678,0.000431,0.000470
50286000,0.0324,0.013523,0.002678,0.000431,0.000470
50287000,0.0324,0.013523,0.002678,0.000431,0.000353
50288000,0.0324,0.013523,0.002678,0.000431,0.000588
50289000,0.0324,0.013523,0.002678,0.000431,0.000353
50290000,0.0324,0.013523,0.002678,0.000431,0.000588
50291000,0.0324,0.013523,0.002678,0.000431,0.000353
50292000,0.0324,0.013523,0.002678,0.000431,0.000588
50293000,0.0324,0.013523,0.002678,0.000431,0.000353
50294000,0.0324,0.013523,0.002678,0.000431,0.000588
50295000,0.0324,0.013523,0.002678,0.000431,0.000353
50296000,0.0324,0.013523,0.002678,0.000431,0.000588
50297000,0.0324,0.013523,0.002678,0.000431,0.000353
50298000,0.0324,0.013523,0.002678,0.000431,0.000588
50299000,0.0324,0.013523,0.002678,0.000431,0.000353
50300000,0.0324,0.013523,0.002678,0.000431,0.000588
50301000,0.0324,0.013523,0.002678,0.000431,0.000353
50302000,0.0324,0.013523,0.002678,0.000431,0.000588
50303000,0.0324,0.013523,0.002678,0.000431,0.000353
50304000,0.0324,0.013523,0.002678,0.000431,0.000588
50305000,0.0324,0.013523,0.002678,0.000431,0.000353
50306000,0.0324,0.013523,0.002678,0.000431,0.000470
50307000,0.0324,0.013523,0.002678,0.000431,0.000588
50308000,0.0324,0.013523,0.002678,0.000431,0.000588
50309000,0.0324,0.013523,0.002678,0.000431,0.000470
50310000,0.0324,0.013523,0.002678,0.000431,0.000823
50311000,0.0324,0.013523,0.002678,0.000431,0.000235
50312000,0.0324,0.013523,0.002678,0.000431,0.000588
50313000,0.0324,0.013523,0.002678,0.000431,0.000353
50314000,0.0324,0.013523,0.002678,0.000431,0.000588
50315000,0.0324,0.013523,0.002678,0.000431,0.000470
50316000,0.0324,0.013523,0.002678,0.000431,0.000470
50317000,0.0324,0.013523,0.002678,0.000431,0.000353
50318000,0.0324,0.013523,0.002678,0.000431,0.000823
50319000,0.0324,0.013523,0.002678,0.000431,0.000353
50320000,0.0324,0.013523,0.002678,0.000431,0.000470
50321000,0.0324,0.013523,0.002678,0.000431,0.000353
50322000,0.0324,0.013523,0.002678,0.000431,0.000705
50323000,0.0324,0.013523,0.002678,0.000431,0.000353
50324000,0.0324,0.013523,0.002678,0.000431,0.000705
50325000,0.0324,0.013523,0.002678,0.000431,0.000588
50326000,0.0324,0.013523,0.002678,0.000431,0.000470
50327000,0.0324,0.013523,0.002678,0.000431,0.000705
50328000,0.0324,0.013523,0.002678,0.000431,0.000353
50329000,0.0324,0.013523,0.002678,0.000431,0.000588
50330000,0.0324,0.013523,0.002678,0.000431,0.000353
50331000,0.0324,0.013523,0.002678,0.000431,0.000823
50332000,0.0324,0.013523,0.002678,0.000431,0.000235
50333000,0.0324,0.013523,0.002678,0.000431,0.000705
50334000,0.0324,0.013523,0.002678,0.000431,0.000353
50335000,0.0324,0.013523,0.002678,0.000431,0.000705
50336000,0.0324,0.013523,0.002678,0.000431,0.000588
50337000,0.0324,0.013523,0.002678,0.000431,0.000470
50338000,0.0324,0.013523,0.002678,0.000431,0.000588
50339000,0.0324,0.013523,0.002678,0.000431,0.000353
50340000,0.0324,0.013523,0.002678,0.000431,0.000588
50341000,0.0324,0.013523,0.002678,0.000431,0.000353
50342000,0.0324,0.013523,0.002678,0.000431,0.000588
50343000,0.0324,0.013523,0.002678,0.000431,0.000353
50344000,0.0324,0.013523,0.002678,0.000431,0.000470
50345000,0.0324,0.013523,0.002678,0.000431,0.000470
50346000,0.0324,0.013523,0.002678,0.000431,0.000470
50347000,0.0324,0.013523,0.002678,0.000431,0.000705
50348000,0.0324,0.013523,0.002678,0.000431,0.000353
50349000,0.0324,0.013523,0.002678,0.000431,0.000588
50350000,0.0324,0.013523,0.002678,0.000431,0.000353
50351000,0.0324,0.013523,0.002678,0.000431,0.000588
50352000,0.0324,0.013523,0.002678,0.000431,0.000353
50353000,0.0324,0.013523,0.002678,0.000431,0.000588
50354000,0.0324,0.013523,0.002678,0.000431,0.000353
50355000,0.0324,0.013523,0.002678,0.000431,0.000588
50356000,0.0324,0.013523,0.002678,0.000431,0.000353
50357000,0.0324,0.013523,0.002678,0.000431,0.000470
50358000,0.0324,0.013523,0.002678,0.000431,0.000470
50359000,0.0324,0.013523,0.002678,0.000431,0.000705
50360000,0.0324,0.013523,0.002678,0.000431,0.000588
50361000,0.0324,0.013523,0.002678,0.000431,0.000353
50362000,0.0324,0.013523,0.002678,0.000431,0.000588
50363000,0.0324,0.013523,0.002678,0.000431,0.000588
50364000,0.0324,0.013523,0.002678,0.000431,0.000470
50365000,0.0324,0.013523,0.002678,0.000431,0.000470
50366000,0.0324,0.013523,0.002678,0.000431,0.000470
50367000,0.0324,0.013523,0.002678,0.000431,0.000470
50368000,0.0324,0.013523,0.002678,0.000431,0.000588
50369000,0.0324,0.013523,0.002678,0.000431,0.000470
50370000,0.0324,0.013523,0.002678,0.000431,0.000588
50371000,0.0324,0.013523,0.002678,0.000431,0.000353
50372000,0.0324,0.013523,0.002678,0.000431,0.000588
50373000,0.0324,0.013523,0.002678,0.000431,0.000353
50374000,0.0324,0.013523,0.002678,0.000431,0.000470
50375000,0.0324,0.013523,0.002678,0.000431,0.000470
50376000,0.0324,0.013523,0.002678,0.000431,0.000353
50377000,0.0324,0.013523,0.002678,0.000431,0.000588
50378000,0.0324,0.013523,0.002678,0.000431,0.000353
50379000,0.0324,0.013523,0.002678,0.000431,0.000588
50380000,0.0324,0.013523,0.002678,0.000431,0.000353
50381000,0.0324,0.013523,0.002678,0.000431,0.000588
50382000,0.0324,0.013523,0.002678,0.000431,0.000353
50383000,0.0324,0.013523,0.002678,0.000431,0.000705
50384000,0.0324,0.013523,0.002678,0.000431,0.000470
50385000,0.0324,0.013523,0.002678,0.000431,0.000470
50386000,0.0324,0.013523,0.002678,0.000431,0.000470
50387000,0.0324,0.013523,0.002678,0.000431,0.000470
50388000,0.0324,0.013523,0.002678,0.000431,0.000470
50389000,0.0324,0.013523,0.002678,0.000431,0.000470
50390000,0.0324,0.013523,0.002678,0.000431,0.000470
50391000,0.0324,0.013523,0.002678,0.000431,0.000470
50392000,0.0324,0.013523,0.002678,0.000431,0.000470
50393000,0.0324,0.013523,0.002678,0.000431,0.000470
50394000,0.0324,0.013523,0.002678,0.000431,0.000470
50395000,0.0324,0.013523,0.002678,0.000431,0.000470
50396000,0.0324,0.013523,0.002678,0.000431,0.000353
50397000,0.0324,0.013523,0.002678,0.000431,0.000588
50398000,0.0324,0.013523,0.002678,0.000431,0.000353
50399000,0.0324,0.013523,0.002678,0.000431,0.000588
50400000,0.0324,0.013523,0.002678,0.000431,0.000353
50401000,0.0324,0.013523,0.002678,0.000431,0.000588
50402000,0.0324,0.013523,0.002678,0.000431,0.000353
50403000,0.0324,0.013523,0.002678,0.000431,0.000588
50404000,0.0324,0.013523,0.002678,0.000431,0.000353
50405000,0.0324,0.013523,0.002678,0.000431,0.000705
50406000,0.0324,0.013523,0.002678,0.000431,0.000353
50407000,0.0324,0.013523,0.002678,0.000431,0.000588
50408000,0.0324,0.013523,0.002678,0.000431,0.000353
50409000,0.0324,0.013523,0.002678,0.000431,0.000588
50410000,0.0324,0.013523,0.002678,0.000431,0.000353
50411000,0.0324,0.013523,0.002678,0.000431,0.000588
50412000,0.0324,0.013523,0.002678,0.000431,0.000353
50413000,0.0324,0.013523,0.002678,0.000431,0.000588
50414000,0.0324,0.013523,0.002678,0.000431,0.000353
50415000,0.0324,0.013523,0.002678,0.000431,0.000588
50416000,0.0324,0.013523,0.002678,0.000431,0.000353
50417000,0.0324,0.013523,0.002678,0.000431,0.000588
50418000,0.0324,0.013523,0.002678,0.000431,0.000353
50419000,0.0324,0.013523,0.002678,0.000431,0.000470
50420000,0.0324,0.013523,0.002678,0.000431,0.000470
50421000,0.0324,0.013523,0.002678,0.000431,0.000470
50422000,0.0324,0.013523,0.002678,0.000431,0.000470
50423000,0.0324,0.013523,0.002678,0.000431,0.000588
50424000,0.0324,0.013523,0.002678,0.000431,0.000470
50425000,0.0324,0.013523,0.002678,0.000431,0.000705
50426000,0.0324,0.013523,0.002678,0.000431,0.000353
50427000,0.0324,0.013523,0.002678,0.000431,0.000705
50428000,0.0324,0.013523,0.002678,0.000431,0.000470
50429000,0.0324,0.013523,0.002678,0.000431,0.000470
50430000,0.0324,0.013523,0.002678,0.000431,0.000470
50431000,0.0324,0.013523,0.002678,0.000431,0.000470
50432000,0.0324,0.013523,0.002678,0.000431,0.000588
50433000,0.0324,0.013523,0.002678,0.000431,0.000470
50434000,0.0324,0.013523,0.002678,0.000431,0.000588
50435000,0.0324,0.013523,0.002678,0.000431,0.000353
50436000,0.0324,0.013523,0.002678,0.000431,0.000588
50437000,0.0324,0.013523,0.002678,0.000431,0.000470
50438000,0.0324,0.013523,0.002678,0.000431,0.000470
50439000,0.0324,0.013523,0.002678,0.000431,0.000470
50440000,0.0324,0.013523,0.002678,0.000431,0.000470
50441000,0.0324,0.013523,0.002678,0.000431,0.000470
50442000,0.0324,0.013523,0.002678,0.000431,0.000470
50443000,0.0324,0.013523,0.002678,0.000431,0.000353
50444000,0.0324,0.013523,0.002678,0.000431,0.000588
50445000,0.0324,0.013523,0.002678,0.000431,0.000470
50446000,0.0324,0.013523,0.002678,0.000431,0.000588
50447000,0.0324,0.013523,0.002678,0.000431,0.000470
50448000,0.0324,0.013523,0.002678,0.000431,0.000705
50449000,0.0324,0.013523,0.002678,0.000431,0.000353
50450000,0.0324,0.013523,0.002678,0.000431,0.000705
50451000,0.0324,0.013523,0.002678,0.000431,0.000470
50452000,0.0324,0.013523,0.002678,0.000431,0.000470
50453000,0.0324,0.013523,0.002678,0.000431,0.000470
50454000,0.0324,0.013523,0.002678,0.000431,0.000470
50455000,0.0324,0.013523,0.002678,0.000431,0.000353
50456000,0.0324,0.013523,0.002678,0.000431,0.000705
50457000,0.0324,0.013523,0.002678,0.000431,0.000353
50458000,0.0324,0.013523,0.002678,0.000431,0.000705
50459000,0.0324,0.013523,0.002678,0.000431,0.000470
50460000,0.0324,0.013523,0.002678,0.000431,0.000470
50461000,0.0324,0.013523,0.002678,0.000431,0.000588
50462000,0.0324,0.013523,0.002678,0.000431,0.000470
50463000,0.0324,0.013523,0.002678,0.000431,0.000705
50464000,0.0324,0.013523,0.002678,0.000431,0.000353
50465000,0.0324,0.013523,0.002678,0.000431,0.000588
50466000,0.0324,0.013523,0.002678,0.000431,0.000470
50467000,0.0324,0.013523,0.002678,0.000431,0.000588
50468000,0.0324,0.013523,0.002678,0.000431,0.000470
50469000,0.0324,0.013523,0.002678,0.000431,0.000470
50470000,0.0324,0.013523,0.002678,0.000431,0.000470
50471000,0.0324,0.013523,0.002678,0.000431,0.000470
50472000,0.0324,0.013523,0.002678,0.000431,0.000470
50473000,0.0324,0.013523,0.002678,0.000431,0.000470
50474000,0.0324,0.013523,0.002678,0.000431,0.000470
50475000,0.0324,0.013523,0.002678,0.000431,0.000470
50476000,0.0324,0.013523,0.002678,0.000431,0.000470
50477000,0.0324,0.013523,0.002678,0.000431,0.000470
50478000,0.0324,0.013523,0.002678,0.000431,0.000470
50479000,0.0324,0.013523,0.002678,0.000431,0.000470
50480000,0.0324,0.013523,0.002678,0.000431,0.000470
50481000,0.0324,0.013523,0.002678,0.000431,0.000470
50482000,0.0324,0.013523,0.002678,0.000431,0.000470
50483000,0.0324,0.013523,0.002678,0.000431,0.000470
50484000,0.0324,0.013523,0.002678,0.000431,0.000353
50485000,0.0324,0.013523,0.002678,0.000431,0.000588
50486000,0.0324,0.013523,0.002678,0.000431,0.000353
50487000,0.0324,0.013523,0.002678,0.000431,0.000588
50488000,0.0324,0.013523,0.002678,0.000431,0.000353
50489000,0.0324,0.013523,0.002678,0.000431,0.000588
50490000,0.0324,0.013523,0.002678,0.000431,0.000353
50491000,0.0324,0.013523,0.002678,0.000431,0.000705
50492000,0.0324,0.013523,0.002678,0.000431,0.000353
50493000,0.0324,0.013523,0.002678,0.000431,0.000705
50494000,0.0324,0.013523,0.002678,0.000431,0.000470
50495000,0.0324,0.013523,0.002678,0.000431,0.000470
50496000,0.0324,0.013523,0.002678,0.000431,0.000588
50497000,0.0324,0.013523,0.002678,0.000431,0.000353
50498000,0.0324,0.013523,0.002678,0.000431,0.000588
50499000,0.0324,0.013523,0.002678,0.000431,0.000470
50500000,0.0324,0.013523,0.002678,0.000431,0.000588
50501000,0.0324,0.013523,0.002678,0.000431,0.000470
50502000,0.0324,0.013523,0.002678,0.000431,0.000470
50503000,0.0324,0.013523,0.002678,0.000431,0.000470
50504000,0.0324,0.013523,0.002678,0.000431,0.000470
50505000,0.0324,0.013523,0.002678,0.000431,0.000470
50506000,0.0324,0.013523,0.002678,0.000431,0.000470
50507000,0.0324,0.013523,0.002678,0.000431,0.000470
50508000,0.0324,0.013523,0.002678,0.000431,0.000588
50509000,0.0324,0.013523,0.002678,0.000431,0.000470
50510000,0.0324,0.013523,0.002678,0.000431,0.000588
50511000,0.0324,0.013523,0.002678,0.000431,0.000353
50512000,0.0324,0.013523,0.002678,0.000431,0.000588
50513000,0.0324,0.013523,0.002678,0.000431,0.000353
50514000,0.0324,0.013523,0.002678,0.000431,0.000470
50515000,0.0324,0.013523,0.002678,0.000431,0.000470
50516000,0.0324,0.013523,0.002678,0.000431,0.000470
50517000,0.0324,0.013523,0.002678,0.000431,0.000470
50518000,0.0324,0.013523,0.002678,0.000431,0.000353
50519000,0.0324,0.013523,0.002678,0.000431,0.000588
50520000,0.0324,0.013523,0.002678,0.000431,0.000353
50521000,0.0324,0.013523,0.002678,0.000431,0.000705
50522000,0.0324,0.013523,0.002678,0.000431,0.000588
50523000,0.0324,0.013523,0.002678,0.000431,0.000470
50524000,0.0324,0.013523,0.002678,0.000431,0.000588
50525000,0.0324,0.013523,0.002678,0.000431,0.000353
50526000,0.0324,0.013523,0.002678,0.000431,0.000705
50527000,0.0324,0.013523,0.002678,0.000431,0.000353
50528000,0.0324,0.013523,0.002678,0.000431,0.000588
50529000,0.0324,0.013523,0.002678,0.000431,0.000353
50530000,0.0324,0.013523,0.002678,0.000431,0.000470
50531000,0.0324,0.013523,0.002678,0.000431,0.000470
50532000,0.0324,0.013523,0.002678,0.000431,0.000470
50533000,0.0324,0.013523,0.002678,0.000431,0.000470
50534000,0.0324,0.013523,0.002678,0.000431,0.000470
50535000,0.0324,0.013523,0.002678,0.000431,0.000353
50536000,0.0324,0.013523,0.002678,0.000431,0.000588
50537000,0.0324,0.013523,0.002678,0.000431,0.000470
50538000,0.0324,0.013523,0.002678,0.000431,0.000470
50539000,0.0324,0.013523,0.002678,0.000431,0.000470
50540000,0.0324,0.013523,0.002678,0.000431,0.000588
50541000,0.0324,0.013523,0.002678,0.000431,0.000470
50542000,0.0324,0.013523,0.002678,0.000431,0.000588
50543000,0.0324,0.013523,0.002678,0.000431,0.000353
50544000,0.0324,0.013523,0.002678,0.000431,0.000705
50545000,0.0324,0.013523,0.002678,0.000431,0.000353
50546000,0.0324,0.013523,0.002678,0.000431,0.000588
50547000,0.0324,0.013523,0.002678,0.000431,0.000353
50548000,0.0324,0.013523,0.002678,0.000431,0.000588
50549000,0.0324,0.013523,0.002678,0.000431,0.000353
50550000,0.0324,0.013523,0.002678,0.000431,0.000588
50551000,0.0324,0.013523,0.002678,0.000431,0.000353
50552000,0.0324,0.013523,0.002678,0.000431,0.000588
50553000,0.0324,0.013523,0.002678,0.000431,0.000353
50554000,0.0324,0.013523,0.002678,0.000431,0.000705
50555000,0.0324,0.013523,0.002678,0.000431,0.000353
50556000,0.0324,0.013523,0.002678,0.000431,0.000470
50557000,0.0324,0.013523,0.002678,0.000431,0.000353
50558000,0.0324,0.013523,0.002678,0.000431,0.000588
50559000,0.0324,0.013523,0.002678,0.000431,0.000470
50560000,0.0324,0.013523,0.002678,0.000431,0.000705
50561000,0.0324,0.013523,0.002678,0.000431,0.000353
50562000,0.0324,0.013523,0.002678,0.000431,0.000470
50563000,0.0324,0.013523,0.002678,0.000431,0.000470
50564000,0.0324,0.013523,0.002678,0.000431,0.000470
50565000,0.0324,0.013523,0.002678,0.000431,0.000470
50566000,0.0324,0.013523,0.002678,0.000431,0.000470
50567000,0.0324,0.013523,0.002678,0.000431,0.000470
50568000,0.0324,0.013523,0.002678,0.000431,0.000470
50569000,0.0324,0.013523,0.002678,0.000431,0.000353
50570000,0.0324,0.013523,0.002678,0.000431,0.000588
50571000,0.0324,0.013523,0.002678,0.000431,0.000470
50572000,0.0324,0.013523,0.002678,0.000431,0.000470
50573000,0.0324,0.013523,0.002678,0.000431,0.000470
50574000,0.0324,0.013523,0.002678,0.000431,0.000470
50575000,0.0324,0.013523,0.002678,0.000431,0.000353
50576000,0.0324,0.013523,0.002678,0.000431,0.000588
50577000,0.0324,0.013523,0.002678,0.000431,0.000353
50578000,0.0324,0.013523,0.002678,0.000431,0.000588
50579000,0.0324,0.013523,0.002678,0.000431,0.000353
50580000,0.0324,0.013523,0.002678,0.000431,0.000588
50581000,0.0324,0.013523,0.002678,0.000431,0.000353
50582000,0.0324,0.013523,0.002678,0.000431,0.000705
50583000,0.0324,0.013523,0.002678,0.000431,0.000353
50584000,0.0324,0.013523,0.002678,0.000431,0.000470
50585000,0.0324,0.013523,0.002678,0.000431,0.000470
50586000,0.0324,0.013523,0.002678,0.000431,0.000588
50587000,0.0324,0.013523,0.002678,0.000431,0.000470
50588000,0.0324,0.013523,0.002678,0.000431,0.000705
50589000,0.0324,0.013523,0.002678,0.000431,0.000353
50590000,0.0324,0.013523,0.002678,0.000431,0.000705
50591000,0.0324,0.013523,0.002678,0.000431,0.000588
50592000,0.0324,0.013523,0.002678,0.000431,0.000470
50593000,0.0324,0.013523,0.002678,0.000431,0.000470
50594000,0.0324,0.013523,0.002678,0.000431,0.000353
50595000,0.0324,0.013523,0.002678,0.000431,0.000588
50596000,0.0324,0.013523,0.002678,0.000431,0.000353
50597000,0.0324,0.013523,0.002678,0.000431,0.000588
50598000,0.0324,0.013523,0.002678,0.000431,0.000470
50599000,0.0324,0.013523,0.002678,0.000431,0.000705
50600000,0.0324,0.013523,0.002678,0.000431,0.000235
50601000,0.0324,0.013523,0.002678,0.000431,0.000705
50602000,0.0324,0.013523,0.002678,0.000431,0.000353
50603000,0.0324,0.013523,0.002678,0.000431,0.000705
50604000,0.0324,0.013523,0.002678,0.000431,0.000470
50605000,0.0324,0.013523,0.002678,0.000431,0.000588
50606000,0.0324,0.013523,0.002678,0.000431,0.000353
50607000,0.0324,0.013523,0.002678,0.000431,0.000470
50608000,0.0324,0.013523,0.002678,0.000431,0.000470
50609000,0.0324,0.013523,0.002678,0.000431,0.000470
50610000,0.0324,0.013523,0.002678,0.000431,0.000470
50611000,0.0324,0.013523,0.002678,0.000431,0.000588
50612000,0.0324,0.013523,0.002678,0.000431,0.000353
50613000,0.0324,0.013523,0.002678,0.000431,0.000588
50614000,0.0324,0.013523,0.002678,0.000431,0.000353
50615000,0.0324,0.013523,0.002678,0.000431,0.000705
50616000,0.0324,0.013523,0.002678,0.000431,0.000353
50617000,0.0324,0.013523,0.002678,0.000431,0.000588
50618000,0.0324,0.013523,0.002678,0.000431,0.000588
50619000,0.0324,0.013523,0.002678,0.000431,0.000470
50620000,0.0324,0.013523,0.002678,0.000431,0.000705
50621000,0.0324,0.013523,0.002678,0.000431,0.000353
50622000,0.0324,0.013523,0.002678,0.000431,0.000705
50623000,0.0324,0.013523,0.002678,0.000431,0.000470
50624000,0.0324,0.013523,0.002678,0.000431,0.000470
50625000,0.0324,0.013523,0.002678,0.000431,0.000588
50626000,0.0324,0.013523,0.002678,0.000431,0.000470
50627000,0.0324,0.013523,0.002678,0.000431,0.000588
50628000,0.0324,0.013523,0.002678,0.000431,0.000353
50629000,0.0324,0.013523,0.002678,0.000431,0.000588
50630000,0.0324,0.013523,0.002678,0.000431,0.000470
50631000,0.0324,0.013523,0.002678,0.000431,0.000470
50632000,0.0324,0.013523,0.002678,0.000431,0.000470
50633000,0.0324,0.013523,0.002678,0.000431,0.000470
50634000,0.0324,0.013523,0.002678,0.000431,0.000470
50635000,0.0324,0.013523,0.002678,0.000431,0.000353
50636000,0.0324,0.013523,0.002678,0.000431,0.000588
50637000,0.0324,0.013523,0.002678,0.000431,0.000353
50638000,0.0324,0.013523,0.002678,0.000431,0.000470
50639000,0.0324,0.013523,0.002678,0.000431,0.000353
50640000,0.0324,0.013523,0.002678,0.000431,0.000588
50641000,0.0324,0.013523,0.002678,0.000431,0.000353
50642000,0.0324,0.013523,0.002678,0.000431,0.000588
50643000,0.0324,0.013523,0.002678,0.000431,0.000353
50644000,0.0324,0.013523,0.002678,0.000431,0.000588
50645000,0.0324,0.013523,0.002678,0.000431,0.000353
50646000,0.0324,0.013523,0.002678,0.000431,0.000588
50647000,0.0324,0.013523,0.002678,0.000431,0.000353
50648000,0.0324,0.013523,0.002678,0.000431,0.000588
50649000,0.0324,0.013523,0.002678,0.000431,0.000353
50650000,0.0324,0.013523,0.002678,0.000431,0.000588
50651000,0.0324,0.013523,0.002678,0.000431,0.000353
50652000,0.0324,0.013523,0.002678,0.000431,0.000588
50653000,0.0324,0.013523,0.002678,0.000431,0.000470
50654000,0.0324,0.013523,0.002678,0.000431,0.000705
50655000,0.0324,0.013523,0.002678,0.000431,0.000353
50656000,0.0324,0.013523,0.002678,0.000431,0.000705
50657000,0.0324,0.013523,0.002678,0.000431,0.000588
50658000,0.0324,0.013523,0.002678,0.000431,0.000470
50659000,0.0324,0.013523,0.002678,0.000431,0.000588
50660000,0.0324,0.013523,0.002678,0.000431,0.000353
50661000,0.0324,0.013523,0.002678,0.000431,0.000588
50662000,0.0324,0.013523,0.002678,0.000431,0.000353
50663000,0.0324,0.013523,0.002678,0.000431,0.000588
50664000,0.0324,0.013523,0.002678,0.000431,0.000353
50665000,0.0324,0.013523,0.002678,0.000431,0.000470
50666000,0.0324,0.013523,0.002678,0.000431,0.000588
50667000,0.0324,0.013523,0.002678,0.000431,0.000470
50668000,0.0324,0.013523,0.002678,0.000431,0.000588
50669000,0.0324,0.013523,0.002678,0.000431,0.000353
50670000,0.0324,0.013523,0.002678,0.000431,0.000470
50671000,0.0324,0.013523,0.002678,0.000431,0.000470
50672000,0.0324,0.013523,0.002678,0.000431,0.000470
50673000,0.0324,0.013523,0.002678,0.000431,0.000588
50674000,0.0324,0.013523,0.002678,0.000431,0.000470
50675000,0.0324,0.013523,0.002678,0.000431,0.000588
50676000,0.0324,0.013523,0.002678,0.000431,0.000353
50677000,0.0324,0.013523,0.002678,0.000431,0.000588
50678000,0.0324,0.013523,0.002678,0.000431,0.000353
50679000,0.0324,0.013523,0.002678,0.000431,0.000588
50680000,0.0324,0.013523,0.002678,0.000431,0.000353
50681000,0.0324,0.013523,0.002678,0.000431,0.000470
50682000,0.0324,0.013523,0.002678,0.000431,0.000470
50683000,0.0324,0.013523,0.002678,0.000431,0.000470
50684000,0.0324,0.013523,0.002678,0.000431,0.000470
50685000,0.0324,0.013523,0.002678,0.000431,0.000353
50686000,0.0324,0.013523,0.002678,0.000431,0.000588
50687000,0.0324,0.013523,0.002678,0.000431,0.000470
50688000,0.0324,0.013523,0.002678,0.000431,0.000588
50689000,0.0324,0.013523,0.002678,0.000431,0.000353
50690000,0.0324,0.013523,0.002678,0.000431,0.000470
50691000,0.0324,0.013523,0.002678,0.000431,0.000353
50692000,0.0324,0.013523,0.002678,0.000431,0.000588
50693000,0.0324,0.013523,0.002678,0.000431,0.000353
50694000,0.0324,0.013523,0.002678,0.000431,0.000588
50695000,0.0324,0.013523,0.002678,0.000431,0.000470
50696000,0.0324,0.013523,0.002678,0.000431,0.000470
50697000,0.0324,0.013523,0.002678,0.000431,0.000353
50698000,0.0324,0.013523,0.002678,0.000431,0.000705
50699000,0.0324,0.013523,0.002678,0.000431,0.000353
50700000,0.0324,0.013523,0.002678,0.000431,0.000470
50701000,0.0324,0.013523,0.002678,0.000431,0.000470
50702000,0.0324,0.013523,0.002678,0.000431,0.000470
50703000,0.0324,0.013523,0.002678,0.000431,0.000470
50704000,0.0324,0.013523,0.002678,0.000431,0.000353
50705000,0.0324,0.013523,0.002678,0.000431,0.000588
50706000,0.0324,0.013523,0.002678,0.000431,0.000353
50707000,0.0324,0.013523,0.002678,0.000431,0.000470
50708000,0.0324,0.013523,0.002678,0.000431,0.000470
50709000,0.0324,0.013523,0.002678,0.000431,0.000470
50710000,0.0324,0.013523,0.002678,0.000431,0.000470
50711000,0.0324,0.013523,0.002678,0.000431,0.000470
50712000,0.0324,0.013523,0.002678,0.000431,0.000470
50713000,0.0324,0.013523,0.002678,0.000431,0.000470
50714000,0.0324,0.013523,0.002678,0.000431,0.000470
50715000,0.0324,0.013523,0.002678,0.000431,0.000470
50716000,0.0324,0.013523,0.002678,0.000431,0.000470
50717000,0.0324,0.013523,0.002678,0.000431,0.000470
50718000,0.0324,0.013523,0.002678,0.000431,0.000353
50719000,0.0324,0.013523,0.002678,0.000431,0.000705
50720000,0.0324,0.013523,0.002678,0.000431,0.000353
50721000,0.0324,0.013523,0.002678,0.000431,0.000588
50722000,0.0324,0.013523,0.002678,0.000431,0.000353
50723000,0.0324,0.013523,0.002678,0.000431,0.000588
50724000,0.0324,0.013523,0.002678,0.000431,0.000353
50725000,0.0324,0.013523,0.002678,0.000431,0.000705
50726000,0.0324,0.013523,0.002678,0.000431,0.000470
50727000,0.0324,0.013523,0.002678,0.000431,0.000588
50728000,0.0324,0.013523,0.002678,0.000431,0.000353
50729000,0.0324,0.013523,0.002678,0.000431,0.000588
50730000,0.0324,0.013523,0.002678,0.000431,0.000353
50731000,0.0324,0.013523,0.002678,0.000431,0.000588
50732000,0.0324,0.013523,0.002678,0.000431,0.000353
50733000,0.0324,0.013523,0.002678,0.000431,0.000588
50734000,0.0324,0.013523,0.002678,0.000431,0.000353
50735000,0.0324,0.013523,0.002678,0.000431,0.000588
50736000,0.0324,0.013523,0.002678,0.000431,0.000353
50737000,0.0324,0.013523,0.002678,0.000431,0.000588
50738000,0.0324,0.013523,0.002678,0.000431,0.000470
50739000,0.0324,0.013523,0.002678,0.000431,0.000470
50740000,0.0324,0.013523,0.002678,0.000431,0.000470
50741000,0.0324,0.013523,0.002678,0.000431,0.000470
50742000,0.0324,0.013523,0.002678,0.000431,0.000470
50743000,0.0324,0.013523,0.002678,0.000431,0.000353
50744000,0.0324,0.013523,0.002678,0.000431,0.000588
50745000,0.0324,0.013523,0.002678,0.000431,0.000353
50746000,0.0324,0.013523,0.002678,0.000431,0.000588
50747000,0.0324,0.013523,0.002678,0.000431,0.000353
50748000,0.0324,0.013523,0.002678,0.000431,0.000588
50749000,0.0324,0.013523,0.002678,0.000431,0.000353
50750000,0.0324,0.013523,0.002678,0.000431,0.000705
50751000,0.0324,0.013523,0.002678,0.000431,0.000588
50752000,0.0324,0.013523,0.002678,0.000431,0.000470
50753000,0.0324,0.013523,0.002678,0.000431,0.000705
50754000,0.0324,0.013523,0.002678,0.000431,0.000353
50755000,0.0324,0.013523,0.002678,0.000431,0.000588
50756000,0.0324,0.013523,0.002678,0.000431,0.000353
50757000,0.0324,0.013523,0.002678,0.000431,0.000588
50758000,0.0324,0.013523,0.002678,0.000431,0.000353
50759000,0.0324,0.013523,0.002678,0.000431,0.000588
50760000,0.0324,0.013523,0.002678,0.000431,0.000353
50761000,0.0324,0.013523,0.002678,0.000431,0.000470
50762000,0.0324,0.013523,0.002678,0.000431,0.000470
50763000,0.0324,0.013523,0.002678,0.000431,0.000470
50764000,0.0324,0.013523,0.002678,0.000431,0.000470
50765000,0.0324,0.013523,0.002678,0.000431,0.000470
50766000,0.0324,0.013523,0.002678,0.000431,0.000470
50767000,0.0324,0.013523,0.002678,0.000431,0.000470
50768000,0.0324,0.013523,0.002678,0.000431,0.000353
50769000,0.0324,0.013523,0.002678,0.000431,0.000588
50770000,0.0324,0.013523,0.002678,0.000431,0.000353
50771000,0.0324,0.013523,0.002678,0.000431,0.000588
50772000,0.0324,0.013523,0.002678,0.000431,0.000353
50773000,0.0324,0.013523,0.002678,0.000431,0.000588
50774000,0.0324,0.013523,0.002678,0.000431,0.000353
50775000,0.0324,0.013523,0.002678,0.000431,0.000588
50776000,0.0324,0.013523,0.002678,0.000431,0.000353
50777000,0.0324,0.013523,0.002678,0.000431,0.000588
50778000,0.0324,0.013523,0.002678,0.000431,0.000353
50779000,0.0324,0.013523,0.002678,0.000431,0.000588
50780000,0.0324,0.013523,0.002678,0.000431,0.000353
50781000,0.0324,0.013523,0.002678,0.000431,0.000470
50782000,0.0324,0.013523,0.002678,0.000431,0.000470
50783000,0.0324,0.013523,0.002678,0.000431,0.000470
50784000,0.0324,0.013523,0.002678,0.000431,0.000588
50785000,0.0324,0.013523,0.002678,0.000431,0.000588
50786000,0.0324,0.013523,0.002678,0.000431,0.000470
50787000,0.0324,0.013523,0.002678,0.000431,0.000588
50788000,0.0324,0.013523,0.002678,0.000431,0.000470
50789000,0.0324,0.013523,0.002678,0.000431,0.000588
50790000,0.0324,0.013523,0.002678,0.000431,0.000470
50791000,0.0324,0.013523,0.002678,0.000431,0.000705
50792000,0.0324,0.013523,0.002678,0.000431,0.000353
50793000,0.0324,0.013523,0.002678,0.000431,0.000588
50794000,0.0324,0.013523,0.002678,0.000431,0.000353
50795000,0.0324,0.013523,0.002678,0.000431,0.000588
50796000,0.0324,0.013523,0.002678,0.000431,0.000353
50797000,0.0324,0.013523,0.002678,0.000431,0.000588
50798000,0.0324,0.013523,0.002678,0.000431,0.000353
50799000,0.0324,0.013523,0.002678,0.000431,0.000588
50800000,0.0324,0.013523,0.002678,0.000431,0.000353
50801000,0.0324,0.013523,0.002678,0.000431,0.000588
50802000,0.0324,0.013523,0.002678,0.000431,0.000353
50803000,0.0324,0.013523,0.002678,0.000431,0.000470
50804000,0.0324,0.013523,0.002678,0.000431,0.000470
50805000,0.0324,0.013523,0.002678,0.000431,0.000470
50806000,0.0324,0.013523,0.002678,0.000431,0.000470
50807000,0.0324,0.013523,0.002678,0.000431,0.000470
50808000,0.0324,0.013523,0.002678,0.000431,0.000470
50809000,0.0324,0.013523,0.002678,0.000431,0.000470
50810000,0.0324,0.013523,0.002678,0.000431,0.000470
50811000,0.0324,0.013523,0.002678,0.000431,0.000588
50812000,0.0324,0.013523,0.002678,0.000431,0.000470
50813000,0.0324,0.013523,0.002678,0.000431,0.000588
50814000,0.0324,0.013523,0.002678,0.000431,0.000353
50815000,0.0324,0.013523,0.002678,0.000431,0.000588
50816000,0.0324,0.013523,0.002678,0.000431,0.000353
50817000,0.0324,0.013523,0.002678,0.000431,0.000588
50818000,0.0324,0.013523,0.002678,0.000431,0.000353
50819000,0.0324,0.013523,0.002678,0.000431,0.000588
50820000,0.0324,0.013523,0.002678,0.000431,0.000353
50821000,0.0324,0.013523,0.002678,0.000431,0.000470
50822000,0.0324,0.013523,0.002678,0.000431,0.000588
50823000,0.0324,0.013523,0.002678,0.000431,0.000353
50824000,0.0324,0.013523,0.002678,0.000431,0.000588
50825000,0.0324,0.013523,0.002678,0.000431,0.000235
50826000,0.0324,0.013523,0.002678,0.000431,0.000588
50827000,0.0324,0.013523,0.002678,0.000431,0.000353
50828000,0.0324,0.013523,0.002678,0.000431,0.000588
50829000,0.0324,0.013523,0.002678,0.000431,0.000353
50830000,0.0324,0.013523,0.002678,0.000431,0.000588
50831000,0.0324,0.013523,0.002678,0.000431,0.000470
50832000,0.0324,0.013523,0.002678,0.000431,0.000588
50833000,0.0324,0.013523,0.002678,0.000431,0.000353
50834000,0.0324,0.013523,0.002678,0.000431,0.000588
50835000,0.0324,0.013523,0.002678,0.000431,0.000353
50836000,0.0324,0.013523,0.002678,0.000431,0.000588
50837000,0.0324,0.013523,0.002678,0.000431,0.000353
50838000,0.0324,0.013523,0.002678,0.000431,0.000588
50839000,0.0324,0.013523,0.002678,0.000431,0.000353
50840000,0.0324,0.013523,0.002678,0.000431,0.000470
50841000,0.0324,0.013523,0.002678,0.000431,0.000470
50842000,0.0324,0.013523,0.002678,0.000431,0.000470
50843000,0.0324,0.013523,0.002678,0.000431,0.000470
50844000,0.0324,0.013523,0.002678,0.000431,0.000353
50845000,0.0324,0.013523,0.002678,0.000431,0.000588
50846000,0.0324,0.013523,0.002678,0.000431,0.000353
50847000,0.0324,0.013523,0.002678,0.000431,0.000588
50848000,0.0324,0.013523,0.002678,0.000431,0.000353
50849000,0.0324,0.013523,0.002678,0.000431,0.000705
50850000,0.0324,0.013523,0.002678,0.000431,0.000470
50851000,0.0324,0.013523,0.002678,0.000431,0.000470
50852000,0.0324,0.013523,0.002678,0.000431,0.000470
50853000,0.0324,0.013523,0.002678,0.000431,0.000470
50854000,0.0324,0.013523,0.002678,0.000431,0.000470
50855000,0.0324,0.013523,0.002678,0.000431,0.000470
50856000,0.0324,0.013523,0.002678,0.000431,0.000470
50857000,0.0324,0.013523,0.002678,0.000431,0.000470
50858000,0.0324,0.013523,0.002678,0.000431,0.000470
50859000,0.0324,0.013523,0.002678,0.000431,0.000470
50860000,0.0324,0.013523,0.002678,0.000431,0.000353
50861000,0.0324,0.013523,0.002678,0.000431,0.000588
50862000,0.0324,0.013523,0.002678,0.000431,0.000353
50863000,0.0324,0.013523,0.002678,0.000431,0.000705
50864000,0.0324,0.013523,0.002678,0.000431,0.000353
50865000,0.0324,0.013523,0.002678,0.000431,0.000705
50866000,0.0324,0.013523,0.002678,0.000431,0.000588
50867000,0.0324,0.013523,0.002678,0.000431,0.000470
50868000,0.0324,0.013523,0.002678,0.000431,0.000588
50869000,0.0324,0.013523,0.002678,0.000431,0.000353
50870000,0.0324,0.013523,0.002678,0.000431,0.000470
50871000,0.0324,0.013523,0.002678,0.000431,0.000353
50872000,0.0324,0.013523,0.002678,0.000431,0.000588
50873000,0.0324,0.013523,0.002678,0.000431,0.000353
50874000,0.0324,0.013523,0.002678,0.000431,0.000470
50875000,0.0324,0.013523,0.002678,0.000431,0.000470
50876000,0.0324,0.013523,0.002678,0.000431,0.000470
50877000,0.0324,0.013523,0.002678,0.000431,0.000470
50878000,0.0324,0.013523,0.002678,0.000431,0.000470
50879000,0.0324,0.013523,0.002678,0.000431,0.000470
50880000,0.0324,0.013523,0.002678,0.000431,0.000470
50881000,0.0324,0.013523,0.002678,0.000431,0.000470
50882000,0.0324,0.013523,0.002678,0.000431,0.000588
50883000,0.0324,0.013523,0.002678,0.000431,0.000470
50884000,0.0324,0.013523,0.002678,0.000431,0.000588
50885000,0.0324,0.013523,0.002678,0.000431,0.000353
50886000,0.0324,0.013523,0.002678,0.000431,0.000588
50887000,0.0324,0.013523,0.002678,0.000431,0.000353
50888000,0.0324,0.013523,0.002678,0.000431,0.000588
50889000,0.0324,0.013523,0.002678,0.000431,0.000353
50890000,0.0324,0.013523,0.002678,0.000431,0.000470
50891000,0.0324,0.013523,0.002678,0.000431,0.000588
50892000,0.0324,0.013523,0.002678,0.000431,0.000588
50893000,0.0324,0.013523,0.002678,0.000431,0.000470
50894000,0.0324,0.013523,0.002678,0.000431,0.000588
50895000,0.0324,0.013523,0.002678,0.000431,0.000353
50896000,0.0324,0.013523,0.002678,0.000431,0.000588
50897000,0.0324,0.013523,0.002678,0.000431,0.000470
50898000,0.0324,0.013523,0.002678,0.000431,0.000470
50899000,0.0324,0.013523,0.002678,0.000431,0.000470
50900000,0.0324,0.013523,0.002678,0.000431,0.000470
50901000,0.0324,0.013523,0.002678,0.000431,0.000353
50902000,0.0324,0.013523,0.002678,0.000431,0.000588
50903000,0.0324,0.013523,0.002678,0.000431,0.000353
50904000,0.0324,0.013523,0.002678,0.000431,0.000588
50905000,0.0324,0.013523,0.002678,0.000431,0.000353
50906000,0.0324,0.013523,0.002678,0.000431,0.000470
50907000,0.0324,0.013523,0.002678,0.000431,0.000470
50908000,0.0324,0.013523,0.002678,0.000431,0.000470
50909000,0.0324,0.013523,0.002678,0.000431,0.000470
50910000,0.0324,0.013523,0.002678,0.000431,0.000353
50911000,0.0324,0.013523,0.002678,0.000431,0.000705
50912000,0.0324,0.013523,0.002678,0.000431,0.000588
50913000,0.0324,0.013523,0.002678,0.000431,0.000470
50914000,0.0324,0.013523,0.002678,0.000431,0.000705
50915000,0.0324,0.013523,0.002678,0.000431,0.000353
50916000,0.0324,0.013523,0.002678,0.000431,0.000705
50917000,0.0324,0.013523,0.002678,0.000431,0.000588
50918000,0.0324,0.013523,0.002678,0.000431,0.000353
50919000,0.0324,0.013523,0.002678,0.000431,0.000470
50920000,0.0324,0.013523,0.002678,0.000431,0.000470
50921000,0.0324,0.013523,0.002678,0.000431,0.000470
50922000,0.0324,0.013523,0.002678,0.000431,0.000588
50923000,0.0324,0.013523,0.002678,0.000431,0.000353
50924000,0.0324,0.013523,0.002678,0.000431,0.000470
50925000,0.0324,0.013523,0.002678,0.000431,0.000470
50926000,0.0324,0.013523,0.002678,0.000431,0.000470
50927000,0.0324,0.013523,0.002678,0.000431,0.000470
50928000,0.0324,0.013523,0.002678,0.000431,0.000470
50929000,0.0324,0.013523,0.002678,0.000431,0.000470
50930000,0.0324,0.013523,0.002678,0.000431,0.000470
50931000,0.0324,0.013523,0.002678,0.000431,0.000470
50932000,0.0324,0.013523,0.002678,0.000431,0.000588
50933000,0.0324,0.013523,0.002678,0.000431,0.000353
50934000,0.0324,0.013523,0.002678,0.000431,0.000470
50935000,0.0324,0.013523,0.002678,0.000431,0.000470
50936000,0.0324,0.013523,0.002678,0.000431,0.000470
50937000,0.0324,0.013523,0.002678,0.000431,0.000470
50938000,0.0324,0.013523,0.002678,0.000431,0.000470
50939000,0.0324,0.013523,0.002678,0.000431,0.000353
50940000,0.0324,0.013523,0.002678,0.000431,0.000588
50941000,0.0324,0.013523,0.002678,0.000431,0.000353
50942000,0.0324,0.013523,0.002678,0.000431,0.000588
50943000,0.0324,0.013523,0.002678,0.000431,0.000353
50944000,0.0324,0.013523,0.002678,0.000431,0.000588
50945000,0.0324,0.013523,0.002678,0.000431,0.000353
50946000,0.0324,0.013523,0.002678,0.000431,0.000588
50947000,0.0324,0.013523,0.002678,0.000431,0.000353
50948000,0.0324,0.013523,0.002678,0.000431,0.000588
50949000,0.0324,0.013523,0.002678,0.000431,0.000353
50950000,0.0324,0.013523,0.002678,0.000431,0.000588
50951000,0.0324,0.013523,0.002678,0.000431,0.000353
50952000,0.0324,0.013523,0.002678,0.000431,0.000588
50953000,0.0324,0.013523,0.002678,0.000431,0.000353
50954000,0.0324,0.013523,0.002678,0.000431,0.000588
50955000,0.0324,0.013523,0.002678,0.000431,0.000353
50956000,0.0324,0.013523,0.002678,0.000431,0.000588
50957000,0.0324,0.013523,0.002678,0.000431,0.000353
50958000,0.0324,0.013523,0.002678,0.000431,0.000588
50959000,0.0324,0.013523,0.002678,0.000431,0.000353
50960000,0.0324,0.013523,0.002678,0.000431,0.000588
50961000,0.0324,0.013523,0.002678,0.000431,0.000353
50962000,0.0324,0.013523,0.002678,0.000431,0.000470
50963000,0.0324,0.013523,0.002678,0.000431,0.000705
50964000,0.0324,0.013523,0.002678,0.000431,0.000470
50965000,0.0324,0.013523,0.002678,0.000431,0.000470
50966000,0.0324,0.013523,0.002678,0.000431,0.000588
50967000,0.0324,0.013523,0.002678,0.000431,0.000470
50968000,0.0324,0.013523,0.002678,0.000431,0.000470
50969000,0.0324,0.013523,0.002678,0.000431,0.000353
50970000,0.0324,0.013523,0.002678,0.000431,0.000588
50971000,0.0324,0.013523,0.002678,0.000431,0.000353
50972000,0.0324,0.013523,0.002678,0.000431,0.000588
50973000,0.0324,0.013523,0.002678,0.000431,0.000353
50974000,0.0324,0.013523,0.002678,0.000431,0.000588
50975000,0.0324,0.013523,0.002678,0.000431,0.000470
50976000,0.0324,0.013523,0.002678,0.000431,0.000470
50977000,0.0324,0.013523,0.002678,0.000431,0.000353
50978000,0.0324,0.013523,0.002678,0.000431,0.000588
50979000,0.0324,0.013523,0.002678,0.000431,0.000353
50980000,0.0324,0.013523,0.002678,0.000431,0.000588
50981000,0.0324,0.013523,0.002678,0.000431,0.000353
50982000,0.0324,0.013523,0.002678,0.000431,0.000588
50983000,0.0324,0.013523,0.002678,0.000431,0.000353
50984000,0.0324,0.013523,0.002678,0.000431,0.000470
50985000,0.0324,0.013523,0.002678,0.000431,0.000588
50986000,0.0324,0.013523,0.002678,0.000431,0.000588
50987000,0.0324,0.013523,0.002678,0.000431,0.000470
50988000,0.0324,0.013523,0.002678,0.000431,0.000705
50989000,0.0324,0.013523,0.002678,0.000431,0.000353
50990000,0.0324,0.013523,0.002678,0.000431,0.000705
50991000,0.0324,0.013523,0.002678,0.000431,0.000353
50992000,0.0324,0.013523,0.002678,0.000431,0.000470
50993000,0.0324,0.013523,0.002678,0.000431,0.000353
50994000,0.0324,0.013523,0.002678,0.000431,0.000588
50995000,0.0324,0.013523,0.002678,0.000431,0.000353
50996000,0.0324,0.013523,0.002678,0.000431,0.000588
50997000,0.0324,0.013523,0.002678,0.000431,0.000353
50998000,0.0324,0.013523,0.002678,0.000431,0.000588
50999000,0.0324,0.013523,0.002678,0.000431,0.000353
