Cycle,Area(mm^2),PeakDynamic(W),SubthresholdLeakage(W),GateLeakage(W),RunTimeDynamic(W)
1000,0.0324,0.013523,0.002678,0.000431,0.000000
2000,0.0324,0.013523,0.002678,0.000431,0.000000
3000,0.0324,0.013523,0.002678,0.000431,0.000000
4000,0.0324,0.013523,0.002678,0.000431,0.000000
5000,0.0324,0.013523,0.002678,0.000431,0.000000
6000,0.0324,0.013523,0.002678,0.000431,1.746704
7000,0.0324,0.013523,0.002678,0.000431,1.298216
8000,0.0324,0.013523,0.002678,0.000431,1.901253
9000,0.0324,0.013523,0.002678,0.000431,1.020497
10000,0.0324,0.013523,0.002678,0.000431,0.918248
11000,0.0324,0.013523,0.002678,0.000431,1.427967
12000,0.0324,0.013523,0.002678,0.000431,1.250147
13000,0.0324,0.013523,0.002678,0.000431,1.141199
14000,0.0324,0.013523,0.002678,0.000431,1.220765
15000,0.0324,0.013523,0.002678,0.000431,1.286699
16000,0.0324,0.013523,0.002678,0.000431,1.399761
17000,0.0324,0.013523,0.002678,0.000431,1.089016
18000,0.0324,0.013523,0.002678,0.000431,1.149426
19000,0.0324,0.013523,0.002678,0.000431,1.274241
20000,0.0324,0.013523,0.002678,0.000431,1.347461
21000,0.0324,0.013523,0.002678,0.000431,1.435489
22000,0.0324,0.013523,0.002678,0.000431,1.464754
23000,0.0324,0.013523,0.002678,0.000431,1.459935
24000,0.0324,0.013523,0.002678,0.000431,1.513998
25000,0.0324,0.013523,0.002678,0.000431,1.507534
26000,0.0324,0.013523,0.002678,0.000431,1.466164
27000,0.0324,0.013523,0.002678,0.000431,1.548081
28000,0.0324,0.013523,0.002678,0.000431,1.496604
29000,0.0324,0.013523,0.002678,0.000431,1.460993
30000,0.0324,0.013523,0.002678,0.000431,1.584045
31000,0.0324,0.013523,0.002678,0.000431,1.575818
32000,0.0324,0.013523,0.002678,0.000431,1.387655
33000,0.0324,0.013523,0.002678,0.000431,1.472628
34000,0.0324,0.013523,0.002678,0.000431,1.551019
35000,0.0324,0.013523,0.002678,0.000431,1.561362
36000,0.0324,0.013523,0.002678,0.000431,1.623534
37000,0.0324,0.013523,0.002678,0.000431,1.619186
38000,0.0324,0.013523,0.002678,0.000431,1.561127
39000,0.0324,0.013523,0.002678,0.000431,1.730250
40000,0.0324,0.013523,0.002678,0.000431,1.737654
41000,0.0324,0.013523,0.002678,0.000431,1.703336
42000,0.0324,0.013523,0.002678,0.000431,1.819924
43000,0.0324,0.013523,0.002678,0.000431,1.560187
44000,0.0324,0.013523,0.002678,0.000431,1.662319
45000,0.0324,0.013523,0.002678,0.000431,1.701926
46000,0.0324,0.013523,0.002678,0.000431,1.476154
47000,0.0324,0.013523,0.002678,0.000431,1.608608
48000,0.0324,0.013523,0.002678,0.000431,1.741650
49000,0.0324,0.013523,0.002678,0.000431,1.499072
50000,0.0324,0.013523,0.002678,0.000431,1.563830
51000,0.0324,0.013523,0.002678,0.000431,1.806996
52000,0.0324,0.013523,0.002678,0.000431,1.522578
53000,0.0324,0.013523,0.002678,0.000431,1.665022
54000,0.0324,0.013523,0.002678,0.000431,1.806761
55000,0.0324,0.013523,0.002678,0.000431,1.868228
56000,0.0324,0.013523,0.002678,0.000431,1.641516
57000,0.0324,0.013523,0.002678,0.000431,1.655032
58000,0.0324,0.013523,0.002678,0.000431,1.794890
59000,0.0324,0.013523,0.002678,0.000431,1.438192
60000,0.0324,0.013523,0.002678,0.000431,1.711680
61000,0.0324,0.013523,0.002678,0.000431,1.771267
62000,0.0324,0.013523,0.002678,0.000431,1.413629
63000,0.0324,0.013523,0.002678,0.000431,1.633407
64000,0.0324,0.013523,0.002678,0.000431,1.820747
65000,0.0324,0.013523,0.002678,0.000431,1.589334
66000,0.0324,0.013523,0.002678,0.000431,1.713913
67000,0.0324,0.013523,0.002678,0.000431,1.979880
68000,0.0324,0.013523,0.002678,0.000431,1.815810
69000,0.0324,0.013523,0.002678,0.000431,1.606023
70000,0.0324,0.013523,0.002678,0.000431,0.924829
71000,0.0324,0.013523,0.002678,0.000431,0.235644
72000,0.0324,0.013523,0.002678,0.000431,0.009520
73000,0.0324,0.013523,0.002678,0.000431,0.003291
74000,0.0324,0.013523,0.002678,0.000431,0.005524
75000,0.0324,0.013523,0.002678,0.000431,0.002586
76000,0.0324,0.013523,0.002678,0.000431,0.002703
77000,0.0324,0.013523,0.002678,0.000431,0.002938
78000,0.0324,0.013523,0.002678,0.000431,0.001998
79000,0.0324,0.013523,0.002678,0.000431,0.001880
80000,0.0324,0.013523,0.002678,0.000431,0.001528
81000,0.0324,0.013523,0.002678,0.000431,0.001998
82000,0.0324,0.013523,0.002678,0.000431,0.002116
83000,0.0324,0.013523,0.002678,0.000431,0.001528
84000,0.0324,0.013523,0.002678,0.000431,0.001763
85000,0.0324,0.013523,0.002678,0.000431,0.001880
86000,0.0324,0.013523,0.002678,0.000431,0.001763
87000,0.0324,0.013523,0.002678,0.000431,0.002351
88000,0.0324,0.013523,0.002678,0.000431,0.000470
89000,0.0324,0.013523,0.002678,0.000431,0.000470
90000,0.0324,0.013523,0.002678,0.000431,0.000470
91000,0.0324,0.013523,0.002678,0.000431,0.000470
92000,0.0324,0.013523,0.002678,0.000431,0.000588
93000,0.0324,0.013523,0.002678,0.000431,0.000353
94000,0.0324,0.013523,0.002678,0.000431,0.000705
95000,0.0324,0.013523,0.002678,0.000431,0.000588
96000,0.0324,0.013523,0.002678,0.000431,0.000470
97000,0.0324,0.013523,0.002678,0.000431,0.000588
98000,0.0324,0.013523,0.002678,0.000431,0.000470
99000,0.0324,0.013523,0.002678,0.000431,0.000588
100000,0.0324,0.013523,0.002678,0.000431,0.000470
101000,0.0324,0.013523,0.002678,0.000431,0.000705
102000,0.0324,0.013523,0.002678,0.000431,0.000353
103000,0.0324,0.013523,0.002678,0.000431,0.000588
104000,0.0324,0.013523,0.002678,0.000431,0.000353
105000,0.0324,0.013523,0.002678,0.000431,0.000470
106000,0.0324,0.013523,0.002678,0.000431,0.000470
107000,0.0324,0.013523,0.002678,0.000431,0.000470
108000,0.0324,0.013523,0.002678,0.000431,0.000470
109000,0.0324,0.013523,0.002678,0.000431,0.000588
110000,0.0324,0.013523,0.002678,0.000431,0.000470
111000,0.0324,0.013523,0.002678,0.000431,0.000588
112000,0.0324,0.013523,0.002678,0.000431,0.000353
113000,0.0324,0.013523,0.002678,0.000431,0.000588
114000,0.0324,0.013523,0.002678,0.000431,0.000353
115000,0.0324,0.013523,0.002678,0.000431,0.000705
116000,0.0324,0.013523,0.002678,0.000431,0.000470
117000,0.0324,0.013523,0.002678,0.000431,0.000588
118000,0.0324,0.013523,0.002678,0.000431,0.000353
119000,0.0324,0.013523,0.002678,0.000431,0.000588
120000,0.0324,0.013523,0.002678,0.000431,0.000353
121000,0.0324,0.013523,0.002678,0.000431,0.000470
122000,0.0324,0.013523,0.002678,0.000431,0.000470
123000,0.0324,0.013523,0.002678,0.000431,0.000353
124000,0.0324,0.013523,0.002678,0.000431,0.000588
125000,0.0324,0.013523,0.002678,0.000431,0.000353
126000,0.0324,0.013523,0.002678,0.000431,0.000705
127000,0.0324,0.013523,0.002678,0.000431,0.000470
128000,0.0324,0.013523,0.002678,0.000431,0.000470
129000,0.0324,0.013523,0.002678,0.000431,0.000470
130000,0.0324,0.013523,0.002678,0.000431,0.000470
131000,0.0324,0.013523,0.002678,0.000431,0.000470
132000,0.0324,0.013523,0.002678,0.000431,0.000470
133000,0.0324,0.013523,0.002678,0.000431,0.000470
134000,0.0324,0.013523,0.002678,0.000431,0.000588
135000,0.0324,0.013523,0.002678,0.000431,0.000353
136000,0.0324,0.013523,0.002678,0.000431,0.000470
137000,0.0324,0.013523,0.002678,0.000431,0.000470
138000,0.0324,0.013523,0.002678,0.000431,0.000470
139000,0.0324,0.013523,0.002678,0.000431,0.000470
140000,0.0324,0.013523,0.002678,0.000431,0.000705
141000,0.0324,0.013523,0.002678,0.000431,0.000353
142000,0.0324,0.013523,0.002678,0.000431,0.000588
143000,0.0324,0.013523,0.002678,0.000431,0.000353
144000,0.0324,0.013523,0.002678,0.000431,0.000588
145000,0.0324,0.013523,0.002678,0.000431,0.000353
146000,0.0324,0.013523,0.002678,0.000431,0.000588
147000,0.0324,0.013523,0.002678,0.000431,0.000235
148000,0.0324,0.013523,0.002678,0.000431,0.000705
149000,0.0324,0.013523,0.002678,0.000431,0.000353
150000,0.0324,0.013523,0.002678,0.000431,0.000705
151000,0.0324,0.013523,0.002678,0.000431,0.000353
152000,0.0324,0.013523,0.002678,0.000431,0.000588
153000,0.0324,0.013523,0.002678,0.000431,0.000353
154000,0.0324,0.013523,0.002678,0.000431,0.000588
155000,0.0324,0.013523,0.002678,0.000431,0.000353
156000,0.0324,0.013523,0.002678,0.000431,0.000588
157000,0.0324,0.013523,0.002678,0.000431,0.000353
158000,0.0324,0.013523,0.002678,0.000431,0.000470
159000,0.0324,0.013523,0.002678,0.000431,0.000470
160000,0.0324,0.013523,0.002678,0.000431,0.000588
161000,0.0324,0.013523,0.002678,0.000431,0.000470
162000,0.0324,0.013523,0.002678,0.000431,0.000588
163000,0.0324,0.013523,0.002678,0.000431,0.000353
164000,0.0324,0.013523,0.002678,0.000431,0.000588
165000,0.0324,0.013523,0.002678,0.000431,0.000353
166000,0.0324,0.013523,0.002678,0.000431,0.000588
167000,0.0324,0.013523,0.002678,0.000431,0.000470
168000,0.0324,0.013523,0.002678,0.000431,0.000470
169000,0.0324,0.013523,0.002678,0.000431,0.000353
170000,0.0324,0.013523,0.002678,0.000431,0.000588
171000,0.0324,0.013523,0.002678,0.000431,0.000470
172000,0.0324,0.013523,0.002678,0.000431,0.000470
173000,0.0324,0.013523,0.002678,0.000431,0.000470
174000,0.0324,0.013523,0.002678,0.000431,0.000470
175000,0.0324,0.013523,0.002678,0.000431,0.000470
176000,0.0324,0.013523,0.002678,0.000431,0.000470
177000,0.0324,0.013523,0.002678,0.000431,0.000470
178000,0.0324,0.013523,0.002678,0.000431,0.000353
179000,0.0324,0.013523,0.002678,0.000431,0.000588
180000,0.0324,0.013523,0.002678,0.000431,0.000353
181000,0.0324,0.013523,0.002678,0.000431,0.000588
182000,0.0324,0.013523,0.002678,0.000431,0.000353
183000,0.0324,0.013523,0.002678,0.000431,0.000588
184000,0.0324,0.013523,0.002678,0.000431,0.000353
185000,0.0324,0.013523,0.002678,0.000431,0.000470
186000,0.0324,0.013523,0.002678,0.000431,0.000353
187000,0.0324,0.013523,0.002678,0.000431,0.000705
188000,0.0324,0.013523,0.002678,0.000431,0.000353
189000,0.0324,0.013523,0.002678,0.000431,0.000588
190000,0.0324,0.013523,0.002678,0.000431,0.000353
191000,0.0324,0.013523,0.002678,0.000431,0.000588
192000,0.0324,0.013523,0.002678,0.000431,0.000353
193000,0.0324,0.013523,0.002678,0.000431,0.000588
194000,0.0324,0.013523,0.002678,0.000431,0.000353
195000,0.0324,0.013523,0.002678,0.000431,0.000588
196000,0.0324,0.013523,0.002678,0.000431,0.000470
197000,0.0324,0.013523,0.002678,0.000431,0.000588
198000,0.0324,0.013523,0.002678,0.000431,0.000470
199000,0.0324,0.013523,0.002678,0.000431,0.000470
200000,0.0324,0.013523,0.002678,0.000431,0.000588
201000,0.0324,0.013523,0.002678,0.000431,0.000470
202000,0.0324,0.013523,0.002678,0.000431,0.000353
203000,0.0324,0.013523,0.002678,0.000431,0.000470
204000,0.0324,0.013523,0.002678,0.000431,0.000588
205000,0.0324,0.013523,0.002678,0.000431,0.000353
206000,0.0324,0.013523,0.002678,0.000431,0.000588
207000,0.0324,0.013523,0.002678,0.000431,0.000353
208000,0.0324,0.013523,0.002678,0.000431,0.000588
209000,0.0324,0.013523,0.002678,0.000431,0.000353
210000,0.0324,0.013523,0.002678,0.000431,0.000588
211000,0.0324,0.013523,0.002678,0.000431,0.000353
212000,0.0324,0.013523,0.002678,0.000431,0.000588
213000,0.0324,0.013523,0.002678,0.000431,0.000353
214000,0.0324,0.013523,0.002678,0.000431,0.000705
215000,0.0324,0.013523,0.002678,0.000431,0.000353
216000,0.0324,0.013523,0.002678,0.000431,0.000705
217000,0.0324,0.013523,0.002678,0.000431,0.000470
218000,0.0324,0.013523,0.002678,0.000431,0.000470
219000,0.0324,0.013523,0.002678,0.000431,0.000353
220000,0.0324,0.013523,0.002678,0.000431,0.000588
221000,0.0324,0.013523,0.002678,0.000431,0.000353
222000,0.0324,0.013523,0.002678,0.000431,0.000588
223000,0.0324,0.013523,0.002678,0.000431,0.000353
224000,0.0324,0.013523,0.002678,0.000431,0.000588
225000,0.0324,0.013523,0.002678,0.000431,0.000353
226000,0.0324,0.013523,0.002678,0.000431,0.000588
227000,0.0324,0.013523,0.002678,0.000431,0.000353
228000,0.0324,0.013523,0.002678,0.000431,0.000588
229000,0.0324,0.013523,0.002678,0.000431,0.000353
230000,0.0324,0.013523,0.002678,0.000431,0.000588
231000,0.0324,0.013523,0.002678,0.000431,0.000353
232000,0.0324,0.013523,0.002678,0.000431,0.000588
233000,0.0324,0.013523,0.002678,0.000431,0.000353
234000,0.0324,0.013523,0.002678,0.000431,0.000705
235000,0.0324,0.013523,0.002678,0.000431,0.000353
236000,0.0324,0.013523,0.002678,0.000431,0.000705
237000,0.0324,0.013523,0.002678,0.000431,0.000470
238000,0.0324,0.013523,0.002678,0.000431,0.000470
239000,0.0324,0.013523,0.002678,0.000431,0.000353
240000,0.0324,0.013523,0.002678,0.000431,0.000588
241000,0.0324,0.013523,0.002678,0.000431,0.000353
242000,0.0324,0.013523,0.002678,0.000431,0.000705
243000,0.0324,0.013523,0.002678,0.000431,0.000353
244000,0.0324,0.013523,0.002678,0.000431,0.000705
245000,0.0324,0.013523,0.002678,0.000431,0.000470
246000,0.0324,0.013523,0.002678,0.000431,0.000588
247000,0.0324,0.013523,0.002678,0.000431,0.000353
248000,0.0324,0.013523,0.002678,0.000431,0.000470
249000,0.0324,0.013523,0.002678,0.000431,0.000470
250000,0.0324,0.013523,0.002678,0.000431,0.000588
251000,0.0324,0.013523,0.002678,0.000431,0.000353
252000,0.0324,0.013523,0.002678,0.000431,0.000588
253000,0.0324,0.013523,0.002678,0.000431,0.000353
254000,0.0324,0.013523,0.002678,0.000431,0.000588
255000,0.0324,0.013523,0.002678,0.000431,0.000353
256000,0.0324,0.013523,0.002678,0.000431,0.000588
257000,0.0324,0.013523,0.002678,0.000431,0.000470
258000,0.0324,0.013523,0.002678,0.000431,0.000588
259000,0.0324,0.013523,0.002678,0.000431,0.000353
260000,0.0324,0.013523,0.002678,0.000431,0.000470
261000,0.0324,0.013523,0.002678,0.000431,0.000470
262000,0.0324,0.013523,0.002678,0.000431,0.000353
263000,0.0324,0.013523,0.002678,0.000431,0.000588
264000,0.0324,0.013523,0.002678,0.000431,0.000353
265000,0.0324,0.013523,0.002678,0.000431,0.000470
266000,0.0324,0.013523,0.002678,0.000431,0.000470
267000,0.0324,0.013523,0.002678,0.000431,0.000470
268000,0.0324,0.013523,0.002678,0.000431,0.000470
269000,0.0324,0.013523,0.002678,0.000431,0.000470
270000,0.0324,0.013523,0.002678,0.000431,0.000470
271000,0.0324,0.013523,0.002678,0.000431,0.000470
272000,0.0324,0.013523,0.002678,0.000431,0.000470
273000,0.0324,0.013523,0.002678,0.000431,0.000470
274000,0.0324,0.013523,0.002678,0.000431,0.000470
275000,0.0324,0.013523,0.002678,0.000431,0.000470
276000,0.0324,0.013523,0.002678,0.000431,0.000470
277000,0.0324,0.013523,0.002678,0.000431,0.000588
278000,0.0324,0.013523,0.002678,0.000431,0.000353
279000,0.0324,0.013523,0.002678,0.000431,0.000588
280000,0.0324,0.013523,0.002678,0.000431,0.000353
281000,0.0324,0.013523,0.002678,0.000431,0.000705
282000,0.0324,0.013523,0.002678,0.000431,0.000353
283000,0.0324,0.013523,0.002678,0.000431,0.000588
284000,0.0324,0.013523,0.002678,0.000431,0.000588
285000,0.0324,0.013523,0.002678,0.000431,0.000470
286000,0.0324,0.013523,0.002678,0.000431,0.000705
287000,0.0324,0.013523,0.002678,0.000431,0.000353
288000,0.0324,0.013523,0.002678,0.000431,0.000823
289000,0.0324,0.013523,0.002678,0.000431,0.000353
290000,0.0324,0.013523,0.002678,0.000431,0.000705
291000,0.0324,0.013523,0.002678,0.000431,0.000588
292000,0.0324,0.013523,0.002678,0.000431,0.000588
293000,0.0324,0.013523,0.002678,0.000431,0.000588
294000,0.0324,0.013523,0.002678,0.000431,0.000470
295000,0.0324,0.013523,0.002678,0.000431,0.000705
296000,0.0324,0.013523,0.002678,0.000431,0.000353
297000,0.0324,0.013523,0.002678,0.000431,0.000705
298000,0.0324,0.013523,0.002678,0.000431,0.000470
299000,0.0324,0.013523,0.002678,0.000431,0.000470
300000,0.0324,0.013523,0.002678,0.000431,0.000470
301000,0.0324,0.013523,0.002678,0.000431,0.000470
302000,0.0324,0.013523,0.002678,0.000431,0.000470
303000,0.0324,0.013523,0.002678,0.000431,0.000588
304000,0.0324,0.013523,0.002678,0.000431,0.000588
305000,0.0324,0.013523,0.002678,0.000431,0.000470
306000,0.0324,0.013523,0.002678,0.000431,0.000470
307000,0.0324,0.013523,0.002678,0.000431,0.000470
308000,0.0324,0.013523,0.002678,0.000431,0.000470
309000,0.0324,0.013523,0.002678,0.000431,0.000588
310000,0.0324,0.013523,0.002678,0.000431,0.000588
311000,0.0324,0.013523,0.002678,0.000431,0.000470
312000,0.0324,0.013523,0.002678,0.000431,0.000470
313000,0.0324,0.013523,0.002678,0.000431,0.000470
314000,0.0324,0.013523,0.002678,0.000431,0.000470
315000,0.0324,0.013523,0.002678,0.000431,0.000470
316000,0.0324,0.013523,0.002678,0.000431,0.000470
317000,0.0324,0.013523,0.002678,0.000431,0.000470
318000,0.0324,0.013523,0.002678,0.000431,0.000470
319000,0.0324,0.013523,0.002678,0.000431,0.000470
320000,0.0324,0.013523,0.002678,0.000431,0.000470
321000,0.0324,0.013523,0.002678,0.000431,0.000470
322000,0.0324,0.013523,0.002678,0.000431,0.000588
323000,0.0324,0.013523,0.002678,0.000431,0.000353
324000,0.0324,0.013523,0.002678,0.000431,0.000588
325000,0.0324,0.013523,0.002678,0.000431,0.000353
326000,0.0324,0.013523,0.002678,0.000431,0.000588
327000,0.0324,0.013523,0.002678,0.000431,0.000353
328000,0.0324,0.013523,0.002678,0.000431,0.000588
329000,0.0324,0.013523,0.002678,0.000431,0.000353
330000,0.0324,0.013523,0.002678,0.000431,0.000588
331000,0.0324,0.013523,0.002678,0.000431,0.000353
332000,0.0324,0.013523,0.002678,0.000431,0.000588
333000,0.0324,0.013523,0.002678,0.000431,0.000353
334000,0.0324,0.013523,0.002678,0.000431,0.000470
335000,0.0324,0.013523,0.002678,0.000431,0.000470
336000,0.0324,0.013523,0.002678,0.000431,0.000470
337000,0.0324,0.013523,0.002678,0.000431,0.000470
338000,0.0324,0.013523,0.002678,0.000431,0.000470
339000,0.0324,0.013523,0.002678,0.000431,0.000470
340000,0.0324,0.013523,0.002678,0.000431,0.000470
341000,0.0324,0.013523,0.002678,0.000431,0.000470
342000,0.0324,0.013523,0.002678,0.000431,0.000588
343000,0.0324,0.013523,0.002678,0.000431,0.000470
344000,0.0324,0.013523,0.002678,0.000431,0.000705
345000,0.0324,0.013523,0.002678,0.000431,0.000353
346000,0.0324,0.013523,0.002678,0.000431,0.000588
347000,0.0324,0.013523,0.002678,0.000431,0.000353
348000,0.0324,0.013523,0.002678,0.000431,0.000588
349000,0.0324,0.013523,0.002678,0.000431,0.000353
350000,0.0324,0.013523,0.002678,0.000431,0.000823
351000,0.0324,0.013523,0.002678,0.000431,0.000353
352000,0.0324,0.013523,0.002678,0.000431,0.000705
353000,0.0324,0.013523,0.002678,0.000431,0.000470
354000,0.0324,0.013523,0.002678,0.000431,0.000470
355000,0.0324,0.013523,0.002678,0.000431,0.000470
356000,0.0324,0.013523,0.002678,0.000431,0.000470
357000,0.0324,0.013523,0.002678,0.000431,0.000353
358000,0.0324,0.013523,0.002678,0.000431,0.000588
359000,0.0324,0.013523,0.002678,0.000431,0.000353
360000,0.0324,0.013523,0.002678,0.000431,0.000705
361000,0.0324,0.013523,0.002678,0.000431,0.000353
362000,0.0324,0.013523,0.002678,0.000431,0.000588
363000,0.0324,0.013523,0.002678,0.000431,0.000470
364000,0.0324,0.013523,0.002678,0.000431,0.000588
365000,0.0324,0.013523,0.002678,0.000431,0.000353
366000,0.0324,0.013523,0.002678,0.000431,0.000705
367000,0.0324,0.013523,0.002678,0.000431,0.000353
368000,0.0324,0.013523,0.002678,0.000431,0.000588
369000,0.0324,0.013523,0.002678,0.000431,0.000353
370000,0.0324,0.013523,0.002678,0.000431,0.000588
371000,0.0324,0.013523,0.002678,0.000431,0.000353
372000,0.0324,0.013523,0.002678,0.000431,0.000588
373000,0.0324,0.013523,0.002678,0.000431,0.000353
374000,0.0324,0.013523,0.002678,0.000431,0.000588
375000,0.0324,0.013523,0.002678,0.000431,0.000353
376000,0.0324,0.013523,0.002678,0.000431,0.000588
377000,0.0324,0.013523,0.002678,0.000431,0.000353
378000,0.0324,0.013523,0.002678,0.000431,0.000588
379000,0.0324,0.013523,0.002678,0.000431,0.000353
380000,0.0324,0.013523,0.002678,0.000431,0.000588
381000,0.0324,0.013523,0.002678,0.000431,0.000353
382000,0.0324,0.013523,0.002678,0.000431,0.000588
383000,0.0324,0.013523,0.002678,0.000431,0.000470
384000,0.0324,0.013523,0.002678,0.000431,0.000705
385000,0.0324,0.013523,0.002678,0.000431,0.000235
386000,0.0324,0.013523,0.002678,0.000431,0.000705
387000,0.0324,0.013523,0.002678,0.000431,0.000353
388000,0.0324,0.013523,0.002678,0.000431,0.000705
389000,0.0324,0.013523,0.002678,0.000431,0.000470
390000,0.0324,0.013523,0.002678,0.000431,0.000470
391000,0.0324,0.013523,0.002678,0.000431,0.000470
392000,0.0324,0.013523,0.002678,0.000431,0.000588
393000,0.0324,0.013523,0.002678,0.000431,0.000353
394000,0.0324,0.013523,0.002678,0.000431,0.000470
395000,0.0324,0.013523,0.002678,0.000431,0.000470
396000,0.0324,0.013523,0.002678,0.000431,0.000588
397000,0.0324,0.013523,0.002678,0.000431,0.000353
398000,0.0324,0.013523,0.002678,0.000431,0.000588
399000,0.0324,0.013523,0.002678,0.000431,0.000353
400000,0.0324,0.013523,0.002678,0.000431,0.000588
401000,0.0324,0.013523,0.002678,0.000431,0.000353
402000,0.0324,0.013523,0.002678,0.000431,0.000588
403000,0.0324,0.013523,0.002678,0.000431,0.000353
404000,0.0324,0.013523,0.002678,0.000431,0.000470
405000,0.0324,0.013523,0.002678,0.000431,0.000470
406000,0.0324,0.013523,0.002678,0.000431,0.000588
407000,0.0324,0.013523,0.002678,0.000431,0.000470
408000,0.0324,0.013523,0.002678,0.000431,0.000588
409000,0.0324,0.013523,0.002678,0.000431,0.000588
410000,0.0324,0.013523,0.002678,0.000431,0.000470
411000,0.0324,0.013523,0.002678,0.000431,0.000705
412000,0.0324,0.013523,0.002678,0.000431,0.000353
413000,0.0324,0.013523,0.002678,0.000431,0.000705
414000,0.0324,0.013523,0.002678,0.000431,0.000470
415000,0.0324,0.013523,0.002678,0.000431,0.000470
416000,0.0324,0.013523,0.002678,0.000431,0.000470
417000,0.0324,0.013523,0.002678,0.000431,0.000470
418000,0.0324,0.013523,0.002678,0.000431,0.000470
419000,0.0324,0.013523,0.002678,0.000431,0.000588
420000,0.0324,0.013523,0.002678,0.000431,0.000353
421000,0.0324,0.013523,0.002678,0.000431,0.000588
422000,0.0324,0.013523,0.002678,0.000431,0.000353
423000,0.0324,0.013523,0.002678,0.000431,0.000705
424000,0.0324,0.013523,0.002678,0.000431,0.000470
425000,0.0324,0.013523,0.002678,0.000431,0.000470
426000,0.0324,0.013523,0.002678,0.000431,0.000470
427000,0.0324,0.013523,0.002678,0.000431,0.000470
428000,0.0324,0.013523,0.002678,0.000431,0.000470
429000,0.0324,0.013523,0.002678,0.000431,0.000470
430000,0.0324,0.013523,0.002678,0.000431,0.000353
431000,0.0324,0.013523,0.002678,0.000431,0.000588
432000,0.0324,0.013523,0.002678,0.000431,0.000353
433000,0.0324,0.013523,0.002678,0.000431,0.000588
434000,0.0324,0.013523,0.002678,0.000431,0.000470
435000,0.0324,0.013523,0.002678,0.000431,0.000470
436000,0.0324,0.013523,0.002678,0.000431,0.000470
437000,0.0324,0.013523,0.002678,0.000431,0.000470
438000,0.0324,0.013523,0.002678,0.000431,0.000470
439000,0.0324,0.013523,0.002678,0.000431,0.000470
440000,0.0324,0.013523,0.002678,0.000431,0.000470
441000,0.0324,0.013523,0.002678,0.000431,0.000588
442000,0.0324,0.013523,0.002678,0.000431,0.000470
443000,0.0324,0.013523,0.002678,0.000431,0.000588
444000,0.0324,0.013523,0.002678,0.000431,0.000353
445000,0.0324,0.013523,0.002678,0.000431,0.000588
446000,0.0324,0.013523,0.002678,0.000431,0.000353
447000,0.0324,0.013523,0.002678,0.000431,0.000588
448000,0.0324,0.013523,0.002678,0.000431,0.000470
449000,0.0324,0.013523,0.002678,0.000431,0.000470
450000,0.0324,0.013523,0.002678,0.000431,0.000353
451000,0.0324,0.013523,0.002678,0.000431,0.000705
452000,0.0324,0.013523,0.002678,0.000431,0.000470
453000,0.0324,0.013523,0.002678,0.000431,0.000705
454000,0.0324,0.013523,0.002678,0.000431,0.000353
455000,0.0324,0.013523,0.002678,0.000431,0.000588
456000,0.0324,0.013523,0.002678,0.000431,0.000353
457000,0.0324,0.013523,0.002678,0.000431,0.000705
458000,0.0324,0.013523,0.002678,0.000431,0.000588
459000,0.0324,0.013523,0.002678,0.000431,0.000470
460000,0.0324,0.013523,0.002678,0.000431,0.000588
461000,0.0324,0.013523,0.002678,0.000431,0.000353
462000,0.0324,0.013523,0.002678,0.000431,0.000588
463000,0.0324,0.013523,0.002678,0.000431,0.000353
464000,0.0324,0.013523,0.002678,0.000431,0.000588
465000,0.0324,0.013523,0.002678,0.000431,0.000470
466000,0.0324,0.013523,0.002678,0.000431,0.000470
467000,0.0324,0.013523,0.002678,0.000431,0.000470
468000,0.0324,0.013523,0.002678,0.000431,0.000588
469000,0.0324,0.013523,0.002678,0.000431,0.000470
470000,0.0324,0.013523,0.002678,0.000431,0.000705
471000,0.0324,0.013523,0.002678,0.000431,0.000353
472000,0.0324,0.013523,0.002678,0.000431,0.000588
473000,0.0324,0.013523,0.002678,0.000431,0.000588
474000,0.0324,0.013523,0.002678,0.000431,0.000470
475000,0.0324,0.013523,0.002678,0.000431,0.000353
476000,0.0324,0.013523,0.002678,0.000431,0.000588
477000,0.0324,0.013523,0.002678,0.000431,0.000235
478000,0.0324,0.013523,0.002678,0.000431,0.000588
479000,0.0324,0.013523,0.002678,0.000431,0.000353
480000,0.0324,0.013523,0.002678,0.000431,0.000588
481000,0.0324,0.013523,0.002678,0.000431,0.000353
482000,0.0324,0.013523,0.002678,0.000431,0.000705
483000,0.0324,0.013523,0.002678,0.000431,0.000353
484000,0.0324,0.013523,0.002678,0.000431,0.000588
485000,0.0324,0.013523,0.002678,0.000431,0.000235
486000,0.0324,0.013523,0.002678,0.000431,0.000588
487000,0.0324,0.013523,0.002678,0.000431,0.000353
488000,0.0324,0.013523,0.002678,0.000431,0.000705
489000,0.0324,0.013523,0.002678,0.000431,0.000353
490000,0.0324,0.013523,0.002678,0.000431,0.000588
491000,0.0324,0.013523,0.002678,0.000431,0.000353
492000,0.0324,0.013523,0.002678,0.000431,0.000705
493000,0.0324,0.013523,0.002678,0.000431,0.000353
494000,0.0324,0.013523,0.002678,0.000431,0.000588
495000,0.0324,0.013523,0.002678,0.000431,0.000353
496000,0.0324,0.013523,0.002678,0.000431,0.000588
497000,0.0324,0.013523,0.002678,0.000431,0.000353
498000,0.0324,0.013523,0.002678,0.000431,0.000588
499000,0.0324,0.013523,0.002678,0.000431,0.000353
500000,0.0324,0.013523,0.002678,0.000431,0.000588
501000,0.0324,0.013523,0.002678,0.000431,0.000353
502000,0.0324,0.013523,0.002678,0.000431,0.000470
503000,0.0324,0.013523,0.002678,0.000431,0.000470
504000,0.0324,0.013523,0.002678,0.000431,0.000470
505000,0.0324,0.013523,0.002678,0.000431,0.000470
506000,0.0324,0.013523,0.002678,0.000431,0.000470
507000,0.0324,0.013523,0.002678,0.000431,0.000470
508000,0.0324,0.013523,0.002678,0.000431,0.000470
509000,0.0324,0.013523,0.002678,0.000431,0.000588
510000,0.0324,0.013523,0.002678,0.000431,0.000353
511000,0.0324,0.013523,0.002678,0.000431,0.000588
512000,0.0324,0.013523,0.002678,0.000431,0.000353
513000,0.0324,0.013523,0.002678,0.000431,0.000588
514000,0.0324,0.013523,0.002678,0.000431,0.000353
515000,0.0324,0.013523,0.002678,0.000431,0.000588
516000,0.0324,0.013523,0.002678,0.000431,0.000353
517000,0.0324,0.013523,0.002678,0.000431,0.000705
518000,0.0324,0.013523,0.002678,0.000431,0.000470
519000,0.0324,0.013523,0.002678,0.000431,0.000470
520000,0.0324,0.013523,0.002678,0.000431,0.000470
521000,0.0324,0.013523,0.002678,0.000431,0.000470
522000,0.0324,0.013523,0.002678,0.000431,0.000470
523000,0.0324,0.013523,0.002678,0.000431,0.000470
524000,0.0324,0.013523,0.002678,0.000431,0.000470
525000,0.0324,0.013523,0.002678,0.000431,0.000470
526000,0.0324,0.013523,0.002678,0.000431,0.000470
527000,0.0324,0.013523,0.002678,0.000431,0.000470
528000,0.0324,0.013523,0.002678,0.000431,0.000470
529000,0.0324,0.013523,0.002678,0.000431,0.000470
530000,0.0324,0.013523,0.002678,0.000431,0.000470
531000,0.0324,0.013523,0.002678,0.000431,0.000470
532000,0.0324,0.013523,0.002678,0.000431,0.000353
533000,0.0324,0.013523,0.002678,0.000431,0.000705
534000,0.0324,0.013523,0.002678,0.000431,0.000353
535000,0.0324,0.013523,0.002678,0.000431,0.000705
536000,0.0324,0.013523,0.002678,0.000431,0.000588
537000,0.0324,0.013523,0.002678,0.000431,0.000588
538000,0.0324,0.013523,0.002678,0.000431,0.000470
539000,0.0324,0.013523,0.002678,0.000431,0.000470
540000,0.0324,0.013523,0.002678,0.000431,0.000588
541000,0.0324,0.013523,0.002678,0.000431,0.000470
542000,0.0324,0.013523,0.002678,0.000431,0.000705
543000,0.0324,0.013523,0.002678,0.000431,0.000353
544000,0.0324,0.013523,0.002678,0.000431,0.000588
545000,0.0324,0.013523,0.002678,0.000431,0.000470
546000,0.0324,0.013523,0.002678,0.000431,0.000705
547000,0.0324,0.013523,0.002678,0.000431,0.000353
548000,0.0324,0.013523,0.002678,0.000431,0.000588
549000,0.0324,0.013523,0.002678,0.000431,0.000353
550000,0.0324,0.013523,0.002678,0.000431,0.000588
551000,0.0324,0.013523,0.002678,0.000431,0.000353
552000,0.0324,0.013523,0.002678,0.000431,0.000588
553000,0.0324,0.013523,0.002678,0.000431,0.000470
554000,0.0324,0.013523,0.002678,0.000431,0.000470
555000,0.0324,0.013523,0.002678,0.000431,0.000470
556000,0.0324,0.013523,0.002678,0.000431,0.000470
557000,0.0324,0.013523,0.002678,0.000431,0.000470
558000,0.0324,0.013523,0.002678,0.000431,0.000353
559000,0.0324,0.013523,0.002678,0.000431,0.000588
560000,0.0324,0.013523,0.002678,0.000431,0.000353
561000,0.0324,0.013523,0.002678,0.000431,0.000588
562000,0.0324,0.013523,0.002678,0.000431,0.000353
563000,0.0324,0.013523,0.002678,0.000431,0.000588
564000,0.0324,0.013523,0.002678,0.000431,0.000353
565000,0.0324,0.013523,0.002678,0.000431,0.000588
566000,0.0324,0.013523,0.002678,0.000431,0.000353
567000,0.0324,0.013523,0.002678,0.000431,0.000588
568000,0.0324,0.013523,0.002678,0.000431,0.000353
569000,0.0324,0.013523,0.002678,0.000431,0.000705
570000,0.0324,0.013523,0.002678,0.000431,0.000470
571000,0.0324,0.013523,0.002678,0.000431,0.000470
572000,0.0324,0.013523,0.002678,0.000431,0.000470
573000,0.0324,0.013523,0.002678,0.000431,0.000588
574000,0.0324,0.013523,0.002678,0.000431,0.000353
575000,0.0324,0.013523,0.002678,0.000431,0.000588
576000,0.0324,0.013523,0.002678,0.000431,0.000353
577000,0.0324,0.013523,0.002678,0.000431,0.000588
578000,0.0324,0.013523,0.002678,0.000431,0.000353
579000,0.0324,0.013523,0.002678,0.000431,0.000588
580000,0.0324,0.013523,0.002678,0.000431,0.000353
581000,0.0324,0.013523,0.002678,0.000431,0.000823
582000,0.0324,0.013523,0.002678,0.000431,0.000353
583000,0.0324,0.013523,0.002678,0.000431,0.000588
584000,0.0324,0.013523,0.002678,0.000431,0.000353
585000,0.0324,0.013523,0.002678,0.000431,0.000588
586000,0.0324,0.013523,0.002678,0.000431,0.000353
587000,0.0324,0.013523,0.002678,0.000431,0.000470
588000,0.0324,0.013523,0.002678,0.000431,0.000470
589000,0.0324,0.013523,0.002678,0.000431,0.000588
590000,0.0324,0.013523,0.002678,0.000431,0.000588
591000,0.0324,0.013523,0.002678,0.000431,0.000470
592000,0.0324,0.013523,0.002678,0.000431,0.000470
593000,0.0324,0.013523,0.002678,0.000431,0.000470
594000,0.0324,0.013523,0.002678,0.000431,0.000470
595000,0.0324,0.013523,0.002678,0.000431,0.000588
596000,0.0324,0.013523,0.002678,0.000431,0.000470
597000,0.0324,0.013523,0.002678,0.000431,0.000588
598000,0.0324,0.013523,0.002678,0.000431,0.000353
599000,0.0324,0.013523,0.002678,0.000431,0.000588
600000,0.0324,0.013523,0.002678,0.000431,0.000353
601000,0.0324,0.013523,0.002678,0.000431,0.000588
602000,0.0324,0.013523,0.002678,0.000431,0.000353
603000,0.0324,0.013523,0.002678,0.000431,0.000588
604000,0.0324,0.013523,0.002678,0.000431,0.000353
605000,0.0324,0.013523,0.002678,0.000431,0.000588
606000,0.0324,0.013523,0.002678,0.000431,0.000353
607000,0.0324,0.013523,0.002678,0.000431,0.000588
608000,0.0324,0.013523,0.002678,0.000431,0.000353
609000,0.0324,0.013523,0.002678,0.000431,0.000588
610000,0.0324,0.013523,0.002678,0.000431,0.000470
611000,0.0324,0.013523,0.002678,0.000431,0.000470
612000,0.0324,0.013523,0.002678,0.000431,0.000470
613000,0.0324,0.013523,0.002678,0.000431,0.000470
614000,0.0324,0.013523,0.002678,0.000431,0.000470
615000,0.0324,0.013523,0.002678,0.000431,0.000470
616000,0.0324,0.013523,0.002678,0.000431,0.000705
617000,0.0324,0.013523,0.002678,0.000431,0.000353
618000,0.0324,0.013523,0.002678,0.000431,0.000588
619000,0.0324,0.013523,0.002678,0.000431,0.000353
620000,0.0324,0.013523,0.002678,0.000431,0.000470
621000,0.0324,0.013523,0.002678,0.000431,0.000353
622000,0.0324,0.013523,0.002678,0.000431,0.000705
623000,0.0324,0.013523,0.002678,0.000431,0.000353
624000,0.0324,0.013523,0.002678,0.000431,0.000588
625000,0.0324,0.013523,0.002678,0.000431,0.000353
626000,0.0324,0.013523,0.002678,0.000431,0.000705
627000,0.0324,0.013523,0.002678,0.000431,0.000353
628000,0.0324,0.013523,0.002678,0.000431,0.000705
629000,0.0324,0.013523,0.002678,0.000431,0.000470
630000,0.0324,0.013523,0.002678,0.000431,0.000470
631000,0.0324,0.013523,0.002678,0.000431,0.000470
632000,0.0324,0.013523,0.002678,0.000431,0.000470
633000,0.0324,0.013523,0.002678,0.000431,0.000470
634000,0.0324,0.013523,0.002678,0.000431,0.000470
635000,0.0324,0.013523,0.002678,0.000431,0.000470
636000,0.0324,0.013523,0.002678,0.000431,0.000470
637000,0.0324,0.013523,0.002678,0.000431,0.000470
638000,0.0324,0.013523,0.002678,0.000431,0.000470
639000,0.0324,0.013523,0.002678,0.000431,0.000470
640000,0.0324,0.013523,0.002678,0.000431,0.000470
641000,0.0324,0.013523,0.002678,0.000431,0.000470
642000,0.0324,0.013523,0.002678,0.000431,0.000470
643000,0.0324,0.013523,0.002678,0.000431,0.000353
644000,0.0324,0.013523,0.002678,0.000431,0.000588
645000,0.0324,0.013523,0.002678,0.000431,0.000353
646000,0.0324,0.013523,0.002678,0.000431,0.000705
647000,0.0324,0.013523,0.002678,0.000431,0.000353
648000,0.0324,0.013523,0.002678,0.000431,0.000823
649000,0.0324,0.013523,0.002678,0.000431,0.000353
650000,0.0324,0.013523,0.002678,0.000431,0.000705
651000,0.0324,0.013523,0.002678,0.000431,0.000588
652000,0.0324,0.013523,0.002678,0.000431,0.000470
653000,0.0324,0.013523,0.002678,0.000431,0.000588
654000,0.0324,0.013523,0.002678,0.000431,0.000353
655000,0.0324,0.013523,0.002678,0.000431,0.000588
656000,0.0324,0.013523,0.002678,0.000431,0.000353
657000,0.0324,0.013523,0.002678,0.000431,0.000588
658000,0.0324,0.013523,0.002678,0.000431,0.000353
659000,0.0324,0.013523,0.002678,0.000431,0.000705
660000,0.0324,0.013523,0.002678,0.000431,0.000470
661000,0.0324,0.013523,0.002678,0.000431,0.000588
662000,0.0324,0.013523,0.002678,0.000431,0.000353
663000,0.0324,0.013523,0.002678,0.000431,0.000588
664000,0.0324,0.013523,0.002678,0.000431,0.000353
665000,0.0324,0.013523,0.002678,0.000431,0.000470
666000,0.0324,0.013523,0.002678,0.000431,0.000470
667000,0.0324,0.013523,0.002678,0.000431,0.000470
668000,0.0324,0.013523,0.002678,0.000431,0.000470
669000,0.0324,0.013523,0.002678,0.000431,0.000353
670000,0.0324,0.013523,0.002678,0.000431,0.000705
671000,0.0324,0.013523,0.002678,0.000431,0.000588
672000,0.0324,0.013523,0.002678,0.000431,0.000470
673000,0.0324,0.013523,0.002678,0.000431,0.000705
674000,0.0324,0.013523,0.002678,0.000431,0.000353
675000,0.0324,0.013523,0.002678,0.000431,0.000705
676000,0.0324,0.013523,0.002678,0.000431,0.000588
677000,0.0324,0.013523,0.002678,0.000431,0.000470
678000,0.0324,0.013523,0.002678,0.000431,0.000588
679000,0.0324,0.013523,0.002678,0.000431,0.000353
680000,0.0324,0.013523,0.002678,0.000431,0.000588
681000,0.0324,0.013523,0.002678,0.000431,0.000353
682000,0.0324,0.013523,0.002678,0.000431,0.000588
683000,0.0324,0.013523,0.002678,0.000431,0.000353
684000,0.0324,0.013523,0.002678,0.000431,0.000470
685000,0.0324,0.013523,0.002678,0.000431,0.000470
686000,0.0324,0.013523,0.002678,0.000431,0.000470
687000,0.0324,0.013523,0.002678,0.000431,0.000470
688000,0.0324,0.013523,0.002678,0.000431,0.000353
689000,0.0324,0.013523,0.002678,0.000431,0.000588
690000,0.0324,0.013523,0.002678,0.000431,0.000353
691000,0.0324,0.013523,0.002678,0.000431,0.000588
692000,0.0324,0.013523,0.002678,0.000431,0.000353
693000,0.0324,0.013523,0.002678,0.000431,0.000705
694000,0.0324,0.013523,0.002678,0.000431,0.000470
695000,0.0324,0.013523,0.002678,0.000431,0.000588
696000,0.0324,0.013523,0.002678,0.000431,0.000353
697000,0.0324,0.013523,0.002678,0.000431,0.000588
698000,0.0324,0.013523,0.002678,0.000431,0.000470
699000,0.0324,0.013523,0.002678,0.000431,0.000470
700000,0.0324,0.013523,0.002678,0.000431,0.000353
701000,0.0324,0.013523,0.002678,0.000431,0.000588
702000,0.0324,0.013523,0.002678,0.000431,0.000353
703000,0.0324,0.013523,0.002678,0.000431,0.000705
704000,0.0324,0.013523,0.002678,0.000431,0.000353
705000,0.0324,0.013523,0.002678,0.000431,0.000705
706000,0.0324,0.013523,0.002678,0.000431,0.000353
707000,0.0324,0.013523,0.002678,0.000431,0.000705
708000,0.0324,0.013523,0.002678,0.000431,0.000588
709000,0.0324,0.013523,0.002678,0.000431,0.000470
710000,0.0324,0.013523,0.002678,0.000431,0.000470
711000,0.0324,0.013523,0.002678,0.000431,0.000470
712000,0.0324,0.013523,0.002678,0.000431,0.000470
713000,0.0324,0.013523,0.002678,0.000431,0.000470
714000,0.0324,0.013523,0.002678,0.000431,0.000353
715000,0.0324,0.013523,0.002678,0.000431,0.000588
716000,0.0324,0.013523,0.002678,0.000431,0.000353
717000,0.0324,0.013523,0.002678,0.000431,0.000588
718000,0.0324,0.013523,0.002678,0.000431,0.000353
719000,0.0324,0.013523,0.002678,0.000431,0.000588
720000,0.0324,0.013523,0.002678,0.000431,0.000353
721000,0.0324,0.013523,0.002678,0.000431,0.000588
722000,0.0324,0.013523,0.002678,0.000431,0.000353
723000,0.0324,0.013523,0.002678,0.000431,0.000705
724000,0.0324,0.013523,0.002678,0.000431,0.000588
725000,0.0324,0.013523,0.002678,0.000431,0.000470
726000,0.0324,0.013523,0.002678,0.000431,0.000588
727000,0.0324,0.013523,0.002678,0.000431,0.000353
728000,0.0324,0.013523,0.002678,0.000431,0.000588
729000,0.0324,0.013523,0.002678,0.000431,0.000353
730000,0.0324,0.013523,0.002678,0.000431,0.000588
731000,0.0324,0.013523,0.002678,0.000431,0.000470
732000,0.0324,0.013523,0.002678,0.000431,0.000588
733000,0.0324,0.013523,0.002678,0.000431,0.000470
734000,0.0324,0.013523,0.002678,0.000431,0.000705
735000,0.0324,0.013523,0.002678,0.000431,0.000353
736000,0.0324,0.013523,0.002678,0.000431,0.000470
737000,0.0324,0.013523,0.002678,0.000431,0.000470
738000,0.0324,0.013523,0.002678,0.000431,0.000588
739000,0.0324,0.013523,0.002678,0.000431,0.000470
740000,0.0324,0.013523,0.002678,0.000431,0.000353
741000,0.0324,0.013523,0.002678,0.000431,0.000588
742000,0.0324,0.013523,0.002678,0.000431,0.000353
743000,0.0324,0.013523,0.002678,0.000431,0.000470
744000,0.0324,0.013523,0.002678,0.000431,0.000470
745000,0.0324,0.013523,0.002678,0.000431,0.000470
746000,0.0324,0.013523,0.002678,0.000431,0.000470
747000,0.0324,0.013523,0.002678,0.000431,0.000588
748000,0.0324,0.013523,0.002678,0.000431,0.000353
749000,0.0324,0.013523,0.002678,0.000431,0.000588
750000,0.0324,0.013523,0.002678,0.000431,0.000353
751000,0.0324,0.013523,0.002678,0.000431,0.000705
752000,0.0324,0.013523,0.002678,0.000431,0.000470
753000,0.0324,0.013523,0.002678,0.000431,0.000470
754000,0.0324,0.013523,0.002678,0.000431,0.000470
755000,0.0324,0.013523,0.002678,0.000431,0.000470
756000,0.0324,0.013523,0.002678,0.000431,0.000470
757000,0.0324,0.013523,0.002678,0.000431,0.000470
758000,0.0324,0.013523,0.002678,0.000431,0.000470
759000,0.0324,0.013523,0.002678,0.000431,0.000588
760000,0.0324,0.013523,0.002678,0.000431,0.000353
761000,0.0324,0.013523,0.002678,0.000431,0.000470
762000,0.0324,0.013523,0.002678,0.000431,0.000470
763000,0.0324,0.013523,0.002678,0.000431,0.000470
764000,0.0324,0.013523,0.002678,0.000431,0.000470
765000,0.0324,0.013523,0.002678,0.000431,0.000470
766000,0.0324,0.013523,0.002678,0.000431,0.000353
767000,0.0324,0.013523,0.002678,0.000431,0.000705
768000,0.0324,0.013523,0.002678,0.000431,0.000470
769000,0.0324,0.013523,0.002678,0.000431,0.000470
770000,0.0324,0.013523,0.002678,0.000431,0.000353
771000,0.0324,0.013523,0.002678,0.000431,0.000588
772000,0.0324,0.013523,0.002678,0.000431,0.000353
773000,0.0324,0.013523,0.002678,0.000431,0.000705
774000,0.0324,0.013523,0.002678,0.000431,0.000353
775000,0.0324,0.013523,0.002678,0.000431,0.000588
776000,0.0324,0.013523,0.002678,0.000431,0.000353
777000,0.0324,0.013523,0.002678,0.000431,0.000588
778000,0.0324,0.013523,0.002678,0.000431,0.000353
779000,0.0324,0.013523,0.002678,0.000431,0.000588
780000,0.0324,0.013523,0.002678,0.000431,0.000353
781000,0.0324,0.013523,0.002678,0.000431,0.000588
782000,0.0324,0.013523,0.002678,0.000431,0.000353
783000,0.0324,0.013523,0.002678,0.000431,0.000588
784000,0.0324,0.013523,0.002678,0.000431,0.000353
785000,0.0324,0.013523,0.002678,0.000431,0.000588
786000,0.0324,0.013523,0.002678,0.000431,0.000353
787000,0.0324,0.013523,0.002678,0.000431,0.000705
788000,0.0324,0.013523,0.002678,0.000431,0.000470
789000,0.0324,0.013523,0.002678,0.000431,0.000705
790000,0.0324,0.013523,0.002678,0.000431,0.000353
791000,0.0324,0.013523,0.002678,0.000431,0.000588
792000,0.0324,0.013523,0.002678,0.000431,0.000353
793000,0.0324,0.013523,0.002678,0.000431,0.000588
794000,0.0324,0.013523,0.002678,0.000431,0.000353
795000,0.0324,0.013523,0.002678,0.000431,0.000470
796000,0.0324,0.013523,0.002678,0.000431,0.000470
797000,0.0324,0.013523,0.002678,0.000431,0.000470
798000,0.0324,0.013523,0.002678,0.000431,0.000470
799000,0.0324,0.013523,0.002678,0.000431,0.000588
800000,0.0324,0.013523,0.002678,0.000431,0.000470
801000,0.0324,0.013523,0.002678,0.000431,0.000705
802000,0.0324,0.013523,0.002678,0.000431,0.000353
803000,0.0324,0.013523,0.002678,0.000431,0.000705
804000,0.0324,0.013523,0.002678,0.000431,0.000470
805000,0.0324,0.013523,0.002678,0.000431,0.000470
806000,0.0324,0.013523,0.002678,0.000431,0.000470
807000,0.0324,0.013523,0.002678,0.000431,0.000470
808000,0.0324,0.013523,0.002678,0.000431,0.000470
809000,0.0324,0.013523,0.002678,0.000431,0.000588
810000,0.0324,0.013523,0.002678,0.000431,0.000353
811000,0.0324,0.013523,0.002678,0.000431,0.000588
812000,0.0324,0.013523,0.002678,0.000431,0.000353
813000,0.0324,0.013523,0.002678,0.000431,0.000588
814000,0.0324,0.013523,0.002678,0.000431,0.000353
815000,0.0324,0.013523,0.002678,0.000431,0.000588
816000,0.0324,0.013523,0.002678,0.000431,0.000353
817000,0.0324,0.013523,0.002678,0.000431,0.000823
818000,0.0324,0.013523,0.002678,0.000431,0.000353
819000,0.0324,0.013523,0.002678,0.000431,0.000470
820000,0.0324,0.013523,0.002678,0.000431,0.000353
821000,0.0324,0.013523,0.002678,0.000431,0.000588
822000,0.0324,0.013523,0.002678,0.000431,0.000353
823000,0.0324,0.013523,0.002678,0.000431,0.000588
824000,0.0324,0.013523,0.002678,0.000431,0.000470
825000,0.0324,0.013523,0.002678,0.000431,0.000470
826000,0.0324,0.013523,0.002678,0.000431,0.000470
827000,0.0324,0.013523,0.002678,0.000431,0.000470
828000,0.0324,0.013523,0.002678,0.000431,0.000470
829000,0.0324,0.013523,0.002678,0.000431,0.000470
830000,0.0324,0.013523,0.002678,0.000431,0.000470
831000,0.0324,0.013523,0.002678,0.000431,0.000470
832000,0.0324,0.013523,0.002678,0.000431,0.000470
833000,0.0324,0.013523,0.002678,0.000431,0.000470
834000,0.0324,0.013523,0.002678,0.000431,0.000470
835000,0.0324,0.013523,0.002678,0.000431,0.000470
836000,0.0324,0.013523,0.002678,0.000431,0.000470
837000,0.0324,0.013523,0.002678,0.000431,0.000588
838000,0.0324,0.013523,0.002678,0.000431,0.000470
839000,0.0324,0.013523,0.002678,0.000431,0.000588
840000,0.0324,0.013523,0.002678,0.000431,0.000353
841000,0.0324,0.013523,0.002678,0.000431,0.000588
842000,0.0324,0.013523,0.002678,0.000431,0.000353
843000,0.0324,0.013523,0.002678,0.000431,0.000588
844000,0.0324,0.013523,0.002678,0.000431,0.000470
845000,0.0324,0.013523,0.002678,0.000431,0.000353
846000,0.0324,0.013523,0.002678,0.000431,0.000588
847000,0.0324,0.013523,0.002678,0.000431,0.000588
848000,0.0324,0.013523,0.002678,0.000431,0.000470
849000,0.0324,0.013523,0.002678,0.000431,0.000705
850000,0.0324,0.013523,0.002678,0.000431,0.000353
851000,0.0324,0.013523,0.002678,0.000431,0.000705
852000,0.0324,0.013523,0.002678,0.000431,0.000470
853000,0.0324,0.013523,0.002678,0.000431,0.000470
854000,0.0324,0.013523,0.002678,0.000431,0.000470
855000,0.0324,0.013523,0.002678,0.000431,0.000470
856000,0.0324,0.013523,0.002678,0.000431,0.000470
857000,0.0324,0.013523,0.002678,0.000431,0.000470
858000,0.0324,0.013523,0.002678,0.000431,0.000470
859000,0.0324,0.013523,0.002678,0.000431,0.000470
860000,0.0324,0.013523,0.002678,0.000431,0.000470
861000,0.0324,0.013523,0.002678,0.000431,0.000470
862000,0.0324,0.013523,0.002678,0.000431,0.000470
863000,0.0324,0.013523,0.002678,0.000431,0.000705
864000,0.0324,0.013523,0.002678,0.000431,0.000353
865000,0.0324,0.013523,0.002678,0.000431,0.000705
866000,0.0324,0.013523,0.002678,0.000431,0.000470
867000,0.0324,0.013523,0.002678,0.000431,0.000470
868000,0.0324,0.013523,0.002678,0.000431,0.000470
869000,0.0324,0.013523,0.002678,0.000431,0.000470
870000,0.0324,0.013523,0.002678,0.000431,0.000353
871000,0.0324,0.013523,0.002678,0.000431,0.000588
872000,0.0324,0.013523,0.002678,0.000431,0.000353
873000,0.0324,0.013523,0.002678,0.000431,0.000705
874000,0.0324,0.013523,0.002678,0.000431,0.000588
875000,0.0324,0.013523,0.002678,0.000431,0.000470
876000,0.0324,0.013523,0.002678,0.000431,0.000588
877000,0.0324,0.013523,0.002678,0.000431,0.000470
878000,0.0324,0.013523,0.002678,0.000431,0.000588
879000,0.0324,0.013523,0.002678,0.000431,0.000470
880000,0.0324,0.013523,0.002678,0.000431,0.000705
881000,0.0324,0.013523,0.002678,0.000431,0.000470
882000,0.0324,0.013523,0.002678,0.000431,0.000588
883000,0.0324,0.013523,0.002678,0.000431,0.000235
884000,0.0324,0.013523,0.002678,0.000431,0.000705
885000,0.0324,0.013523,0.002678,0.000431,0.000353
886000,0.0324,0.013523,0.002678,0.000431,0.000588
887000,0.0324,0.013523,0.002678,0.000431,0.000353
888000,0.0324,0.013523,0.002678,0.000431,0.000588
889000,0.0324,0.013523,0.002678,0.000431,0.000353
890000,0.0324,0.013523,0.002678,0.000431,0.000470
891000,0.0324,0.013523,0.002678,0.000431,0.000588
892000,0.0324,0.013523,0.002678,0.000431,0.000470
893000,0.0324,0.013523,0.002678,0.000431,0.000470
894000,0.0324,0.013523,0.002678,0.000431,0.000470
895000,0.0324,0.013523,0.002678,0.000431,0.000470
896000,0.0324,0.013523,0.002678,0.000431,0.000353
897000,0.0324,0.013523,0.002678,0.000431,0.000588
898000,0.0324,0.013523,0.002678,0.000431,0.000235
899000,0.0324,0.013523,0.002678,0.000431,0.000588
900000,0.0324,0.013523,0.002678,0.000431,0.000353
901000,0.0324,0.013523,0.002678,0.000431,0.000705
902000,0.0324,0.013523,0.002678,0.000431,0.000353
903000,0.0324,0.013523,0.002678,0.000431,0.000588
904000,0.0324,0.013523,0.002678,0.000431,0.000235
905000,0.0324,0.013523,0.002678,0.000431,0.000588
906000,0.0324,0.013523,0.002678,0.000431,0.000353
907000,0.0324,0.013523,0.002678,0.000431,0.000588
908000,0.0324,0.013523,0.002678,0.000431,0.000353
909000,0.0324,0.013523,0.002678,0.000431,0.000588
910000,0.0324,0.013523,0.002678,0.000431,0.000353
911000,0.0324,0.013523,0.002678,0.000431,0.000588
912000,0.0324,0.013523,0.002678,0.000431,0.000353
913000,0.0324,0.013523,0.002678,0.000431,0.000588
914000,0.0324,0.013523,0.002678,0.000431,0.000353
915000,0.0324,0.013523,0.002678,0.000431,0.000588
916000,0.0324,0.013523,0.002678,0.000431,0.000353
917000,0.0324,0.013523,0.002678,0.000431,0.000588
918000,0.0324,0.013523,0.002678,0.000431,0.000353
919000,0.0324,0.013523,0.002678,0.000431,0.000588
920000,0.0324,0.013523,0.002678,0.000431,0.000470
921000,0.0324,0.013523,0.002678,0.000431,0.000705
922000,0.0324,0.013523,0.002678,0.000431,0.000353
923000,0.0324,0.013523,0.002678,0.000431,0.000470
924000,0.0324,0.013523,0.002678,0.000431,0.000353
925000,0.0324,0.013523,0.002678,0.000431,0.000588
926000,0.0324,0.013523,0.002678,0.000431,0.000353
927000,0.0324,0.013523,0.002678,0.000431,0.000588
928000,0.0324,0.013523,0.002678,0.000431,0.000470
929000,0.0324,0.013523,0.002678,0.000431,0.000470
930000,0.0324,0.013523,0.002678,0.000431,0.000470
931000,0.0324,0.013523,0.002678,0.000431,0.000470
932000,0.0324,0.013523,0.002678,0.000431,0.000470
933000,0.0324,0.013523,0.002678,0.000431,0.000470
934000,0.0324,0.013523,0.002678,0.000431,0.000470
935000,0.0324,0.013523,0.002678,0.000431,0.000588
936000,0.0324,0.013523,0.002678,0.000431,0.000470
937000,0.0324,0.013523,0.002678,0.000431,0.000705
938000,0.0324,0.013523,0.002678,0.000431,0.000353
939000,0.0324,0.013523,0.002678,0.000431,0.000588
940000,0.0324,0.013523,0.002678,0.000431,0.000353
941000,0.0324,0.013523,0.002678,0.000431,0.000588
942000,0.0324,0.013523,0.002678,0.000431,0.000353
943000,0.0324,0.013523,0.002678,0.000431,0.000588
944000,0.0324,0.013523,0.002678,0.000431,0.000353
945000,0.0324,0.013523,0.002678,0.000431,0.000588
946000,0.0324,0.013523,0.002678,0.000431,0.000353
947000,0.0324,0.013523,0.002678,0.000431,0.000588
948000,0.0324,0.013523,0.002678,0.000431,0.000353
949000,0.0324,0.013523,0.002678,0.000431,0.000470
950000,0.0324,0.013523,0.002678,0.000431,0.000470
951000,0.0324,0.013523,0.002678,0.000431,0.000588
952000,0.0324,0.013523,0.002678,0.000431,0.000470
953000,0.0324,0.013523,0.002678,0.000431,0.000470
954000,0.0324,0.013523,0.002678,0.000431,0.000470
955000,0.0324,0.013523,0.002678,0.000431,0.000353
956000,0.0324,0.013523,0.002678,0.000431,0.000588
957000,0.0324,0.013523,0.002678,0.000431,0.000353
958000,0.0324,0.013523,0.002678,0.000431,0.000588
959000,0.0324,0.013523,0.002678,0.000431,0.000353
960000,0.0324,0.013523,0.002678,0.000431,0.000588
961000,0.0324,0.013523,0.002678,0.000431,0.000353
962000,0.0324,0.013523,0.002678,0.000431,0.000588
963000,0.0324,0.013523,0.002678,0.000431,0.000353
964000,0.0324,0.013523,0.002678,0.000431,0.000588
965000,0.0324,0.013523,0.002678,0.000431,0.000353
966000,0.0324,0.013523,0.002678,0.000431,0.000588
967000,0.0324,0.013523,0.002678,0.000431,0.000470
968000,0.0324,0.013523,0.002678,0.000431,0.000588
969000,0.0324,0.013523,0.002678,0.000431,0.000353
970000,0.0324,0.013523,0.002678,0.000431,0.000705
971000,0.0324,0.013523,0.002678,0.000431,0.000353
972000,0.0324,0.013523,0.002678,0.000431,0.000705
973000,0.0324,0.013523,0.002678,0.000431,0.000588
974000,0.0324,0.013523,0.002678,0.000431,0.000470
975000,0.0324,0.013523,0.002678,0.000431,0.000470
976000,0.0324,0.013523,0.002678,0.000431,0.000470
977000,0.0324,0.013523,0.002678,0.000431,0.000470
978000,0.0324,0.013523,0.002678,0.000431,0.000470
979000,0.0324,0.013523,0.002678,0.000431,0.000470
980000,0.0324,0.013523,0.002678,0.000431,0.000470
981000,0.0324,0.013523,0.002678,0.000431,0.000353
982000,0.0324,0.013523,0.002678,0.000431,0.000588
983000,0.0324,0.013523,0.002678,0.000431,0.000353
984000,0.0324,0.013523,0.002678,0.000431,0.000588
985000,0.0324,0.013523,0.002678,0.000431,0.000353
986000,0.0324,0.013523,0.002678,0.000431,0.000705
987000,0.0324,0.013523,0.002678,0.000431,0.000588
988000,0.0324,0.013523,0.002678,0.000431,0.000470
989000,0.0324,0.013523,0.002678,0.000431,0.000705
990000,0.0324,0.013523,0.002678,0.000431,0.000353
991000,0.0324,0.013523,0.002678,0.000431,0.000588
992000,0.0324,0.013523,0.002678,0.000431,0.000353
993000,0.0324,0.013523,0.002678,0.000431,0.000705
994000,0.0324,0.013523,0.002678,0.000431,0.000353
995000,0.0324,0.013523,0.002678,0.000431,0.000588
996000,0.0324,0.013523,0.002678,0.000431,0.000588
997000,0.0324,0.013523,0.002678,0.000431,0.000470
998000,0.0324,0.013523,0.002678,0.000431,0.000470
999000,0.0324,0.013523,0.002678,0.000431,0.000470
