Cycle,Area(mm^2),PeakDynamic(W),SubthresholdLeakage(W),GateLeakage(W),RunTimeDynamic(W)
60000000,0.0324,0.013523,0.002678,0.000431,0.000470
60001000,0.0324,0.013523,0.002678,0.000431,0.000470
60002000,0.0324,0.013523,0.002678,0.000431,0.000470
60003000,0.0324,0.013523,0.002678,0.000431,0.000470
60004000,0.0324,0.013523,0.002678,0.000431,0.000470
60005000,0.0324,0.013523,0.002678,0.000431,0.000470
60006000,0.0324,0.013523,0.002678,0.000431,0.000470
60007000,0.0324,0.013523,0.002678,0.000431,0.000470
60008000,0.0324,0.013523,0.002678,0.000431,0.000353
60009000,0.0324,0.013523,0.002678,0.000431,0.000588
60010000,0.0324,0.013523,0.002678,0.000431,0.000353
60011000,0.0324,0.013523,0.002678,0.000431,0.000588
60012000,0.0324,0.013523,0.002678,0.000431,0.000470
60013000,0.0324,0.013523,0.002678,0.000431,0.000470
60014000,0.0324,0.013523,0.002678,0.000431,0.000470
60015000,0.0324,0.013523,0.002678,0.000431,0.000588
60016000,0.0324,0.013523,0.002678,0.000431,0.000470
60017000,0.0324,0.013523,0.002678,0.000431,0.000705
60018000,0.0324,0.013523,0.002678,0.000431,0.000353
60019000,0.0324,0.013523,0.002678,0.000431,0.000588
60020000,0.0324,0.013523,0.002678,0.000431,0.000353
60021000,0.0324,0.013523,0.002678,0.000431,0.000588
60022000,0.0324,0.013523,0.002678,0.000431,0.000353
60023000,0.0324,0.013523,0.002678,0.000431,0.000588
60024000,0.0324,0.013523,0.002678,0.000431,0.000470
60025000,0.0324,0.013523,0.002678,0.000431,0.000470
60026000,0.0324,0.013523,0.002678,0.000431,0.000470
60027000,0.0324,0.013523,0.002678,0.000431,0.000588
60028000,0.0324,0.013523,0.002678,0.000431,0.000353
60029000,0.0324,0.013523,0.002678,0.000431,0.000588
60030000,0.0324,0.013523,0.002678,0.000431,0.000353
60031000,0.0324,0.013523,0.002678,0.000431,0.000705
60032000,0.0324,0.013523,0.002678,0.000431,0.000353
60033000,0.0324,0.013523,0.002678,0.000431,0.000588
60034000,0.0324,0.013523,0.002678,0.000431,0.000353
60035000,0.0324,0.013523,0.002678,0.000431,0.000588
60036000,0.0324,0.013523,0.002678,0.000431,0.000353
60037000,0.0324,0.013523,0.002678,0.000431,0.000588
60038000,0.0324,0.013523,0.002678,0.000431,0.000353
60039000,0.0324,0.013523,0.002678,0.000431,0.000588
60040000,0.0324,0.013523,0.002678,0.000431,0.000353
60041000,0.0324,0.013523,0.002678,0.000431,0.000588
60042000,0.0324,0.013523,0.002678,0.000431,0.000353
60043000,0.0324,0.013523,0.002678,0.000431,0.000588
60044000,0.0324,0.013523,0.002678,0.000431,0.000353
60045000,0.0324,0.013523,0.002678,0.000431,0.000588
60046000,0.0324,0.013523,0.002678,0.000431,0.000353
60047000,0.0324,0.013523,0.002678,0.000431,0.000588
60048000,0.0324,0.013523,0.002678,0.000431,0.000353
60049000,0.0324,0.013523,0.002678,0.000431,0.000588
60050000,0.0324,0.013523,0.002678,0.000431,0.000353
60051000,0.0324,0.013523,0.002678,0.000431,0.000470
60052000,0.0324,0.013523,0.002678,0.000431,0.000353
60053000,0.0324,0.013523,0.002678,0.000431,0.000588
60054000,0.0324,0.013523,0.002678,0.000431,0.000353
60055000,0.0324,0.013523,0.002678,0.000431,0.000588
60056000,0.0324,0.013523,0.002678,0.000431,0.000353
60057000,0.0324,0.013523,0.002678,0.000431,0.000588
60058000,0.0324,0.013523,0.002678,0.000431,0.000470
60059000,0.0324,0.013523,0.002678,0.000431,0.000470
60060000,0.0324,0.013523,0.002678,0.000431,0.000353
60061000,0.0324,0.013523,0.002678,0.000431,0.000588
60062000,0.0324,0.013523,0.002678,0.000431,0.000353
60063000,0.0324,0.013523,0.002678,0.000431,0.000588
60064000,0.0324,0.013523,0.002678,0.000431,0.000353
60065000,0.0324,0.013523,0.002678,0.000431,0.000588
60066000,0.0324,0.013523,0.002678,0.000431,0.000353
60067000,0.0324,0.013523,0.002678,0.000431,0.000588
60068000,0.0324,0.013523,0.002678,0.000431,0.000353
60069000,0.0324,0.013523,0.002678,0.000431,0.000588
60070000,0.0324,0.013523,0.002678,0.000431,0.000353
60071000,0.0324,0.013523,0.002678,0.000431,0.000588
60072000,0.0324,0.013523,0.002678,0.000431,0.000353
60073000,0.0324,0.013523,0.002678,0.000431,0.000588
60074000,0.0324,0.013523,0.002678,0.000431,0.000470
60075000,0.0324,0.013523,0.002678,0.000431,0.000588
60076000,0.0324,0.013523,0.002678,0.000431,0.000470
60077000,0.0324,0.013523,0.002678,0.000431,0.000470
60078000,0.0324,0.013523,0.002678,0.000431,0.000470
60079000,0.0324,0.013523,0.002678,0.000431,0.000588
60080000,0.0324,0.013523,0.002678,0.000431,0.000470
60081000,0.0324,0.013523,0.002678,0.000431,0.000470
60082000,0.0324,0.013523,0.002678,0.000431,0.000470
60083000,0.0324,0.013523,0.002678,0.000431,0.000470
60084000,0.0324,0.013523,0.002678,0.000431,0.000470
60085000,0.0324,0.013523,0.002678,0.000431,0.000470
60086000,0.0324,0.013523,0.002678,0.000431,0.000353
60087000,0.0324,0.013523,0.002678,0.000431,0.000588
60088000,0.0324,0.013523,0.002678,0.000431,0.000353
60089000,0.0324,0.013523,0.002678,0.000431,0.000588
60090000,0.0324,0.013523,0.002678,0.000431,0.000353
60091000,0.0324,0.013523,0.002678,0.000431,0.000588
60092000,0.0324,0.013523,0.002678,0.000431,0.000353
60093000,0.0324,0.013523,0.002678,0.000431,0.000588
60094000,0.0324,0.013523,0.002678,0.000431,0.000353
60095000,0.0324,0.013523,0.002678,0.000431,0.000588
60096000,0.0324,0.013523,0.002678,0.000431,0.000353
60097000,0.0324,0.013523,0.002678,0.000431,0.000588
60098000,0.0324,0.013523,0.002678,0.000431,0.000470
60099000,0.0324,0.013523,0.002678,0.000431,0.000588
60100000,0.0324,0.013523,0.002678,0.000431,0.000470
60101000,0.0324,0.013523,0.002678,0.000431,0.000705
60102000,0.0324,0.013523,0.002678,0.000431,0.000235
60103000,0.0324,0.013523,0.002678,0.000431,0.000705
60104000,0.0324,0.013523,0.002678,0.000431,0.000353
60105000,0.0324,0.013523,0.002678,0.000431,0.000705
60106000,0.0324,0.013523,0.002678,0.000431,0.000588
60107000,0.0324,0.013523,0.002678,0.000431,0.000470
60108000,0.0324,0.013523,0.002678,0.000431,0.000588
60109000,0.0324,0.013523,0.002678,0.000431,0.000353
60110000,0.0324,0.013523,0.002678,0.000431,0.000588
60111000,0.0324,0.013523,0.002678,0.000431,0.000353
60112000,0.0324,0.013523,0.002678,0.000431,0.000588
60113000,0.0324,0.013523,0.002678,0.000431,0.000353
60114000,0.0324,0.013523,0.002678,0.000431,0.000705
60115000,0.0324,0.013523,0.002678,0.000431,0.000353
60116000,0.0324,0.013523,0.002678,0.000431,0.000588
60117000,0.0324,0.013523,0.002678,0.000431,0.000353
60118000,0.0324,0.013523,0.002678,0.000431,0.000588
60119000,0.0324,0.013523,0.002678,0.000431,0.000353
60120000,0.0324,0.013523,0.002678,0.000431,0.000823
60121000,0.0324,0.013523,0.002678,0.000431,0.000235
60122000,0.0324,0.013523,0.002678,0.000431,0.000823
60123000,0.0324,0.013523,0.002678,0.000431,0.000353
60124000,0.0324,0.013523,0.002678,0.000431,0.000588
60125000,0.0324,0.013523,0.002678,0.000431,0.000353
60126000,0.0324,0.013523,0.002678,0.000431,0.000470
60127000,0.0324,0.013523,0.002678,0.000431,0.000353
60128000,0.0324,0.013523,0.002678,0.000431,0.000588
60129000,0.0324,0.013523,0.002678,0.000431,0.000353
60130000,0.0324,0.013523,0.002678,0.000431,0.000705
60131000,0.0324,0.013523,0.002678,0.000431,0.000235
60132000,0.0324,0.013523,0.002678,0.000431,0.000588
60133000,0.0324,0.013523,0.002678,0.000431,0.000353
60134000,0.0324,0.013523,0.002678,0.000431,0.000705
60135000,0.0324,0.013523,0.002678,0.000431,0.000470
60136000,0.0324,0.013523,0.002678,0.000431,0.000470
60137000,0.0324,0.013523,0.002678,0.000431,0.000470
60138000,0.0324,0.013523,0.002678,0.000431,0.000588
60139000,0.0324,0.013523,0.002678,0.000431,0.000353
60140000,0.0324,0.013523,0.002678,0.000431,0.000470
60141000,0.0324,0.013523,0.002678,0.000431,0.000470
60142000,0.0324,0.013523,0.002678,0.000431,0.000470
60143000,0.0324,0.013523,0.002678,0.000431,0.000470
60144000,0.0324,0.013523,0.002678,0.000431,0.000470
60145000,0.0324,0.013523,0.002678,0.000431,0.000470
60146000,0.0324,0.013523,0.002678,0.000431,0.000470
60147000,0.0324,0.013523,0.002678,0.000431,0.000470
60148000,0.0324,0.013523,0.002678,0.000431,0.000470
60149000,0.0324,0.013523,0.002678,0.000431,0.000470
60150000,0.0324,0.013523,0.002678,0.000431,0.000470
60151000,0.0324,0.013523,0.002678,0.000431,0.000470
60152000,0.0324,0.013523,0.002678,0.000431,0.000470
60153000,0.0324,0.013523,0.002678,0.000431,0.000470
60154000,0.0324,0.013523,0.002678,0.000431,0.000470
60155000,0.0324,0.013523,0.002678,0.000431,0.000470
60156000,0.0324,0.013523,0.002678,0.000431,0.000588
60157000,0.0324,0.013523,0.002678,0.000431,0.000588
60158000,0.0324,0.013523,0.002678,0.000431,0.000470
60159000,0.0324,0.013523,0.002678,0.000431,0.000470
60160000,0.0324,0.013523,0.002678,0.000431,0.000470
60161000,0.0324,0.013523,0.002678,0.000431,0.000470
60162000,0.0324,0.013523,0.002678,0.000431,0.000588
60163000,0.0324,0.013523,0.002678,0.000431,0.000470
60164000,0.0324,0.013523,0.002678,0.000431,0.000705
60165000,0.0324,0.013523,0.002678,0.000431,0.000353
60166000,0.0324,0.013523,0.002678,0.000431,0.000705
60167000,0.0324,0.013523,0.002678,0.000431,0.000470
60168000,0.0324,0.013523,0.002678,0.000431,0.000470
60169000,0.0324,0.013523,0.002678,0.000431,0.000470
60170000,0.0324,0.013523,0.002678,0.000431,0.000470
60171000,0.0324,0.013523,0.002678,0.000431,0.000470
60172000,0.0324,0.013523,0.002678,0.000431,0.000470
60173000,0.0324,0.013523,0.002678,0.000431,0.000353
60174000,0.0324,0.013523,0.002678,0.000431,0.000588
60175000,0.0324,0.013523,0.002678,0.000431,0.000235
60176000,0.0324,0.013523,0.002678,0.000431,0.000588
60177000,0.0324,0.013523,0.002678,0.000431,0.000470
60178000,0.0324,0.013523,0.002678,0.000431,0.000588
60179000,0.0324,0.013523,0.002678,0.000431,0.000353
60180000,0.0324,0.013523,0.002678,0.000431,0.000588
60181000,0.0324,0.013523,0.002678,0.000431,0.000353
60182000,0.0324,0.013523,0.002678,0.000431,0.000588
60183000,0.0324,0.013523,0.002678,0.000431,0.000353
60184000,0.0324,0.013523,0.002678,0.000431,0.000588
60185000,0.0324,0.013523,0.002678,0.000431,0.000353
60186000,0.0324,0.013523,0.002678,0.000431,0.000588
60187000,0.0324,0.013523,0.002678,0.000431,0.000353
60188000,0.0324,0.013523,0.002678,0.000431,0.000705
60189000,0.0324,0.013523,0.002678,0.000431,0.000353
60190000,0.0324,0.013523,0.002678,0.000431,0.000705
60191000,0.0324,0.013523,0.002678,0.000431,0.000470
60192000,0.0324,0.013523,0.002678,0.000431,0.000470
60193000,0.0324,0.013523,0.002678,0.000431,0.000470
60194000,0.0324,0.013523,0.002678,0.000431,0.000470
60195000,0.0324,0.013523,0.002678,0.000431,0.000470
60196000,0.0324,0.013523,0.002678,0.000431,0.000470
60197000,0.0324,0.013523,0.002678,0.000431,0.000470
60198000,0.0324,0.013523,0.002678,0.000431,0.000470
60199000,0.0324,0.013523,0.002678,0.000431,0.000353
60200000,0.0324,0.013523,0.002678,0.000431,0.000588
60201000,0.0324,0.013523,0.002678,0.000431,0.000353
60202000,0.0324,0.013523,0.002678,0.000431,0.000588
60203000,0.0324,0.013523,0.002678,0.000431,0.000353
60204000,0.0324,0.013523,0.002678,0.000431,0.000588
60205000,0.0324,0.013523,0.002678,0.000431,0.000353
60206000,0.0324,0.013523,0.002678,0.000431,0.000588
60207000,0.0324,0.013523,0.002678,0.000431,0.000235
60208000,0.0324,0.013523,0.002678,0.000431,0.000588
60209000,0.0324,0.013523,0.002678,0.000431,0.000353
60210000,0.0324,0.013523,0.002678,0.000431,0.000588
60211000,0.0324,0.013523,0.002678,0.000431,0.000353
60212000,0.0324,0.013523,0.002678,0.000431,0.000588
60213000,0.0324,0.013523,0.002678,0.000431,0.000353
60214000,0.0324,0.013523,0.002678,0.000431,0.000588
60215000,0.0324,0.013523,0.002678,0.000431,0.000353
60216000,0.0324,0.013523,0.002678,0.000431,0.000588
60217000,0.0324,0.013523,0.002678,0.000431,0.000470
60218000,0.0324,0.013523,0.002678,0.000431,0.000470
60219000,0.0324,0.013523,0.002678,0.000431,0.000353
60220000,0.0324,0.013523,0.002678,0.000431,0.000588
60221000,0.0324,0.013523,0.002678,0.000431,0.000353
60222000,0.0324,0.013523,0.002678,0.000431,0.000705
60223000,0.0324,0.013523,0.002678,0.000431,0.000353
60224000,0.0324,0.013523,0.002678,0.000431,0.000588
60225000,0.0324,0.013523,0.002678,0.000431,0.000353
60226000,0.0324,0.013523,0.002678,0.000431,0.000470
60227000,0.0324,0.013523,0.002678,0.000431,0.000470
60228000,0.0324,0.013523,0.002678,0.000431,0.000705
60229000,0.0324,0.013523,0.002678,0.000431,0.000353
60230000,0.0324,0.013523,0.002678,0.000431,0.000588
60231000,0.0324,0.013523,0.002678,0.000431,0.000353
60232000,0.0324,0.013523,0.002678,0.000431,0.000588
60233000,0.0324,0.013523,0.002678,0.000431,0.000470
60234000,0.0324,0.013523,0.002678,0.000431,0.000588
60235000,0.0324,0.013523,0.002678,0.000431,0.000353
60236000,0.0324,0.013523,0.002678,0.000431,0.000588
60237000,0.0324,0.013523,0.002678,0.000431,0.000470
60238000,0.0324,0.013523,0.002678,0.000431,0.000588
60239000,0.0324,0.013523,0.002678,0.000431,0.000470
60240000,0.0324,0.013523,0.002678,0.000431,0.000705
60241000,0.0324,0.013523,0.002678,0.000431,0.000353
60242000,0.0324,0.013523,0.002678,0.000431,0.000588
60243000,0.0324,0.013523,0.002678,0.000431,0.000353
60244000,0.0324,0.013523,0.002678,0.000431,0.000588
60245000,0.0324,0.013523,0.002678,0.000431,0.000353
60246000,0.0324,0.013523,0.002678,0.000431,0.000588
60247000,0.0324,0.013523,0.002678,0.000431,0.000353
60248000,0.0324,0.013523,0.002678,0.000431,0.000588
60249000,0.0324,0.013523,0.002678,0.000431,0.000353
60250000,0.0324,0.013523,0.002678,0.000431,0.000588
60251000,0.0324,0.013523,0.002678,0.000431,0.000353
60252000,0.0324,0.013523,0.002678,0.000431,0.000470
60253000,0.0324,0.013523,0.002678,0.000431,0.000470
60254000,0.0324,0.013523,0.002678,0.000431,0.000470
60255000,0.0324,0.013523,0.002678,0.000431,0.000470
60256000,0.0324,0.013523,0.002678,0.000431,0.000470
60257000,0.0324,0.013523,0.002678,0.000431,0.000588
60258000,0.0324,0.013523,0.002678,0.000431,0.000353
60259000,0.0324,0.013523,0.002678,0.000431,0.000588
60260000,0.0324,0.013523,0.002678,0.000431,0.000353
60261000,0.0324,0.013523,0.002678,0.000431,0.000588
60262000,0.0324,0.013523,0.002678,0.000431,0.000353
60263000,0.0324,0.013523,0.002678,0.000431,0.000588
60264000,0.0324,0.013523,0.002678,0.000431,0.000353
60265000,0.0324,0.013523,0.002678,0.000431,0.000588
60266000,0.0324,0.013523,0.002678,0.000431,0.000353
60267000,0.0324,0.013523,0.002678,0.000431,0.000588
60268000,0.0324,0.013523,0.002678,0.000431,0.000353
60269000,0.0324,0.013523,0.002678,0.000431,0.000705
60270000,0.0324,0.013523,0.002678,0.000431,0.000470
60271000,0.0324,0.013523,0.002678,0.000431,0.000470
60272000,0.0324,0.013523,0.002678,0.000431,0.000470
60273000,0.0324,0.013523,0.002678,0.000431,0.000470
60274000,0.0324,0.013523,0.002678,0.000431,0.000470
60275000,0.0324,0.013523,0.002678,0.000431,0.000470
60276000,0.0324,0.013523,0.002678,0.000431,0.000470
60277000,0.0324,0.013523,0.002678,0.000431,0.000470
60278000,0.0324,0.013523,0.002678,0.000431,0.000470
60279000,0.0324,0.013523,0.002678,0.000431,0.000470
60280000,0.0324,0.013523,0.002678,0.000431,0.000470
60281000,0.0324,0.013523,0.002678,0.000431,0.000470
60282000,0.0324,0.013523,0.002678,0.000431,0.000353
60283000,0.0324,0.013523,0.002678,0.000431,0.000823
60284000,0.0324,0.013523,0.002678,0.000431,0.000353
60285000,0.0324,0.013523,0.002678,0.000431,0.000470
60286000,0.0324,0.013523,0.002678,0.000431,0.000353
60287000,0.0324,0.013523,0.002678,0.000431,0.000705
60288000,0.0324,0.013523,0.002678,0.000431,0.000235
60289000,0.0324,0.013523,0.002678,0.000431,0.000588
60290000,0.0324,0.013523,0.002678,0.000431,0.000353
60291000,0.0324,0.013523,0.002678,0.000431,0.000588
60292000,0.0324,0.013523,0.002678,0.000431,0.000353
60293000,0.0324,0.013523,0.002678,0.000431,0.000588
60294000,0.0324,0.013523,0.002678,0.000431,0.000353
60295000,0.0324,0.013523,0.002678,0.000431,0.000588
60296000,0.0324,0.013523,0.002678,0.000431,0.000353
60297000,0.0324,0.013523,0.002678,0.000431,0.000705
60298000,0.0324,0.013523,0.002678,0.000431,0.000353
60299000,0.0324,0.013523,0.002678,0.000431,0.000588
60300000,0.0324,0.013523,0.002678,0.000431,0.000353
60301000,0.0324,0.013523,0.002678,0.000431,0.000588
60302000,0.0324,0.013523,0.002678,0.000431,0.000235
60303000,0.0324,0.013523,0.002678,0.000431,0.000588
60304000,0.0324,0.013523,0.002678,0.000431,0.000353
60305000,0.0324,0.013523,0.002678,0.000431,0.000588
60306000,0.0324,0.013523,0.002678,0.000431,0.000353
60307000,0.0324,0.013523,0.002678,0.000431,0.000588
60308000,0.0324,0.013523,0.002678,0.000431,0.000353
60309000,0.0324,0.013523,0.002678,0.000431,0.000588
60310000,0.0324,0.013523,0.002678,0.000431,0.000353
60311000,0.0324,0.013523,0.002678,0.000431,0.000470
60312000,0.0324,0.013523,0.002678,0.000431,0.000470
60313000,0.0324,0.013523,0.002678,0.000431,0.000470
60314000,0.0324,0.013523,0.002678,0.000431,0.000588
60315000,0.0324,0.013523,0.002678,0.000431,0.000353
60316000,0.0324,0.013523,0.002678,0.000431,0.000588
60317000,0.0324,0.013523,0.002678,0.000431,0.000353
60318000,0.0324,0.013523,0.002678,0.000431,0.000588
60319000,0.0324,0.013523,0.002678,0.000431,0.000353
60320000,0.0324,0.013523,0.002678,0.000431,0.000705
60321000,0.0324,0.013523,0.002678,0.000431,0.000470
60322000,0.0324,0.013523,0.002678,0.000431,0.000588
60323000,0.0324,0.013523,0.002678,0.000431,0.000353
60324000,0.0324,0.013523,0.002678,0.000431,0.000588
60325000,0.0324,0.013523,0.002678,0.000431,0.000353
60326000,0.0324,0.013523,0.002678,0.000431,0.000588
60327000,0.0324,0.013523,0.002678,0.000431,0.000353
60328000,0.0324,0.013523,0.002678,0.000431,0.000588
60329000,0.0324,0.013523,0.002678,0.000431,0.000353
60330000,0.0324,0.013523,0.002678,0.000431,0.000588
60331000,0.0324,0.013523,0.002678,0.000431,0.000353
60332000,0.0324,0.013523,0.002678,0.000431,0.000705
60333000,0.0324,0.013523,0.002678,0.000431,0.000588
60334000,0.0324,0.013523,0.002678,0.000431,0.000470
60335000,0.0324,0.013523,0.002678,0.000431,0.000705
60336000,0.0324,0.013523,0.002678,0.000431,0.000235
60337000,0.0324,0.013523,0.002678,0.000431,0.000705
60338000,0.0324,0.013523,0.002678,0.000431,0.000353
60339000,0.0324,0.013523,0.002678,0.000431,0.000588
60340000,0.0324,0.013523,0.002678,0.000431,0.000353
60341000,0.0324,0.013523,0.002678,0.000431,0.000588
60342000,0.0324,0.013523,0.002678,0.000431,0.000353
60343000,0.0324,0.013523,0.002678,0.000431,0.000588
60344000,0.0324,0.013523,0.002678,0.000431,0.000353
60345000,0.0324,0.013523,0.002678,0.000431,0.000588
60346000,0.0324,0.013523,0.002678,0.000431,0.000353
60347000,0.0324,0.013523,0.002678,0.000431,0.000588
60348000,0.0324,0.013523,0.002678,0.000431,0.000353
60349000,0.0324,0.013523,0.002678,0.000431,0.000588
60350000,0.0324,0.013523,0.002678,0.000431,0.000353
60351000,0.0324,0.013523,0.002678,0.000431,0.000588
60352000,0.0324,0.013523,0.002678,0.000431,0.000353
60353000,0.0324,0.013523,0.002678,0.000431,0.000588
60354000,0.0324,0.013523,0.002678,0.000431,0.000353
60355000,0.0324,0.013523,0.002678,0.000431,0.000588
60356000,0.0324,0.013523,0.002678,0.000431,0.000353
60357000,0.0324,0.013523,0.002678,0.000431,0.000588
60358000,0.0324,0.013523,0.002678,0.000431,0.000353
60359000,0.0324,0.013523,0.002678,0.000431,0.000588
60360000,0.0324,0.013523,0.002678,0.000431,0.000470
60361000,0.0324,0.013523,0.002678,0.000431,0.000705
60362000,0.0324,0.013523,0.002678,0.000431,0.000353
60363000,0.0324,0.013523,0.002678,0.000431,0.000470
60364000,0.0324,0.013523,0.002678,0.000431,0.000470
60365000,0.0324,0.013523,0.002678,0.000431,0.000470
60366000,0.0324,0.013523,0.002678,0.000431,0.000470
60367000,0.0324,0.013523,0.002678,0.000431,0.000588
60368000,0.0324,0.013523,0.002678,0.000431,0.000588
60369000,0.0324,0.013523,0.002678,0.000431,0.000470
60370000,0.0324,0.013523,0.002678,0.000431,0.000470
60371000,0.0324,0.013523,0.002678,0.000431,0.000470
60372000,0.0324,0.013523,0.002678,0.000431,0.000470
60373000,0.0324,0.013523,0.002678,0.000431,0.000588
60374000,0.0324,0.013523,0.002678,0.000431,0.000470
60375000,0.0324,0.013523,0.002678,0.000431,0.000588
60376000,0.0324,0.013523,0.002678,0.000431,0.000353
60377000,0.0324,0.013523,0.002678,0.000431,0.000588
60378000,0.0324,0.013523,0.002678,0.000431,0.000470
60379000,0.0324,0.013523,0.002678,0.000431,0.000470
60380000,0.0324,0.013523,0.002678,0.000431,0.000353
60381000,0.0324,0.013523,0.002678,0.000431,0.000588
60382000,0.0324,0.013523,0.002678,0.000431,0.000353
60383000,0.0324,0.013523,0.002678,0.000431,0.000705
60384000,0.0324,0.013523,0.002678,0.000431,0.000470
60385000,0.0324,0.013523,0.002678,0.000431,0.000470
60386000,0.0324,0.013523,0.002678,0.000431,0.000353
60387000,0.0324,0.013523,0.002678,0.000431,0.000588
60388000,0.0324,0.013523,0.002678,0.000431,0.000353
60389000,0.0324,0.013523,0.002678,0.000431,0.000470
60390000,0.0324,0.013523,0.002678,0.000431,0.000470
60391000,0.0324,0.013523,0.002678,0.000431,0.000470
60392000,0.0324,0.013523,0.002678,0.000431,0.000470
60393000,0.0324,0.013523,0.002678,0.000431,0.000470
60394000,0.0324,0.013523,0.002678,0.000431,0.000470
60395000,0.0324,0.013523,0.002678,0.000431,0.000588
60396000,0.0324,0.013523,0.002678,0.000431,0.000470
60397000,0.0324,0.013523,0.002678,0.000431,0.000705
60398000,0.0324,0.013523,0.002678,0.000431,0.000353
60399000,0.0324,0.013523,0.002678,0.000431,0.000705
60400000,0.0324,0.013523,0.002678,0.000431,0.000588
60401000,0.0324,0.013523,0.002678,0.000431,0.000470
60402000,0.0324,0.013523,0.002678,0.000431,0.000705
60403000,0.0324,0.013523,0.002678,0.000431,0.000353
60404000,0.0324,0.013523,0.002678,0.000431,0.000588
60405000,0.0324,0.013523,0.002678,0.000431,0.000353
60406000,0.0324,0.013523,0.002678,0.000431,0.000588
60407000,0.0324,0.013523,0.002678,0.000431,0.000353
60408000,0.0324,0.013523,0.002678,0.000431,0.000470
60409000,0.0324,0.013523,0.002678,0.000431,0.000353
60410000,0.0324,0.013523,0.002678,0.000431,0.000588
60411000,0.0324,0.013523,0.002678,0.000431,0.000353
60412000,0.0324,0.013523,0.002678,0.000431,0.000588
60413000,0.0324,0.013523,0.002678,0.000431,0.000470
60414000,0.0324,0.013523,0.002678,0.000431,0.000470
60415000,0.0324,0.013523,0.002678,0.000431,0.000470
60416000,0.0324,0.013523,0.002678,0.000431,0.000470
60417000,0.0324,0.013523,0.002678,0.000431,0.000470
60418000,0.0324,0.013523,0.002678,0.000431,0.000588
60419000,0.0324,0.013523,0.002678,0.000431,0.000470
60420000,0.0324,0.013523,0.002678,0.000431,0.000705
60421000,0.0324,0.013523,0.002678,0.000431,0.000353
60422000,0.0324,0.013523,0.002678,0.000431,0.000588
60423000,0.0324,0.013523,0.002678,0.000431,0.000353
60424000,0.0324,0.013523,0.002678,0.000431,0.000588
60425000,0.0324,0.013523,0.002678,0.000431,0.000353
60426000,0.0324,0.013523,0.002678,0.000431,0.000588
60427000,0.0324,0.013523,0.002678,0.000431,0.000353
60428000,0.0324,0.013523,0.002678,0.000431,0.000823
60429000,0.0324,0.013523,0.002678,0.000431,0.000353
60430000,0.0324,0.013523,0.002678,0.000431,0.000588
60431000,0.0324,0.013523,0.002678,0.000431,0.000353
60432000,0.0324,0.013523,0.002678,0.000431,0.000705
60433000,0.0324,0.013523,0.002678,0.000431,0.000588
60434000,0.0324,0.013523,0.002678,0.000431,0.000470
60435000,0.0324,0.013523,0.002678,0.000431,0.000705
60436000,0.0324,0.013523,0.002678,0.000431,0.000353
60437000,0.0324,0.013523,0.002678,0.000431,0.000705
60438000,0.0324,0.013523,0.002678,0.000431,0.000588
60439000,0.0324,0.013523,0.002678,0.000431,0.000470
60440000,0.0324,0.013523,0.002678,0.000431,0.000705
60441000,0.0324,0.013523,0.002678,0.000431,0.000353
60442000,0.0324,0.013523,0.002678,0.000431,0.000705
60443000,0.0324,0.013523,0.002678,0.000431,0.000470
60444000,0.0324,0.013523,0.002678,0.000431,0.000470
60445000,0.0324,0.013523,0.002678,0.000431,0.000353
60446000,0.0324,0.013523,0.002678,0.000431,0.000588
60447000,0.0324,0.013523,0.002678,0.000431,0.000235
60448000,0.0324,0.013523,0.002678,0.000431,0.000588
60449000,0.0324,0.013523,0.002678,0.000431,0.000353
60450000,0.0324,0.013523,0.002678,0.000431,0.000588
60451000,0.0324,0.013523,0.002678,0.000431,0.000353
60452000,0.0324,0.013523,0.002678,0.000431,0.000588
60453000,0.0324,0.013523,0.002678,0.000431,0.000353
60454000,0.0324,0.013523,0.002678,0.000431,0.000588
60455000,0.0324,0.013523,0.002678,0.000431,0.000353
60456000,0.0324,0.013523,0.002678,0.000431,0.000705
60457000,0.0324,0.013523,0.002678,0.000431,0.000353
60458000,0.0324,0.013523,0.002678,0.000431,0.000705
60459000,0.0324,0.013523,0.002678,0.000431,0.000353
60460000,0.0324,0.013523,0.002678,0.000431,0.000705
60461000,0.0324,0.013523,0.002678,0.000431,0.000588
60462000,0.0324,0.013523,0.002678,0.000431,0.000470
60463000,0.0324,0.013523,0.002678,0.000431,0.000705
60464000,0.0324,0.013523,0.002678,0.000431,0.000235
60465000,0.0324,0.013523,0.002678,0.000431,0.000705
60466000,0.0324,0.013523,0.002678,0.000431,0.000353
60467000,0.0324,0.013523,0.002678,0.000431,0.000705
60468000,0.0324,0.013523,0.002678,0.000431,0.000353
60469000,0.0324,0.013523,0.002678,0.000431,0.000705
60470000,0.0324,0.013523,0.002678,0.000431,0.000353
60471000,0.0324,0.013523,0.002678,0.000431,0.000705
60472000,0.0324,0.013523,0.002678,0.000431,0.000588
60473000,0.0324,0.013523,0.002678,0.000431,0.000470
60474000,0.0324,0.013523,0.002678,0.000431,0.000588
60475000,0.0324,0.013523,0.002678,0.000431,0.000353
60476000,0.0324,0.013523,0.002678,0.000431,0.000588
60477000,0.0324,0.013523,0.002678,0.000431,0.000353
60478000,0.0324,0.013523,0.002678,0.000431,0.000588
60479000,0.0324,0.013523,0.002678,0.000431,0.000353
60480000,0.0324,0.013523,0.002678,0.000431,0.000588
60481000,0.0324,0.013523,0.002678,0.000431,0.000353
60482000,0.0324,0.013523,0.002678,0.000431,0.000588
60483000,0.0324,0.013523,0.002678,0.000431,0.000353
60484000,0.0324,0.013523,0.002678,0.000431,0.000470
60485000,0.0324,0.013523,0.002678,0.000431,0.000470
60486000,0.0324,0.013523,0.002678,0.000431,0.000470
60487000,0.0324,0.013523,0.002678,0.000431,0.000470
60488000,0.0324,0.013523,0.002678,0.000431,0.000470
60489000,0.0324,0.013523,0.002678,0.000431,0.000470
60490000,0.0324,0.013523,0.002678,0.000431,0.000353
60491000,0.0324,0.013523,0.002678,0.000431,0.000705
60492000,0.0324,0.013523,0.002678,0.000431,0.000588
60493000,0.0324,0.013523,0.002678,0.000431,0.000588
60494000,0.0324,0.013523,0.002678,0.000431,0.000470
60495000,0.0324,0.013523,0.002678,0.000431,0.000470
60496000,0.0324,0.013523,0.002678,0.000431,0.000470
60497000,0.0324,0.013523,0.002678,0.000431,0.000470
60498000,0.0324,0.013523,0.002678,0.000431,0.000588
60499000,0.0324,0.013523,0.002678,0.000431,0.000470
60500000,0.0324,0.013523,0.002678,0.000431,0.000705
60501000,0.0324,0.013523,0.002678,0.000431,0.000353
60502000,0.0324,0.013523,0.002678,0.000431,0.000588
60503000,0.0324,0.013523,0.002678,0.000431,0.000353
60504000,0.0324,0.013523,0.002678,0.000431,0.000588
60505000,0.0324,0.013523,0.002678,0.000431,0.000353
60506000,0.0324,0.013523,0.002678,0.000431,0.000705
60507000,0.0324,0.013523,0.002678,0.000431,0.000353
60508000,0.0324,0.013523,0.002678,0.000431,0.000588
60509000,0.0324,0.013523,0.002678,0.000431,0.000353
60510000,0.0324,0.013523,0.002678,0.000431,0.000470
60511000,0.0324,0.013523,0.002678,0.000431,0.000470
60512000,0.0324,0.013523,0.002678,0.000431,0.000470
60513000,0.0324,0.013523,0.002678,0.000431,0.000470
60514000,0.0324,0.013523,0.002678,0.000431,0.000470
60515000,0.0324,0.013523,0.002678,0.000431,0.000470
60516000,0.0324,0.013523,0.002678,0.000431,0.000353
60517000,0.0324,0.013523,0.002678,0.000431,0.000588
60518000,0.0324,0.013523,0.002678,0.000431,0.000353
60519000,0.0324,0.013523,0.002678,0.000431,0.000588
60520000,0.0324,0.013523,0.002678,0.000431,0.000353
60521000,0.0324,0.013523,0.002678,0.000431,0.000588
60522000,0.0324,0.013523,0.002678,0.000431,0.000353
60523000,0.0324,0.013523,0.002678,0.000431,0.000705
60524000,0.0324,0.013523,0.002678,0.000431,0.000588
60525000,0.0324,0.013523,0.002678,0.000431,0.000470
60526000,0.0324,0.013523,0.002678,0.000431,0.000705
60527000,0.0324,0.013523,0.002678,0.000431,0.000353
60528000,0.0324,0.013523,0.002678,0.000431,0.000588
60529000,0.0324,0.013523,0.002678,0.000431,0.000353
60530000,0.0324,0.013523,0.002678,0.000431,0.000588
60531000,0.0324,0.013523,0.002678,0.000431,0.000353
60532000,0.0324,0.013523,0.002678,0.000431,0.000588
60533000,0.0324,0.013523,0.002678,0.000431,0.000353
60534000,0.0324,0.013523,0.002678,0.000431,0.000588
60535000,0.0324,0.013523,0.002678,0.000431,0.000235
60536000,0.0324,0.013523,0.002678,0.000431,0.000823
60537000,0.0324,0.013523,0.002678,0.000431,0.000235
60538000,0.0324,0.013523,0.002678,0.000431,0.000588
60539000,0.0324,0.013523,0.002678,0.000431,0.000353
60540000,0.0324,0.013523,0.002678,0.000431,0.000588
60541000,0.0324,0.013523,0.002678,0.000431,0.000470
60542000,0.0324,0.013523,0.002678,0.000431,0.000588
60543000,0.0324,0.013523,0.002678,0.000431,0.000353
60544000,0.0324,0.013523,0.002678,0.000431,0.000588
60545000,0.0324,0.013523,0.002678,0.000431,0.000353
60546000,0.0324,0.013523,0.002678,0.000431,0.000705
60547000,0.0324,0.013523,0.002678,0.000431,0.000353
60548000,0.0324,0.013523,0.002678,0.000431,0.000705
60549000,0.0324,0.013523,0.002678,0.000431,0.000588
60550000,0.0324,0.013523,0.002678,0.000431,0.000470
60551000,0.0324,0.013523,0.002678,0.000431,0.000705
60552000,0.0324,0.013523,0.002678,0.000431,0.000353
60553000,0.0324,0.013523,0.002678,0.000431,0.000588
60554000,0.0324,0.013523,0.002678,0.000431,0.000353
60555000,0.0324,0.013523,0.002678,0.000431,0.000470
60556000,0.0324,0.013523,0.002678,0.000431,0.000588
60557000,0.0324,0.013523,0.002678,0.000431,0.000470
60558000,0.0324,0.013523,0.002678,0.000431,0.000470
60559000,0.0324,0.013523,0.002678,0.000431,0.000470
60560000,0.0324,0.013523,0.002678,0.000431,0.000470
60561000,0.0324,0.013523,0.002678,0.000431,0.000353
60562000,0.0324,0.013523,0.002678,0.000431,0.000588
60563000,0.0324,0.013523,0.002678,0.000431,0.000353
60564000,0.0324,0.013523,0.002678,0.000431,0.000588
60565000,0.0324,0.013523,0.002678,0.000431,0.000353
60566000,0.0324,0.013523,0.002678,0.000431,0.000588
60567000,0.0324,0.013523,0.002678,0.000431,0.000353
60568000,0.0324,0.013523,0.002678,0.000431,0.000705
60569000,0.0324,0.013523,0.002678,0.000431,0.000470
60570000,0.0324,0.013523,0.002678,0.000431,0.000470
60571000,0.0324,0.013523,0.002678,0.000431,0.000470
60572000,0.0324,0.013523,0.002678,0.000431,0.000470
60573000,0.0324,0.013523,0.002678,0.000431,0.000470
60574000,0.0324,0.013523,0.002678,0.000431,0.000588
60575000,0.0324,0.013523,0.002678,0.000431,0.000353
60576000,0.0324,0.013523,0.002678,0.000431,0.000705
60577000,0.0324,0.013523,0.002678,0.000431,0.000588
60578000,0.0324,0.013523,0.002678,0.000431,0.000470
60579000,0.0324,0.013523,0.002678,0.000431,0.000705
60580000,0.0324,0.013523,0.002678,0.000431,0.000235
60581000,0.0324,0.013523,0.002678,0.000431,0.000705
60582000,0.0324,0.013523,0.002678,0.000431,0.000353
60583000,0.0324,0.013523,0.002678,0.000431,0.000705
60584000,0.0324,0.013523,0.002678,0.000431,0.000470
60585000,0.0324,0.013523,0.002678,0.000431,0.000705
60586000,0.0324,0.013523,0.002678,0.000431,0.000588
60587000,0.0324,0.013523,0.002678,0.000431,0.000470
60588000,0.0324,0.013523,0.002678,0.000431,0.000705
60589000,0.0324,0.013523,0.002678,0.000431,0.000353
60590000,0.0324,0.013523,0.002678,0.000431,0.000705
60591000,0.0324,0.013523,0.002678,0.000431,0.000588
60592000,0.0324,0.013523,0.002678,0.000431,0.000470
60593000,0.0324,0.013523,0.002678,0.000431,0.000588
60594000,0.0324,0.013523,0.002678,0.000431,0.000353
60595000,0.0324,0.013523,0.002678,0.000431,0.000470
60596000,0.0324,0.013523,0.002678,0.000431,0.000588
60597000,0.0324,0.013523,0.002678,0.000431,0.000588
60598000,0.0324,0.013523,0.002678,0.000431,0.000470
60599000,0.0324,0.013523,0.002678,0.000431,0.000588
60600000,0.0324,0.013523,0.002678,0.000431,0.000470
60601000,0.0324,0.013523,0.002678,0.000431,0.000470
60602000,0.0324,0.013523,0.002678,0.000431,0.000470
60603000,0.0324,0.013523,0.002678,0.000431,0.000588
60604000,0.0324,0.013523,0.002678,0.000431,0.000470
60605000,0.0324,0.013523,0.002678,0.000431,0.000588
60606000,0.0324,0.013523,0.002678,0.000431,0.000353
60607000,0.0324,0.013523,0.002678,0.000431,0.000588
60608000,0.0324,0.013523,0.002678,0.000431,0.000353
60609000,0.0324,0.013523,0.002678,0.000431,0.000588
60610000,0.0324,0.013523,0.002678,0.000431,0.000470
60611000,0.0324,0.013523,0.002678,0.000431,0.000470
60612000,0.0324,0.013523,0.002678,0.000431,0.000353
60613000,0.0324,0.013523,0.002678,0.000431,0.000588
60614000,0.0324,0.013523,0.002678,0.000431,0.000353
60615000,0.0324,0.013523,0.002678,0.000431,0.000705
60616000,0.0324,0.013523,0.002678,0.000431,0.000470
60617000,0.0324,0.013523,0.002678,0.000431,0.000705
60618000,0.0324,0.013523,0.002678,0.000431,0.000353
60619000,0.0324,0.013523,0.002678,0.000431,0.000588
60620000,0.0324,0.013523,0.002678,0.000431,0.000235
60621000,0.0324,0.013523,0.002678,0.000431,0.000705
60622000,0.0324,0.013523,0.002678,0.000431,0.000353
60623000,0.0324,0.013523,0.002678,0.000431,0.000588
60624000,0.0324,0.013523,0.002678,0.000431,0.000353
60625000,0.0324,0.013523,0.002678,0.000431,0.000588
60626000,0.0324,0.013523,0.002678,0.000431,0.000353
60627000,0.0324,0.013523,0.002678,0.000431,0.000588
60628000,0.0324,0.013523,0.002678,0.000431,0.000353
60629000,0.0324,0.013523,0.002678,0.000431,0.000588
60630000,0.0324,0.013523,0.002678,0.000431,0.000353
60631000,0.0324,0.013523,0.002678,0.000431,0.000705
60632000,0.0324,0.013523,0.002678,0.000431,0.000470
60633000,0.0324,0.013523,0.002678,0.000431,0.000470
60634000,0.0324,0.013523,0.002678,0.000431,0.000588
60635000,0.0324,0.013523,0.002678,0.000431,0.000470
60636000,0.0324,0.013523,0.002678,0.000431,0.000705
60637000,0.0324,0.013523,0.002678,0.000431,0.000353
60638000,0.0324,0.013523,0.002678,0.000431,0.000588
60639000,0.0324,0.013523,0.002678,0.000431,0.000353
60640000,0.0324,0.013523,0.002678,0.000431,0.000470
60641000,0.0324,0.013523,0.002678,0.000431,0.000353
60642000,0.0324,0.013523,0.002678,0.000431,0.000705
60643000,0.0324,0.013523,0.002678,0.000431,0.000353
60644000,0.0324,0.013523,0.002678,0.000431,0.000588
60645000,0.0324,0.013523,0.002678,0.000431,0.000353
60646000,0.0324,0.013523,0.002678,0.000431,0.000588
60647000,0.0324,0.013523,0.002678,0.000431,0.000353
60648000,0.0324,0.013523,0.002678,0.000431,0.000588
60649000,0.0324,0.013523,0.002678,0.000431,0.000353
60650000,0.0324,0.013523,0.002678,0.000431,0.000588
60651000,0.0324,0.013523,0.002678,0.000431,0.000353
60652000,0.0324,0.013523,0.002678,0.000431,0.000588
60653000,0.0324,0.013523,0.002678,0.000431,0.000470
60654000,0.0324,0.013523,0.002678,0.000431,0.000705
60655000,0.0324,0.013523,0.002678,0.000431,0.000353
60656000,0.0324,0.013523,0.002678,0.000431,0.000705
60657000,0.0324,0.013523,0.002678,0.000431,0.000588
60658000,0.0324,0.013523,0.002678,0.000431,0.000470
60659000,0.0324,0.013523,0.002678,0.000431,0.000470
60660000,0.0324,0.013523,0.002678,0.000431,0.000470
60661000,0.0324,0.013523,0.002678,0.000431,0.000470
60662000,0.0324,0.013523,0.002678,0.000431,0.000470
60663000,0.0324,0.013523,0.002678,0.000431,0.000353
60664000,0.0324,0.013523,0.002678,0.000431,0.000588
60665000,0.0324,0.013523,0.002678,0.000431,0.000353
60666000,0.0324,0.013523,0.002678,0.000431,0.000470
60667000,0.0324,0.013523,0.002678,0.000431,0.000470
60668000,0.0324,0.013523,0.002678,0.000431,0.000470
60669000,0.0324,0.013523,0.002678,0.000431,0.000470
60670000,0.0324,0.013523,0.002678,0.000431,0.000588
60671000,0.0324,0.013523,0.002678,0.000431,0.000353
60672000,0.0324,0.013523,0.002678,0.000431,0.000470
60673000,0.0324,0.013523,0.002678,0.000431,0.000470
60674000,0.0324,0.013523,0.002678,0.000431,0.000470
60675000,0.0324,0.013523,0.002678,0.000431,0.000470
60676000,0.0324,0.013523,0.002678,0.000431,0.000588
60677000,0.0324,0.013523,0.002678,0.000431,0.000353
60678000,0.0324,0.013523,0.002678,0.000431,0.000588
60679000,0.0324,0.013523,0.002678,0.000431,0.000353
60680000,0.0324,0.013523,0.002678,0.000431,0.000470
60681000,0.0324,0.013523,0.002678,0.000431,0.000470
60682000,0.0324,0.013523,0.002678,0.000431,0.000588
60683000,0.0324,0.013523,0.002678,0.000431,0.000470
60684000,0.0324,0.013523,0.002678,0.000431,0.000588
60685000,0.0324,0.013523,0.002678,0.000431,0.000588
60686000,0.0324,0.013523,0.002678,0.000431,0.000470
60687000,0.0324,0.013523,0.002678,0.000431,0.000705
60688000,0.0324,0.013523,0.002678,0.000431,0.000353
60689000,0.0324,0.013523,0.002678,0.000431,0.000705
60690000,0.0324,0.013523,0.002678,0.000431,0.000470
60691000,0.0324,0.013523,0.002678,0.000431,0.000470
60692000,0.0324,0.013523,0.002678,0.000431,0.000470
60693000,0.0324,0.013523,0.002678,0.000431,0.000588
60694000,0.0324,0.013523,0.002678,0.000431,0.000353
60695000,0.0324,0.013523,0.002678,0.000431,0.000588
60696000,0.0324,0.013523,0.002678,0.000431,0.000353
60697000,0.0324,0.013523,0.002678,0.000431,0.000588
60698000,0.0324,0.013523,0.002678,0.000431,0.000353
60699000,0.0324,0.013523,0.002678,0.000431,0.000588
60700000,0.0324,0.013523,0.002678,0.000431,0.000353
60701000,0.0324,0.013523,0.002678,0.000431,0.000588
60702000,0.0324,0.013523,0.002678,0.000431,0.000353
60703000,0.0324,0.013523,0.002678,0.000431,0.000470
60704000,0.0324,0.013523,0.002678,0.000431,0.000470
60705000,0.0324,0.013523,0.002678,0.000431,0.000470
60706000,0.0324,0.013523,0.002678,0.000431,0.000470
60707000,0.0324,0.013523,0.002678,0.000431,0.000470
60708000,0.0324,0.013523,0.002678,0.000431,0.000470
60709000,0.0324,0.013523,0.002678,0.000431,0.000470
60710000,0.0324,0.013523,0.002678,0.000431,0.000470
60711000,0.0324,0.013523,0.002678,0.000431,0.000588
60712000,0.0324,0.013523,0.002678,0.000431,0.000470
60713000,0.0324,0.013523,0.002678,0.000431,0.000705
60714000,0.0324,0.013523,0.002678,0.000431,0.000353
60715000,0.0324,0.013523,0.002678,0.000431,0.000705
60716000,0.0324,0.013523,0.002678,0.000431,0.000588
60717000,0.0324,0.013523,0.002678,0.000431,0.000470
60718000,0.0324,0.013523,0.002678,0.000431,0.000588
60719000,0.0324,0.013523,0.002678,0.000431,0.000353
60720000,0.0324,0.013523,0.002678,0.000431,0.000470
60721000,0.0324,0.013523,0.002678,0.000431,0.000470
60722000,0.0324,0.013523,0.002678,0.000431,0.000470
60723000,0.0324,0.013523,0.002678,0.000431,0.000470
60724000,0.0324,0.013523,0.002678,0.000431,0.000353
60725000,0.0324,0.013523,0.002678,0.000431,0.000588
60726000,0.0324,0.013523,0.002678,0.000431,0.000353
60727000,0.0324,0.013523,0.002678,0.000431,0.000588
60728000,0.0324,0.013523,0.002678,0.000431,0.000353
60729000,0.0324,0.013523,0.002678,0.000431,0.000705
60730000,0.0324,0.013523,0.002678,0.000431,0.000470
60731000,0.0324,0.013523,0.002678,0.000431,0.000588
60732000,0.0324,0.013523,0.002678,0.000431,0.000353
60733000,0.0324,0.013523,0.002678,0.000431,0.000470
60734000,0.0324,0.013523,0.002678,0.000431,0.000470
60735000,0.0324,0.013523,0.002678,0.000431,0.000470
60736000,0.0324,0.013523,0.002678,0.000431,0.000470
60737000,0.0324,0.013523,0.002678,0.000431,0.000470
60738000,0.0324,0.013523,0.002678,0.000431,0.000470
60739000,0.0324,0.013523,0.002678,0.000431,0.000470
60740000,0.0324,0.013523,0.002678,0.000431,0.000470
60741000,0.0324,0.013523,0.002678,0.000431,0.000470
60742000,0.0324,0.013523,0.002678,0.000431,0.000470
60743000,0.0324,0.013523,0.002678,0.000431,0.000470
60744000,0.0324,0.013523,0.002678,0.000431,0.000353
60745000,0.0324,0.013523,0.002678,0.000431,0.000588
60746000,0.0324,0.013523,0.002678,0.000431,0.000353
60747000,0.0324,0.013523,0.002678,0.000431,0.000588
60748000,0.0324,0.013523,0.002678,0.000431,0.000353
60749000,0.0324,0.013523,0.002678,0.000431,0.000705
60750000,0.0324,0.013523,0.002678,0.000431,0.000353
60751000,0.0324,0.013523,0.002678,0.000431,0.000705
60752000,0.0324,0.013523,0.002678,0.000431,0.000588
60753000,0.0324,0.013523,0.002678,0.000431,0.000470
60754000,0.0324,0.013523,0.002678,0.000431,0.000705
60755000,0.0324,0.013523,0.002678,0.000431,0.000353
60756000,0.0324,0.013523,0.002678,0.000431,0.000705
60757000,0.0324,0.013523,0.002678,0.000431,0.000588
60758000,0.0324,0.013523,0.002678,0.000431,0.000470
60759000,0.0324,0.013523,0.002678,0.000431,0.000470
60760000,0.0324,0.013523,0.002678,0.000431,0.000470
60761000,0.0324,0.013523,0.002678,0.000431,0.000353
60762000,0.0324,0.013523,0.002678,0.000431,0.000588
60763000,0.0324,0.013523,0.002678,0.000431,0.000353
60764000,0.0324,0.013523,0.002678,0.000431,0.000588
60765000,0.0324,0.013523,0.002678,0.000431,0.000353
60766000,0.0324,0.013523,0.002678,0.000431,0.000588
60767000,0.0324,0.013523,0.002678,0.000431,0.000353
60768000,0.0324,0.013523,0.002678,0.000431,0.000588
60769000,0.0324,0.013523,0.002678,0.000431,0.000353
60770000,0.0324,0.013523,0.002678,0.000431,0.000588
60771000,0.0324,0.013523,0.002678,0.000431,0.000353
60772000,0.0324,0.013523,0.002678,0.000431,0.000588
60773000,0.0324,0.013523,0.002678,0.000431,0.000353
60774000,0.0324,0.013523,0.002678,0.000431,0.000470
60775000,0.0324,0.013523,0.002678,0.000431,0.000470
60776000,0.0324,0.013523,0.002678,0.000431,0.000588
60777000,0.0324,0.013523,0.002678,0.000431,0.000353
60778000,0.0324,0.013523,0.002678,0.000431,0.000470
60779000,0.0324,0.013523,0.002678,0.000431,0.000470
60780000,0.0324,0.013523,0.002678,0.000431,0.000470
60781000,0.0324,0.013523,0.002678,0.000431,0.000470
60782000,0.0324,0.013523,0.002678,0.000431,0.000470
60783000,0.0324,0.013523,0.002678,0.000431,0.000353
60784000,0.0324,0.013523,0.002678,0.000431,0.000588
60785000,0.0324,0.013523,0.002678,0.000431,0.000353
60786000,0.0324,0.013523,0.002678,0.000431,0.000588
60787000,0.0324,0.013523,0.002678,0.000431,0.000353
60788000,0.0324,0.013523,0.002678,0.000431,0.000588
60789000,0.0324,0.013523,0.002678,0.000431,0.000353
60790000,0.0324,0.013523,0.002678,0.000431,0.000588
60791000,0.0324,0.013523,0.002678,0.000431,0.000353
60792000,0.0324,0.013523,0.002678,0.000431,0.000588
60793000,0.0324,0.013523,0.002678,0.000431,0.000353
60794000,0.0324,0.013523,0.002678,0.000431,0.000588
60795000,0.0324,0.013523,0.002678,0.000431,0.000353
60796000,0.0324,0.013523,0.002678,0.000431,0.000588
60797000,0.0324,0.013523,0.002678,0.000431,0.000470
60798000,0.0324,0.013523,0.002678,0.000431,0.000470
60799000,0.0324,0.013523,0.002678,0.000431,0.000353
60800000,0.0324,0.013523,0.002678,0.000431,0.000588
60801000,0.0324,0.013523,0.002678,0.000431,0.000353
60802000,0.0324,0.013523,0.002678,0.000431,0.000588
60803000,0.0324,0.013523,0.002678,0.000431,0.000353
60804000,0.0324,0.013523,0.002678,0.000431,0.000588
60805000,0.0324,0.013523,0.002678,0.000431,0.000353
60806000,0.0324,0.013523,0.002678,0.000431,0.000705
60807000,0.0324,0.013523,0.002678,0.000431,0.000353
60808000,0.0324,0.013523,0.002678,0.000431,0.000588
60809000,0.0324,0.013523,0.002678,0.000431,0.000470
60810000,0.0324,0.013523,0.002678,0.000431,0.000705
60811000,0.0324,0.013523,0.002678,0.000431,0.000353
60812000,0.0324,0.013523,0.002678,0.000431,0.000705
60813000,0.0324,0.013523,0.002678,0.000431,0.000588
60814000,0.0324,0.013523,0.002678,0.000431,0.000470
60815000,0.0324,0.013523,0.002678,0.000431,0.000705
60816000,0.0324,0.013523,0.002678,0.000431,0.000353
60817000,0.0324,0.013523,0.002678,0.000431,0.000588
60818000,0.0324,0.013523,0.002678,0.000431,0.000588
60819000,0.0324,0.013523,0.002678,0.000431,0.000470
60820000,0.0324,0.013523,0.002678,0.000431,0.000470
60821000,0.0324,0.013523,0.002678,0.000431,0.000470
60822000,0.0324,0.013523,0.002678,0.000431,0.000353
60823000,0.0324,0.013523,0.002678,0.000431,0.000588
60824000,0.0324,0.013523,0.002678,0.000431,0.000353
60825000,0.0324,0.013523,0.002678,0.000431,0.000588
60826000,0.0324,0.013523,0.002678,0.000431,0.000353
60827000,0.0324,0.013523,0.002678,0.000431,0.000588
60828000,0.0324,0.013523,0.002678,0.000431,0.000353
60829000,0.0324,0.013523,0.002678,0.000431,0.000588
60830000,0.0324,0.013523,0.002678,0.000431,0.000353
60831000,0.0324,0.013523,0.002678,0.000431,0.000588
60832000,0.0324,0.013523,0.002678,0.000431,0.000353
60833000,0.0324,0.013523,0.002678,0.000431,0.000588
60834000,0.0324,0.013523,0.002678,0.000431,0.000470
60835000,0.0324,0.013523,0.002678,0.000431,0.000470
60836000,0.0324,0.013523,0.002678,0.000431,0.000470
60837000,0.0324,0.013523,0.002678,0.000431,0.000470
60838000,0.0324,0.013523,0.002678,0.000431,0.000353
60839000,0.0324,0.013523,0.002678,0.000431,0.000588
60840000,0.0324,0.013523,0.002678,0.000431,0.000353
60841000,0.0324,0.013523,0.002678,0.000431,0.000588
60842000,0.0324,0.013523,0.002678,0.000431,0.000470
60843000,0.0324,0.013523,0.002678,0.000431,0.000470
60844000,0.0324,0.013523,0.002678,0.000431,0.000470
60845000,0.0324,0.013523,0.002678,0.000431,0.000470
60846000,0.0324,0.013523,0.002678,0.000431,0.000470
60847000,0.0324,0.013523,0.002678,0.000431,0.000353
60848000,0.0324,0.013523,0.002678,0.000431,0.000588
60849000,0.0324,0.013523,0.002678,0.000431,0.000353
60850000,0.0324,0.013523,0.002678,0.000431,0.000470
60851000,0.0324,0.013523,0.002678,0.000431,0.000470
60852000,0.0324,0.013523,0.002678,0.000431,0.000588
60853000,0.0324,0.013523,0.002678,0.000431,0.000353
60854000,0.0324,0.013523,0.002678,0.000431,0.000588
60855000,0.0324,0.013523,0.002678,0.000431,0.000470
60856000,0.0324,0.013523,0.002678,0.000431,0.000470
60857000,0.0324,0.013523,0.002678,0.000431,0.000353
60858000,0.0324,0.013523,0.002678,0.000431,0.000588
60859000,0.0324,0.013523,0.002678,0.000431,0.000353
60860000,0.0324,0.013523,0.002678,0.000431,0.000588
60861000,0.0324,0.013523,0.002678,0.000431,0.000353
60862000,0.0324,0.013523,0.002678,0.000431,0.000588
60863000,0.0324,0.013523,0.002678,0.000431,0.000353
60864000,0.0324,0.013523,0.002678,0.000431,0.000588
60865000,0.0324,0.013523,0.002678,0.000431,0.000470
60866000,0.0324,0.013523,0.002678,0.000431,0.000588
60867000,0.0324,0.013523,0.002678,0.000431,0.000470
60868000,0.0324,0.013523,0.002678,0.000431,0.000705
60869000,0.0324,0.013523,0.002678,0.000431,0.000353
60870000,0.0324,0.013523,0.002678,0.000431,0.000588
60871000,0.0324,0.013523,0.002678,0.000431,0.000588
60872000,0.0324,0.013523,0.002678,0.000431,0.000470
60873000,0.0324,0.013523,0.002678,0.000431,0.000353
60874000,0.0324,0.013523,0.002678,0.000431,0.000588
60875000,0.0324,0.013523,0.002678,0.000431,0.000353
60876000,0.0324,0.013523,0.002678,0.000431,0.000588
60877000,0.0324,0.013523,0.002678,0.000431,0.000353
60878000,0.0324,0.013523,0.002678,0.000431,0.000588
60879000,0.0324,0.013523,0.002678,0.000431,0.000353
60880000,0.0324,0.013523,0.002678,0.000431,0.000823
60881000,0.0324,0.013523,0.002678,0.000431,0.000353
60882000,0.0324,0.013523,0.002678,0.000431,0.000705
60883000,0.0324,0.013523,0.002678,0.000431,0.000353
60884000,0.0324,0.013523,0.002678,0.000431,0.000705
60885000,0.0324,0.013523,0.002678,0.000431,0.000353
60886000,0.0324,0.013523,0.002678,0.000431,0.000705
60887000,0.0324,0.013523,0.002678,0.000431,0.000353
60888000,0.0324,0.013523,0.002678,0.000431,0.000705
60889000,0.0324,0.013523,0.002678,0.000431,0.000470
60890000,0.0324,0.013523,0.002678,0.000431,0.000470
60891000,0.0324,0.013523,0.002678,0.000431,0.000470
60892000,0.0324,0.013523,0.002678,0.000431,0.000470
60893000,0.0324,0.013523,0.002678,0.000431,0.000470
60894000,0.0324,0.013523,0.002678,0.000431,0.000470
60895000,0.0324,0.013523,0.002678,0.000431,0.000470
60896000,0.0324,0.013523,0.002678,0.000431,0.000470
60897000,0.0324,0.013523,0.002678,0.000431,0.000353
60898000,0.0324,0.013523,0.002678,0.000431,0.000588
60899000,0.0324,0.013523,0.002678,0.000431,0.000353
60900000,0.0324,0.013523,0.002678,0.000431,0.000588
60901000,0.0324,0.013523,0.002678,0.000431,0.000353
60902000,0.0324,0.013523,0.002678,0.000431,0.000588
60903000,0.0324,0.013523,0.002678,0.000431,0.000353
60904000,0.0324,0.013523,0.002678,0.000431,0.000588
60905000,0.0324,0.013523,0.002678,0.000431,0.000353
60906000,0.0324,0.013523,0.002678,0.000431,0.000588
60907000,0.0324,0.013523,0.002678,0.000431,0.000353
60908000,0.0324,0.013523,0.002678,0.000431,0.000588
60909000,0.0324,0.013523,0.002678,0.000431,0.000353
60910000,0.0324,0.013523,0.002678,0.000431,0.000705
60911000,0.0324,0.013523,0.002678,0.000431,0.000353
60912000,0.0324,0.013523,0.002678,0.000431,0.000705
60913000,0.0324,0.013523,0.002678,0.000431,0.000588
60914000,0.0324,0.013523,0.002678,0.000431,0.000470
60915000,0.0324,0.013523,0.002678,0.000431,0.000588
60916000,0.0324,0.013523,0.002678,0.000431,0.000353
60917000,0.0324,0.013523,0.002678,0.000431,0.000470
60918000,0.0324,0.013523,0.002678,0.000431,0.000470
60919000,0.0324,0.013523,0.002678,0.000431,0.000470
60920000,0.0324,0.013523,0.002678,0.000431,0.000470
60921000,0.0324,0.013523,0.002678,0.000431,0.000353
60922000,0.0324,0.013523,0.002678,0.000431,0.000588
60923000,0.0324,0.013523,0.002678,0.000431,0.000353
60924000,0.0324,0.013523,0.002678,0.000431,0.000705
60925000,0.0324,0.013523,0.002678,0.000431,0.000470
60926000,0.0324,0.013523,0.002678,0.000431,0.000470
60927000,0.0324,0.013523,0.002678,0.000431,0.000588
60928000,0.0324,0.013523,0.002678,0.000431,0.000470
60929000,0.0324,0.013523,0.002678,0.000431,0.000588
60930000,0.0324,0.013523,0.002678,0.000431,0.000353
60931000,0.0324,0.013523,0.002678,0.000431,0.000588
60932000,0.0324,0.013523,0.002678,0.000431,0.000353
60933000,0.0324,0.013523,0.002678,0.000431,0.000588
60934000,0.0324,0.013523,0.002678,0.000431,0.000470
60935000,0.0324,0.013523,0.002678,0.000431,0.000470
60936000,0.0324,0.013523,0.002678,0.000431,0.000470
60937000,0.0324,0.013523,0.002678,0.000431,0.000470
60938000,0.0324,0.013523,0.002678,0.000431,0.000470
60939000,0.0324,0.013523,0.002678,0.000431,0.000353
60940000,0.0324,0.013523,0.002678,0.000431,0.000588
60941000,0.0324,0.013523,0.002678,0.000431,0.000353
60942000,0.0324,0.013523,0.002678,0.000431,0.000588
60943000,0.0324,0.013523,0.002678,0.000431,0.000353
60944000,0.0324,0.013523,0.002678,0.000431,0.000588
60945000,0.0324,0.013523,0.002678,0.000431,0.000353
60946000,0.0324,0.013523,0.002678,0.000431,0.000588
60947000,0.0324,0.013523,0.002678,0.000431,0.000353
60948000,0.0324,0.013523,0.002678,0.000431,0.000705
60949000,0.0324,0.013523,0.002678,0.000431,0.000353
60950000,0.0324,0.013523,0.002678,0.000431,0.000588
60951000,0.0324,0.013523,0.002678,0.000431,0.000353
60952000,0.0324,0.013523,0.002678,0.000431,0.000588
60953000,0.0324,0.013523,0.002678,0.000431,0.000353
60954000,0.0324,0.013523,0.002678,0.000431,0.000588
60955000,0.0324,0.013523,0.002678,0.000431,0.000353
60956000,0.0324,0.013523,0.002678,0.000431,0.000823
60957000,0.0324,0.013523,0.002678,0.000431,0.000353
60958000,0.0324,0.013523,0.002678,0.000431,0.000588
60959000,0.0324,0.013523,0.002678,0.000431,0.000235
60960000,0.0324,0.013523,0.002678,0.000431,0.000588
60961000,0.0324,0.013523,0.002678,0.000431,0.000353
60962000,0.0324,0.013523,0.002678,0.000431,0.000588
60963000,0.0324,0.013523,0.002678,0.000431,0.000470
60964000,0.0324,0.013523,0.002678,0.000431,0.000470
60965000,0.0324,0.013523,0.002678,0.000431,0.000353
60966000,0.0324,0.013523,0.002678,0.000431,0.000588
60967000,0.0324,0.013523,0.002678,0.000431,0.000470
60968000,0.0324,0.013523,0.002678,0.000431,0.000588
60969000,0.0324,0.013523,0.002678,0.000431,0.000470
60970000,0.0324,0.013523,0.002678,0.000431,0.000705
60971000,0.0324,0.013523,0.002678,0.000431,0.000353
60972000,0.0324,0.013523,0.002678,0.000431,0.000588
60973000,0.0324,0.013523,0.002678,0.000431,0.000353
60974000,0.0324,0.013523,0.002678,0.000431,0.000588
60975000,0.0324,0.013523,0.002678,0.000431,0.000353
60976000,0.0324,0.013523,0.002678,0.000431,0.000588
60977000,0.0324,0.013523,0.002678,0.000431,0.000353
60978000,0.0324,0.013523,0.002678,0.000431,0.000470
60979000,0.0324,0.013523,0.002678,0.000431,0.000470
60980000,0.0324,0.013523,0.002678,0.000431,0.000470
60981000,0.0324,0.013523,0.002678,0.000431,0.000588
60982000,0.0324,0.013523,0.002678,0.000431,0.000353
60983000,0.0324,0.013523,0.002678,0.000431,0.000588
60984000,0.0324,0.013523,0.002678,0.000431,0.000353
60985000,0.0324,0.013523,0.002678,0.000431,0.000588
60986000,0.0324,0.013523,0.002678,0.000431,0.000353
60987000,0.0324,0.013523,0.002678,0.000431,0.000705
60988000,0.0324,0.013523,0.002678,0.000431,0.000588
60989000,0.0324,0.013523,0.002678,0.000431,0.000470
60990000,0.0324,0.013523,0.002678,0.000431,0.000705
60991000,0.0324,0.013523,0.002678,0.000431,0.000353
60992000,0.0324,0.013523,0.002678,0.000431,0.000588
60993000,0.0324,0.013523,0.002678,0.000431,0.000353
60994000,0.0324,0.013523,0.002678,0.000431,0.000588
60995000,0.0324,0.013523,0.002678,0.000431,0.000353
60996000,0.0324,0.013523,0.002678,0.000431,0.000470
60997000,0.0324,0.013523,0.002678,0.000431,0.000353
60998000,0.0324,0.013523,0.002678,0.000431,0.000588
60999000,0.0324,0.013523,0.002678,0.000431,0.000470
