Cycle,Area(mm^2),PeakDynamic(W),SubthresholdLeakage(W),GateLeakage(W),RunTimeDynamic(W)
32000000,0.0324,0.013523,0.002678,0.000431,0.000470
32001000,0.0324,0.013523,0.002678,0.000431,0.000470
32002000,0.0324,0.013523,0.002678,0.000431,0.000470
32003000,0.0324,0.013523,0.002678,0.000431,0.000470
32004000,0.0324,0.013523,0.002678,0.000431,0.000470
32005000,0.0324,0.013523,0.002678,0.000431,0.000470
32006000,0.0324,0.013523,0.002678,0.000431,0.000353
32007000,0.0324,0.013523,0.002678,0.000431,0.000588
32008000,0.0324,0.013523,0.002678,0.000431,0.000353
32009000,0.0324,0.013523,0.002678,0.000431,0.000588
32010000,0.0324,0.013523,0.002678,0.000431,0.000353
32011000,0.0324,0.013523,0.002678,0.000431,0.000705
32012000,0.0324,0.013523,0.002678,0.000431,0.000353
32013000,0.0324,0.013523,0.002678,0.000431,0.000705
32014000,0.0324,0.013523,0.002678,0.000431,0.000470
32015000,0.0324,0.013523,0.002678,0.000431,0.000470
32016000,0.0324,0.013523,0.002678,0.000431,0.000470
32017000,0.0324,0.013523,0.002678,0.000431,0.000470
32018000,0.0324,0.013523,0.002678,0.000431,0.000470
32019000,0.0324,0.013523,0.002678,0.000431,0.000470
32020000,0.0324,0.013523,0.002678,0.000431,0.000470
32021000,0.0324,0.013523,0.002678,0.000431,0.000470
32022000,0.0324,0.013523,0.002678,0.000431,0.000470
32023000,0.0324,0.013523,0.002678,0.000431,0.000588
32024000,0.0324,0.013523,0.002678,0.000431,0.000353
32025000,0.0324,0.013523,0.002678,0.000431,0.000705
32026000,0.0324,0.013523,0.002678,0.000431,0.000588
32027000,0.0324,0.013523,0.002678,0.000431,0.000353
32028000,0.0324,0.013523,0.002678,0.000431,0.000588
32029000,0.0324,0.013523,0.002678,0.000431,0.000470
32030000,0.0324,0.013523,0.002678,0.000431,0.000705
32031000,0.0324,0.013523,0.002678,0.000431,0.000353
32032000,0.0324,0.013523,0.002678,0.000431,0.000705
32033000,0.0324,0.013523,0.002678,0.000431,0.000588
32034000,0.0324,0.013523,0.002678,0.000431,0.000470
32035000,0.0324,0.013523,0.002678,0.000431,0.000588
32036000,0.0324,0.013523,0.002678,0.000431,0.000353
32037000,0.0324,0.013523,0.002678,0.000431,0.000588
32038000,0.0324,0.013523,0.002678,0.000431,0.000353
32039000,0.0324,0.013523,0.002678,0.000431,0.000588
32040000,0.0324,0.013523,0.002678,0.000431,0.000353
32041000,0.0324,0.013523,0.002678,0.000431,0.000588
32042000,0.0324,0.013523,0.002678,0.000431,0.000353
32043000,0.0324,0.013523,0.002678,0.000431,0.000588
32044000,0.0324,0.013523,0.002678,0.000431,0.000353
32045000,0.0324,0.013523,0.002678,0.000431,0.000588
32046000,0.0324,0.013523,0.002678,0.000431,0.000353
32047000,0.0324,0.013523,0.002678,0.000431,0.000470
32048000,0.0324,0.013523,0.002678,0.000431,0.000588
32049000,0.0324,0.013523,0.002678,0.000431,0.000588
32050000,0.0324,0.013523,0.002678,0.000431,0.000470
32051000,0.0324,0.013523,0.002678,0.000431,0.000705
32052000,0.0324,0.013523,0.002678,0.000431,0.000353
32053000,0.0324,0.013523,0.002678,0.000431,0.000705
32054000,0.0324,0.013523,0.002678,0.000431,0.000470
32055000,0.0324,0.013523,0.002678,0.000431,0.000470
32056000,0.0324,0.013523,0.002678,0.000431,0.000470
32057000,0.0324,0.013523,0.002678,0.000431,0.000470
32058000,0.0324,0.013523,0.002678,0.000431,0.000470
32059000,0.0324,0.013523,0.002678,0.000431,0.000470
32060000,0.0324,0.013523,0.002678,0.000431,0.000470
32061000,0.0324,0.013523,0.002678,0.000431,0.000470
32062000,0.0324,0.013523,0.002678,0.000431,0.000470
32063000,0.0324,0.013523,0.002678,0.000431,0.000470
32064000,0.0324,0.013523,0.002678,0.000431,0.000470
32065000,0.0324,0.013523,0.002678,0.000431,0.000470
32066000,0.0324,0.013523,0.002678,0.000431,0.000470
32067000,0.0324,0.013523,0.002678,0.000431,0.000470
32068000,0.0324,0.013523,0.002678,0.000431,0.000470
32069000,0.0324,0.013523,0.002678,0.000431,0.000470
32070000,0.0324,0.013523,0.002678,0.000431,0.000353
32071000,0.0324,0.013523,0.002678,0.000431,0.000588
32072000,0.0324,0.013523,0.002678,0.000431,0.000353
32073000,0.0324,0.013523,0.002678,0.000431,0.000588
32074000,0.0324,0.013523,0.002678,0.000431,0.000353
32075000,0.0324,0.013523,0.002678,0.000431,0.000588
32076000,0.0324,0.013523,0.002678,0.000431,0.000353
32077000,0.0324,0.013523,0.002678,0.000431,0.000588
32078000,0.0324,0.013523,0.002678,0.000431,0.000353
32079000,0.0324,0.013523,0.002678,0.000431,0.000588
32080000,0.0324,0.013523,0.002678,0.000431,0.000353
32081000,0.0324,0.013523,0.002678,0.000431,0.000588
32082000,0.0324,0.013523,0.002678,0.000431,0.000353
32083000,0.0324,0.013523,0.002678,0.000431,0.000588
32084000,0.0324,0.013523,0.002678,0.000431,0.000353
32085000,0.0324,0.013523,0.002678,0.000431,0.000588
32086000,0.0324,0.013523,0.002678,0.000431,0.000353
32087000,0.0324,0.013523,0.002678,0.000431,0.000588
32088000,0.0324,0.013523,0.002678,0.000431,0.000353
32089000,0.0324,0.013523,0.002678,0.000431,0.000705
32090000,0.0324,0.013523,0.002678,0.000431,0.000353
32091000,0.0324,0.013523,0.002678,0.000431,0.000588
32092000,0.0324,0.013523,0.002678,0.000431,0.000353
32093000,0.0324,0.013523,0.002678,0.000431,0.000588
32094000,0.0324,0.013523,0.002678,0.000431,0.000470
32095000,0.0324,0.013523,0.002678,0.000431,0.000588
32096000,0.0324,0.013523,0.002678,0.000431,0.000588
32097000,0.0324,0.013523,0.002678,0.000431,0.000470
32098000,0.0324,0.013523,0.002678,0.000431,0.000705
32099000,0.0324,0.013523,0.002678,0.000431,0.000353
32100000,0.0324,0.013523,0.002678,0.000431,0.000588
32101000,0.0324,0.013523,0.002678,0.000431,0.000353
32102000,0.0324,0.013523,0.002678,0.000431,0.000588
32103000,0.0324,0.013523,0.002678,0.000431,0.000353
32104000,0.0324,0.013523,0.002678,0.000431,0.000823
32105000,0.0324,0.013523,0.002678,0.000431,0.000353
32106000,0.0324,0.013523,0.002678,0.000431,0.000705
32107000,0.0324,0.013523,0.002678,0.000431,0.000588
32108000,0.0324,0.013523,0.002678,0.000431,0.000470
32109000,0.0324,0.013523,0.002678,0.000431,0.000705
32110000,0.0324,0.013523,0.002678,0.000431,0.000353
32111000,0.0324,0.013523,0.002678,0.000431,0.000470
32112000,0.0324,0.013523,0.002678,0.000431,0.000353
32113000,0.0324,0.013523,0.002678,0.000431,0.000588
32114000,0.0324,0.013523,0.002678,0.000431,0.000353
32115000,0.0324,0.013523,0.002678,0.000431,0.000588
32116000,0.0324,0.013523,0.002678,0.000431,0.000470
32117000,0.0324,0.013523,0.002678,0.000431,0.000588
32118000,0.0324,0.013523,0.002678,0.000431,0.000470
32119000,0.0324,0.013523,0.002678,0.000431,0.000588
32120000,0.0324,0.013523,0.002678,0.000431,0.000353
32121000,0.0324,0.013523,0.002678,0.000431,0.000588
32122000,0.0324,0.013523,0.002678,0.000431,0.000353
32123000,0.0324,0.013523,0.002678,0.000431,0.000588
32124000,0.0324,0.013523,0.002678,0.000431,0.000353
32125000,0.0324,0.013523,0.002678,0.000431,0.000588
32126000,0.0324,0.013523,0.002678,0.000431,0.000353
32127000,0.0324,0.013523,0.002678,0.000431,0.000588
32128000,0.0324,0.013523,0.002678,0.000431,0.000470
32129000,0.0324,0.013523,0.002678,0.000431,0.000588
32130000,0.0324,0.013523,0.002678,0.000431,0.000470
32131000,0.0324,0.013523,0.002678,0.000431,0.000705
32132000,0.0324,0.013523,0.002678,0.000431,0.000353
32133000,0.0324,0.013523,0.002678,0.000431,0.000588
32134000,0.0324,0.013523,0.002678,0.000431,0.000353
32135000,0.0324,0.013523,0.002678,0.000431,0.000588
32136000,0.0324,0.013523,0.002678,0.000431,0.000353
32137000,0.0324,0.013523,0.002678,0.000431,0.000470
32138000,0.0324,0.013523,0.002678,0.000431,0.000470
32139000,0.0324,0.013523,0.002678,0.000431,0.000588
32140000,0.0324,0.013523,0.002678,0.000431,0.000470
32141000,0.0324,0.013523,0.002678,0.000431,0.000705
32142000,0.0324,0.013523,0.002678,0.000431,0.000353
32143000,0.0324,0.013523,0.002678,0.000431,0.000705
32144000,0.0324,0.013523,0.002678,0.000431,0.000588
32145000,0.0324,0.013523,0.002678,0.000431,0.000470
32146000,0.0324,0.013523,0.002678,0.000431,0.000705
32147000,0.0324,0.013523,0.002678,0.000431,0.000353
32148000,0.0324,0.013523,0.002678,0.000431,0.000705
32149000,0.0324,0.013523,0.002678,0.000431,0.000353
32150000,0.0324,0.013523,0.002678,0.000431,0.000588
32151000,0.0324,0.013523,0.002678,0.000431,0.000588
32152000,0.0324,0.013523,0.002678,0.000431,0.000470
32153000,0.0324,0.013523,0.002678,0.000431,0.000470
32154000,0.0324,0.013523,0.002678,0.000431,0.000470
32155000,0.0324,0.013523,0.002678,0.000431,0.000353
32156000,0.0324,0.013523,0.002678,0.000431,0.000588
32157000,0.0324,0.013523,0.002678,0.000431,0.000353
32158000,0.0324,0.013523,0.002678,0.000431,0.000588
32159000,0.0324,0.013523,0.002678,0.000431,0.000353
32160000,0.0324,0.013523,0.002678,0.000431,0.000588
32161000,0.0324,0.013523,0.002678,0.000431,0.000353
32162000,0.0324,0.013523,0.002678,0.000431,0.000588
32163000,0.0324,0.013523,0.002678,0.000431,0.000353
32164000,0.0324,0.013523,0.002678,0.000431,0.000705
32165000,0.0324,0.013523,0.002678,0.000431,0.000588
32166000,0.0324,0.013523,0.002678,0.000431,0.000470
32167000,0.0324,0.013523,0.002678,0.000431,0.000705
32168000,0.0324,0.013523,0.002678,0.000431,0.000353
32169000,0.0324,0.013523,0.002678,0.000431,0.000588
32170000,0.0324,0.013523,0.002678,0.000431,0.000353
32171000,0.0324,0.013523,0.002678,0.000431,0.000588
32172000,0.0324,0.013523,0.002678,0.000431,0.000353
32173000,0.0324,0.013523,0.002678,0.000431,0.000588
32174000,0.0324,0.013523,0.002678,0.000431,0.000353
32175000,0.0324,0.013523,0.002678,0.000431,0.000470
32176000,0.0324,0.013523,0.002678,0.000431,0.000470
32177000,0.0324,0.013523,0.002678,0.000431,0.000588
32178000,0.0324,0.013523,0.002678,0.000431,0.000470
32179000,0.0324,0.013523,0.002678,0.000431,0.000705
32180000,0.0324,0.013523,0.002678,0.000431,0.000353
32181000,0.0324,0.013523,0.002678,0.000431,0.000588
32182000,0.0324,0.013523,0.002678,0.000431,0.000353
32183000,0.0324,0.013523,0.002678,0.000431,0.000705
32184000,0.0324,0.013523,0.002678,0.000431,0.000588
32185000,0.0324,0.013523,0.002678,0.000431,0.000470
32186000,0.0324,0.013523,0.002678,0.000431,0.000588
32187000,0.0324,0.013523,0.002678,0.000431,0.000353
32188000,0.0324,0.013523,0.002678,0.000431,0.000588
32189000,0.0324,0.013523,0.002678,0.000431,0.000353
32190000,0.0324,0.013523,0.002678,0.000431,0.000588
32191000,0.0324,0.013523,0.002678,0.000431,0.000353
32192000,0.0324,0.013523,0.002678,0.000431,0.000588
32193000,0.0324,0.013523,0.002678,0.000431,0.000353
32194000,0.0324,0.013523,0.002678,0.000431,0.000588
32195000,0.0324,0.013523,0.002678,0.000431,0.000353
32196000,0.0324,0.013523,0.002678,0.000431,0.000470
32197000,0.0324,0.013523,0.002678,0.000431,0.000470
32198000,0.0324,0.013523,0.002678,0.000431,0.000470
32199000,0.0324,0.013523,0.002678,0.000431,0.000470
32200000,0.0324,0.013523,0.002678,0.000431,0.000353
32201000,0.0324,0.013523,0.002678,0.000431,0.000705
32202000,0.0324,0.013523,0.002678,0.000431,0.000588
32203000,0.0324,0.013523,0.002678,0.000431,0.000470
32204000,0.0324,0.013523,0.002678,0.000431,0.000588
32205000,0.0324,0.013523,0.002678,0.000431,0.000353
32206000,0.0324,0.013523,0.002678,0.000431,0.000588
32207000,0.0324,0.013523,0.002678,0.000431,0.000353
32208000,0.0324,0.013523,0.002678,0.000431,0.000588
32209000,0.0324,0.013523,0.002678,0.000431,0.000470
32210000,0.0324,0.013523,0.002678,0.000431,0.000470
32211000,0.0324,0.013523,0.002678,0.000431,0.000353
32212000,0.0324,0.013523,0.002678,0.000431,0.000588
32213000,0.0324,0.013523,0.002678,0.000431,0.000353
32214000,0.0324,0.013523,0.002678,0.000431,0.000588
32215000,0.0324,0.013523,0.002678,0.000431,0.000353
32216000,0.0324,0.013523,0.002678,0.000431,0.000470
32217000,0.0324,0.013523,0.002678,0.000431,0.000588
32218000,0.0324,0.013523,0.002678,0.000431,0.000588
32219000,0.0324,0.013523,0.002678,0.000431,0.000470
32220000,0.0324,0.013523,0.002678,0.000431,0.000353
32221000,0.0324,0.013523,0.002678,0.000431,0.000588
32222000,0.0324,0.013523,0.002678,0.000431,0.000353
32223000,0.0324,0.013523,0.002678,0.000431,0.000470
32224000,0.0324,0.013523,0.002678,0.000431,0.000470
32225000,0.0324,0.013523,0.002678,0.000431,0.000470
32226000,0.0324,0.013523,0.002678,0.000431,0.000470
32227000,0.0324,0.013523,0.002678,0.000431,0.000470
32228000,0.0324,0.013523,0.002678,0.000431,0.000470
32229000,0.0324,0.013523,0.002678,0.000431,0.000470
32230000,0.0324,0.013523,0.002678,0.000431,0.000470
32231000,0.0324,0.013523,0.002678,0.000431,0.000470
32232000,0.0324,0.013523,0.002678,0.000431,0.000470
32233000,0.0324,0.013523,0.002678,0.000431,0.000470
32234000,0.0324,0.013523,0.002678,0.000431,0.000470
32235000,0.0324,0.013523,0.002678,0.000431,0.000470
32236000,0.0324,0.013523,0.002678,0.000431,0.000470
32237000,0.0324,0.013523,0.002678,0.000431,0.000470
32238000,0.0324,0.013523,0.002678,0.000431,0.000353
32239000,0.0324,0.013523,0.002678,0.000431,0.000588
32240000,0.0324,0.013523,0.002678,0.000431,0.000353
32241000,0.0324,0.013523,0.002678,0.000431,0.000705
32242000,0.0324,0.013523,0.002678,0.000431,0.000353
32243000,0.0324,0.013523,0.002678,0.000431,0.000705
32244000,0.0324,0.013523,0.002678,0.000431,0.000588
32245000,0.0324,0.013523,0.002678,0.000431,0.000588
32246000,0.0324,0.013523,0.002678,0.000431,0.000588
32247000,0.0324,0.013523,0.002678,0.000431,0.000470
32248000,0.0324,0.013523,0.002678,0.000431,0.000705
32249000,0.0324,0.013523,0.002678,0.000431,0.000353
32250000,0.0324,0.013523,0.002678,0.000431,0.000588
32251000,0.0324,0.013523,0.002678,0.000431,0.000353
32252000,0.0324,0.013523,0.002678,0.000431,0.000470
32253000,0.0324,0.013523,0.002678,0.000431,0.000470
32254000,0.0324,0.013523,0.002678,0.000431,0.000470
32255000,0.0324,0.013523,0.002678,0.000431,0.000470
32256000,0.0324,0.013523,0.002678,0.000431,0.000588
32257000,0.0324,0.013523,0.002678,0.000431,0.000470
32258000,0.0324,0.013523,0.002678,0.000431,0.000588
32259000,0.0324,0.013523,0.002678,0.000431,0.000353
32260000,0.0324,0.013523,0.002678,0.000431,0.000588
32261000,0.0324,0.013523,0.002678,0.000431,0.000353
32262000,0.0324,0.013523,0.002678,0.000431,0.000588
32263000,0.0324,0.013523,0.002678,0.000431,0.000470
32264000,0.0324,0.013523,0.002678,0.000431,0.000470
32265000,0.0324,0.013523,0.002678,0.000431,0.000470
32266000,0.0324,0.013523,0.002678,0.000431,0.000470
32267000,0.0324,0.013523,0.002678,0.000431,0.000470
32268000,0.0324,0.013523,0.002678,0.000431,0.000470
32269000,0.0324,0.013523,0.002678,0.000431,0.000470
32270000,0.0324,0.013523,0.002678,0.000431,0.000470
32271000,0.0324,0.013523,0.002678,0.000431,0.000470
32272000,0.0324,0.013523,0.002678,0.000431,0.000470
32273000,0.0324,0.013523,0.002678,0.000431,0.000470
32274000,0.0324,0.013523,0.002678,0.000431,0.000353
32275000,0.0324,0.013523,0.002678,0.000431,0.000588
32276000,0.0324,0.013523,0.002678,0.000431,0.000353
32277000,0.0324,0.013523,0.002678,0.000431,0.000588
32278000,0.0324,0.013523,0.002678,0.000431,0.000353
32279000,0.0324,0.013523,0.002678,0.000431,0.000588
32280000,0.0324,0.013523,0.002678,0.000431,0.000353
32281000,0.0324,0.013523,0.002678,0.000431,0.000588
32282000,0.0324,0.013523,0.002678,0.000431,0.000353
32283000,0.0324,0.013523,0.002678,0.000431,0.000588
32284000,0.0324,0.013523,0.002678,0.000431,0.000353
32285000,0.0324,0.013523,0.002678,0.000431,0.000588
32286000,0.0324,0.013523,0.002678,0.000431,0.000353
32287000,0.0324,0.013523,0.002678,0.000431,0.000588
32288000,0.0324,0.013523,0.002678,0.000431,0.000470
32289000,0.0324,0.013523,0.002678,0.000431,0.000470
32290000,0.0324,0.013523,0.002678,0.000431,0.000353
32291000,0.0324,0.013523,0.002678,0.000431,0.000588
32292000,0.0324,0.013523,0.002678,0.000431,0.000353
32293000,0.0324,0.013523,0.002678,0.000431,0.000470
32294000,0.0324,0.013523,0.002678,0.000431,0.000470
32295000,0.0324,0.013523,0.002678,0.000431,0.000470
32296000,0.0324,0.013523,0.002678,0.000431,0.000588
32297000,0.0324,0.013523,0.002678,0.000431,0.000588
32298000,0.0324,0.013523,0.002678,0.000431,0.000470
32299000,0.0324,0.013523,0.002678,0.000431,0.000588
32300000,0.0324,0.013523,0.002678,0.000431,0.000353
32301000,0.0324,0.013523,0.002678,0.000431,0.000705
32302000,0.0324,0.013523,0.002678,0.000431,0.000353
32303000,0.0324,0.013523,0.002678,0.000431,0.000705
32304000,0.0324,0.013523,0.002678,0.000431,0.000470
32305000,0.0324,0.013523,0.002678,0.000431,0.000353
32306000,0.0324,0.013523,0.002678,0.000431,0.000588
32307000,0.0324,0.013523,0.002678,0.000431,0.000470
32308000,0.0324,0.013523,0.002678,0.000431,0.000470
32309000,0.0324,0.013523,0.002678,0.000431,0.000470
32310000,0.0324,0.013523,0.002678,0.000431,0.000470
32311000,0.0324,0.013523,0.002678,0.000431,0.000470
32312000,0.0324,0.013523,0.002678,0.000431,0.000470
32313000,0.0324,0.013523,0.002678,0.000431,0.000470
32314000,0.0324,0.013523,0.002678,0.000431,0.000470
32315000,0.0324,0.013523,0.002678,0.000431,0.000470
32316000,0.0324,0.013523,0.002678,0.000431,0.000470
32317000,0.0324,0.013523,0.002678,0.000431,0.000470
32318000,0.0324,0.013523,0.002678,0.000431,0.000353
32319000,0.0324,0.013523,0.002678,0.000431,0.000588
32320000,0.0324,0.013523,0.002678,0.000431,0.000353
32321000,0.0324,0.013523,0.002678,0.000431,0.000588
32322000,0.0324,0.013523,0.002678,0.000431,0.000353
32323000,0.0324,0.013523,0.002678,0.000431,0.000705
32324000,0.0324,0.013523,0.002678,0.000431,0.000353
32325000,0.0324,0.013523,0.002678,0.000431,0.000588
32326000,0.0324,0.013523,0.002678,0.000431,0.000353
32327000,0.0324,0.013523,0.002678,0.000431,0.000588
32328000,0.0324,0.013523,0.002678,0.000431,0.000353
32329000,0.0324,0.013523,0.002678,0.000431,0.000588
32330000,0.0324,0.013523,0.002678,0.000431,0.000353
32331000,0.0324,0.013523,0.002678,0.000431,0.000588
32332000,0.0324,0.013523,0.002678,0.000431,0.000353
32333000,0.0324,0.013523,0.002678,0.000431,0.000588
32334000,0.0324,0.013523,0.002678,0.000431,0.000353
32335000,0.0324,0.013523,0.002678,0.000431,0.000705
32336000,0.0324,0.013523,0.002678,0.000431,0.000470
32337000,0.0324,0.013523,0.002678,0.000431,0.000470
32338000,0.0324,0.013523,0.002678,0.000431,0.000470
32339000,0.0324,0.013523,0.002678,0.000431,0.000470
32340000,0.0324,0.013523,0.002678,0.000431,0.000470
32341000,0.0324,0.013523,0.002678,0.000431,0.000470
32342000,0.0324,0.013523,0.002678,0.000431,0.000470
32343000,0.0324,0.013523,0.002678,0.000431,0.000470
32344000,0.0324,0.013523,0.002678,0.000431,0.000353
32345000,0.0324,0.013523,0.002678,0.000431,0.000588
32346000,0.0324,0.013523,0.002678,0.000431,0.000353
32347000,0.0324,0.013523,0.002678,0.000431,0.000705
32348000,0.0324,0.013523,0.002678,0.000431,0.000353
32349000,0.0324,0.013523,0.002678,0.000431,0.000705
32350000,0.0324,0.013523,0.002678,0.000431,0.000588
32351000,0.0324,0.013523,0.002678,0.000431,0.000470
32352000,0.0324,0.013523,0.002678,0.000431,0.000705
32353000,0.0324,0.013523,0.002678,0.000431,0.000353
32354000,0.0324,0.013523,0.002678,0.000431,0.000705
32355000,0.0324,0.013523,0.002678,0.000431,0.000470
32356000,0.0324,0.013523,0.002678,0.000431,0.000353
32357000,0.0324,0.013523,0.002678,0.000431,0.000588
32358000,0.0324,0.013523,0.002678,0.000431,0.000353
32359000,0.0324,0.013523,0.002678,0.000431,0.000470
32360000,0.0324,0.013523,0.002678,0.000431,0.000588
32361000,0.0324,0.013523,0.002678,0.000431,0.000588
32362000,0.0324,0.013523,0.002678,0.000431,0.000470
32363000,0.0324,0.013523,0.002678,0.000431,0.000588
32364000,0.0324,0.013523,0.002678,0.000431,0.000353
32365000,0.0324,0.013523,0.002678,0.000431,0.000588
32366000,0.0324,0.013523,0.002678,0.000431,0.000353
32367000,0.0324,0.013523,0.002678,0.000431,0.000588
32368000,0.0324,0.013523,0.002678,0.000431,0.000353
32369000,0.0324,0.013523,0.002678,0.000431,0.000588
32370000,0.0324,0.013523,0.002678,0.000431,0.000353
32371000,0.0324,0.013523,0.002678,0.000431,0.000588
32372000,0.0324,0.013523,0.002678,0.000431,0.000353
32373000,0.0324,0.013523,0.002678,0.000431,0.000705
32374000,0.0324,0.013523,0.002678,0.000431,0.000353
32375000,0.0324,0.013523,0.002678,0.000431,0.000588
32376000,0.0324,0.013523,0.002678,0.000431,0.000353
32377000,0.0324,0.013523,0.002678,0.000431,0.000588
32378000,0.0324,0.013523,0.002678,0.000431,0.000353
32379000,0.0324,0.013523,0.002678,0.000431,0.000588
32380000,0.0324,0.013523,0.002678,0.000431,0.000353
32381000,0.0324,0.013523,0.002678,0.000431,0.000588
32382000,0.0324,0.013523,0.002678,0.000431,0.000353
32383000,0.0324,0.013523,0.002678,0.000431,0.000588
32384000,0.0324,0.013523,0.002678,0.000431,0.000353
32385000,0.0324,0.013523,0.002678,0.000431,0.000470
32386000,0.0324,0.013523,0.002678,0.000431,0.000470
32387000,0.0324,0.013523,0.002678,0.000431,0.000470
32388000,0.0324,0.013523,0.002678,0.000431,0.000470
32389000,0.0324,0.013523,0.002678,0.000431,0.000470
32390000,0.0324,0.013523,0.002678,0.000431,0.000470
32391000,0.0324,0.013523,0.002678,0.000431,0.000470
32392000,0.0324,0.013523,0.002678,0.000431,0.000470
32393000,0.0324,0.013523,0.002678,0.000431,0.000470
32394000,0.0324,0.013523,0.002678,0.000431,0.000470
32395000,0.0324,0.013523,0.002678,0.000431,0.000470
32396000,0.0324,0.013523,0.002678,0.000431,0.000470
32397000,0.0324,0.013523,0.002678,0.000431,0.000588
32398000,0.0324,0.013523,0.002678,0.000431,0.000470
32399000,0.0324,0.013523,0.002678,0.000431,0.000705
32400000,0.0324,0.013523,0.002678,0.000431,0.000353
32401000,0.0324,0.013523,0.002678,0.000431,0.000705
32402000,0.0324,0.013523,0.002678,0.000431,0.000470
32403000,0.0324,0.013523,0.002678,0.000431,0.000470
32404000,0.0324,0.013523,0.002678,0.000431,0.000470
32405000,0.0324,0.013523,0.002678,0.000431,0.000470
32406000,0.0324,0.013523,0.002678,0.000431,0.000470
32407000,0.0324,0.013523,0.002678,0.000431,0.000470
32408000,0.0324,0.013523,0.002678,0.000431,0.000353
32409000,0.0324,0.013523,0.002678,0.000431,0.000588
32410000,0.0324,0.013523,0.002678,0.000431,0.000353
32411000,0.0324,0.013523,0.002678,0.000431,0.000470
32412000,0.0324,0.013523,0.002678,0.000431,0.000353
32413000,0.0324,0.013523,0.002678,0.000431,0.000588
32414000,0.0324,0.013523,0.002678,0.000431,0.000353
32415000,0.0324,0.013523,0.002678,0.000431,0.000588
32416000,0.0324,0.013523,0.002678,0.000431,0.000353
32417000,0.0324,0.013523,0.002678,0.000431,0.000705
32418000,0.0324,0.013523,0.002678,0.000431,0.000353
32419000,0.0324,0.013523,0.002678,0.000431,0.000588
32420000,0.0324,0.013523,0.002678,0.000431,0.000353
32421000,0.0324,0.013523,0.002678,0.000431,0.000470
32422000,0.0324,0.013523,0.002678,0.000431,0.000353
32423000,0.0324,0.013523,0.002678,0.000431,0.000588
32424000,0.0324,0.013523,0.002678,0.000431,0.000353
32425000,0.0324,0.013523,0.002678,0.000431,0.000588
32426000,0.0324,0.013523,0.002678,0.000431,0.000470
32427000,0.0324,0.013523,0.002678,0.000431,0.000588
32428000,0.0324,0.013523,0.002678,0.000431,0.000235
32429000,0.0324,0.013523,0.002678,0.000431,0.000823
32430000,0.0324,0.013523,0.002678,0.000431,0.000353
32431000,0.0324,0.013523,0.002678,0.000431,0.000588
32432000,0.0324,0.013523,0.002678,0.000431,0.000470
32433000,0.0324,0.013523,0.002678,0.000431,0.000588
32434000,0.0324,0.013523,0.002678,0.000431,0.000588
32435000,0.0324,0.013523,0.002678,0.000431,0.000470
32436000,0.0324,0.013523,0.002678,0.000431,0.000705
32437000,0.0324,0.013523,0.002678,0.000431,0.000353
32438000,0.0324,0.013523,0.002678,0.000431,0.000705
32439000,0.0324,0.013523,0.002678,0.000431,0.000588
32440000,0.0324,0.013523,0.002678,0.000431,0.000470
32441000,0.0324,0.013523,0.002678,0.000431,0.000705
32442000,0.0324,0.013523,0.002678,0.000431,0.000353
32443000,0.0324,0.013523,0.002678,0.000431,0.000705
32444000,0.0324,0.013523,0.002678,0.000431,0.000470
32445000,0.0324,0.013523,0.002678,0.000431,0.000470
32446000,0.0324,0.013523,0.002678,0.000431,0.000353
32447000,0.0324,0.013523,0.002678,0.000431,0.000588
32448000,0.0324,0.013523,0.002678,0.000431,0.000353
32449000,0.0324,0.013523,0.002678,0.000431,0.000470
32450000,0.0324,0.013523,0.002678,0.000431,0.000470
32451000,0.0324,0.013523,0.002678,0.000431,0.000588
32452000,0.0324,0.013523,0.002678,0.000431,0.000353
32453000,0.0324,0.013523,0.002678,0.000431,0.000588
32454000,0.0324,0.013523,0.002678,0.000431,0.000353
32455000,0.0324,0.013523,0.002678,0.000431,0.000705
32456000,0.0324,0.013523,0.002678,0.000431,0.000353
32457000,0.0324,0.013523,0.002678,0.000431,0.000588
32458000,0.0324,0.013523,0.002678,0.000431,0.000353
32459000,0.0324,0.013523,0.002678,0.000431,0.000588
32460000,0.0324,0.013523,0.002678,0.000431,0.000353
32461000,0.0324,0.013523,0.002678,0.000431,0.000705
32462000,0.0324,0.013523,0.002678,0.000431,0.000588
32463000,0.0324,0.013523,0.002678,0.000431,0.000470
32464000,0.0324,0.013523,0.002678,0.000431,0.000588
32465000,0.0324,0.013523,0.002678,0.000431,0.000353
32466000,0.0324,0.013523,0.002678,0.000431,0.000588
32467000,0.0324,0.013523,0.002678,0.000431,0.000353
32468000,0.0324,0.013523,0.002678,0.000431,0.000470
32469000,0.0324,0.013523,0.002678,0.000431,0.000470
32470000,0.0324,0.013523,0.002678,0.000431,0.000470
32471000,0.0324,0.013523,0.002678,0.000431,0.000470
32472000,0.0324,0.013523,0.002678,0.000431,0.000353
32473000,0.0324,0.013523,0.002678,0.000431,0.000588
32474000,0.0324,0.013523,0.002678,0.000431,0.000470
32475000,0.0324,0.013523,0.002678,0.000431,0.000705
32476000,0.0324,0.013523,0.002678,0.000431,0.000353
32477000,0.0324,0.013523,0.002678,0.000431,0.000705
32478000,0.0324,0.013523,0.002678,0.000431,0.000353
32479000,0.0324,0.013523,0.002678,0.000431,0.000588
32480000,0.0324,0.013523,0.002678,0.000431,0.000353
32481000,0.0324,0.013523,0.002678,0.000431,0.000588
32482000,0.0324,0.013523,0.002678,0.000431,0.000235
32483000,0.0324,0.013523,0.002678,0.000431,0.000588
32484000,0.0324,0.013523,0.002678,0.000431,0.000470
32485000,0.0324,0.013523,0.002678,0.000431,0.000588
32486000,0.0324,0.013523,0.002678,0.000431,0.000353
32487000,0.0324,0.013523,0.002678,0.000431,0.000588
32488000,0.0324,0.013523,0.002678,0.000431,0.000353
32489000,0.0324,0.013523,0.002678,0.000431,0.000588
32490000,0.0324,0.013523,0.002678,0.000431,0.000353
32491000,0.0324,0.013523,0.002678,0.000431,0.000588
32492000,0.0324,0.013523,0.002678,0.000431,0.000353
32493000,0.0324,0.013523,0.002678,0.000431,0.000705
32494000,0.0324,0.013523,0.002678,0.000431,0.000470
32495000,0.0324,0.013523,0.002678,0.000431,0.000705
32496000,0.0324,0.013523,0.002678,0.000431,0.000353
32497000,0.0324,0.013523,0.002678,0.000431,0.000588
32498000,0.0324,0.013523,0.002678,0.000431,0.000353
32499000,0.0324,0.013523,0.002678,0.000431,0.000588
32500000,0.0324,0.013523,0.002678,0.000431,0.000353
32501000,0.0324,0.013523,0.002678,0.000431,0.000470
32502000,0.0324,0.013523,0.002678,0.000431,0.000470
32503000,0.0324,0.013523,0.002678,0.000431,0.000470
32504000,0.0324,0.013523,0.002678,0.000431,0.000470
32505000,0.0324,0.013523,0.002678,0.000431,0.000588
32506000,0.0324,0.013523,0.002678,0.000431,0.000470
32507000,0.0324,0.013523,0.002678,0.000431,0.000588
32508000,0.0324,0.013523,0.002678,0.000431,0.000353
32509000,0.0324,0.013523,0.002678,0.000431,0.000588
32510000,0.0324,0.013523,0.002678,0.000431,0.000353
32511000,0.0324,0.013523,0.002678,0.000431,0.000588
32512000,0.0324,0.013523,0.002678,0.000431,0.000353
32513000,0.0324,0.013523,0.002678,0.000431,0.000588
32514000,0.0324,0.013523,0.002678,0.000431,0.000353
32515000,0.0324,0.013523,0.002678,0.000431,0.000588
32516000,0.0324,0.013523,0.002678,0.000431,0.000353
32517000,0.0324,0.013523,0.002678,0.000431,0.000588
32518000,0.0324,0.013523,0.002678,0.000431,0.000353
32519000,0.0324,0.013523,0.002678,0.000431,0.000588
32520000,0.0324,0.013523,0.002678,0.000431,0.000353
32521000,0.0324,0.013523,0.002678,0.000431,0.000588
32522000,0.0324,0.013523,0.002678,0.000431,0.000353
32523000,0.0324,0.013523,0.002678,0.000431,0.000470
32524000,0.0324,0.013523,0.002678,0.000431,0.000470
32525000,0.0324,0.013523,0.002678,0.000431,0.000470
32526000,0.0324,0.013523,0.002678,0.000431,0.000470
32527000,0.0324,0.013523,0.002678,0.000431,0.000470
32528000,0.0324,0.013523,0.002678,0.000431,0.000470
32529000,0.0324,0.013523,0.002678,0.000431,0.000353
32530000,0.0324,0.013523,0.002678,0.000431,0.000588
32531000,0.0324,0.013523,0.002678,0.000431,0.000353
32532000,0.0324,0.013523,0.002678,0.000431,0.000588
32533000,0.0324,0.013523,0.002678,0.000431,0.000353
32534000,0.0324,0.013523,0.002678,0.000431,0.000705
32535000,0.0324,0.013523,0.002678,0.000431,0.000588
32536000,0.0324,0.013523,0.002678,0.000431,0.000470
32537000,0.0324,0.013523,0.002678,0.000431,0.000705
32538000,0.0324,0.013523,0.002678,0.000431,0.000353
32539000,0.0324,0.013523,0.002678,0.000431,0.000705
32540000,0.0324,0.013523,0.002678,0.000431,0.000470
32541000,0.0324,0.013523,0.002678,0.000431,0.000470
32542000,0.0324,0.013523,0.002678,0.000431,0.000470
32543000,0.0324,0.013523,0.002678,0.000431,0.000470
32544000,0.0324,0.013523,0.002678,0.000431,0.000470
32545000,0.0324,0.013523,0.002678,0.000431,0.000470
32546000,0.0324,0.013523,0.002678,0.000431,0.000470
32547000,0.0324,0.013523,0.002678,0.000431,0.000470
32548000,0.0324,0.013523,0.002678,0.000431,0.000353
32549000,0.0324,0.013523,0.002678,0.000431,0.000588
32550000,0.0324,0.013523,0.002678,0.000431,0.000353
32551000,0.0324,0.013523,0.002678,0.000431,0.000588
32552000,0.0324,0.013523,0.002678,0.000431,0.000353
32553000,0.0324,0.013523,0.002678,0.000431,0.000588
32554000,0.0324,0.013523,0.002678,0.000431,0.000353
32555000,0.0324,0.013523,0.002678,0.000431,0.000705
32556000,0.0324,0.013523,0.002678,0.000431,0.000353
32557000,0.0324,0.013523,0.002678,0.000431,0.000705
32558000,0.0324,0.013523,0.002678,0.000431,0.000588
32559000,0.0324,0.013523,0.002678,0.000431,0.000470
32560000,0.0324,0.013523,0.002678,0.000431,0.000705
32561000,0.0324,0.013523,0.002678,0.000431,0.000353
32562000,0.0324,0.013523,0.002678,0.000431,0.000705
32563000,0.0324,0.013523,0.002678,0.000431,0.000470
32564000,0.0324,0.013523,0.002678,0.000431,0.000470
32565000,0.0324,0.013523,0.002678,0.000431,0.000470
32566000,0.0324,0.013523,0.002678,0.000431,0.000470
32567000,0.0324,0.013523,0.002678,0.000431,0.000353
32568000,0.0324,0.013523,0.002678,0.000431,0.000588
32569000,0.0324,0.013523,0.002678,0.000431,0.000353
32570000,0.0324,0.013523,0.002678,0.000431,0.000588
32571000,0.0324,0.013523,0.002678,0.000431,0.000353
32572000,0.0324,0.013523,0.002678,0.000431,0.000588
32573000,0.0324,0.013523,0.002678,0.000431,0.000353
32574000,0.0324,0.013523,0.002678,0.000431,0.000588
32575000,0.0324,0.013523,0.002678,0.000431,0.000353
32576000,0.0324,0.013523,0.002678,0.000431,0.000588
32577000,0.0324,0.013523,0.002678,0.000431,0.000353
32578000,0.0324,0.013523,0.002678,0.000431,0.000705
32579000,0.0324,0.013523,0.002678,0.000431,0.000353
32580000,0.0324,0.013523,0.002678,0.000431,0.000588
32581000,0.0324,0.013523,0.002678,0.000431,0.000353
32582000,0.0324,0.013523,0.002678,0.000431,0.000588
32583000,0.0324,0.013523,0.002678,0.000431,0.000353
32584000,0.0324,0.013523,0.002678,0.000431,0.000588
32585000,0.0324,0.013523,0.002678,0.000431,0.000353
32586000,0.0324,0.013523,0.002678,0.000431,0.000588
32587000,0.0324,0.013523,0.002678,0.000431,0.000353
32588000,0.0324,0.013523,0.002678,0.000431,0.000588
32589000,0.0324,0.013523,0.002678,0.000431,0.000470
32590000,0.0324,0.013523,0.002678,0.000431,0.000705
32591000,0.0324,0.013523,0.002678,0.000431,0.000353
32592000,0.0324,0.013523,0.002678,0.000431,0.000588
32593000,0.0324,0.013523,0.002678,0.000431,0.000470
32594000,0.0324,0.013523,0.002678,0.000431,0.000588
32595000,0.0324,0.013523,0.002678,0.000431,0.000235
32596000,0.0324,0.013523,0.002678,0.000431,0.000588
32597000,0.0324,0.013523,0.002678,0.000431,0.000353
32598000,0.0324,0.013523,0.002678,0.000431,0.000705
32599000,0.0324,0.013523,0.002678,0.000431,0.000353
32600000,0.0324,0.013523,0.002678,0.000431,0.000588
32601000,0.0324,0.013523,0.002678,0.000431,0.000353
32602000,0.0324,0.013523,0.002678,0.000431,0.000588
32603000,0.0324,0.013523,0.002678,0.000431,0.000235
32604000,0.0324,0.013523,0.002678,0.000431,0.000588
32605000,0.0324,0.013523,0.002678,0.000431,0.000353
32606000,0.0324,0.013523,0.002678,0.000431,0.000588
32607000,0.0324,0.013523,0.002678,0.000431,0.000470
32608000,0.0324,0.013523,0.002678,0.000431,0.000705
32609000,0.0324,0.013523,0.002678,0.000431,0.000353
32610000,0.0324,0.013523,0.002678,0.000431,0.000705
32611000,0.0324,0.013523,0.002678,0.000431,0.000588
32612000,0.0324,0.013523,0.002678,0.000431,0.000470
32613000,0.0324,0.013523,0.002678,0.000431,0.000588
32614000,0.0324,0.013523,0.002678,0.000431,0.000353
32615000,0.0324,0.013523,0.002678,0.000431,0.000588
32616000,0.0324,0.013523,0.002678,0.000431,0.000470
32617000,0.0324,0.013523,0.002678,0.000431,0.000470
32618000,0.0324,0.013523,0.002678,0.000431,0.000470
32619000,0.0324,0.013523,0.002678,0.000431,0.000470
32620000,0.0324,0.013523,0.002678,0.000431,0.000470
32621000,0.0324,0.013523,0.002678,0.000431,0.000588
32622000,0.0324,0.013523,0.002678,0.000431,0.000470
32623000,0.0324,0.013523,0.002678,0.000431,0.000588
32624000,0.0324,0.013523,0.002678,0.000431,0.000353
32625000,0.0324,0.013523,0.002678,0.000431,0.000588
32626000,0.0324,0.013523,0.002678,0.000431,0.000353
32627000,0.0324,0.013523,0.002678,0.000431,0.000588
32628000,0.0324,0.013523,0.002678,0.000431,0.000353
32629000,0.0324,0.013523,0.002678,0.000431,0.000588
32630000,0.0324,0.013523,0.002678,0.000431,0.000353
32631000,0.0324,0.013523,0.002678,0.000431,0.000588
32632000,0.0324,0.013523,0.002678,0.000431,0.000353
32633000,0.0324,0.013523,0.002678,0.000431,0.000588
32634000,0.0324,0.013523,0.002678,0.000431,0.000353
32635000,0.0324,0.013523,0.002678,0.000431,0.000588
32636000,0.0324,0.013523,0.002678,0.000431,0.000353
32637000,0.0324,0.013523,0.002678,0.000431,0.000588
32638000,0.0324,0.013523,0.002678,0.000431,0.000353
32639000,0.0324,0.013523,0.002678,0.000431,0.000470
32640000,0.0324,0.013523,0.002678,0.000431,0.000470
32641000,0.0324,0.013523,0.002678,0.000431,0.000470
32642000,0.0324,0.013523,0.002678,0.000431,0.000470
32643000,0.0324,0.013523,0.002678,0.000431,0.000470
32644000,0.0324,0.013523,0.002678,0.000431,0.000470
32645000,0.0324,0.013523,0.002678,0.000431,0.000353
32646000,0.0324,0.013523,0.002678,0.000431,0.000588
32647000,0.0324,0.013523,0.002678,0.000431,0.000353
32648000,0.0324,0.013523,0.002678,0.000431,0.000470
32649000,0.0324,0.013523,0.002678,0.000431,0.000470
32650000,0.0324,0.013523,0.002678,0.000431,0.000470
32651000,0.0324,0.013523,0.002678,0.000431,0.000470
32652000,0.0324,0.013523,0.002678,0.000431,0.000588
32653000,0.0324,0.013523,0.002678,0.000431,0.000353
32654000,0.0324,0.013523,0.002678,0.000431,0.000705
32655000,0.0324,0.013523,0.002678,0.000431,0.000588
32656000,0.0324,0.013523,0.002678,0.000431,0.000470
32657000,0.0324,0.013523,0.002678,0.000431,0.000705
32658000,0.0324,0.013523,0.002678,0.000431,0.000353
32659000,0.0324,0.013523,0.002678,0.000431,0.000588
32660000,0.0324,0.013523,0.002678,0.000431,0.000470
32661000,0.0324,0.013523,0.002678,0.000431,0.000705
32662000,0.0324,0.013523,0.002678,0.000431,0.000470
32663000,0.0324,0.013523,0.002678,0.000431,0.000470
32664000,0.0324,0.013523,0.002678,0.000431,0.000353
32665000,0.0324,0.013523,0.002678,0.000431,0.000588
32666000,0.0324,0.013523,0.002678,0.000431,0.000353
32667000,0.0324,0.013523,0.002678,0.000431,0.000470
32668000,0.0324,0.013523,0.002678,0.000431,0.000470
32669000,0.0324,0.013523,0.002678,0.000431,0.000588
32670000,0.0324,0.013523,0.002678,0.000431,0.000353
32671000,0.0324,0.013523,0.002678,0.000431,0.000588
32672000,0.0324,0.013523,0.002678,0.000431,0.000353
32673000,0.0324,0.013523,0.002678,0.000431,0.000588
32674000,0.0324,0.013523,0.002678,0.000431,0.000353
32675000,0.0324,0.013523,0.002678,0.000431,0.000588
32676000,0.0324,0.013523,0.002678,0.000431,0.000353
32677000,0.0324,0.013523,0.002678,0.000431,0.000588
32678000,0.0324,0.013523,0.002678,0.000431,0.000353
32679000,0.0324,0.013523,0.002678,0.000431,0.000588
32680000,0.0324,0.013523,0.002678,0.000431,0.000353
32681000,0.0324,0.013523,0.002678,0.000431,0.000705
32682000,0.0324,0.013523,0.002678,0.000431,0.000353
32683000,0.0324,0.013523,0.002678,0.000431,0.000470
32684000,0.0324,0.013523,0.002678,0.000431,0.000353
32685000,0.0324,0.013523,0.002678,0.000431,0.000588
32686000,0.0324,0.013523,0.002678,0.000431,0.000353
32687000,0.0324,0.013523,0.002678,0.000431,0.000588
32688000,0.0324,0.013523,0.002678,0.000431,0.000353
32689000,0.0324,0.013523,0.002678,0.000431,0.000823
32690000,0.0324,0.013523,0.002678,0.000431,0.000353
32691000,0.0324,0.013523,0.002678,0.000431,0.000470
32692000,0.0324,0.013523,0.002678,0.000431,0.000353
32693000,0.0324,0.013523,0.002678,0.000431,0.000588
32694000,0.0324,0.013523,0.002678,0.000431,0.000470
32695000,0.0324,0.013523,0.002678,0.000431,0.000470
32696000,0.0324,0.013523,0.002678,0.000431,0.000470
32697000,0.0324,0.013523,0.002678,0.000431,0.000470
32698000,0.0324,0.013523,0.002678,0.000431,0.000470
32699000,0.0324,0.013523,0.002678,0.000431,0.000470
32700000,0.0324,0.013523,0.002678,0.000431,0.000470
32701000,0.0324,0.013523,0.002678,0.000431,0.000470
32702000,0.0324,0.013523,0.002678,0.000431,0.000470
32703000,0.0324,0.013523,0.002678,0.000431,0.000588
32704000,0.0324,0.013523,0.002678,0.000431,0.000470
32705000,0.0324,0.013523,0.002678,0.000431,0.000705
32706000,0.0324,0.013523,0.002678,0.000431,0.000353
32707000,0.0324,0.013523,0.002678,0.000431,0.000705
32708000,0.0324,0.013523,0.002678,0.000431,0.000470
32709000,0.0324,0.013523,0.002678,0.000431,0.000470
32710000,0.0324,0.013523,0.002678,0.000431,0.000470
32711000,0.0324,0.013523,0.002678,0.000431,0.000470
32712000,0.0324,0.013523,0.002678,0.000431,0.000470
32713000,0.0324,0.013523,0.002678,0.000431,0.000470
32714000,0.0324,0.013523,0.002678,0.000431,0.000470
32715000,0.0324,0.013523,0.002678,0.000431,0.000470
32716000,0.0324,0.013523,0.002678,0.000431,0.000353
32717000,0.0324,0.013523,0.002678,0.000431,0.000588
32718000,0.0324,0.013523,0.002678,0.000431,0.000353
32719000,0.0324,0.013523,0.002678,0.000431,0.000588
32720000,0.0324,0.013523,0.002678,0.000431,0.000353
32721000,0.0324,0.013523,0.002678,0.000431,0.000588
32722000,0.0324,0.013523,0.002678,0.000431,0.000470
32723000,0.0324,0.013523,0.002678,0.000431,0.000470
32724000,0.0324,0.013523,0.002678,0.000431,0.000470
32725000,0.0324,0.013523,0.002678,0.000431,0.000588
32726000,0.0324,0.013523,0.002678,0.000431,0.000470
32727000,0.0324,0.013523,0.002678,0.000431,0.000705
32728000,0.0324,0.013523,0.002678,0.000431,0.000353
32729000,0.0324,0.013523,0.002678,0.000431,0.000705
32730000,0.0324,0.013523,0.002678,0.000431,0.000470
32731000,0.0324,0.013523,0.002678,0.000431,0.000470
32732000,0.0324,0.013523,0.002678,0.000431,0.000470
32733000,0.0324,0.013523,0.002678,0.000431,0.000470
32734000,0.0324,0.013523,0.002678,0.000431,0.000470
32735000,0.0324,0.013523,0.002678,0.000431,0.000470
32736000,0.0324,0.013523,0.002678,0.000431,0.000470
32737000,0.0324,0.013523,0.002678,0.000431,0.000470
32738000,0.0324,0.013523,0.002678,0.000431,0.000470
32739000,0.0324,0.013523,0.002678,0.000431,0.000470
32740000,0.0324,0.013523,0.002678,0.000431,0.000470
32741000,0.0324,0.013523,0.002678,0.000431,0.000470
32742000,0.0324,0.013523,0.002678,0.000431,0.000353
32743000,0.0324,0.013523,0.002678,0.000431,0.000705
32744000,0.0324,0.013523,0.002678,0.000431,0.000353
32745000,0.0324,0.013523,0.002678,0.000431,0.000705
32746000,0.0324,0.013523,0.002678,0.000431,0.000588
32747000,0.0324,0.013523,0.002678,0.000431,0.000470
32748000,0.0324,0.013523,0.002678,0.000431,0.000588
32749000,0.0324,0.013523,0.002678,0.000431,0.000353
32750000,0.0324,0.013523,0.002678,0.000431,0.000588
32751000,0.0324,0.013523,0.002678,0.000431,0.000353
32752000,0.0324,0.013523,0.002678,0.000431,0.000588
32753000,0.0324,0.013523,0.002678,0.000431,0.000470
32754000,0.0324,0.013523,0.002678,0.000431,0.000470
32755000,0.0324,0.013523,0.002678,0.000431,0.000353
32756000,0.0324,0.013523,0.002678,0.000431,0.000705
32757000,0.0324,0.013523,0.002678,0.000431,0.000470
32758000,0.0324,0.013523,0.002678,0.000431,0.000588
32759000,0.0324,0.013523,0.002678,0.000431,0.000353
32760000,0.0324,0.013523,0.002678,0.000431,0.000588
32761000,0.0324,0.013523,0.002678,0.000431,0.000353
32762000,0.0324,0.013523,0.002678,0.000431,0.000470
32763000,0.0324,0.013523,0.002678,0.000431,0.000470
32764000,0.0324,0.013523,0.002678,0.000431,0.000588
32765000,0.0324,0.013523,0.002678,0.000431,0.000353
32766000,0.0324,0.013523,0.002678,0.000431,0.000588
32767000,0.0324,0.013523,0.002678,0.000431,0.000353
32768000,0.0324,0.013523,0.002678,0.000431,0.000588
32769000,0.0324,0.013523,0.002678,0.000431,0.000470
32770000,0.0324,0.013523,0.002678,0.000431,0.000470
32771000,0.0324,0.013523,0.002678,0.000431,0.000470
32772000,0.0324,0.013523,0.002678,0.000431,0.000470
32773000,0.0324,0.013523,0.002678,0.000431,0.000470
32774000,0.0324,0.013523,0.002678,0.000431,0.000470
32775000,0.0324,0.013523,0.002678,0.000431,0.000588
32776000,0.0324,0.013523,0.002678,0.000431,0.000353
32777000,0.0324,0.013523,0.002678,0.000431,0.000705
32778000,0.0324,0.013523,0.002678,0.000431,0.000470
32779000,0.0324,0.013523,0.002678,0.000431,0.000470
32780000,0.0324,0.013523,0.002678,0.000431,0.000470
32781000,0.0324,0.013523,0.002678,0.000431,0.000470
32782000,0.0324,0.013523,0.002678,0.000431,0.000470
32783000,0.0324,0.013523,0.002678,0.000431,0.000470
32784000,0.0324,0.013523,0.002678,0.000431,0.000470
32785000,0.0324,0.013523,0.002678,0.000431,0.000470
32786000,0.0324,0.013523,0.002678,0.000431,0.000470
32787000,0.0324,0.013523,0.002678,0.000431,0.000470
32788000,0.0324,0.013523,0.002678,0.000431,0.000470
32789000,0.0324,0.013523,0.002678,0.000431,0.000470
32790000,0.0324,0.013523,0.002678,0.000431,0.000470
32791000,0.0324,0.013523,0.002678,0.000431,0.000470
32792000,0.0324,0.013523,0.002678,0.000431,0.000470
32793000,0.0324,0.013523,0.002678,0.000431,0.000588
32794000,0.0324,0.013523,0.002678,0.000431,0.000470
32795000,0.0324,0.013523,0.002678,0.000431,0.000588
32796000,0.0324,0.013523,0.002678,0.000431,0.000235
32797000,0.0324,0.013523,0.002678,0.000431,0.000705
32798000,0.0324,0.013523,0.002678,0.000431,0.000470
32799000,0.0324,0.013523,0.002678,0.000431,0.000470
32800000,0.0324,0.013523,0.002678,0.000431,0.000470
32801000,0.0324,0.013523,0.002678,0.000431,0.000588
32802000,0.0324,0.013523,0.002678,0.000431,0.000353
32803000,0.0324,0.013523,0.002678,0.000431,0.000588
32804000,0.0324,0.013523,0.002678,0.000431,0.000353
32805000,0.0324,0.013523,0.002678,0.000431,0.000470
32806000,0.0324,0.013523,0.002678,0.000431,0.000470
32807000,0.0324,0.013523,0.002678,0.000431,0.000470
32808000,0.0324,0.013523,0.002678,0.000431,0.000470
32809000,0.0324,0.013523,0.002678,0.000431,0.000470
32810000,0.0324,0.013523,0.002678,0.000431,0.000470
32811000,0.0324,0.013523,0.002678,0.000431,0.000588
32812000,0.0324,0.013523,0.002678,0.000431,0.000353
32813000,0.0324,0.013523,0.002678,0.000431,0.000470
32814000,0.0324,0.013523,0.002678,0.000431,0.000470
32815000,0.0324,0.013523,0.002678,0.000431,0.000470
32816000,0.0324,0.013523,0.002678,0.000431,0.000470
32817000,0.0324,0.013523,0.002678,0.000431,0.000470
32818000,0.0324,0.013523,0.002678,0.000431,0.000470
32819000,0.0324,0.013523,0.002678,0.000431,0.000588
32820000,0.0324,0.013523,0.002678,0.000431,0.000353
32821000,0.0324,0.013523,0.002678,0.000431,0.000705
32822000,0.0324,0.013523,0.002678,0.000431,0.000588
32823000,0.0324,0.013523,0.002678,0.000431,0.000470
32824000,0.0324,0.013523,0.002678,0.000431,0.000588
32825000,0.0324,0.013523,0.002678,0.000431,0.000353
32826000,0.0324,0.013523,0.002678,0.000431,0.000588
32827000,0.0324,0.013523,0.002678,0.000431,0.000353
32828000,0.0324,0.013523,0.002678,0.000431,0.000588
32829000,0.0324,0.013523,0.002678,0.000431,0.000353
32830000,0.0324,0.013523,0.002678,0.000431,0.000588
32831000,0.0324,0.013523,0.002678,0.000431,0.000353
32832000,0.0324,0.013523,0.002678,0.000431,0.000588
32833000,0.0324,0.013523,0.002678,0.000431,0.000353
32834000,0.0324,0.013523,0.002678,0.000431,0.000588
32835000,0.0324,0.013523,0.002678,0.000431,0.000353
32836000,0.0324,0.013523,0.002678,0.000431,0.000588
32837000,0.0324,0.013523,0.002678,0.000431,0.000353
32838000,0.0324,0.013523,0.002678,0.000431,0.000588
32839000,0.0324,0.013523,0.002678,0.000431,0.000353
32840000,0.0324,0.013523,0.002678,0.000431,0.000470
32841000,0.0324,0.013523,0.002678,0.000431,0.000470
32842000,0.0324,0.013523,0.002678,0.000431,0.000470
32843000,0.0324,0.013523,0.002678,0.000431,0.000588
32844000,0.0324,0.013523,0.002678,0.000431,0.000588
32845000,0.0324,0.013523,0.002678,0.000431,0.000470
32846000,0.0324,0.013523,0.002678,0.000431,0.000353
32847000,0.0324,0.013523,0.002678,0.000431,0.000588
32848000,0.0324,0.013523,0.002678,0.000431,0.000353
32849000,0.0324,0.013523,0.002678,0.000431,0.000588
32850000,0.0324,0.013523,0.002678,0.000431,0.000353
32851000,0.0324,0.013523,0.002678,0.000431,0.000588
32852000,0.0324,0.013523,0.002678,0.000431,0.000353
32853000,0.0324,0.013523,0.002678,0.000431,0.000588
32854000,0.0324,0.013523,0.002678,0.000431,0.000353
32855000,0.0324,0.013523,0.002678,0.000431,0.000470
32856000,0.0324,0.013523,0.002678,0.000431,0.000470
32857000,0.0324,0.013523,0.002678,0.000431,0.000705
32858000,0.0324,0.013523,0.002678,0.000431,0.000470
32859000,0.0324,0.013523,0.002678,0.000431,0.000470
32860000,0.0324,0.013523,0.002678,0.000431,0.000470
32861000,0.0324,0.013523,0.002678,0.000431,0.000470
32862000,0.0324,0.013523,0.002678,0.000431,0.000470
32863000,0.0324,0.013523,0.002678,0.000431,0.000470
32864000,0.0324,0.013523,0.002678,0.000431,0.000470
32865000,0.0324,0.013523,0.002678,0.000431,0.000470
32866000,0.0324,0.013523,0.002678,0.000431,0.000470
32867000,0.0324,0.013523,0.002678,0.000431,0.000470
32868000,0.0324,0.013523,0.002678,0.000431,0.000470
32869000,0.0324,0.013523,0.002678,0.000431,0.000470
32870000,0.0324,0.013523,0.002678,0.000431,0.000353
32871000,0.0324,0.013523,0.002678,0.000431,0.000588
32872000,0.0324,0.013523,0.002678,0.000431,0.000353
32873000,0.0324,0.013523,0.002678,0.000431,0.000705
32874000,0.0324,0.013523,0.002678,0.000431,0.000353
32875000,0.0324,0.013523,0.002678,0.000431,0.000823
32876000,0.0324,0.013523,0.002678,0.000431,0.000353
32877000,0.0324,0.013523,0.002678,0.000431,0.000588
32878000,0.0324,0.013523,0.002678,0.000431,0.000353
32879000,0.0324,0.013523,0.002678,0.000431,0.000588
32880000,0.0324,0.013523,0.002678,0.000431,0.000353
32881000,0.0324,0.013523,0.002678,0.000431,0.000588
32882000,0.0324,0.013523,0.002678,0.000431,0.000353
32883000,0.0324,0.013523,0.002678,0.000431,0.000588
32884000,0.0324,0.013523,0.002678,0.000431,0.000353
32885000,0.0324,0.013523,0.002678,0.000431,0.000588
32886000,0.0324,0.013523,0.002678,0.000431,0.000353
32887000,0.0324,0.013523,0.002678,0.000431,0.000705
32888000,0.0324,0.013523,0.002678,0.000431,0.000470
32889000,0.0324,0.013523,0.002678,0.000431,0.000470
32890000,0.0324,0.013523,0.002678,0.000431,0.000470
32891000,0.0324,0.013523,0.002678,0.000431,0.000470
32892000,0.0324,0.013523,0.002678,0.000431,0.000470
32893000,0.0324,0.013523,0.002678,0.000431,0.000588
32894000,0.0324,0.013523,0.002678,0.000431,0.000470
32895000,0.0324,0.013523,0.002678,0.000431,0.000705
32896000,0.0324,0.013523,0.002678,0.000431,0.000470
32897000,0.0324,0.013523,0.002678,0.000431,0.000470
32898000,0.0324,0.013523,0.002678,0.000431,0.000353
32899000,0.0324,0.013523,0.002678,0.000431,0.000588
32900000,0.0324,0.013523,0.002678,0.000431,0.000353
32901000,0.0324,0.013523,0.002678,0.000431,0.000588
32902000,0.0324,0.013523,0.002678,0.000431,0.000353
32903000,0.0324,0.013523,0.002678,0.000431,0.000588
32904000,0.0324,0.013523,0.002678,0.000431,0.000353
32905000,0.0324,0.013523,0.002678,0.000431,0.000588
32906000,0.0324,0.013523,0.002678,0.000431,0.000353
32907000,0.0324,0.013523,0.002678,0.000431,0.000588
32908000,0.0324,0.013523,0.002678,0.000431,0.000353
32909000,0.0324,0.013523,0.002678,0.000431,0.000588
32910000,0.0324,0.013523,0.002678,0.000431,0.000353
32911000,0.0324,0.013523,0.002678,0.000431,0.000588
32912000,0.0324,0.013523,0.002678,0.000431,0.000353
32913000,0.0324,0.013523,0.002678,0.000431,0.000705
32914000,0.0324,0.013523,0.002678,0.000431,0.000588
32915000,0.0324,0.013523,0.002678,0.000431,0.000470
32916000,0.0324,0.013523,0.002678,0.000431,0.000705
32917000,0.0324,0.013523,0.002678,0.000431,0.000353
32918000,0.0324,0.013523,0.002678,0.000431,0.000470
32919000,0.0324,0.013523,0.002678,0.000431,0.000353
32920000,0.0324,0.013523,0.002678,0.000431,0.000588
32921000,0.0324,0.013523,0.002678,0.000431,0.000470
32922000,0.0324,0.013523,0.002678,0.000431,0.000470
32923000,0.0324,0.013523,0.002678,0.000431,0.000470
32924000,0.0324,0.013523,0.002678,0.000431,0.000470
32925000,0.0324,0.013523,0.002678,0.000431,0.000470
32926000,0.0324,0.013523,0.002678,0.000431,0.000470
32927000,0.0324,0.013523,0.002678,0.000431,0.000353
32928000,0.0324,0.013523,0.002678,0.000431,0.000705
32929000,0.0324,0.013523,0.002678,0.000431,0.000470
32930000,0.0324,0.013523,0.002678,0.000431,0.000705
32931000,0.0324,0.013523,0.002678,0.000431,0.000353
32932000,0.0324,0.013523,0.002678,0.000431,0.000588
32933000,0.0324,0.013523,0.002678,0.000431,0.000353
32934000,0.0324,0.013523,0.002678,0.000431,0.000705
32935000,0.0324,0.013523,0.002678,0.000431,0.000353
32936000,0.0324,0.013523,0.002678,0.000431,0.000470
32937000,0.0324,0.013523,0.002678,0.000431,0.000353
32938000,0.0324,0.013523,0.002678,0.000431,0.000588
32939000,0.0324,0.013523,0.002678,0.000431,0.000353
32940000,0.0324,0.013523,0.002678,0.000431,0.000588
32941000,0.0324,0.013523,0.002678,0.000431,0.000353
32942000,0.0324,0.013523,0.002678,0.000431,0.000588
32943000,0.0324,0.013523,0.002678,0.000431,0.000470
32944000,0.0324,0.013523,0.002678,0.000431,0.000470
32945000,0.0324,0.013523,0.002678,0.000431,0.000470
32946000,0.0324,0.013523,0.002678,0.000431,0.000470
32947000,0.0324,0.013523,0.002678,0.000431,0.000470
32948000,0.0324,0.013523,0.002678,0.000431,0.000353
32949000,0.0324,0.013523,0.002678,0.000431,0.000588
32950000,0.0324,0.013523,0.002678,0.000431,0.000353
32951000,0.0324,0.013523,0.002678,0.000431,0.000588
32952000,0.0324,0.013523,0.002678,0.000431,0.000353
32953000,0.0324,0.013523,0.002678,0.000431,0.000588
32954000,0.0324,0.013523,0.002678,0.000431,0.000353
32955000,0.0324,0.013523,0.002678,0.000431,0.000705
32956000,0.0324,0.013523,0.002678,0.000431,0.000588
32957000,0.0324,0.013523,0.002678,0.000431,0.000470
32958000,0.0324,0.013523,0.002678,0.000431,0.000588
32959000,0.0324,0.013523,0.002678,0.000431,0.000353
32960000,0.0324,0.013523,0.002678,0.000431,0.000588
32961000,0.0324,0.013523,0.002678,0.000431,0.000470
32962000,0.0324,0.013523,0.002678,0.000431,0.000588
32963000,0.0324,0.013523,0.002678,0.000431,0.000470
32964000,0.0324,0.013523,0.002678,0.000431,0.000588
32965000,0.0324,0.013523,0.002678,0.000431,0.000353
32966000,0.0324,0.013523,0.002678,0.000431,0.000588
32967000,0.0324,0.013523,0.002678,0.000431,0.000353
32968000,0.0324,0.013523,0.002678,0.000431,0.000705
32969000,0.0324,0.013523,0.002678,0.000431,0.000470
32970000,0.0324,0.013523,0.002678,0.000431,0.000470
32971000,0.0324,0.013523,0.002678,0.000431,0.000470
32972000,0.0324,0.013523,0.002678,0.000431,0.000705
32973000,0.0324,0.013523,0.002678,0.000431,0.000353
32974000,0.0324,0.013523,0.002678,0.000431,0.000705
32975000,0.0324,0.013523,0.002678,0.000431,0.000353
32976000,0.0324,0.013523,0.002678,0.000431,0.000588
32977000,0.0324,0.013523,0.002678,0.000431,0.000353
32978000,0.0324,0.013523,0.002678,0.000431,0.000470
32979000,0.0324,0.013523,0.002678,0.000431,0.000353
32980000,0.0324,0.013523,0.002678,0.000431,0.000588
32981000,0.0324,0.013523,0.002678,0.000431,0.000470
32982000,0.0324,0.013523,0.002678,0.000431,0.000588
32983000,0.0324,0.013523,0.002678,0.000431,0.000353
32984000,0.0324,0.013523,0.002678,0.000431,0.000588
32985000,0.0324,0.013523,0.002678,0.000431,0.000353
32986000,0.0324,0.013523,0.002678,0.000431,0.000705
32987000,0.0324,0.013523,0.002678,0.000431,0.000353
32988000,0.0324,0.013523,0.002678,0.000431,0.000705
32989000,0.0324,0.013523,0.002678,0.000431,0.000353
32990000,0.0324,0.013523,0.002678,0.000431,0.000588
32991000,0.0324,0.013523,0.002678,0.000431,0.000588
32992000,0.0324,0.013523,0.002678,0.000431,0.000470
32993000,0.0324,0.013523,0.002678,0.000431,0.000705
32994000,0.0324,0.013523,0.002678,0.000431,0.000353
32995000,0.0324,0.013523,0.002678,0.000431,0.000705
32996000,0.0324,0.013523,0.002678,0.000431,0.000588
32997000,0.0324,0.013523,0.002678,0.000431,0.000470
32998000,0.0324,0.013523,0.002678,0.000431,0.000705
32999000,0.0324,0.013523,0.002678,0.000431,0.000353
