Cycle,Area(mm^2),PeakDynamic(W),SubthresholdLeakage(W),GateLeakage(W),RunTimeDynamic(W)
15000000,0.0324,0.013523,0.002678,0.000431,0.000353
15001000,0.0324,0.013523,0.002678,0.000431,0.000470
15002000,0.0324,0.013523,0.002678,0.000431,0.000470
15003000,0.0324,0.013523,0.002678,0.000431,0.000470
15004000,0.0324,0.013523,0.002678,0.000431,0.000470
15005000,0.0324,0.013523,0.002678,0.000431,0.000470
15006000,0.0324,0.013523,0.002678,0.000431,0.000470
15007000,0.0324,0.013523,0.002678,0.000431,0.000588
15008000,0.0324,0.013523,0.002678,0.000431,0.000353
15009000,0.0324,0.013523,0.002678,0.000431,0.000588
15010000,0.0324,0.013523,0.002678,0.000431,0.000470
15011000,0.0324,0.013523,0.002678,0.000431,0.000588
15012000,0.0324,0.013523,0.002678,0.000431,0.000235
15013000,0.0324,0.013523,0.002678,0.000431,0.000588
15014000,0.0324,0.013523,0.002678,0.000431,0.000353
15015000,0.0324,0.013523,0.002678,0.000431,0.000588
15016000,0.0324,0.013523,0.002678,0.000431,0.000353
15017000,0.0324,0.013523,0.002678,0.000431,0.000588
15018000,0.0324,0.013523,0.002678,0.000431,0.000353
15019000,0.0324,0.013523,0.002678,0.000431,0.000588
15020000,0.0324,0.013523,0.002678,0.000431,0.000353
15021000,0.0324,0.013523,0.002678,0.000431,0.000588
15022000,0.0324,0.013523,0.002678,0.000431,0.000353
15023000,0.0324,0.013523,0.002678,0.000431,0.000588
15024000,0.0324,0.013523,0.002678,0.000431,0.000353
15025000,0.0324,0.013523,0.002678,0.000431,0.000823
15026000,0.0324,0.013523,0.002678,0.000431,0.000353
15027000,0.0324,0.013523,0.002678,0.000431,0.000470
15028000,0.0324,0.013523,0.002678,0.000431,0.000470
15029000,0.0324,0.013523,0.002678,0.000431,0.000470
15030000,0.0324,0.013523,0.002678,0.000431,0.000470
15031000,0.0324,0.013523,0.002678,0.000431,0.000470
15032000,0.0324,0.013523,0.002678,0.000431,0.000353
15033000,0.0324,0.013523,0.002678,0.000431,0.000588
15034000,0.0324,0.013523,0.002678,0.000431,0.000470
15035000,0.0324,0.013523,0.002678,0.000431,0.000470
15036000,0.0324,0.013523,0.002678,0.000431,0.000353
15037000,0.0324,0.013523,0.002678,0.000431,0.000588
15038000,0.0324,0.013523,0.002678,0.000431,0.000470
15039000,0.0324,0.013523,0.002678,0.000431,0.000588
15040000,0.0324,0.013523,0.002678,0.000431,0.000470
15041000,0.0324,0.013523,0.002678,0.000431,0.000470
15042000,0.0324,0.013523,0.002678,0.000431,0.000588
15043000,0.0324,0.013523,0.002678,0.000431,0.000470
15044000,0.0324,0.013523,0.002678,0.000431,0.000470
15045000,0.0324,0.013523,0.002678,0.000431,0.000470
15046000,0.0324,0.013523,0.002678,0.000431,0.000470
15047000,0.0324,0.013523,0.002678,0.000431,0.000470
15048000,0.0324,0.013523,0.002678,0.000431,0.000353
15049000,0.0324,0.013523,0.002678,0.000431,0.000588
15050000,0.0324,0.013523,0.002678,0.000431,0.000353
15051000,0.0324,0.013523,0.002678,0.000431,0.000588
15052000,0.0324,0.013523,0.002678,0.000431,0.000353
15053000,0.0324,0.013523,0.002678,0.000431,0.000588
15054000,0.0324,0.013523,0.002678,0.000431,0.000353
15055000,0.0324,0.013523,0.002678,0.000431,0.000588
15056000,0.0324,0.013523,0.002678,0.000431,0.000353
15057000,0.0324,0.013523,0.002678,0.000431,0.000470
15058000,0.0324,0.013523,0.002678,0.000431,0.000470
15059000,0.0324,0.013523,0.002678,0.000431,0.000353
15060000,0.0324,0.013523,0.002678,0.000431,0.000588
15061000,0.0324,0.013523,0.002678,0.000431,0.000353
15062000,0.0324,0.013523,0.002678,0.000431,0.000588
15063000,0.0324,0.013523,0.002678,0.000431,0.000353
15064000,0.0324,0.013523,0.002678,0.000431,0.000588
15065000,0.0324,0.013523,0.002678,0.000431,0.000353
15066000,0.0324,0.013523,0.002678,0.000431,0.000588
15067000,0.0324,0.013523,0.002678,0.000431,0.000353
15068000,0.0324,0.013523,0.002678,0.000431,0.000705
15069000,0.0324,0.013523,0.002678,0.000431,0.000588
15070000,0.0324,0.013523,0.002678,0.000431,0.000353
15071000,0.0324,0.013523,0.002678,0.000431,0.000588
15072000,0.0324,0.013523,0.002678,0.000431,0.000470
15073000,0.0324,0.013523,0.002678,0.000431,0.000705
15074000,0.0324,0.013523,0.002678,0.000431,0.000353
15075000,0.0324,0.013523,0.002678,0.000431,0.000705
15076000,0.0324,0.013523,0.002678,0.000431,0.000470
15077000,0.0324,0.013523,0.002678,0.000431,0.000470
15078000,0.0324,0.013523,0.002678,0.000431,0.000470
15079000,0.0324,0.013523,0.002678,0.000431,0.000470
15080000,0.0324,0.013523,0.002678,0.000431,0.000470
15081000,0.0324,0.013523,0.002678,0.000431,0.000470
15082000,0.0324,0.013523,0.002678,0.000431,0.000353
15083000,0.0324,0.013523,0.002678,0.000431,0.000705
15084000,0.0324,0.013523,0.002678,0.000431,0.000353
15085000,0.0324,0.013523,0.002678,0.000431,0.000705
15086000,0.0324,0.013523,0.002678,0.000431,0.000588
15087000,0.0324,0.013523,0.002678,0.000431,0.000470
15088000,0.0324,0.013523,0.002678,0.000431,0.000705
15089000,0.0324,0.013523,0.002678,0.000431,0.000353
15090000,0.0324,0.013523,0.002678,0.000431,0.000588
15091000,0.0324,0.013523,0.002678,0.000431,0.000353
15092000,0.0324,0.013523,0.002678,0.000431,0.000705
15093000,0.0324,0.013523,0.002678,0.000431,0.000470
15094000,0.0324,0.013523,0.002678,0.000431,0.000588
15095000,0.0324,0.013523,0.002678,0.000431,0.000353
15096000,0.0324,0.013523,0.002678,0.000431,0.000588
15097000,0.0324,0.013523,0.002678,0.000431,0.000353
15098000,0.0324,0.013523,0.002678,0.000431,0.000470
15099000,0.0324,0.013523,0.002678,0.000431,0.000470
15100000,0.0324,0.013523,0.002678,0.000431,0.000705
15101000,0.0324,0.013523,0.002678,0.000431,0.000470
15102000,0.0324,0.013523,0.002678,0.000431,0.000470
15103000,0.0324,0.013523,0.002678,0.000431,0.000470
15104000,0.0324,0.013523,0.002678,0.000431,0.000705
15105000,0.0324,0.013523,0.002678,0.000431,0.000470
15106000,0.0324,0.013523,0.002678,0.000431,0.000470
15107000,0.0324,0.013523,0.002678,0.000431,0.000470
15108000,0.0324,0.013523,0.002678,0.000431,0.000470
15109000,0.0324,0.013523,0.002678,0.000431,0.000353
15110000,0.0324,0.013523,0.002678,0.000431,0.000588
15111000,0.0324,0.013523,0.002678,0.000431,0.000353
15112000,0.0324,0.013523,0.002678,0.000431,0.000588
15113000,0.0324,0.013523,0.002678,0.000431,0.000353
15114000,0.0324,0.013523,0.002678,0.000431,0.000705
15115000,0.0324,0.013523,0.002678,0.000431,0.000353
15116000,0.0324,0.013523,0.002678,0.000431,0.000705
15117000,0.0324,0.013523,0.002678,0.000431,0.000470
15118000,0.0324,0.013523,0.002678,0.000431,0.000470
15119000,0.0324,0.013523,0.002678,0.000431,0.000470
15120000,0.0324,0.013523,0.002678,0.000431,0.000705
15121000,0.0324,0.013523,0.002678,0.000431,0.000470
15122000,0.0324,0.013523,0.002678,0.000431,0.000470
15123000,0.0324,0.013523,0.002678,0.000431,0.000470
15124000,0.0324,0.013523,0.002678,0.000431,0.000470
15125000,0.0324,0.013523,0.002678,0.000431,0.000470
15126000,0.0324,0.013523,0.002678,0.000431,0.000588
15127000,0.0324,0.013523,0.002678,0.000431,0.000470
15128000,0.0324,0.013523,0.002678,0.000431,0.000705
15129000,0.0324,0.013523,0.002678,0.000431,0.000353
15130000,0.0324,0.013523,0.002678,0.000431,0.000588
15131000,0.0324,0.013523,0.002678,0.000431,0.000353
15132000,0.0324,0.013523,0.002678,0.000431,0.000588
15133000,0.0324,0.013523,0.002678,0.000431,0.000353
15134000,0.0324,0.013523,0.002678,0.000431,0.000588
15135000,0.0324,0.013523,0.002678,0.000431,0.000353
15136000,0.0324,0.013523,0.002678,0.000431,0.000588
15137000,0.0324,0.013523,0.002678,0.000431,0.000353
15138000,0.0324,0.013523,0.002678,0.000431,0.000588
15139000,0.0324,0.013523,0.002678,0.000431,0.000353
15140000,0.0324,0.013523,0.002678,0.000431,0.000588
15141000,0.0324,0.013523,0.002678,0.000431,0.000353
15142000,0.0324,0.013523,0.002678,0.000431,0.000588
15143000,0.0324,0.013523,0.002678,0.000431,0.000353
15144000,0.0324,0.013523,0.002678,0.000431,0.000470
15145000,0.0324,0.013523,0.002678,0.000431,0.000470
15146000,0.0324,0.013523,0.002678,0.000431,0.000470
15147000,0.0324,0.013523,0.002678,0.000431,0.000470
15148000,0.0324,0.013523,0.002678,0.000431,0.000470
15149000,0.0324,0.013523,0.002678,0.000431,0.000470
15150000,0.0324,0.013523,0.002678,0.000431,0.000588
15151000,0.0324,0.013523,0.002678,0.000431,0.000470
15152000,0.0324,0.013523,0.002678,0.000431,0.000705
15153000,0.0324,0.013523,0.002678,0.000431,0.000353
15154000,0.0324,0.013523,0.002678,0.000431,0.000588
15155000,0.0324,0.013523,0.002678,0.000431,0.000588
15156000,0.0324,0.013523,0.002678,0.000431,0.000470
15157000,0.0324,0.013523,0.002678,0.000431,0.000353
15158000,0.0324,0.013523,0.002678,0.000431,0.000588
15159000,0.0324,0.013523,0.002678,0.000431,0.000353
15160000,0.0324,0.013523,0.002678,0.000431,0.000588
15161000,0.0324,0.013523,0.002678,0.000431,0.000353
15162000,0.0324,0.013523,0.002678,0.000431,0.000588
15163000,0.0324,0.013523,0.002678,0.000431,0.000353
15164000,0.0324,0.013523,0.002678,0.000431,0.000588
15165000,0.0324,0.013523,0.002678,0.000431,0.000353
15166000,0.0324,0.013523,0.002678,0.000431,0.000588
15167000,0.0324,0.013523,0.002678,0.000431,0.000353
15168000,0.0324,0.013523,0.002678,0.000431,0.000588
15169000,0.0324,0.013523,0.002678,0.000431,0.000353
15170000,0.0324,0.013523,0.002678,0.000431,0.000588
15171000,0.0324,0.013523,0.002678,0.000431,0.000353
15172000,0.0324,0.013523,0.002678,0.000431,0.000588
15173000,0.0324,0.013523,0.002678,0.000431,0.000353
15174000,0.0324,0.013523,0.002678,0.000431,0.000470
15175000,0.0324,0.013523,0.002678,0.000431,0.000470
15176000,0.0324,0.013523,0.002678,0.000431,0.000353
15177000,0.0324,0.013523,0.002678,0.000431,0.000588
15178000,0.0324,0.013523,0.002678,0.000431,0.000353
15179000,0.0324,0.013523,0.002678,0.000431,0.000588
15180000,0.0324,0.013523,0.002678,0.000431,0.000353
15181000,0.0324,0.013523,0.002678,0.000431,0.000705
15182000,0.0324,0.013523,0.002678,0.000431,0.000588
15183000,0.0324,0.013523,0.002678,0.000431,0.000470
15184000,0.0324,0.013523,0.002678,0.000431,0.000705
15185000,0.0324,0.013523,0.002678,0.000431,0.000353
15186000,0.0324,0.013523,0.002678,0.000431,0.000588
15187000,0.0324,0.013523,0.002678,0.000431,0.000353
15188000,0.0324,0.013523,0.002678,0.000431,0.000470
15189000,0.0324,0.013523,0.002678,0.000431,0.000470
15190000,0.0324,0.013523,0.002678,0.000431,0.000470
15191000,0.0324,0.013523,0.002678,0.000431,0.000470
15192000,0.0324,0.013523,0.002678,0.000431,0.000470
15193000,0.0324,0.013523,0.002678,0.000431,0.000470
15194000,0.0324,0.013523,0.002678,0.000431,0.000470
15195000,0.0324,0.013523,0.002678,0.000431,0.000470
15196000,0.0324,0.013523,0.002678,0.000431,0.000588
15197000,0.0324,0.013523,0.002678,0.000431,0.000470
15198000,0.0324,0.013523,0.002678,0.000431,0.000705
15199000,0.0324,0.013523,0.002678,0.000431,0.000353
15200000,0.0324,0.013523,0.002678,0.000431,0.000588
15201000,0.0324,0.013523,0.002678,0.000431,0.000353
15202000,0.0324,0.013523,0.002678,0.000431,0.000588
15203000,0.0324,0.013523,0.002678,0.000431,0.000353
15204000,0.0324,0.013523,0.002678,0.000431,0.000588
15205000,0.0324,0.013523,0.002678,0.000431,0.000353
15206000,0.0324,0.013523,0.002678,0.000431,0.000470
15207000,0.0324,0.013523,0.002678,0.000431,0.000470
15208000,0.0324,0.013523,0.002678,0.000431,0.000470
15209000,0.0324,0.013523,0.002678,0.000431,0.000470
15210000,0.0324,0.013523,0.002678,0.000431,0.000470
15211000,0.0324,0.013523,0.002678,0.000431,0.000588
15212000,0.0324,0.013523,0.002678,0.000431,0.000353
15213000,0.0324,0.013523,0.002678,0.000431,0.000588
15214000,0.0324,0.013523,0.002678,0.000431,0.000353
15215000,0.0324,0.013523,0.002678,0.000431,0.000588
15216000,0.0324,0.013523,0.002678,0.000431,0.000353
15217000,0.0324,0.013523,0.002678,0.000431,0.000588
15218000,0.0324,0.013523,0.002678,0.000431,0.000353
15219000,0.0324,0.013523,0.002678,0.000431,0.000588
15220000,0.0324,0.013523,0.002678,0.000431,0.000470
15221000,0.0324,0.013523,0.002678,0.000431,0.000705
15222000,0.0324,0.013523,0.002678,0.000431,0.000353
15223000,0.0324,0.013523,0.002678,0.000431,0.000705
15224000,0.0324,0.013523,0.002678,0.000431,0.000470
15225000,0.0324,0.013523,0.002678,0.000431,0.000470
15226000,0.0324,0.013523,0.002678,0.000431,0.000353
15227000,0.0324,0.013523,0.002678,0.000431,0.000588
15228000,0.0324,0.013523,0.002678,0.000431,0.000353
15229000,0.0324,0.013523,0.002678,0.000431,0.000588
15230000,0.0324,0.013523,0.002678,0.000431,0.000353
15231000,0.0324,0.013523,0.002678,0.000431,0.000588
15232000,0.0324,0.013523,0.002678,0.000431,0.000353
15233000,0.0324,0.013523,0.002678,0.000431,0.000588
15234000,0.0324,0.013523,0.002678,0.000431,0.000353
15235000,0.0324,0.013523,0.002678,0.000431,0.000588
15236000,0.0324,0.013523,0.002678,0.000431,0.000353
15237000,0.0324,0.013523,0.002678,0.000431,0.000705
15238000,0.0324,0.013523,0.002678,0.000431,0.000353
15239000,0.0324,0.013523,0.002678,0.000431,0.000705
15240000,0.0324,0.013523,0.002678,0.000431,0.000470
15241000,0.0324,0.013523,0.002678,0.000431,0.000470
15242000,0.0324,0.013523,0.002678,0.000431,0.000470
15243000,0.0324,0.013523,0.002678,0.000431,0.000470
15244000,0.0324,0.013523,0.002678,0.000431,0.000470
15245000,0.0324,0.013523,0.002678,0.000431,0.000470
15246000,0.0324,0.013523,0.002678,0.000431,0.000470
15247000,0.0324,0.013523,0.002678,0.000431,0.000470
15248000,0.0324,0.013523,0.002678,0.000431,0.000353
15249000,0.0324,0.013523,0.002678,0.000431,0.000588
15250000,0.0324,0.013523,0.002678,0.000431,0.000353
15251000,0.0324,0.013523,0.002678,0.000431,0.000588
15252000,0.0324,0.013523,0.002678,0.000431,0.000353
15253000,0.0324,0.013523,0.002678,0.000431,0.000588
15254000,0.0324,0.013523,0.002678,0.000431,0.000353
15255000,0.0324,0.013523,0.002678,0.000431,0.000705
15256000,0.0324,0.013523,0.002678,0.000431,0.000353
15257000,0.0324,0.013523,0.002678,0.000431,0.000588
15258000,0.0324,0.013523,0.002678,0.000431,0.000353
15259000,0.0324,0.013523,0.002678,0.000431,0.000705
15260000,0.0324,0.013523,0.002678,0.000431,0.000588
15261000,0.0324,0.013523,0.002678,0.000431,0.000470
15262000,0.0324,0.013523,0.002678,0.000431,0.000588
15263000,0.0324,0.013523,0.002678,0.000431,0.000353
15264000,0.0324,0.013523,0.002678,0.000431,0.000470
15265000,0.0324,0.013523,0.002678,0.000431,0.000470
15266000,0.0324,0.013523,0.002678,0.000431,0.000470
15267000,0.0324,0.013523,0.002678,0.000431,0.000470
15268000,0.0324,0.013523,0.002678,0.000431,0.000353
15269000,0.0324,0.013523,0.002678,0.000431,0.000588
15270000,0.0324,0.013523,0.002678,0.000431,0.000353
15271000,0.0324,0.013523,0.002678,0.000431,0.000588
15272000,0.0324,0.013523,0.002678,0.000431,0.000353
15273000,0.0324,0.013523,0.002678,0.000431,0.000588
15274000,0.0324,0.013523,0.002678,0.000431,0.000353
15275000,0.0324,0.013523,0.002678,0.000431,0.000588
15276000,0.0324,0.013523,0.002678,0.000431,0.000353
15277000,0.0324,0.013523,0.002678,0.000431,0.000705
15278000,0.0324,0.013523,0.002678,0.000431,0.000588
15279000,0.0324,0.013523,0.002678,0.000431,0.000470
15280000,0.0324,0.013523,0.002678,0.000431,0.000588
15281000,0.0324,0.013523,0.002678,0.000431,0.000353
15282000,0.0324,0.013523,0.002678,0.000431,0.000588
15283000,0.0324,0.013523,0.002678,0.000431,0.000353
15284000,0.0324,0.013523,0.002678,0.000431,0.000588
15285000,0.0324,0.013523,0.002678,0.000431,0.000353
15286000,0.0324,0.013523,0.002678,0.000431,0.000588
15287000,0.0324,0.013523,0.002678,0.000431,0.000353
15288000,0.0324,0.013523,0.002678,0.000431,0.000470
15289000,0.0324,0.013523,0.002678,0.000431,0.000470
15290000,0.0324,0.013523,0.002678,0.000431,0.000470
15291000,0.0324,0.013523,0.002678,0.000431,0.000470
15292000,0.0324,0.013523,0.002678,0.000431,0.000470
15293000,0.0324,0.013523,0.002678,0.000431,0.000470
15294000,0.0324,0.013523,0.002678,0.000431,0.000353
15295000,0.0324,0.013523,0.002678,0.000431,0.000588
15296000,0.0324,0.013523,0.002678,0.000431,0.000353
15297000,0.0324,0.013523,0.002678,0.000431,0.000588
15298000,0.0324,0.013523,0.002678,0.000431,0.000353
15299000,0.0324,0.013523,0.002678,0.000431,0.000588
15300000,0.0324,0.013523,0.002678,0.000431,0.000353
15301000,0.0324,0.013523,0.002678,0.000431,0.000588
15302000,0.0324,0.013523,0.002678,0.000431,0.000353
15303000,0.0324,0.013523,0.002678,0.000431,0.000470
15304000,0.0324,0.013523,0.002678,0.000431,0.000470
15305000,0.0324,0.013523,0.002678,0.000431,0.000470
15306000,0.0324,0.013523,0.002678,0.000431,0.000470
15307000,0.0324,0.013523,0.002678,0.000431,0.000470
15308000,0.0324,0.013523,0.002678,0.000431,0.000470
15309000,0.0324,0.013523,0.002678,0.000431,0.000470
15310000,0.0324,0.013523,0.002678,0.000431,0.000470
15311000,0.0324,0.013523,0.002678,0.000431,0.000588
15312000,0.0324,0.013523,0.002678,0.000431,0.000353
15313000,0.0324,0.013523,0.002678,0.000431,0.000705
15314000,0.0324,0.013523,0.002678,0.000431,0.000353
15315000,0.0324,0.013523,0.002678,0.000431,0.000588
15316000,0.0324,0.013523,0.002678,0.000431,0.000588
15317000,0.0324,0.013523,0.002678,0.000431,0.000470
15318000,0.0324,0.013523,0.002678,0.000431,0.000470
15319000,0.0324,0.013523,0.002678,0.000431,0.000470
15320000,0.0324,0.013523,0.002678,0.000431,0.000353
15321000,0.0324,0.013523,0.002678,0.000431,0.000588
15322000,0.0324,0.013523,0.002678,0.000431,0.000353
15323000,0.0324,0.013523,0.002678,0.000431,0.000588
15324000,0.0324,0.013523,0.002678,0.000431,0.000353
15325000,0.0324,0.013523,0.002678,0.000431,0.000588
15326000,0.0324,0.013523,0.002678,0.000431,0.000353
15327000,0.0324,0.013523,0.002678,0.000431,0.000588
15328000,0.0324,0.013523,0.002678,0.000431,0.000353
15329000,0.0324,0.013523,0.002678,0.000431,0.000470
15330000,0.0324,0.013523,0.002678,0.000431,0.000470
15331000,0.0324,0.013523,0.002678,0.000431,0.000470
15332000,0.0324,0.013523,0.002678,0.000431,0.000470
15333000,0.0324,0.013523,0.002678,0.000431,0.000470
15334000,0.0324,0.013523,0.002678,0.000431,0.000470
15335000,0.0324,0.013523,0.002678,0.000431,0.000470
15336000,0.0324,0.013523,0.002678,0.000431,0.000470
15337000,0.0324,0.013523,0.002678,0.000431,0.000470
15338000,0.0324,0.013523,0.002678,0.000431,0.000470
15339000,0.0324,0.013523,0.002678,0.000431,0.000705
15340000,0.0324,0.013523,0.002678,0.000431,0.000470
15341000,0.0324,0.013523,0.002678,0.000431,0.000470
15342000,0.0324,0.013523,0.002678,0.000431,0.000470
15343000,0.0324,0.013523,0.002678,0.000431,0.000470
15344000,0.0324,0.013523,0.002678,0.000431,0.000353
15345000,0.0324,0.013523,0.002678,0.000431,0.000588
15346000,0.0324,0.013523,0.002678,0.000431,0.000353
15347000,0.0324,0.013523,0.002678,0.000431,0.000588
15348000,0.0324,0.013523,0.002678,0.000431,0.000353
15349000,0.0324,0.013523,0.002678,0.000431,0.000588
15350000,0.0324,0.013523,0.002678,0.000431,0.000470
15351000,0.0324,0.013523,0.002678,0.000431,0.000588
15352000,0.0324,0.013523,0.002678,0.000431,0.000470
15353000,0.0324,0.013523,0.002678,0.000431,0.000588
15354000,0.0324,0.013523,0.002678,0.000431,0.000353
15355000,0.0324,0.013523,0.002678,0.000431,0.000588
15356000,0.0324,0.013523,0.002678,0.000431,0.000353
15357000,0.0324,0.013523,0.002678,0.000431,0.000588
15358000,0.0324,0.013523,0.002678,0.000431,0.000353
15359000,0.0324,0.013523,0.002678,0.000431,0.000588
15360000,0.0324,0.013523,0.002678,0.000431,0.000470
15361000,0.0324,0.013523,0.002678,0.000431,0.000470
15362000,0.0324,0.013523,0.002678,0.000431,0.000470
15363000,0.0324,0.013523,0.002678,0.000431,0.000470
15364000,0.0324,0.013523,0.002678,0.000431,0.000470
15365000,0.0324,0.013523,0.002678,0.000431,0.000470
15366000,0.0324,0.013523,0.002678,0.000431,0.000470
15367000,0.0324,0.013523,0.002678,0.000431,0.000470
15368000,0.0324,0.013523,0.002678,0.000431,0.000470
15369000,0.0324,0.013523,0.002678,0.000431,0.000470
15370000,0.0324,0.013523,0.002678,0.000431,0.000470
15371000,0.0324,0.013523,0.002678,0.000431,0.000470
15372000,0.0324,0.013523,0.002678,0.000431,0.000470
15373000,0.0324,0.013523,0.002678,0.000431,0.000470
15374000,0.0324,0.013523,0.002678,0.000431,0.000470
15375000,0.0324,0.013523,0.002678,0.000431,0.000353
15376000,0.0324,0.013523,0.002678,0.000431,0.000823
15377000,0.0324,0.013523,0.002678,0.000431,0.000353
15378000,0.0324,0.013523,0.002678,0.000431,0.000588
15379000,0.0324,0.013523,0.002678,0.000431,0.000353
15380000,0.0324,0.013523,0.002678,0.000431,0.000588
15381000,0.0324,0.013523,0.002678,0.000431,0.000353
15382000,0.0324,0.013523,0.002678,0.000431,0.000588
15383000,0.0324,0.013523,0.002678,0.000431,0.000470
15384000,0.0324,0.013523,0.002678,0.000431,0.000470
15385000,0.0324,0.013523,0.002678,0.000431,0.000353
15386000,0.0324,0.013523,0.002678,0.000431,0.000588
15387000,0.0324,0.013523,0.002678,0.000431,0.000353
15388000,0.0324,0.013523,0.002678,0.000431,0.000705
15389000,0.0324,0.013523,0.002678,0.000431,0.000470
15390000,0.0324,0.013523,0.002678,0.000431,0.000705
15391000,0.0324,0.013523,0.002678,0.000431,0.000353
15392000,0.0324,0.013523,0.002678,0.000431,0.000705
15393000,0.0324,0.013523,0.002678,0.000431,0.000353
15394000,0.0324,0.013523,0.002678,0.000431,0.000705
15395000,0.0324,0.013523,0.002678,0.000431,0.000470
15396000,0.0324,0.013523,0.002678,0.000431,0.000470
15397000,0.0324,0.013523,0.002678,0.000431,0.000353
15398000,0.0324,0.013523,0.002678,0.000431,0.000470
15399000,0.0324,0.013523,0.002678,0.000431,0.000470
15400000,0.0324,0.013523,0.002678,0.000431,0.000470
15401000,0.0324,0.013523,0.002678,0.000431,0.000470
15402000,0.0324,0.013523,0.002678,0.000431,0.000588
15403000,0.0324,0.013523,0.002678,0.000431,0.000353
15404000,0.0324,0.013523,0.002678,0.000431,0.000588
15405000,0.0324,0.013523,0.002678,0.000431,0.000353
15406000,0.0324,0.013523,0.002678,0.000431,0.000588
15407000,0.0324,0.013523,0.002678,0.000431,0.000353
15408000,0.0324,0.013523,0.002678,0.000431,0.000588
15409000,0.0324,0.013523,0.002678,0.000431,0.000353
15410000,0.0324,0.013523,0.002678,0.000431,0.000470
15411000,0.0324,0.013523,0.002678,0.000431,0.000470
15412000,0.0324,0.013523,0.002678,0.000431,0.000470
15413000,0.0324,0.013523,0.002678,0.000431,0.000353
15414000,0.0324,0.013523,0.002678,0.000431,0.000588
15415000,0.0324,0.013523,0.002678,0.000431,0.000353
15416000,0.0324,0.013523,0.002678,0.000431,0.000705
15417000,0.0324,0.013523,0.002678,0.000431,0.000353
15418000,0.0324,0.013523,0.002678,0.000431,0.000588
15419000,0.0324,0.013523,0.002678,0.000431,0.000353
15420000,0.0324,0.013523,0.002678,0.000431,0.000588
15421000,0.0324,0.013523,0.002678,0.000431,0.000353
15422000,0.0324,0.013523,0.002678,0.000431,0.000588
15423000,0.0324,0.013523,0.002678,0.000431,0.000353
15424000,0.0324,0.013523,0.002678,0.000431,0.000588
15425000,0.0324,0.013523,0.002678,0.000431,0.000353
15426000,0.0324,0.013523,0.002678,0.000431,0.000588
15427000,0.0324,0.013523,0.002678,0.000431,0.000353
15428000,0.0324,0.013523,0.002678,0.000431,0.000470
15429000,0.0324,0.013523,0.002678,0.000431,0.000470
15430000,0.0324,0.013523,0.002678,0.000431,0.000470
15431000,0.0324,0.013523,0.002678,0.000431,0.000470
15432000,0.0324,0.013523,0.002678,0.000431,0.000588
15433000,0.0324,0.013523,0.002678,0.000431,0.000470
15434000,0.0324,0.013523,0.002678,0.000431,0.000588
15435000,0.0324,0.013523,0.002678,0.000431,0.000353
15436000,0.0324,0.013523,0.002678,0.000431,0.000705
15437000,0.0324,0.013523,0.002678,0.000431,0.000470
15438000,0.0324,0.013523,0.002678,0.000431,0.000705
15439000,0.0324,0.013523,0.002678,0.000431,0.000353
15440000,0.0324,0.013523,0.002678,0.000431,0.000588
15441000,0.0324,0.013523,0.002678,0.000431,0.000353
15442000,0.0324,0.013523,0.002678,0.000431,0.000588
15443000,0.0324,0.013523,0.002678,0.000431,0.000353
15444000,0.0324,0.013523,0.002678,0.000431,0.000588
15445000,0.0324,0.013523,0.002678,0.000431,0.000353
15446000,0.0324,0.013523,0.002678,0.000431,0.000823
15447000,0.0324,0.013523,0.002678,0.000431,0.000353
15448000,0.0324,0.013523,0.002678,0.000431,0.000588
15449000,0.0324,0.013523,0.002678,0.000431,0.000353
15450000,0.0324,0.013523,0.002678,0.000431,0.000470
15451000,0.0324,0.013523,0.002678,0.000431,0.000353
15452000,0.0324,0.013523,0.002678,0.000431,0.000588
15453000,0.0324,0.013523,0.002678,0.000431,0.000470
15454000,0.0324,0.013523,0.002678,0.000431,0.000588
15455000,0.0324,0.013523,0.002678,0.000431,0.000470
15456000,0.0324,0.013523,0.002678,0.000431,0.000705
15457000,0.0324,0.013523,0.002678,0.000431,0.000353
15458000,0.0324,0.013523,0.002678,0.000431,0.000588
15459000,0.0324,0.013523,0.002678,0.000431,0.000353
15460000,0.0324,0.013523,0.002678,0.000431,0.000588
15461000,0.0324,0.013523,0.002678,0.000431,0.000353
15462000,0.0324,0.013523,0.002678,0.000431,0.000588
15463000,0.0324,0.013523,0.002678,0.000431,0.000353
15464000,0.0324,0.013523,0.002678,0.000431,0.000588
15465000,0.0324,0.013523,0.002678,0.000431,0.000353
15466000,0.0324,0.013523,0.002678,0.000431,0.000588
15467000,0.0324,0.013523,0.002678,0.000431,0.000353
15468000,0.0324,0.013523,0.002678,0.000431,0.000588
15469000,0.0324,0.013523,0.002678,0.000431,0.000353
15470000,0.0324,0.013523,0.002678,0.000431,0.000588
15471000,0.0324,0.013523,0.002678,0.000431,0.000353
15472000,0.0324,0.013523,0.002678,0.000431,0.000588
15473000,0.0324,0.013523,0.002678,0.000431,0.000470
15474000,0.0324,0.013523,0.002678,0.000431,0.000705
15475000,0.0324,0.013523,0.002678,0.000431,0.000470
15476000,0.0324,0.013523,0.002678,0.000431,0.000705
15477000,0.0324,0.013523,0.002678,0.000431,0.000353
15478000,0.0324,0.013523,0.002678,0.000431,0.000705
15479000,0.0324,0.013523,0.002678,0.000431,0.000588
15480000,0.0324,0.013523,0.002678,0.000431,0.000470
15481000,0.0324,0.013523,0.002678,0.000431,0.000705
15482000,0.0324,0.013523,0.002678,0.000431,0.000353
15483000,0.0324,0.013523,0.002678,0.000431,0.000588
15484000,0.0324,0.013523,0.002678,0.000431,0.000470
15485000,0.0324,0.013523,0.002678,0.000431,0.000588
15486000,0.0324,0.013523,0.002678,0.000431,0.000588
15487000,0.0324,0.013523,0.002678,0.000431,0.000470
15488000,0.0324,0.013523,0.002678,0.000431,0.000705
15489000,0.0324,0.013523,0.002678,0.000431,0.000470
15490000,0.0324,0.013523,0.002678,0.000431,0.000588
15491000,0.0324,0.013523,0.002678,0.000431,0.000353
15492000,0.0324,0.013523,0.002678,0.000431,0.000588
15493000,0.0324,0.013523,0.002678,0.000431,0.000353
15494000,0.0324,0.013523,0.002678,0.000431,0.000588
15495000,0.0324,0.013523,0.002678,0.000431,0.000353
15496000,0.0324,0.013523,0.002678,0.000431,0.000588
15497000,0.0324,0.013523,0.002678,0.000431,0.000353
15498000,0.0324,0.013523,0.002678,0.000431,0.000588
15499000,0.0324,0.013523,0.002678,0.000431,0.000353
15500000,0.0324,0.013523,0.002678,0.000431,0.000588
15501000,0.0324,0.013523,0.002678,0.000431,0.000470
15502000,0.0324,0.013523,0.002678,0.000431,0.000353
15503000,0.0324,0.013523,0.002678,0.000431,0.000705
15504000,0.0324,0.013523,0.002678,0.000431,0.000353
15505000,0.0324,0.013523,0.002678,0.000431,0.000588
15506000,0.0324,0.013523,0.002678,0.000431,0.000353
15507000,0.0324,0.013523,0.002678,0.000431,0.000470
15508000,0.0324,0.013523,0.002678,0.000431,0.000470
15509000,0.0324,0.013523,0.002678,0.000431,0.000470
15510000,0.0324,0.013523,0.002678,0.000431,0.000470
15511000,0.0324,0.013523,0.002678,0.000431,0.000470
15512000,0.0324,0.013523,0.002678,0.000431,0.000470
15513000,0.0324,0.013523,0.002678,0.000431,0.000470
15514000,0.0324,0.013523,0.002678,0.000431,0.000470
15515000,0.0324,0.013523,0.002678,0.000431,0.000470
15516000,0.0324,0.013523,0.002678,0.000431,0.000470
15517000,0.0324,0.013523,0.002678,0.000431,0.000470
15518000,0.0324,0.013523,0.002678,0.000431,0.000588
15519000,0.0324,0.013523,0.002678,0.000431,0.000588
15520000,0.0324,0.013523,0.002678,0.000431,0.000353
15521000,0.0324,0.013523,0.002678,0.000431,0.000588
15522000,0.0324,0.013523,0.002678,0.000431,0.000353
15523000,0.0324,0.013523,0.002678,0.000431,0.000470
15524000,0.0324,0.013523,0.002678,0.000431,0.000470
15525000,0.0324,0.013523,0.002678,0.000431,0.000353
15526000,0.0324,0.013523,0.002678,0.000431,0.000588
15527000,0.0324,0.013523,0.002678,0.000431,0.000353
15528000,0.0324,0.013523,0.002678,0.000431,0.000588
15529000,0.0324,0.013523,0.002678,0.000431,0.000353
15530000,0.0324,0.013523,0.002678,0.000431,0.000588
15531000,0.0324,0.013523,0.002678,0.000431,0.000353
15532000,0.0324,0.013523,0.002678,0.000431,0.000705
15533000,0.0324,0.013523,0.002678,0.000431,0.000470
15534000,0.0324,0.013523,0.002678,0.000431,0.000470
15535000,0.0324,0.013523,0.002678,0.000431,0.000470
15536000,0.0324,0.013523,0.002678,0.000431,0.000470
15537000,0.0324,0.013523,0.002678,0.000431,0.000470
15538000,0.0324,0.013523,0.002678,0.000431,0.000470
15539000,0.0324,0.013523,0.002678,0.000431,0.000470
15540000,0.0324,0.013523,0.002678,0.000431,0.000470
15541000,0.0324,0.013523,0.002678,0.000431,0.000353
15542000,0.0324,0.013523,0.002678,0.000431,0.000588
15543000,0.0324,0.013523,0.002678,0.000431,0.000353
15544000,0.0324,0.013523,0.002678,0.000431,0.000588
15545000,0.0324,0.013523,0.002678,0.000431,0.000353
15546000,0.0324,0.013523,0.002678,0.000431,0.000588
15547000,0.0324,0.013523,0.002678,0.000431,0.000353
15548000,0.0324,0.013523,0.002678,0.000431,0.000588
15549000,0.0324,0.013523,0.002678,0.000431,0.000353
15550000,0.0324,0.013523,0.002678,0.000431,0.000588
15551000,0.0324,0.013523,0.002678,0.000431,0.000353
15552000,0.0324,0.013523,0.002678,0.000431,0.000588
15553000,0.0324,0.013523,0.002678,0.000431,0.000353
15554000,0.0324,0.013523,0.002678,0.000431,0.000588
15555000,0.0324,0.013523,0.002678,0.000431,0.000353
15556000,0.0324,0.013523,0.002678,0.000431,0.000588
15557000,0.0324,0.013523,0.002678,0.000431,0.000353
15558000,0.0324,0.013523,0.002678,0.000431,0.000470
15559000,0.0324,0.013523,0.002678,0.000431,0.000470
15560000,0.0324,0.013523,0.002678,0.000431,0.000470
15561000,0.0324,0.013523,0.002678,0.000431,0.000470
15562000,0.0324,0.013523,0.002678,0.000431,0.000353
15563000,0.0324,0.013523,0.002678,0.000431,0.000588
15564000,0.0324,0.013523,0.002678,0.000431,0.000353
15565000,0.0324,0.013523,0.002678,0.000431,0.000588
15566000,0.0324,0.013523,0.002678,0.000431,0.000353
15567000,0.0324,0.013523,0.002678,0.000431,0.000588
15568000,0.0324,0.013523,0.002678,0.000431,0.000353
15569000,0.0324,0.013523,0.002678,0.000431,0.000705
15570000,0.0324,0.013523,0.002678,0.000431,0.000588
15571000,0.0324,0.013523,0.002678,0.000431,0.000470
15572000,0.0324,0.013523,0.002678,0.000431,0.000588
15573000,0.0324,0.013523,0.002678,0.000431,0.000353
15574000,0.0324,0.013523,0.002678,0.000431,0.000470
15575000,0.0324,0.013523,0.002678,0.000431,0.000470
15576000,0.0324,0.013523,0.002678,0.000431,0.000353
15577000,0.0324,0.013523,0.002678,0.000431,0.000588
15578000,0.0324,0.013523,0.002678,0.000431,0.000353
15579000,0.0324,0.013523,0.002678,0.000431,0.000588
15580000,0.0324,0.013523,0.002678,0.000431,0.000353
15581000,0.0324,0.013523,0.002678,0.000431,0.000588
15582000,0.0324,0.013523,0.002678,0.000431,0.000353
15583000,0.0324,0.013523,0.002678,0.000431,0.000705
15584000,0.0324,0.013523,0.002678,0.000431,0.000588
15585000,0.0324,0.013523,0.002678,0.000431,0.000470
15586000,0.0324,0.013523,0.002678,0.000431,0.000588
15587000,0.0324,0.013523,0.002678,0.000431,0.000353
15588000,0.0324,0.013523,0.002678,0.000431,0.000470
15589000,0.0324,0.013523,0.002678,0.000431,0.000470
15590000,0.0324,0.013523,0.002678,0.000431,0.000470
15591000,0.0324,0.013523,0.002678,0.000431,0.000470
15592000,0.0324,0.013523,0.002678,0.000431,0.000353
15593000,0.0324,0.013523,0.002678,0.000431,0.000588
15594000,0.0324,0.013523,0.002678,0.000431,0.000353
15595000,0.0324,0.013523,0.002678,0.000431,0.000588
15596000,0.0324,0.013523,0.002678,0.000431,0.000353
15597000,0.0324,0.013523,0.002678,0.000431,0.000588
15598000,0.0324,0.013523,0.002678,0.000431,0.000353
15599000,0.0324,0.013523,0.002678,0.000431,0.000588
15600000,0.0324,0.013523,0.002678,0.000431,0.000353
15601000,0.0324,0.013523,0.002678,0.000431,0.000705
15602000,0.0324,0.013523,0.002678,0.000431,0.000470
15603000,0.0324,0.013523,0.002678,0.000431,0.000470
15604000,0.0324,0.013523,0.002678,0.000431,0.000470
15605000,0.0324,0.013523,0.002678,0.000431,0.000470
15606000,0.0324,0.013523,0.002678,0.000431,0.000470
15607000,0.0324,0.013523,0.002678,0.000431,0.000470
15608000,0.0324,0.013523,0.002678,0.000431,0.000470
15609000,0.0324,0.013523,0.002678,0.000431,0.000470
15610000,0.0324,0.013523,0.002678,0.000431,0.000470
15611000,0.0324,0.013523,0.002678,0.000431,0.000470
15612000,0.0324,0.013523,0.002678,0.000431,0.000470
15613000,0.0324,0.013523,0.002678,0.000431,0.000470
15614000,0.0324,0.013523,0.002678,0.000431,0.000353
15615000,0.0324,0.013523,0.002678,0.000431,0.000588
15616000,0.0324,0.013523,0.002678,0.000431,0.000353
15617000,0.0324,0.013523,0.002678,0.000431,0.000588
15618000,0.0324,0.013523,0.002678,0.000431,0.000353
15619000,0.0324,0.013523,0.002678,0.000431,0.000588
15620000,0.0324,0.013523,0.002678,0.000431,0.000353
15621000,0.0324,0.013523,0.002678,0.000431,0.000705
15622000,0.0324,0.013523,0.002678,0.000431,0.000353
15623000,0.0324,0.013523,0.002678,0.000431,0.000705
15624000,0.0324,0.013523,0.002678,0.000431,0.000588
15625000,0.0324,0.013523,0.002678,0.000431,0.000470
15626000,0.0324,0.013523,0.002678,0.000431,0.000588
15627000,0.0324,0.013523,0.002678,0.000431,0.000353
15628000,0.0324,0.013523,0.002678,0.000431,0.000588
15629000,0.0324,0.013523,0.002678,0.000431,0.000353
15630000,0.0324,0.013523,0.002678,0.000431,0.000588
15631000,0.0324,0.013523,0.002678,0.000431,0.000470
15632000,0.0324,0.013523,0.002678,0.000431,0.000470
15633000,0.0324,0.013523,0.002678,0.000431,0.000588
15634000,0.0324,0.013523,0.002678,0.000431,0.000470
15635000,0.0324,0.013523,0.002678,0.000431,0.000588
15636000,0.0324,0.013523,0.002678,0.000431,0.000588
15637000,0.0324,0.013523,0.002678,0.000431,0.000470
15638000,0.0324,0.013523,0.002678,0.000431,0.000705
15639000,0.0324,0.013523,0.002678,0.000431,0.000353
15640000,0.0324,0.013523,0.002678,0.000431,0.000705
15641000,0.0324,0.013523,0.002678,0.000431,0.000470
15642000,0.0324,0.013523,0.002678,0.000431,0.000470
15643000,0.0324,0.013523,0.002678,0.000431,0.000470
15644000,0.0324,0.013523,0.002678,0.000431,0.000470
15645000,0.0324,0.013523,0.002678,0.000431,0.000470
15646000,0.0324,0.013523,0.002678,0.000431,0.000470
15647000,0.0324,0.013523,0.002678,0.000431,0.000470
15648000,0.0324,0.013523,0.002678,0.000431,0.000470
15649000,0.0324,0.013523,0.002678,0.000431,0.000470
15650000,0.0324,0.013523,0.002678,0.000431,0.000470
15651000,0.0324,0.013523,0.002678,0.000431,0.000353
15652000,0.0324,0.013523,0.002678,0.000431,0.000588
15653000,0.0324,0.013523,0.002678,0.000431,0.000353
15654000,0.0324,0.013523,0.002678,0.000431,0.000588
15655000,0.0324,0.013523,0.002678,0.000431,0.000353
15656000,0.0324,0.013523,0.002678,0.000431,0.000705
15657000,0.0324,0.013523,0.002678,0.000431,0.000353
15658000,0.0324,0.013523,0.002678,0.000431,0.000705
15659000,0.0324,0.013523,0.002678,0.000431,0.000470
15660000,0.0324,0.013523,0.002678,0.000431,0.000470
15661000,0.0324,0.013523,0.002678,0.000431,0.000470
15662000,0.0324,0.013523,0.002678,0.000431,0.000470
15663000,0.0324,0.013523,0.002678,0.000431,0.000470
15664000,0.0324,0.013523,0.002678,0.000431,0.000470
15665000,0.0324,0.013523,0.002678,0.000431,0.000470
15666000,0.0324,0.013523,0.002678,0.000431,0.000470
15667000,0.0324,0.013523,0.002678,0.000431,0.000470
15668000,0.0324,0.013523,0.002678,0.000431,0.000470
15669000,0.0324,0.013523,0.002678,0.000431,0.000353
15670000,0.0324,0.013523,0.002678,0.000431,0.000705
15671000,0.0324,0.013523,0.002678,0.000431,0.000353
15672000,0.0324,0.013523,0.002678,0.000431,0.000705
15673000,0.0324,0.013523,0.002678,0.000431,0.000470
15674000,0.0324,0.013523,0.002678,0.000431,0.000470
15675000,0.0324,0.013523,0.002678,0.000431,0.000470
15676000,0.0324,0.013523,0.002678,0.000431,0.000470
15677000,0.0324,0.013523,0.002678,0.000431,0.000470
15678000,0.0324,0.013523,0.002678,0.000431,0.000353
15679000,0.0324,0.013523,0.002678,0.000431,0.000588
15680000,0.0324,0.013523,0.002678,0.000431,0.000353
15681000,0.0324,0.013523,0.002678,0.000431,0.000588
15682000,0.0324,0.013523,0.002678,0.000431,0.000353
15683000,0.0324,0.013523,0.002678,0.000431,0.000470
15684000,0.0324,0.013523,0.002678,0.000431,0.000588
15685000,0.0324,0.013523,0.002678,0.000431,0.000588
15686000,0.0324,0.013523,0.002678,0.000431,0.000470
15687000,0.0324,0.013523,0.002678,0.000431,0.000705
15688000,0.0324,0.013523,0.002678,0.000431,0.000353
15689000,0.0324,0.013523,0.002678,0.000431,0.000588
15690000,0.0324,0.013523,0.002678,0.000431,0.000353
15691000,0.0324,0.013523,0.002678,0.000431,0.000588
15692000,0.0324,0.013523,0.002678,0.000431,0.000353
15693000,0.0324,0.013523,0.002678,0.000431,0.000705
15694000,0.0324,0.013523,0.002678,0.000431,0.000235
15695000,0.0324,0.013523,0.002678,0.000431,0.000588
15696000,0.0324,0.013523,0.002678,0.000431,0.000353
15697000,0.0324,0.013523,0.002678,0.000431,0.000823
15698000,0.0324,0.013523,0.002678,0.000431,0.000235
15699000,0.0324,0.013523,0.002678,0.000431,0.000705
15700000,0.0324,0.013523,0.002678,0.000431,0.000353
15701000,0.0324,0.013523,0.002678,0.000431,0.000705
15702000,0.0324,0.013523,0.002678,0.000431,0.000470
15703000,0.0324,0.013523,0.002678,0.000431,0.000470
15704000,0.0324,0.013523,0.002678,0.000431,0.000470
15705000,0.0324,0.013523,0.002678,0.000431,0.000470
15706000,0.0324,0.013523,0.002678,0.000431,0.000470
15707000,0.0324,0.013523,0.002678,0.000431,0.000588
15708000,0.0324,0.013523,0.002678,0.000431,0.000353
15709000,0.0324,0.013523,0.002678,0.000431,0.000588
15710000,0.0324,0.013523,0.002678,0.000431,0.000353
15711000,0.0324,0.013523,0.002678,0.000431,0.000705
15712000,0.0324,0.013523,0.002678,0.000431,0.000470
15713000,0.0324,0.013523,0.002678,0.000431,0.000470
15714000,0.0324,0.013523,0.002678,0.000431,0.000353
15715000,0.0324,0.013523,0.002678,0.000431,0.000588
15716000,0.0324,0.013523,0.002678,0.000431,0.000353
15717000,0.0324,0.013523,0.002678,0.000431,0.000588
15718000,0.0324,0.013523,0.002678,0.000431,0.000353
15719000,0.0324,0.013523,0.002678,0.000431,0.000588
15720000,0.0324,0.013523,0.002678,0.000431,0.000353
15721000,0.0324,0.013523,0.002678,0.000431,0.000588
15722000,0.0324,0.013523,0.002678,0.000431,0.000353
15723000,0.0324,0.013523,0.002678,0.000431,0.000705
15724000,0.0324,0.013523,0.002678,0.000431,0.000353
15725000,0.0324,0.013523,0.002678,0.000431,0.000705
15726000,0.0324,0.013523,0.002678,0.000431,0.000470
15727000,0.0324,0.013523,0.002678,0.000431,0.000353
15728000,0.0324,0.013523,0.002678,0.000431,0.000470
15729000,0.0324,0.013523,0.002678,0.000431,0.000705
15730000,0.0324,0.013523,0.002678,0.000431,0.000353
15731000,0.0324,0.013523,0.002678,0.000431,0.000588
15732000,0.0324,0.013523,0.002678,0.000431,0.000353
15733000,0.0324,0.013523,0.002678,0.000431,0.000588
15734000,0.0324,0.013523,0.002678,0.000431,0.000353
15735000,0.0324,0.013523,0.002678,0.000431,0.000588
15736000,0.0324,0.013523,0.002678,0.000431,0.000353
15737000,0.0324,0.013523,0.002678,0.000431,0.000470
15738000,0.0324,0.013523,0.002678,0.000431,0.000470
15739000,0.0324,0.013523,0.002678,0.000431,0.000470
15740000,0.0324,0.013523,0.002678,0.000431,0.000470
15741000,0.0324,0.013523,0.002678,0.000431,0.000470
15742000,0.0324,0.013523,0.002678,0.000431,0.000470
15743000,0.0324,0.013523,0.002678,0.000431,0.000588
15744000,0.0324,0.013523,0.002678,0.000431,0.000353
15745000,0.0324,0.013523,0.002678,0.000431,0.000705
15746000,0.0324,0.013523,0.002678,0.000431,0.000588
15747000,0.0324,0.013523,0.002678,0.000431,0.000470
15748000,0.0324,0.013523,0.002678,0.000431,0.000588
15749000,0.0324,0.013523,0.002678,0.000431,0.000353
15750000,0.0324,0.013523,0.002678,0.000431,0.000588
15751000,0.0324,0.013523,0.002678,0.000431,0.000353
15752000,0.0324,0.013523,0.002678,0.000431,0.000588
15753000,0.0324,0.013523,0.002678,0.000431,0.000353
15754000,0.0324,0.013523,0.002678,0.000431,0.000588
15755000,0.0324,0.013523,0.002678,0.000431,0.000353
15756000,0.0324,0.013523,0.002678,0.000431,0.000705
15757000,0.0324,0.013523,0.002678,0.000431,0.000470
15758000,0.0324,0.013523,0.002678,0.000431,0.000588
15759000,0.0324,0.013523,0.002678,0.000431,0.000353
15760000,0.0324,0.013523,0.002678,0.000431,0.000470
15761000,0.0324,0.013523,0.002678,0.000431,0.000470
15762000,0.0324,0.013523,0.002678,0.000431,0.000470
15763000,0.0324,0.013523,0.002678,0.000431,0.000705
15764000,0.0324,0.013523,0.002678,0.000431,0.000470
15765000,0.0324,0.013523,0.002678,0.000431,0.000470
15766000,0.0324,0.013523,0.002678,0.000431,0.000353
15767000,0.0324,0.013523,0.002678,0.000431,0.000588
15768000,0.0324,0.013523,0.002678,0.000431,0.000353
15769000,0.0324,0.013523,0.002678,0.000431,0.000588
15770000,0.0324,0.013523,0.002678,0.000431,0.000353
15771000,0.0324,0.013523,0.002678,0.000431,0.000705
15772000,0.0324,0.013523,0.002678,0.000431,0.000470
15773000,0.0324,0.013523,0.002678,0.000431,0.000588
15774000,0.0324,0.013523,0.002678,0.000431,0.000353
15775000,0.0324,0.013523,0.002678,0.000431,0.000705
15776000,0.0324,0.013523,0.002678,0.000431,0.000470
15777000,0.0324,0.013523,0.002678,0.000431,0.000470
15778000,0.0324,0.013523,0.002678,0.000431,0.000470
15779000,0.0324,0.013523,0.002678,0.000431,0.000470
15780000,0.0324,0.013523,0.002678,0.000431,0.000470
15781000,0.0324,0.013523,0.002678,0.000431,0.000470
15782000,0.0324,0.013523,0.002678,0.000431,0.000470
15783000,0.0324,0.013523,0.002678,0.000431,0.000470
15784000,0.0324,0.013523,0.002678,0.000431,0.000470
15785000,0.0324,0.013523,0.002678,0.000431,0.000470
15786000,0.0324,0.013523,0.002678,0.000431,0.000353
15787000,0.0324,0.013523,0.002678,0.000431,0.000588
15788000,0.0324,0.013523,0.002678,0.000431,0.000353
15789000,0.0324,0.013523,0.002678,0.000431,0.000588
15790000,0.0324,0.013523,0.002678,0.000431,0.000353
15791000,0.0324,0.013523,0.002678,0.000431,0.000588
15792000,0.0324,0.013523,0.002678,0.000431,0.000353
15793000,0.0324,0.013523,0.002678,0.000431,0.000588
15794000,0.0324,0.013523,0.002678,0.000431,0.000353
15795000,0.0324,0.013523,0.002678,0.000431,0.000470
15796000,0.0324,0.013523,0.002678,0.000431,0.000470
15797000,0.0324,0.013523,0.002678,0.000431,0.000588
15798000,0.0324,0.013523,0.002678,0.000431,0.000235
15799000,0.0324,0.013523,0.002678,0.000431,0.000588
15800000,0.0324,0.013523,0.002678,0.000431,0.000353
15801000,0.0324,0.013523,0.002678,0.000431,0.000588
15802000,0.0324,0.013523,0.002678,0.000431,0.000353
15803000,0.0324,0.013523,0.002678,0.000431,0.000705
15804000,0.0324,0.013523,0.002678,0.000431,0.000353
15805000,0.0324,0.013523,0.002678,0.000431,0.000588
15806000,0.0324,0.013523,0.002678,0.000431,0.000588
15807000,0.0324,0.013523,0.002678,0.000431,0.000470
15808000,0.0324,0.013523,0.002678,0.000431,0.000588
15809000,0.0324,0.013523,0.002678,0.000431,0.000470
15810000,0.0324,0.013523,0.002678,0.000431,0.000470
15811000,0.0324,0.013523,0.002678,0.000431,0.000470
15812000,0.0324,0.013523,0.002678,0.000431,0.000470
15813000,0.0324,0.013523,0.002678,0.000431,0.000470
15814000,0.0324,0.013523,0.002678,0.000431,0.000470
15815000,0.0324,0.013523,0.002678,0.000431,0.000470
15816000,0.0324,0.013523,0.002678,0.000431,0.000470
15817000,0.0324,0.013523,0.002678,0.000431,0.000470
15818000,0.0324,0.013523,0.002678,0.000431,0.000470
15819000,0.0324,0.013523,0.002678,0.000431,0.000353
15820000,0.0324,0.013523,0.002678,0.000431,0.000588
15821000,0.0324,0.013523,0.002678,0.000431,0.000353
15822000,0.0324,0.013523,0.002678,0.000431,0.000588
15823000,0.0324,0.013523,0.002678,0.000431,0.000470
15824000,0.0324,0.013523,0.002678,0.000431,0.000470
15825000,0.0324,0.013523,0.002678,0.000431,0.000470
15826000,0.0324,0.013523,0.002678,0.000431,0.000470
15827000,0.0324,0.013523,0.002678,0.000431,0.000470
15828000,0.0324,0.013523,0.002678,0.000431,0.000353
15829000,0.0324,0.013523,0.002678,0.000431,0.000588
15830000,0.0324,0.013523,0.002678,0.000431,0.000353
15831000,0.0324,0.013523,0.002678,0.000431,0.000823
15832000,0.0324,0.013523,0.002678,0.000431,0.000353
15833000,0.0324,0.013523,0.002678,0.000431,0.000588
15834000,0.0324,0.013523,0.002678,0.000431,0.000353
15835000,0.0324,0.013523,0.002678,0.000431,0.000705
15836000,0.0324,0.013523,0.002678,0.000431,0.000353
15837000,0.0324,0.013523,0.002678,0.000431,0.000705
15838000,0.0324,0.013523,0.002678,0.000431,0.000470
15839000,0.0324,0.013523,0.002678,0.000431,0.000470
15840000,0.0324,0.013523,0.002678,0.000431,0.000470
15841000,0.0324,0.013523,0.002678,0.000431,0.000470
15842000,0.0324,0.013523,0.002678,0.000431,0.000470
15843000,0.0324,0.013523,0.002678,0.000431,0.000470
15844000,0.0324,0.013523,0.002678,0.000431,0.000353
15845000,0.0324,0.013523,0.002678,0.000431,0.000588
15846000,0.0324,0.013523,0.002678,0.000431,0.000353
15847000,0.0324,0.013523,0.002678,0.000431,0.000588
15848000,0.0324,0.013523,0.002678,0.000431,0.000353
15849000,0.0324,0.013523,0.002678,0.000431,0.000588
15850000,0.0324,0.013523,0.002678,0.000431,0.000353
15851000,0.0324,0.013523,0.002678,0.000431,0.000588
15852000,0.0324,0.013523,0.002678,0.000431,0.000353
15853000,0.0324,0.013523,0.002678,0.000431,0.000588
15854000,0.0324,0.013523,0.002678,0.000431,0.000353
15855000,0.0324,0.013523,0.002678,0.000431,0.000588
15856000,0.0324,0.013523,0.002678,0.000431,0.000353
15857000,0.0324,0.013523,0.002678,0.000431,0.000705
15858000,0.0324,0.013523,0.002678,0.000431,0.000353
15859000,0.0324,0.013523,0.002678,0.000431,0.000588
15860000,0.0324,0.013523,0.002678,0.000431,0.000353
15861000,0.0324,0.013523,0.002678,0.000431,0.000823
15862000,0.0324,0.013523,0.002678,0.000431,0.000353
15863000,0.0324,0.013523,0.002678,0.000431,0.000470
15864000,0.0324,0.013523,0.002678,0.000431,0.000470
15865000,0.0324,0.013523,0.002678,0.000431,0.000470
15866000,0.0324,0.013523,0.002678,0.000431,0.000470
15867000,0.0324,0.013523,0.002678,0.000431,0.000470
15868000,0.0324,0.013523,0.002678,0.000431,0.000470
15869000,0.0324,0.013523,0.002678,0.000431,0.000588
15870000,0.0324,0.013523,0.002678,0.000431,0.000353
15871000,0.0324,0.013523,0.002678,0.000431,0.000588
15872000,0.0324,0.013523,0.002678,0.000431,0.000353
15873000,0.0324,0.013523,0.002678,0.000431,0.000470
15874000,0.0324,0.013523,0.002678,0.000431,0.000470
15875000,0.0324,0.013523,0.002678,0.000431,0.000470
15876000,0.0324,0.013523,0.002678,0.000431,0.000470
15877000,0.0324,0.013523,0.002678,0.000431,0.000470
15878000,0.0324,0.013523,0.002678,0.000431,0.000353
15879000,0.0324,0.013523,0.002678,0.000431,0.000588
15880000,0.0324,0.013523,0.002678,0.000431,0.000353
15881000,0.0324,0.013523,0.002678,0.000431,0.000705
15882000,0.0324,0.013523,0.002678,0.000431,0.000353
15883000,0.0324,0.013523,0.002678,0.000431,0.000588
15884000,0.0324,0.013523,0.002678,0.000431,0.000353
15885000,0.0324,0.013523,0.002678,0.000431,0.000588
15886000,0.0324,0.013523,0.002678,0.000431,0.000353
15887000,0.0324,0.013523,0.002678,0.000431,0.000588
15888000,0.0324,0.013523,0.002678,0.000431,0.000353
15889000,0.0324,0.013523,0.002678,0.000431,0.000588
15890000,0.0324,0.013523,0.002678,0.000431,0.000353
15891000,0.0324,0.013523,0.002678,0.000431,0.000588
15892000,0.0324,0.013523,0.002678,0.000431,0.000353
15893000,0.0324,0.013523,0.002678,0.000431,0.000588
15894000,0.0324,0.013523,0.002678,0.000431,0.000353
15895000,0.0324,0.013523,0.002678,0.000431,0.000470
15896000,0.0324,0.013523,0.002678,0.000431,0.000470
15897000,0.0324,0.013523,0.002678,0.000431,0.000470
15898000,0.0324,0.013523,0.002678,0.000431,0.000470
15899000,0.0324,0.013523,0.002678,0.000431,0.000470
15900000,0.0324,0.013523,0.002678,0.000431,0.000353
15901000,0.0324,0.013523,0.002678,0.000431,0.000588
15902000,0.0324,0.013523,0.002678,0.000431,0.000353
15903000,0.0324,0.013523,0.002678,0.000431,0.000588
15904000,0.0324,0.013523,0.002678,0.000431,0.000470
15905000,0.0324,0.013523,0.002678,0.000431,0.000470
15906000,0.0324,0.013523,0.002678,0.000431,0.000353
15907000,0.0324,0.013523,0.002678,0.000431,0.000588
15908000,0.0324,0.013523,0.002678,0.000431,0.000353
15909000,0.0324,0.013523,0.002678,0.000431,0.000353
15910000,0.0324,0.013523,0.002678,0.000431,0.000705
15911000,0.0324,0.013523,0.002678,0.000431,0.000588
15912000,0.0324,0.013523,0.002678,0.000431,0.000470
15913000,0.0324,0.013523,0.002678,0.000431,0.000588
15914000,0.0324,0.013523,0.002678,0.000431,0.000353
15915000,0.0324,0.013523,0.002678,0.000431,0.000470
15916000,0.0324,0.013523,0.002678,0.000431,0.000470
15917000,0.0324,0.013523,0.002678,0.000431,0.000705
15918000,0.0324,0.013523,0.002678,0.000431,0.000353
15919000,0.0324,0.013523,0.002678,0.000431,0.000588
15920000,0.0324,0.013523,0.002678,0.000431,0.000353
15921000,0.0324,0.013523,0.002678,0.000431,0.000588
15922000,0.0324,0.013523,0.002678,0.000431,0.000470
15923000,0.0324,0.013523,0.002678,0.000431,0.000705
15924000,0.0324,0.013523,0.002678,0.000431,0.000353
15925000,0.0324,0.013523,0.002678,0.000431,0.000705
15926000,0.0324,0.013523,0.002678,0.000431,0.000588
15927000,0.0324,0.013523,0.002678,0.000431,0.000470
15928000,0.0324,0.013523,0.002678,0.000431,0.000705
15929000,0.0324,0.013523,0.002678,0.000431,0.000353
15930000,0.0324,0.013523,0.002678,0.000431,0.000588
15931000,0.0324,0.013523,0.002678,0.000431,0.000353
15932000,0.0324,0.013523,0.002678,0.000431,0.000588
15933000,0.0324,0.013523,0.002678,0.000431,0.000470
15934000,0.0324,0.013523,0.002678,0.000431,0.000705
15935000,0.0324,0.013523,0.002678,0.000431,0.000470
15936000,0.0324,0.013523,0.002678,0.000431,0.000470
15937000,0.0324,0.013523,0.002678,0.000431,0.000353
15938000,0.0324,0.013523,0.002678,0.000431,0.000705
15939000,0.0324,0.013523,0.002678,0.000431,0.000470
15940000,0.0324,0.013523,0.002678,0.000431,0.000470
15941000,0.0324,0.013523,0.002678,0.000431,0.000470
15942000,0.0324,0.013523,0.002678,0.000431,0.000470
15943000,0.0324,0.013523,0.002678,0.000431,0.000470
15944000,0.0324,0.013523,0.002678,0.000431,0.000470
15945000,0.0324,0.013523,0.002678,0.000431,0.000470
15946000,0.0324,0.013523,0.002678,0.000431,0.000470
15947000,0.0324,0.013523,0.002678,0.000431,0.000470
15948000,0.0324,0.013523,0.002678,0.000431,0.000353
15949000,0.0324,0.013523,0.002678,0.000431,0.000588
15950000,0.0324,0.013523,0.002678,0.000431,0.000353
15951000,0.0324,0.013523,0.002678,0.000431,0.000705
15952000,0.0324,0.013523,0.002678,0.000431,0.000470
15953000,0.0324,0.013523,0.002678,0.000431,0.000470
15954000,0.0324,0.013523,0.002678,0.000431,0.000470
15955000,0.0324,0.013523,0.002678,0.000431,0.000470
15956000,0.0324,0.013523,0.002678,0.000431,0.000470
15957000,0.0324,0.013523,0.002678,0.000431,0.000470
15958000,0.0324,0.013523,0.002678,0.000431,0.000470
15959000,0.0324,0.013523,0.002678,0.000431,0.000353
15960000,0.0324,0.013523,0.002678,0.000431,0.000588
15961000,0.0324,0.013523,0.002678,0.000431,0.000353
15962000,0.0324,0.013523,0.002678,0.000431,0.000588
15963000,0.0324,0.013523,0.002678,0.000431,0.000353
15964000,0.0324,0.013523,0.002678,0.000431,0.000588
15965000,0.0324,0.013523,0.002678,0.000431,0.000353
15966000,0.0324,0.013523,0.002678,0.000431,0.000588
15967000,0.0324,0.013523,0.002678,0.000431,0.000353
15968000,0.0324,0.013523,0.002678,0.000431,0.000470
15969000,0.0324,0.013523,0.002678,0.000431,0.000470
15970000,0.0324,0.013523,0.002678,0.000431,0.000588
15971000,0.0324,0.013523,0.002678,0.000431,0.000470
15972000,0.0324,0.013523,0.002678,0.000431,0.000705
15973000,0.0324,0.013523,0.002678,0.000431,0.000353
15974000,0.0324,0.013523,0.002678,0.000431,0.000705
15975000,0.0324,0.013523,0.002678,0.000431,0.000353
15976000,0.0324,0.013523,0.002678,0.000431,0.000588
15977000,0.0324,0.013523,0.002678,0.000431,0.000588
15978000,0.0324,0.013523,0.002678,0.000431,0.000470
15979000,0.0324,0.013523,0.002678,0.000431,0.000705
15980000,0.0324,0.013523,0.002678,0.000431,0.000470
15981000,0.0324,0.013523,0.002678,0.000431,0.000588
15982000,0.0324,0.013523,0.002678,0.000431,0.000353
15983000,0.0324,0.013523,0.002678,0.000431,0.000588
15984000,0.0324,0.013523,0.002678,0.000431,0.000353
15985000,0.0324,0.013523,0.002678,0.000431,0.000588
15986000,0.0324,0.013523,0.002678,0.000431,0.000353
15987000,0.0324,0.013523,0.002678,0.000431,0.000705
15988000,0.0324,0.013523,0.002678,0.000431,0.000353
15989000,0.0324,0.013523,0.002678,0.000431,0.000588
15990000,0.0324,0.013523,0.002678,0.000431,0.000353
15991000,0.0324,0.013523,0.002678,0.000431,0.000588
15992000,0.0324,0.013523,0.002678,0.000431,0.000353
15993000,0.0324,0.013523,0.002678,0.000431,0.000588
15994000,0.0324,0.013523,0.002678,0.000431,0.000470
15995000,0.0324,0.013523,0.002678,0.000431,0.000705
15996000,0.0324,0.013523,0.002678,0.000431,0.000235
15997000,0.0324,0.013523,0.002678,0.000431,0.000705
15998000,0.0324,0.013523,0.002678,0.000431,0.000353
15999000,0.0324,0.013523,0.002678,0.000431,0.000705
