Cycle,Area(mm^2),PeakDynamic(W),SubthresholdLeakage(W),GateLeakage(W),RunTimeDynamic(W)
58000000,0.0324,0.013523,0.002678,0.000431,0.000470
58001000,0.0324,0.013523,0.002678,0.000431,0.000470
58002000,0.0324,0.013523,0.002678,0.000431,0.000470
58003000,0.0324,0.013523,0.002678,0.000431,0.000470
58004000,0.0324,0.013523,0.002678,0.000431,0.000470
58005000,0.0324,0.013523,0.002678,0.000431,0.000588
58006000,0.0324,0.013523,0.002678,0.000431,0.000353
58007000,0.0324,0.013523,0.002678,0.000431,0.000470
58008000,0.0324,0.013523,0.002678,0.000431,0.000470
58009000,0.0324,0.013523,0.002678,0.000431,0.000470
58010000,0.0324,0.013523,0.002678,0.000431,0.000470
58011000,0.0324,0.013523,0.002678,0.000431,0.000470
58012000,0.0324,0.013523,0.002678,0.000431,0.000470
58013000,0.0324,0.013523,0.002678,0.000431,0.000470
58014000,0.0324,0.013523,0.002678,0.000431,0.000470
58015000,0.0324,0.013523,0.002678,0.000431,0.000470
58016000,0.0324,0.013523,0.002678,0.000431,0.000235
58017000,0.0324,0.013523,0.002678,0.000431,0.000705
58018000,0.0324,0.013523,0.002678,0.000431,0.000353
58019000,0.0324,0.013523,0.002678,0.000431,0.000588
58020000,0.0324,0.013523,0.002678,0.000431,0.000353
58021000,0.0324,0.013523,0.002678,0.000431,0.000470
58022000,0.0324,0.013523,0.002678,0.000431,0.000353
58023000,0.0324,0.013523,0.002678,0.000431,0.000588
58024000,0.0324,0.013523,0.002678,0.000431,0.000353
58025000,0.0324,0.013523,0.002678,0.000431,0.000588
58026000,0.0324,0.013523,0.002678,0.000431,0.000353
58027000,0.0324,0.013523,0.002678,0.000431,0.000588
58028000,0.0324,0.013523,0.002678,0.000431,0.000353
58029000,0.0324,0.013523,0.002678,0.000431,0.000588
58030000,0.0324,0.013523,0.002678,0.000431,0.000353
58031000,0.0324,0.013523,0.002678,0.000431,0.000470
58032000,0.0324,0.013523,0.002678,0.000431,0.000470
58033000,0.0324,0.013523,0.002678,0.000431,0.000588
58034000,0.0324,0.013523,0.002678,0.000431,0.000470
58035000,0.0324,0.013523,0.002678,0.000431,0.000705
58036000,0.0324,0.013523,0.002678,0.000431,0.000353
58037000,0.0324,0.013523,0.002678,0.000431,0.000588
58038000,0.0324,0.013523,0.002678,0.000431,0.000470
58039000,0.0324,0.013523,0.002678,0.000431,0.000588
58040000,0.0324,0.013523,0.002678,0.000431,0.000588
58041000,0.0324,0.013523,0.002678,0.000431,0.000470
58042000,0.0324,0.013523,0.002678,0.000431,0.000705
58043000,0.0324,0.013523,0.002678,0.000431,0.000353
58044000,0.0324,0.013523,0.002678,0.000431,0.000588
58045000,0.0324,0.013523,0.002678,0.000431,0.000353
58046000,0.0324,0.013523,0.002678,0.000431,0.000588
58047000,0.0324,0.013523,0.002678,0.000431,0.000353
58048000,0.0324,0.013523,0.002678,0.000431,0.000588
58049000,0.0324,0.013523,0.002678,0.000431,0.000353
58050000,0.0324,0.013523,0.002678,0.000431,0.000588
58051000,0.0324,0.013523,0.002678,0.000431,0.000470
58052000,0.0324,0.013523,0.002678,0.000431,0.000588
58053000,0.0324,0.013523,0.002678,0.000431,0.000588
58054000,0.0324,0.013523,0.002678,0.000431,0.000470
58055000,0.0324,0.013523,0.002678,0.000431,0.000588
58056000,0.0324,0.013523,0.002678,0.000431,0.000353
58057000,0.0324,0.013523,0.002678,0.000431,0.000588
58058000,0.0324,0.013523,0.002678,0.000431,0.000470
58059000,0.0324,0.013523,0.002678,0.000431,0.000470
58060000,0.0324,0.013523,0.002678,0.000431,0.000353
58061000,0.0324,0.013523,0.002678,0.000431,0.000705
58062000,0.0324,0.013523,0.002678,0.000431,0.000470
58063000,0.0324,0.013523,0.002678,0.000431,0.000705
58064000,0.0324,0.013523,0.002678,0.000431,0.000353
58065000,0.0324,0.013523,0.002678,0.000431,0.000588
58066000,0.0324,0.013523,0.002678,0.000431,0.000470
58067000,0.0324,0.013523,0.002678,0.000431,0.000705
58068000,0.0324,0.013523,0.002678,0.000431,0.000353
58069000,0.0324,0.013523,0.002678,0.000431,0.000705
58070000,0.0324,0.013523,0.002678,0.000431,0.000470
58071000,0.0324,0.013523,0.002678,0.000431,0.000353
58072000,0.0324,0.013523,0.002678,0.000431,0.000588
58073000,0.0324,0.013523,0.002678,0.000431,0.000470
58074000,0.0324,0.013523,0.002678,0.000431,0.000588
58075000,0.0324,0.013523,0.002678,0.000431,0.000470
58076000,0.0324,0.013523,0.002678,0.000431,0.000470
58077000,0.0324,0.013523,0.002678,0.000431,0.000470
58078000,0.0324,0.013523,0.002678,0.000431,0.000705
58079000,0.0324,0.013523,0.002678,0.000431,0.000353
58080000,0.0324,0.013523,0.002678,0.000431,0.000705
58081000,0.0324,0.013523,0.002678,0.000431,0.000588
58082000,0.0324,0.013523,0.002678,0.000431,0.000470
58083000,0.0324,0.013523,0.002678,0.000431,0.000588
58084000,0.0324,0.013523,0.002678,0.000431,0.000353
58085000,0.0324,0.013523,0.002678,0.000431,0.000588
58086000,0.0324,0.013523,0.002678,0.000431,0.000353
58087000,0.0324,0.013523,0.002678,0.000431,0.000588
58088000,0.0324,0.013523,0.002678,0.000431,0.000353
58089000,0.0324,0.013523,0.002678,0.000431,0.000470
58090000,0.0324,0.013523,0.002678,0.000431,0.000588
58091000,0.0324,0.013523,0.002678,0.000431,0.000588
58092000,0.0324,0.013523,0.002678,0.000431,0.000470
58093000,0.0324,0.013523,0.002678,0.000431,0.000588
58094000,0.0324,0.013523,0.002678,0.000431,0.000470
58095000,0.0324,0.013523,0.002678,0.000431,0.000470
58096000,0.0324,0.013523,0.002678,0.000431,0.000470
58097000,0.0324,0.013523,0.002678,0.000431,0.000470
58098000,0.0324,0.013523,0.002678,0.000431,0.000353
58099000,0.0324,0.013523,0.002678,0.000431,0.000588
58100000,0.0324,0.013523,0.002678,0.000431,0.000353
58101000,0.0324,0.013523,0.002678,0.000431,0.000588
58102000,0.0324,0.013523,0.002678,0.000431,0.000353
58103000,0.0324,0.013523,0.002678,0.000431,0.000588
58104000,0.0324,0.013523,0.002678,0.000431,0.000353
58105000,0.0324,0.013523,0.002678,0.000431,0.000470
58106000,0.0324,0.013523,0.002678,0.000431,0.000588
58107000,0.0324,0.013523,0.002678,0.000431,0.000470
58108000,0.0324,0.013523,0.002678,0.000431,0.000470
58109000,0.0324,0.013523,0.002678,0.000431,0.000470
58110000,0.0324,0.013523,0.002678,0.000431,0.000470
58111000,0.0324,0.013523,0.002678,0.000431,0.000470
58112000,0.0324,0.013523,0.002678,0.000431,0.000588
58113000,0.0324,0.013523,0.002678,0.000431,0.000353
58114000,0.0324,0.013523,0.002678,0.000431,0.000470
58115000,0.0324,0.013523,0.002678,0.000431,0.000470
58116000,0.0324,0.013523,0.002678,0.000431,0.000588
58117000,0.0324,0.013523,0.002678,0.000431,0.000353
58118000,0.0324,0.013523,0.002678,0.000431,0.000588
58119000,0.0324,0.013523,0.002678,0.000431,0.000353
58120000,0.0324,0.013523,0.002678,0.000431,0.000588
58121000,0.0324,0.013523,0.002678,0.000431,0.000470
58122000,0.0324,0.013523,0.002678,0.000431,0.000588
58123000,0.0324,0.013523,0.002678,0.000431,0.000588
58124000,0.0324,0.013523,0.002678,0.000431,0.000470
58125000,0.0324,0.013523,0.002678,0.000431,0.000588
58126000,0.0324,0.013523,0.002678,0.000431,0.000353
58127000,0.0324,0.013523,0.002678,0.000431,0.000705
58128000,0.0324,0.013523,0.002678,0.000431,0.000353
58129000,0.0324,0.013523,0.002678,0.000431,0.000588
58130000,0.0324,0.013523,0.002678,0.000431,0.000353
58131000,0.0324,0.013523,0.002678,0.000431,0.000588
58132000,0.0324,0.013523,0.002678,0.000431,0.000353
58133000,0.0324,0.013523,0.002678,0.000431,0.000588
58134000,0.0324,0.013523,0.002678,0.000431,0.000353
58135000,0.0324,0.013523,0.002678,0.000431,0.000588
58136000,0.0324,0.013523,0.002678,0.000431,0.000353
58137000,0.0324,0.013523,0.002678,0.000431,0.000470
58138000,0.0324,0.013523,0.002678,0.000431,0.000470
58139000,0.0324,0.013523,0.002678,0.000431,0.000470
58140000,0.0324,0.013523,0.002678,0.000431,0.000470
58141000,0.0324,0.013523,0.002678,0.000431,0.000470
58142000,0.0324,0.013523,0.002678,0.000431,0.000470
58143000,0.0324,0.013523,0.002678,0.000431,0.000470
58144000,0.0324,0.013523,0.002678,0.000431,0.000470
58145000,0.0324,0.013523,0.002678,0.000431,0.000470
58146000,0.0324,0.013523,0.002678,0.000431,0.000470
58147000,0.0324,0.013523,0.002678,0.000431,0.000470
58148000,0.0324,0.013523,0.002678,0.000431,0.000353
58149000,0.0324,0.013523,0.002678,0.000431,0.000588
58150000,0.0324,0.013523,0.002678,0.000431,0.000353
58151000,0.0324,0.013523,0.002678,0.000431,0.000588
58152000,0.0324,0.013523,0.002678,0.000431,0.000353
58153000,0.0324,0.013523,0.002678,0.000431,0.000470
58154000,0.0324,0.013523,0.002678,0.000431,0.000470
58155000,0.0324,0.013523,0.002678,0.000431,0.000353
58156000,0.0324,0.013523,0.002678,0.000431,0.000588
58157000,0.0324,0.013523,0.002678,0.000431,0.000353
58158000,0.0324,0.013523,0.002678,0.000431,0.000705
58159000,0.0324,0.013523,0.002678,0.000431,0.000588
58160000,0.0324,0.013523,0.002678,0.000431,0.000470
58161000,0.0324,0.013523,0.002678,0.000431,0.000588
58162000,0.0324,0.013523,0.002678,0.000431,0.000353
58163000,0.0324,0.013523,0.002678,0.000431,0.000588
58164000,0.0324,0.013523,0.002678,0.000431,0.000235
58165000,0.0324,0.013523,0.002678,0.000431,0.000588
58166000,0.0324,0.013523,0.002678,0.000431,0.000353
58167000,0.0324,0.013523,0.002678,0.000431,0.000588
58168000,0.0324,0.013523,0.002678,0.000431,0.000353
58169000,0.0324,0.013523,0.002678,0.000431,0.000470
58170000,0.0324,0.013523,0.002678,0.000431,0.000470
58171000,0.0324,0.013523,0.002678,0.000431,0.000470
58172000,0.0324,0.013523,0.002678,0.000431,0.000470
58173000,0.0324,0.013523,0.002678,0.000431,0.000470
58174000,0.0324,0.013523,0.002678,0.000431,0.000470
58175000,0.0324,0.013523,0.002678,0.000431,0.000470
58176000,0.0324,0.013523,0.002678,0.000431,0.000470
58177000,0.0324,0.013523,0.002678,0.000431,0.000470
58178000,0.0324,0.013523,0.002678,0.000431,0.000470
58179000,0.0324,0.013523,0.002678,0.000431,0.000470
58180000,0.0324,0.013523,0.002678,0.000431,0.000353
58181000,0.0324,0.013523,0.002678,0.000431,0.000588
58182000,0.0324,0.013523,0.002678,0.000431,0.000470
58183000,0.0324,0.013523,0.002678,0.000431,0.000470
58184000,0.0324,0.013523,0.002678,0.000431,0.000470
58185000,0.0324,0.013523,0.002678,0.000431,0.000470
58186000,0.0324,0.013523,0.002678,0.000431,0.000470
58187000,0.0324,0.013523,0.002678,0.000431,0.000470
58188000,0.0324,0.013523,0.002678,0.000431,0.000470
58189000,0.0324,0.013523,0.002678,0.000431,0.000353
58190000,0.0324,0.013523,0.002678,0.000431,0.000588
58191000,0.0324,0.013523,0.002678,0.000431,0.000353
58192000,0.0324,0.013523,0.002678,0.000431,0.000705
58193000,0.0324,0.013523,0.002678,0.000431,0.000353
58194000,0.0324,0.013523,0.002678,0.000431,0.000705
58195000,0.0324,0.013523,0.002678,0.000431,0.000470
58196000,0.0324,0.013523,0.002678,0.000431,0.000470
58197000,0.0324,0.013523,0.002678,0.000431,0.000470
58198000,0.0324,0.013523,0.002678,0.000431,0.000470
58199000,0.0324,0.013523,0.002678,0.000431,0.000470
58200000,0.0324,0.013523,0.002678,0.000431,0.000470
58201000,0.0324,0.013523,0.002678,0.000431,0.000470
58202000,0.0324,0.013523,0.002678,0.000431,0.000470
58203000,0.0324,0.013523,0.002678,0.000431,0.000353
58204000,0.0324,0.013523,0.002678,0.000431,0.000588
58205000,0.0324,0.013523,0.002678,0.000431,0.000353
58206000,0.0324,0.013523,0.002678,0.000431,0.000588
58207000,0.0324,0.013523,0.002678,0.000431,0.000353
58208000,0.0324,0.013523,0.002678,0.000431,0.000588
58209000,0.0324,0.013523,0.002678,0.000431,0.000353
58210000,0.0324,0.013523,0.002678,0.000431,0.000588
58211000,0.0324,0.013523,0.002678,0.000431,0.000353
58212000,0.0324,0.013523,0.002678,0.000431,0.000588
58213000,0.0324,0.013523,0.002678,0.000431,0.000353
58214000,0.0324,0.013523,0.002678,0.000431,0.000705
58215000,0.0324,0.013523,0.002678,0.000431,0.000353
58216000,0.0324,0.013523,0.002678,0.000431,0.000705
58217000,0.0324,0.013523,0.002678,0.000431,0.000353
58218000,0.0324,0.013523,0.002678,0.000431,0.000705
58219000,0.0324,0.013523,0.002678,0.000431,0.000470
58220000,0.0324,0.013523,0.002678,0.000431,0.000470
58221000,0.0324,0.013523,0.002678,0.000431,0.000353
58222000,0.0324,0.013523,0.002678,0.000431,0.000588
58223000,0.0324,0.013523,0.002678,0.000431,0.000353
58224000,0.0324,0.013523,0.002678,0.000431,0.000588
58225000,0.0324,0.013523,0.002678,0.000431,0.000353
58226000,0.0324,0.013523,0.002678,0.000431,0.000588
58227000,0.0324,0.013523,0.002678,0.000431,0.000353
58228000,0.0324,0.013523,0.002678,0.000431,0.000588
58229000,0.0324,0.013523,0.002678,0.000431,0.000353
58230000,0.0324,0.013523,0.002678,0.000431,0.000705
58231000,0.0324,0.013523,0.002678,0.000431,0.000588
58232000,0.0324,0.013523,0.002678,0.000431,0.000470
58233000,0.0324,0.013523,0.002678,0.000431,0.000588
58234000,0.0324,0.013523,0.002678,0.000431,0.000353
58235000,0.0324,0.013523,0.002678,0.000431,0.000588
58236000,0.0324,0.013523,0.002678,0.000431,0.000353
58237000,0.0324,0.013523,0.002678,0.000431,0.000588
58238000,0.0324,0.013523,0.002678,0.000431,0.000353
58239000,0.0324,0.013523,0.002678,0.000431,0.000470
58240000,0.0324,0.013523,0.002678,0.000431,0.000470
58241000,0.0324,0.013523,0.002678,0.000431,0.000470
58242000,0.0324,0.013523,0.002678,0.000431,0.000470
58243000,0.0324,0.013523,0.002678,0.000431,0.000353
58244000,0.0324,0.013523,0.002678,0.000431,0.000588
58245000,0.0324,0.013523,0.002678,0.000431,0.000353
58246000,0.0324,0.013523,0.002678,0.000431,0.000588
58247000,0.0324,0.013523,0.002678,0.000431,0.000353
58248000,0.0324,0.013523,0.002678,0.000431,0.000588
58249000,0.0324,0.013523,0.002678,0.000431,0.000353
58250000,0.0324,0.013523,0.002678,0.000431,0.000588
58251000,0.0324,0.013523,0.002678,0.000431,0.000353
58252000,0.0324,0.013523,0.002678,0.000431,0.000705
58253000,0.0324,0.013523,0.002678,0.000431,0.000588
58254000,0.0324,0.013523,0.002678,0.000431,0.000470
58255000,0.0324,0.013523,0.002678,0.000431,0.000705
58256000,0.0324,0.013523,0.002678,0.000431,0.000353
58257000,0.0324,0.013523,0.002678,0.000431,0.000705
58258000,0.0324,0.013523,0.002678,0.000431,0.000235
58259000,0.0324,0.013523,0.002678,0.000431,0.000705
58260000,0.0324,0.013523,0.002678,0.000431,0.000588
58261000,0.0324,0.013523,0.002678,0.000431,0.000470
58262000,0.0324,0.013523,0.002678,0.000431,0.000705
58263000,0.0324,0.013523,0.002678,0.000431,0.000353
58264000,0.0324,0.013523,0.002678,0.000431,0.000705
58265000,0.0324,0.013523,0.002678,0.000431,0.000470
58266000,0.0324,0.013523,0.002678,0.000431,0.000470
58267000,0.0324,0.013523,0.002678,0.000431,0.000470
58268000,0.0324,0.013523,0.002678,0.000431,0.000470
58269000,0.0324,0.013523,0.002678,0.000431,0.000470
58270000,0.0324,0.013523,0.002678,0.000431,0.000470
58271000,0.0324,0.013523,0.002678,0.000431,0.000470
58272000,0.0324,0.013523,0.002678,0.000431,0.000470
58273000,0.0324,0.013523,0.002678,0.000431,0.000470
58274000,0.0324,0.013523,0.002678,0.000431,0.000470
58275000,0.0324,0.013523,0.002678,0.000431,0.000353
58276000,0.0324,0.013523,0.002678,0.000431,0.000588
58277000,0.0324,0.013523,0.002678,0.000431,0.000353
58278000,0.0324,0.013523,0.002678,0.000431,0.000588
58279000,0.0324,0.013523,0.002678,0.000431,0.000353
58280000,0.0324,0.013523,0.002678,0.000431,0.000705
58281000,0.0324,0.013523,0.002678,0.000431,0.000353
58282000,0.0324,0.013523,0.002678,0.000431,0.000705
58283000,0.0324,0.013523,0.002678,0.000431,0.000470
58284000,0.0324,0.013523,0.002678,0.000431,0.000470
58285000,0.0324,0.013523,0.002678,0.000431,0.000470
58286000,0.0324,0.013523,0.002678,0.000431,0.000353
58287000,0.0324,0.013523,0.002678,0.000431,0.000588
58288000,0.0324,0.013523,0.002678,0.000431,0.000353
58289000,0.0324,0.013523,0.002678,0.000431,0.000588
58290000,0.0324,0.013523,0.002678,0.000431,0.000353
58291000,0.0324,0.013523,0.002678,0.000431,0.000588
58292000,0.0324,0.013523,0.002678,0.000431,0.000470
58293000,0.0324,0.013523,0.002678,0.000431,0.000353
58294000,0.0324,0.013523,0.002678,0.000431,0.000588
58295000,0.0324,0.013523,0.002678,0.000431,0.000353
58296000,0.0324,0.013523,0.002678,0.000431,0.000470
58297000,0.0324,0.013523,0.002678,0.000431,0.000353
58298000,0.0324,0.013523,0.002678,0.000431,0.000588
58299000,0.0324,0.013523,0.002678,0.000431,0.000470
58300000,0.0324,0.013523,0.002678,0.000431,0.000588
58301000,0.0324,0.013523,0.002678,0.000431,0.000235
58302000,0.0324,0.013523,0.002678,0.000431,0.000588
58303000,0.0324,0.013523,0.002678,0.000431,0.000353
58304000,0.0324,0.013523,0.002678,0.000431,0.000823
58305000,0.0324,0.013523,0.002678,0.000431,0.000353
58306000,0.0324,0.013523,0.002678,0.000431,0.000705
58307000,0.0324,0.013523,0.002678,0.000431,0.000470
58308000,0.0324,0.013523,0.002678,0.000431,0.000470
58309000,0.0324,0.013523,0.002678,0.000431,0.000470
58310000,0.0324,0.013523,0.002678,0.000431,0.000470
58311000,0.0324,0.013523,0.002678,0.000431,0.000353
58312000,0.0324,0.013523,0.002678,0.000431,0.000470
58313000,0.0324,0.013523,0.002678,0.000431,0.000353
58314000,0.0324,0.013523,0.002678,0.000431,0.000705
58315000,0.0324,0.013523,0.002678,0.000431,0.000353
58316000,0.0324,0.013523,0.002678,0.000431,0.000470
58317000,0.0324,0.013523,0.002678,0.000431,0.000353
58318000,0.0324,0.013523,0.002678,0.000431,0.000588
58319000,0.0324,0.013523,0.002678,0.000431,0.000353
58320000,0.0324,0.013523,0.002678,0.000431,0.000588
58321000,0.0324,0.013523,0.002678,0.000431,0.000353
58322000,0.0324,0.013523,0.002678,0.000431,0.000588
58323000,0.0324,0.013523,0.002678,0.000431,0.000353
58324000,0.0324,0.013523,0.002678,0.000431,0.000588
58325000,0.0324,0.013523,0.002678,0.000431,0.000353
58326000,0.0324,0.013523,0.002678,0.000431,0.000588
58327000,0.0324,0.013523,0.002678,0.000431,0.000353
58328000,0.0324,0.013523,0.002678,0.000431,0.000470
58329000,0.0324,0.013523,0.002678,0.000431,0.000470
58330000,0.0324,0.013523,0.002678,0.000431,0.000470
58331000,0.0324,0.013523,0.002678,0.000431,0.000470
58332000,0.0324,0.013523,0.002678,0.000431,0.000470
58333000,0.0324,0.013523,0.002678,0.000431,0.000353
58334000,0.0324,0.013523,0.002678,0.000431,0.000588
58335000,0.0324,0.013523,0.002678,0.000431,0.000470
58336000,0.0324,0.013523,0.002678,0.000431,0.000470
58337000,0.0324,0.013523,0.002678,0.000431,0.000470
58338000,0.0324,0.013523,0.002678,0.000431,0.000470
58339000,0.0324,0.013523,0.002678,0.000431,0.000470
58340000,0.0324,0.013523,0.002678,0.000431,0.000470
58341000,0.0324,0.013523,0.002678,0.000431,0.000588
58342000,0.0324,0.013523,0.002678,0.000431,0.000353
58343000,0.0324,0.013523,0.002678,0.000431,0.000705
58344000,0.0324,0.013523,0.002678,0.000431,0.000470
58345000,0.0324,0.013523,0.002678,0.000431,0.000470
58346000,0.0324,0.013523,0.002678,0.000431,0.000470
58347000,0.0324,0.013523,0.002678,0.000431,0.000588
58348000,0.0324,0.013523,0.002678,0.000431,0.000353
58349000,0.0324,0.013523,0.002678,0.000431,0.000705
58350000,0.0324,0.013523,0.002678,0.000431,0.000588
58351000,0.0324,0.013523,0.002678,0.000431,0.000470
58352000,0.0324,0.013523,0.002678,0.000431,0.000705
58353000,0.0324,0.013523,0.002678,0.000431,0.000353
58354000,0.0324,0.013523,0.002678,0.000431,0.000588
58355000,0.0324,0.013523,0.002678,0.000431,0.000353
58356000,0.0324,0.013523,0.002678,0.000431,0.000588
58357000,0.0324,0.013523,0.002678,0.000431,0.000470
58358000,0.0324,0.013523,0.002678,0.000431,0.000588
58359000,0.0324,0.013523,0.002678,0.000431,0.000588
58360000,0.0324,0.013523,0.002678,0.000431,0.000470
58361000,0.0324,0.013523,0.002678,0.000431,0.000705
58362000,0.0324,0.013523,0.002678,0.000431,0.000353
58363000,0.0324,0.013523,0.002678,0.000431,0.000588
58364000,0.0324,0.013523,0.002678,0.000431,0.000353
58365000,0.0324,0.013523,0.002678,0.000431,0.000588
58366000,0.0324,0.013523,0.002678,0.000431,0.000588
58367000,0.0324,0.013523,0.002678,0.000431,0.000470
58368000,0.0324,0.013523,0.002678,0.000431,0.000353
58369000,0.0324,0.013523,0.002678,0.000431,0.000588
58370000,0.0324,0.013523,0.002678,0.000431,0.000588
58371000,0.0324,0.013523,0.002678,0.000431,0.000470
58372000,0.0324,0.013523,0.002678,0.000431,0.000588
58373000,0.0324,0.013523,0.002678,0.000431,0.000353
58374000,0.0324,0.013523,0.002678,0.000431,0.000705
58375000,0.0324,0.013523,0.002678,0.000431,0.000353
58376000,0.0324,0.013523,0.002678,0.000431,0.000588
58377000,0.0324,0.013523,0.002678,0.000431,0.000353
58378000,0.0324,0.013523,0.002678,0.000431,0.000588
58379000,0.0324,0.013523,0.002678,0.000431,0.000353
58380000,0.0324,0.013523,0.002678,0.000431,0.000470
58381000,0.0324,0.013523,0.002678,0.000431,0.000470
58382000,0.0324,0.013523,0.002678,0.000431,0.000470
58383000,0.0324,0.013523,0.002678,0.000431,0.000470
58384000,0.0324,0.013523,0.002678,0.000431,0.000470
58385000,0.0324,0.013523,0.002678,0.000431,0.000470
58386000,0.0324,0.013523,0.002678,0.000431,0.000470
58387000,0.0324,0.013523,0.002678,0.000431,0.000353
58388000,0.0324,0.013523,0.002678,0.000431,0.000588
58389000,0.0324,0.013523,0.002678,0.000431,0.000353
58390000,0.0324,0.013523,0.002678,0.000431,0.000588
58391000,0.0324,0.013523,0.002678,0.000431,0.000353
58392000,0.0324,0.013523,0.002678,0.000431,0.000588
58393000,0.0324,0.013523,0.002678,0.000431,0.000470
58394000,0.0324,0.013523,0.002678,0.000431,0.000470
58395000,0.0324,0.013523,0.002678,0.000431,0.000353
58396000,0.0324,0.013523,0.002678,0.000431,0.000588
58397000,0.0324,0.013523,0.002678,0.000431,0.000353
58398000,0.0324,0.013523,0.002678,0.000431,0.000705
58399000,0.0324,0.013523,0.002678,0.000431,0.000470
58400000,0.0324,0.013523,0.002678,0.000431,0.000470
58401000,0.0324,0.013523,0.002678,0.000431,0.000470
58402000,0.0324,0.013523,0.002678,0.000431,0.000588
58403000,0.0324,0.013523,0.002678,0.000431,0.000353
58404000,0.0324,0.013523,0.002678,0.000431,0.000588
58405000,0.0324,0.013523,0.002678,0.000431,0.000470
58406000,0.0324,0.013523,0.002678,0.000431,0.000470
58407000,0.0324,0.013523,0.002678,0.000431,0.000470
58408000,0.0324,0.013523,0.002678,0.000431,0.000470
58409000,0.0324,0.013523,0.002678,0.000431,0.000470
58410000,0.0324,0.013523,0.002678,0.000431,0.000470
58411000,0.0324,0.013523,0.002678,0.000431,0.000470
58412000,0.0324,0.013523,0.002678,0.000431,0.000588
58413000,0.0324,0.013523,0.002678,0.000431,0.000470
58414000,0.0324,0.013523,0.002678,0.000431,0.000588
58415000,0.0324,0.013523,0.002678,0.000431,0.000353
58416000,0.0324,0.013523,0.002678,0.000431,0.000588
58417000,0.0324,0.013523,0.002678,0.000431,0.000353
58418000,0.0324,0.013523,0.002678,0.000431,0.000588
58419000,0.0324,0.013523,0.002678,0.000431,0.000353
58420000,0.0324,0.013523,0.002678,0.000431,0.000588
58421000,0.0324,0.013523,0.002678,0.000431,0.000353
58422000,0.0324,0.013523,0.002678,0.000431,0.000588
58423000,0.0324,0.013523,0.002678,0.000431,0.000353
58424000,0.0324,0.013523,0.002678,0.000431,0.000470
58425000,0.0324,0.013523,0.002678,0.000431,0.000470
58426000,0.0324,0.013523,0.002678,0.000431,0.000353
58427000,0.0324,0.013523,0.002678,0.000431,0.000588
58428000,0.0324,0.013523,0.002678,0.000431,0.000353
58429000,0.0324,0.013523,0.002678,0.000431,0.000588
58430000,0.0324,0.013523,0.002678,0.000431,0.000353
58431000,0.0324,0.013523,0.002678,0.000431,0.000588
58432000,0.0324,0.013523,0.002678,0.000431,0.000353
58433000,0.0324,0.013523,0.002678,0.000431,0.000588
58434000,0.0324,0.013523,0.002678,0.000431,0.000353
58435000,0.0324,0.013523,0.002678,0.000431,0.000588
58436000,0.0324,0.013523,0.002678,0.000431,0.000353
58437000,0.0324,0.013523,0.002678,0.000431,0.000588
58438000,0.0324,0.013523,0.002678,0.000431,0.000353
58439000,0.0324,0.013523,0.002678,0.000431,0.000588
58440000,0.0324,0.013523,0.002678,0.000431,0.000353
58441000,0.0324,0.013523,0.002678,0.000431,0.000705
58442000,0.0324,0.013523,0.002678,0.000431,0.000588
58443000,0.0324,0.013523,0.002678,0.000431,0.000470
58444000,0.0324,0.013523,0.002678,0.000431,0.000470
58445000,0.0324,0.013523,0.002678,0.000431,0.000470
58446000,0.0324,0.013523,0.002678,0.000431,0.000470
58447000,0.0324,0.013523,0.002678,0.000431,0.000470
58448000,0.0324,0.013523,0.002678,0.000431,0.000353
58449000,0.0324,0.013523,0.002678,0.000431,0.000588
58450000,0.0324,0.013523,0.002678,0.000431,0.000353
58451000,0.0324,0.013523,0.002678,0.000431,0.000588
58452000,0.0324,0.013523,0.002678,0.000431,0.000353
58453000,0.0324,0.013523,0.002678,0.000431,0.000470
58454000,0.0324,0.013523,0.002678,0.000431,0.000470
58455000,0.0324,0.013523,0.002678,0.000431,0.000588
58456000,0.0324,0.013523,0.002678,0.000431,0.000353
58457000,0.0324,0.013523,0.002678,0.000431,0.000470
58458000,0.0324,0.013523,0.002678,0.000431,0.000470
58459000,0.0324,0.013523,0.002678,0.000431,0.000588
58460000,0.0324,0.013523,0.002678,0.000431,0.000353
58461000,0.0324,0.013523,0.002678,0.000431,0.000470
58462000,0.0324,0.013523,0.002678,0.000431,0.000470
58463000,0.0324,0.013523,0.002678,0.000431,0.000470
58464000,0.0324,0.013523,0.002678,0.000431,0.000470
58465000,0.0324,0.013523,0.002678,0.000431,0.000470
58466000,0.0324,0.013523,0.002678,0.000431,0.000470
58467000,0.0324,0.013523,0.002678,0.000431,0.000470
58468000,0.0324,0.013523,0.002678,0.000431,0.000470
58469000,0.0324,0.013523,0.002678,0.000431,0.000470
58470000,0.0324,0.013523,0.002678,0.000431,0.000353
58471000,0.0324,0.013523,0.002678,0.000431,0.000588
58472000,0.0324,0.013523,0.002678,0.000431,0.000353
58473000,0.0324,0.013523,0.002678,0.000431,0.000588
58474000,0.0324,0.013523,0.002678,0.000431,0.000353
58475000,0.0324,0.013523,0.002678,0.000431,0.000588
58476000,0.0324,0.013523,0.002678,0.000431,0.000235
58477000,0.0324,0.013523,0.002678,0.000431,0.000588
58478000,0.0324,0.013523,0.002678,0.000431,0.000353
58479000,0.0324,0.013523,0.002678,0.000431,0.000588
58480000,0.0324,0.013523,0.002678,0.000431,0.000470
58481000,0.0324,0.013523,0.002678,0.000431,0.000470
58482000,0.0324,0.013523,0.002678,0.000431,0.000470
58483000,0.0324,0.013523,0.002678,0.000431,0.000470
58484000,0.0324,0.013523,0.002678,0.000431,0.000353
58485000,0.0324,0.013523,0.002678,0.000431,0.000823
58486000,0.0324,0.013523,0.002678,0.000431,0.000235
58487000,0.0324,0.013523,0.002678,0.000431,0.000823
58488000,0.0324,0.013523,0.002678,0.000431,0.000235
58489000,0.0324,0.013523,0.002678,0.000431,0.000705
58490000,0.0324,0.013523,0.002678,0.000431,0.000353
58491000,0.0324,0.013523,0.002678,0.000431,0.000588
58492000,0.0324,0.013523,0.002678,0.000431,0.000235
58493000,0.0324,0.013523,0.002678,0.000431,0.000588
58494000,0.0324,0.013523,0.002678,0.000431,0.000353
58495000,0.0324,0.013523,0.002678,0.000431,0.000588
58496000,0.0324,0.013523,0.002678,0.000431,0.000353
58497000,0.0324,0.013523,0.002678,0.000431,0.000588
58498000,0.0324,0.013523,0.002678,0.000431,0.000353
58499000,0.0324,0.013523,0.002678,0.000431,0.000823
58500000,0.0324,0.013523,0.002678,0.000431,0.000353
58501000,0.0324,0.013523,0.002678,0.000431,0.000588
58502000,0.0324,0.013523,0.002678,0.000431,0.000353
58503000,0.0324,0.013523,0.002678,0.000431,0.000470
58504000,0.0324,0.013523,0.002678,0.000431,0.000470
58505000,0.0324,0.013523,0.002678,0.000431,0.000470
58506000,0.0324,0.013523,0.002678,0.000431,0.000470
58507000,0.0324,0.013523,0.002678,0.000431,0.000470
58508000,0.0324,0.013523,0.002678,0.000431,0.000470
58509000,0.0324,0.013523,0.002678,0.000431,0.000470
58510000,0.0324,0.013523,0.002678,0.000431,0.000470
58511000,0.0324,0.013523,0.002678,0.000431,0.000470
58512000,0.0324,0.013523,0.002678,0.000431,0.000353
58513000,0.0324,0.013523,0.002678,0.000431,0.000588
58514000,0.0324,0.013523,0.002678,0.000431,0.000470
58515000,0.0324,0.013523,0.002678,0.000431,0.000470
58516000,0.0324,0.013523,0.002678,0.000431,0.000470
58517000,0.0324,0.013523,0.002678,0.000431,0.000588
58518000,0.0324,0.013523,0.002678,0.000431,0.000470
58519000,0.0324,0.013523,0.002678,0.000431,0.000470
58520000,0.0324,0.013523,0.002678,0.000431,0.000470
58521000,0.0324,0.013523,0.002678,0.000431,0.000705
58522000,0.0324,0.013523,0.002678,0.000431,0.000353
58523000,0.0324,0.013523,0.002678,0.000431,0.000705
58524000,0.0324,0.013523,0.002678,0.000431,0.000470
58525000,0.0324,0.013523,0.002678,0.000431,0.000470
58526000,0.0324,0.013523,0.002678,0.000431,0.000470
58527000,0.0324,0.013523,0.002678,0.000431,0.000470
58528000,0.0324,0.013523,0.002678,0.000431,0.000470
58529000,0.0324,0.013523,0.002678,0.000431,0.000470
58530000,0.0324,0.013523,0.002678,0.000431,0.000470
58531000,0.0324,0.013523,0.002678,0.000431,0.000470
58532000,0.0324,0.013523,0.002678,0.000431,0.000470
58533000,0.0324,0.013523,0.002678,0.000431,0.000470
58534000,0.0324,0.013523,0.002678,0.000431,0.000353
58535000,0.0324,0.013523,0.002678,0.000431,0.000588
58536000,0.0324,0.013523,0.002678,0.000431,0.000353
58537000,0.0324,0.013523,0.002678,0.000431,0.000588
58538000,0.0324,0.013523,0.002678,0.000431,0.000353
58539000,0.0324,0.013523,0.002678,0.000431,0.000588
58540000,0.0324,0.013523,0.002678,0.000431,0.000353
58541000,0.0324,0.013523,0.002678,0.000431,0.000588
58542000,0.0324,0.013523,0.002678,0.000431,0.000353
58543000,0.0324,0.013523,0.002678,0.000431,0.000588
58544000,0.0324,0.013523,0.002678,0.000431,0.000353
58545000,0.0324,0.013523,0.002678,0.000431,0.000588
58546000,0.0324,0.013523,0.002678,0.000431,0.000353
58547000,0.0324,0.013523,0.002678,0.000431,0.000470
58548000,0.0324,0.013523,0.002678,0.000431,0.000353
58549000,0.0324,0.013523,0.002678,0.000431,0.000588
58550000,0.0324,0.013523,0.002678,0.000431,0.000353
58551000,0.0324,0.013523,0.002678,0.000431,0.000470
58552000,0.0324,0.013523,0.002678,0.000431,0.000470
58553000,0.0324,0.013523,0.002678,0.000431,0.000470
58554000,0.0324,0.013523,0.002678,0.000431,0.000470
58555000,0.0324,0.013523,0.002678,0.000431,0.000470
58556000,0.0324,0.013523,0.002678,0.000431,0.000470
58557000,0.0324,0.013523,0.002678,0.000431,0.000470
58558000,0.0324,0.013523,0.002678,0.000431,0.000470
58559000,0.0324,0.013523,0.002678,0.000431,0.000470
58560000,0.0324,0.013523,0.002678,0.000431,0.000470
58561000,0.0324,0.013523,0.002678,0.000431,0.000588
58562000,0.0324,0.013523,0.002678,0.000431,0.000470
58563000,0.0324,0.013523,0.002678,0.000431,0.000705
58564000,0.0324,0.013523,0.002678,0.000431,0.000353
58565000,0.0324,0.013523,0.002678,0.000431,0.000588
58566000,0.0324,0.013523,0.002678,0.000431,0.000353
58567000,0.0324,0.013523,0.002678,0.000431,0.000470
58568000,0.0324,0.013523,0.002678,0.000431,0.000470
58569000,0.0324,0.013523,0.002678,0.000431,0.000470
58570000,0.0324,0.013523,0.002678,0.000431,0.000470
58571000,0.0324,0.013523,0.002678,0.000431,0.000470
58572000,0.0324,0.013523,0.002678,0.000431,0.000470
58573000,0.0324,0.013523,0.002678,0.000431,0.000588
58574000,0.0324,0.013523,0.002678,0.000431,0.000470
58575000,0.0324,0.013523,0.002678,0.000431,0.000588
58576000,0.0324,0.013523,0.002678,0.000431,0.000353
58577000,0.0324,0.013523,0.002678,0.000431,0.000588
58578000,0.0324,0.013523,0.002678,0.000431,0.000353
58579000,0.0324,0.013523,0.002678,0.000431,0.000588
58580000,0.0324,0.013523,0.002678,0.000431,0.000353
58581000,0.0324,0.013523,0.002678,0.000431,0.000588
58582000,0.0324,0.013523,0.002678,0.000431,0.000353
58583000,0.0324,0.013523,0.002678,0.000431,0.000588
58584000,0.0324,0.013523,0.002678,0.000431,0.000353
58585000,0.0324,0.013523,0.002678,0.000431,0.000588
58586000,0.0324,0.013523,0.002678,0.000431,0.000353
58587000,0.0324,0.013523,0.002678,0.000431,0.000470
58588000,0.0324,0.013523,0.002678,0.000431,0.000470
58589000,0.0324,0.013523,0.002678,0.000431,0.000470
58590000,0.0324,0.013523,0.002678,0.000431,0.000588
58591000,0.0324,0.013523,0.002678,0.000431,0.000588
58592000,0.0324,0.013523,0.002678,0.000431,0.000470
58593000,0.0324,0.013523,0.002678,0.000431,0.000705
58594000,0.0324,0.013523,0.002678,0.000431,0.000353
58595000,0.0324,0.013523,0.002678,0.000431,0.000705
58596000,0.0324,0.013523,0.002678,0.000431,0.000470
58597000,0.0324,0.013523,0.002678,0.000431,0.000470
58598000,0.0324,0.013523,0.002678,0.000431,0.000470
58599000,0.0324,0.013523,0.002678,0.000431,0.000470
58600000,0.0324,0.013523,0.002678,0.000431,0.000470
58601000,0.0324,0.013523,0.002678,0.000431,0.000470
58602000,0.0324,0.013523,0.002678,0.000431,0.000470
58603000,0.0324,0.013523,0.002678,0.000431,0.000470
58604000,0.0324,0.013523,0.002678,0.000431,0.000470
58605000,0.0324,0.013523,0.002678,0.000431,0.000470
58606000,0.0324,0.013523,0.002678,0.000431,0.000470
58607000,0.0324,0.013523,0.002678,0.000431,0.000588
58608000,0.0324,0.013523,0.002678,0.000431,0.000353
58609000,0.0324,0.013523,0.002678,0.000431,0.000470
58610000,0.0324,0.013523,0.002678,0.000431,0.000470
58611000,0.0324,0.013523,0.002678,0.000431,0.000470
58612000,0.0324,0.013523,0.002678,0.000431,0.000470
58613000,0.0324,0.013523,0.002678,0.000431,0.000470
58614000,0.0324,0.013523,0.002678,0.000431,0.000470
58615000,0.0324,0.013523,0.002678,0.000431,0.000588
58616000,0.0324,0.013523,0.002678,0.000431,0.000470
58617000,0.0324,0.013523,0.002678,0.000431,0.000705
58618000,0.0324,0.013523,0.002678,0.000431,0.000353
58619000,0.0324,0.013523,0.002678,0.000431,0.000588
58620000,0.0324,0.013523,0.002678,0.000431,0.000353
58621000,0.0324,0.013523,0.002678,0.000431,0.000588
58622000,0.0324,0.013523,0.002678,0.000431,0.000353
58623000,0.0324,0.013523,0.002678,0.000431,0.000588
58624000,0.0324,0.013523,0.002678,0.000431,0.000353
58625000,0.0324,0.013523,0.002678,0.000431,0.000588
58626000,0.0324,0.013523,0.002678,0.000431,0.000353
58627000,0.0324,0.013523,0.002678,0.000431,0.000588
58628000,0.0324,0.013523,0.002678,0.000431,0.000353
58629000,0.0324,0.013523,0.002678,0.000431,0.000588
58630000,0.0324,0.013523,0.002678,0.000431,0.000353
58631000,0.0324,0.013523,0.002678,0.000431,0.000705
58632000,0.0324,0.013523,0.002678,0.000431,0.000588
58633000,0.0324,0.013523,0.002678,0.000431,0.000470
58634000,0.0324,0.013523,0.002678,0.000431,0.000705
58635000,0.0324,0.013523,0.002678,0.000431,0.000353
58636000,0.0324,0.013523,0.002678,0.000431,0.000588
58637000,0.0324,0.013523,0.002678,0.000431,0.000353
58638000,0.0324,0.013523,0.002678,0.000431,0.000588
58639000,0.0324,0.013523,0.002678,0.000431,0.000353
58640000,0.0324,0.013523,0.002678,0.000431,0.000588
58641000,0.0324,0.013523,0.002678,0.000431,0.000353
58642000,0.0324,0.013523,0.002678,0.000431,0.000588
58643000,0.0324,0.013523,0.002678,0.000431,0.000353
58644000,0.0324,0.013523,0.002678,0.000431,0.000588
58645000,0.0324,0.013523,0.002678,0.000431,0.000353
58646000,0.0324,0.013523,0.002678,0.000431,0.000470
58647000,0.0324,0.013523,0.002678,0.000431,0.000353
58648000,0.0324,0.013523,0.002678,0.000431,0.000705
58649000,0.0324,0.013523,0.002678,0.000431,0.000470
58650000,0.0324,0.013523,0.002678,0.000431,0.000588
58651000,0.0324,0.013523,0.002678,0.000431,0.000235
58652000,0.0324,0.013523,0.002678,0.000431,0.000588
58653000,0.0324,0.013523,0.002678,0.000431,0.000353
58654000,0.0324,0.013523,0.002678,0.000431,0.000588
58655000,0.0324,0.013523,0.002678,0.000431,0.000353
58656000,0.0324,0.013523,0.002678,0.000431,0.000588
58657000,0.0324,0.013523,0.002678,0.000431,0.000353
58658000,0.0324,0.013523,0.002678,0.000431,0.000588
58659000,0.0324,0.013523,0.002678,0.000431,0.000353
58660000,0.0324,0.013523,0.002678,0.000431,0.000588
58661000,0.0324,0.013523,0.002678,0.000431,0.000353
58662000,0.0324,0.013523,0.002678,0.000431,0.000588
58663000,0.0324,0.013523,0.002678,0.000431,0.000353
58664000,0.0324,0.013523,0.002678,0.000431,0.000470
58665000,0.0324,0.013523,0.002678,0.000431,0.000470
58666000,0.0324,0.013523,0.002678,0.000431,0.000470
58667000,0.0324,0.013523,0.002678,0.000431,0.000470
58668000,0.0324,0.013523,0.002678,0.000431,0.000588
58669000,0.0324,0.013523,0.002678,0.000431,0.000470
58670000,0.0324,0.013523,0.002678,0.000431,0.000705
58671000,0.0324,0.013523,0.002678,0.000431,0.000353
58672000,0.0324,0.013523,0.002678,0.000431,0.000588
58673000,0.0324,0.013523,0.002678,0.000431,0.000353
58674000,0.0324,0.013523,0.002678,0.000431,0.000588
58675000,0.0324,0.013523,0.002678,0.000431,0.000353
58676000,0.0324,0.013523,0.002678,0.000431,0.000588
58677000,0.0324,0.013523,0.002678,0.000431,0.000353
58678000,0.0324,0.013523,0.002678,0.000431,0.000588
58679000,0.0324,0.013523,0.002678,0.000431,0.000353
58680000,0.0324,0.013523,0.002678,0.000431,0.000470
58681000,0.0324,0.013523,0.002678,0.000431,0.000470
58682000,0.0324,0.013523,0.002678,0.000431,0.000470
58683000,0.0324,0.013523,0.002678,0.000431,0.000353
58684000,0.0324,0.013523,0.002678,0.000431,0.000588
58685000,0.0324,0.013523,0.002678,0.000431,0.000470
58686000,0.0324,0.013523,0.002678,0.000431,0.000470
58687000,0.0324,0.013523,0.002678,0.000431,0.000470
58688000,0.0324,0.013523,0.002678,0.000431,0.000470
58689000,0.0324,0.013523,0.002678,0.000431,0.000470
58690000,0.0324,0.013523,0.002678,0.000431,0.000470
58691000,0.0324,0.013523,0.002678,0.000431,0.000353
58692000,0.0324,0.013523,0.002678,0.000431,0.000588
58693000,0.0324,0.013523,0.002678,0.000431,0.000353
58694000,0.0324,0.013523,0.002678,0.000431,0.000588
58695000,0.0324,0.013523,0.002678,0.000431,0.000353
58696000,0.0324,0.013523,0.002678,0.000431,0.000470
58697000,0.0324,0.013523,0.002678,0.000431,0.000470
58698000,0.0324,0.013523,0.002678,0.000431,0.000353
58699000,0.0324,0.013523,0.002678,0.000431,0.000588
58700000,0.0324,0.013523,0.002678,0.000431,0.000353
58701000,0.0324,0.013523,0.002678,0.000431,0.000588
58702000,0.0324,0.013523,0.002678,0.000431,0.000353
58703000,0.0324,0.013523,0.002678,0.000431,0.000588
58704000,0.0324,0.013523,0.002678,0.000431,0.000353
58705000,0.0324,0.013523,0.002678,0.000431,0.000470
58706000,0.0324,0.013523,0.002678,0.000431,0.000470
58707000,0.0324,0.013523,0.002678,0.000431,0.000470
58708000,0.0324,0.013523,0.002678,0.000431,0.000470
58709000,0.0324,0.013523,0.002678,0.000431,0.000470
58710000,0.0324,0.013523,0.002678,0.000431,0.000470
58711000,0.0324,0.013523,0.002678,0.000431,0.000470
58712000,0.0324,0.013523,0.002678,0.000431,0.000470
58713000,0.0324,0.013523,0.002678,0.000431,0.000470
58714000,0.0324,0.013523,0.002678,0.000431,0.000353
58715000,0.0324,0.013523,0.002678,0.000431,0.000588
58716000,0.0324,0.013523,0.002678,0.000431,0.000353
58717000,0.0324,0.013523,0.002678,0.000431,0.000588
58718000,0.0324,0.013523,0.002678,0.000431,0.000353
58719000,0.0324,0.013523,0.002678,0.000431,0.000588
58720000,0.0324,0.013523,0.002678,0.000431,0.000353
58721000,0.0324,0.013523,0.002678,0.000431,0.000588
58722000,0.0324,0.013523,0.002678,0.000431,0.000353
58723000,0.0324,0.013523,0.002678,0.000431,0.000705
58724000,0.0324,0.013523,0.002678,0.000431,0.000353
58725000,0.0324,0.013523,0.002678,0.000431,0.000705
58726000,0.0324,0.013523,0.002678,0.000431,0.000588
58727000,0.0324,0.013523,0.002678,0.000431,0.000470
58728000,0.0324,0.013523,0.002678,0.000431,0.000470
58729000,0.0324,0.013523,0.002678,0.000431,0.000470
58730000,0.0324,0.013523,0.002678,0.000431,0.000588
58731000,0.0324,0.013523,0.002678,0.000431,0.000353
58732000,0.0324,0.013523,0.002678,0.000431,0.000588
58733000,0.0324,0.013523,0.002678,0.000431,0.000353
58734000,0.0324,0.013523,0.002678,0.000431,0.000588
58735000,0.0324,0.013523,0.002678,0.000431,0.000353
58736000,0.0324,0.013523,0.002678,0.000431,0.000588
58737000,0.0324,0.013523,0.002678,0.000431,0.000353
58738000,0.0324,0.013523,0.002678,0.000431,0.000470
58739000,0.0324,0.013523,0.002678,0.000431,0.000470
58740000,0.0324,0.013523,0.002678,0.000431,0.000470
58741000,0.0324,0.013523,0.002678,0.000431,0.000470
58742000,0.0324,0.013523,0.002678,0.000431,0.000470
58743000,0.0324,0.013523,0.002678,0.000431,0.000470
58744000,0.0324,0.013523,0.002678,0.000431,0.000353
58745000,0.0324,0.013523,0.002678,0.000431,0.000588
58746000,0.0324,0.013523,0.002678,0.000431,0.000353
58747000,0.0324,0.013523,0.002678,0.000431,0.000588
58748000,0.0324,0.013523,0.002678,0.000431,0.000353
58749000,0.0324,0.013523,0.002678,0.000431,0.000588
58750000,0.0324,0.013523,0.002678,0.000431,0.000353
58751000,0.0324,0.013523,0.002678,0.000431,0.000588
58752000,0.0324,0.013523,0.002678,0.000431,0.000353
58753000,0.0324,0.013523,0.002678,0.000431,0.000588
58754000,0.0324,0.013523,0.002678,0.000431,0.000353
58755000,0.0324,0.013523,0.002678,0.000431,0.000705
58756000,0.0324,0.013523,0.002678,0.000431,0.000588
58757000,0.0324,0.013523,0.002678,0.000431,0.000470
58758000,0.0324,0.013523,0.002678,0.000431,0.000705
58759000,0.0324,0.013523,0.002678,0.000431,0.000353
58760000,0.0324,0.013523,0.002678,0.000431,0.000470
58761000,0.0324,0.013523,0.002678,0.000431,0.000353
58762000,0.0324,0.013523,0.002678,0.000431,0.000588
58763000,0.0324,0.013523,0.002678,0.000431,0.000470
58764000,0.0324,0.013523,0.002678,0.000431,0.000470
58765000,0.0324,0.013523,0.002678,0.000431,0.000470
58766000,0.0324,0.013523,0.002678,0.000431,0.000470
58767000,0.0324,0.013523,0.002678,0.000431,0.000470
58768000,0.0324,0.013523,0.002678,0.000431,0.000470
58769000,0.0324,0.013523,0.002678,0.000431,0.000470
58770000,0.0324,0.013523,0.002678,0.000431,0.000470
58771000,0.0324,0.013523,0.002678,0.000431,0.000470
58772000,0.0324,0.013523,0.002678,0.000431,0.000588
58773000,0.0324,0.013523,0.002678,0.000431,0.000470
58774000,0.0324,0.013523,0.002678,0.000431,0.000705
58775000,0.0324,0.013523,0.002678,0.000431,0.000353
58776000,0.0324,0.013523,0.002678,0.000431,0.000588
58777000,0.0324,0.013523,0.002678,0.000431,0.000470
58778000,0.0324,0.013523,0.002678,0.000431,0.000588
58779000,0.0324,0.013523,0.002678,0.000431,0.000588
58780000,0.0324,0.013523,0.002678,0.000431,0.000470
58781000,0.0324,0.013523,0.002678,0.000431,0.000588
58782000,0.0324,0.013523,0.002678,0.000431,0.000353
58783000,0.0324,0.013523,0.002678,0.000431,0.000588
58784000,0.0324,0.013523,0.002678,0.000431,0.000353
58785000,0.0324,0.013523,0.002678,0.000431,0.000588
58786000,0.0324,0.013523,0.002678,0.000431,0.000470
58787000,0.0324,0.013523,0.002678,0.000431,0.000470
58788000,0.0324,0.013523,0.002678,0.000431,0.000470
58789000,0.0324,0.013523,0.002678,0.000431,0.000470
58790000,0.0324,0.013523,0.002678,0.000431,0.000470
58791000,0.0324,0.013523,0.002678,0.000431,0.000588
58792000,0.0324,0.013523,0.002678,0.000431,0.000470
58793000,0.0324,0.013523,0.002678,0.000431,0.000588
58794000,0.0324,0.013523,0.002678,0.000431,0.000353
58795000,0.0324,0.013523,0.002678,0.000431,0.000705
58796000,0.0324,0.013523,0.002678,0.000431,0.000353
58797000,0.0324,0.013523,0.002678,0.000431,0.000470
58798000,0.0324,0.013523,0.002678,0.000431,0.000470
58799000,0.0324,0.013523,0.002678,0.000431,0.000470
58800000,0.0324,0.013523,0.002678,0.000431,0.000470
58801000,0.0324,0.013523,0.002678,0.000431,0.000470
58802000,0.0324,0.013523,0.002678,0.000431,0.000470
58803000,0.0324,0.013523,0.002678,0.000431,0.000470
58804000,0.0324,0.013523,0.002678,0.000431,0.000470
58805000,0.0324,0.013523,0.002678,0.000431,0.000470
58806000,0.0324,0.013523,0.002678,0.000431,0.000470
58807000,0.0324,0.013523,0.002678,0.000431,0.000588
58808000,0.0324,0.013523,0.002678,0.000431,0.000470
58809000,0.0324,0.013523,0.002678,0.000431,0.000588
58810000,0.0324,0.013523,0.002678,0.000431,0.000470
58811000,0.0324,0.013523,0.002678,0.000431,0.000470
58812000,0.0324,0.013523,0.002678,0.000431,0.000470
58813000,0.0324,0.013523,0.002678,0.000431,0.000470
58814000,0.0324,0.013523,0.002678,0.000431,0.000470
58815000,0.0324,0.013523,0.002678,0.000431,0.000588
58816000,0.0324,0.013523,0.002678,0.000431,0.000470
58817000,0.0324,0.013523,0.002678,0.000431,0.000588
58818000,0.0324,0.013523,0.002678,0.000431,0.000353
58819000,0.0324,0.013523,0.002678,0.000431,0.000588
58820000,0.0324,0.013523,0.002678,0.000431,0.000353
58821000,0.0324,0.013523,0.002678,0.000431,0.000470
58822000,0.0324,0.013523,0.002678,0.000431,0.000470
58823000,0.0324,0.013523,0.002678,0.000431,0.000353
58824000,0.0324,0.013523,0.002678,0.000431,0.000470
58825000,0.0324,0.013523,0.002678,0.000431,0.000470
58826000,0.0324,0.013523,0.002678,0.000431,0.000470
58827000,0.0324,0.013523,0.002678,0.000431,0.000470
58828000,0.0324,0.013523,0.002678,0.000431,0.000470
58829000,0.0324,0.013523,0.002678,0.000431,0.000470
58830000,0.0324,0.013523,0.002678,0.000431,0.000470
58831000,0.0324,0.013523,0.002678,0.000431,0.000470
58832000,0.0324,0.013523,0.002678,0.000431,0.000588
58833000,0.0324,0.013523,0.002678,0.000431,0.000353
58834000,0.0324,0.013523,0.002678,0.000431,0.000588
58835000,0.0324,0.013523,0.002678,0.000431,0.000353
58836000,0.0324,0.013523,0.002678,0.000431,0.000470
58837000,0.0324,0.013523,0.002678,0.000431,0.000470
58838000,0.0324,0.013523,0.002678,0.000431,0.000705
58839000,0.0324,0.013523,0.002678,0.000431,0.000353
58840000,0.0324,0.013523,0.002678,0.000431,0.000470
58841000,0.0324,0.013523,0.002678,0.000431,0.000353
58842000,0.0324,0.013523,0.002678,0.000431,0.000705
58843000,0.0324,0.013523,0.002678,0.000431,0.000353
58844000,0.0324,0.013523,0.002678,0.000431,0.000588
58845000,0.0324,0.013523,0.002678,0.000431,0.000353
58846000,0.0324,0.013523,0.002678,0.000431,0.000588
58847000,0.0324,0.013523,0.002678,0.000431,0.000353
58848000,0.0324,0.013523,0.002678,0.000431,0.000705
58849000,0.0324,0.013523,0.002678,0.000431,0.000353
58850000,0.0324,0.013523,0.002678,0.000431,0.000705
58851000,0.0324,0.013523,0.002678,0.000431,0.000470
58852000,0.0324,0.013523,0.002678,0.000431,0.000470
58853000,0.0324,0.013523,0.002678,0.000431,0.000470
58854000,0.0324,0.013523,0.002678,0.000431,0.000470
58855000,0.0324,0.013523,0.002678,0.000431,0.000353
58856000,0.0324,0.013523,0.002678,0.000431,0.000588
58857000,0.0324,0.013523,0.002678,0.000431,0.000353
58858000,0.0324,0.013523,0.002678,0.000431,0.000588
58859000,0.0324,0.013523,0.002678,0.000431,0.000353
58860000,0.0324,0.013523,0.002678,0.000431,0.000705
58861000,0.0324,0.013523,0.002678,0.000431,0.000353
58862000,0.0324,0.013523,0.002678,0.000431,0.000705
58863000,0.0324,0.013523,0.002678,0.000431,0.000588
58864000,0.0324,0.013523,0.002678,0.000431,0.000470
58865000,0.0324,0.013523,0.002678,0.000431,0.000705
58866000,0.0324,0.013523,0.002678,0.000431,0.000470
58867000,0.0324,0.013523,0.002678,0.000431,0.000470
58868000,0.0324,0.013523,0.002678,0.000431,0.000470
58869000,0.0324,0.013523,0.002678,0.000431,0.000705
58870000,0.0324,0.013523,0.002678,0.000431,0.000353
58871000,0.0324,0.013523,0.002678,0.000431,0.000705
58872000,0.0324,0.013523,0.002678,0.000431,0.000588
58873000,0.0324,0.013523,0.002678,0.000431,0.000470
58874000,0.0324,0.013523,0.002678,0.000431,0.000705
58875000,0.0324,0.013523,0.002678,0.000431,0.000470
58876000,0.0324,0.013523,0.002678,0.000431,0.000588
58877000,0.0324,0.013523,0.002678,0.000431,0.000353
58878000,0.0324,0.013523,0.002678,0.000431,0.000470
58879000,0.0324,0.013523,0.002678,0.000431,0.000470
58880000,0.0324,0.013523,0.002678,0.000431,0.000470
58881000,0.0324,0.013523,0.002678,0.000431,0.000470
58882000,0.0324,0.013523,0.002678,0.000431,0.000353
58883000,0.0324,0.013523,0.002678,0.000431,0.000470
58884000,0.0324,0.013523,0.002678,0.000431,0.000470
58885000,0.0324,0.013523,0.002678,0.000431,0.000470
58886000,0.0324,0.013523,0.002678,0.000431,0.000470
58887000,0.0324,0.013523,0.002678,0.000431,0.000470
58888000,0.0324,0.013523,0.002678,0.000431,0.000588
58889000,0.0324,0.013523,0.002678,0.000431,0.000470
58890000,0.0324,0.013523,0.002678,0.000431,0.000588
58891000,0.0324,0.013523,0.002678,0.000431,0.000353
58892000,0.0324,0.013523,0.002678,0.000431,0.000588
58893000,0.0324,0.013523,0.002678,0.000431,0.000353
58894000,0.0324,0.013523,0.002678,0.000431,0.000470
58895000,0.0324,0.013523,0.002678,0.000431,0.000470
58896000,0.0324,0.013523,0.002678,0.000431,0.000353
58897000,0.0324,0.013523,0.002678,0.000431,0.000588
58898000,0.0324,0.013523,0.002678,0.000431,0.000353
58899000,0.0324,0.013523,0.002678,0.000431,0.000588
58900000,0.0324,0.013523,0.002678,0.000431,0.000353
58901000,0.0324,0.013523,0.002678,0.000431,0.000705
58902000,0.0324,0.013523,0.002678,0.000431,0.000588
58903000,0.0324,0.013523,0.002678,0.000431,0.000470
58904000,0.0324,0.013523,0.002678,0.000431,0.000705
58905000,0.0324,0.013523,0.002678,0.000431,0.000353
58906000,0.0324,0.013523,0.002678,0.000431,0.000588
58907000,0.0324,0.013523,0.002678,0.000431,0.000353
58908000,0.0324,0.013523,0.002678,0.000431,0.000588
58909000,0.0324,0.013523,0.002678,0.000431,0.000353
58910000,0.0324,0.013523,0.002678,0.000431,0.000470
58911000,0.0324,0.013523,0.002678,0.000431,0.000470
58912000,0.0324,0.013523,0.002678,0.000431,0.000470
58913000,0.0324,0.013523,0.002678,0.000431,0.000353
58914000,0.0324,0.013523,0.002678,0.000431,0.000588
58915000,0.0324,0.013523,0.002678,0.000431,0.000353
58916000,0.0324,0.013523,0.002678,0.000431,0.000588
58917000,0.0324,0.013523,0.002678,0.000431,0.000353
58918000,0.0324,0.013523,0.002678,0.000431,0.000588
58919000,0.0324,0.013523,0.002678,0.000431,0.000353
58920000,0.0324,0.013523,0.002678,0.000431,0.000588
58921000,0.0324,0.013523,0.002678,0.000431,0.000353
58922000,0.0324,0.013523,0.002678,0.000431,0.000588
58923000,0.0324,0.013523,0.002678,0.000431,0.000353
58924000,0.0324,0.013523,0.002678,0.000431,0.000588
58925000,0.0324,0.013523,0.002678,0.000431,0.000353
58926000,0.0324,0.013523,0.002678,0.000431,0.000588
58927000,0.0324,0.013523,0.002678,0.000431,0.000353
58928000,0.0324,0.013523,0.002678,0.000431,0.000588
58929000,0.0324,0.013523,0.002678,0.000431,0.000353
58930000,0.0324,0.013523,0.002678,0.000431,0.000588
58931000,0.0324,0.013523,0.002678,0.000431,0.000353
58932000,0.0324,0.013523,0.002678,0.000431,0.000470
58933000,0.0324,0.013523,0.002678,0.000431,0.000470
58934000,0.0324,0.013523,0.002678,0.000431,0.000353
58935000,0.0324,0.013523,0.002678,0.000431,0.000705
58936000,0.0324,0.013523,0.002678,0.000431,0.000588
58937000,0.0324,0.013523,0.002678,0.000431,0.000470
58938000,0.0324,0.013523,0.002678,0.000431,0.000705
58939000,0.0324,0.013523,0.002678,0.000431,0.000353
58940000,0.0324,0.013523,0.002678,0.000431,0.000705
58941000,0.0324,0.013523,0.002678,0.000431,0.000470
58942000,0.0324,0.013523,0.002678,0.000431,0.000470
58943000,0.0324,0.013523,0.002678,0.000431,0.000470
58944000,0.0324,0.013523,0.002678,0.000431,0.000470
58945000,0.0324,0.013523,0.002678,0.000431,0.000470
58946000,0.0324,0.013523,0.002678,0.000431,0.000470
58947000,0.0324,0.013523,0.002678,0.000431,0.000470
58948000,0.0324,0.013523,0.002678,0.000431,0.000470
58949000,0.0324,0.013523,0.002678,0.000431,0.000470
58950000,0.0324,0.013523,0.002678,0.000431,0.000470
58951000,0.0324,0.013523,0.002678,0.000431,0.000353
58952000,0.0324,0.013523,0.002678,0.000431,0.000823
58953000,0.0324,0.013523,0.002678,0.000431,0.000353
58954000,0.0324,0.013523,0.002678,0.000431,0.000470
58955000,0.0324,0.013523,0.002678,0.000431,0.000353
58956000,0.0324,0.013523,0.002678,0.000431,0.000588
58957000,0.0324,0.013523,0.002678,0.000431,0.000353
58958000,0.0324,0.013523,0.002678,0.000431,0.000588
58959000,0.0324,0.013523,0.002678,0.000431,0.000353
58960000,0.0324,0.013523,0.002678,0.000431,0.000588
58961000,0.0324,0.013523,0.002678,0.000431,0.000353
58962000,0.0324,0.013523,0.002678,0.000431,0.000588
58963000,0.0324,0.013523,0.002678,0.000431,0.000353
58964000,0.0324,0.013523,0.002678,0.000431,0.000588
58965000,0.0324,0.013523,0.002678,0.000431,0.000353
58966000,0.0324,0.013523,0.002678,0.000431,0.000588
58967000,0.0324,0.013523,0.002678,0.000431,0.000353
58968000,0.0324,0.013523,0.002678,0.000431,0.000588
58969000,0.0324,0.013523,0.002678,0.000431,0.000353
58970000,0.0324,0.013523,0.002678,0.000431,0.000588
58971000,0.0324,0.013523,0.002678,0.000431,0.000353
58972000,0.0324,0.013523,0.002678,0.000431,0.000588
58973000,0.0324,0.013523,0.002678,0.000431,0.000353
58974000,0.0324,0.013523,0.002678,0.000431,0.000470
58975000,0.0324,0.013523,0.002678,0.000431,0.000353
58976000,0.0324,0.013523,0.002678,0.000431,0.000588
58977000,0.0324,0.013523,0.002678,0.000431,0.000470
58978000,0.0324,0.013523,0.002678,0.000431,0.000470
58979000,0.0324,0.013523,0.002678,0.000431,0.000470
58980000,0.0324,0.013523,0.002678,0.000431,0.000470
58981000,0.0324,0.013523,0.002678,0.000431,0.000470
58982000,0.0324,0.013523,0.002678,0.000431,0.000470
58983000,0.0324,0.013523,0.002678,0.000431,0.000470
58984000,0.0324,0.013523,0.002678,0.000431,0.000470
58985000,0.0324,0.013523,0.002678,0.000431,0.000470
58986000,0.0324,0.013523,0.002678,0.000431,0.000470
58987000,0.0324,0.013523,0.002678,0.000431,0.000470
58988000,0.0324,0.013523,0.002678,0.000431,0.000470
58989000,0.0324,0.013523,0.002678,0.000431,0.000353
58990000,0.0324,0.013523,0.002678,0.000431,0.000588
58991000,0.0324,0.013523,0.002678,0.000431,0.000353
58992000,0.0324,0.013523,0.002678,0.000431,0.000588
58993000,0.0324,0.013523,0.002678,0.000431,0.000353
58994000,0.0324,0.013523,0.002678,0.000431,0.000470
58995000,0.0324,0.013523,0.002678,0.000431,0.000470
58996000,0.0324,0.013523,0.002678,0.000431,0.000470
58997000,0.0324,0.013523,0.002678,0.000431,0.000470
58998000,0.0324,0.013523,0.002678,0.000431,0.000353
58999000,0.0324,0.013523,0.002678,0.000431,0.000588
