Cycle,Area(mm^2),PeakDynamic(W),SubthresholdLeakage(W),GateLeakage(W),RunTimeDynamic(W)
26000000,0.0324,0.013523,0.002678,0.000431,0.000470
26001000,0.0324,0.013523,0.002678,0.000431,0.000470
26002000,0.0324,0.013523,0.002678,0.000431,0.000470
26003000,0.0324,0.013523,0.002678,0.000431,0.000353
26004000,0.0324,0.013523,0.002678,0.000431,0.000588
26005000,0.0324,0.013523,0.002678,0.000431,0.000470
26006000,0.0324,0.013523,0.002678,0.000431,0.000588
26007000,0.0324,0.013523,0.002678,0.000431,0.000470
26008000,0.0324,0.013523,0.002678,0.000431,0.000588
26009000,0.0324,0.013523,0.002678,0.000431,0.000353
26010000,0.0324,0.013523,0.002678,0.000431,0.000588
26011000,0.0324,0.013523,0.002678,0.000431,0.000353
26012000,0.0324,0.013523,0.002678,0.000431,0.000470
26013000,0.0324,0.013523,0.002678,0.000431,0.000470
26014000,0.0324,0.013523,0.002678,0.000431,0.000705
26015000,0.0324,0.013523,0.002678,0.000431,0.000353
26016000,0.0324,0.013523,0.002678,0.000431,0.000588
26017000,0.0324,0.013523,0.002678,0.000431,0.000470
26018000,0.0324,0.013523,0.002678,0.000431,0.000705
26019000,0.0324,0.013523,0.002678,0.000431,0.000353
26020000,0.0324,0.013523,0.002678,0.000431,0.000588
26021000,0.0324,0.013523,0.002678,0.000431,0.000353
26022000,0.0324,0.013523,0.002678,0.000431,0.000470
26023000,0.0324,0.013523,0.002678,0.000431,0.000470
26024000,0.0324,0.013523,0.002678,0.000431,0.000588
26025000,0.0324,0.013523,0.002678,0.000431,0.000353
26026000,0.0324,0.013523,0.002678,0.000431,0.000705
26027000,0.0324,0.013523,0.002678,0.000431,0.000470
26028000,0.0324,0.013523,0.002678,0.000431,0.000705
26029000,0.0324,0.013523,0.002678,0.000431,0.000588
26030000,0.0324,0.013523,0.002678,0.000431,0.000470
26031000,0.0324,0.013523,0.002678,0.000431,0.000588
26032000,0.0324,0.013523,0.002678,0.000431,0.000353
26033000,0.0324,0.013523,0.002678,0.000431,0.000588
26034000,0.0324,0.013523,0.002678,0.000431,0.000353
26035000,0.0324,0.013523,0.002678,0.000431,0.000588
26036000,0.0324,0.013523,0.002678,0.000431,0.000353
26037000,0.0324,0.013523,0.002678,0.000431,0.000588
26038000,0.0324,0.013523,0.002678,0.000431,0.000353
26039000,0.0324,0.013523,0.002678,0.000431,0.000470
26040000,0.0324,0.013523,0.002678,0.000431,0.000470
26041000,0.0324,0.013523,0.002678,0.000431,0.000470
26042000,0.0324,0.013523,0.002678,0.000431,0.000470
26043000,0.0324,0.013523,0.002678,0.000431,0.000470
26044000,0.0324,0.013523,0.002678,0.000431,0.000470
26045000,0.0324,0.013523,0.002678,0.000431,0.000353
26046000,0.0324,0.013523,0.002678,0.000431,0.000705
26047000,0.0324,0.013523,0.002678,0.000431,0.000588
26048000,0.0324,0.013523,0.002678,0.000431,0.000470
26049000,0.0324,0.013523,0.002678,0.000431,0.000588
26050000,0.0324,0.013523,0.002678,0.000431,0.000353
26051000,0.0324,0.013523,0.002678,0.000431,0.000588
26052000,0.0324,0.013523,0.002678,0.000431,0.000353
26053000,0.0324,0.013523,0.002678,0.000431,0.000823
26054000,0.0324,0.013523,0.002678,0.000431,0.000353
26055000,0.0324,0.013523,0.002678,0.000431,0.000588
26056000,0.0324,0.013523,0.002678,0.000431,0.000353
26057000,0.0324,0.013523,0.002678,0.000431,0.000588
26058000,0.0324,0.013523,0.002678,0.000431,0.000353
26059000,0.0324,0.013523,0.002678,0.000431,0.000588
26060000,0.0324,0.013523,0.002678,0.000431,0.000353
26061000,0.0324,0.013523,0.002678,0.000431,0.000588
26062000,0.0324,0.013523,0.002678,0.000431,0.000353
26063000,0.0324,0.013523,0.002678,0.000431,0.000588
26064000,0.0324,0.013523,0.002678,0.000431,0.000353
26065000,0.0324,0.013523,0.002678,0.000431,0.000470
26066000,0.0324,0.013523,0.002678,0.000431,0.000470
26067000,0.0324,0.013523,0.002678,0.000431,0.000470
26068000,0.0324,0.013523,0.002678,0.000431,0.000470
26069000,0.0324,0.013523,0.002678,0.000431,0.000470
26070000,0.0324,0.013523,0.002678,0.000431,0.000588
26071000,0.0324,0.013523,0.002678,0.000431,0.000588
26072000,0.0324,0.013523,0.002678,0.000431,0.000470
26073000,0.0324,0.013523,0.002678,0.000431,0.000588
26074000,0.0324,0.013523,0.002678,0.000431,0.000353
26075000,0.0324,0.013523,0.002678,0.000431,0.000588
26076000,0.0324,0.013523,0.002678,0.000431,0.000470
26077000,0.0324,0.013523,0.002678,0.000431,0.000588
26078000,0.0324,0.013523,0.002678,0.000431,0.000470
26079000,0.0324,0.013523,0.002678,0.000431,0.000705
26080000,0.0324,0.013523,0.002678,0.000431,0.000353
26081000,0.0324,0.013523,0.002678,0.000431,0.000588
26082000,0.0324,0.013523,0.002678,0.000431,0.000353
26083000,0.0324,0.013523,0.002678,0.000431,0.000588
26084000,0.0324,0.013523,0.002678,0.000431,0.000353
26085000,0.0324,0.013523,0.002678,0.000431,0.000823
26086000,0.0324,0.013523,0.002678,0.000431,0.000353
26087000,0.0324,0.013523,0.002678,0.000431,0.000588
26088000,0.0324,0.013523,0.002678,0.000431,0.000470
26089000,0.0324,0.013523,0.002678,0.000431,0.000588
26090000,0.0324,0.013523,0.002678,0.000431,0.000470
26091000,0.0324,0.013523,0.002678,0.000431,0.000588
26092000,0.0324,0.013523,0.002678,0.000431,0.000353
26093000,0.0324,0.013523,0.002678,0.000431,0.000470
26094000,0.0324,0.013523,0.002678,0.000431,0.000470
26095000,0.0324,0.013523,0.002678,0.000431,0.000588
26096000,0.0324,0.013523,0.002678,0.000431,0.000353
26097000,0.0324,0.013523,0.002678,0.000431,0.000588
26098000,0.0324,0.013523,0.002678,0.000431,0.000353
26099000,0.0324,0.013523,0.002678,0.000431,0.000588
26100000,0.0324,0.013523,0.002678,0.000431,0.000353
26101000,0.0324,0.013523,0.002678,0.000431,0.000705
26102000,0.0324,0.013523,0.002678,0.000431,0.000588
26103000,0.0324,0.013523,0.002678,0.000431,0.000470
26104000,0.0324,0.013523,0.002678,0.000431,0.000705
26105000,0.0324,0.013523,0.002678,0.000431,0.000353
26106000,0.0324,0.013523,0.002678,0.000431,0.000588
26107000,0.0324,0.013523,0.002678,0.000431,0.000353
26108000,0.0324,0.013523,0.002678,0.000431,0.000588
26109000,0.0324,0.013523,0.002678,0.000431,0.000353
26110000,0.0324,0.013523,0.002678,0.000431,0.000470
26111000,0.0324,0.013523,0.002678,0.000431,0.000353
26112000,0.0324,0.013523,0.002678,0.000431,0.000588
26113000,0.0324,0.013523,0.002678,0.000431,0.000470
26114000,0.0324,0.013523,0.002678,0.000431,0.000470
26115000,0.0324,0.013523,0.002678,0.000431,0.000470
26116000,0.0324,0.013523,0.002678,0.000431,0.000470
26117000,0.0324,0.013523,0.002678,0.000431,0.000470
26118000,0.0324,0.013523,0.002678,0.000431,0.000470
26119000,0.0324,0.013523,0.002678,0.000431,0.000470
26120000,0.0324,0.013523,0.002678,0.000431,0.000588
26121000,0.0324,0.013523,0.002678,0.000431,0.000470
26122000,0.0324,0.013523,0.002678,0.000431,0.000705
26123000,0.0324,0.013523,0.002678,0.000431,0.000353
26124000,0.0324,0.013523,0.002678,0.000431,0.000705
26125000,0.0324,0.013523,0.002678,0.000431,0.000588
26126000,0.0324,0.013523,0.002678,0.000431,0.000470
26127000,0.0324,0.013523,0.002678,0.000431,0.000588
26128000,0.0324,0.013523,0.002678,0.000431,0.000353
26129000,0.0324,0.013523,0.002678,0.000431,0.000470
26130000,0.0324,0.013523,0.002678,0.000431,0.000470
26131000,0.0324,0.013523,0.002678,0.000431,0.000470
26132000,0.0324,0.013523,0.002678,0.000431,0.000470
26133000,0.0324,0.013523,0.002678,0.000431,0.000470
26134000,0.0324,0.013523,0.002678,0.000431,0.000470
26135000,0.0324,0.013523,0.002678,0.000431,0.000353
26136000,0.0324,0.013523,0.002678,0.000431,0.000588
26137000,0.0324,0.013523,0.002678,0.000431,0.000353
26138000,0.0324,0.013523,0.002678,0.000431,0.000588
26139000,0.0324,0.013523,0.002678,0.000431,0.000353
26140000,0.0324,0.013523,0.002678,0.000431,0.000588
26141000,0.0324,0.013523,0.002678,0.000431,0.000353
26142000,0.0324,0.013523,0.002678,0.000431,0.000588
26143000,0.0324,0.013523,0.002678,0.000431,0.000353
26144000,0.0324,0.013523,0.002678,0.000431,0.000588
26145000,0.0324,0.013523,0.002678,0.000431,0.000353
26146000,0.0324,0.013523,0.002678,0.000431,0.000588
26147000,0.0324,0.013523,0.002678,0.000431,0.000353
26148000,0.0324,0.013523,0.002678,0.000431,0.000588
26149000,0.0324,0.013523,0.002678,0.000431,0.000353
26150000,0.0324,0.013523,0.002678,0.000431,0.000588
26151000,0.0324,0.013523,0.002678,0.000431,0.000353
26152000,0.0324,0.013523,0.002678,0.000431,0.000588
26153000,0.0324,0.013523,0.002678,0.000431,0.000353
26154000,0.0324,0.013523,0.002678,0.000431,0.000705
26155000,0.0324,0.013523,0.002678,0.000431,0.000470
26156000,0.0324,0.013523,0.002678,0.000431,0.000470
26157000,0.0324,0.013523,0.002678,0.000431,0.000470
26158000,0.0324,0.013523,0.002678,0.000431,0.000470
26159000,0.0324,0.013523,0.002678,0.000431,0.000470
26160000,0.0324,0.013523,0.002678,0.000431,0.000470
26161000,0.0324,0.013523,0.002678,0.000431,0.000353
26162000,0.0324,0.013523,0.002678,0.000431,0.000588
26163000,0.0324,0.013523,0.002678,0.000431,0.000353
26164000,0.0324,0.013523,0.002678,0.000431,0.000705
26165000,0.0324,0.013523,0.002678,0.000431,0.000353
26166000,0.0324,0.013523,0.002678,0.000431,0.000588
26167000,0.0324,0.013523,0.002678,0.000431,0.000353
26168000,0.0324,0.013523,0.002678,0.000431,0.000588
26169000,0.0324,0.013523,0.002678,0.000431,0.000353
26170000,0.0324,0.013523,0.002678,0.000431,0.000588
26171000,0.0324,0.013523,0.002678,0.000431,0.000353
26172000,0.0324,0.013523,0.002678,0.000431,0.000588
26173000,0.0324,0.013523,0.002678,0.000431,0.000353
26174000,0.0324,0.013523,0.002678,0.000431,0.000588
26175000,0.0324,0.013523,0.002678,0.000431,0.000353
26176000,0.0324,0.013523,0.002678,0.000431,0.000588
26177000,0.0324,0.013523,0.002678,0.000431,0.000353
26178000,0.0324,0.013523,0.002678,0.000431,0.000588
26179000,0.0324,0.013523,0.002678,0.000431,0.000470
26180000,0.0324,0.013523,0.002678,0.000431,0.000470
26181000,0.0324,0.013523,0.002678,0.000431,0.000353
26182000,0.0324,0.013523,0.002678,0.000431,0.000588
26183000,0.0324,0.013523,0.002678,0.000431,0.000470
26184000,0.0324,0.013523,0.002678,0.000431,0.000705
26185000,0.0324,0.013523,0.002678,0.000431,0.000353
26186000,0.0324,0.013523,0.002678,0.000431,0.000588
26187000,0.0324,0.013523,0.002678,0.000431,0.000353
26188000,0.0324,0.013523,0.002678,0.000431,0.000470
26189000,0.0324,0.013523,0.002678,0.000431,0.000353
26190000,0.0324,0.013523,0.002678,0.000431,0.000588
26191000,0.0324,0.013523,0.002678,0.000431,0.000353
26192000,0.0324,0.013523,0.002678,0.000431,0.000588
26193000,0.0324,0.013523,0.002678,0.000431,0.000353
26194000,0.0324,0.013523,0.002678,0.000431,0.000588
26195000,0.0324,0.013523,0.002678,0.000431,0.000353
26196000,0.0324,0.013523,0.002678,0.000431,0.000588
26197000,0.0324,0.013523,0.002678,0.000431,0.000353
26198000,0.0324,0.013523,0.002678,0.000431,0.000588
26199000,0.0324,0.013523,0.002678,0.000431,0.000353
26200000,0.0324,0.013523,0.002678,0.000431,0.000588
26201000,0.0324,0.013523,0.002678,0.000431,0.000353
26202000,0.0324,0.013523,0.002678,0.000431,0.000588
26203000,0.0324,0.013523,0.002678,0.000431,0.000470
26204000,0.0324,0.013523,0.002678,0.000431,0.000470
26205000,0.0324,0.013523,0.002678,0.000431,0.000470
26206000,0.0324,0.013523,0.002678,0.000431,0.000588
26207000,0.0324,0.013523,0.002678,0.000431,0.000470
26208000,0.0324,0.013523,0.002678,0.000431,0.000588
26209000,0.0324,0.013523,0.002678,0.000431,0.000353
26210000,0.0324,0.013523,0.002678,0.000431,0.000588
26211000,0.0324,0.013523,0.002678,0.000431,0.000353
26212000,0.0324,0.013523,0.002678,0.000431,0.000588
26213000,0.0324,0.013523,0.002678,0.000431,0.000353
26214000,0.0324,0.013523,0.002678,0.000431,0.000470
26215000,0.0324,0.013523,0.002678,0.000431,0.000470
26216000,0.0324,0.013523,0.002678,0.000431,0.000470
26217000,0.0324,0.013523,0.002678,0.000431,0.000470
26218000,0.0324,0.013523,0.002678,0.000431,0.000470
26219000,0.0324,0.013523,0.002678,0.000431,0.000470
26220000,0.0324,0.013523,0.002678,0.000431,0.000353
26221000,0.0324,0.013523,0.002678,0.000431,0.000588
26222000,0.0324,0.013523,0.002678,0.000431,0.000353
26223000,0.0324,0.013523,0.002678,0.000431,0.000588
26224000,0.0324,0.013523,0.002678,0.000431,0.000353
26225000,0.0324,0.013523,0.002678,0.000431,0.000705
26226000,0.0324,0.013523,0.002678,0.000431,0.000588
26227000,0.0324,0.013523,0.002678,0.000431,0.000470
26228000,0.0324,0.013523,0.002678,0.000431,0.000705
26229000,0.0324,0.013523,0.002678,0.000431,0.000353
26230000,0.0324,0.013523,0.002678,0.000431,0.000705
26231000,0.0324,0.013523,0.002678,0.000431,0.000588
26232000,0.0324,0.013523,0.002678,0.000431,0.000470
26233000,0.0324,0.013523,0.002678,0.000431,0.000470
26234000,0.0324,0.013523,0.002678,0.000431,0.000470
26235000,0.0324,0.013523,0.002678,0.000431,0.000470
26236000,0.0324,0.013523,0.002678,0.000431,0.000470
26237000,0.0324,0.013523,0.002678,0.000431,0.000470
26238000,0.0324,0.013523,0.002678,0.000431,0.000470
26239000,0.0324,0.013523,0.002678,0.000431,0.000353
26240000,0.0324,0.013523,0.002678,0.000431,0.000588
26241000,0.0324,0.013523,0.002678,0.000431,0.000353
26242000,0.0324,0.013523,0.002678,0.000431,0.000588
26243000,0.0324,0.013523,0.002678,0.000431,0.000353
26244000,0.0324,0.013523,0.002678,0.000431,0.000588
26245000,0.0324,0.013523,0.002678,0.000431,0.000353
26246000,0.0324,0.013523,0.002678,0.000431,0.000588
26247000,0.0324,0.013523,0.002678,0.000431,0.000353
26248000,0.0324,0.013523,0.002678,0.000431,0.000588
26249000,0.0324,0.013523,0.002678,0.000431,0.000353
26250000,0.0324,0.013523,0.002678,0.000431,0.000470
26251000,0.0324,0.013523,0.002678,0.000431,0.000470
26252000,0.0324,0.013523,0.002678,0.000431,0.000470
26253000,0.0324,0.013523,0.002678,0.000431,0.000470
26254000,0.0324,0.013523,0.002678,0.000431,0.000588
26255000,0.0324,0.013523,0.002678,0.000431,0.000353
26256000,0.0324,0.013523,0.002678,0.000431,0.000588
26257000,0.0324,0.013523,0.002678,0.000431,0.000353
26258000,0.0324,0.013523,0.002678,0.000431,0.000470
26259000,0.0324,0.013523,0.002678,0.000431,0.000470
26260000,0.0324,0.013523,0.002678,0.000431,0.000470
26261000,0.0324,0.013523,0.002678,0.000431,0.000470
26262000,0.0324,0.013523,0.002678,0.000431,0.000470
26263000,0.0324,0.013523,0.002678,0.000431,0.000470
26264000,0.0324,0.013523,0.002678,0.000431,0.000588
26265000,0.0324,0.013523,0.002678,0.000431,0.000353
26266000,0.0324,0.013523,0.002678,0.000431,0.000823
26267000,0.0324,0.013523,0.002678,0.000431,0.000353
26268000,0.0324,0.013523,0.002678,0.000431,0.000470
26269000,0.0324,0.013523,0.002678,0.000431,0.000470
26270000,0.0324,0.013523,0.002678,0.000431,0.000588
26271000,0.0324,0.013523,0.002678,0.000431,0.000353
26272000,0.0324,0.013523,0.002678,0.000431,0.000588
26273000,0.0324,0.013523,0.002678,0.000431,0.000353
26274000,0.0324,0.013523,0.002678,0.000431,0.000705
26275000,0.0324,0.013523,0.002678,0.000431,0.000470
26276000,0.0324,0.013523,0.002678,0.000431,0.000470
26277000,0.0324,0.013523,0.002678,0.000431,0.000470
26278000,0.0324,0.013523,0.002678,0.000431,0.000470
26279000,0.0324,0.013523,0.002678,0.000431,0.000470
26280000,0.0324,0.013523,0.002678,0.000431,0.000588
26281000,0.0324,0.013523,0.002678,0.000431,0.000353
26282000,0.0324,0.013523,0.002678,0.000431,0.000588
26283000,0.0324,0.013523,0.002678,0.000431,0.000353
26284000,0.0324,0.013523,0.002678,0.000431,0.000705
26285000,0.0324,0.013523,0.002678,0.000431,0.000470
26286000,0.0324,0.013523,0.002678,0.000431,0.000470
26287000,0.0324,0.013523,0.002678,0.000431,0.000470
26288000,0.0324,0.013523,0.002678,0.000431,0.000470
26289000,0.0324,0.013523,0.002678,0.000431,0.000470
26290000,0.0324,0.013523,0.002678,0.000431,0.000588
26291000,0.0324,0.013523,0.002678,0.000431,0.000353
26292000,0.0324,0.013523,0.002678,0.000431,0.000705
26293000,0.0324,0.013523,0.002678,0.000431,0.000588
26294000,0.0324,0.013523,0.002678,0.000431,0.000470
26295000,0.0324,0.013523,0.002678,0.000431,0.000705
26296000,0.0324,0.013523,0.002678,0.000431,0.000353
26297000,0.0324,0.013523,0.002678,0.000431,0.000705
26298000,0.0324,0.013523,0.002678,0.000431,0.000588
26299000,0.0324,0.013523,0.002678,0.000431,0.000470
26300000,0.0324,0.013523,0.002678,0.000431,0.000588
26301000,0.0324,0.013523,0.002678,0.000431,0.000353
26302000,0.0324,0.013523,0.002678,0.000431,0.000588
26303000,0.0324,0.013523,0.002678,0.000431,0.000353
26304000,0.0324,0.013523,0.002678,0.000431,0.000470
26305000,0.0324,0.013523,0.002678,0.000431,0.000470
26306000,0.0324,0.013523,0.002678,0.000431,0.000470
26307000,0.0324,0.013523,0.002678,0.000431,0.000470
26308000,0.0324,0.013523,0.002678,0.000431,0.000470
26309000,0.0324,0.013523,0.002678,0.000431,0.000470
26310000,0.0324,0.013523,0.002678,0.000431,0.000353
26311000,0.0324,0.013523,0.002678,0.000431,0.000588
26312000,0.0324,0.013523,0.002678,0.000431,0.000353
26313000,0.0324,0.013523,0.002678,0.000431,0.000470
26314000,0.0324,0.013523,0.002678,0.000431,0.000470
26315000,0.0324,0.013523,0.002678,0.000431,0.000470
26316000,0.0324,0.013523,0.002678,0.000431,0.000470
26317000,0.0324,0.013523,0.002678,0.000431,0.000470
26318000,0.0324,0.013523,0.002678,0.000431,0.000470
26319000,0.0324,0.013523,0.002678,0.000431,0.000470
26320000,0.0324,0.013523,0.002678,0.000431,0.000470
26321000,0.0324,0.013523,0.002678,0.000431,0.000470
26322000,0.0324,0.013523,0.002678,0.000431,0.000470
26323000,0.0324,0.013523,0.002678,0.000431,0.000470
26324000,0.0324,0.013523,0.002678,0.000431,0.000470
26325000,0.0324,0.013523,0.002678,0.000431,0.000470
26326000,0.0324,0.013523,0.002678,0.000431,0.000470
26327000,0.0324,0.013523,0.002678,0.000431,0.000470
26328000,0.0324,0.013523,0.002678,0.000431,0.000470
26329000,0.0324,0.013523,0.002678,0.000431,0.000470
26330000,0.0324,0.013523,0.002678,0.000431,0.000470
26331000,0.0324,0.013523,0.002678,0.000431,0.000470
26332000,0.0324,0.013523,0.002678,0.000431,0.000470
26333000,0.0324,0.013523,0.002678,0.000431,0.000470
26334000,0.0324,0.013523,0.002678,0.000431,0.000470
26335000,0.0324,0.013523,0.002678,0.000431,0.000705
26336000,0.0324,0.013523,0.002678,0.000431,0.000353
26337000,0.0324,0.013523,0.002678,0.000431,0.000588
26338000,0.0324,0.013523,0.002678,0.000431,0.000235
26339000,0.0324,0.013523,0.002678,0.000431,0.000588
26340000,0.0324,0.013523,0.002678,0.000431,0.000353
26341000,0.0324,0.013523,0.002678,0.000431,0.000705
26342000,0.0324,0.013523,0.002678,0.000431,0.000353
26343000,0.0324,0.013523,0.002678,0.000431,0.000588
26344000,0.0324,0.013523,0.002678,0.000431,0.000470
26345000,0.0324,0.013523,0.002678,0.000431,0.000470
26346000,0.0324,0.013523,0.002678,0.000431,0.000353
26347000,0.0324,0.013523,0.002678,0.000431,0.000588
26348000,0.0324,0.013523,0.002678,0.000431,0.000353
26349000,0.0324,0.013523,0.002678,0.000431,0.000588
26350000,0.0324,0.013523,0.002678,0.000431,0.000353
26351000,0.0324,0.013523,0.002678,0.000431,0.000588
26352000,0.0324,0.013523,0.002678,0.000431,0.000353
26353000,0.0324,0.013523,0.002678,0.000431,0.000705
26354000,0.0324,0.013523,0.002678,0.000431,0.000470
26355000,0.0324,0.013523,0.002678,0.000431,0.000470
26356000,0.0324,0.013523,0.002678,0.000431,0.000470
26357000,0.0324,0.013523,0.002678,0.000431,0.000705
26358000,0.0324,0.013523,0.002678,0.000431,0.000353
26359000,0.0324,0.013523,0.002678,0.000431,0.000588
26360000,0.0324,0.013523,0.002678,0.000431,0.000588
26361000,0.0324,0.013523,0.002678,0.000431,0.000470
26362000,0.0324,0.013523,0.002678,0.000431,0.000353
26363000,0.0324,0.013523,0.002678,0.000431,0.000588
26364000,0.0324,0.013523,0.002678,0.000431,0.000235
26365000,0.0324,0.013523,0.002678,0.000431,0.000588
26366000,0.0324,0.013523,0.002678,0.000431,0.000353
26367000,0.0324,0.013523,0.002678,0.000431,0.000588
26368000,0.0324,0.013523,0.002678,0.000431,0.000470
26369000,0.0324,0.013523,0.002678,0.000431,0.000588
26370000,0.0324,0.013523,0.002678,0.000431,0.000353
26371000,0.0324,0.013523,0.002678,0.000431,0.000588
26372000,0.0324,0.013523,0.002678,0.000431,0.000353
26373000,0.0324,0.013523,0.002678,0.000431,0.000588
26374000,0.0324,0.013523,0.002678,0.000431,0.000353
26375000,0.0324,0.013523,0.002678,0.000431,0.000588
26376000,0.0324,0.013523,0.002678,0.000431,0.000353
26377000,0.0324,0.013523,0.002678,0.000431,0.000705
26378000,0.0324,0.013523,0.002678,0.000431,0.000353
26379000,0.0324,0.013523,0.002678,0.000431,0.000705
26380000,0.0324,0.013523,0.002678,0.000431,0.000588
26381000,0.0324,0.013523,0.002678,0.000431,0.000470
26382000,0.0324,0.013523,0.002678,0.000431,0.000470
26383000,0.0324,0.013523,0.002678,0.000431,0.000470
26384000,0.0324,0.013523,0.002678,0.000431,0.000470
26385000,0.0324,0.013523,0.002678,0.000431,0.000470
26386000,0.0324,0.013523,0.002678,0.000431,0.000470
26387000,0.0324,0.013523,0.002678,0.000431,0.000470
26388000,0.0324,0.013523,0.002678,0.000431,0.000353
26389000,0.0324,0.013523,0.002678,0.000431,0.000588
26390000,0.0324,0.013523,0.002678,0.000431,0.000353
26391000,0.0324,0.013523,0.002678,0.000431,0.000470
26392000,0.0324,0.013523,0.002678,0.000431,0.000470
26393000,0.0324,0.013523,0.002678,0.000431,0.000588
26394000,0.0324,0.013523,0.002678,0.000431,0.000353
26395000,0.0324,0.013523,0.002678,0.000431,0.000588
26396000,0.0324,0.013523,0.002678,0.000431,0.000353
26397000,0.0324,0.013523,0.002678,0.000431,0.000588
26398000,0.0324,0.013523,0.002678,0.000431,0.000353
26399000,0.0324,0.013523,0.002678,0.000431,0.000705
26400000,0.0324,0.013523,0.002678,0.000431,0.000470
26401000,0.0324,0.013523,0.002678,0.000431,0.000470
26402000,0.0324,0.013523,0.002678,0.000431,0.000470
26403000,0.0324,0.013523,0.002678,0.000431,0.000470
26404000,0.0324,0.013523,0.002678,0.000431,0.000470
26405000,0.0324,0.013523,0.002678,0.000431,0.000588
26406000,0.0324,0.013523,0.002678,0.000431,0.000353
26407000,0.0324,0.013523,0.002678,0.000431,0.000470
26408000,0.0324,0.013523,0.002678,0.000431,0.000470
26409000,0.0324,0.013523,0.002678,0.000431,0.000470
26410000,0.0324,0.013523,0.002678,0.000431,0.000470
26411000,0.0324,0.013523,0.002678,0.000431,0.000470
26412000,0.0324,0.013523,0.002678,0.000431,0.000470
26413000,0.0324,0.013523,0.002678,0.000431,0.000588
26414000,0.0324,0.013523,0.002678,0.000431,0.000353
26415000,0.0324,0.013523,0.002678,0.000431,0.000705
26416000,0.0324,0.013523,0.002678,0.000431,0.000588
26417000,0.0324,0.013523,0.002678,0.000431,0.000470
26418000,0.0324,0.013523,0.002678,0.000431,0.000588
26419000,0.0324,0.013523,0.002678,0.000431,0.000353
26420000,0.0324,0.013523,0.002678,0.000431,0.000588
26421000,0.0324,0.013523,0.002678,0.000431,0.000353
26422000,0.0324,0.013523,0.002678,0.000431,0.000588
26423000,0.0324,0.013523,0.002678,0.000431,0.000353
26424000,0.0324,0.013523,0.002678,0.000431,0.000588
26425000,0.0324,0.013523,0.002678,0.000431,0.000470
26426000,0.0324,0.013523,0.002678,0.000431,0.000470
26427000,0.0324,0.013523,0.002678,0.000431,0.000353
26428000,0.0324,0.013523,0.002678,0.000431,0.000588
26429000,0.0324,0.013523,0.002678,0.000431,0.000353
26430000,0.0324,0.013523,0.002678,0.000431,0.000588
26431000,0.0324,0.013523,0.002678,0.000431,0.000353
26432000,0.0324,0.013523,0.002678,0.000431,0.000588
26433000,0.0324,0.013523,0.002678,0.000431,0.000353
26434000,0.0324,0.013523,0.002678,0.000431,0.000470
26435000,0.0324,0.013523,0.002678,0.000431,0.000470
26436000,0.0324,0.013523,0.002678,0.000431,0.000470
26437000,0.0324,0.013523,0.002678,0.000431,0.000470
26438000,0.0324,0.013523,0.002678,0.000431,0.000470
26439000,0.0324,0.013523,0.002678,0.000431,0.000470
26440000,0.0324,0.013523,0.002678,0.000431,0.000353
26441000,0.0324,0.013523,0.002678,0.000431,0.000705
26442000,0.0324,0.013523,0.002678,0.000431,0.000588
26443000,0.0324,0.013523,0.002678,0.000431,0.000470
26444000,0.0324,0.013523,0.002678,0.000431,0.000588
26445000,0.0324,0.013523,0.002678,0.000431,0.000470
26446000,0.0324,0.013523,0.002678,0.000431,0.000470
26447000,0.0324,0.013523,0.002678,0.000431,0.000470
26448000,0.0324,0.013523,0.002678,0.000431,0.000470
26449000,0.0324,0.013523,0.002678,0.000431,0.000470
26450000,0.0324,0.013523,0.002678,0.000431,0.000470
26451000,0.0324,0.013523,0.002678,0.000431,0.000470
26452000,0.0324,0.013523,0.002678,0.000431,0.000470
26453000,0.0324,0.013523,0.002678,0.000431,0.000588
26454000,0.0324,0.013523,0.002678,0.000431,0.000353
26455000,0.0324,0.013523,0.002678,0.000431,0.000823
26456000,0.0324,0.013523,0.002678,0.000431,0.000353
26457000,0.0324,0.013523,0.002678,0.000431,0.000705
26458000,0.0324,0.013523,0.002678,0.000431,0.000353
26459000,0.0324,0.013523,0.002678,0.000431,0.000705
26460000,0.0324,0.013523,0.002678,0.000431,0.000353
26461000,0.0324,0.013523,0.002678,0.000431,0.000588
26462000,0.0324,0.013523,0.002678,0.000431,0.000470
26463000,0.0324,0.013523,0.002678,0.000431,0.000588
26464000,0.0324,0.013523,0.002678,0.000431,0.000588
26465000,0.0324,0.013523,0.002678,0.000431,0.000470
26466000,0.0324,0.013523,0.002678,0.000431,0.000588
26467000,0.0324,0.013523,0.002678,0.000431,0.000470
26468000,0.0324,0.013523,0.002678,0.000431,0.000588
26469000,0.0324,0.013523,0.002678,0.000431,0.000470
26470000,0.0324,0.013523,0.002678,0.000431,0.000588
26471000,0.0324,0.013523,0.002678,0.000431,0.000470
26472000,0.0324,0.013523,0.002678,0.000431,0.000470
26473000,0.0324,0.013523,0.002678,0.000431,0.000470
26474000,0.0324,0.013523,0.002678,0.000431,0.000470
26475000,0.0324,0.013523,0.002678,0.000431,0.000470
26476000,0.0324,0.013523,0.002678,0.000431,0.000588
26477000,0.0324,0.013523,0.002678,0.000431,0.000470
26478000,0.0324,0.013523,0.002678,0.000431,0.000705
26479000,0.0324,0.013523,0.002678,0.000431,0.000353
26480000,0.0324,0.013523,0.002678,0.000431,0.000588
26481000,0.0324,0.013523,0.002678,0.000431,0.000470
26482000,0.0324,0.013523,0.002678,0.000431,0.000588
26483000,0.0324,0.013523,0.002678,0.000431,0.000588
26484000,0.0324,0.013523,0.002678,0.000431,0.000470
26485000,0.0324,0.013523,0.002678,0.000431,0.000588
26486000,0.0324,0.013523,0.002678,0.000431,0.000353
26487000,0.0324,0.013523,0.002678,0.000431,0.000588
26488000,0.0324,0.013523,0.002678,0.000431,0.000353
26489000,0.0324,0.013523,0.002678,0.000431,0.000588
26490000,0.0324,0.013523,0.002678,0.000431,0.000353
26491000,0.0324,0.013523,0.002678,0.000431,0.000588
26492000,0.0324,0.013523,0.002678,0.000431,0.000353
26493000,0.0324,0.013523,0.002678,0.000431,0.000588
26494000,0.0324,0.013523,0.002678,0.000431,0.000353
26495000,0.0324,0.013523,0.002678,0.000431,0.000588
26496000,0.0324,0.013523,0.002678,0.000431,0.000353
26497000,0.0324,0.013523,0.002678,0.000431,0.000588
26498000,0.0324,0.013523,0.002678,0.000431,0.000353
26499000,0.0324,0.013523,0.002678,0.000431,0.000470
26500000,0.0324,0.013523,0.002678,0.000431,0.000470
26501000,0.0324,0.013523,0.002678,0.000431,0.000470
26502000,0.0324,0.013523,0.002678,0.000431,0.000470
26503000,0.0324,0.013523,0.002678,0.000431,0.000353
26504000,0.0324,0.013523,0.002678,0.000431,0.000705
26505000,0.0324,0.013523,0.002678,0.000431,0.000470
26506000,0.0324,0.013523,0.002678,0.000431,0.000470
26507000,0.0324,0.013523,0.002678,0.000431,0.000470
26508000,0.0324,0.013523,0.002678,0.000431,0.000470
26509000,0.0324,0.013523,0.002678,0.000431,0.000470
26510000,0.0324,0.013523,0.002678,0.000431,0.000470
26511000,0.0324,0.013523,0.002678,0.000431,0.000470
26512000,0.0324,0.013523,0.002678,0.000431,0.000470
26513000,0.0324,0.013523,0.002678,0.000431,0.000470
26514000,0.0324,0.013523,0.002678,0.000431,0.000470
26515000,0.0324,0.013523,0.002678,0.000431,0.000470
26516000,0.0324,0.013523,0.002678,0.000431,0.000470
26517000,0.0324,0.013523,0.002678,0.000431,0.000470
26518000,0.0324,0.013523,0.002678,0.000431,0.000470
26519000,0.0324,0.013523,0.002678,0.000431,0.000470
26520000,0.0324,0.013523,0.002678,0.000431,0.000470
26521000,0.0324,0.013523,0.002678,0.000431,0.000353
26522000,0.0324,0.013523,0.002678,0.000431,0.000588
26523000,0.0324,0.013523,0.002678,0.000431,0.000353
26524000,0.0324,0.013523,0.002678,0.000431,0.000588
26525000,0.0324,0.013523,0.002678,0.000431,0.000353
26526000,0.0324,0.013523,0.002678,0.000431,0.000588
26527000,0.0324,0.013523,0.002678,0.000431,0.000353
26528000,0.0324,0.013523,0.002678,0.000431,0.000588
26529000,0.0324,0.013523,0.002678,0.000431,0.000353
26530000,0.0324,0.013523,0.002678,0.000431,0.000588
26531000,0.0324,0.013523,0.002678,0.000431,0.000353
26532000,0.0324,0.013523,0.002678,0.000431,0.000705
26533000,0.0324,0.013523,0.002678,0.000431,0.000353
26534000,0.0324,0.013523,0.002678,0.000431,0.000470
26535000,0.0324,0.013523,0.002678,0.000431,0.000470
26536000,0.0324,0.013523,0.002678,0.000431,0.000705
26537000,0.0324,0.013523,0.002678,0.000431,0.000353
26538000,0.0324,0.013523,0.002678,0.000431,0.000588
26539000,0.0324,0.013523,0.002678,0.000431,0.000353
26540000,0.0324,0.013523,0.002678,0.000431,0.000588
26541000,0.0324,0.013523,0.002678,0.000431,0.000353
26542000,0.0324,0.013523,0.002678,0.000431,0.000470
26543000,0.0324,0.013523,0.002678,0.000431,0.000353
26544000,0.0324,0.013523,0.002678,0.000431,0.000588
26545000,0.0324,0.013523,0.002678,0.000431,0.000353
26546000,0.0324,0.013523,0.002678,0.000431,0.000588
26547000,0.0324,0.013523,0.002678,0.000431,0.000353
26548000,0.0324,0.013523,0.002678,0.000431,0.000823
26549000,0.0324,0.013523,0.002678,0.000431,0.000353
26550000,0.0324,0.013523,0.002678,0.000431,0.000588
26551000,0.0324,0.013523,0.002678,0.000431,0.000353
26552000,0.0324,0.013523,0.002678,0.000431,0.000470
26553000,0.0324,0.013523,0.002678,0.000431,0.000470
26554000,0.0324,0.013523,0.002678,0.000431,0.000470
26555000,0.0324,0.013523,0.002678,0.000431,0.000470
26556000,0.0324,0.013523,0.002678,0.000431,0.000470
26557000,0.0324,0.013523,0.002678,0.000431,0.000470
26558000,0.0324,0.013523,0.002678,0.000431,0.000470
26559000,0.0324,0.013523,0.002678,0.000431,0.000470
26560000,0.0324,0.013523,0.002678,0.000431,0.000470
26561000,0.0324,0.013523,0.002678,0.000431,0.000470
26562000,0.0324,0.013523,0.002678,0.000431,0.000470
26563000,0.0324,0.013523,0.002678,0.000431,0.000588
26564000,0.0324,0.013523,0.002678,0.000431,0.000353
26565000,0.0324,0.013523,0.002678,0.000431,0.000705
26566000,0.0324,0.013523,0.002678,0.000431,0.000470
26567000,0.0324,0.013523,0.002678,0.000431,0.000470
26568000,0.0324,0.013523,0.002678,0.000431,0.000470
26569000,0.0324,0.013523,0.002678,0.000431,0.000470
26570000,0.0324,0.013523,0.002678,0.000431,0.000470
26571000,0.0324,0.013523,0.002678,0.000431,0.000470
26572000,0.0324,0.013523,0.002678,0.000431,0.000353
26573000,0.0324,0.013523,0.002678,0.000431,0.000588
26574000,0.0324,0.013523,0.002678,0.000431,0.000353
26575000,0.0324,0.013523,0.002678,0.000431,0.000588
26576000,0.0324,0.013523,0.002678,0.000431,0.000353
26577000,0.0324,0.013523,0.002678,0.000431,0.000588
26578000,0.0324,0.013523,0.002678,0.000431,0.000353
26579000,0.0324,0.013523,0.002678,0.000431,0.000588
26580000,0.0324,0.013523,0.002678,0.000431,0.000470
26581000,0.0324,0.013523,0.002678,0.000431,0.000470
26582000,0.0324,0.013523,0.002678,0.000431,0.000470
26583000,0.0324,0.013523,0.002678,0.000431,0.000470
26584000,0.0324,0.013523,0.002678,0.000431,0.000470
26585000,0.0324,0.013523,0.002678,0.000431,0.000588
26586000,0.0324,0.013523,0.002678,0.000431,0.000470
26587000,0.0324,0.013523,0.002678,0.000431,0.000705
26588000,0.0324,0.013523,0.002678,0.000431,0.000353
26589000,0.0324,0.013523,0.002678,0.000431,0.000470
26590000,0.0324,0.013523,0.002678,0.000431,0.000470
26591000,0.0324,0.013523,0.002678,0.000431,0.000470
26592000,0.0324,0.013523,0.002678,0.000431,0.000353
26593000,0.0324,0.013523,0.002678,0.000431,0.000705
26594000,0.0324,0.013523,0.002678,0.000431,0.000353
26595000,0.0324,0.013523,0.002678,0.000431,0.000705
26596000,0.0324,0.013523,0.002678,0.000431,0.000588
26597000,0.0324,0.013523,0.002678,0.000431,0.000470
26598000,0.0324,0.013523,0.002678,0.000431,0.000588
26599000,0.0324,0.013523,0.002678,0.000431,0.000353
26600000,0.0324,0.013523,0.002678,0.000431,0.000588
26601000,0.0324,0.013523,0.002678,0.000431,0.000353
26602000,0.0324,0.013523,0.002678,0.000431,0.000588
26603000,0.0324,0.013523,0.002678,0.000431,0.000353
26604000,0.0324,0.013523,0.002678,0.000431,0.000588
26605000,0.0324,0.013523,0.002678,0.000431,0.000470
26606000,0.0324,0.013523,0.002678,0.000431,0.000588
26607000,0.0324,0.013523,0.002678,0.000431,0.000470
26608000,0.0324,0.013523,0.002678,0.000431,0.000705
26609000,0.0324,0.013523,0.002678,0.000431,0.000235
26610000,0.0324,0.013523,0.002678,0.000431,0.000705
26611000,0.0324,0.013523,0.002678,0.000431,0.000353
26612000,0.0324,0.013523,0.002678,0.000431,0.000705
26613000,0.0324,0.013523,0.002678,0.000431,0.000588
26614000,0.0324,0.013523,0.002678,0.000431,0.000470
26615000,0.0324,0.013523,0.002678,0.000431,0.000588
26616000,0.0324,0.013523,0.002678,0.000431,0.000353
26617000,0.0324,0.013523,0.002678,0.000431,0.000588
26618000,0.0324,0.013523,0.002678,0.000431,0.000353
26619000,0.0324,0.013523,0.002678,0.000431,0.000588
26620000,0.0324,0.013523,0.002678,0.000431,0.000353
26621000,0.0324,0.013523,0.002678,0.000431,0.000588
26622000,0.0324,0.013523,0.002678,0.000431,0.000353
26623000,0.0324,0.013523,0.002678,0.000431,0.000588
26624000,0.0324,0.013523,0.002678,0.000431,0.000353
26625000,0.0324,0.013523,0.002678,0.000431,0.000470
26626000,0.0324,0.013523,0.002678,0.000431,0.000470
26627000,0.0324,0.013523,0.002678,0.000431,0.000470
26628000,0.0324,0.013523,0.002678,0.000431,0.000470
26629000,0.0324,0.013523,0.002678,0.000431,0.000353
26630000,0.0324,0.013523,0.002678,0.000431,0.000705
26631000,0.0324,0.013523,0.002678,0.000431,0.000470
26632000,0.0324,0.013523,0.002678,0.000431,0.000470
26633000,0.0324,0.013523,0.002678,0.000431,0.000588
26634000,0.0324,0.013523,0.002678,0.000431,0.000470
26635000,0.0324,0.013523,0.002678,0.000431,0.000705
26636000,0.0324,0.013523,0.002678,0.000431,0.000353
26637000,0.0324,0.013523,0.002678,0.000431,0.000588
26638000,0.0324,0.013523,0.002678,0.000431,0.000353
26639000,0.0324,0.013523,0.002678,0.000431,0.000588
26640000,0.0324,0.013523,0.002678,0.000431,0.000353
26641000,0.0324,0.013523,0.002678,0.000431,0.000470
26642000,0.0324,0.013523,0.002678,0.000431,0.000470
26643000,0.0324,0.013523,0.002678,0.000431,0.000470
26644000,0.0324,0.013523,0.002678,0.000431,0.000470
26645000,0.0324,0.013523,0.002678,0.000431,0.000588
26646000,0.0324,0.013523,0.002678,0.000431,0.000470
26647000,0.0324,0.013523,0.002678,0.000431,0.000705
26648000,0.0324,0.013523,0.002678,0.000431,0.000353
26649000,0.0324,0.013523,0.002678,0.000431,0.000705
26650000,0.0324,0.013523,0.002678,0.000431,0.000588
26651000,0.0324,0.013523,0.002678,0.000431,0.000470
26652000,0.0324,0.013523,0.002678,0.000431,0.000588
26653000,0.0324,0.013523,0.002678,0.000431,0.000353
26654000,0.0324,0.013523,0.002678,0.000431,0.000470
26655000,0.0324,0.013523,0.002678,0.000431,0.000470
26656000,0.0324,0.013523,0.002678,0.000431,0.000353
26657000,0.0324,0.013523,0.002678,0.000431,0.000588
26658000,0.0324,0.013523,0.002678,0.000431,0.000353
26659000,0.0324,0.013523,0.002678,0.000431,0.000588
26660000,0.0324,0.013523,0.002678,0.000431,0.000353
26661000,0.0324,0.013523,0.002678,0.000431,0.000588
26662000,0.0324,0.013523,0.002678,0.000431,0.000353
26663000,0.0324,0.013523,0.002678,0.000431,0.000705
26664000,0.0324,0.013523,0.002678,0.000431,0.000470
26665000,0.0324,0.013523,0.002678,0.000431,0.000470
26666000,0.0324,0.013523,0.002678,0.000431,0.000470
26667000,0.0324,0.013523,0.002678,0.000431,0.000470
26668000,0.0324,0.013523,0.002678,0.000431,0.000470
26669000,0.0324,0.013523,0.002678,0.000431,0.000470
26670000,0.0324,0.013523,0.002678,0.000431,0.000470
26671000,0.0324,0.013523,0.002678,0.000431,0.000470
26672000,0.0324,0.013523,0.002678,0.000431,0.000353
26673000,0.0324,0.013523,0.002678,0.000431,0.000823
26674000,0.0324,0.013523,0.002678,0.000431,0.000353
26675000,0.0324,0.013523,0.002678,0.000431,0.000588
26676000,0.0324,0.013523,0.002678,0.000431,0.000353
26677000,0.0324,0.013523,0.002678,0.000431,0.000588
26678000,0.0324,0.013523,0.002678,0.000431,0.000353
26679000,0.0324,0.013523,0.002678,0.000431,0.000705
26680000,0.0324,0.013523,0.002678,0.000431,0.000353
26681000,0.0324,0.013523,0.002678,0.000431,0.000588
26682000,0.0324,0.013523,0.002678,0.000431,0.000353
26683000,0.0324,0.013523,0.002678,0.000431,0.000588
26684000,0.0324,0.013523,0.002678,0.000431,0.000353
26685000,0.0324,0.013523,0.002678,0.000431,0.000588
26686000,0.0324,0.013523,0.002678,0.000431,0.000353
26687000,0.0324,0.013523,0.002678,0.000431,0.000588
26688000,0.0324,0.013523,0.002678,0.000431,0.000353
26689000,0.0324,0.013523,0.002678,0.000431,0.000470
26690000,0.0324,0.013523,0.002678,0.000431,0.000470
26691000,0.0324,0.013523,0.002678,0.000431,0.000588
26692000,0.0324,0.013523,0.002678,0.000431,0.000470
26693000,0.0324,0.013523,0.002678,0.000431,0.000588
26694000,0.0324,0.013523,0.002678,0.000431,0.000353
26695000,0.0324,0.013523,0.002678,0.000431,0.000588
26696000,0.0324,0.013523,0.002678,0.000431,0.000353
26697000,0.0324,0.013523,0.002678,0.000431,0.000588
26698000,0.0324,0.013523,0.002678,0.000431,0.000470
26699000,0.0324,0.013523,0.002678,0.000431,0.000470
26700000,0.0324,0.013523,0.002678,0.000431,0.000353
26701000,0.0324,0.013523,0.002678,0.000431,0.000588
26702000,0.0324,0.013523,0.002678,0.000431,0.000353
26703000,0.0324,0.013523,0.002678,0.000431,0.000470
26704000,0.0324,0.013523,0.002678,0.000431,0.000470
26705000,0.0324,0.013523,0.002678,0.000431,0.000353
26706000,0.0324,0.013523,0.002678,0.000431,0.000588
26707000,0.0324,0.013523,0.002678,0.000431,0.000353
26708000,0.0324,0.013523,0.002678,0.000431,0.000588
26709000,0.0324,0.013523,0.002678,0.000431,0.000353
26710000,0.0324,0.013523,0.002678,0.000431,0.000588
26711000,0.0324,0.013523,0.002678,0.000431,0.000353
26712000,0.0324,0.013523,0.002678,0.000431,0.000588
26713000,0.0324,0.013523,0.002678,0.000431,0.000353
26714000,0.0324,0.013523,0.002678,0.000431,0.000588
26715000,0.0324,0.013523,0.002678,0.000431,0.000353
26716000,0.0324,0.013523,0.002678,0.000431,0.000705
26717000,0.0324,0.013523,0.002678,0.000431,0.000588
26718000,0.0324,0.013523,0.002678,0.000431,0.000470
26719000,0.0324,0.013523,0.002678,0.000431,0.000588
26720000,0.0324,0.013523,0.002678,0.000431,0.000353
26721000,0.0324,0.013523,0.002678,0.000431,0.000470
26722000,0.0324,0.013523,0.002678,0.000431,0.000470
26723000,0.0324,0.013523,0.002678,0.000431,0.000470
26724000,0.0324,0.013523,0.002678,0.000431,0.000470
26725000,0.0324,0.013523,0.002678,0.000431,0.000353
26726000,0.0324,0.013523,0.002678,0.000431,0.000470
26727000,0.0324,0.013523,0.002678,0.000431,0.000470
26728000,0.0324,0.013523,0.002678,0.000431,0.000588
26729000,0.0324,0.013523,0.002678,0.000431,0.000353
26730000,0.0324,0.013523,0.002678,0.000431,0.000588
26731000,0.0324,0.013523,0.002678,0.000431,0.000353
26732000,0.0324,0.013523,0.002678,0.000431,0.000705
26733000,0.0324,0.013523,0.002678,0.000431,0.000588
26734000,0.0324,0.013523,0.002678,0.000431,0.000470
26735000,0.0324,0.013523,0.002678,0.000431,0.000705
26736000,0.0324,0.013523,0.002678,0.000431,0.000353
26737000,0.0324,0.013523,0.002678,0.000431,0.000588
26738000,0.0324,0.013523,0.002678,0.000431,0.000470
26739000,0.0324,0.013523,0.002678,0.000431,0.000588
26740000,0.0324,0.013523,0.002678,0.000431,0.000588
26741000,0.0324,0.013523,0.002678,0.000431,0.000470
26742000,0.0324,0.013523,0.002678,0.000431,0.000705
26743000,0.0324,0.013523,0.002678,0.000431,0.000353
26744000,0.0324,0.013523,0.002678,0.000431,0.000588
26745000,0.0324,0.013523,0.002678,0.000431,0.000353
26746000,0.0324,0.013523,0.002678,0.000431,0.000588
26747000,0.0324,0.013523,0.002678,0.000431,0.000353
26748000,0.0324,0.013523,0.002678,0.000431,0.000588
26749000,0.0324,0.013523,0.002678,0.000431,0.000353
26750000,0.0324,0.013523,0.002678,0.000431,0.000705
26751000,0.0324,0.013523,0.002678,0.000431,0.000353
26752000,0.0324,0.013523,0.002678,0.000431,0.000705
26753000,0.0324,0.013523,0.002678,0.000431,0.000353
26754000,0.0324,0.013523,0.002678,0.000431,0.000588
26755000,0.0324,0.013523,0.002678,0.000431,0.000470
26756000,0.0324,0.013523,0.002678,0.000431,0.000705
26757000,0.0324,0.013523,0.002678,0.000431,0.000353
26758000,0.0324,0.013523,0.002678,0.000431,0.000588
26759000,0.0324,0.013523,0.002678,0.000431,0.000353
26760000,0.0324,0.013523,0.002678,0.000431,0.000470
26761000,0.0324,0.013523,0.002678,0.000431,0.000470
26762000,0.0324,0.013523,0.002678,0.000431,0.000470
26763000,0.0324,0.013523,0.002678,0.000431,0.000470
26764000,0.0324,0.013523,0.002678,0.000431,0.000470
26765000,0.0324,0.013523,0.002678,0.000431,0.000470
26766000,0.0324,0.013523,0.002678,0.000431,0.000470
26767000,0.0324,0.013523,0.002678,0.000431,0.000470
26768000,0.0324,0.013523,0.002678,0.000431,0.000470
26769000,0.0324,0.013523,0.002678,0.000431,0.000470
26770000,0.0324,0.013523,0.002678,0.000431,0.000470
26771000,0.0324,0.013523,0.002678,0.000431,0.000470
26772000,0.0324,0.013523,0.002678,0.000431,0.000588
26773000,0.0324,0.013523,0.002678,0.000431,0.000353
26774000,0.0324,0.013523,0.002678,0.000431,0.000470
26775000,0.0324,0.013523,0.002678,0.000431,0.000470
26776000,0.0324,0.013523,0.002678,0.000431,0.000470
26777000,0.0324,0.013523,0.002678,0.000431,0.000470
26778000,0.0324,0.013523,0.002678,0.000431,0.000470
26779000,0.0324,0.013523,0.002678,0.000431,0.000353
26780000,0.0324,0.013523,0.002678,0.000431,0.000588
26781000,0.0324,0.013523,0.002678,0.000431,0.000353
26782000,0.0324,0.013523,0.002678,0.000431,0.000588
26783000,0.0324,0.013523,0.002678,0.000431,0.000353
26784000,0.0324,0.013523,0.002678,0.000431,0.000588
26785000,0.0324,0.013523,0.002678,0.000431,0.000353
26786000,0.0324,0.013523,0.002678,0.000431,0.000705
26787000,0.0324,0.013523,0.002678,0.000431,0.000353
26788000,0.0324,0.013523,0.002678,0.000431,0.000588
26789000,0.0324,0.013523,0.002678,0.000431,0.000470
26790000,0.0324,0.013523,0.002678,0.000431,0.000588
26791000,0.0324,0.013523,0.002678,0.000431,0.000353
26792000,0.0324,0.013523,0.002678,0.000431,0.000588
26793000,0.0324,0.013523,0.002678,0.000431,0.000353
26794000,0.0324,0.013523,0.002678,0.000431,0.000470
26795000,0.0324,0.013523,0.002678,0.000431,0.000470
26796000,0.0324,0.013523,0.002678,0.000431,0.000705
26797000,0.0324,0.013523,0.002678,0.000431,0.000353
26798000,0.0324,0.013523,0.002678,0.000431,0.000588
26799000,0.0324,0.013523,0.002678,0.000431,0.000353
26800000,0.0324,0.013523,0.002678,0.000431,0.000470
26801000,0.0324,0.013523,0.002678,0.000431,0.000470
26802000,0.0324,0.013523,0.002678,0.000431,0.000470
26803000,0.0324,0.013523,0.002678,0.000431,0.000470
26804000,0.0324,0.013523,0.002678,0.000431,0.000470
26805000,0.0324,0.013523,0.002678,0.000431,0.000353
26806000,0.0324,0.013523,0.002678,0.000431,0.000588
26807000,0.0324,0.013523,0.002678,0.000431,0.000353
26808000,0.0324,0.013523,0.002678,0.000431,0.000588
26809000,0.0324,0.013523,0.002678,0.000431,0.000470
26810000,0.0324,0.013523,0.002678,0.000431,0.000470
26811000,0.0324,0.013523,0.002678,0.000431,0.000470
26812000,0.0324,0.013523,0.002678,0.000431,0.000470
26813000,0.0324,0.013523,0.002678,0.000431,0.000470
26814000,0.0324,0.013523,0.002678,0.000431,0.000470
26815000,0.0324,0.013523,0.002678,0.000431,0.000470
26816000,0.0324,0.013523,0.002678,0.000431,0.000470
26817000,0.0324,0.013523,0.002678,0.000431,0.000588
26818000,0.0324,0.013523,0.002678,0.000431,0.000470
26819000,0.0324,0.013523,0.002678,0.000431,0.000588
26820000,0.0324,0.013523,0.002678,0.000431,0.000588
26821000,0.0324,0.013523,0.002678,0.000431,0.000470
26822000,0.0324,0.013523,0.002678,0.000431,0.000705
26823000,0.0324,0.013523,0.002678,0.000431,0.000353
26824000,0.0324,0.013523,0.002678,0.000431,0.000588
26825000,0.0324,0.013523,0.002678,0.000431,0.000353
26826000,0.0324,0.013523,0.002678,0.000431,0.000588
26827000,0.0324,0.013523,0.002678,0.000431,0.000353
26828000,0.0324,0.013523,0.002678,0.000431,0.000588
26829000,0.0324,0.013523,0.002678,0.000431,0.000353
26830000,0.0324,0.013523,0.002678,0.000431,0.000588
26831000,0.0324,0.013523,0.002678,0.000431,0.000353
26832000,0.0324,0.013523,0.002678,0.000431,0.000470
26833000,0.0324,0.013523,0.002678,0.000431,0.000470
26834000,0.0324,0.013523,0.002678,0.000431,0.000470
26835000,0.0324,0.013523,0.002678,0.000431,0.000470
26836000,0.0324,0.013523,0.002678,0.000431,0.000470
26837000,0.0324,0.013523,0.002678,0.000431,0.000470
26838000,0.0324,0.013523,0.002678,0.000431,0.000470
26839000,0.0324,0.013523,0.002678,0.000431,0.000470
26840000,0.0324,0.013523,0.002678,0.000431,0.000470
26841000,0.0324,0.013523,0.002678,0.000431,0.000470
26842000,0.0324,0.013523,0.002678,0.000431,0.000470
26843000,0.0324,0.013523,0.002678,0.000431,0.000470
26844000,0.0324,0.013523,0.002678,0.000431,0.000470
26845000,0.0324,0.013523,0.002678,0.000431,0.000353
26846000,0.0324,0.013523,0.002678,0.000431,0.000588
26847000,0.0324,0.013523,0.002678,0.000431,0.000470
26848000,0.0324,0.013523,0.002678,0.000431,0.000470
26849000,0.0324,0.013523,0.002678,0.000431,0.000470
26850000,0.0324,0.013523,0.002678,0.000431,0.000470
26851000,0.0324,0.013523,0.002678,0.000431,0.000470
26852000,0.0324,0.013523,0.002678,0.000431,0.000353
26853000,0.0324,0.013523,0.002678,0.000431,0.000588
26854000,0.0324,0.013523,0.002678,0.000431,0.000353
26855000,0.0324,0.013523,0.002678,0.000431,0.000588
26856000,0.0324,0.013523,0.002678,0.000431,0.000470
26857000,0.0324,0.013523,0.002678,0.000431,0.000470
26858000,0.0324,0.013523,0.002678,0.000431,0.000353
26859000,0.0324,0.013523,0.002678,0.000431,0.000588
26860000,0.0324,0.013523,0.002678,0.000431,0.000353
26861000,0.0324,0.013523,0.002678,0.000431,0.000588
26862000,0.0324,0.013523,0.002678,0.000431,0.000353
26863000,0.0324,0.013523,0.002678,0.000431,0.000588
26864000,0.0324,0.013523,0.002678,0.000431,0.000353
26865000,0.0324,0.013523,0.002678,0.000431,0.000588
26866000,0.0324,0.013523,0.002678,0.000431,0.000353
26867000,0.0324,0.013523,0.002678,0.000431,0.000588
26868000,0.0324,0.013523,0.002678,0.000431,0.000353
26869000,0.0324,0.013523,0.002678,0.000431,0.000470
26870000,0.0324,0.013523,0.002678,0.000431,0.000470
26871000,0.0324,0.013523,0.002678,0.000431,0.000353
26872000,0.0324,0.013523,0.002678,0.000431,0.000588
26873000,0.0324,0.013523,0.002678,0.000431,0.000353
26874000,0.0324,0.013523,0.002678,0.000431,0.000705
26875000,0.0324,0.013523,0.002678,0.000431,0.000588
26876000,0.0324,0.013523,0.002678,0.000431,0.000470
26877000,0.0324,0.013523,0.002678,0.000431,0.000470
26878000,0.0324,0.013523,0.002678,0.000431,0.000353
26879000,0.0324,0.013523,0.002678,0.000431,0.000588
26880000,0.0324,0.013523,0.002678,0.000431,0.000470
26881000,0.0324,0.013523,0.002678,0.000431,0.000470
26882000,0.0324,0.013523,0.002678,0.000431,0.000470
26883000,0.0324,0.013523,0.002678,0.000431,0.000353
26884000,0.0324,0.013523,0.002678,0.000431,0.000588
26885000,0.0324,0.013523,0.002678,0.000431,0.000353
26886000,0.0324,0.013523,0.002678,0.000431,0.000588
26887000,0.0324,0.013523,0.002678,0.000431,0.000353
26888000,0.0324,0.013523,0.002678,0.000431,0.000705
26889000,0.0324,0.013523,0.002678,0.000431,0.000470
26890000,0.0324,0.013523,0.002678,0.000431,0.000588
26891000,0.0324,0.013523,0.002678,0.000431,0.000353
26892000,0.0324,0.013523,0.002678,0.000431,0.000588
26893000,0.0324,0.013523,0.002678,0.000431,0.000353
26894000,0.0324,0.013523,0.002678,0.000431,0.000588
26895000,0.0324,0.013523,0.002678,0.000431,0.000353
26896000,0.0324,0.013523,0.002678,0.000431,0.000705
26897000,0.0324,0.013523,0.002678,0.000431,0.000353
26898000,0.0324,0.013523,0.002678,0.000431,0.000588
26899000,0.0324,0.013523,0.002678,0.000431,0.000235
26900000,0.0324,0.013523,0.002678,0.000431,0.000588
26901000,0.0324,0.013523,0.002678,0.000431,0.000353
26902000,0.0324,0.013523,0.002678,0.000431,0.000588
26903000,0.0324,0.013523,0.002678,0.000431,0.000353
26904000,0.0324,0.013523,0.002678,0.000431,0.000588
26905000,0.0324,0.013523,0.002678,0.000431,0.000353
26906000,0.0324,0.013523,0.002678,0.000431,0.000588
26907000,0.0324,0.013523,0.002678,0.000431,0.000353
26908000,0.0324,0.013523,0.002678,0.000431,0.000470
26909000,0.0324,0.013523,0.002678,0.000431,0.000470
26910000,0.0324,0.013523,0.002678,0.000431,0.000588
26911000,0.0324,0.013523,0.002678,0.000431,0.000470
26912000,0.0324,0.013523,0.002678,0.000431,0.000705
26913000,0.0324,0.013523,0.002678,0.000431,0.000353
26914000,0.0324,0.013523,0.002678,0.000431,0.000588
26915000,0.0324,0.013523,0.002678,0.000431,0.000353
26916000,0.0324,0.013523,0.002678,0.000431,0.000588
26917000,0.0324,0.013523,0.002678,0.000431,0.000353
26918000,0.0324,0.013523,0.002678,0.000431,0.000588
26919000,0.0324,0.013523,0.002678,0.000431,0.000353
26920000,0.0324,0.013523,0.002678,0.000431,0.000588
26921000,0.0324,0.013523,0.002678,0.000431,0.000353
26922000,0.0324,0.013523,0.002678,0.000431,0.000588
26923000,0.0324,0.013523,0.002678,0.000431,0.000353
26924000,0.0324,0.013523,0.002678,0.000431,0.000588
26925000,0.0324,0.013523,0.002678,0.000431,0.000353
26926000,0.0324,0.013523,0.002678,0.000431,0.000588
26927000,0.0324,0.013523,0.002678,0.000431,0.000353
26928000,0.0324,0.013523,0.002678,0.000431,0.000470
26929000,0.0324,0.013523,0.002678,0.000431,0.000470
26930000,0.0324,0.013523,0.002678,0.000431,0.000470
26931000,0.0324,0.013523,0.002678,0.000431,0.000353
26932000,0.0324,0.013523,0.002678,0.000431,0.000588
26933000,0.0324,0.013523,0.002678,0.000431,0.000353
26934000,0.0324,0.013523,0.002678,0.000431,0.000588
26935000,0.0324,0.013523,0.002678,0.000431,0.000353
26936000,0.0324,0.013523,0.002678,0.000431,0.000588
26937000,0.0324,0.013523,0.002678,0.000431,0.000353
26938000,0.0324,0.013523,0.002678,0.000431,0.000588
26939000,0.0324,0.013523,0.002678,0.000431,0.000353
26940000,0.0324,0.013523,0.002678,0.000431,0.000588
26941000,0.0324,0.013523,0.002678,0.000431,0.000353
26942000,0.0324,0.013523,0.002678,0.000431,0.000588
26943000,0.0324,0.013523,0.002678,0.000431,0.000353
26944000,0.0324,0.013523,0.002678,0.000431,0.000588
26945000,0.0324,0.013523,0.002678,0.000431,0.000353
26946000,0.0324,0.013523,0.002678,0.000431,0.000588
26947000,0.0324,0.013523,0.002678,0.000431,0.000353
26948000,0.0324,0.013523,0.002678,0.000431,0.000588
26949000,0.0324,0.013523,0.002678,0.000431,0.000353
26950000,0.0324,0.013523,0.002678,0.000431,0.000588
26951000,0.0324,0.013523,0.002678,0.000431,0.000470
26952000,0.0324,0.013523,0.002678,0.000431,0.000588
26953000,0.0324,0.013523,0.002678,0.000431,0.000588
26954000,0.0324,0.013523,0.002678,0.000431,0.000470
26955000,0.0324,0.013523,0.002678,0.000431,0.000470
26956000,0.0324,0.013523,0.002678,0.000431,0.000470
26957000,0.0324,0.013523,0.002678,0.000431,0.000470
26958000,0.0324,0.013523,0.002678,0.000431,0.000470
26959000,0.0324,0.013523,0.002678,0.000431,0.000353
26960000,0.0324,0.013523,0.002678,0.000431,0.000588
26961000,0.0324,0.013523,0.002678,0.000431,0.000470
26962000,0.0324,0.013523,0.002678,0.000431,0.000470
26963000,0.0324,0.013523,0.002678,0.000431,0.000470
26964000,0.0324,0.013523,0.002678,0.000431,0.000588
26965000,0.0324,0.013523,0.002678,0.000431,0.000470
26966000,0.0324,0.013523,0.002678,0.000431,0.000705
26967000,0.0324,0.013523,0.002678,0.000431,0.000235
26968000,0.0324,0.013523,0.002678,0.000431,0.000705
26969000,0.0324,0.013523,0.002678,0.000431,0.000353
26970000,0.0324,0.013523,0.002678,0.000431,0.000705
26971000,0.0324,0.013523,0.002678,0.000431,0.000470
26972000,0.0324,0.013523,0.002678,0.000431,0.000470
26973000,0.0324,0.013523,0.002678,0.000431,0.000588
26974000,0.0324,0.013523,0.002678,0.000431,0.000470
26975000,0.0324,0.013523,0.002678,0.000431,0.000705
26976000,0.0324,0.013523,0.002678,0.000431,0.000353
26977000,0.0324,0.013523,0.002678,0.000431,0.000588
26978000,0.0324,0.013523,0.002678,0.000431,0.000470
26979000,0.0324,0.013523,0.002678,0.000431,0.000588
26980000,0.0324,0.013523,0.002678,0.000431,0.000470
26981000,0.0324,0.013523,0.002678,0.000431,0.000470
26982000,0.0324,0.013523,0.002678,0.000431,0.000470
26983000,0.0324,0.013523,0.002678,0.000431,0.000470
26984000,0.0324,0.013523,0.002678,0.000431,0.000470
26985000,0.0324,0.013523,0.002678,0.000431,0.000588
26986000,0.0324,0.013523,0.002678,0.000431,0.000353
26987000,0.0324,0.013523,0.002678,0.000431,0.000470
26988000,0.0324,0.013523,0.002678,0.000431,0.000470
26989000,0.0324,0.013523,0.002678,0.000431,0.000588
26990000,0.0324,0.013523,0.002678,0.000431,0.000588
26991000,0.0324,0.013523,0.002678,0.000431,0.000470
26992000,0.0324,0.013523,0.002678,0.000431,0.000588
26993000,0.0324,0.013523,0.002678,0.000431,0.000470
26994000,0.0324,0.013523,0.002678,0.000431,0.000470
26995000,0.0324,0.013523,0.002678,0.000431,0.000470
26996000,0.0324,0.013523,0.002678,0.000431,0.000470
26997000,0.0324,0.013523,0.002678,0.000431,0.000470
26998000,0.0324,0.013523,0.002678,0.000431,0.000353
26999000,0.0324,0.013523,0.002678,0.000431,0.000823
