Cycle,Area(mm^2),PeakDynamic(W),SubthresholdLeakage(W),GateLeakage(W),RunTimeDynamic(W)
19000000,0.0324,0.013523,0.002678,0.000431,0.000353
19001000,0.0324,0.013523,0.002678,0.000431,0.000588
19002000,0.0324,0.013523,0.002678,0.000431,0.000353
19003000,0.0324,0.013523,0.002678,0.000431,0.000705
19004000,0.0324,0.013523,0.002678,0.000431,0.000353
19005000,0.0324,0.013523,0.002678,0.000431,0.000588
19006000,0.0324,0.013523,0.002678,0.000431,0.000353
19007000,0.0324,0.013523,0.002678,0.000431,0.000705
19008000,0.0324,0.013523,0.002678,0.000431,0.000353
19009000,0.0324,0.013523,0.002678,0.000431,0.000588
19010000,0.0324,0.013523,0.002678,0.000431,0.000588
19011000,0.0324,0.013523,0.002678,0.000431,0.000470
19012000,0.0324,0.013523,0.002678,0.000431,0.000353
19013000,0.0324,0.013523,0.002678,0.000431,0.000588
19014000,0.0324,0.013523,0.002678,0.000431,0.000353
19015000,0.0324,0.013523,0.002678,0.000431,0.000470
19016000,0.0324,0.013523,0.002678,0.000431,0.000353
19017000,0.0324,0.013523,0.002678,0.000431,0.000588
19018000,0.0324,0.013523,0.002678,0.000431,0.000353
19019000,0.0324,0.013523,0.002678,0.000431,0.000588
19020000,0.0324,0.013523,0.002678,0.000431,0.000470
19021000,0.0324,0.013523,0.002678,0.000431,0.000588
19022000,0.0324,0.013523,0.002678,0.000431,0.000353
19023000,0.0324,0.013523,0.002678,0.000431,0.000588
19024000,0.0324,0.013523,0.002678,0.000431,0.000235
19025000,0.0324,0.013523,0.002678,0.000431,0.000588
19026000,0.0324,0.013523,0.002678,0.000431,0.000353
19027000,0.0324,0.013523,0.002678,0.000431,0.000588
19028000,0.0324,0.013523,0.002678,0.000431,0.000353
19029000,0.0324,0.013523,0.002678,0.000431,0.000588
19030000,0.0324,0.013523,0.002678,0.000431,0.000353
19031000,0.0324,0.013523,0.002678,0.000431,0.000588
19032000,0.0324,0.013523,0.002678,0.000431,0.000353
19033000,0.0324,0.013523,0.002678,0.000431,0.000588
19034000,0.0324,0.013523,0.002678,0.000431,0.000353
19035000,0.0324,0.013523,0.002678,0.000431,0.000588
19036000,0.0324,0.013523,0.002678,0.000431,0.000353
19037000,0.0324,0.013523,0.002678,0.000431,0.000588
19038000,0.0324,0.013523,0.002678,0.000431,0.000353
19039000,0.0324,0.013523,0.002678,0.000431,0.000823
19040000,0.0324,0.013523,0.002678,0.000431,0.000235
19041000,0.0324,0.013523,0.002678,0.000431,0.000705
19042000,0.0324,0.013523,0.002678,0.000431,0.000470
19043000,0.0324,0.013523,0.002678,0.000431,0.000588
19044000,0.0324,0.013523,0.002678,0.000431,0.000353
19045000,0.0324,0.013523,0.002678,0.000431,0.000705
19046000,0.0324,0.013523,0.002678,0.000431,0.000353
19047000,0.0324,0.013523,0.002678,0.000431,0.000705
19048000,0.0324,0.013523,0.002678,0.000431,0.000470
19049000,0.0324,0.013523,0.002678,0.000431,0.000470
19050000,0.0324,0.013523,0.002678,0.000431,0.000470
19051000,0.0324,0.013523,0.002678,0.000431,0.000470
19052000,0.0324,0.013523,0.002678,0.000431,0.000588
19053000,0.0324,0.013523,0.002678,0.000431,0.000588
19054000,0.0324,0.013523,0.002678,0.000431,0.000353
19055000,0.0324,0.013523,0.002678,0.000431,0.000588
19056000,0.0324,0.013523,0.002678,0.000431,0.000353
19057000,0.0324,0.013523,0.002678,0.000431,0.000588
19058000,0.0324,0.013523,0.002678,0.000431,0.000353
19059000,0.0324,0.013523,0.002678,0.000431,0.000588
19060000,0.0324,0.013523,0.002678,0.000431,0.000353
19061000,0.0324,0.013523,0.002678,0.000431,0.000588
19062000,0.0324,0.013523,0.002678,0.000431,0.000353
19063000,0.0324,0.013523,0.002678,0.000431,0.000588
19064000,0.0324,0.013523,0.002678,0.000431,0.000353
19065000,0.0324,0.013523,0.002678,0.000431,0.000588
19066000,0.0324,0.013523,0.002678,0.000431,0.000353
19067000,0.0324,0.013523,0.002678,0.000431,0.000470
19068000,0.0324,0.013523,0.002678,0.000431,0.000470
19069000,0.0324,0.013523,0.002678,0.000431,0.000588
19070000,0.0324,0.013523,0.002678,0.000431,0.000470
19071000,0.0324,0.013523,0.002678,0.000431,0.000353
19072000,0.0324,0.013523,0.002678,0.000431,0.000588
19073000,0.0324,0.013523,0.002678,0.000431,0.000353
19074000,0.0324,0.013523,0.002678,0.000431,0.000588
19075000,0.0324,0.013523,0.002678,0.000431,0.000353
19076000,0.0324,0.013523,0.002678,0.000431,0.000588
19077000,0.0324,0.013523,0.002678,0.000431,0.000353
19078000,0.0324,0.013523,0.002678,0.000431,0.000588
19079000,0.0324,0.013523,0.002678,0.000431,0.000353
19080000,0.0324,0.013523,0.002678,0.000431,0.000588
19081000,0.0324,0.013523,0.002678,0.000431,0.000353
19082000,0.0324,0.013523,0.002678,0.000431,0.000470
19083000,0.0324,0.013523,0.002678,0.000431,0.000353
19084000,0.0324,0.013523,0.002678,0.000431,0.000588
19085000,0.0324,0.013523,0.002678,0.000431,0.000353
19086000,0.0324,0.013523,0.002678,0.000431,0.000588
19087000,0.0324,0.013523,0.002678,0.000431,0.000353
19088000,0.0324,0.013523,0.002678,0.000431,0.000588
19089000,0.0324,0.013523,0.002678,0.000431,0.000353
19090000,0.0324,0.013523,0.002678,0.000431,0.000588
19091000,0.0324,0.013523,0.002678,0.000431,0.000353
19092000,0.0324,0.013523,0.002678,0.000431,0.000588
19093000,0.0324,0.013523,0.002678,0.000431,0.000353
19094000,0.0324,0.013523,0.002678,0.000431,0.000588
19095000,0.0324,0.013523,0.002678,0.000431,0.000353
19096000,0.0324,0.013523,0.002678,0.000431,0.000588
19097000,0.0324,0.013523,0.002678,0.000431,0.000470
19098000,0.0324,0.013523,0.002678,0.000431,0.000470
19099000,0.0324,0.013523,0.002678,0.000431,0.000470
19100000,0.0324,0.013523,0.002678,0.000431,0.000470
19101000,0.0324,0.013523,0.002678,0.000431,0.000470
19102000,0.0324,0.013523,0.002678,0.000431,0.000470
19103000,0.0324,0.013523,0.002678,0.000431,0.000470
19104000,0.0324,0.013523,0.002678,0.000431,0.000353
19105000,0.0324,0.013523,0.002678,0.000431,0.000588
19106000,0.0324,0.013523,0.002678,0.000431,0.000353
19107000,0.0324,0.013523,0.002678,0.000431,0.000588
19108000,0.0324,0.013523,0.002678,0.000431,0.000353
19109000,0.0324,0.013523,0.002678,0.000431,0.000588
19110000,0.0324,0.013523,0.002678,0.000431,0.000353
19111000,0.0324,0.013523,0.002678,0.000431,0.000588
19112000,0.0324,0.013523,0.002678,0.000431,0.000353
19113000,0.0324,0.013523,0.002678,0.000431,0.000588
19114000,0.0324,0.013523,0.002678,0.000431,0.000353
19115000,0.0324,0.013523,0.002678,0.000431,0.000588
19116000,0.0324,0.013523,0.002678,0.000431,0.000353
19117000,0.0324,0.013523,0.002678,0.000431,0.000588
19118000,0.0324,0.013523,0.002678,0.000431,0.000470
19119000,0.0324,0.013523,0.002678,0.000431,0.000705
19120000,0.0324,0.013523,0.002678,0.000431,0.000353
19121000,0.0324,0.013523,0.002678,0.000431,0.000588
19122000,0.0324,0.013523,0.002678,0.000431,0.000705
19123000,0.0324,0.013523,0.002678,0.000431,0.000470
19124000,0.0324,0.013523,0.002678,0.000431,0.000470
19125000,0.0324,0.013523,0.002678,0.000431,0.000470
19126000,0.0324,0.013523,0.002678,0.000431,0.000470
19127000,0.0324,0.013523,0.002678,0.000431,0.000470
19128000,0.0324,0.013523,0.002678,0.000431,0.000470
19129000,0.0324,0.013523,0.002678,0.000431,0.000470
19130000,0.0324,0.013523,0.002678,0.000431,0.000353
19131000,0.0324,0.013523,0.002678,0.000431,0.000588
19132000,0.0324,0.013523,0.002678,0.000431,0.000353
19133000,0.0324,0.013523,0.002678,0.000431,0.000588
19134000,0.0324,0.013523,0.002678,0.000431,0.000353
19135000,0.0324,0.013523,0.002678,0.000431,0.000588
19136000,0.0324,0.013523,0.002678,0.000431,0.000353
19137000,0.0324,0.013523,0.002678,0.000431,0.000588
19138000,0.0324,0.013523,0.002678,0.000431,0.000353
19139000,0.0324,0.013523,0.002678,0.000431,0.000588
19140000,0.0324,0.013523,0.002678,0.000431,0.000353
19141000,0.0324,0.013523,0.002678,0.000431,0.000470
19142000,0.0324,0.013523,0.002678,0.000431,0.000470
19143000,0.0324,0.013523,0.002678,0.000431,0.000470
19144000,0.0324,0.013523,0.002678,0.000431,0.000470
19145000,0.0324,0.013523,0.002678,0.000431,0.000588
19146000,0.0324,0.013523,0.002678,0.000431,0.000353
19147000,0.0324,0.013523,0.002678,0.000431,0.000705
19148000,0.0324,0.013523,0.002678,0.000431,0.000470
19149000,0.0324,0.013523,0.002678,0.000431,0.000470
19150000,0.0324,0.013523,0.002678,0.000431,0.000470
19151000,0.0324,0.013523,0.002678,0.000431,0.000470
19152000,0.0324,0.013523,0.002678,0.000431,0.000470
19153000,0.0324,0.013523,0.002678,0.000431,0.000470
19154000,0.0324,0.013523,0.002678,0.000431,0.000470
19155000,0.0324,0.013523,0.002678,0.000431,0.000705
19156000,0.0324,0.013523,0.002678,0.000431,0.000353
19157000,0.0324,0.013523,0.002678,0.000431,0.000588
19158000,0.0324,0.013523,0.002678,0.000431,0.000353
19159000,0.0324,0.013523,0.002678,0.000431,0.000588
19160000,0.0324,0.013523,0.002678,0.000431,0.000470
19161000,0.0324,0.013523,0.002678,0.000431,0.000588
19162000,0.0324,0.013523,0.002678,0.000431,0.000588
19163000,0.0324,0.013523,0.002678,0.000431,0.000470
19164000,0.0324,0.013523,0.002678,0.000431,0.000470
19165000,0.0324,0.013523,0.002678,0.000431,0.000470
19166000,0.0324,0.013523,0.002678,0.000431,0.000470
19167000,0.0324,0.013523,0.002678,0.000431,0.000588
19168000,0.0324,0.013523,0.002678,0.000431,0.000470
19169000,0.0324,0.013523,0.002678,0.000431,0.000705
19170000,0.0324,0.013523,0.002678,0.000431,0.000353
19171000,0.0324,0.013523,0.002678,0.000431,0.000588
19172000,0.0324,0.013523,0.002678,0.000431,0.000353
19173000,0.0324,0.013523,0.002678,0.000431,0.000588
19174000,0.0324,0.013523,0.002678,0.000431,0.000353
19175000,0.0324,0.013523,0.002678,0.000431,0.000588
19176000,0.0324,0.013523,0.002678,0.000431,0.000353
19177000,0.0324,0.013523,0.002678,0.000431,0.000588
19178000,0.0324,0.013523,0.002678,0.000431,0.000353
19179000,0.0324,0.013523,0.002678,0.000431,0.000588
19180000,0.0324,0.013523,0.002678,0.000431,0.000353
19181000,0.0324,0.013523,0.002678,0.000431,0.000588
19182000,0.0324,0.013523,0.002678,0.000431,0.000470
19183000,0.0324,0.013523,0.002678,0.000431,0.000470
19184000,0.0324,0.013523,0.002678,0.000431,0.000470
19185000,0.0324,0.013523,0.002678,0.000431,0.000588
19186000,0.0324,0.013523,0.002678,0.000431,0.000470
19187000,0.0324,0.013523,0.002678,0.000431,0.000588
19188000,0.0324,0.013523,0.002678,0.000431,0.000470
19189000,0.0324,0.013523,0.002678,0.000431,0.000705
19190000,0.0324,0.013523,0.002678,0.000431,0.000353
19191000,0.0324,0.013523,0.002678,0.000431,0.000705
19192000,0.0324,0.013523,0.002678,0.000431,0.000588
19193000,0.0324,0.013523,0.002678,0.000431,0.000470
19194000,0.0324,0.013523,0.002678,0.000431,0.000705
19195000,0.0324,0.013523,0.002678,0.000431,0.000353
19196000,0.0324,0.013523,0.002678,0.000431,0.000588
19197000,0.0324,0.013523,0.002678,0.000431,0.000470
19198000,0.0324,0.013523,0.002678,0.000431,0.000588
19199000,0.0324,0.013523,0.002678,0.000431,0.000588
19200000,0.0324,0.013523,0.002678,0.000431,0.000470
19201000,0.0324,0.013523,0.002678,0.000431,0.000588
19202000,0.0324,0.013523,0.002678,0.000431,0.000353
19203000,0.0324,0.013523,0.002678,0.000431,0.000588
19204000,0.0324,0.013523,0.002678,0.000431,0.000353
19205000,0.0324,0.013523,0.002678,0.000431,0.000588
19206000,0.0324,0.013523,0.002678,0.000431,0.000353
19207000,0.0324,0.013523,0.002678,0.000431,0.000588
19208000,0.0324,0.013523,0.002678,0.000431,0.000353
19209000,0.0324,0.013523,0.002678,0.000431,0.000588
19210000,0.0324,0.013523,0.002678,0.000431,0.000353
19211000,0.0324,0.013523,0.002678,0.000431,0.000588
19212000,0.0324,0.013523,0.002678,0.000431,0.000470
19213000,0.0324,0.013523,0.002678,0.000431,0.000470
19214000,0.0324,0.013523,0.002678,0.000431,0.000470
19215000,0.0324,0.013523,0.002678,0.000431,0.000588
19216000,0.0324,0.013523,0.002678,0.000431,0.000470
19217000,0.0324,0.013523,0.002678,0.000431,0.000588
19218000,0.0324,0.013523,0.002678,0.000431,0.000353
19219000,0.0324,0.013523,0.002678,0.000431,0.000588
19220000,0.0324,0.013523,0.002678,0.000431,0.000353
19221000,0.0324,0.013523,0.002678,0.000431,0.000470
19222000,0.0324,0.013523,0.002678,0.000431,0.000470
19223000,0.0324,0.013523,0.002678,0.000431,0.000470
19224000,0.0324,0.013523,0.002678,0.000431,0.000353
19225000,0.0324,0.013523,0.002678,0.000431,0.000588
19226000,0.0324,0.013523,0.002678,0.000431,0.000470
19227000,0.0324,0.013523,0.002678,0.000431,0.000705
19228000,0.0324,0.013523,0.002678,0.000431,0.000353
19229000,0.0324,0.013523,0.002678,0.000431,0.000705
19230000,0.0324,0.013523,0.002678,0.000431,0.000470
19231000,0.0324,0.013523,0.002678,0.000431,0.000470
19232000,0.0324,0.013523,0.002678,0.000431,0.000470
19233000,0.0324,0.013523,0.002678,0.000431,0.000588
19234000,0.0324,0.013523,0.002678,0.000431,0.000353
19235000,0.0324,0.013523,0.002678,0.000431,0.000588
19236000,0.0324,0.013523,0.002678,0.000431,0.000353
19237000,0.0324,0.013523,0.002678,0.000431,0.000705
19238000,0.0324,0.013523,0.002678,0.000431,0.000588
19239000,0.0324,0.013523,0.002678,0.000431,0.000470
19240000,0.0324,0.013523,0.002678,0.000431,0.000705
19241000,0.0324,0.013523,0.002678,0.000431,0.000235
19242000,0.0324,0.013523,0.002678,0.000431,0.000705
19243000,0.0324,0.013523,0.002678,0.000431,0.000353
19244000,0.0324,0.013523,0.002678,0.000431,0.000588
19245000,0.0324,0.013523,0.002678,0.000431,0.000353
19246000,0.0324,0.013523,0.002678,0.000431,0.000588
19247000,0.0324,0.013523,0.002678,0.000431,0.000353
19248000,0.0324,0.013523,0.002678,0.000431,0.000588
19249000,0.0324,0.013523,0.002678,0.000431,0.000353
19250000,0.0324,0.013523,0.002678,0.000431,0.000588
19251000,0.0324,0.013523,0.002678,0.000431,0.000353
19252000,0.0324,0.013523,0.002678,0.000431,0.000588
19253000,0.0324,0.013523,0.002678,0.000431,0.000353
19254000,0.0324,0.013523,0.002678,0.000431,0.000588
19255000,0.0324,0.013523,0.002678,0.000431,0.000353
19256000,0.0324,0.013523,0.002678,0.000431,0.000588
19257000,0.0324,0.013523,0.002678,0.000431,0.000470
19258000,0.0324,0.013523,0.002678,0.000431,0.000588
19259000,0.0324,0.013523,0.002678,0.000431,0.000353
19260000,0.0324,0.013523,0.002678,0.000431,0.000705
19261000,0.0324,0.013523,0.002678,0.000431,0.000353
19262000,0.0324,0.013523,0.002678,0.000431,0.000588
19263000,0.0324,0.013523,0.002678,0.000431,0.000470
19264000,0.0324,0.013523,0.002678,0.000431,0.000588
19265000,0.0324,0.013523,0.002678,0.000431,0.000588
19266000,0.0324,0.013523,0.002678,0.000431,0.000470
19267000,0.0324,0.013523,0.002678,0.000431,0.000588
19268000,0.0324,0.013523,0.002678,0.000431,0.000470
19269000,0.0324,0.013523,0.002678,0.000431,0.000470
19270000,0.0324,0.013523,0.002678,0.000431,0.000353
19271000,0.0324,0.013523,0.002678,0.000431,0.000588
19272000,0.0324,0.013523,0.002678,0.000431,0.000470
19273000,0.0324,0.013523,0.002678,0.000431,0.000470
19274000,0.0324,0.013523,0.002678,0.000431,0.000470
19275000,0.0324,0.013523,0.002678,0.000431,0.000470
19276000,0.0324,0.013523,0.002678,0.000431,0.000353
19277000,0.0324,0.013523,0.002678,0.000431,0.000705
19278000,0.0324,0.013523,0.002678,0.000431,0.000470
19279000,0.0324,0.013523,0.002678,0.000431,0.000588
19280000,0.0324,0.013523,0.002678,0.000431,0.000353
19281000,0.0324,0.013523,0.002678,0.000431,0.000588
19282000,0.0324,0.013523,0.002678,0.000431,0.000470
19283000,0.0324,0.013523,0.002678,0.000431,0.000470
19284000,0.0324,0.013523,0.002678,0.000431,0.000470
19285000,0.0324,0.013523,0.002678,0.000431,0.000470
19286000,0.0324,0.013523,0.002678,0.000431,0.000470
19287000,0.0324,0.013523,0.002678,0.000431,0.000470
19288000,0.0324,0.013523,0.002678,0.000431,0.000470
19289000,0.0324,0.013523,0.002678,0.000431,0.000353
19290000,0.0324,0.013523,0.002678,0.000431,0.000588
19291000,0.0324,0.013523,0.002678,0.000431,0.000353
19292000,0.0324,0.013523,0.002678,0.000431,0.000588
19293000,0.0324,0.013523,0.002678,0.000431,0.000353
19294000,0.0324,0.013523,0.002678,0.000431,0.000588
19295000,0.0324,0.013523,0.002678,0.000431,0.000353
19296000,0.0324,0.013523,0.002678,0.000431,0.000705
19297000,0.0324,0.013523,0.002678,0.000431,0.000353
19298000,0.0324,0.013523,0.002678,0.000431,0.000705
19299000,0.0324,0.013523,0.002678,0.000431,0.000470
19300000,0.0324,0.013523,0.002678,0.000431,0.000470
19301000,0.0324,0.013523,0.002678,0.000431,0.000470
19302000,0.0324,0.013523,0.002678,0.000431,0.000470
19303000,0.0324,0.013523,0.002678,0.000431,0.000470
19304000,0.0324,0.013523,0.002678,0.000431,0.000470
19305000,0.0324,0.013523,0.002678,0.000431,0.000470
19306000,0.0324,0.013523,0.002678,0.000431,0.000470
19307000,0.0324,0.013523,0.002678,0.000431,0.000470
19308000,0.0324,0.013523,0.002678,0.000431,0.000470
19309000,0.0324,0.013523,0.002678,0.000431,0.000470
19310000,0.0324,0.013523,0.002678,0.000431,0.000470
19311000,0.0324,0.013523,0.002678,0.000431,0.000470
19312000,0.0324,0.013523,0.002678,0.000431,0.000470
19313000,0.0324,0.013523,0.002678,0.000431,0.000470
19314000,0.0324,0.013523,0.002678,0.000431,0.000470
19315000,0.0324,0.013523,0.002678,0.000431,0.000353
19316000,0.0324,0.013523,0.002678,0.000431,0.000588
19317000,0.0324,0.013523,0.002678,0.000431,0.000353
19318000,0.0324,0.013523,0.002678,0.000431,0.000588
19319000,0.0324,0.013523,0.002678,0.000431,0.000353
19320000,0.0324,0.013523,0.002678,0.000431,0.000705
19321000,0.0324,0.013523,0.002678,0.000431,0.000353
19322000,0.0324,0.013523,0.002678,0.000431,0.000588
19323000,0.0324,0.013523,0.002678,0.000431,0.000353
19324000,0.0324,0.013523,0.002678,0.000431,0.000588
19325000,0.0324,0.013523,0.002678,0.000431,0.000353
19326000,0.0324,0.013523,0.002678,0.000431,0.000588
19327000,0.0324,0.013523,0.002678,0.000431,0.000353
19328000,0.0324,0.013523,0.002678,0.000431,0.000705
19329000,0.0324,0.013523,0.002678,0.000431,0.000588
19330000,0.0324,0.013523,0.002678,0.000431,0.000470
19331000,0.0324,0.013523,0.002678,0.000431,0.000588
19332000,0.0324,0.013523,0.002678,0.000431,0.000353
19333000,0.0324,0.013523,0.002678,0.000431,0.000588
19334000,0.0324,0.013523,0.002678,0.000431,0.000353
19335000,0.0324,0.013523,0.002678,0.000431,0.000588
19336000,0.0324,0.013523,0.002678,0.000431,0.000353
19337000,0.0324,0.013523,0.002678,0.000431,0.000470
19338000,0.0324,0.013523,0.002678,0.000431,0.000470
19339000,0.0324,0.013523,0.002678,0.000431,0.000470
19340000,0.0324,0.013523,0.002678,0.000431,0.000470
19341000,0.0324,0.013523,0.002678,0.000431,0.000353
19342000,0.0324,0.013523,0.002678,0.000431,0.000588
19343000,0.0324,0.013523,0.002678,0.000431,0.000353
19344000,0.0324,0.013523,0.002678,0.000431,0.000588
19345000,0.0324,0.013523,0.002678,0.000431,0.000353
19346000,0.0324,0.013523,0.002678,0.000431,0.000588
19347000,0.0324,0.013523,0.002678,0.000431,0.000353
19348000,0.0324,0.013523,0.002678,0.000431,0.000588
19349000,0.0324,0.013523,0.002678,0.000431,0.000353
19350000,0.0324,0.013523,0.002678,0.000431,0.000705
19351000,0.0324,0.013523,0.002678,0.000431,0.000470
19352000,0.0324,0.013523,0.002678,0.000431,0.000470
19353000,0.0324,0.013523,0.002678,0.000431,0.000588
19354000,0.0324,0.013523,0.002678,0.000431,0.000470
19355000,0.0324,0.013523,0.002678,0.000431,0.000705
19356000,0.0324,0.013523,0.002678,0.000431,0.000353
19357000,0.0324,0.013523,0.002678,0.000431,0.000588
19358000,0.0324,0.013523,0.002678,0.000431,0.000353
19359000,0.0324,0.013523,0.002678,0.000431,0.000588
19360000,0.0324,0.013523,0.002678,0.000431,0.000353
19361000,0.0324,0.013523,0.002678,0.000431,0.000588
19362000,0.0324,0.013523,0.002678,0.000431,0.000353
19363000,0.0324,0.013523,0.002678,0.000431,0.000470
19364000,0.0324,0.013523,0.002678,0.000431,0.000470
19365000,0.0324,0.013523,0.002678,0.000431,0.000470
19366000,0.0324,0.013523,0.002678,0.000431,0.000470
19367000,0.0324,0.013523,0.002678,0.000431,0.000470
19368000,0.0324,0.013523,0.002678,0.000431,0.000470
19369000,0.0324,0.013523,0.002678,0.000431,0.000470
19370000,0.0324,0.013523,0.002678,0.000431,0.000470
19371000,0.0324,0.013523,0.002678,0.000431,0.000470
19372000,0.0324,0.013523,0.002678,0.000431,0.000470
19373000,0.0324,0.013523,0.002678,0.000431,0.000588
19374000,0.0324,0.013523,0.002678,0.000431,0.000470
19375000,0.0324,0.013523,0.002678,0.000431,0.000588
19376000,0.0324,0.013523,0.002678,0.000431,0.000353
19377000,0.0324,0.013523,0.002678,0.000431,0.000588
19378000,0.0324,0.013523,0.002678,0.000431,0.000470
19379000,0.0324,0.013523,0.002678,0.000431,0.000470
19380000,0.0324,0.013523,0.002678,0.000431,0.000353
19381000,0.0324,0.013523,0.002678,0.000431,0.000470
19382000,0.0324,0.013523,0.002678,0.000431,0.000470
19383000,0.0324,0.013523,0.002678,0.000431,0.000470
19384000,0.0324,0.013523,0.002678,0.000431,0.000470
19385000,0.0324,0.013523,0.002678,0.000431,0.000353
19386000,0.0324,0.013523,0.002678,0.000431,0.000705
19387000,0.0324,0.013523,0.002678,0.000431,0.000588
19388000,0.0324,0.013523,0.002678,0.000431,0.000470
19389000,0.0324,0.013523,0.002678,0.000431,0.000705
19390000,0.0324,0.013523,0.002678,0.000431,0.000353
19391000,0.0324,0.013523,0.002678,0.000431,0.000705
19392000,0.0324,0.013523,0.002678,0.000431,0.000588
19393000,0.0324,0.013523,0.002678,0.000431,0.000470
19394000,0.0324,0.013523,0.002678,0.000431,0.000470
19395000,0.0324,0.013523,0.002678,0.000431,0.000470
19396000,0.0324,0.013523,0.002678,0.000431,0.000470
19397000,0.0324,0.013523,0.002678,0.000431,0.000470
19398000,0.0324,0.013523,0.002678,0.000431,0.000353
19399000,0.0324,0.013523,0.002678,0.000431,0.000588
19400000,0.0324,0.013523,0.002678,0.000431,0.000353
19401000,0.0324,0.013523,0.002678,0.000431,0.000588
19402000,0.0324,0.013523,0.002678,0.000431,0.000353
19403000,0.0324,0.013523,0.002678,0.000431,0.000705
19404000,0.0324,0.013523,0.002678,0.000431,0.000470
19405000,0.0324,0.013523,0.002678,0.000431,0.000470
19406000,0.0324,0.013523,0.002678,0.000431,0.000470
19407000,0.0324,0.013523,0.002678,0.000431,0.000470
19408000,0.0324,0.013523,0.002678,0.000431,0.000470
19409000,0.0324,0.013523,0.002678,0.000431,0.000470
19410000,0.0324,0.013523,0.002678,0.000431,0.000470
19411000,0.0324,0.013523,0.002678,0.000431,0.000588
19412000,0.0324,0.013523,0.002678,0.000431,0.000353
19413000,0.0324,0.013523,0.002678,0.000431,0.000470
19414000,0.0324,0.013523,0.002678,0.000431,0.000470
19415000,0.0324,0.013523,0.002678,0.000431,0.000470
19416000,0.0324,0.013523,0.002678,0.000431,0.000353
19417000,0.0324,0.013523,0.002678,0.000431,0.000588
19418000,0.0324,0.013523,0.002678,0.000431,0.000353
19419000,0.0324,0.013523,0.002678,0.000431,0.000588
19420000,0.0324,0.013523,0.002678,0.000431,0.000353
19421000,0.0324,0.013523,0.002678,0.000431,0.000588
19422000,0.0324,0.013523,0.002678,0.000431,0.000353
19423000,0.0324,0.013523,0.002678,0.000431,0.000588
19424000,0.0324,0.013523,0.002678,0.000431,0.000353
19425000,0.0324,0.013523,0.002678,0.000431,0.000588
19426000,0.0324,0.013523,0.002678,0.000431,0.000353
19427000,0.0324,0.013523,0.002678,0.000431,0.000705
19428000,0.0324,0.013523,0.002678,0.000431,0.000353
19429000,0.0324,0.013523,0.002678,0.000431,0.000588
19430000,0.0324,0.013523,0.002678,0.000431,0.000353
19431000,0.0324,0.013523,0.002678,0.000431,0.000588
19432000,0.0324,0.013523,0.002678,0.000431,0.000353
19433000,0.0324,0.013523,0.002678,0.000431,0.000588
19434000,0.0324,0.013523,0.002678,0.000431,0.000353
19435000,0.0324,0.013523,0.002678,0.000431,0.000705
19436000,0.0324,0.013523,0.002678,0.000431,0.000353
19437000,0.0324,0.013523,0.002678,0.000431,0.000470
19438000,0.0324,0.013523,0.002678,0.000431,0.000470
19439000,0.0324,0.013523,0.002678,0.000431,0.000353
19440000,0.0324,0.013523,0.002678,0.000431,0.000588
19441000,0.0324,0.013523,0.002678,0.000431,0.000353
19442000,0.0324,0.013523,0.002678,0.000431,0.000588
19443000,0.0324,0.013523,0.002678,0.000431,0.000353
19444000,0.0324,0.013523,0.002678,0.000431,0.000705
19445000,0.0324,0.013523,0.002678,0.000431,0.000588
19446000,0.0324,0.013523,0.002678,0.000431,0.000470
19447000,0.0324,0.013523,0.002678,0.000431,0.000588
19448000,0.0324,0.013523,0.002678,0.000431,0.000353
19449000,0.0324,0.013523,0.002678,0.000431,0.000588
19450000,0.0324,0.013523,0.002678,0.000431,0.000353
19451000,0.0324,0.013523,0.002678,0.000431,0.000588
19452000,0.0324,0.013523,0.002678,0.000431,0.000353
19453000,0.0324,0.013523,0.002678,0.000431,0.000705
19454000,0.0324,0.013523,0.002678,0.000431,0.000353
19455000,0.0324,0.013523,0.002678,0.000431,0.000588
19456000,0.0324,0.013523,0.002678,0.000431,0.000470
19457000,0.0324,0.013523,0.002678,0.000431,0.000705
19458000,0.0324,0.013523,0.002678,0.000431,0.000353
19459000,0.0324,0.013523,0.002678,0.000431,0.000705
19460000,0.0324,0.013523,0.002678,0.000431,0.000588
19461000,0.0324,0.013523,0.002678,0.000431,0.000470
19462000,0.0324,0.013523,0.002678,0.000431,0.000705
19463000,0.0324,0.013523,0.002678,0.000431,0.000353
19464000,0.0324,0.013523,0.002678,0.000431,0.000823
19465000,0.0324,0.013523,0.002678,0.000431,0.000353
19466000,0.0324,0.013523,0.002678,0.000431,0.000588
19467000,0.0324,0.013523,0.002678,0.000431,0.000470
19468000,0.0324,0.013523,0.002678,0.000431,0.000588
19469000,0.0324,0.013523,0.002678,0.000431,0.000588
19470000,0.0324,0.013523,0.002678,0.000431,0.000470
19471000,0.0324,0.013523,0.002678,0.000431,0.000705
19472000,0.0324,0.013523,0.002678,0.000431,0.000353
19473000,0.0324,0.013523,0.002678,0.000431,0.000588
19474000,0.0324,0.013523,0.002678,0.000431,0.000470
19475000,0.0324,0.013523,0.002678,0.000431,0.000588
19476000,0.0324,0.013523,0.002678,0.000431,0.000353
19477000,0.0324,0.013523,0.002678,0.000431,0.000588
19478000,0.0324,0.013523,0.002678,0.000431,0.000353
19479000,0.0324,0.013523,0.002678,0.000431,0.000588
19480000,0.0324,0.013523,0.002678,0.000431,0.000470
19481000,0.0324,0.013523,0.002678,0.000431,0.000470
19482000,0.0324,0.013523,0.002678,0.000431,0.000470
19483000,0.0324,0.013523,0.002678,0.000431,0.000470
19484000,0.0324,0.013523,0.002678,0.000431,0.000470
19485000,0.0324,0.013523,0.002678,0.000431,0.000588
19486000,0.0324,0.013523,0.002678,0.000431,0.000470
19487000,0.0324,0.013523,0.002678,0.000431,0.000588
19488000,0.0324,0.013523,0.002678,0.000431,0.000353
19489000,0.0324,0.013523,0.002678,0.000431,0.000588
19490000,0.0324,0.013523,0.002678,0.000431,0.000353
19491000,0.0324,0.013523,0.002678,0.000431,0.000470
19492000,0.0324,0.013523,0.002678,0.000431,0.000470
19493000,0.0324,0.013523,0.002678,0.000431,0.000470
19494000,0.0324,0.013523,0.002678,0.000431,0.000470
19495000,0.0324,0.013523,0.002678,0.000431,0.000470
19496000,0.0324,0.013523,0.002678,0.000431,0.000588
19497000,0.0324,0.013523,0.002678,0.000431,0.000588
19498000,0.0324,0.013523,0.002678,0.000431,0.000470
19499000,0.0324,0.013523,0.002678,0.000431,0.000705
19500000,0.0324,0.013523,0.002678,0.000431,0.000353
19501000,0.0324,0.013523,0.002678,0.000431,0.000705
19502000,0.0324,0.013523,0.002678,0.000431,0.000588
19503000,0.0324,0.013523,0.002678,0.000431,0.000470
19504000,0.0324,0.013523,0.002678,0.000431,0.000705
19505000,0.0324,0.013523,0.002678,0.000431,0.000353
19506000,0.0324,0.013523,0.002678,0.000431,0.000588
19507000,0.0324,0.013523,0.002678,0.000431,0.000353
19508000,0.0324,0.013523,0.002678,0.000431,0.000588
19509000,0.0324,0.013523,0.002678,0.000431,0.000353
19510000,0.0324,0.013523,0.002678,0.000431,0.000588
19511000,0.0324,0.013523,0.002678,0.000431,0.000353
19512000,0.0324,0.013523,0.002678,0.000431,0.000470
19513000,0.0324,0.013523,0.002678,0.000431,0.000470
19514000,0.0324,0.013523,0.002678,0.000431,0.000470
19515000,0.0324,0.013523,0.002678,0.000431,0.000470
19516000,0.0324,0.013523,0.002678,0.000431,0.000470
19517000,0.0324,0.013523,0.002678,0.000431,0.000470
19518000,0.0324,0.013523,0.002678,0.000431,0.000588
19519000,0.0324,0.013523,0.002678,0.000431,0.000470
19520000,0.0324,0.013523,0.002678,0.000431,0.000588
19521000,0.0324,0.013523,0.002678,0.000431,0.000353
19522000,0.0324,0.013523,0.002678,0.000431,0.000588
19523000,0.0324,0.013523,0.002678,0.000431,0.000353
19524000,0.0324,0.013523,0.002678,0.000431,0.000588
19525000,0.0324,0.013523,0.002678,0.000431,0.000353
19526000,0.0324,0.013523,0.002678,0.000431,0.000705
19527000,0.0324,0.013523,0.002678,0.000431,0.000470
19528000,0.0324,0.013523,0.002678,0.000431,0.000588
19529000,0.0324,0.013523,0.002678,0.000431,0.000470
19530000,0.0324,0.013523,0.002678,0.000431,0.000588
19531000,0.0324,0.013523,0.002678,0.000431,0.000470
19532000,0.0324,0.013523,0.002678,0.000431,0.000705
19533000,0.0324,0.013523,0.002678,0.000431,0.000353
19534000,0.0324,0.013523,0.002678,0.000431,0.000588
19535000,0.0324,0.013523,0.002678,0.000431,0.000353
19536000,0.0324,0.013523,0.002678,0.000431,0.000588
19537000,0.0324,0.013523,0.002678,0.000431,0.000353
19538000,0.0324,0.013523,0.002678,0.000431,0.000470
19539000,0.0324,0.013523,0.002678,0.000431,0.000470
19540000,0.0324,0.013523,0.002678,0.000431,0.000470
19541000,0.0324,0.013523,0.002678,0.000431,0.000470
19542000,0.0324,0.013523,0.002678,0.000431,0.000470
19543000,0.0324,0.013523,0.002678,0.000431,0.000470
19544000,0.0324,0.013523,0.002678,0.000431,0.000470
19545000,0.0324,0.013523,0.002678,0.000431,0.000470
19546000,0.0324,0.013523,0.002678,0.000431,0.000470
19547000,0.0324,0.013523,0.002678,0.000431,0.000470
19548000,0.0324,0.013523,0.002678,0.000431,0.000470
19549000,0.0324,0.013523,0.002678,0.000431,0.000705
19550000,0.0324,0.013523,0.002678,0.000431,0.000588
19551000,0.0324,0.013523,0.002678,0.000431,0.000470
19552000,0.0324,0.013523,0.002678,0.000431,0.000705
19553000,0.0324,0.013523,0.002678,0.000431,0.000353
19554000,0.0324,0.013523,0.002678,0.000431,0.000705
19555000,0.0324,0.013523,0.002678,0.000431,0.000588
19556000,0.0324,0.013523,0.002678,0.000431,0.000353
19557000,0.0324,0.013523,0.002678,0.000431,0.000588
19558000,0.0324,0.013523,0.002678,0.000431,0.000470
19559000,0.0324,0.013523,0.002678,0.000431,0.000470
19560000,0.0324,0.013523,0.002678,0.000431,0.000470
19561000,0.0324,0.013523,0.002678,0.000431,0.000353
19562000,0.0324,0.013523,0.002678,0.000431,0.000588
19563000,0.0324,0.013523,0.002678,0.000431,0.000353
19564000,0.0324,0.013523,0.002678,0.000431,0.000588
19565000,0.0324,0.013523,0.002678,0.000431,0.000353
19566000,0.0324,0.013523,0.002678,0.000431,0.000588
19567000,0.0324,0.013523,0.002678,0.000431,0.000353
19568000,0.0324,0.013523,0.002678,0.000431,0.000588
19569000,0.0324,0.013523,0.002678,0.000431,0.000353
19570000,0.0324,0.013523,0.002678,0.000431,0.000588
19571000,0.0324,0.013523,0.002678,0.000431,0.000353
19572000,0.0324,0.013523,0.002678,0.000431,0.000588
19573000,0.0324,0.013523,0.002678,0.000431,0.000353
19574000,0.0324,0.013523,0.002678,0.000431,0.000588
19575000,0.0324,0.013523,0.002678,0.000431,0.000353
19576000,0.0324,0.013523,0.002678,0.000431,0.000588
19577000,0.0324,0.013523,0.002678,0.000431,0.000353
19578000,0.0324,0.013523,0.002678,0.000431,0.000588
19579000,0.0324,0.013523,0.002678,0.000431,0.000353
19580000,0.0324,0.013523,0.002678,0.000431,0.000588
19581000,0.0324,0.013523,0.002678,0.000431,0.000353
19582000,0.0324,0.013523,0.002678,0.000431,0.000470
19583000,0.0324,0.013523,0.002678,0.000431,0.000470
19584000,0.0324,0.013523,0.002678,0.000431,0.000588
19585000,0.0324,0.013523,0.002678,0.000431,0.000588
19586000,0.0324,0.013523,0.002678,0.000431,0.000470
19587000,0.0324,0.013523,0.002678,0.000431,0.000353
19588000,0.0324,0.013523,0.002678,0.000431,0.000588
19589000,0.0324,0.013523,0.002678,0.000431,0.000353
19590000,0.0324,0.013523,0.002678,0.000431,0.000588
19591000,0.0324,0.013523,0.002678,0.000431,0.000353
19592000,0.0324,0.013523,0.002678,0.000431,0.000588
19593000,0.0324,0.013523,0.002678,0.000431,0.000353
19594000,0.0324,0.013523,0.002678,0.000431,0.000588
19595000,0.0324,0.013523,0.002678,0.000431,0.000353
19596000,0.0324,0.013523,0.002678,0.000431,0.000588
19597000,0.0324,0.013523,0.002678,0.000431,0.000353
19598000,0.0324,0.013523,0.002678,0.000431,0.000588
19599000,0.0324,0.013523,0.002678,0.000431,0.000353
19600000,0.0324,0.013523,0.002678,0.000431,0.000588
19601000,0.0324,0.013523,0.002678,0.000431,0.000353
19602000,0.0324,0.013523,0.002678,0.000431,0.000588
19603000,0.0324,0.013523,0.002678,0.000431,0.000353
19604000,0.0324,0.013523,0.002678,0.000431,0.000588
19605000,0.0324,0.013523,0.002678,0.000431,0.000353
19606000,0.0324,0.013523,0.002678,0.000431,0.000588
19607000,0.0324,0.013523,0.002678,0.000431,0.000353
19608000,0.0324,0.013523,0.002678,0.000431,0.000588
19609000,0.0324,0.013523,0.002678,0.000431,0.000470
19610000,0.0324,0.013523,0.002678,0.000431,0.000470
19611000,0.0324,0.013523,0.002678,0.000431,0.000470
19612000,0.0324,0.013523,0.002678,0.000431,0.000470
19613000,0.0324,0.013523,0.002678,0.000431,0.000470
19614000,0.0324,0.013523,0.002678,0.000431,0.000470
19615000,0.0324,0.013523,0.002678,0.000431,0.000470
19616000,0.0324,0.013523,0.002678,0.000431,0.000470
19617000,0.0324,0.013523,0.002678,0.000431,0.000470
19618000,0.0324,0.013523,0.002678,0.000431,0.000470
19619000,0.0324,0.013523,0.002678,0.000431,0.000470
19620000,0.0324,0.013523,0.002678,0.000431,0.000353
19621000,0.0324,0.013523,0.002678,0.000431,0.000588
19622000,0.0324,0.013523,0.002678,0.000431,0.000353
19623000,0.0324,0.013523,0.002678,0.000431,0.000588
19624000,0.0324,0.013523,0.002678,0.000431,0.000353
19625000,0.0324,0.013523,0.002678,0.000431,0.000588
19626000,0.0324,0.013523,0.002678,0.000431,0.000353
19627000,0.0324,0.013523,0.002678,0.000431,0.000588
19628000,0.0324,0.013523,0.002678,0.000431,0.000353
19629000,0.0324,0.013523,0.002678,0.000431,0.000588
19630000,0.0324,0.013523,0.002678,0.000431,0.000353
19631000,0.0324,0.013523,0.002678,0.000431,0.000588
19632000,0.0324,0.013523,0.002678,0.000431,0.000353
19633000,0.0324,0.013523,0.002678,0.000431,0.000588
19634000,0.0324,0.013523,0.002678,0.000431,0.000353
19635000,0.0324,0.013523,0.002678,0.000431,0.000588
19636000,0.0324,0.013523,0.002678,0.000431,0.000353
19637000,0.0324,0.013523,0.002678,0.000431,0.000588
19638000,0.0324,0.013523,0.002678,0.000431,0.000353
19639000,0.0324,0.013523,0.002678,0.000431,0.000588
19640000,0.0324,0.013523,0.002678,0.000431,0.000353
19641000,0.0324,0.013523,0.002678,0.000431,0.000588
19642000,0.0324,0.013523,0.002678,0.000431,0.000353
19643000,0.0324,0.013523,0.002678,0.000431,0.000705
19644000,0.0324,0.013523,0.002678,0.000431,0.000353
19645000,0.0324,0.013523,0.002678,0.000431,0.000705
19646000,0.0324,0.013523,0.002678,0.000431,0.000353
19647000,0.0324,0.013523,0.002678,0.000431,0.000588
19648000,0.0324,0.013523,0.002678,0.000431,0.000235
19649000,0.0324,0.013523,0.002678,0.000431,0.000588
19650000,0.0324,0.013523,0.002678,0.000431,0.000353
19651000,0.0324,0.013523,0.002678,0.000431,0.000588
19652000,0.0324,0.013523,0.002678,0.000431,0.000353
19653000,0.0324,0.013523,0.002678,0.000431,0.000705
19654000,0.0324,0.013523,0.002678,0.000431,0.000353
19655000,0.0324,0.013523,0.002678,0.000431,0.000588
19656000,0.0324,0.013523,0.002678,0.000431,0.000353
19657000,0.0324,0.013523,0.002678,0.000431,0.000705
19658000,0.0324,0.013523,0.002678,0.000431,0.000353
19659000,0.0324,0.013523,0.002678,0.000431,0.000705
19660000,0.0324,0.013523,0.002678,0.000431,0.000470
19661000,0.0324,0.013523,0.002678,0.000431,0.000470
19662000,0.0324,0.013523,0.002678,0.000431,0.000470
19663000,0.0324,0.013523,0.002678,0.000431,0.000588
19664000,0.0324,0.013523,0.002678,0.000431,0.000353
19665000,0.0324,0.013523,0.002678,0.000431,0.000470
19666000,0.0324,0.013523,0.002678,0.000431,0.000470
19667000,0.0324,0.013523,0.002678,0.000431,0.000470
19668000,0.0324,0.013523,0.002678,0.000431,0.000470
19669000,0.0324,0.013523,0.002678,0.000431,0.000470
19670000,0.0324,0.013523,0.002678,0.000431,0.000470
19671000,0.0324,0.013523,0.002678,0.000431,0.000588
19672000,0.0324,0.013523,0.002678,0.000431,0.000353
19673000,0.0324,0.013523,0.002678,0.000431,0.000470
19674000,0.0324,0.013523,0.002678,0.000431,0.000470
19675000,0.0324,0.013523,0.002678,0.000431,0.000470
19676000,0.0324,0.013523,0.002678,0.000431,0.000470
19677000,0.0324,0.013523,0.002678,0.000431,0.000470
19678000,0.0324,0.013523,0.002678,0.000431,0.000470
19679000,0.0324,0.013523,0.002678,0.000431,0.000588
19680000,0.0324,0.013523,0.002678,0.000431,0.000470
19681000,0.0324,0.013523,0.002678,0.000431,0.000588
19682000,0.0324,0.013523,0.002678,0.000431,0.000353
19683000,0.0324,0.013523,0.002678,0.000431,0.000588
19684000,0.0324,0.013523,0.002678,0.000431,0.000470
19685000,0.0324,0.013523,0.002678,0.000431,0.000470
19686000,0.0324,0.013523,0.002678,0.000431,0.000470
19687000,0.0324,0.013523,0.002678,0.000431,0.000470
19688000,0.0324,0.013523,0.002678,0.000431,0.000470
19689000,0.0324,0.013523,0.002678,0.000431,0.000588
19690000,0.0324,0.013523,0.002678,0.000431,0.000470
19691000,0.0324,0.013523,0.002678,0.000431,0.000588
19692000,0.0324,0.013523,0.002678,0.000431,0.000353
19693000,0.0324,0.013523,0.002678,0.000431,0.000588
19694000,0.0324,0.013523,0.002678,0.000431,0.000353
19695000,0.0324,0.013523,0.002678,0.000431,0.000588
19696000,0.0324,0.013523,0.002678,0.000431,0.000353
19697000,0.0324,0.013523,0.002678,0.000431,0.000588
19698000,0.0324,0.013523,0.002678,0.000431,0.000353
19699000,0.0324,0.013523,0.002678,0.000431,0.000470
19700000,0.0324,0.013523,0.002678,0.000431,0.000588
19701000,0.0324,0.013523,0.002678,0.000431,0.000470
19702000,0.0324,0.013523,0.002678,0.000431,0.000470
19703000,0.0324,0.013523,0.002678,0.000431,0.000353
19704000,0.0324,0.013523,0.002678,0.000431,0.000588
19705000,0.0324,0.013523,0.002678,0.000431,0.000353
19706000,0.0324,0.013523,0.002678,0.000431,0.000705
19707000,0.0324,0.013523,0.002678,0.000431,0.000353
19708000,0.0324,0.013523,0.002678,0.000431,0.000705
19709000,0.0324,0.013523,0.002678,0.000431,0.000588
19710000,0.0324,0.013523,0.002678,0.000431,0.000470
19711000,0.0324,0.013523,0.002678,0.000431,0.000705
19712000,0.0324,0.013523,0.002678,0.000431,0.000353
19713000,0.0324,0.013523,0.002678,0.000431,0.000588
19714000,0.0324,0.013523,0.002678,0.000431,0.000470
19715000,0.0324,0.013523,0.002678,0.000431,0.000588
19716000,0.0324,0.013523,0.002678,0.000431,0.000353
19717000,0.0324,0.013523,0.002678,0.000431,0.000705
19718000,0.0324,0.013523,0.002678,0.000431,0.000353
19719000,0.0324,0.013523,0.002678,0.000431,0.000588
19720000,0.0324,0.013523,0.002678,0.000431,0.000470
19721000,0.0324,0.013523,0.002678,0.000431,0.000588
19722000,0.0324,0.013523,0.002678,0.000431,0.000588
19723000,0.0324,0.013523,0.002678,0.000431,0.000470
19724000,0.0324,0.013523,0.002678,0.000431,0.000353
19725000,0.0324,0.013523,0.002678,0.000431,0.000588
19726000,0.0324,0.013523,0.002678,0.000431,0.000353
19727000,0.0324,0.013523,0.002678,0.000431,0.000588
19728000,0.0324,0.013523,0.002678,0.000431,0.000353
19729000,0.0324,0.013523,0.002678,0.000431,0.000588
19730000,0.0324,0.013523,0.002678,0.000431,0.000353
19731000,0.0324,0.013523,0.002678,0.000431,0.000705
19732000,0.0324,0.013523,0.002678,0.000431,0.000470
19733000,0.0324,0.013523,0.002678,0.000431,0.000588
19734000,0.0324,0.013523,0.002678,0.000431,0.000353
19735000,0.0324,0.013523,0.002678,0.000431,0.000470
19736000,0.0324,0.013523,0.002678,0.000431,0.000470
19737000,0.0324,0.013523,0.002678,0.000431,0.000470
19738000,0.0324,0.013523,0.002678,0.000431,0.000470
19739000,0.0324,0.013523,0.002678,0.000431,0.000470
19740000,0.0324,0.013523,0.002678,0.000431,0.000470
19741000,0.0324,0.013523,0.002678,0.000431,0.000588
19742000,0.0324,0.013523,0.002678,0.000431,0.000353
19743000,0.0324,0.013523,0.002678,0.000431,0.000470
19744000,0.0324,0.013523,0.002678,0.000431,0.000470
19745000,0.0324,0.013523,0.002678,0.000431,0.000470
19746000,0.0324,0.013523,0.002678,0.000431,0.000470
19747000,0.0324,0.013523,0.002678,0.000431,0.000588
19748000,0.0324,0.013523,0.002678,0.000431,0.000470
19749000,0.0324,0.013523,0.002678,0.000431,0.000705
19750000,0.0324,0.013523,0.002678,0.000431,0.000353
19751000,0.0324,0.013523,0.002678,0.000431,0.000588
19752000,0.0324,0.013523,0.002678,0.000431,0.000353
19753000,0.0324,0.013523,0.002678,0.000431,0.000588
19754000,0.0324,0.013523,0.002678,0.000431,0.000353
19755000,0.0324,0.013523,0.002678,0.000431,0.000588
19756000,0.0324,0.013523,0.002678,0.000431,0.000353
19757000,0.0324,0.013523,0.002678,0.000431,0.000705
19758000,0.0324,0.013523,0.002678,0.000431,0.000470
19759000,0.0324,0.013523,0.002678,0.000431,0.000470
19760000,0.0324,0.013523,0.002678,0.000431,0.000470
19761000,0.0324,0.013523,0.002678,0.000431,0.000470
19762000,0.0324,0.013523,0.002678,0.000431,0.000470
19763000,0.0324,0.013523,0.002678,0.000431,0.000470
19764000,0.0324,0.013523,0.002678,0.000431,0.000470
19765000,0.0324,0.013523,0.002678,0.000431,0.000470
19766000,0.0324,0.013523,0.002678,0.000431,0.000470
19767000,0.0324,0.013523,0.002678,0.000431,0.000470
19768000,0.0324,0.013523,0.002678,0.000431,0.000470
19769000,0.0324,0.013523,0.002678,0.000431,0.000470
19770000,0.0324,0.013523,0.002678,0.000431,0.000470
19771000,0.0324,0.013523,0.002678,0.000431,0.000470
19772000,0.0324,0.013523,0.002678,0.000431,0.000470
19773000,0.0324,0.013523,0.002678,0.000431,0.000470
19774000,0.0324,0.013523,0.002678,0.000431,0.000470
19775000,0.0324,0.013523,0.002678,0.000431,0.000470
19776000,0.0324,0.013523,0.002678,0.000431,0.000353
19777000,0.0324,0.013523,0.002678,0.000431,0.000588
19778000,0.0324,0.013523,0.002678,0.000431,0.000353
19779000,0.0324,0.013523,0.002678,0.000431,0.000705
19780000,0.0324,0.013523,0.002678,0.000431,0.000353
19781000,0.0324,0.013523,0.002678,0.000431,0.000588
19782000,0.0324,0.013523,0.002678,0.000431,0.000353
19783000,0.0324,0.013523,0.002678,0.000431,0.000588
19784000,0.0324,0.013523,0.002678,0.000431,0.000470
19785000,0.0324,0.013523,0.002678,0.000431,0.000470
19786000,0.0324,0.013523,0.002678,0.000431,0.000353
19787000,0.0324,0.013523,0.002678,0.000431,0.000588
19788000,0.0324,0.013523,0.002678,0.000431,0.000470
19789000,0.0324,0.013523,0.002678,0.000431,0.000588
19790000,0.0324,0.013523,0.002678,0.000431,0.000353
19791000,0.0324,0.013523,0.002678,0.000431,0.000588
19792000,0.0324,0.013523,0.002678,0.000431,0.000353
19793000,0.0324,0.013523,0.002678,0.000431,0.000588
19794000,0.0324,0.013523,0.002678,0.000431,0.000353
19795000,0.0324,0.013523,0.002678,0.000431,0.000705
19796000,0.0324,0.013523,0.002678,0.000431,0.000353
19797000,0.0324,0.013523,0.002678,0.000431,0.000588
19798000,0.0324,0.013523,0.002678,0.000431,0.000588
19799000,0.0324,0.013523,0.002678,0.000431,0.000470
19800000,0.0324,0.013523,0.002678,0.000431,0.000353
19801000,0.0324,0.013523,0.002678,0.000431,0.000588
19802000,0.0324,0.013523,0.002678,0.000431,0.000353
19803000,0.0324,0.013523,0.002678,0.000431,0.000588
19804000,0.0324,0.013523,0.002678,0.000431,0.000353
19805000,0.0324,0.013523,0.002678,0.000431,0.000588
19806000,0.0324,0.013523,0.002678,0.000431,0.000353
19807000,0.0324,0.013523,0.002678,0.000431,0.000588
19808000,0.0324,0.013523,0.002678,0.000431,0.000353
19809000,0.0324,0.013523,0.002678,0.000431,0.000705
19810000,0.0324,0.013523,0.002678,0.000431,0.000353
19811000,0.0324,0.013523,0.002678,0.000431,0.000705
19812000,0.0324,0.013523,0.002678,0.000431,0.000588
19813000,0.0324,0.013523,0.002678,0.000431,0.000470
19814000,0.0324,0.013523,0.002678,0.000431,0.000705
19815000,0.0324,0.013523,0.002678,0.000431,0.000353
19816000,0.0324,0.013523,0.002678,0.000431,0.000588
19817000,0.0324,0.013523,0.002678,0.000431,0.000353
19818000,0.0324,0.013523,0.002678,0.000431,0.000588
19819000,0.0324,0.013523,0.002678,0.000431,0.000353
19820000,0.0324,0.013523,0.002678,0.000431,0.000588
19821000,0.0324,0.013523,0.002678,0.000431,0.000353
19822000,0.0324,0.013523,0.002678,0.000431,0.000470
19823000,0.0324,0.013523,0.002678,0.000431,0.000470
19824000,0.0324,0.013523,0.002678,0.000431,0.000588
19825000,0.0324,0.013523,0.002678,0.000431,0.000588
19826000,0.0324,0.013523,0.002678,0.000431,0.000470
19827000,0.0324,0.013523,0.002678,0.000431,0.000470
19828000,0.0324,0.013523,0.002678,0.000431,0.000470
19829000,0.0324,0.013523,0.002678,0.000431,0.000470
19830000,0.0324,0.013523,0.002678,0.000431,0.000470
19831000,0.0324,0.013523,0.002678,0.000431,0.000353
19832000,0.0324,0.013523,0.002678,0.000431,0.000588
19833000,0.0324,0.013523,0.002678,0.000431,0.000353
19834000,0.0324,0.013523,0.002678,0.000431,0.000588
19835000,0.0324,0.013523,0.002678,0.000431,0.000353
19836000,0.0324,0.013523,0.002678,0.000431,0.000588
19837000,0.0324,0.013523,0.002678,0.000431,0.000470
19838000,0.0324,0.013523,0.002678,0.000431,0.000470
19839000,0.0324,0.013523,0.002678,0.000431,0.000470
19840000,0.0324,0.013523,0.002678,0.000431,0.000470
19841000,0.0324,0.013523,0.002678,0.000431,0.000353
19842000,0.0324,0.013523,0.002678,0.000431,0.000588
19843000,0.0324,0.013523,0.002678,0.000431,0.000353
19844000,0.0324,0.013523,0.002678,0.000431,0.000588
19845000,0.0324,0.013523,0.002678,0.000431,0.000353
19846000,0.0324,0.013523,0.002678,0.000431,0.000588
19847000,0.0324,0.013523,0.002678,0.000431,0.000353
19848000,0.0324,0.013523,0.002678,0.000431,0.000470
19849000,0.0324,0.013523,0.002678,0.000431,0.000470
19850000,0.0324,0.013523,0.002678,0.000431,0.000470
19851000,0.0324,0.013523,0.002678,0.000431,0.000470
19852000,0.0324,0.013523,0.002678,0.000431,0.000470
19853000,0.0324,0.013523,0.002678,0.000431,0.000588
19854000,0.0324,0.013523,0.002678,0.000431,0.000588
19855000,0.0324,0.013523,0.002678,0.000431,0.000470
19856000,0.0324,0.013523,0.002678,0.000431,0.000705
19857000,0.0324,0.013523,0.002678,0.000431,0.000353
19858000,0.0324,0.013523,0.002678,0.000431,0.000588
19859000,0.0324,0.013523,0.002678,0.000431,0.000353
19860000,0.0324,0.013523,0.002678,0.000431,0.000588
19861000,0.0324,0.013523,0.002678,0.000431,0.000353
19862000,0.0324,0.013523,0.002678,0.000431,0.000588
19863000,0.0324,0.013523,0.002678,0.000431,0.000353
19864000,0.0324,0.013523,0.002678,0.000431,0.000588
19865000,0.0324,0.013523,0.002678,0.000431,0.000353
19866000,0.0324,0.013523,0.002678,0.000431,0.000588
19867000,0.0324,0.013523,0.002678,0.000431,0.000353
19868000,0.0324,0.013523,0.002678,0.000431,0.000588
19869000,0.0324,0.013523,0.002678,0.000431,0.000353
19870000,0.0324,0.013523,0.002678,0.000431,0.000588
19871000,0.0324,0.013523,0.002678,0.000431,0.000470
19872000,0.0324,0.013523,0.002678,0.000431,0.000705
19873000,0.0324,0.013523,0.002678,0.000431,0.000235
19874000,0.0324,0.013523,0.002678,0.000431,0.000823
19875000,0.0324,0.013523,0.002678,0.000431,0.000353
19876000,0.0324,0.013523,0.002678,0.000431,0.000588
19877000,0.0324,0.013523,0.002678,0.000431,0.000353
19878000,0.0324,0.013523,0.002678,0.000431,0.000588
19879000,0.0324,0.013523,0.002678,0.000431,0.000353
19880000,0.0324,0.013523,0.002678,0.000431,0.000705
19881000,0.0324,0.013523,0.002678,0.000431,0.000470
19882000,0.0324,0.013523,0.002678,0.000431,0.000470
19883000,0.0324,0.013523,0.002678,0.000431,0.000353
19884000,0.0324,0.013523,0.002678,0.000431,0.000588
19885000,0.0324,0.013523,0.002678,0.000431,0.000353
19886000,0.0324,0.013523,0.002678,0.000431,0.000588
19887000,0.0324,0.013523,0.002678,0.000431,0.000353
19888000,0.0324,0.013523,0.002678,0.000431,0.000588
19889000,0.0324,0.013523,0.002678,0.000431,0.000353
19890000,0.0324,0.013523,0.002678,0.000431,0.000588
19891000,0.0324,0.013523,0.002678,0.000431,0.000353
19892000,0.0324,0.013523,0.002678,0.000431,0.000588
19893000,0.0324,0.013523,0.002678,0.000431,0.000353
19894000,0.0324,0.013523,0.002678,0.000431,0.000588
19895000,0.0324,0.013523,0.002678,0.000431,0.000353
19896000,0.0324,0.013523,0.002678,0.000431,0.000588
19897000,0.0324,0.013523,0.002678,0.000431,0.000353
19898000,0.0324,0.013523,0.002678,0.000431,0.000588
19899000,0.0324,0.013523,0.002678,0.000431,0.000353
19900000,0.0324,0.013523,0.002678,0.000431,0.000470
19901000,0.0324,0.013523,0.002678,0.000431,0.000353
19902000,0.0324,0.013523,0.002678,0.000431,0.000588
19903000,0.0324,0.013523,0.002678,0.000431,0.000353
19904000,0.0324,0.013523,0.002678,0.000431,0.000588
19905000,0.0324,0.013523,0.002678,0.000431,0.000470
19906000,0.0324,0.013523,0.002678,0.000431,0.000470
19907000,0.0324,0.013523,0.002678,0.000431,0.000470
19908000,0.0324,0.013523,0.002678,0.000431,0.000470
19909000,0.0324,0.013523,0.002678,0.000431,0.000470
19910000,0.0324,0.013523,0.002678,0.000431,0.000470
19911000,0.0324,0.013523,0.002678,0.000431,0.000470
19912000,0.0324,0.013523,0.002678,0.000431,0.000470
19913000,0.0324,0.013523,0.002678,0.000431,0.000470
19914000,0.0324,0.013523,0.002678,0.000431,0.000470
19915000,0.0324,0.013523,0.002678,0.000431,0.000470
19916000,0.0324,0.013523,0.002678,0.000431,0.000470
19917000,0.0324,0.013523,0.002678,0.000431,0.000470
19918000,0.0324,0.013523,0.002678,0.000431,0.000470
19919000,0.0324,0.013523,0.002678,0.000431,0.000470
19920000,0.0324,0.013523,0.002678,0.000431,0.000470
19921000,0.0324,0.013523,0.002678,0.000431,0.000470
19922000,0.0324,0.013523,0.002678,0.000431,0.000470
19923000,0.0324,0.013523,0.002678,0.000431,0.000588
19924000,0.0324,0.013523,0.002678,0.000431,0.000353
19925000,0.0324,0.013523,0.002678,0.000431,0.000588
19926000,0.0324,0.013523,0.002678,0.000431,0.000470
19927000,0.0324,0.013523,0.002678,0.000431,0.000588
19928000,0.0324,0.013523,0.002678,0.000431,0.000588
19929000,0.0324,0.013523,0.002678,0.000431,0.000470
19930000,0.0324,0.013523,0.002678,0.000431,0.000705
19931000,0.0324,0.013523,0.002678,0.000431,0.000353
19932000,0.0324,0.013523,0.002678,0.000431,0.000705
19933000,0.0324,0.013523,0.002678,0.000431,0.000588
19934000,0.0324,0.013523,0.002678,0.000431,0.000470
19935000,0.0324,0.013523,0.002678,0.000431,0.000705
19936000,0.0324,0.013523,0.002678,0.000431,0.000353
19937000,0.0324,0.013523,0.002678,0.000431,0.000705
19938000,0.0324,0.013523,0.002678,0.000431,0.000470
19939000,0.0324,0.013523,0.002678,0.000431,0.000470
19940000,0.0324,0.013523,0.002678,0.000431,0.000470
19941000,0.0324,0.013523,0.002678,0.000431,0.000470
19942000,0.0324,0.013523,0.002678,0.000431,0.000470
19943000,0.0324,0.013523,0.002678,0.000431,0.000470
19944000,0.0324,0.013523,0.002678,0.000431,0.000353
19945000,0.0324,0.013523,0.002678,0.000431,0.000588
19946000,0.0324,0.013523,0.002678,0.000431,0.000353
19947000,0.0324,0.013523,0.002678,0.000431,0.000588
19948000,0.0324,0.013523,0.002678,0.000431,0.000353
19949000,0.0324,0.013523,0.002678,0.000431,0.000588
19950000,0.0324,0.013523,0.002678,0.000431,0.000353
19951000,0.0324,0.013523,0.002678,0.000431,0.000588
19952000,0.0324,0.013523,0.002678,0.000431,0.000353
19953000,0.0324,0.013523,0.002678,0.000431,0.000705
19954000,0.0324,0.013523,0.002678,0.000431,0.000353
19955000,0.0324,0.013523,0.002678,0.000431,0.000705
19956000,0.0324,0.013523,0.002678,0.000431,0.000588
19957000,0.0324,0.013523,0.002678,0.000431,0.000470
19958000,0.0324,0.013523,0.002678,0.000431,0.000588
19959000,0.0324,0.013523,0.002678,0.000431,0.000353
19960000,0.0324,0.013523,0.002678,0.000431,0.000588
19961000,0.0324,0.013523,0.002678,0.000431,0.000353
19962000,0.0324,0.013523,0.002678,0.000431,0.000705
19963000,0.0324,0.013523,0.002678,0.000431,0.000235
19964000,0.0324,0.013523,0.002678,0.000431,0.000823
19965000,0.0324,0.013523,0.002678,0.000431,0.000353
19966000,0.0324,0.013523,0.002678,0.000431,0.000470
19967000,0.0324,0.013523,0.002678,0.000431,0.000353
19968000,0.0324,0.013523,0.002678,0.000431,0.000588
19969000,0.0324,0.013523,0.002678,0.000431,0.000353
19970000,0.0324,0.013523,0.002678,0.000431,0.000588
19971000,0.0324,0.013523,0.002678,0.000431,0.000353
19972000,0.0324,0.013523,0.002678,0.000431,0.000588
19973000,0.0324,0.013523,0.002678,0.000431,0.000353
19974000,0.0324,0.013523,0.002678,0.000431,0.000588
19975000,0.0324,0.013523,0.002678,0.000431,0.000353
19976000,0.0324,0.013523,0.002678,0.000431,0.000588
19977000,0.0324,0.013523,0.002678,0.000431,0.000353
19978000,0.0324,0.013523,0.002678,0.000431,0.000588
19979000,0.0324,0.013523,0.002678,0.000431,0.000353
19980000,0.0324,0.013523,0.002678,0.000431,0.000705
19981000,0.0324,0.013523,0.002678,0.000431,0.000353
19982000,0.0324,0.013523,0.002678,0.000431,0.000705
19983000,0.0324,0.013523,0.002678,0.000431,0.000353
19984000,0.0324,0.013523,0.002678,0.000431,0.000588
19985000,0.0324,0.013523,0.002678,0.000431,0.000470
19986000,0.0324,0.013523,0.002678,0.000431,0.000705
19987000,0.0324,0.013523,0.002678,0.000431,0.000470
19988000,0.0324,0.013523,0.002678,0.000431,0.000470
19989000,0.0324,0.013523,0.002678,0.000431,0.000353
19990000,0.0324,0.013523,0.002678,0.000431,0.000588
19991000,0.0324,0.013523,0.002678,0.000431,0.000353
19992000,0.0324,0.013523,0.002678,0.000431,0.000588
19993000,0.0324,0.013523,0.002678,0.000431,0.000353
19994000,0.0324,0.013523,0.002678,0.000431,0.000588
19995000,0.0324,0.013523,0.002678,0.000431,0.000353
19996000,0.0324,0.013523,0.002678,0.000431,0.000588
19997000,0.0324,0.013523,0.002678,0.000431,0.000353
19998000,0.0324,0.013523,0.002678,0.000431,0.000588
19999000,0.0324,0.013523,0.002678,0.000431,0.000353
