Cycle,Area(mm^2),PeakDynamic(W),SubthresholdLeakage(W),GateLeakage(W),RunTimeDynamic(W)
55000000,0.0324,0.013523,0.002678,0.000431,0.000353
55001000,0.0324,0.013523,0.002678,0.000431,0.000588
55002000,0.0324,0.013523,0.002678,0.000431,0.000353
55003000,0.0324,0.013523,0.002678,0.000431,0.000588
55004000,0.0324,0.013523,0.002678,0.000431,0.000353
55005000,0.0324,0.013523,0.002678,0.000431,0.000705
55006000,0.0324,0.013523,0.002678,0.000431,0.000353
55007000,0.0324,0.013523,0.002678,0.000431,0.000705
55008000,0.0324,0.013523,0.002678,0.000431,0.000588
55009000,0.0324,0.013523,0.002678,0.000431,0.000470
55010000,0.0324,0.013523,0.002678,0.000431,0.000705
55011000,0.0324,0.013523,0.002678,0.000431,0.000353
55012000,0.0324,0.013523,0.002678,0.000431,0.000705
55013000,0.0324,0.013523,0.002678,0.000431,0.000353
55014000,0.0324,0.013523,0.002678,0.000431,0.000588
55015000,0.0324,0.013523,0.002678,0.000431,0.000353
55016000,0.0324,0.013523,0.002678,0.000431,0.000470
55017000,0.0324,0.013523,0.002678,0.000431,0.000353
55018000,0.0324,0.013523,0.002678,0.000431,0.000705
55019000,0.0324,0.013523,0.002678,0.000431,0.000353
55020000,0.0324,0.013523,0.002678,0.000431,0.000588
55021000,0.0324,0.013523,0.002678,0.000431,0.000353
55022000,0.0324,0.013523,0.002678,0.000431,0.000705
55023000,0.0324,0.013523,0.002678,0.000431,0.000353
55024000,0.0324,0.013523,0.002678,0.000431,0.000705
55025000,0.0324,0.013523,0.002678,0.000431,0.000470
55026000,0.0324,0.013523,0.002678,0.000431,0.000470
55027000,0.0324,0.013523,0.002678,0.000431,0.000470
55028000,0.0324,0.013523,0.002678,0.000431,0.000470
55029000,0.0324,0.013523,0.002678,0.000431,0.000470
55030000,0.0324,0.013523,0.002678,0.000431,0.000470
55031000,0.0324,0.013523,0.002678,0.000431,0.000470
55032000,0.0324,0.013523,0.002678,0.000431,0.000470
55033000,0.0324,0.013523,0.002678,0.000431,0.000470
55034000,0.0324,0.013523,0.002678,0.000431,0.000470
55035000,0.0324,0.013523,0.002678,0.000431,0.000353
55036000,0.0324,0.013523,0.002678,0.000431,0.000705
55037000,0.0324,0.013523,0.002678,0.000431,0.000353
55038000,0.0324,0.013523,0.002678,0.000431,0.000705
55039000,0.0324,0.013523,0.002678,0.000431,0.000588
55040000,0.0324,0.013523,0.002678,0.000431,0.000470
55041000,0.0324,0.013523,0.002678,0.000431,0.000705
55042000,0.0324,0.013523,0.002678,0.000431,0.000353
55043000,0.0324,0.013523,0.002678,0.000431,0.000705
55044000,0.0324,0.013523,0.002678,0.000431,0.000470
55045000,0.0324,0.013523,0.002678,0.000431,0.000470
55046000,0.0324,0.013523,0.002678,0.000431,0.000470
55047000,0.0324,0.013523,0.002678,0.000431,0.000470
55048000,0.0324,0.013523,0.002678,0.000431,0.000470
55049000,0.0324,0.013523,0.002678,0.000431,0.000470
55050000,0.0324,0.013523,0.002678,0.000431,0.000470
55051000,0.0324,0.013523,0.002678,0.000431,0.000470
55052000,0.0324,0.013523,0.002678,0.000431,0.000353
55053000,0.0324,0.013523,0.002678,0.000431,0.000588
55054000,0.0324,0.013523,0.002678,0.000431,0.000353
55055000,0.0324,0.013523,0.002678,0.000431,0.000588
55056000,0.0324,0.013523,0.002678,0.000431,0.000353
55057000,0.0324,0.013523,0.002678,0.000431,0.000588
55058000,0.0324,0.013523,0.002678,0.000431,0.000353
55059000,0.0324,0.013523,0.002678,0.000431,0.000705
55060000,0.0324,0.013523,0.002678,0.000431,0.000353
55061000,0.0324,0.013523,0.002678,0.000431,0.000588
55062000,0.0324,0.013523,0.002678,0.000431,0.000353
55063000,0.0324,0.013523,0.002678,0.000431,0.000588
55064000,0.0324,0.013523,0.002678,0.000431,0.000353
55065000,0.0324,0.013523,0.002678,0.000431,0.000705
55066000,0.0324,0.013523,0.002678,0.000431,0.000353
55067000,0.0324,0.013523,0.002678,0.000431,0.000588
55068000,0.0324,0.013523,0.002678,0.000431,0.000235
55069000,0.0324,0.013523,0.002678,0.000431,0.000823
55070000,0.0324,0.013523,0.002678,0.000431,0.000353
55071000,0.0324,0.013523,0.002678,0.000431,0.000588
55072000,0.0324,0.013523,0.002678,0.000431,0.000588
55073000,0.0324,0.013523,0.002678,0.000431,0.000470
55074000,0.0324,0.013523,0.002678,0.000431,0.000353
55075000,0.0324,0.013523,0.002678,0.000431,0.000470
55076000,0.0324,0.013523,0.002678,0.000431,0.000353
55077000,0.0324,0.013523,0.002678,0.000431,0.000588
55078000,0.0324,0.013523,0.002678,0.000431,0.000353
55079000,0.0324,0.013523,0.002678,0.000431,0.000705
55080000,0.0324,0.013523,0.002678,0.000431,0.000353
55081000,0.0324,0.013523,0.002678,0.000431,0.000470
55082000,0.0324,0.013523,0.002678,0.000431,0.000353
55083000,0.0324,0.013523,0.002678,0.000431,0.000588
55084000,0.0324,0.013523,0.002678,0.000431,0.000353
55085000,0.0324,0.013523,0.002678,0.000431,0.000588
55086000,0.0324,0.013523,0.002678,0.000431,0.000353
55087000,0.0324,0.013523,0.002678,0.000431,0.000588
55088000,0.0324,0.013523,0.002678,0.000431,0.000470
55089000,0.0324,0.013523,0.002678,0.000431,0.000470
55090000,0.0324,0.013523,0.002678,0.000431,0.000353
55091000,0.0324,0.013523,0.002678,0.000431,0.000588
55092000,0.0324,0.013523,0.002678,0.000431,0.000353
55093000,0.0324,0.013523,0.002678,0.000431,0.000588
55094000,0.0324,0.013523,0.002678,0.000431,0.000353
55095000,0.0324,0.013523,0.002678,0.000431,0.000588
55096000,0.0324,0.013523,0.002678,0.000431,0.000353
55097000,0.0324,0.013523,0.002678,0.000431,0.000470
55098000,0.0324,0.013523,0.002678,0.000431,0.000470
55099000,0.0324,0.013523,0.002678,0.000431,0.000470
55100000,0.0324,0.013523,0.002678,0.000431,0.000470
55101000,0.0324,0.013523,0.002678,0.000431,0.000470
55102000,0.0324,0.013523,0.002678,0.000431,0.000470
55103000,0.0324,0.013523,0.002678,0.000431,0.000470
55104000,0.0324,0.013523,0.002678,0.000431,0.000470
55105000,0.0324,0.013523,0.002678,0.000431,0.000470
55106000,0.0324,0.013523,0.002678,0.000431,0.000470
55107000,0.0324,0.013523,0.002678,0.000431,0.000470
55108000,0.0324,0.013523,0.002678,0.000431,0.000470
55109000,0.0324,0.013523,0.002678,0.000431,0.000470
55110000,0.0324,0.013523,0.002678,0.000431,0.000470
55111000,0.0324,0.013523,0.002678,0.000431,0.000470
55112000,0.0324,0.013523,0.002678,0.000431,0.000353
55113000,0.0324,0.013523,0.002678,0.000431,0.000588
55114000,0.0324,0.013523,0.002678,0.000431,0.000353
55115000,0.0324,0.013523,0.002678,0.000431,0.000588
55116000,0.0324,0.013523,0.002678,0.000431,0.000353
55117000,0.0324,0.013523,0.002678,0.000431,0.000588
55118000,0.0324,0.013523,0.002678,0.000431,0.000470
55119000,0.0324,0.013523,0.002678,0.000431,0.000470
55120000,0.0324,0.013523,0.002678,0.000431,0.000353
55121000,0.0324,0.013523,0.002678,0.000431,0.000470
55122000,0.0324,0.013523,0.002678,0.000431,0.000588
55123000,0.0324,0.013523,0.002678,0.000431,0.000588
55124000,0.0324,0.013523,0.002678,0.000431,0.000470
55125000,0.0324,0.013523,0.002678,0.000431,0.000588
55126000,0.0324,0.013523,0.002678,0.000431,0.000353
55127000,0.0324,0.013523,0.002678,0.000431,0.000588
55128000,0.0324,0.013523,0.002678,0.000431,0.000353
55129000,0.0324,0.013523,0.002678,0.000431,0.000588
55130000,0.0324,0.013523,0.002678,0.000431,0.000470
55131000,0.0324,0.013523,0.002678,0.000431,0.000470
55132000,0.0324,0.013523,0.002678,0.000431,0.000470
55133000,0.0324,0.013523,0.002678,0.000431,0.000470
55134000,0.0324,0.013523,0.002678,0.000431,0.000470
55135000,0.0324,0.013523,0.002678,0.000431,0.000588
55136000,0.0324,0.013523,0.002678,0.000431,0.000470
55137000,0.0324,0.013523,0.002678,0.000431,0.000588
55138000,0.0324,0.013523,0.002678,0.000431,0.000353
55139000,0.0324,0.013523,0.002678,0.000431,0.000470
55140000,0.0324,0.013523,0.002678,0.000431,0.000470
55141000,0.0324,0.013523,0.002678,0.000431,0.000353
55142000,0.0324,0.013523,0.002678,0.000431,0.000588
55143000,0.0324,0.013523,0.002678,0.000431,0.000353
55144000,0.0324,0.013523,0.002678,0.000431,0.000588
55145000,0.0324,0.013523,0.002678,0.000431,0.000353
55146000,0.0324,0.013523,0.002678,0.000431,0.000588
55147000,0.0324,0.013523,0.002678,0.000431,0.000353
55148000,0.0324,0.013523,0.002678,0.000431,0.000588
55149000,0.0324,0.013523,0.002678,0.000431,0.000353
55150000,0.0324,0.013523,0.002678,0.000431,0.000588
55151000,0.0324,0.013523,0.002678,0.000431,0.000353
55152000,0.0324,0.013523,0.002678,0.000431,0.000588
55153000,0.0324,0.013523,0.002678,0.000431,0.000353
55154000,0.0324,0.013523,0.002678,0.000431,0.000588
55155000,0.0324,0.013523,0.002678,0.000431,0.000353
55156000,0.0324,0.013523,0.002678,0.000431,0.000588
55157000,0.0324,0.013523,0.002678,0.000431,0.000353
55158000,0.0324,0.013523,0.002678,0.000431,0.000588
55159000,0.0324,0.013523,0.002678,0.000431,0.000353
55160000,0.0324,0.013523,0.002678,0.000431,0.000470
55161000,0.0324,0.013523,0.002678,0.000431,0.000470
55162000,0.0324,0.013523,0.002678,0.000431,0.000588
55163000,0.0324,0.013523,0.002678,0.000431,0.000470
55164000,0.0324,0.013523,0.002678,0.000431,0.000705
55165000,0.0324,0.013523,0.002678,0.000431,0.000353
55166000,0.0324,0.013523,0.002678,0.000431,0.000588
55167000,0.0324,0.013523,0.002678,0.000431,0.000353
55168000,0.0324,0.013523,0.002678,0.000431,0.000588
55169000,0.0324,0.013523,0.002678,0.000431,0.000353
55170000,0.0324,0.013523,0.002678,0.000431,0.000588
55171000,0.0324,0.013523,0.002678,0.000431,0.000353
55172000,0.0324,0.013523,0.002678,0.000431,0.000588
55173000,0.0324,0.013523,0.002678,0.000431,0.000353
55174000,0.0324,0.013523,0.002678,0.000431,0.000588
55175000,0.0324,0.013523,0.002678,0.000431,0.000353
55176000,0.0324,0.013523,0.002678,0.000431,0.000588
55177000,0.0324,0.013523,0.002678,0.000431,0.000353
55178000,0.0324,0.013523,0.002678,0.000431,0.000470
55179000,0.0324,0.013523,0.002678,0.000431,0.000470
55180000,0.0324,0.013523,0.002678,0.000431,0.000588
55181000,0.0324,0.013523,0.002678,0.000431,0.000470
55182000,0.0324,0.013523,0.002678,0.000431,0.000705
55183000,0.0324,0.013523,0.002678,0.000431,0.000353
55184000,0.0324,0.013523,0.002678,0.000431,0.000705
55185000,0.0324,0.013523,0.002678,0.000431,0.000470
55186000,0.0324,0.013523,0.002678,0.000431,0.000353
55187000,0.0324,0.013523,0.002678,0.000431,0.000588
55188000,0.0324,0.013523,0.002678,0.000431,0.000470
55189000,0.0324,0.013523,0.002678,0.000431,0.000588
55190000,0.0324,0.013523,0.002678,0.000431,0.000353
55191000,0.0324,0.013523,0.002678,0.000431,0.000588
55192000,0.0324,0.013523,0.002678,0.000431,0.000470
55193000,0.0324,0.013523,0.002678,0.000431,0.000705
55194000,0.0324,0.013523,0.002678,0.000431,0.000353
55195000,0.0324,0.013523,0.002678,0.000431,0.000705
55196000,0.0324,0.013523,0.002678,0.000431,0.000588
55197000,0.0324,0.013523,0.002678,0.000431,0.000470
55198000,0.0324,0.013523,0.002678,0.000431,0.000705
55199000,0.0324,0.013523,0.002678,0.000431,0.000353
55200000,0.0324,0.013523,0.002678,0.000431,0.000588
55201000,0.0324,0.013523,0.002678,0.000431,0.000353
55202000,0.0324,0.013523,0.002678,0.000431,0.000588
55203000,0.0324,0.013523,0.002678,0.000431,0.000353
55204000,0.0324,0.013523,0.002678,0.000431,0.000588
55205000,0.0324,0.013523,0.002678,0.000431,0.000353
55206000,0.0324,0.013523,0.002678,0.000431,0.000470
55207000,0.0324,0.013523,0.002678,0.000431,0.000470
55208000,0.0324,0.013523,0.002678,0.000431,0.000588
55209000,0.0324,0.013523,0.002678,0.000431,0.000470
55210000,0.0324,0.013523,0.002678,0.000431,0.000588
55211000,0.0324,0.013523,0.002678,0.000431,0.000353
55212000,0.0324,0.013523,0.002678,0.000431,0.000588
55213000,0.0324,0.013523,0.002678,0.000431,0.000353
55214000,0.0324,0.013523,0.002678,0.000431,0.000588
55215000,0.0324,0.013523,0.002678,0.000431,0.000470
55216000,0.0324,0.013523,0.002678,0.000431,0.000588
55217000,0.0324,0.013523,0.002678,0.000431,0.000470
55218000,0.0324,0.013523,0.002678,0.000431,0.000588
55219000,0.0324,0.013523,0.002678,0.000431,0.000353
55220000,0.0324,0.013523,0.002678,0.000431,0.000588
55221000,0.0324,0.013523,0.002678,0.000431,0.000353
55222000,0.0324,0.013523,0.002678,0.000431,0.000705
55223000,0.0324,0.013523,0.002678,0.000431,0.000353
55224000,0.0324,0.013523,0.002678,0.000431,0.000470
55225000,0.0324,0.013523,0.002678,0.000431,0.000470
55226000,0.0324,0.013523,0.002678,0.000431,0.000470
55227000,0.0324,0.013523,0.002678,0.000431,0.000470
55228000,0.0324,0.013523,0.002678,0.000431,0.000588
55229000,0.0324,0.013523,0.002678,0.000431,0.000470
55230000,0.0324,0.013523,0.002678,0.000431,0.000588
55231000,0.0324,0.013523,0.002678,0.000431,0.000353
55232000,0.0324,0.013523,0.002678,0.000431,0.000588
55233000,0.0324,0.013523,0.002678,0.000431,0.000353
55234000,0.0324,0.013523,0.002678,0.000431,0.000588
55235000,0.0324,0.013523,0.002678,0.000431,0.000353
55236000,0.0324,0.013523,0.002678,0.000431,0.000588
55237000,0.0324,0.013523,0.002678,0.000431,0.000353
55238000,0.0324,0.013523,0.002678,0.000431,0.000588
55239000,0.0324,0.013523,0.002678,0.000431,0.000353
55240000,0.0324,0.013523,0.002678,0.000431,0.000470
55241000,0.0324,0.013523,0.002678,0.000431,0.000353
55242000,0.0324,0.013523,0.002678,0.000431,0.000588
55243000,0.0324,0.013523,0.002678,0.000431,0.000353
55244000,0.0324,0.013523,0.002678,0.000431,0.000588
55245000,0.0324,0.013523,0.002678,0.000431,0.000353
55246000,0.0324,0.013523,0.002678,0.000431,0.000588
55247000,0.0324,0.013523,0.002678,0.000431,0.000353
55248000,0.0324,0.013523,0.002678,0.000431,0.000470
55249000,0.0324,0.013523,0.002678,0.000431,0.000470
55250000,0.0324,0.013523,0.002678,0.000431,0.000588
55251000,0.0324,0.013523,0.002678,0.000431,0.000588
55252000,0.0324,0.013523,0.002678,0.000431,0.000353
55253000,0.0324,0.013523,0.002678,0.000431,0.000588
55254000,0.0324,0.013523,0.002678,0.000431,0.000353
55255000,0.0324,0.013523,0.002678,0.000431,0.000588
55256000,0.0324,0.013523,0.002678,0.000431,0.000235
55257000,0.0324,0.013523,0.002678,0.000431,0.000705
55258000,0.0324,0.013523,0.002678,0.000431,0.000353
55259000,0.0324,0.013523,0.002678,0.000431,0.000588
55260000,0.0324,0.013523,0.002678,0.000431,0.000353
55261000,0.0324,0.013523,0.002678,0.000431,0.000588
55262000,0.0324,0.013523,0.002678,0.000431,0.000353
55263000,0.0324,0.013523,0.002678,0.000431,0.000588
55264000,0.0324,0.013523,0.002678,0.000431,0.000353
55265000,0.0324,0.013523,0.002678,0.000431,0.000588
55266000,0.0324,0.013523,0.002678,0.000431,0.000353
55267000,0.0324,0.013523,0.002678,0.000431,0.000588
55268000,0.0324,0.013523,0.002678,0.000431,0.000353
55269000,0.0324,0.013523,0.002678,0.000431,0.000588
55270000,0.0324,0.013523,0.002678,0.000431,0.000353
55271000,0.0324,0.013523,0.002678,0.000431,0.000705
55272000,0.0324,0.013523,0.002678,0.000431,0.000353
55273000,0.0324,0.013523,0.002678,0.000431,0.000588
55274000,0.0324,0.013523,0.002678,0.000431,0.000588
55275000,0.0324,0.013523,0.002678,0.000431,0.000470
55276000,0.0324,0.013523,0.002678,0.000431,0.000470
55277000,0.0324,0.013523,0.002678,0.000431,0.000470
55278000,0.0324,0.013523,0.002678,0.000431,0.000353
55279000,0.0324,0.013523,0.002678,0.000431,0.000588
55280000,0.0324,0.013523,0.002678,0.000431,0.000353
55281000,0.0324,0.013523,0.002678,0.000431,0.000588
55282000,0.0324,0.013523,0.002678,0.000431,0.000353
55283000,0.0324,0.013523,0.002678,0.000431,0.000588
55284000,0.0324,0.013523,0.002678,0.000431,0.000353
55285000,0.0324,0.013523,0.002678,0.000431,0.000588
55286000,0.0324,0.013523,0.002678,0.000431,0.000353
55287000,0.0324,0.013523,0.002678,0.000431,0.000588
55288000,0.0324,0.013523,0.002678,0.000431,0.000353
55289000,0.0324,0.013523,0.002678,0.000431,0.000588
55290000,0.0324,0.013523,0.002678,0.000431,0.000353
55291000,0.0324,0.013523,0.002678,0.000431,0.000705
55292000,0.0324,0.013523,0.002678,0.000431,0.000353
55293000,0.0324,0.013523,0.002678,0.000431,0.000588
55294000,0.0324,0.013523,0.002678,0.000431,0.000353
55295000,0.0324,0.013523,0.002678,0.000431,0.000588
55296000,0.0324,0.013523,0.002678,0.000431,0.000353
55297000,0.0324,0.013523,0.002678,0.000431,0.000588
55298000,0.0324,0.013523,0.002678,0.000431,0.000353
55299000,0.0324,0.013523,0.002678,0.000431,0.000588
55300000,0.0324,0.013523,0.002678,0.000431,0.000353
55301000,0.0324,0.013523,0.002678,0.000431,0.000588
55302000,0.0324,0.013523,0.002678,0.000431,0.000353
55303000,0.0324,0.013523,0.002678,0.000431,0.000588
55304000,0.0324,0.013523,0.002678,0.000431,0.000353
55305000,0.0324,0.013523,0.002678,0.000431,0.000588
55306000,0.0324,0.013523,0.002678,0.000431,0.000353
55307000,0.0324,0.013523,0.002678,0.000431,0.000470
55308000,0.0324,0.013523,0.002678,0.000431,0.000470
55309000,0.0324,0.013523,0.002678,0.000431,0.000588
55310000,0.0324,0.013523,0.002678,0.000431,0.000470
55311000,0.0324,0.013523,0.002678,0.000431,0.000705
55312000,0.0324,0.013523,0.002678,0.000431,0.000353
55313000,0.0324,0.013523,0.002678,0.000431,0.000705
55314000,0.0324,0.013523,0.002678,0.000431,0.000353
55315000,0.0324,0.013523,0.002678,0.000431,0.000588
55316000,0.0324,0.013523,0.002678,0.000431,0.000353
55317000,0.0324,0.013523,0.002678,0.000431,0.000588
55318000,0.0324,0.013523,0.002678,0.000431,0.000353
55319000,0.0324,0.013523,0.002678,0.000431,0.000588
55320000,0.0324,0.013523,0.002678,0.000431,0.000353
55321000,0.0324,0.013523,0.002678,0.000431,0.000588
55322000,0.0324,0.013523,0.002678,0.000431,0.000353
55323000,0.0324,0.013523,0.002678,0.000431,0.000588
55324000,0.0324,0.013523,0.002678,0.000431,0.000353
55325000,0.0324,0.013523,0.002678,0.000431,0.000588
55326000,0.0324,0.013523,0.002678,0.000431,0.000353
55327000,0.0324,0.013523,0.002678,0.000431,0.000588
55328000,0.0324,0.013523,0.002678,0.000431,0.000353
55329000,0.0324,0.013523,0.002678,0.000431,0.000588
55330000,0.0324,0.013523,0.002678,0.000431,0.000470
55331000,0.0324,0.013523,0.002678,0.000431,0.000353
55332000,0.0324,0.013523,0.002678,0.000431,0.000588
55333000,0.0324,0.013523,0.002678,0.000431,0.000588
55334000,0.0324,0.013523,0.002678,0.000431,0.000470
55335000,0.0324,0.013523,0.002678,0.000431,0.000588
55336000,0.0324,0.013523,0.002678,0.000431,0.000353
55337000,0.0324,0.013523,0.002678,0.000431,0.000588
55338000,0.0324,0.013523,0.002678,0.000431,0.000353
55339000,0.0324,0.013523,0.002678,0.000431,0.000588
55340000,0.0324,0.013523,0.002678,0.000431,0.000353
55341000,0.0324,0.013523,0.002678,0.000431,0.000588
55342000,0.0324,0.013523,0.002678,0.000431,0.000353
55343000,0.0324,0.013523,0.002678,0.000431,0.000588
55344000,0.0324,0.013523,0.002678,0.000431,0.000353
55345000,0.0324,0.013523,0.002678,0.000431,0.000588
55346000,0.0324,0.013523,0.002678,0.000431,0.000353
55347000,0.0324,0.013523,0.002678,0.000431,0.000588
55348000,0.0324,0.013523,0.002678,0.000431,0.000353
55349000,0.0324,0.013523,0.002678,0.000431,0.000588
55350000,0.0324,0.013523,0.002678,0.000431,0.000353
55351000,0.0324,0.013523,0.002678,0.000431,0.000588
55352000,0.0324,0.013523,0.002678,0.000431,0.000353
55353000,0.0324,0.013523,0.002678,0.000431,0.000588
55354000,0.0324,0.013523,0.002678,0.000431,0.000353
55355000,0.0324,0.013523,0.002678,0.000431,0.000588
55356000,0.0324,0.013523,0.002678,0.000431,0.000353
55357000,0.0324,0.013523,0.002678,0.000431,0.000470
55358000,0.0324,0.013523,0.002678,0.000431,0.000470
55359000,0.0324,0.013523,0.002678,0.000431,0.000470
55360000,0.0324,0.013523,0.002678,0.000431,0.000470
55361000,0.0324,0.013523,0.002678,0.000431,0.000470
55362000,0.0324,0.013523,0.002678,0.000431,0.000470
55363000,0.0324,0.013523,0.002678,0.000431,0.000353
55364000,0.0324,0.013523,0.002678,0.000431,0.000588
55365000,0.0324,0.013523,0.002678,0.000431,0.000353
55366000,0.0324,0.013523,0.002678,0.000431,0.000705
55367000,0.0324,0.013523,0.002678,0.000431,0.000353
55368000,0.0324,0.013523,0.002678,0.000431,0.000588
55369000,0.0324,0.013523,0.002678,0.000431,0.000353
55370000,0.0324,0.013523,0.002678,0.000431,0.000705
55371000,0.0324,0.013523,0.002678,0.000431,0.000353
55372000,0.0324,0.013523,0.002678,0.000431,0.000705
55373000,0.0324,0.013523,0.002678,0.000431,0.000353
55374000,0.0324,0.013523,0.002678,0.000431,0.000588
55375000,0.0324,0.013523,0.002678,0.000431,0.000353
55376000,0.0324,0.013523,0.002678,0.000431,0.000588
55377000,0.0324,0.013523,0.002678,0.000431,0.000353
55378000,0.0324,0.013523,0.002678,0.000431,0.000705
55379000,0.0324,0.013523,0.002678,0.000431,0.000353
55380000,0.0324,0.013523,0.002678,0.000431,0.000588
55381000,0.0324,0.013523,0.002678,0.000431,0.000588
55382000,0.0324,0.013523,0.002678,0.000431,0.000353
55383000,0.0324,0.013523,0.002678,0.000431,0.000470
55384000,0.0324,0.013523,0.002678,0.000431,0.000470
55385000,0.0324,0.013523,0.002678,0.000431,0.000470
55386000,0.0324,0.013523,0.002678,0.000431,0.000588
55387000,0.0324,0.013523,0.002678,0.000431,0.000588
55388000,0.0324,0.013523,0.002678,0.000431,0.000470
55389000,0.0324,0.013523,0.002678,0.000431,0.000705
55390000,0.0324,0.013523,0.002678,0.000431,0.000353
55391000,0.0324,0.013523,0.002678,0.000431,0.000705
55392000,0.0324,0.013523,0.002678,0.000431,0.000470
55393000,0.0324,0.013523,0.002678,0.000431,0.000470
55394000,0.0324,0.013523,0.002678,0.000431,0.000470
55395000,0.0324,0.013523,0.002678,0.000431,0.000470
55396000,0.0324,0.013523,0.002678,0.000431,0.000470
55397000,0.0324,0.013523,0.002678,0.000431,0.000470
55398000,0.0324,0.013523,0.002678,0.000431,0.000470
55399000,0.0324,0.013523,0.002678,0.000431,0.000588
55400000,0.0324,0.013523,0.002678,0.000431,0.000353
55401000,0.0324,0.013523,0.002678,0.000431,0.000588
55402000,0.0324,0.013523,0.002678,0.000431,0.000353
55403000,0.0324,0.013523,0.002678,0.000431,0.000470
55404000,0.0324,0.013523,0.002678,0.000431,0.000470
55405000,0.0324,0.013523,0.002678,0.000431,0.000470
55406000,0.0324,0.013523,0.002678,0.000431,0.000470
55407000,0.0324,0.013523,0.002678,0.000431,0.000588
55408000,0.0324,0.013523,0.002678,0.000431,0.000353
55409000,0.0324,0.013523,0.002678,0.000431,0.000705
55410000,0.0324,0.013523,0.002678,0.000431,0.000588
55411000,0.0324,0.013523,0.002678,0.000431,0.000470
55412000,0.0324,0.013523,0.002678,0.000431,0.000705
55413000,0.0324,0.013523,0.002678,0.000431,0.000353
55414000,0.0324,0.013523,0.002678,0.000431,0.000705
55415000,0.0324,0.013523,0.002678,0.000431,0.000470
55416000,0.0324,0.013523,0.002678,0.000431,0.000470
55417000,0.0324,0.013523,0.002678,0.000431,0.000470
55418000,0.0324,0.013523,0.002678,0.000431,0.000470
55419000,0.0324,0.013523,0.002678,0.000431,0.000470
55420000,0.0324,0.013523,0.002678,0.000431,0.000588
55421000,0.0324,0.013523,0.002678,0.000431,0.000353
55422000,0.0324,0.013523,0.002678,0.000431,0.000705
55423000,0.0324,0.013523,0.002678,0.000431,0.000470
55424000,0.0324,0.013523,0.002678,0.000431,0.000353
55425000,0.0324,0.013523,0.002678,0.000431,0.000588
55426000,0.0324,0.013523,0.002678,0.000431,0.000470
55427000,0.0324,0.013523,0.002678,0.000431,0.000353
55428000,0.0324,0.013523,0.002678,0.000431,0.000588
55429000,0.0324,0.013523,0.002678,0.000431,0.000353
55430000,0.0324,0.013523,0.002678,0.000431,0.000588
55431000,0.0324,0.013523,0.002678,0.000431,0.000353
55432000,0.0324,0.013523,0.002678,0.000431,0.000705
55433000,0.0324,0.013523,0.002678,0.000431,0.000353
55434000,0.0324,0.013523,0.002678,0.000431,0.000705
55435000,0.0324,0.013523,0.002678,0.000431,0.000470
55436000,0.0324,0.013523,0.002678,0.000431,0.000470
55437000,0.0324,0.013523,0.002678,0.000431,0.000470
55438000,0.0324,0.013523,0.002678,0.000431,0.000470
55439000,0.0324,0.013523,0.002678,0.000431,0.000470
55440000,0.0324,0.013523,0.002678,0.000431,0.000470
55441000,0.0324,0.013523,0.002678,0.000431,0.000470
55442000,0.0324,0.013523,0.002678,0.000431,0.000470
55443000,0.0324,0.013523,0.002678,0.000431,0.000470
55444000,0.0324,0.013523,0.002678,0.000431,0.000470
55445000,0.0324,0.013523,0.002678,0.000431,0.000470
55446000,0.0324,0.013523,0.002678,0.000431,0.000470
55447000,0.0324,0.013523,0.002678,0.000431,0.000470
55448000,0.0324,0.013523,0.002678,0.000431,0.000588
55449000,0.0324,0.013523,0.002678,0.000431,0.000470
55450000,0.0324,0.013523,0.002678,0.000431,0.000705
55451000,0.0324,0.013523,0.002678,0.000431,0.000470
55452000,0.0324,0.013523,0.002678,0.000431,0.000588
55453000,0.0324,0.013523,0.002678,0.000431,0.000353
55454000,0.0324,0.013523,0.002678,0.000431,0.000705
55455000,0.0324,0.013523,0.002678,0.000431,0.000353
55456000,0.0324,0.013523,0.002678,0.000431,0.000705
55457000,0.0324,0.013523,0.002678,0.000431,0.000470
55458000,0.0324,0.013523,0.002678,0.000431,0.000470
55459000,0.0324,0.013523,0.002678,0.000431,0.000470
55460000,0.0324,0.013523,0.002678,0.000431,0.000470
55461000,0.0324,0.013523,0.002678,0.000431,0.000470
55462000,0.0324,0.013523,0.002678,0.000431,0.000470
55463000,0.0324,0.013523,0.002678,0.000431,0.000470
55464000,0.0324,0.013523,0.002678,0.000431,0.000470
55465000,0.0324,0.013523,0.002678,0.000431,0.000470
55466000,0.0324,0.013523,0.002678,0.000431,0.000470
55467000,0.0324,0.013523,0.002678,0.000431,0.000470
55468000,0.0324,0.013523,0.002678,0.000431,0.000470
55469000,0.0324,0.013523,0.002678,0.000431,0.000470
55470000,0.0324,0.013523,0.002678,0.000431,0.000470
55471000,0.0324,0.013523,0.002678,0.000431,0.000470
55472000,0.0324,0.013523,0.002678,0.000431,0.000470
55473000,0.0324,0.013523,0.002678,0.000431,0.000470
55474000,0.0324,0.013523,0.002678,0.000431,0.000470
55475000,0.0324,0.013523,0.002678,0.000431,0.000470
55476000,0.0324,0.013523,0.002678,0.000431,0.000470
55477000,0.0324,0.013523,0.002678,0.000431,0.000470
55478000,0.0324,0.013523,0.002678,0.000431,0.000470
55479000,0.0324,0.013523,0.002678,0.000431,0.000353
55480000,0.0324,0.013523,0.002678,0.000431,0.000588
55481000,0.0324,0.013523,0.002678,0.000431,0.000353
55482000,0.0324,0.013523,0.002678,0.000431,0.000588
55483000,0.0324,0.013523,0.002678,0.000431,0.000353
55484000,0.0324,0.013523,0.002678,0.000431,0.000588
55485000,0.0324,0.013523,0.002678,0.000431,0.000353
55486000,0.0324,0.013523,0.002678,0.000431,0.000588
55487000,0.0324,0.013523,0.002678,0.000431,0.000353
55488000,0.0324,0.013523,0.002678,0.000431,0.000588
55489000,0.0324,0.013523,0.002678,0.000431,0.000353
55490000,0.0324,0.013523,0.002678,0.000431,0.000588
55491000,0.0324,0.013523,0.002678,0.000431,0.000353
55492000,0.0324,0.013523,0.002678,0.000431,0.000588
55493000,0.0324,0.013523,0.002678,0.000431,0.000470
55494000,0.0324,0.013523,0.002678,0.000431,0.000588
55495000,0.0324,0.013523,0.002678,0.000431,0.000470
55496000,0.0324,0.013523,0.002678,0.000431,0.000705
55497000,0.0324,0.013523,0.002678,0.000431,0.000353
55498000,0.0324,0.013523,0.002678,0.000431,0.000588
55499000,0.0324,0.013523,0.002678,0.000431,0.000353
55500000,0.0324,0.013523,0.002678,0.000431,0.000588
55501000,0.0324,0.013523,0.002678,0.000431,0.000353
55502000,0.0324,0.013523,0.002678,0.000431,0.000588
55503000,0.0324,0.013523,0.002678,0.000431,0.000470
55504000,0.0324,0.013523,0.002678,0.000431,0.000705
55505000,0.0324,0.013523,0.002678,0.000431,0.000353
55506000,0.0324,0.013523,0.002678,0.000431,0.000588
55507000,0.0324,0.013523,0.002678,0.000431,0.000353
55508000,0.0324,0.013523,0.002678,0.000431,0.000588
55509000,0.0324,0.013523,0.002678,0.000431,0.000353
55510000,0.0324,0.013523,0.002678,0.000431,0.000588
55511000,0.0324,0.013523,0.002678,0.000431,0.000353
55512000,0.0324,0.013523,0.002678,0.000431,0.000588
55513000,0.0324,0.013523,0.002678,0.000431,0.000353
55514000,0.0324,0.013523,0.002678,0.000431,0.000588
55515000,0.0324,0.013523,0.002678,0.000431,0.000353
55516000,0.0324,0.013523,0.002678,0.000431,0.000588
55517000,0.0324,0.013523,0.002678,0.000431,0.000353
55518000,0.0324,0.013523,0.002678,0.000431,0.000705
55519000,0.0324,0.013523,0.002678,0.000431,0.000588
55520000,0.0324,0.013523,0.002678,0.000431,0.000470
55521000,0.0324,0.013523,0.002678,0.000431,0.000705
55522000,0.0324,0.013523,0.002678,0.000431,0.000353
55523000,0.0324,0.013523,0.002678,0.000431,0.000705
55524000,0.0324,0.013523,0.002678,0.000431,0.000353
55525000,0.0324,0.013523,0.002678,0.000431,0.000588
55526000,0.0324,0.013523,0.002678,0.000431,0.000470
55527000,0.0324,0.013523,0.002678,0.000431,0.000470
55528000,0.0324,0.013523,0.002678,0.000431,0.000470
55529000,0.0324,0.013523,0.002678,0.000431,0.000470
55530000,0.0324,0.013523,0.002678,0.000431,0.000470
55531000,0.0324,0.013523,0.002678,0.000431,0.000470
55532000,0.0324,0.013523,0.002678,0.000431,0.000470
55533000,0.0324,0.013523,0.002678,0.000431,0.000470
55534000,0.0324,0.013523,0.002678,0.000431,0.000353
55535000,0.0324,0.013523,0.002678,0.000431,0.000588
55536000,0.0324,0.013523,0.002678,0.000431,0.000470
55537000,0.0324,0.013523,0.002678,0.000431,0.000470
55538000,0.0324,0.013523,0.002678,0.000431,0.000470
55539000,0.0324,0.013523,0.002678,0.000431,0.000470
55540000,0.0324,0.013523,0.002678,0.000431,0.000470
55541000,0.0324,0.013523,0.002678,0.000431,0.000470
55542000,0.0324,0.013523,0.002678,0.000431,0.000470
55543000,0.0324,0.013523,0.002678,0.000431,0.000588
55544000,0.0324,0.013523,0.002678,0.000431,0.000470
55545000,0.0324,0.013523,0.002678,0.000431,0.000588
55546000,0.0324,0.013523,0.002678,0.000431,0.000353
55547000,0.0324,0.013523,0.002678,0.000431,0.000588
55548000,0.0324,0.013523,0.002678,0.000431,0.000353
55549000,0.0324,0.013523,0.002678,0.000431,0.000588
55550000,0.0324,0.013523,0.002678,0.000431,0.000353
55551000,0.0324,0.013523,0.002678,0.000431,0.000470
55552000,0.0324,0.013523,0.002678,0.000431,0.000470
55553000,0.0324,0.013523,0.002678,0.000431,0.000470
55554000,0.0324,0.013523,0.002678,0.000431,0.000470
55555000,0.0324,0.013523,0.002678,0.000431,0.000470
55556000,0.0324,0.013523,0.002678,0.000431,0.000470
55557000,0.0324,0.013523,0.002678,0.000431,0.000353
55558000,0.0324,0.013523,0.002678,0.000431,0.000588
55559000,0.0324,0.013523,0.002678,0.000431,0.000353
55560000,0.0324,0.013523,0.002678,0.000431,0.000588
55561000,0.0324,0.013523,0.002678,0.000431,0.000353
55562000,0.0324,0.013523,0.002678,0.000431,0.000588
55563000,0.0324,0.013523,0.002678,0.000431,0.000353
55564000,0.0324,0.013523,0.002678,0.000431,0.000588
55565000,0.0324,0.013523,0.002678,0.000431,0.000353
55566000,0.0324,0.013523,0.002678,0.000431,0.000705
55567000,0.0324,0.013523,0.002678,0.000431,0.000588
55568000,0.0324,0.013523,0.002678,0.000431,0.000470
55569000,0.0324,0.013523,0.002678,0.000431,0.000705
55570000,0.0324,0.013523,0.002678,0.000431,0.000353
55571000,0.0324,0.013523,0.002678,0.000431,0.000588
55572000,0.0324,0.013523,0.002678,0.000431,0.000470
55573000,0.0324,0.013523,0.002678,0.000431,0.000588
55574000,0.0324,0.013523,0.002678,0.000431,0.000588
55575000,0.0324,0.013523,0.002678,0.000431,0.000470
55576000,0.0324,0.013523,0.002678,0.000431,0.000353
55577000,0.0324,0.013523,0.002678,0.000431,0.000588
55578000,0.0324,0.013523,0.002678,0.000431,0.000353
55579000,0.0324,0.013523,0.002678,0.000431,0.000588
55580000,0.0324,0.013523,0.002678,0.000431,0.000353
55581000,0.0324,0.013523,0.002678,0.000431,0.000588
55582000,0.0324,0.013523,0.002678,0.000431,0.000353
55583000,0.0324,0.013523,0.002678,0.000431,0.000588
55584000,0.0324,0.013523,0.002678,0.000431,0.000353
55585000,0.0324,0.013523,0.002678,0.000431,0.000588
55586000,0.0324,0.013523,0.002678,0.000431,0.000353
55587000,0.0324,0.013523,0.002678,0.000431,0.000705
55588000,0.0324,0.013523,0.002678,0.000431,0.000470
55589000,0.0324,0.013523,0.002678,0.000431,0.000470
55590000,0.0324,0.013523,0.002678,0.000431,0.000470
55591000,0.0324,0.013523,0.002678,0.000431,0.000470
55592000,0.0324,0.013523,0.002678,0.000431,0.000470
55593000,0.0324,0.013523,0.002678,0.000431,0.000470
55594000,0.0324,0.013523,0.002678,0.000431,0.000470
55595000,0.0324,0.013523,0.002678,0.000431,0.000588
55596000,0.0324,0.013523,0.002678,0.000431,0.000353
55597000,0.0324,0.013523,0.002678,0.000431,0.000588
55598000,0.0324,0.013523,0.002678,0.000431,0.000470
55599000,0.0324,0.013523,0.002678,0.000431,0.000588
55600000,0.0324,0.013523,0.002678,0.000431,0.000588
55601000,0.0324,0.013523,0.002678,0.000431,0.000470
55602000,0.0324,0.013523,0.002678,0.000431,0.000588
55603000,0.0324,0.013523,0.002678,0.000431,0.000353
55604000,0.0324,0.013523,0.002678,0.000431,0.000588
55605000,0.0324,0.013523,0.002678,0.000431,0.000353
55606000,0.0324,0.013523,0.002678,0.000431,0.000588
55607000,0.0324,0.013523,0.002678,0.000431,0.000353
55608000,0.0324,0.013523,0.002678,0.000431,0.000588
55609000,0.0324,0.013523,0.002678,0.000431,0.000353
55610000,0.0324,0.013523,0.002678,0.000431,0.000588
55611000,0.0324,0.013523,0.002678,0.000431,0.000353
55612000,0.0324,0.013523,0.002678,0.000431,0.000588
55613000,0.0324,0.013523,0.002678,0.000431,0.000353
55614000,0.0324,0.013523,0.002678,0.000431,0.000588
55615000,0.0324,0.013523,0.002678,0.000431,0.000353
55616000,0.0324,0.013523,0.002678,0.000431,0.000588
55617000,0.0324,0.013523,0.002678,0.000431,0.000353
55618000,0.0324,0.013523,0.002678,0.000431,0.000588
55619000,0.0324,0.013523,0.002678,0.000431,0.000353
55620000,0.0324,0.013523,0.002678,0.000431,0.000588
55621000,0.0324,0.013523,0.002678,0.000431,0.000470
55622000,0.0324,0.013523,0.002678,0.000431,0.000353
55623000,0.0324,0.013523,0.002678,0.000431,0.000588
55624000,0.0324,0.013523,0.002678,0.000431,0.000588
55625000,0.0324,0.013523,0.002678,0.000431,0.000470
55626000,0.0324,0.013523,0.002678,0.000431,0.000705
55627000,0.0324,0.013523,0.002678,0.000431,0.000353
55628000,0.0324,0.013523,0.002678,0.000431,0.000705
55629000,0.0324,0.013523,0.002678,0.000431,0.000588
55630000,0.0324,0.013523,0.002678,0.000431,0.000470
55631000,0.0324,0.013523,0.002678,0.000431,0.000705
55632000,0.0324,0.013523,0.002678,0.000431,0.000353
55633000,0.0324,0.013523,0.002678,0.000431,0.000588
55634000,0.0324,0.013523,0.002678,0.000431,0.000588
55635000,0.0324,0.013523,0.002678,0.000431,0.000353
55636000,0.0324,0.013523,0.002678,0.000431,0.000470
55637000,0.0324,0.013523,0.002678,0.000431,0.000588
55638000,0.0324,0.013523,0.002678,0.000431,0.000588
55639000,0.0324,0.013523,0.002678,0.000431,0.000470
55640000,0.0324,0.013523,0.002678,0.000431,0.000588
55641000,0.0324,0.013523,0.002678,0.000431,0.000353
55642000,0.0324,0.013523,0.002678,0.000431,0.000588
55643000,0.0324,0.013523,0.002678,0.000431,0.000353
55644000,0.0324,0.013523,0.002678,0.000431,0.000588
55645000,0.0324,0.013523,0.002678,0.000431,0.000353
55646000,0.0324,0.013523,0.002678,0.000431,0.000588
55647000,0.0324,0.013523,0.002678,0.000431,0.000353
55648000,0.0324,0.013523,0.002678,0.000431,0.000588
55649000,0.0324,0.013523,0.002678,0.000431,0.000353
55650000,0.0324,0.013523,0.002678,0.000431,0.000588
55651000,0.0324,0.013523,0.002678,0.000431,0.000353
55652000,0.0324,0.013523,0.002678,0.000431,0.000588
55653000,0.0324,0.013523,0.002678,0.000431,0.000353
55654000,0.0324,0.013523,0.002678,0.000431,0.000588
55655000,0.0324,0.013523,0.002678,0.000431,0.000353
55656000,0.0324,0.013523,0.002678,0.000431,0.000705
55657000,0.0324,0.013523,0.002678,0.000431,0.000470
55658000,0.0324,0.013523,0.002678,0.000431,0.000705
55659000,0.0324,0.013523,0.002678,0.000431,0.000353
55660000,0.0324,0.013523,0.002678,0.000431,0.000588
55661000,0.0324,0.013523,0.002678,0.000431,0.000353
55662000,0.0324,0.013523,0.002678,0.000431,0.000470
55663000,0.0324,0.013523,0.002678,0.000431,0.000353
55664000,0.0324,0.013523,0.002678,0.000431,0.000588
55665000,0.0324,0.013523,0.002678,0.000431,0.000353
55666000,0.0324,0.013523,0.002678,0.000431,0.000588
55667000,0.0324,0.013523,0.002678,0.000431,0.000470
55668000,0.0324,0.013523,0.002678,0.000431,0.000470
55669000,0.0324,0.013523,0.002678,0.000431,0.000470
55670000,0.0324,0.013523,0.002678,0.000431,0.000470
55671000,0.0324,0.013523,0.002678,0.000431,0.000353
55672000,0.0324,0.013523,0.002678,0.000431,0.000588
55673000,0.0324,0.013523,0.002678,0.000431,0.000470
55674000,0.0324,0.013523,0.002678,0.000431,0.000588
55675000,0.0324,0.013523,0.002678,0.000431,0.000470
55676000,0.0324,0.013523,0.002678,0.000431,0.000588
55677000,0.0324,0.013523,0.002678,0.000431,0.000353
55678000,0.0324,0.013523,0.002678,0.000431,0.000588
55679000,0.0324,0.013523,0.002678,0.000431,0.000353
55680000,0.0324,0.013523,0.002678,0.000431,0.000588
55681000,0.0324,0.013523,0.002678,0.000431,0.000353
55682000,0.0324,0.013523,0.002678,0.000431,0.000588
55683000,0.0324,0.013523,0.002678,0.000431,0.000353
55684000,0.0324,0.013523,0.002678,0.000431,0.000588
55685000,0.0324,0.013523,0.002678,0.000431,0.000353
55686000,0.0324,0.013523,0.002678,0.000431,0.000705
55687000,0.0324,0.013523,0.002678,0.000431,0.000353
55688000,0.0324,0.013523,0.002678,0.000431,0.000588
55689000,0.0324,0.013523,0.002678,0.000431,0.000470
55690000,0.0324,0.013523,0.002678,0.000431,0.000470
55691000,0.0324,0.013523,0.002678,0.000431,0.000470
55692000,0.0324,0.013523,0.002678,0.000431,0.000353
55693000,0.0324,0.013523,0.002678,0.000431,0.000588
55694000,0.0324,0.013523,0.002678,0.000431,0.000353
55695000,0.0324,0.013523,0.002678,0.000431,0.000588
55696000,0.0324,0.013523,0.002678,0.000431,0.000353
55697000,0.0324,0.013523,0.002678,0.000431,0.000588
55698000,0.0324,0.013523,0.002678,0.000431,0.000353
55699000,0.0324,0.013523,0.002678,0.000431,0.000588
55700000,0.0324,0.013523,0.002678,0.000431,0.000353
55701000,0.0324,0.013523,0.002678,0.000431,0.000588
55702000,0.0324,0.013523,0.002678,0.000431,0.000353
55703000,0.0324,0.013523,0.002678,0.000431,0.000470
55704000,0.0324,0.013523,0.002678,0.000431,0.000470
55705000,0.0324,0.013523,0.002678,0.000431,0.000470
55706000,0.0324,0.013523,0.002678,0.000431,0.000470
55707000,0.0324,0.013523,0.002678,0.000431,0.000470
55708000,0.0324,0.013523,0.002678,0.000431,0.000470
55709000,0.0324,0.013523,0.002678,0.000431,0.000470
55710000,0.0324,0.013523,0.002678,0.000431,0.000470
55711000,0.0324,0.013523,0.002678,0.000431,0.000588
55712000,0.0324,0.013523,0.002678,0.000431,0.000353
55713000,0.0324,0.013523,0.002678,0.000431,0.000705
55714000,0.0324,0.013523,0.002678,0.000431,0.000470
55715000,0.0324,0.013523,0.002678,0.000431,0.000470
55716000,0.0324,0.013523,0.002678,0.000431,0.000470
55717000,0.0324,0.013523,0.002678,0.000431,0.000470
55718000,0.0324,0.013523,0.002678,0.000431,0.000353
55719000,0.0324,0.013523,0.002678,0.000431,0.000588
55720000,0.0324,0.013523,0.002678,0.000431,0.000353
55721000,0.0324,0.013523,0.002678,0.000431,0.000588
55722000,0.0324,0.013523,0.002678,0.000431,0.000353
55723000,0.0324,0.013523,0.002678,0.000431,0.000588
55724000,0.0324,0.013523,0.002678,0.000431,0.000353
55725000,0.0324,0.013523,0.002678,0.000431,0.000588
55726000,0.0324,0.013523,0.002678,0.000431,0.000353
55727000,0.0324,0.013523,0.002678,0.000431,0.000588
55728000,0.0324,0.013523,0.002678,0.000431,0.000235
55729000,0.0324,0.013523,0.002678,0.000431,0.000705
55730000,0.0324,0.013523,0.002678,0.000431,0.000353
55731000,0.0324,0.013523,0.002678,0.000431,0.000470
55732000,0.0324,0.013523,0.002678,0.000431,0.000353
55733000,0.0324,0.013523,0.002678,0.000431,0.000588
55734000,0.0324,0.013523,0.002678,0.000431,0.000470
55735000,0.0324,0.013523,0.002678,0.000431,0.000588
55736000,0.0324,0.013523,0.002678,0.000431,0.000353
55737000,0.0324,0.013523,0.002678,0.000431,0.000470
55738000,0.0324,0.013523,0.002678,0.000431,0.000470
55739000,0.0324,0.013523,0.002678,0.000431,0.000705
55740000,0.0324,0.013523,0.002678,0.000431,0.000353
55741000,0.0324,0.013523,0.002678,0.000431,0.000588
55742000,0.0324,0.013523,0.002678,0.000431,0.000470
55743000,0.0324,0.013523,0.002678,0.000431,0.000588
55744000,0.0324,0.013523,0.002678,0.000431,0.000470
55745000,0.0324,0.013523,0.002678,0.000431,0.000588
55746000,0.0324,0.013523,0.002678,0.000431,0.000353
55747000,0.0324,0.013523,0.002678,0.000431,0.000470
55748000,0.0324,0.013523,0.002678,0.000431,0.000470
55749000,0.0324,0.013523,0.002678,0.000431,0.000470
55750000,0.0324,0.013523,0.002678,0.000431,0.000470
55751000,0.0324,0.013523,0.002678,0.000431,0.000470
55752000,0.0324,0.013523,0.002678,0.000431,0.000470
55753000,0.0324,0.013523,0.002678,0.000431,0.000588
55754000,0.0324,0.013523,0.002678,0.000431,0.000353
55755000,0.0324,0.013523,0.002678,0.000431,0.000470
55756000,0.0324,0.013523,0.002678,0.000431,0.000470
55757000,0.0324,0.013523,0.002678,0.000431,0.000705
55758000,0.0324,0.013523,0.002678,0.000431,0.000588
55759000,0.0324,0.013523,0.002678,0.000431,0.000470
55760000,0.0324,0.013523,0.002678,0.000431,0.000705
55761000,0.0324,0.013523,0.002678,0.000431,0.000353
55762000,0.0324,0.013523,0.002678,0.000431,0.000588
55763000,0.0324,0.013523,0.002678,0.000431,0.000353
55764000,0.0324,0.013523,0.002678,0.000431,0.000588
55765000,0.0324,0.013523,0.002678,0.000431,0.000353
55766000,0.0324,0.013523,0.002678,0.000431,0.000470
55767000,0.0324,0.013523,0.002678,0.000431,0.000470
55768000,0.0324,0.013523,0.002678,0.000431,0.000470
55769000,0.0324,0.013523,0.002678,0.000431,0.000470
55770000,0.0324,0.013523,0.002678,0.000431,0.000470
55771000,0.0324,0.013523,0.002678,0.000431,0.000470
55772000,0.0324,0.013523,0.002678,0.000431,0.000470
55773000,0.0324,0.013523,0.002678,0.000431,0.000353
55774000,0.0324,0.013523,0.002678,0.000431,0.000588
55775000,0.0324,0.013523,0.002678,0.000431,0.000470
55776000,0.0324,0.013523,0.002678,0.000431,0.000470
55777000,0.0324,0.013523,0.002678,0.000431,0.000470
55778000,0.0324,0.013523,0.002678,0.000431,0.000470
55779000,0.0324,0.013523,0.002678,0.000431,0.000470
55780000,0.0324,0.013523,0.002678,0.000431,0.000588
55781000,0.0324,0.013523,0.002678,0.000431,0.000470
55782000,0.0324,0.013523,0.002678,0.000431,0.000588
55783000,0.0324,0.013523,0.002678,0.000431,0.000353
55784000,0.0324,0.013523,0.002678,0.000431,0.000588
55785000,0.0324,0.013523,0.002678,0.000431,0.000353
55786000,0.0324,0.013523,0.002678,0.000431,0.000588
55787000,0.0324,0.013523,0.002678,0.000431,0.000353
55788000,0.0324,0.013523,0.002678,0.000431,0.000705
55789000,0.0324,0.013523,0.002678,0.000431,0.000470
55790000,0.0324,0.013523,0.002678,0.000431,0.000705
55791000,0.0324,0.013523,0.002678,0.000431,0.000235
55792000,0.0324,0.013523,0.002678,0.000431,0.000705
55793000,0.0324,0.013523,0.002678,0.000431,0.000353
55794000,0.0324,0.013523,0.002678,0.000431,0.000588
55795000,0.0324,0.013523,0.002678,0.000431,0.000470
55796000,0.0324,0.013523,0.002678,0.000431,0.000588
55797000,0.0324,0.013523,0.002678,0.000431,0.000353
55798000,0.0324,0.013523,0.002678,0.000431,0.000588
55799000,0.0324,0.013523,0.002678,0.000431,0.000235
55800000,0.0324,0.013523,0.002678,0.000431,0.000705
55801000,0.0324,0.013523,0.002678,0.000431,0.000235
55802000,0.0324,0.013523,0.002678,0.000431,0.000588
55803000,0.0324,0.013523,0.002678,0.000431,0.000470
55804000,0.0324,0.013523,0.002678,0.000431,0.000705
55805000,0.0324,0.013523,0.002678,0.000431,0.000353
55806000,0.0324,0.013523,0.002678,0.000431,0.000705
55807000,0.0324,0.013523,0.002678,0.000431,0.000588
55808000,0.0324,0.013523,0.002678,0.000431,0.000470
55809000,0.0324,0.013523,0.002678,0.000431,0.000705
55810000,0.0324,0.013523,0.002678,0.000431,0.000353
55811000,0.0324,0.013523,0.002678,0.000431,0.000470
55812000,0.0324,0.013523,0.002678,0.000431,0.000470
55813000,0.0324,0.013523,0.002678,0.000431,0.000470
55814000,0.0324,0.013523,0.002678,0.000431,0.000470
55815000,0.0324,0.013523,0.002678,0.000431,0.000470
55816000,0.0324,0.013523,0.002678,0.000431,0.000470
55817000,0.0324,0.013523,0.002678,0.000431,0.000588
55818000,0.0324,0.013523,0.002678,0.000431,0.000470
55819000,0.0324,0.013523,0.002678,0.000431,0.000588
55820000,0.0324,0.013523,0.002678,0.000431,0.000353
55821000,0.0324,0.013523,0.002678,0.000431,0.000588
55822000,0.0324,0.013523,0.002678,0.000431,0.000353
55823000,0.0324,0.013523,0.002678,0.000431,0.000588
55824000,0.0324,0.013523,0.002678,0.000431,0.000353
55825000,0.0324,0.013523,0.002678,0.000431,0.000588
55826000,0.0324,0.013523,0.002678,0.000431,0.000353
55827000,0.0324,0.013523,0.002678,0.000431,0.000588
55828000,0.0324,0.013523,0.002678,0.000431,0.000353
55829000,0.0324,0.013523,0.002678,0.000431,0.000588
55830000,0.0324,0.013523,0.002678,0.000431,0.000353
55831000,0.0324,0.013523,0.002678,0.000431,0.000588
55832000,0.0324,0.013523,0.002678,0.000431,0.000353
55833000,0.0324,0.013523,0.002678,0.000431,0.000588
55834000,0.0324,0.013523,0.002678,0.000431,0.000353
55835000,0.0324,0.013523,0.002678,0.000431,0.000470
55836000,0.0324,0.013523,0.002678,0.000431,0.000470
55837000,0.0324,0.013523,0.002678,0.000431,0.000470
55838000,0.0324,0.013523,0.002678,0.000431,0.000470
55839000,0.0324,0.013523,0.002678,0.000431,0.000470
55840000,0.0324,0.013523,0.002678,0.000431,0.000705
55841000,0.0324,0.013523,0.002678,0.000431,0.000353
55842000,0.0324,0.013523,0.002678,0.000431,0.000588
55843000,0.0324,0.013523,0.002678,0.000431,0.000353
55844000,0.0324,0.013523,0.002678,0.000431,0.000588
55845000,0.0324,0.013523,0.002678,0.000431,0.000353
55846000,0.0324,0.013523,0.002678,0.000431,0.000588
55847000,0.0324,0.013523,0.002678,0.000431,0.000353
55848000,0.0324,0.013523,0.002678,0.000431,0.000588
55849000,0.0324,0.013523,0.002678,0.000431,0.000353
55850000,0.0324,0.013523,0.002678,0.000431,0.000588
55851000,0.0324,0.013523,0.002678,0.000431,0.000353
55852000,0.0324,0.013523,0.002678,0.000431,0.000588
55853000,0.0324,0.013523,0.002678,0.000431,0.000353
55854000,0.0324,0.013523,0.002678,0.000431,0.000588
55855000,0.0324,0.013523,0.002678,0.000431,0.000353
55856000,0.0324,0.013523,0.002678,0.000431,0.000588
55857000,0.0324,0.013523,0.002678,0.000431,0.000353
55858000,0.0324,0.013523,0.002678,0.000431,0.000588
55859000,0.0324,0.013523,0.002678,0.000431,0.000353
55860000,0.0324,0.013523,0.002678,0.000431,0.000470
55861000,0.0324,0.013523,0.002678,0.000431,0.000470
55862000,0.0324,0.013523,0.002678,0.000431,0.000470
55863000,0.0324,0.013523,0.002678,0.000431,0.000470
55864000,0.0324,0.013523,0.002678,0.000431,0.000588
55865000,0.0324,0.013523,0.002678,0.000431,0.000353
55866000,0.0324,0.013523,0.002678,0.000431,0.000588
55867000,0.0324,0.013523,0.002678,0.000431,0.000353
55868000,0.0324,0.013523,0.002678,0.000431,0.000470
55869000,0.0324,0.013523,0.002678,0.000431,0.000470
55870000,0.0324,0.013523,0.002678,0.000431,0.000470
55871000,0.0324,0.013523,0.002678,0.000431,0.000470
55872000,0.0324,0.013523,0.002678,0.000431,0.000470
55873000,0.0324,0.013523,0.002678,0.000431,0.000470
55874000,0.0324,0.013523,0.002678,0.000431,0.000470
55875000,0.0324,0.013523,0.002678,0.000431,0.000470
55876000,0.0324,0.013523,0.002678,0.000431,0.000470
55877000,0.0324,0.013523,0.002678,0.000431,0.000353
55878000,0.0324,0.013523,0.002678,0.000431,0.000588
55879000,0.0324,0.013523,0.002678,0.000431,0.000353
55880000,0.0324,0.013523,0.002678,0.000431,0.000588
55881000,0.0324,0.013523,0.002678,0.000431,0.000353
55882000,0.0324,0.013523,0.002678,0.000431,0.000588
55883000,0.0324,0.013523,0.002678,0.000431,0.000353
55884000,0.0324,0.013523,0.002678,0.000431,0.000588
55885000,0.0324,0.013523,0.002678,0.000431,0.000353
55886000,0.0324,0.013523,0.002678,0.000431,0.000588
55887000,0.0324,0.013523,0.002678,0.000431,0.000353
55888000,0.0324,0.013523,0.002678,0.000431,0.000588
55889000,0.0324,0.013523,0.002678,0.000431,0.000353
55890000,0.0324,0.013523,0.002678,0.000431,0.000588
55891000,0.0324,0.013523,0.002678,0.000431,0.000353
55892000,0.0324,0.013523,0.002678,0.000431,0.000588
55893000,0.0324,0.013523,0.002678,0.000431,0.000353
55894000,0.0324,0.013523,0.002678,0.000431,0.000470
55895000,0.0324,0.013523,0.002678,0.000431,0.000470
55896000,0.0324,0.013523,0.002678,0.000431,0.000470
55897000,0.0324,0.013523,0.002678,0.000431,0.000705
55898000,0.0324,0.013523,0.002678,0.000431,0.000470
55899000,0.0324,0.013523,0.002678,0.000431,0.000470
55900000,0.0324,0.013523,0.002678,0.000431,0.000353
55901000,0.0324,0.013523,0.002678,0.000431,0.000588
55902000,0.0324,0.013523,0.002678,0.000431,0.000353
55903000,0.0324,0.013523,0.002678,0.000431,0.000588
55904000,0.0324,0.013523,0.002678,0.000431,0.000353
55905000,0.0324,0.013523,0.002678,0.000431,0.000588
55906000,0.0324,0.013523,0.002678,0.000431,0.000353
55907000,0.0324,0.013523,0.002678,0.000431,0.000588
55908000,0.0324,0.013523,0.002678,0.000431,0.000353
55909000,0.0324,0.013523,0.002678,0.000431,0.000470
55910000,0.0324,0.013523,0.002678,0.000431,0.000470
55911000,0.0324,0.013523,0.002678,0.000431,0.000470
55912000,0.0324,0.013523,0.002678,0.000431,0.000470
55913000,0.0324,0.013523,0.002678,0.000431,0.000588
55914000,0.0324,0.013523,0.002678,0.000431,0.000353
55915000,0.0324,0.013523,0.002678,0.000431,0.000588
55916000,0.0324,0.013523,0.002678,0.000431,0.000353
55917000,0.0324,0.013523,0.002678,0.000431,0.000588
55918000,0.0324,0.013523,0.002678,0.000431,0.000353
55919000,0.0324,0.013523,0.002678,0.000431,0.000705
55920000,0.0324,0.013523,0.002678,0.000431,0.000470
55921000,0.0324,0.013523,0.002678,0.000431,0.000470
55922000,0.0324,0.013523,0.002678,0.000431,0.000353
55923000,0.0324,0.013523,0.002678,0.000431,0.000705
55924000,0.0324,0.013523,0.002678,0.000431,0.000470
55925000,0.0324,0.013523,0.002678,0.000431,0.000470
55926000,0.0324,0.013523,0.002678,0.000431,0.000353
55927000,0.0324,0.013523,0.002678,0.000431,0.000588
55928000,0.0324,0.013523,0.002678,0.000431,0.000353
55929000,0.0324,0.013523,0.002678,0.000431,0.000588
55930000,0.0324,0.013523,0.002678,0.000431,0.000353
55931000,0.0324,0.013523,0.002678,0.000431,0.000588
55932000,0.0324,0.013523,0.002678,0.000431,0.000353
55933000,0.0324,0.013523,0.002678,0.000431,0.000588
55934000,0.0324,0.013523,0.002678,0.000431,0.000353
55935000,0.0324,0.013523,0.002678,0.000431,0.000470
55936000,0.0324,0.013523,0.002678,0.000431,0.000470
55937000,0.0324,0.013523,0.002678,0.000431,0.000470
55938000,0.0324,0.013523,0.002678,0.000431,0.000470
55939000,0.0324,0.013523,0.002678,0.000431,0.000705
55940000,0.0324,0.013523,0.002678,0.000431,0.000588
55941000,0.0324,0.013523,0.002678,0.000431,0.000470
55942000,0.0324,0.013523,0.002678,0.000431,0.000705
55943000,0.0324,0.013523,0.002678,0.000431,0.000353
55944000,0.0324,0.013523,0.002678,0.000431,0.000588
55945000,0.0324,0.013523,0.002678,0.000431,0.000353
55946000,0.0324,0.013523,0.002678,0.000431,0.000470
55947000,0.0324,0.013523,0.002678,0.000431,0.000470
55948000,0.0324,0.013523,0.002678,0.000431,0.000588
55949000,0.0324,0.013523,0.002678,0.000431,0.000470
55950000,0.0324,0.013523,0.002678,0.000431,0.000705
55951000,0.0324,0.013523,0.002678,0.000431,0.000353
55952000,0.0324,0.013523,0.002678,0.000431,0.000705
55953000,0.0324,0.013523,0.002678,0.000431,0.000588
55954000,0.0324,0.013523,0.002678,0.000431,0.000470
55955000,0.0324,0.013523,0.002678,0.000431,0.000588
55956000,0.0324,0.013523,0.002678,0.000431,0.000353
55957000,0.0324,0.013523,0.002678,0.000431,0.000588
55958000,0.0324,0.013523,0.002678,0.000431,0.000353
55959000,0.0324,0.013523,0.002678,0.000431,0.000588
55960000,0.0324,0.013523,0.002678,0.000431,0.000470
55961000,0.0324,0.013523,0.002678,0.000431,0.000588
55962000,0.0324,0.013523,0.002678,0.000431,0.000470
55963000,0.0324,0.013523,0.002678,0.000431,0.000705
55964000,0.0324,0.013523,0.002678,0.000431,0.000235
55965000,0.0324,0.013523,0.002678,0.000431,0.000705
55966000,0.0324,0.013523,0.002678,0.000431,0.000353
55967000,0.0324,0.013523,0.002678,0.000431,0.000705
55968000,0.0324,0.013523,0.002678,0.000431,0.000470
55969000,0.0324,0.013523,0.002678,0.000431,0.000470
55970000,0.0324,0.013523,0.002678,0.000431,0.000470
55971000,0.0324,0.013523,0.002678,0.000431,0.000588
55972000,0.0324,0.013523,0.002678,0.000431,0.000353
55973000,0.0324,0.013523,0.002678,0.000431,0.000470
55974000,0.0324,0.013523,0.002678,0.000431,0.000470
55975000,0.0324,0.013523,0.002678,0.000431,0.000470
55976000,0.0324,0.013523,0.002678,0.000431,0.000470
55977000,0.0324,0.013523,0.002678,0.000431,0.000470
55978000,0.0324,0.013523,0.002678,0.000431,0.000470
55979000,0.0324,0.013523,0.002678,0.000431,0.000470
55980000,0.0324,0.013523,0.002678,0.000431,0.000470
55981000,0.0324,0.013523,0.002678,0.000431,0.000470
55982000,0.0324,0.013523,0.002678,0.000431,0.000470
55983000,0.0324,0.013523,0.002678,0.000431,0.000470
55984000,0.0324,0.013523,0.002678,0.000431,0.000470
55985000,0.0324,0.013523,0.002678,0.000431,0.000470
55986000,0.0324,0.013523,0.002678,0.000431,0.000470
55987000,0.0324,0.013523,0.002678,0.000431,0.000470
55988000,0.0324,0.013523,0.002678,0.000431,0.000470
55989000,0.0324,0.013523,0.002678,0.000431,0.000470
55990000,0.0324,0.013523,0.002678,0.000431,0.000353
55991000,0.0324,0.013523,0.002678,0.000431,0.000588
55992000,0.0324,0.013523,0.002678,0.000431,0.000353
55993000,0.0324,0.013523,0.002678,0.000431,0.000588
55994000,0.0324,0.013523,0.002678,0.000431,0.000353
55995000,0.0324,0.013523,0.002678,0.000431,0.000588
55996000,0.0324,0.013523,0.002678,0.000431,0.000353
55997000,0.0324,0.013523,0.002678,0.000431,0.000588
55998000,0.0324,0.013523,0.002678,0.000431,0.000470
55999000,0.0324,0.013523,0.002678,0.000431,0.000470
