Cycle,Area(mm^2),PeakDynamic(W),SubthresholdLeakage(W),GateLeakage(W),RunTimeDynamic(W)
5000000,0.0324,0.013523,0.002678,0.000431,0.000470
5001000,0.0324,0.013523,0.002678,0.000431,0.000588
5002000,0.0324,0.013523,0.002678,0.000431,0.000353
5003000,0.0324,0.013523,0.002678,0.000431,0.000588
5004000,0.0324,0.013523,0.002678,0.000431,0.000353
5005000,0.0324,0.013523,0.002678,0.000431,0.000588
5006000,0.0324,0.013523,0.002678,0.000431,0.000353
5007000,0.0324,0.013523,0.002678,0.000431,0.000470
5008000,0.0324,0.013523,0.002678,0.000431,0.000353
5009000,0.0324,0.013523,0.002678,0.000431,0.000588
5010000,0.0324,0.013523,0.002678,0.000431,0.000353
5011000,0.0324,0.013523,0.002678,0.000431,0.000588
5012000,0.0324,0.013523,0.002678,0.000431,0.000470
5013000,0.0324,0.013523,0.002678,0.000431,0.000470
5014000,0.0324,0.013523,0.002678,0.000431,0.000470
5015000,0.0324,0.013523,0.002678,0.000431,0.000470
5016000,0.0324,0.013523,0.002678,0.000431,0.000470
5017000,0.0324,0.013523,0.002678,0.000431,0.000470
5018000,0.0324,0.013523,0.002678,0.000431,0.000470
5019000,0.0324,0.013523,0.002678,0.000431,0.000470
5020000,0.0324,0.013523,0.002678,0.000431,0.000470
5021000,0.0324,0.013523,0.002678,0.000431,0.000588
5022000,0.0324,0.013523,0.002678,0.000431,0.000470
5023000,0.0324,0.013523,0.002678,0.000431,0.000588
5024000,0.0324,0.013523,0.002678,0.000431,0.000353
5025000,0.0324,0.013523,0.002678,0.000431,0.000588
5026000,0.0324,0.013523,0.002678,0.000431,0.000470
5027000,0.0324,0.013523,0.002678,0.000431,0.000588
5028000,0.0324,0.013523,0.002678,0.000431,0.000470
5029000,0.0324,0.013523,0.002678,0.000431,0.000705
5030000,0.0324,0.013523,0.002678,0.000431,0.000235
5031000,0.0324,0.013523,0.002678,0.000431,0.000705
5032000,0.0324,0.013523,0.002678,0.000431,0.000353
5033000,0.0324,0.013523,0.002678,0.000431,0.000705
5034000,0.0324,0.013523,0.002678,0.000431,0.000470
5035000,0.0324,0.013523,0.002678,0.000431,0.000470
5036000,0.0324,0.013523,0.002678,0.000431,0.000470
5037000,0.0324,0.013523,0.002678,0.000431,0.000588
5038000,0.0324,0.013523,0.002678,0.000431,0.000353
5039000,0.0324,0.013523,0.002678,0.000431,0.000588
5040000,0.0324,0.013523,0.002678,0.000431,0.000353
5041000,0.0324,0.013523,0.002678,0.000431,0.000588
5042000,0.0324,0.013523,0.002678,0.000431,0.000353
5043000,0.0324,0.013523,0.002678,0.000431,0.000705
5044000,0.0324,0.013523,0.002678,0.000431,0.000470
5045000,0.0324,0.013523,0.002678,0.000431,0.000470
5046000,0.0324,0.013523,0.002678,0.000431,0.000470
5047000,0.0324,0.013523,0.002678,0.000431,0.000588
5048000,0.0324,0.013523,0.002678,0.000431,0.000353
5049000,0.0324,0.013523,0.002678,0.000431,0.000705
5050000,0.0324,0.013523,0.002678,0.000431,0.000588
5051000,0.0324,0.013523,0.002678,0.000431,0.000353
5052000,0.0324,0.013523,0.002678,0.000431,0.000588
5053000,0.0324,0.013523,0.002678,0.000431,0.000470
5054000,0.0324,0.013523,0.002678,0.000431,0.000470
5055000,0.0324,0.013523,0.002678,0.000431,0.000705
5056000,0.0324,0.013523,0.002678,0.000431,0.000353
5057000,0.0324,0.013523,0.002678,0.000431,0.000588
5058000,0.0324,0.013523,0.002678,0.000431,0.000353
5059000,0.0324,0.013523,0.002678,0.000431,0.000588
5060000,0.0324,0.013523,0.002678,0.000431,0.000353
5061000,0.0324,0.013523,0.002678,0.000431,0.000588
5062000,0.0324,0.013523,0.002678,0.000431,0.000353
5063000,0.0324,0.013523,0.002678,0.000431,0.000588
5064000,0.0324,0.013523,0.002678,0.000431,0.000353
5065000,0.0324,0.013523,0.002678,0.000431,0.000588
5066000,0.0324,0.013523,0.002678,0.000431,0.000353
5067000,0.0324,0.013523,0.002678,0.000431,0.000470
5068000,0.0324,0.013523,0.002678,0.000431,0.000470
5069000,0.0324,0.013523,0.002678,0.000431,0.000588
5070000,0.0324,0.013523,0.002678,0.000431,0.000353
5071000,0.0324,0.013523,0.002678,0.000431,0.000705
5072000,0.0324,0.013523,0.002678,0.000431,0.000588
5073000,0.0324,0.013523,0.002678,0.000431,0.000470
5074000,0.0324,0.013523,0.002678,0.000431,0.000588
5075000,0.0324,0.013523,0.002678,0.000431,0.000353
5076000,0.0324,0.013523,0.002678,0.000431,0.000588
5077000,0.0324,0.013523,0.002678,0.000431,0.000353
5078000,0.0324,0.013523,0.002678,0.000431,0.000470
5079000,0.0324,0.013523,0.002678,0.000431,0.000588
5080000,0.0324,0.013523,0.002678,0.000431,0.000588
5081000,0.0324,0.013523,0.002678,0.000431,0.000470
5082000,0.0324,0.013523,0.002678,0.000431,0.000353
5083000,0.0324,0.013523,0.002678,0.000431,0.000588
5084000,0.0324,0.013523,0.002678,0.000431,0.000353
5085000,0.0324,0.013523,0.002678,0.000431,0.000470
5086000,0.0324,0.013523,0.002678,0.000431,0.000470
5087000,0.0324,0.013523,0.002678,0.000431,0.000588
5088000,0.0324,0.013523,0.002678,0.000431,0.000353
5089000,0.0324,0.013523,0.002678,0.000431,0.000588
5090000,0.0324,0.013523,0.002678,0.000431,0.000353
5091000,0.0324,0.013523,0.002678,0.000431,0.000588
5092000,0.0324,0.013523,0.002678,0.000431,0.000353
5093000,0.0324,0.013523,0.002678,0.000431,0.000588
5094000,0.0324,0.013523,0.002678,0.000431,0.000353
5095000,0.0324,0.013523,0.002678,0.000431,0.000705
5096000,0.0324,0.013523,0.002678,0.000431,0.000470
5097000,0.0324,0.013523,0.002678,0.000431,0.000470
5098000,0.0324,0.013523,0.002678,0.000431,0.000470
5099000,0.0324,0.013523,0.002678,0.000431,0.000470
5100000,0.0324,0.013523,0.002678,0.000431,0.000470
5101000,0.0324,0.013523,0.002678,0.000431,0.000470
5102000,0.0324,0.013523,0.002678,0.000431,0.000470
5103000,0.0324,0.013523,0.002678,0.000431,0.000470
5104000,0.0324,0.013523,0.002678,0.000431,0.000470
5105000,0.0324,0.013523,0.002678,0.000431,0.000705
5106000,0.0324,0.013523,0.002678,0.000431,0.000470
5107000,0.0324,0.013523,0.002678,0.000431,0.000470
5108000,0.0324,0.013523,0.002678,0.000431,0.000353
5109000,0.0324,0.013523,0.002678,0.000431,0.000588
5110000,0.0324,0.013523,0.002678,0.000431,0.000353
5111000,0.0324,0.013523,0.002678,0.000431,0.000705
5112000,0.0324,0.013523,0.002678,0.000431,0.000353
5113000,0.0324,0.013523,0.002678,0.000431,0.000588
5114000,0.0324,0.013523,0.002678,0.000431,0.000353
5115000,0.0324,0.013523,0.002678,0.000431,0.000588
5116000,0.0324,0.013523,0.002678,0.000431,0.000470
5117000,0.0324,0.013523,0.002678,0.000431,0.000588
5118000,0.0324,0.013523,0.002678,0.000431,0.000235
5119000,0.0324,0.013523,0.002678,0.000431,0.000588
5120000,0.0324,0.013523,0.002678,0.000431,0.000353
5121000,0.0324,0.013523,0.002678,0.000431,0.000588
5122000,0.0324,0.013523,0.002678,0.000431,0.000353
5123000,0.0324,0.013523,0.002678,0.000431,0.000588
5124000,0.0324,0.013523,0.002678,0.000431,0.000353
5125000,0.0324,0.013523,0.002678,0.000431,0.000823
5126000,0.0324,0.013523,0.002678,0.000431,0.000353
5127000,0.0324,0.013523,0.002678,0.000431,0.000705
5128000,0.0324,0.013523,0.002678,0.000431,0.000588
5129000,0.0324,0.013523,0.002678,0.000431,0.000353
5130000,0.0324,0.013523,0.002678,0.000431,0.000588
5131000,0.0324,0.013523,0.002678,0.000431,0.000470
5132000,0.0324,0.013523,0.002678,0.000431,0.000588
5133000,0.0324,0.013523,0.002678,0.000431,0.000353
5134000,0.0324,0.013523,0.002678,0.000431,0.000588
5135000,0.0324,0.013523,0.002678,0.000431,0.000353
5136000,0.0324,0.013523,0.002678,0.000431,0.000588
5137000,0.0324,0.013523,0.002678,0.000431,0.000353
5138000,0.0324,0.013523,0.002678,0.000431,0.000588
5139000,0.0324,0.013523,0.002678,0.000431,0.000353
5140000,0.0324,0.013523,0.002678,0.000431,0.000588
5141000,0.0324,0.013523,0.002678,0.000431,0.000470
5142000,0.0324,0.013523,0.002678,0.000431,0.000470
5143000,0.0324,0.013523,0.002678,0.000431,0.000470
5144000,0.0324,0.013523,0.002678,0.000431,0.000588
5145000,0.0324,0.013523,0.002678,0.000431,0.000588
5146000,0.0324,0.013523,0.002678,0.000431,0.000470
5147000,0.0324,0.013523,0.002678,0.000431,0.000470
5148000,0.0324,0.013523,0.002678,0.000431,0.000588
5149000,0.0324,0.013523,0.002678,0.000431,0.000470
5150000,0.0324,0.013523,0.002678,0.000431,0.000588
5151000,0.0324,0.013523,0.002678,0.000431,0.000353
5152000,0.0324,0.013523,0.002678,0.000431,0.000588
5153000,0.0324,0.013523,0.002678,0.000431,0.000353
5154000,0.0324,0.013523,0.002678,0.000431,0.000470
5155000,0.0324,0.013523,0.002678,0.000431,0.000470
5156000,0.0324,0.013523,0.002678,0.000431,0.000470
5157000,0.0324,0.013523,0.002678,0.000431,0.000470
5158000,0.0324,0.013523,0.002678,0.000431,0.000470
5159000,0.0324,0.013523,0.002678,0.000431,0.000470
5160000,0.0324,0.013523,0.002678,0.000431,0.000353
5161000,0.0324,0.013523,0.002678,0.000431,0.000588
5162000,0.0324,0.013523,0.002678,0.000431,0.000353
5163000,0.0324,0.013523,0.002678,0.000431,0.000588
5164000,0.0324,0.013523,0.002678,0.000431,0.000353
5165000,0.0324,0.013523,0.002678,0.000431,0.000705
5166000,0.0324,0.013523,0.002678,0.000431,0.000588
5167000,0.0324,0.013523,0.002678,0.000431,0.000470
5168000,0.0324,0.013523,0.002678,0.000431,0.000588
5169000,0.0324,0.013523,0.002678,0.000431,0.000470
5170000,0.0324,0.013523,0.002678,0.000431,0.000470
5171000,0.0324,0.013523,0.002678,0.000431,0.000470
5172000,0.0324,0.013523,0.002678,0.000431,0.000470
5173000,0.0324,0.013523,0.002678,0.000431,0.000470
5174000,0.0324,0.013523,0.002678,0.000431,0.000470
5175000,0.0324,0.013523,0.002678,0.000431,0.000470
5176000,0.0324,0.013523,0.002678,0.000431,0.000470
5177000,0.0324,0.013523,0.002678,0.000431,0.000588
5178000,0.0324,0.013523,0.002678,0.000431,0.000353
5179000,0.0324,0.013523,0.002678,0.000431,0.000705
5180000,0.0324,0.013523,0.002678,0.000431,0.000353
5181000,0.0324,0.013523,0.002678,0.000431,0.000588
5182000,0.0324,0.013523,0.002678,0.000431,0.000588
5183000,0.0324,0.013523,0.002678,0.000431,0.000470
5184000,0.0324,0.013523,0.002678,0.000431,0.000705
5185000,0.0324,0.013523,0.002678,0.000431,0.000353
5186000,0.0324,0.013523,0.002678,0.000431,0.000705
5187000,0.0324,0.013523,0.002678,0.000431,0.000588
5188000,0.0324,0.013523,0.002678,0.000431,0.000470
5189000,0.0324,0.013523,0.002678,0.000431,0.000588
5190000,0.0324,0.013523,0.002678,0.000431,0.000353
5191000,0.0324,0.013523,0.002678,0.000431,0.000588
5192000,0.0324,0.013523,0.002678,0.000431,0.000353
5193000,0.0324,0.013523,0.002678,0.000431,0.000588
5194000,0.0324,0.013523,0.002678,0.000431,0.000353
5195000,0.0324,0.013523,0.002678,0.000431,0.000588
5196000,0.0324,0.013523,0.002678,0.000431,0.000353
5197000,0.0324,0.013523,0.002678,0.000431,0.000588
5198000,0.0324,0.013523,0.002678,0.000431,0.000353
5199000,0.0324,0.013523,0.002678,0.000431,0.000705
5200000,0.0324,0.013523,0.002678,0.000431,0.000353
5201000,0.0324,0.013523,0.002678,0.000431,0.000588
5202000,0.0324,0.013523,0.002678,0.000431,0.000470
5203000,0.0324,0.013523,0.002678,0.000431,0.000588
5204000,0.0324,0.013523,0.002678,0.000431,0.000470
5205000,0.0324,0.013523,0.002678,0.000431,0.000470
5206000,0.0324,0.013523,0.002678,0.000431,0.000470
5207000,0.0324,0.013523,0.002678,0.000431,0.000588
5208000,0.0324,0.013523,0.002678,0.000431,0.000470
5209000,0.0324,0.013523,0.002678,0.000431,0.000705
5210000,0.0324,0.013523,0.002678,0.000431,0.000353
5211000,0.0324,0.013523,0.002678,0.000431,0.000705
5212000,0.0324,0.013523,0.002678,0.000431,0.000470
5213000,0.0324,0.013523,0.002678,0.000431,0.000705
5214000,0.0324,0.013523,0.002678,0.000431,0.000588
5215000,0.0324,0.013523,0.002678,0.000431,0.000470
5216000,0.0324,0.013523,0.002678,0.000431,0.000588
5217000,0.0324,0.013523,0.002678,0.000431,0.000353
5218000,0.0324,0.013523,0.002678,0.000431,0.000588
5219000,0.0324,0.013523,0.002678,0.000431,0.000353
5220000,0.0324,0.013523,0.002678,0.000431,0.000470
5221000,0.0324,0.013523,0.002678,0.000431,0.000470
5222000,0.0324,0.013523,0.002678,0.000431,0.000470
5223000,0.0324,0.013523,0.002678,0.000431,0.000705
5224000,0.0324,0.013523,0.002678,0.000431,0.000353
5225000,0.0324,0.013523,0.002678,0.000431,0.000588
5226000,0.0324,0.013523,0.002678,0.000431,0.000353
5227000,0.0324,0.013523,0.002678,0.000431,0.000823
5228000,0.0324,0.013523,0.002678,0.000431,0.000353
5229000,0.0324,0.013523,0.002678,0.000431,0.000588
5230000,0.0324,0.013523,0.002678,0.000431,0.000353
5231000,0.0324,0.013523,0.002678,0.000431,0.000588
5232000,0.0324,0.013523,0.002678,0.000431,0.000353
5233000,0.0324,0.013523,0.002678,0.000431,0.000588
5234000,0.0324,0.013523,0.002678,0.000431,0.000353
5235000,0.0324,0.013523,0.002678,0.000431,0.000588
5236000,0.0324,0.013523,0.002678,0.000431,0.000353
5237000,0.0324,0.013523,0.002678,0.000431,0.000588
5238000,0.0324,0.013523,0.002678,0.000431,0.000353
5239000,0.0324,0.013523,0.002678,0.000431,0.000588
5240000,0.0324,0.013523,0.002678,0.000431,0.000470
5241000,0.0324,0.013523,0.002678,0.000431,0.000588
5242000,0.0324,0.013523,0.002678,0.000431,0.000353
5243000,0.0324,0.013523,0.002678,0.000431,0.000705
5244000,0.0324,0.013523,0.002678,0.000431,0.000353
5245000,0.0324,0.013523,0.002678,0.000431,0.000588
5246000,0.0324,0.013523,0.002678,0.000431,0.000588
5247000,0.0324,0.013523,0.002678,0.000431,0.000470
5248000,0.0324,0.013523,0.002678,0.000431,0.000470
5249000,0.0324,0.013523,0.002678,0.000431,0.000705
5250000,0.0324,0.013523,0.002678,0.000431,0.000353
5251000,0.0324,0.013523,0.002678,0.000431,0.000588
5252000,0.0324,0.013523,0.002678,0.000431,0.000353
5253000,0.0324,0.013523,0.002678,0.000431,0.000470
5254000,0.0324,0.013523,0.002678,0.000431,0.000353
5255000,0.0324,0.013523,0.002678,0.000431,0.000705
5256000,0.0324,0.013523,0.002678,0.000431,0.000353
5257000,0.0324,0.013523,0.002678,0.000431,0.000588
5258000,0.0324,0.013523,0.002678,0.000431,0.000353
5259000,0.0324,0.013523,0.002678,0.000431,0.000470
5260000,0.0324,0.013523,0.002678,0.000431,0.000353
5261000,0.0324,0.013523,0.002678,0.000431,0.000705
5262000,0.0324,0.013523,0.002678,0.000431,0.000470
5263000,0.0324,0.013523,0.002678,0.000431,0.000588
5264000,0.0324,0.013523,0.002678,0.000431,0.000588
5265000,0.0324,0.013523,0.002678,0.000431,0.000588
5266000,0.0324,0.013523,0.002678,0.000431,0.000470
5267000,0.0324,0.013523,0.002678,0.000431,0.000705
5268000,0.0324,0.013523,0.002678,0.000431,0.000353
5269000,0.0324,0.013523,0.002678,0.000431,0.000588
5270000,0.0324,0.013523,0.002678,0.000431,0.000353
5271000,0.0324,0.013523,0.002678,0.000431,0.000705
5272000,0.0324,0.013523,0.002678,0.000431,0.000588
5273000,0.0324,0.013523,0.002678,0.000431,0.000588
5274000,0.0324,0.013523,0.002678,0.000431,0.000588
5275000,0.0324,0.013523,0.002678,0.000431,0.000470
5276000,0.0324,0.013523,0.002678,0.000431,0.000705
5277000,0.0324,0.013523,0.002678,0.000431,0.000235
5278000,0.0324,0.013523,0.002678,0.000431,0.000705
5279000,0.0324,0.013523,0.002678,0.000431,0.000353
5280000,0.0324,0.013523,0.002678,0.000431,0.000705
5281000,0.0324,0.013523,0.002678,0.000431,0.000588
5282000,0.0324,0.013523,0.002678,0.000431,0.000470
5283000,0.0324,0.013523,0.002678,0.000431,0.000588
5284000,0.0324,0.013523,0.002678,0.000431,0.000470
5285000,0.0324,0.013523,0.002678,0.000431,0.000470
5286000,0.0324,0.013523,0.002678,0.000431,0.000353
5287000,0.0324,0.013523,0.002678,0.000431,0.000588
5288000,0.0324,0.013523,0.002678,0.000431,0.000353
5289000,0.0324,0.013523,0.002678,0.000431,0.000588
5290000,0.0324,0.013523,0.002678,0.000431,0.000353
5291000,0.0324,0.013523,0.002678,0.000431,0.000470
5292000,0.0324,0.013523,0.002678,0.000431,0.000470
5293000,0.0324,0.013523,0.002678,0.000431,0.000353
5294000,0.0324,0.013523,0.002678,0.000431,0.000705
5295000,0.0324,0.013523,0.002678,0.000431,0.000588
5296000,0.0324,0.013523,0.002678,0.000431,0.000470
5297000,0.0324,0.013523,0.002678,0.000431,0.000588
5298000,0.0324,0.013523,0.002678,0.000431,0.000470
5299000,0.0324,0.013523,0.002678,0.000431,0.000470
5300000,0.0324,0.013523,0.002678,0.000431,0.000470
5301000,0.0324,0.013523,0.002678,0.000431,0.000470
5302000,0.0324,0.013523,0.002678,0.000431,0.000353
5303000,0.0324,0.013523,0.002678,0.000431,0.000588
5304000,0.0324,0.013523,0.002678,0.000431,0.000353
5305000,0.0324,0.013523,0.002678,0.000431,0.000588
5306000,0.0324,0.013523,0.002678,0.000431,0.000353
5307000,0.0324,0.013523,0.002678,0.000431,0.000470
5308000,0.0324,0.013523,0.002678,0.000431,0.000588
5309000,0.0324,0.013523,0.002678,0.000431,0.000588
5310000,0.0324,0.013523,0.002678,0.000431,0.000470
5311000,0.0324,0.013523,0.002678,0.000431,0.000588
5312000,0.0324,0.013523,0.002678,0.000431,0.000353
5313000,0.0324,0.013523,0.002678,0.000431,0.000588
5314000,0.0324,0.013523,0.002678,0.000431,0.000353
5315000,0.0324,0.013523,0.002678,0.000431,0.000588
5316000,0.0324,0.013523,0.002678,0.000431,0.000470
5317000,0.0324,0.013523,0.002678,0.000431,0.000470
5318000,0.0324,0.013523,0.002678,0.000431,0.000353
5319000,0.0324,0.013523,0.002678,0.000431,0.000588
5320000,0.0324,0.013523,0.002678,0.000431,0.000470
5321000,0.0324,0.013523,0.002678,0.000431,0.000470
5322000,0.0324,0.013523,0.002678,0.000431,0.000470
5323000,0.0324,0.013523,0.002678,0.000431,0.000470
5324000,0.0324,0.013523,0.002678,0.000431,0.000470
5325000,0.0324,0.013523,0.002678,0.000431,0.000353
5326000,0.0324,0.013523,0.002678,0.000431,0.000588
5327000,0.0324,0.013523,0.002678,0.000431,0.000353
5328000,0.0324,0.013523,0.002678,0.000431,0.000588
5329000,0.0324,0.013523,0.002678,0.000431,0.000353
5330000,0.0324,0.013523,0.002678,0.000431,0.000588
5331000,0.0324,0.013523,0.002678,0.000431,0.000353
5332000,0.0324,0.013523,0.002678,0.000431,0.000705
5333000,0.0324,0.013523,0.002678,0.000431,0.000353
5334000,0.0324,0.013523,0.002678,0.000431,0.000705
5335000,0.0324,0.013523,0.002678,0.000431,0.000470
5336000,0.0324,0.013523,0.002678,0.000431,0.000470
5337000,0.0324,0.013523,0.002678,0.000431,0.000470
5338000,0.0324,0.013523,0.002678,0.000431,0.000470
5339000,0.0324,0.013523,0.002678,0.000431,0.000470
5340000,0.0324,0.013523,0.002678,0.000431,0.000470
5341000,0.0324,0.013523,0.002678,0.000431,0.000353
5342000,0.0324,0.013523,0.002678,0.000431,0.000588
5343000,0.0324,0.013523,0.002678,0.000431,0.000470
5344000,0.0324,0.013523,0.002678,0.000431,0.000470
5345000,0.0324,0.013523,0.002678,0.000431,0.000470
5346000,0.0324,0.013523,0.002678,0.000431,0.000588
5347000,0.0324,0.013523,0.002678,0.000431,0.000470
5348000,0.0324,0.013523,0.002678,0.000431,0.000705
5349000,0.0324,0.013523,0.002678,0.000431,0.000353
5350000,0.0324,0.013523,0.002678,0.000431,0.000705
5351000,0.0324,0.013523,0.002678,0.000431,0.000470
5352000,0.0324,0.013523,0.002678,0.000431,0.000470
5353000,0.0324,0.013523,0.002678,0.000431,0.000470
5354000,0.0324,0.013523,0.002678,0.000431,0.000588
5355000,0.0324,0.013523,0.002678,0.000431,0.000353
5356000,0.0324,0.013523,0.002678,0.000431,0.000588
5357000,0.0324,0.013523,0.002678,0.000431,0.000353
5358000,0.0324,0.013523,0.002678,0.000431,0.000588
5359000,0.0324,0.013523,0.002678,0.000431,0.000353
5360000,0.0324,0.013523,0.002678,0.000431,0.000588
5361000,0.0324,0.013523,0.002678,0.000431,0.000353
5362000,0.0324,0.013523,0.002678,0.000431,0.000470
5363000,0.0324,0.013523,0.002678,0.000431,0.000470
5364000,0.0324,0.013523,0.002678,0.000431,0.000588
5365000,0.0324,0.013523,0.002678,0.000431,0.000470
5366000,0.0324,0.013523,0.002678,0.000431,0.000705
5367000,0.0324,0.013523,0.002678,0.000431,0.000353
5368000,0.0324,0.013523,0.002678,0.000431,0.000705
5369000,0.0324,0.013523,0.002678,0.000431,0.000470
5370000,0.0324,0.013523,0.002678,0.000431,0.000588
5371000,0.0324,0.013523,0.002678,0.000431,0.000353
5372000,0.0324,0.013523,0.002678,0.000431,0.000705
5373000,0.0324,0.013523,0.002678,0.000431,0.000588
5374000,0.0324,0.013523,0.002678,0.000431,0.000353
5375000,0.0324,0.013523,0.002678,0.000431,0.000588
5376000,0.0324,0.013523,0.002678,0.000431,0.000470
5377000,0.0324,0.013523,0.002678,0.000431,0.000470
5378000,0.0324,0.013523,0.002678,0.000431,0.000470
5379000,0.0324,0.013523,0.002678,0.000431,0.000353
5380000,0.0324,0.013523,0.002678,0.000431,0.000470
5381000,0.0324,0.013523,0.002678,0.000431,0.000470
5382000,0.0324,0.013523,0.002678,0.000431,0.000470
5383000,0.0324,0.013523,0.002678,0.000431,0.000470
5384000,0.0324,0.013523,0.002678,0.000431,0.000470
5385000,0.0324,0.013523,0.002678,0.000431,0.000470
5386000,0.0324,0.013523,0.002678,0.000431,0.000470
5387000,0.0324,0.013523,0.002678,0.000431,0.000470
5388000,0.0324,0.013523,0.002678,0.000431,0.000588
5389000,0.0324,0.013523,0.002678,0.000431,0.000353
5390000,0.0324,0.013523,0.002678,0.000431,0.000470
5391000,0.0324,0.013523,0.002678,0.000431,0.000470
5392000,0.0324,0.013523,0.002678,0.000431,0.000470
5393000,0.0324,0.013523,0.002678,0.000431,0.000470
5394000,0.0324,0.013523,0.002678,0.000431,0.000470
5395000,0.0324,0.013523,0.002678,0.000431,0.000353
5396000,0.0324,0.013523,0.002678,0.000431,0.000588
5397000,0.0324,0.013523,0.002678,0.000431,0.000353
5398000,0.0324,0.013523,0.002678,0.000431,0.000588
5399000,0.0324,0.013523,0.002678,0.000431,0.000470
5400000,0.0324,0.013523,0.002678,0.000431,0.000588
5401000,0.0324,0.013523,0.002678,0.000431,0.000470
5402000,0.0324,0.013523,0.002678,0.000431,0.000588
5403000,0.0324,0.013523,0.002678,0.000431,0.000353
5404000,0.0324,0.013523,0.002678,0.000431,0.000588
5405000,0.0324,0.013523,0.002678,0.000431,0.000470
5406000,0.0324,0.013523,0.002678,0.000431,0.000470
5407000,0.0324,0.013523,0.002678,0.000431,0.000353
5408000,0.0324,0.013523,0.002678,0.000431,0.000588
5409000,0.0324,0.013523,0.002678,0.000431,0.000470
5410000,0.0324,0.013523,0.002678,0.000431,0.000588
5411000,0.0324,0.013523,0.002678,0.000431,0.000353
5412000,0.0324,0.013523,0.002678,0.000431,0.000588
5413000,0.0324,0.013523,0.002678,0.000431,0.000470
5414000,0.0324,0.013523,0.002678,0.000431,0.000705
5415000,0.0324,0.013523,0.002678,0.000431,0.000353
5416000,0.0324,0.013523,0.002678,0.000431,0.000705
5417000,0.0324,0.013523,0.002678,0.000431,0.000470
5418000,0.0324,0.013523,0.002678,0.000431,0.000470
5419000,0.0324,0.013523,0.002678,0.000431,0.000588
5420000,0.0324,0.013523,0.002678,0.000431,0.000470
5421000,0.0324,0.013523,0.002678,0.000431,0.000705
5422000,0.0324,0.013523,0.002678,0.000431,0.000235
5423000,0.0324,0.013523,0.002678,0.000431,0.000705
5424000,0.0324,0.013523,0.002678,0.000431,0.000470
5425000,0.0324,0.013523,0.002678,0.000431,0.000588
5426000,0.0324,0.013523,0.002678,0.000431,0.000353
5427000,0.0324,0.013523,0.002678,0.000431,0.000588
5428000,0.0324,0.013523,0.002678,0.000431,0.000353
5429000,0.0324,0.013523,0.002678,0.000431,0.000588
5430000,0.0324,0.013523,0.002678,0.000431,0.000353
5431000,0.0324,0.013523,0.002678,0.000431,0.000588
5432000,0.0324,0.013523,0.002678,0.000431,0.000353
5433000,0.0324,0.013523,0.002678,0.000431,0.000588
5434000,0.0324,0.013523,0.002678,0.000431,0.000353
5435000,0.0324,0.013523,0.002678,0.000431,0.000588
5436000,0.0324,0.013523,0.002678,0.000431,0.000353
5437000,0.0324,0.013523,0.002678,0.000431,0.000470
5438000,0.0324,0.013523,0.002678,0.000431,0.000470
5439000,0.0324,0.013523,0.002678,0.000431,0.000353
5440000,0.0324,0.013523,0.002678,0.000431,0.000588
5441000,0.0324,0.013523,0.002678,0.000431,0.000353
5442000,0.0324,0.013523,0.002678,0.000431,0.000588
5443000,0.0324,0.013523,0.002678,0.000431,0.000353
5444000,0.0324,0.013523,0.002678,0.000431,0.000705
5445000,0.0324,0.013523,0.002678,0.000431,0.000588
5446000,0.0324,0.013523,0.002678,0.000431,0.000470
5447000,0.0324,0.013523,0.002678,0.000431,0.000588
5448000,0.0324,0.013523,0.002678,0.000431,0.000353
5449000,0.0324,0.013523,0.002678,0.000431,0.000588
5450000,0.0324,0.013523,0.002678,0.000431,0.000353
5451000,0.0324,0.013523,0.002678,0.000431,0.000588
5452000,0.0324,0.013523,0.002678,0.000431,0.000470
5453000,0.0324,0.013523,0.002678,0.000431,0.000470
5454000,0.0324,0.013523,0.002678,0.000431,0.000470
5455000,0.0324,0.013523,0.002678,0.000431,0.000470
5456000,0.0324,0.013523,0.002678,0.000431,0.000588
5457000,0.0324,0.013523,0.002678,0.000431,0.000470
5458000,0.0324,0.013523,0.002678,0.000431,0.000470
5459000,0.0324,0.013523,0.002678,0.000431,0.000353
5460000,0.0324,0.013523,0.002678,0.000431,0.000588
5461000,0.0324,0.013523,0.002678,0.000431,0.000353
5462000,0.0324,0.013523,0.002678,0.000431,0.000588
5463000,0.0324,0.013523,0.002678,0.000431,0.000353
5464000,0.0324,0.013523,0.002678,0.000431,0.000588
5465000,0.0324,0.013523,0.002678,0.000431,0.000353
5466000,0.0324,0.013523,0.002678,0.000431,0.000588
5467000,0.0324,0.013523,0.002678,0.000431,0.000353
5468000,0.0324,0.013523,0.002678,0.000431,0.000705
5469000,0.0324,0.013523,0.002678,0.000431,0.000588
5470000,0.0324,0.013523,0.002678,0.000431,0.000588
5471000,0.0324,0.013523,0.002678,0.000431,0.000588
5472000,0.0324,0.013523,0.002678,0.000431,0.000470
5473000,0.0324,0.013523,0.002678,0.000431,0.000705
5474000,0.0324,0.013523,0.002678,0.000431,0.000353
5475000,0.0324,0.013523,0.002678,0.000431,0.000588
5476000,0.0324,0.013523,0.002678,0.000431,0.000353
5477000,0.0324,0.013523,0.002678,0.000431,0.000470
5478000,0.0324,0.013523,0.002678,0.000431,0.000470
5479000,0.0324,0.013523,0.002678,0.000431,0.000588
5480000,0.0324,0.013523,0.002678,0.000431,0.000470
5481000,0.0324,0.013523,0.002678,0.000431,0.000705
5482000,0.0324,0.013523,0.002678,0.000431,0.000353
5483000,0.0324,0.013523,0.002678,0.000431,0.000705
5484000,0.0324,0.013523,0.002678,0.000431,0.000588
5485000,0.0324,0.013523,0.002678,0.000431,0.000470
5486000,0.0324,0.013523,0.002678,0.000431,0.000705
5487000,0.0324,0.013523,0.002678,0.000431,0.000353
5488000,0.0324,0.013523,0.002678,0.000431,0.000588
5489000,0.0324,0.013523,0.002678,0.000431,0.000588
5490000,0.0324,0.013523,0.002678,0.000431,0.000470
5491000,0.0324,0.013523,0.002678,0.000431,0.000353
5492000,0.0324,0.013523,0.002678,0.000431,0.000588
5493000,0.0324,0.013523,0.002678,0.000431,0.000353
5494000,0.0324,0.013523,0.002678,0.000431,0.000470
5495000,0.0324,0.013523,0.002678,0.000431,0.000353
5496000,0.0324,0.013523,0.002678,0.000431,0.000588
5497000,0.0324,0.013523,0.002678,0.000431,0.000353
5498000,0.0324,0.013523,0.002678,0.000431,0.000588
5499000,0.0324,0.013523,0.002678,0.000431,0.000470
5500000,0.0324,0.013523,0.002678,0.000431,0.000588
5501000,0.0324,0.013523,0.002678,0.000431,0.000353
5502000,0.0324,0.013523,0.002678,0.000431,0.000588
5503000,0.0324,0.013523,0.002678,0.000431,0.000353
5504000,0.0324,0.013523,0.002678,0.000431,0.000588
5505000,0.0324,0.013523,0.002678,0.000431,0.000470
5506000,0.0324,0.013523,0.002678,0.000431,0.000588
5507000,0.0324,0.013523,0.002678,0.000431,0.000470
5508000,0.0324,0.013523,0.002678,0.000431,0.000705
5509000,0.0324,0.013523,0.002678,0.000431,0.000353
5510000,0.0324,0.013523,0.002678,0.000431,0.000705
5511000,0.0324,0.013523,0.002678,0.000431,0.000470
5512000,0.0324,0.013523,0.002678,0.000431,0.000588
5513000,0.0324,0.013523,0.002678,0.000431,0.000353
5514000,0.0324,0.013523,0.002678,0.000431,0.000823
5515000,0.0324,0.013523,0.002678,0.000431,0.000353
5516000,0.0324,0.013523,0.002678,0.000431,0.000705
5517000,0.0324,0.013523,0.002678,0.000431,0.000588
5518000,0.0324,0.013523,0.002678,0.000431,0.000470
5519000,0.0324,0.013523,0.002678,0.000431,0.000588
5520000,0.0324,0.013523,0.002678,0.000431,0.000353
5521000,0.0324,0.013523,0.002678,0.000431,0.000588
5522000,0.0324,0.013523,0.002678,0.000431,0.000353
5523000,0.0324,0.013523,0.002678,0.000431,0.000588
5524000,0.0324,0.013523,0.002678,0.000431,0.000353
5525000,0.0324,0.013523,0.002678,0.000431,0.000588
5526000,0.0324,0.013523,0.002678,0.000431,0.000353
5527000,0.0324,0.013523,0.002678,0.000431,0.000470
5528000,0.0324,0.013523,0.002678,0.000431,0.000470
5529000,0.0324,0.013523,0.002678,0.000431,0.000470
5530000,0.0324,0.013523,0.002678,0.000431,0.000470
5531000,0.0324,0.013523,0.002678,0.000431,0.000353
5532000,0.0324,0.013523,0.002678,0.000431,0.000705
5533000,0.0324,0.013523,0.002678,0.000431,0.000470
5534000,0.0324,0.013523,0.002678,0.000431,0.000470
5535000,0.0324,0.013523,0.002678,0.000431,0.000470
5536000,0.0324,0.013523,0.002678,0.000431,0.000470
5537000,0.0324,0.013523,0.002678,0.000431,0.000470
5538000,0.0324,0.013523,0.002678,0.000431,0.000588
5539000,0.0324,0.013523,0.002678,0.000431,0.000353
5540000,0.0324,0.013523,0.002678,0.000431,0.000588
5541000,0.0324,0.013523,0.002678,0.000431,0.000353
5542000,0.0324,0.013523,0.002678,0.000431,0.000705
5543000,0.0324,0.013523,0.002678,0.000431,0.000470
5544000,0.0324,0.013523,0.002678,0.000431,0.000470
5545000,0.0324,0.013523,0.002678,0.000431,0.000353
5546000,0.0324,0.013523,0.002678,0.000431,0.000588
5547000,0.0324,0.013523,0.002678,0.000431,0.000353
5548000,0.0324,0.013523,0.002678,0.000431,0.000588
5549000,0.0324,0.013523,0.002678,0.000431,0.000353
5550000,0.0324,0.013523,0.002678,0.000431,0.000588
5551000,0.0324,0.013523,0.002678,0.000431,0.000353
5552000,0.0324,0.013523,0.002678,0.000431,0.000588
5553000,0.0324,0.013523,0.002678,0.000431,0.000353
5554000,0.0324,0.013523,0.002678,0.000431,0.000705
5555000,0.0324,0.013523,0.002678,0.000431,0.000353
5556000,0.0324,0.013523,0.002678,0.000431,0.000588
5557000,0.0324,0.013523,0.002678,0.000431,0.000353
5558000,0.0324,0.013523,0.002678,0.000431,0.000588
5559000,0.0324,0.013523,0.002678,0.000431,0.000353
5560000,0.0324,0.013523,0.002678,0.000431,0.000588
5561000,0.0324,0.013523,0.002678,0.000431,0.000353
5562000,0.0324,0.013523,0.002678,0.000431,0.000588
5563000,0.0324,0.013523,0.002678,0.000431,0.000353
5564000,0.0324,0.013523,0.002678,0.000431,0.000470
5565000,0.0324,0.013523,0.002678,0.000431,0.000470
5566000,0.0324,0.013523,0.002678,0.000431,0.000470
5567000,0.0324,0.013523,0.002678,0.000431,0.000470
5568000,0.0324,0.013523,0.002678,0.000431,0.000588
5569000,0.0324,0.013523,0.002678,0.000431,0.000470
5570000,0.0324,0.013523,0.002678,0.000431,0.000588
5571000,0.0324,0.013523,0.002678,0.000431,0.000470
5572000,0.0324,0.013523,0.002678,0.000431,0.000470
5573000,0.0324,0.013523,0.002678,0.000431,0.000470
5574000,0.0324,0.013523,0.002678,0.000431,0.000470
5575000,0.0324,0.013523,0.002678,0.000431,0.000470
5576000,0.0324,0.013523,0.002678,0.000431,0.000470
5577000,0.0324,0.013523,0.002678,0.000431,0.000470
5578000,0.0324,0.013523,0.002678,0.000431,0.000470
5579000,0.0324,0.013523,0.002678,0.000431,0.000470
5580000,0.0324,0.013523,0.002678,0.000431,0.000470
5581000,0.0324,0.013523,0.002678,0.000431,0.000470
5582000,0.0324,0.013523,0.002678,0.000431,0.000353
5583000,0.0324,0.013523,0.002678,0.000431,0.000588
5584000,0.0324,0.013523,0.002678,0.000431,0.000353
5585000,0.0324,0.013523,0.002678,0.000431,0.000588
5586000,0.0324,0.013523,0.002678,0.000431,0.000353
5587000,0.0324,0.013523,0.002678,0.000431,0.000588
5588000,0.0324,0.013523,0.002678,0.000431,0.000353
5589000,0.0324,0.013523,0.002678,0.000431,0.000588
5590000,0.0324,0.013523,0.002678,0.000431,0.000353
5591000,0.0324,0.013523,0.002678,0.000431,0.000705
5592000,0.0324,0.013523,0.002678,0.000431,0.000353
5593000,0.0324,0.013523,0.002678,0.000431,0.000588
5594000,0.0324,0.013523,0.002678,0.000431,0.000588
5595000,0.0324,0.013523,0.002678,0.000431,0.000470
5596000,0.0324,0.013523,0.002678,0.000431,0.000235
5597000,0.0324,0.013523,0.002678,0.000431,0.000705
5598000,0.0324,0.013523,0.002678,0.000431,0.000353
5599000,0.0324,0.013523,0.002678,0.000431,0.000588
5600000,0.0324,0.013523,0.002678,0.000431,0.000353
5601000,0.0324,0.013523,0.002678,0.000431,0.000705
5602000,0.0324,0.013523,0.002678,0.000431,0.000353
5603000,0.0324,0.013523,0.002678,0.000431,0.000705
5604000,0.0324,0.013523,0.002678,0.000431,0.000470
5605000,0.0324,0.013523,0.002678,0.000431,0.000470
5606000,0.0324,0.013523,0.002678,0.000431,0.000470
5607000,0.0324,0.013523,0.002678,0.000431,0.000588
5608000,0.0324,0.013523,0.002678,0.000431,0.000353
5609000,0.0324,0.013523,0.002678,0.000431,0.000588
5610000,0.0324,0.013523,0.002678,0.000431,0.000353
5611000,0.0324,0.013523,0.002678,0.000431,0.000588
5612000,0.0324,0.013523,0.002678,0.000431,0.000353
5613000,0.0324,0.013523,0.002678,0.000431,0.000588
5614000,0.0324,0.013523,0.002678,0.000431,0.000353
5615000,0.0324,0.013523,0.002678,0.000431,0.000823
5616000,0.0324,0.013523,0.002678,0.000431,0.000235
5617000,0.0324,0.013523,0.002678,0.000431,0.000705
5618000,0.0324,0.013523,0.002678,0.000431,0.000353
5619000,0.0324,0.013523,0.002678,0.000431,0.000588
5620000,0.0324,0.013523,0.002678,0.000431,0.000470
5621000,0.0324,0.013523,0.002678,0.000431,0.000470
5622000,0.0324,0.013523,0.002678,0.000431,0.000470
5623000,0.0324,0.013523,0.002678,0.000431,0.000588
5624000,0.0324,0.013523,0.002678,0.000431,0.000235
5625000,0.0324,0.013523,0.002678,0.000431,0.000588
5626000,0.0324,0.013523,0.002678,0.000431,0.000353
5627000,0.0324,0.013523,0.002678,0.000431,0.000705
5628000,0.0324,0.013523,0.002678,0.000431,0.000353
5629000,0.0324,0.013523,0.002678,0.000431,0.000588
5630000,0.0324,0.013523,0.002678,0.000431,0.000353
5631000,0.0324,0.013523,0.002678,0.000431,0.000588
5632000,0.0324,0.013523,0.002678,0.000431,0.000470
5633000,0.0324,0.013523,0.002678,0.000431,0.000588
5634000,0.0324,0.013523,0.002678,0.000431,0.000470
5635000,0.0324,0.013523,0.002678,0.000431,0.000588
5636000,0.0324,0.013523,0.002678,0.000431,0.000353
5637000,0.0324,0.013523,0.002678,0.000431,0.000470
5638000,0.0324,0.013523,0.002678,0.000431,0.000470
5639000,0.0324,0.013523,0.002678,0.000431,0.000470
5640000,0.0324,0.013523,0.002678,0.000431,0.000470
5641000,0.0324,0.013523,0.002678,0.000431,0.000470
5642000,0.0324,0.013523,0.002678,0.000431,0.000470
5643000,0.0324,0.013523,0.002678,0.000431,0.000353
5644000,0.0324,0.013523,0.002678,0.000431,0.000588
5645000,0.0324,0.013523,0.002678,0.000431,0.000353
5646000,0.0324,0.013523,0.002678,0.000431,0.000588
5647000,0.0324,0.013523,0.002678,0.000431,0.000353
5648000,0.0324,0.013523,0.002678,0.000431,0.000588
5649000,0.0324,0.013523,0.002678,0.000431,0.000353
5650000,0.0324,0.013523,0.002678,0.000431,0.000470
5651000,0.0324,0.013523,0.002678,0.000431,0.000470
5652000,0.0324,0.013523,0.002678,0.000431,0.000588
5653000,0.0324,0.013523,0.002678,0.000431,0.000353
5654000,0.0324,0.013523,0.002678,0.000431,0.000588
5655000,0.0324,0.013523,0.002678,0.000431,0.000353
5656000,0.0324,0.013523,0.002678,0.000431,0.000705
5657000,0.0324,0.013523,0.002678,0.000431,0.000588
5658000,0.0324,0.013523,0.002678,0.000431,0.000470
5659000,0.0324,0.013523,0.002678,0.000431,0.000470
5660000,0.0324,0.013523,0.002678,0.000431,0.000588
5661000,0.0324,0.013523,0.002678,0.000431,0.000470
5662000,0.0324,0.013523,0.002678,0.000431,0.000470
5663000,0.0324,0.013523,0.002678,0.000431,0.000470
5664000,0.0324,0.013523,0.002678,0.000431,0.000470
5665000,0.0324,0.013523,0.002678,0.000431,0.000470
5666000,0.0324,0.013523,0.002678,0.000431,0.000353
5667000,0.0324,0.013523,0.002678,0.000431,0.000588
5668000,0.0324,0.013523,0.002678,0.000431,0.000353
5669000,0.0324,0.013523,0.002678,0.000431,0.000588
5670000,0.0324,0.013523,0.002678,0.000431,0.000353
5671000,0.0324,0.013523,0.002678,0.000431,0.000588
5672000,0.0324,0.013523,0.002678,0.000431,0.000353
5673000,0.0324,0.013523,0.002678,0.000431,0.000588
5674000,0.0324,0.013523,0.002678,0.000431,0.000353
5675000,0.0324,0.013523,0.002678,0.000431,0.000588
5676000,0.0324,0.013523,0.002678,0.000431,0.000353
5677000,0.0324,0.013523,0.002678,0.000431,0.000588
5678000,0.0324,0.013523,0.002678,0.000431,0.000353
5679000,0.0324,0.013523,0.002678,0.000431,0.000588
5680000,0.0324,0.013523,0.002678,0.000431,0.000353
5681000,0.0324,0.013523,0.002678,0.000431,0.000470
5682000,0.0324,0.013523,0.002678,0.000431,0.000705
5683000,0.0324,0.013523,0.002678,0.000431,0.000353
5684000,0.0324,0.013523,0.002678,0.000431,0.000588
5685000,0.0324,0.013523,0.002678,0.000431,0.000353
5686000,0.0324,0.013523,0.002678,0.000431,0.000470
5687000,0.0324,0.013523,0.002678,0.000431,0.000470
5688000,0.0324,0.013523,0.002678,0.000431,0.000588
5689000,0.0324,0.013523,0.002678,0.000431,0.000353
5690000,0.0324,0.013523,0.002678,0.000431,0.000470
5691000,0.0324,0.013523,0.002678,0.000431,0.000470
5692000,0.0324,0.013523,0.002678,0.000431,0.000470
5693000,0.0324,0.013523,0.002678,0.000431,0.000470
5694000,0.0324,0.013523,0.002678,0.000431,0.000588
5695000,0.0324,0.013523,0.002678,0.000431,0.000353
5696000,0.0324,0.013523,0.002678,0.000431,0.000705
5697000,0.0324,0.013523,0.002678,0.000431,0.000470
5698000,0.0324,0.013523,0.002678,0.000431,0.000470
5699000,0.0324,0.013523,0.002678,0.000431,0.000353
5700000,0.0324,0.013523,0.002678,0.000431,0.000588
5701000,0.0324,0.013523,0.002678,0.000431,0.000353
5702000,0.0324,0.013523,0.002678,0.000431,0.000470
5703000,0.0324,0.013523,0.002678,0.000431,0.000470
5704000,0.0324,0.013523,0.002678,0.000431,0.000588
5705000,0.0324,0.013523,0.002678,0.000431,0.000353
5706000,0.0324,0.013523,0.002678,0.000431,0.000705
5707000,0.0324,0.013523,0.002678,0.000431,0.000353
5708000,0.0324,0.013523,0.002678,0.000431,0.000705
5709000,0.0324,0.013523,0.002678,0.000431,0.000588
5710000,0.0324,0.013523,0.002678,0.000431,0.000470
5711000,0.0324,0.013523,0.002678,0.000431,0.000705
5712000,0.0324,0.013523,0.002678,0.000431,0.000353
5713000,0.0324,0.013523,0.002678,0.000431,0.000588
5714000,0.0324,0.013523,0.002678,0.000431,0.000353
5715000,0.0324,0.013523,0.002678,0.000431,0.000705
5716000,0.0324,0.013523,0.002678,0.000431,0.000588
5717000,0.0324,0.013523,0.002678,0.000431,0.000470
5718000,0.0324,0.013523,0.002678,0.000431,0.000588
5719000,0.0324,0.013523,0.002678,0.000431,0.000353
5720000,0.0324,0.013523,0.002678,0.000431,0.000588
5721000,0.0324,0.013523,0.002678,0.000431,0.000353
5722000,0.0324,0.013523,0.002678,0.000431,0.000588
5723000,0.0324,0.013523,0.002678,0.000431,0.000353
5724000,0.0324,0.013523,0.002678,0.000431,0.000588
5725000,0.0324,0.013523,0.002678,0.000431,0.000470
5726000,0.0324,0.013523,0.002678,0.000431,0.000588
5727000,0.0324,0.013523,0.002678,0.000431,0.000470
5728000,0.0324,0.013523,0.002678,0.000431,0.000470
5729000,0.0324,0.013523,0.002678,0.000431,0.000470
5730000,0.0324,0.013523,0.002678,0.000431,0.000353
5731000,0.0324,0.013523,0.002678,0.000431,0.000588
5732000,0.0324,0.013523,0.002678,0.000431,0.000353
5733000,0.0324,0.013523,0.002678,0.000431,0.000705
5734000,0.0324,0.013523,0.002678,0.000431,0.000470
5735000,0.0324,0.013523,0.002678,0.000431,0.000588
5736000,0.0324,0.013523,0.002678,0.000431,0.000353
5737000,0.0324,0.013523,0.002678,0.000431,0.000588
5738000,0.0324,0.013523,0.002678,0.000431,0.000353
5739000,0.0324,0.013523,0.002678,0.000431,0.000588
5740000,0.0324,0.013523,0.002678,0.000431,0.000353
5741000,0.0324,0.013523,0.002678,0.000431,0.000588
5742000,0.0324,0.013523,0.002678,0.000431,0.000353
5743000,0.0324,0.013523,0.002678,0.000431,0.000705
5744000,0.0324,0.013523,0.002678,0.000431,0.000470
5745000,0.0324,0.013523,0.002678,0.000431,0.000470
5746000,0.0324,0.013523,0.002678,0.000431,0.000353
5747000,0.0324,0.013523,0.002678,0.000431,0.000588
5748000,0.0324,0.013523,0.002678,0.000431,0.000353
5749000,0.0324,0.013523,0.002678,0.000431,0.000588
5750000,0.0324,0.013523,0.002678,0.000431,0.000353
5751000,0.0324,0.013523,0.002678,0.000431,0.000705
5752000,0.0324,0.013523,0.002678,0.000431,0.000353
5753000,0.0324,0.013523,0.002678,0.000431,0.000705
5754000,0.0324,0.013523,0.002678,0.000431,0.000470
5755000,0.0324,0.013523,0.002678,0.000431,0.000470
5756000,0.0324,0.013523,0.002678,0.000431,0.000470
5757000,0.0324,0.013523,0.002678,0.000431,0.000470
5758000,0.0324,0.013523,0.002678,0.000431,0.000353
5759000,0.0324,0.013523,0.002678,0.000431,0.000588
5760000,0.0324,0.013523,0.002678,0.000431,0.000353
5761000,0.0324,0.013523,0.002678,0.000431,0.000588
5762000,0.0324,0.013523,0.002678,0.000431,0.000353
5763000,0.0324,0.013523,0.002678,0.000431,0.000588
5764000,0.0324,0.013523,0.002678,0.000431,0.000353
5765000,0.0324,0.013523,0.002678,0.000431,0.000588
5766000,0.0324,0.013523,0.002678,0.000431,0.000353
5767000,0.0324,0.013523,0.002678,0.000431,0.000588
5768000,0.0324,0.013523,0.002678,0.000431,0.000353
5769000,0.0324,0.013523,0.002678,0.000431,0.000588
5770000,0.0324,0.013523,0.002678,0.000431,0.000353
5771000,0.0324,0.013523,0.002678,0.000431,0.000588
5772000,0.0324,0.013523,0.002678,0.000431,0.000470
5773000,0.0324,0.013523,0.002678,0.000431,0.000470
5774000,0.0324,0.013523,0.002678,0.000431,0.000470
5775000,0.0324,0.013523,0.002678,0.000431,0.000470
5776000,0.0324,0.013523,0.002678,0.000431,0.000470
5777000,0.0324,0.013523,0.002678,0.000431,0.000470
5778000,0.0324,0.013523,0.002678,0.000431,0.000470
5779000,0.0324,0.013523,0.002678,0.000431,0.000470
5780000,0.0324,0.013523,0.002678,0.000431,0.000470
5781000,0.0324,0.013523,0.002678,0.000431,0.000470
5782000,0.0324,0.013523,0.002678,0.000431,0.000470
5783000,0.0324,0.013523,0.002678,0.000431,0.000470
5784000,0.0324,0.013523,0.002678,0.000431,0.000470
5785000,0.0324,0.013523,0.002678,0.000431,0.000353
5786000,0.0324,0.013523,0.002678,0.000431,0.000588
5787000,0.0324,0.013523,0.002678,0.000431,0.000353
5788000,0.0324,0.013523,0.002678,0.000431,0.000588
5789000,0.0324,0.013523,0.002678,0.000431,0.000353
5790000,0.0324,0.013523,0.002678,0.000431,0.000588
5791000,0.0324,0.013523,0.002678,0.000431,0.000353
5792000,0.0324,0.013523,0.002678,0.000431,0.000588
5793000,0.0324,0.013523,0.002678,0.000431,0.000353
5794000,0.0324,0.013523,0.002678,0.000431,0.000588
5795000,0.0324,0.013523,0.002678,0.000431,0.000353
5796000,0.0324,0.013523,0.002678,0.000431,0.000588
5797000,0.0324,0.013523,0.002678,0.000431,0.000353
5798000,0.0324,0.013523,0.002678,0.000431,0.000705
5799000,0.0324,0.013523,0.002678,0.000431,0.000353
5800000,0.0324,0.013523,0.002678,0.000431,0.000588
5801000,0.0324,0.013523,0.002678,0.000431,0.000353
5802000,0.0324,0.013523,0.002678,0.000431,0.000588
5803000,0.0324,0.013523,0.002678,0.000431,0.000353
5804000,0.0324,0.013523,0.002678,0.000431,0.000588
5805000,0.0324,0.013523,0.002678,0.000431,0.000353
5806000,0.0324,0.013523,0.002678,0.000431,0.000588
5807000,0.0324,0.013523,0.002678,0.000431,0.000353
5808000,0.0324,0.013523,0.002678,0.000431,0.000470
5809000,0.0324,0.013523,0.002678,0.000431,0.000470
5810000,0.0324,0.013523,0.002678,0.000431,0.000588
5811000,0.0324,0.013523,0.002678,0.000431,0.000470
5812000,0.0324,0.013523,0.002678,0.000431,0.000353
5813000,0.0324,0.013523,0.002678,0.000431,0.000588
5814000,0.0324,0.013523,0.002678,0.000431,0.000353
5815000,0.0324,0.013523,0.002678,0.000431,0.000588
5816000,0.0324,0.013523,0.002678,0.000431,0.000353
5817000,0.0324,0.013523,0.002678,0.000431,0.000705
5818000,0.0324,0.013523,0.002678,0.000431,0.000470
5819000,0.0324,0.013523,0.002678,0.000431,0.000588
5820000,0.0324,0.013523,0.002678,0.000431,0.000353
5821000,0.0324,0.013523,0.002678,0.000431,0.000588
5822000,0.0324,0.013523,0.002678,0.000431,0.000353
5823000,0.0324,0.013523,0.002678,0.000431,0.000588
5824000,0.0324,0.013523,0.002678,0.000431,0.000353
5825000,0.0324,0.013523,0.002678,0.000431,0.000705
5826000,0.0324,0.013523,0.002678,0.000431,0.000588
5827000,0.0324,0.013523,0.002678,0.000431,0.000470
5828000,0.0324,0.013523,0.002678,0.000431,0.000705
5829000,0.0324,0.013523,0.002678,0.000431,0.000353
5830000,0.0324,0.013523,0.002678,0.000431,0.000470
5831000,0.0324,0.013523,0.002678,0.000431,0.000353
5832000,0.0324,0.013523,0.002678,0.000431,0.000588
5833000,0.0324,0.013523,0.002678,0.000431,0.000470
5834000,0.0324,0.013523,0.002678,0.000431,0.000470
5835000,0.0324,0.013523,0.002678,0.000431,0.000470
5836000,0.0324,0.013523,0.002678,0.000431,0.000470
5837000,0.0324,0.013523,0.002678,0.000431,0.000470
5838000,0.0324,0.013523,0.002678,0.000431,0.000588
5839000,0.0324,0.013523,0.002678,0.000431,0.000470
5840000,0.0324,0.013523,0.002678,0.000431,0.000588
5841000,0.0324,0.013523,0.002678,0.000431,0.000353
5842000,0.0324,0.013523,0.002678,0.000431,0.000705
5843000,0.0324,0.013523,0.002678,0.000431,0.000353
5844000,0.0324,0.013523,0.002678,0.000431,0.000588
5845000,0.0324,0.013523,0.002678,0.000431,0.000470
5846000,0.0324,0.013523,0.002678,0.000431,0.000705
5847000,0.0324,0.013523,0.002678,0.000431,0.000353
5848000,0.0324,0.013523,0.002678,0.000431,0.000588
5849000,0.0324,0.013523,0.002678,0.000431,0.000353
5850000,0.0324,0.013523,0.002678,0.000431,0.000588
5851000,0.0324,0.013523,0.002678,0.000431,0.000353
5852000,0.0324,0.013523,0.002678,0.000431,0.000588
5853000,0.0324,0.013523,0.002678,0.000431,0.000353
5854000,0.0324,0.013523,0.002678,0.000431,0.000705
5855000,0.0324,0.013523,0.002678,0.000431,0.000588
5856000,0.0324,0.013523,0.002678,0.000431,0.000470
5857000,0.0324,0.013523,0.002678,0.000431,0.000705
5858000,0.0324,0.013523,0.002678,0.000431,0.000353
5859000,0.0324,0.013523,0.002678,0.000431,0.000705
5860000,0.0324,0.013523,0.002678,0.000431,0.000353
5861000,0.0324,0.013523,0.002678,0.000431,0.000470
5862000,0.0324,0.013523,0.002678,0.000431,0.000353
5863000,0.0324,0.013523,0.002678,0.000431,0.000705
5864000,0.0324,0.013523,0.002678,0.000431,0.000353
5865000,0.0324,0.013523,0.002678,0.000431,0.000588
5866000,0.0324,0.013523,0.002678,0.000431,0.000353
5867000,0.0324,0.013523,0.002678,0.000431,0.000705
5868000,0.0324,0.013523,0.002678,0.000431,0.000353
5869000,0.0324,0.013523,0.002678,0.000431,0.000588
5870000,0.0324,0.013523,0.002678,0.000431,0.000353
5871000,0.0324,0.013523,0.002678,0.000431,0.000588
5872000,0.0324,0.013523,0.002678,0.000431,0.000353
5873000,0.0324,0.013523,0.002678,0.000431,0.000705
5874000,0.0324,0.013523,0.002678,0.000431,0.000235
5875000,0.0324,0.013523,0.002678,0.000431,0.000588
5876000,0.0324,0.013523,0.002678,0.000431,0.000353
5877000,0.0324,0.013523,0.002678,0.000431,0.000588
5878000,0.0324,0.013523,0.002678,0.000431,0.000470
5879000,0.0324,0.013523,0.002678,0.000431,0.000588
5880000,0.0324,0.013523,0.002678,0.000431,0.000353
5881000,0.0324,0.013523,0.002678,0.000431,0.000470
5882000,0.0324,0.013523,0.002678,0.000431,0.000470
5883000,0.0324,0.013523,0.002678,0.000431,0.000470
5884000,0.0324,0.013523,0.002678,0.000431,0.000705
5885000,0.0324,0.013523,0.002678,0.000431,0.000353
5886000,0.0324,0.013523,0.002678,0.000431,0.000588
5887000,0.0324,0.013523,0.002678,0.000431,0.000353
5888000,0.0324,0.013523,0.002678,0.000431,0.000588
5889000,0.0324,0.013523,0.002678,0.000431,0.000353
5890000,0.0324,0.013523,0.002678,0.000431,0.000588
5891000,0.0324,0.013523,0.002678,0.000431,0.000353
5892000,0.0324,0.013523,0.002678,0.000431,0.000588
5893000,0.0324,0.013523,0.002678,0.000431,0.000353
5894000,0.0324,0.013523,0.002678,0.000431,0.000588
5895000,0.0324,0.013523,0.002678,0.000431,0.000353
5896000,0.0324,0.013523,0.002678,0.000431,0.000705
5897000,0.0324,0.013523,0.002678,0.000431,0.000470
5898000,0.0324,0.013523,0.002678,0.000431,0.000470
5899000,0.0324,0.013523,0.002678,0.000431,0.000470
5900000,0.0324,0.013523,0.002678,0.000431,0.000470
5901000,0.0324,0.013523,0.002678,0.000431,0.000470
5902000,0.0324,0.013523,0.002678,0.000431,0.000470
5903000,0.0324,0.013523,0.002678,0.000431,0.000470
5904000,0.0324,0.013523,0.002678,0.000431,0.000470
5905000,0.0324,0.013523,0.002678,0.000431,0.000470
5906000,0.0324,0.013523,0.002678,0.000431,0.000470
5907000,0.0324,0.013523,0.002678,0.000431,0.000353
5908000,0.0324,0.013523,0.002678,0.000431,0.000588
5909000,0.0324,0.013523,0.002678,0.000431,0.000353
5910000,0.0324,0.013523,0.002678,0.000431,0.000588
5911000,0.0324,0.013523,0.002678,0.000431,0.000353
5912000,0.0324,0.013523,0.002678,0.000431,0.000588
5913000,0.0324,0.013523,0.002678,0.000431,0.000353
5914000,0.0324,0.013523,0.002678,0.000431,0.000588
5915000,0.0324,0.013523,0.002678,0.000431,0.000353
5916000,0.0324,0.013523,0.002678,0.000431,0.000588
5917000,0.0324,0.013523,0.002678,0.000431,0.000353
5918000,0.0324,0.013523,0.002678,0.000431,0.000588
5919000,0.0324,0.013523,0.002678,0.000431,0.000353
5920000,0.0324,0.013523,0.002678,0.000431,0.000705
5921000,0.0324,0.013523,0.002678,0.000431,0.000470
5922000,0.0324,0.013523,0.002678,0.000431,0.000705
5923000,0.0324,0.013523,0.002678,0.000431,0.000353
5924000,0.0324,0.013523,0.002678,0.000431,0.000588
5925000,0.0324,0.013523,0.002678,0.000431,0.000353
5926000,0.0324,0.013523,0.002678,0.000431,0.000588
5927000,0.0324,0.013523,0.002678,0.000431,0.000353
5928000,0.0324,0.013523,0.002678,0.000431,0.000588
5929000,0.0324,0.013523,0.002678,0.000431,0.000353
5930000,0.0324,0.013523,0.002678,0.000431,0.000470
5931000,0.0324,0.013523,0.002678,0.000431,0.000470
5932000,0.0324,0.013523,0.002678,0.000431,0.000470
5933000,0.0324,0.013523,0.002678,0.000431,0.000470
5934000,0.0324,0.013523,0.002678,0.000431,0.000588
5935000,0.0324,0.013523,0.002678,0.000431,0.000470
5936000,0.0324,0.013523,0.002678,0.000431,0.000588
5937000,0.0324,0.013523,0.002678,0.000431,0.000470
5938000,0.0324,0.013523,0.002678,0.000431,0.000470
5939000,0.0324,0.013523,0.002678,0.000431,0.000470
5940000,0.0324,0.013523,0.002678,0.000431,0.000470
5941000,0.0324,0.013523,0.002678,0.000431,0.000470
5942000,0.0324,0.013523,0.002678,0.000431,0.000470
5943000,0.0324,0.013523,0.002678,0.000431,0.000470
5944000,0.0324,0.013523,0.002678,0.000431,0.000470
5945000,0.0324,0.013523,0.002678,0.000431,0.000470
5946000,0.0324,0.013523,0.002678,0.000431,0.000470
5947000,0.0324,0.013523,0.002678,0.000431,0.000353
5948000,0.0324,0.013523,0.002678,0.000431,0.000588
5949000,0.0324,0.013523,0.002678,0.000431,0.000470
5950000,0.0324,0.013523,0.002678,0.000431,0.000470
5951000,0.0324,0.013523,0.002678,0.000431,0.000470
5952000,0.0324,0.013523,0.002678,0.000431,0.000470
5953000,0.0324,0.013523,0.002678,0.000431,0.000470
5954000,0.0324,0.013523,0.002678,0.000431,0.000470
5955000,0.0324,0.013523,0.002678,0.000431,0.000470
5956000,0.0324,0.013523,0.002678,0.000431,0.000353
5957000,0.0324,0.013523,0.002678,0.000431,0.000588
5958000,0.0324,0.013523,0.002678,0.000431,0.000353
5959000,0.0324,0.013523,0.002678,0.000431,0.000588
5960000,0.0324,0.013523,0.002678,0.000431,0.000353
5961000,0.0324,0.013523,0.002678,0.000431,0.000588
5962000,0.0324,0.013523,0.002678,0.000431,0.000353
5963000,0.0324,0.013523,0.002678,0.000431,0.000588
5964000,0.0324,0.013523,0.002678,0.000431,0.000353
5965000,0.0324,0.013523,0.002678,0.000431,0.000588
5966000,0.0324,0.013523,0.002678,0.000431,0.000470
5967000,0.0324,0.013523,0.002678,0.000431,0.000588
5968000,0.0324,0.013523,0.002678,0.000431,0.000470
5969000,0.0324,0.013523,0.002678,0.000431,0.000705
5970000,0.0324,0.013523,0.002678,0.000431,0.000353
5971000,0.0324,0.013523,0.002678,0.000431,0.000705
5972000,0.0324,0.013523,0.002678,0.000431,0.000470
5973000,0.0324,0.013523,0.002678,0.000431,0.000470
5974000,0.0324,0.013523,0.002678,0.000431,0.000470
5975000,0.0324,0.013523,0.002678,0.000431,0.000470
5976000,0.0324,0.013523,0.002678,0.000431,0.000470
5977000,0.0324,0.013523,0.002678,0.000431,0.000588
5978000,0.0324,0.013523,0.002678,0.000431,0.000353
5979000,0.0324,0.013523,0.002678,0.000431,0.000705
5980000,0.0324,0.013523,0.002678,0.000431,0.000470
5981000,0.0324,0.013523,0.002678,0.000431,0.000470
5982000,0.0324,0.013523,0.002678,0.000431,0.000470
5983000,0.0324,0.013523,0.002678,0.000431,0.000470
5984000,0.0324,0.013523,0.002678,0.000431,0.000470
5985000,0.0324,0.013523,0.002678,0.000431,0.000470
5986000,0.0324,0.013523,0.002678,0.000431,0.000470
5987000,0.0324,0.013523,0.002678,0.000431,0.000470
5988000,0.0324,0.013523,0.002678,0.000431,0.000470
5989000,0.0324,0.013523,0.002678,0.000431,0.000470
5990000,0.0324,0.013523,0.002678,0.000431,0.000470
5991000,0.0324,0.013523,0.002678,0.000431,0.000470
5992000,0.0324,0.013523,0.002678,0.000431,0.000470
5993000,0.0324,0.013523,0.002678,0.000431,0.000470
5994000,0.0324,0.013523,0.002678,0.000431,0.000470
5995000,0.0324,0.013523,0.002678,0.000431,0.000470
5996000,0.0324,0.013523,0.002678,0.000431,0.000470
5997000,0.0324,0.013523,0.002678,0.000431,0.000470
5998000,0.0324,0.013523,0.002678,0.000431,0.000470
5999000,0.0324,0.013523,0.002678,0.000431,0.000470
