Cycle,Area(mm^2),PeakDynamic(W),SubthresholdLeakage(W),GateLeakage(W),RunTimeDynamic(W)
29000000,0.0324,0.013523,0.002678,0.000431,0.000588
29001000,0.0324,0.013523,0.002678,0.000431,0.000353
29002000,0.0324,0.013523,0.002678,0.000431,0.000588
29003000,0.0324,0.013523,0.002678,0.000431,0.000353
29004000,0.0324,0.013523,0.002678,0.000431,0.000588
29005000,0.0324,0.013523,0.002678,0.000431,0.000353
29006000,0.0324,0.013523,0.002678,0.000431,0.000705
29007000,0.0324,0.013523,0.002678,0.000431,0.000353
29008000,0.0324,0.013523,0.002678,0.000431,0.000705
29009000,0.0324,0.013523,0.002678,0.000431,0.000588
29010000,0.0324,0.013523,0.002678,0.000431,0.000353
29011000,0.0324,0.013523,0.002678,0.000431,0.000588
29012000,0.0324,0.013523,0.002678,0.000431,0.000470
29013000,0.0324,0.013523,0.002678,0.000431,0.000588
29014000,0.0324,0.013523,0.002678,0.000431,0.000353
29015000,0.0324,0.013523,0.002678,0.000431,0.000588
29016000,0.0324,0.013523,0.002678,0.000431,0.000353
29017000,0.0324,0.013523,0.002678,0.000431,0.000588
29018000,0.0324,0.013523,0.002678,0.000431,0.000353
29019000,0.0324,0.013523,0.002678,0.000431,0.000588
29020000,0.0324,0.013523,0.002678,0.000431,0.000470
29021000,0.0324,0.013523,0.002678,0.000431,0.000470
29022000,0.0324,0.013523,0.002678,0.000431,0.000353
29023000,0.0324,0.013523,0.002678,0.000431,0.000588
29024000,0.0324,0.013523,0.002678,0.000431,0.000353
29025000,0.0324,0.013523,0.002678,0.000431,0.000588
29026000,0.0324,0.013523,0.002678,0.000431,0.000470
29027000,0.0324,0.013523,0.002678,0.000431,0.000470
29028000,0.0324,0.013523,0.002678,0.000431,0.000470
29029000,0.0324,0.013523,0.002678,0.000431,0.000353
29030000,0.0324,0.013523,0.002678,0.000431,0.000705
29031000,0.0324,0.013523,0.002678,0.000431,0.000353
29032000,0.0324,0.013523,0.002678,0.000431,0.000588
29033000,0.0324,0.013523,0.002678,0.000431,0.000353
29034000,0.0324,0.013523,0.002678,0.000431,0.000588
29035000,0.0324,0.013523,0.002678,0.000431,0.000353
29036000,0.0324,0.013523,0.002678,0.000431,0.000588
29037000,0.0324,0.013523,0.002678,0.000431,0.000353
29038000,0.0324,0.013523,0.002678,0.000431,0.000588
29039000,0.0324,0.013523,0.002678,0.000431,0.000353
29040000,0.0324,0.013523,0.002678,0.000431,0.000588
29041000,0.0324,0.013523,0.002678,0.000431,0.000353
29042000,0.0324,0.013523,0.002678,0.000431,0.000588
29043000,0.0324,0.013523,0.002678,0.000431,0.000353
29044000,0.0324,0.013523,0.002678,0.000431,0.000823
29045000,0.0324,0.013523,0.002678,0.000431,0.000235
29046000,0.0324,0.013523,0.002678,0.000431,0.000705
29047000,0.0324,0.013523,0.002678,0.000431,0.000353
29048000,0.0324,0.013523,0.002678,0.000431,0.000705
29049000,0.0324,0.013523,0.002678,0.000431,0.000470
29050000,0.0324,0.013523,0.002678,0.000431,0.000470
29051000,0.0324,0.013523,0.002678,0.000431,0.000470
29052000,0.0324,0.013523,0.002678,0.000431,0.000470
29053000,0.0324,0.013523,0.002678,0.000431,0.000470
29054000,0.0324,0.013523,0.002678,0.000431,0.000470
29055000,0.0324,0.013523,0.002678,0.000431,0.000470
29056000,0.0324,0.013523,0.002678,0.000431,0.000470
29057000,0.0324,0.013523,0.002678,0.000431,0.000470
29058000,0.0324,0.013523,0.002678,0.000431,0.000470
29059000,0.0324,0.013523,0.002678,0.000431,0.000470
29060000,0.0324,0.013523,0.002678,0.000431,0.000470
29061000,0.0324,0.013523,0.002678,0.000431,0.000353
29062000,0.0324,0.013523,0.002678,0.000431,0.000588
29063000,0.0324,0.013523,0.002678,0.000431,0.000353
29064000,0.0324,0.013523,0.002678,0.000431,0.000705
29065000,0.0324,0.013523,0.002678,0.000431,0.000353
29066000,0.0324,0.013523,0.002678,0.000431,0.000588
29067000,0.0324,0.013523,0.002678,0.000431,0.000353
29068000,0.0324,0.013523,0.002678,0.000431,0.000588
29069000,0.0324,0.013523,0.002678,0.000431,0.000353
29070000,0.0324,0.013523,0.002678,0.000431,0.000588
29071000,0.0324,0.013523,0.002678,0.000431,0.000353
29072000,0.0324,0.013523,0.002678,0.000431,0.000588
29073000,0.0324,0.013523,0.002678,0.000431,0.000353
29074000,0.0324,0.013523,0.002678,0.000431,0.000470
29075000,0.0324,0.013523,0.002678,0.000431,0.000470
29076000,0.0324,0.013523,0.002678,0.000431,0.000470
29077000,0.0324,0.013523,0.002678,0.000431,0.000588
29078000,0.0324,0.013523,0.002678,0.000431,0.000353
29079000,0.0324,0.013523,0.002678,0.000431,0.000588
29080000,0.0324,0.013523,0.002678,0.000431,0.000353
29081000,0.0324,0.013523,0.002678,0.000431,0.000588
29082000,0.0324,0.013523,0.002678,0.000431,0.000353
29083000,0.0324,0.013523,0.002678,0.000431,0.000705
29084000,0.0324,0.013523,0.002678,0.000431,0.000470
29085000,0.0324,0.013523,0.002678,0.000431,0.000470
29086000,0.0324,0.013523,0.002678,0.000431,0.000470
29087000,0.0324,0.013523,0.002678,0.000431,0.000588
29088000,0.0324,0.013523,0.002678,0.000431,0.000353
29089000,0.0324,0.013523,0.002678,0.000431,0.000588
29090000,0.0324,0.013523,0.002678,0.000431,0.000353
29091000,0.0324,0.013523,0.002678,0.000431,0.000705
29092000,0.0324,0.013523,0.002678,0.000431,0.000470
29093000,0.0324,0.013523,0.002678,0.000431,0.000353
29094000,0.0324,0.013523,0.002678,0.000431,0.000588
29095000,0.0324,0.013523,0.002678,0.000431,0.000470
29096000,0.0324,0.013523,0.002678,0.000431,0.000353
29097000,0.0324,0.013523,0.002678,0.000431,0.000823
29098000,0.0324,0.013523,0.002678,0.000431,0.000353
29099000,0.0324,0.013523,0.002678,0.000431,0.000470
29100000,0.0324,0.013523,0.002678,0.000431,0.000353
29101000,0.0324,0.013523,0.002678,0.000431,0.000588
29102000,0.0324,0.013523,0.002678,0.000431,0.000353
29103000,0.0324,0.013523,0.002678,0.000431,0.000588
29104000,0.0324,0.013523,0.002678,0.000431,0.000353
29105000,0.0324,0.013523,0.002678,0.000431,0.000705
29106000,0.0324,0.013523,0.002678,0.000431,0.000588
29107000,0.0324,0.013523,0.002678,0.000431,0.000470
29108000,0.0324,0.013523,0.002678,0.000431,0.000588
29109000,0.0324,0.013523,0.002678,0.000431,0.000353
29110000,0.0324,0.013523,0.002678,0.000431,0.000588
29111000,0.0324,0.013523,0.002678,0.000431,0.000353
29112000,0.0324,0.013523,0.002678,0.000431,0.000588
29113000,0.0324,0.013523,0.002678,0.000431,0.000353
29114000,0.0324,0.013523,0.002678,0.000431,0.000470
29115000,0.0324,0.013523,0.002678,0.000431,0.000470
29116000,0.0324,0.013523,0.002678,0.000431,0.000470
29117000,0.0324,0.013523,0.002678,0.000431,0.000470
29118000,0.0324,0.013523,0.002678,0.000431,0.000470
29119000,0.0324,0.013523,0.002678,0.000431,0.000470
29120000,0.0324,0.013523,0.002678,0.000431,0.000353
29121000,0.0324,0.013523,0.002678,0.000431,0.000588
29122000,0.0324,0.013523,0.002678,0.000431,0.000353
29123000,0.0324,0.013523,0.002678,0.000431,0.000705
29124000,0.0324,0.013523,0.002678,0.000431,0.000470
29125000,0.0324,0.013523,0.002678,0.000431,0.000470
29126000,0.0324,0.013523,0.002678,0.000431,0.000470
29127000,0.0324,0.013523,0.002678,0.000431,0.000470
29128000,0.0324,0.013523,0.002678,0.000431,0.000470
29129000,0.0324,0.013523,0.002678,0.000431,0.000470
29130000,0.0324,0.013523,0.002678,0.000431,0.000470
29131000,0.0324,0.013523,0.002678,0.000431,0.000470
29132000,0.0324,0.013523,0.002678,0.000431,0.000470
29133000,0.0324,0.013523,0.002678,0.000431,0.000588
29134000,0.0324,0.013523,0.002678,0.000431,0.000470
29135000,0.0324,0.013523,0.002678,0.000431,0.000470
29136000,0.0324,0.013523,0.002678,0.000431,0.000353
29137000,0.0324,0.013523,0.002678,0.000431,0.000588
29138000,0.0324,0.013523,0.002678,0.000431,0.000353
29139000,0.0324,0.013523,0.002678,0.000431,0.000823
29140000,0.0324,0.013523,0.002678,0.000431,0.000235
29141000,0.0324,0.013523,0.002678,0.000431,0.000705
29142000,0.0324,0.013523,0.002678,0.000431,0.000353
29143000,0.0324,0.013523,0.002678,0.000431,0.000588
29144000,0.0324,0.013523,0.002678,0.000431,0.000353
29145000,0.0324,0.013523,0.002678,0.000431,0.000588
29146000,0.0324,0.013523,0.002678,0.000431,0.000353
29147000,0.0324,0.013523,0.002678,0.000431,0.000588
29148000,0.0324,0.013523,0.002678,0.000431,0.000353
29149000,0.0324,0.013523,0.002678,0.000431,0.000588
29150000,0.0324,0.013523,0.002678,0.000431,0.000353
29151000,0.0324,0.013523,0.002678,0.000431,0.000588
29152000,0.0324,0.013523,0.002678,0.000431,0.000353
29153000,0.0324,0.013523,0.002678,0.000431,0.000705
29154000,0.0324,0.013523,0.002678,0.000431,0.000588
29155000,0.0324,0.013523,0.002678,0.000431,0.000470
29156000,0.0324,0.013523,0.002678,0.000431,0.000588
29157000,0.0324,0.013523,0.002678,0.000431,0.000353
29158000,0.0324,0.013523,0.002678,0.000431,0.000470
29159000,0.0324,0.013523,0.002678,0.000431,0.000470
29160000,0.0324,0.013523,0.002678,0.000431,0.000353
29161000,0.0324,0.013523,0.002678,0.000431,0.000588
29162000,0.0324,0.013523,0.002678,0.000431,0.000353
29163000,0.0324,0.013523,0.002678,0.000431,0.000705
29164000,0.0324,0.013523,0.002678,0.000431,0.000588
29165000,0.0324,0.013523,0.002678,0.000431,0.000470
29166000,0.0324,0.013523,0.002678,0.000431,0.000705
29167000,0.0324,0.013523,0.002678,0.000431,0.000353
29168000,0.0324,0.013523,0.002678,0.000431,0.000588
29169000,0.0324,0.013523,0.002678,0.000431,0.000353
29170000,0.0324,0.013523,0.002678,0.000431,0.000588
29171000,0.0324,0.013523,0.002678,0.000431,0.000353
29172000,0.0324,0.013523,0.002678,0.000431,0.000588
29173000,0.0324,0.013523,0.002678,0.000431,0.000353
29174000,0.0324,0.013523,0.002678,0.000431,0.000470
29175000,0.0324,0.013523,0.002678,0.000431,0.000470
29176000,0.0324,0.013523,0.002678,0.000431,0.000470
29177000,0.0324,0.013523,0.002678,0.000431,0.000470
29178000,0.0324,0.013523,0.002678,0.000431,0.000470
29179000,0.0324,0.013523,0.002678,0.000431,0.000353
29180000,0.0324,0.013523,0.002678,0.000431,0.000588
29181000,0.0324,0.013523,0.002678,0.000431,0.000353
29182000,0.0324,0.013523,0.002678,0.000431,0.000588
29183000,0.0324,0.013523,0.002678,0.000431,0.000353
29184000,0.0324,0.013523,0.002678,0.000431,0.000588
29185000,0.0324,0.013523,0.002678,0.000431,0.000353
29186000,0.0324,0.013523,0.002678,0.000431,0.000588
29187000,0.0324,0.013523,0.002678,0.000431,0.000353
29188000,0.0324,0.013523,0.002678,0.000431,0.000588
29189000,0.0324,0.013523,0.002678,0.000431,0.000353
29190000,0.0324,0.013523,0.002678,0.000431,0.000470
29191000,0.0324,0.013523,0.002678,0.000431,0.000588
29192000,0.0324,0.013523,0.002678,0.000431,0.000588
29193000,0.0324,0.013523,0.002678,0.000431,0.000470
29194000,0.0324,0.013523,0.002678,0.000431,0.000588
29195000,0.0324,0.013523,0.002678,0.000431,0.000470
29196000,0.0324,0.013523,0.002678,0.000431,0.000470
29197000,0.0324,0.013523,0.002678,0.000431,0.000353
29198000,0.0324,0.013523,0.002678,0.000431,0.000588
29199000,0.0324,0.013523,0.002678,0.000431,0.000353
29200000,0.0324,0.013523,0.002678,0.000431,0.000588
29201000,0.0324,0.013523,0.002678,0.000431,0.000353
29202000,0.0324,0.013523,0.002678,0.000431,0.000588
29203000,0.0324,0.013523,0.002678,0.000431,0.000353
29204000,0.0324,0.013523,0.002678,0.000431,0.000588
29205000,0.0324,0.013523,0.002678,0.000431,0.000353
29206000,0.0324,0.013523,0.002678,0.000431,0.000588
29207000,0.0324,0.013523,0.002678,0.000431,0.000470
29208000,0.0324,0.013523,0.002678,0.000431,0.000470
29209000,0.0324,0.013523,0.002678,0.000431,0.000470
29210000,0.0324,0.013523,0.002678,0.000431,0.000353
29211000,0.0324,0.013523,0.002678,0.000431,0.000588
29212000,0.0324,0.013523,0.002678,0.000431,0.000353
29213000,0.0324,0.013523,0.002678,0.000431,0.000588
29214000,0.0324,0.013523,0.002678,0.000431,0.000353
29215000,0.0324,0.013523,0.002678,0.000431,0.000588
29216000,0.0324,0.013523,0.002678,0.000431,0.000235
29217000,0.0324,0.013523,0.002678,0.000431,0.000588
29218000,0.0324,0.013523,0.002678,0.000431,0.000470
29219000,0.0324,0.013523,0.002678,0.000431,0.000588
29220000,0.0324,0.013523,0.002678,0.000431,0.000353
29221000,0.0324,0.013523,0.002678,0.000431,0.000705
29222000,0.0324,0.013523,0.002678,0.000431,0.000353
29223000,0.0324,0.013523,0.002678,0.000431,0.000588
29224000,0.0324,0.013523,0.002678,0.000431,0.000470
29225000,0.0324,0.013523,0.002678,0.000431,0.000588
29226000,0.0324,0.013523,0.002678,0.000431,0.000588
29227000,0.0324,0.013523,0.002678,0.000431,0.000470
29228000,0.0324,0.013523,0.002678,0.000431,0.000705
29229000,0.0324,0.013523,0.002678,0.000431,0.000353
29230000,0.0324,0.013523,0.002678,0.000431,0.000705
29231000,0.0324,0.013523,0.002678,0.000431,0.000588
29232000,0.0324,0.013523,0.002678,0.000431,0.000470
29233000,0.0324,0.013523,0.002678,0.000431,0.000353
29234000,0.0324,0.013523,0.002678,0.000431,0.000470
29235000,0.0324,0.013523,0.002678,0.000431,0.000470
29236000,0.0324,0.013523,0.002678,0.000431,0.000470
29237000,0.0324,0.013523,0.002678,0.000431,0.000470
29238000,0.0324,0.013523,0.002678,0.000431,0.000470
29239000,0.0324,0.013523,0.002678,0.000431,0.000470
29240000,0.0324,0.013523,0.002678,0.000431,0.000470
29241000,0.0324,0.013523,0.002678,0.000431,0.000470
29242000,0.0324,0.013523,0.002678,0.000431,0.000470
29243000,0.0324,0.013523,0.002678,0.000431,0.000470
29244000,0.0324,0.013523,0.002678,0.000431,0.000470
29245000,0.0324,0.013523,0.002678,0.000431,0.000470
29246000,0.0324,0.013523,0.002678,0.000431,0.000470
29247000,0.0324,0.013523,0.002678,0.000431,0.000353
29248000,0.0324,0.013523,0.002678,0.000431,0.000705
29249000,0.0324,0.013523,0.002678,0.000431,0.000353
29250000,0.0324,0.013523,0.002678,0.000431,0.000705
29251000,0.0324,0.013523,0.002678,0.000431,0.000588
29252000,0.0324,0.013523,0.002678,0.000431,0.000470
29253000,0.0324,0.013523,0.002678,0.000431,0.000588
29254000,0.0324,0.013523,0.002678,0.000431,0.000353
29255000,0.0324,0.013523,0.002678,0.000431,0.000588
29256000,0.0324,0.013523,0.002678,0.000431,0.000353
29257000,0.0324,0.013523,0.002678,0.000431,0.000588
29258000,0.0324,0.013523,0.002678,0.000431,0.000353
29259000,0.0324,0.013523,0.002678,0.000431,0.000588
29260000,0.0324,0.013523,0.002678,0.000431,0.000470
29261000,0.0324,0.013523,0.002678,0.000431,0.000588
29262000,0.0324,0.013523,0.002678,0.000431,0.000470
29263000,0.0324,0.013523,0.002678,0.000431,0.000705
29264000,0.0324,0.013523,0.002678,0.000431,0.000235
29265000,0.0324,0.013523,0.002678,0.000431,0.000705
29266000,0.0324,0.013523,0.002678,0.000431,0.000353
29267000,0.0324,0.013523,0.002678,0.000431,0.000705
29268000,0.0324,0.013523,0.002678,0.000431,0.000588
29269000,0.0324,0.013523,0.002678,0.000431,0.000470
29270000,0.0324,0.013523,0.002678,0.000431,0.000588
29271000,0.0324,0.013523,0.002678,0.000431,0.000353
29272000,0.0324,0.013523,0.002678,0.000431,0.000588
29273000,0.0324,0.013523,0.002678,0.000431,0.000353
29274000,0.0324,0.013523,0.002678,0.000431,0.000705
29275000,0.0324,0.013523,0.002678,0.000431,0.000353
29276000,0.0324,0.013523,0.002678,0.000431,0.000588
29277000,0.0324,0.013523,0.002678,0.000431,0.000353
29278000,0.0324,0.013523,0.002678,0.000431,0.000588
29279000,0.0324,0.013523,0.002678,0.000431,0.000353
29280000,0.0324,0.013523,0.002678,0.000431,0.000588
29281000,0.0324,0.013523,0.002678,0.000431,0.000353
29282000,0.0324,0.013523,0.002678,0.000431,0.000470
29283000,0.0324,0.013523,0.002678,0.000431,0.000353
29284000,0.0324,0.013523,0.002678,0.000431,0.000588
29285000,0.0324,0.013523,0.002678,0.000431,0.000470
29286000,0.0324,0.013523,0.002678,0.000431,0.000588
29287000,0.0324,0.013523,0.002678,0.000431,0.000470
29288000,0.0324,0.013523,0.002678,0.000431,0.000705
29289000,0.0324,0.013523,0.002678,0.000431,0.000353
29290000,0.0324,0.013523,0.002678,0.000431,0.000705
29291000,0.0324,0.013523,0.002678,0.000431,0.000470
29292000,0.0324,0.013523,0.002678,0.000431,0.000470
29293000,0.0324,0.013523,0.002678,0.000431,0.000470
29294000,0.0324,0.013523,0.002678,0.000431,0.000470
29295000,0.0324,0.013523,0.002678,0.000431,0.000470
29296000,0.0324,0.013523,0.002678,0.000431,0.000470
29297000,0.0324,0.013523,0.002678,0.000431,0.000470
29298000,0.0324,0.013523,0.002678,0.000431,0.000470
29299000,0.0324,0.013523,0.002678,0.000431,0.000470
29300000,0.0324,0.013523,0.002678,0.000431,0.000470
29301000,0.0324,0.013523,0.002678,0.000431,0.000353
29302000,0.0324,0.013523,0.002678,0.000431,0.000588
29303000,0.0324,0.013523,0.002678,0.000431,0.000353
29304000,0.0324,0.013523,0.002678,0.000431,0.000705
29305000,0.0324,0.013523,0.002678,0.000431,0.000470
29306000,0.0324,0.013523,0.002678,0.000431,0.000588
29307000,0.0324,0.013523,0.002678,0.000431,0.000353
29308000,0.0324,0.013523,0.002678,0.000431,0.000588
29309000,0.0324,0.013523,0.002678,0.000431,0.000353
29310000,0.0324,0.013523,0.002678,0.000431,0.000470
29311000,0.0324,0.013523,0.002678,0.000431,0.000470
29312000,0.0324,0.013523,0.002678,0.000431,0.000705
29313000,0.0324,0.013523,0.002678,0.000431,0.000353
29314000,0.0324,0.013523,0.002678,0.000431,0.000588
29315000,0.0324,0.013523,0.002678,0.000431,0.000353
29316000,0.0324,0.013523,0.002678,0.000431,0.000705
29317000,0.0324,0.013523,0.002678,0.000431,0.000353
29318000,0.0324,0.013523,0.002678,0.000431,0.000470
29319000,0.0324,0.013523,0.002678,0.000431,0.000353
29320000,0.0324,0.013523,0.002678,0.000431,0.000588
29321000,0.0324,0.013523,0.002678,0.000431,0.000353
29322000,0.0324,0.013523,0.002678,0.000431,0.000588
29323000,0.0324,0.013523,0.002678,0.000431,0.000470
29324000,0.0324,0.013523,0.002678,0.000431,0.000470
29325000,0.0324,0.013523,0.002678,0.000431,0.000588
29326000,0.0324,0.013523,0.002678,0.000431,0.000470
29327000,0.0324,0.013523,0.002678,0.000431,0.000470
29328000,0.0324,0.013523,0.002678,0.000431,0.000470
29329000,0.0324,0.013523,0.002678,0.000431,0.000470
29330000,0.0324,0.013523,0.002678,0.000431,0.000470
29331000,0.0324,0.013523,0.002678,0.000431,0.000470
29332000,0.0324,0.013523,0.002678,0.000431,0.000588
29333000,0.0324,0.013523,0.002678,0.000431,0.000470
29334000,0.0324,0.013523,0.002678,0.000431,0.000705
29335000,0.0324,0.013523,0.002678,0.000431,0.000353
29336000,0.0324,0.013523,0.002678,0.000431,0.000588
29337000,0.0324,0.013523,0.002678,0.000431,0.000353
29338000,0.0324,0.013523,0.002678,0.000431,0.000823
29339000,0.0324,0.013523,0.002678,0.000431,0.000353
29340000,0.0324,0.013523,0.002678,0.000431,0.000470
29341000,0.0324,0.013523,0.002678,0.000431,0.000470
29342000,0.0324,0.013523,0.002678,0.000431,0.000470
29343000,0.0324,0.013523,0.002678,0.000431,0.000470
29344000,0.0324,0.013523,0.002678,0.000431,0.000470
29345000,0.0324,0.013523,0.002678,0.000431,0.000470
29346000,0.0324,0.013523,0.002678,0.000431,0.000470
29347000,0.0324,0.013523,0.002678,0.000431,0.000353
29348000,0.0324,0.013523,0.002678,0.000431,0.000588
29349000,0.0324,0.013523,0.002678,0.000431,0.000353
29350000,0.0324,0.013523,0.002678,0.000431,0.000588
29351000,0.0324,0.013523,0.002678,0.000431,0.000353
29352000,0.0324,0.013523,0.002678,0.000431,0.000705
29353000,0.0324,0.013523,0.002678,0.000431,0.000470
29354000,0.0324,0.013523,0.002678,0.000431,0.000705
29355000,0.0324,0.013523,0.002678,0.000431,0.000353
29356000,0.0324,0.013523,0.002678,0.000431,0.000470
29357000,0.0324,0.013523,0.002678,0.000431,0.000470
29358000,0.0324,0.013523,0.002678,0.000431,0.000470
29359000,0.0324,0.013523,0.002678,0.000431,0.000470
29360000,0.0324,0.013523,0.002678,0.000431,0.000588
29361000,0.0324,0.013523,0.002678,0.000431,0.000470
29362000,0.0324,0.013523,0.002678,0.000431,0.000705
29363000,0.0324,0.013523,0.002678,0.000431,0.000353
29364000,0.0324,0.013523,0.002678,0.000431,0.000705
29365000,0.0324,0.013523,0.002678,0.000431,0.000470
29366000,0.0324,0.013523,0.002678,0.000431,0.000470
29367000,0.0324,0.013523,0.002678,0.000431,0.000470
29368000,0.0324,0.013523,0.002678,0.000431,0.000470
29369000,0.0324,0.013523,0.002678,0.000431,0.000353
29370000,0.0324,0.013523,0.002678,0.000431,0.000588
29371000,0.0324,0.013523,0.002678,0.000431,0.000588
29372000,0.0324,0.013523,0.002678,0.000431,0.000470
29373000,0.0324,0.013523,0.002678,0.000431,0.000705
29374000,0.0324,0.013523,0.002678,0.000431,0.000353
29375000,0.0324,0.013523,0.002678,0.000431,0.000588
29376000,0.0324,0.013523,0.002678,0.000431,0.000353
29377000,0.0324,0.013523,0.002678,0.000431,0.000588
29378000,0.0324,0.013523,0.002678,0.000431,0.000353
29379000,0.0324,0.013523,0.002678,0.000431,0.000588
29380000,0.0324,0.013523,0.002678,0.000431,0.000353
29381000,0.0324,0.013523,0.002678,0.000431,0.000588
29382000,0.0324,0.013523,0.002678,0.000431,0.000353
29383000,0.0324,0.013523,0.002678,0.000431,0.000588
29384000,0.0324,0.013523,0.002678,0.000431,0.000353
29385000,0.0324,0.013523,0.002678,0.000431,0.000823
29386000,0.0324,0.013523,0.002678,0.000431,0.000353
29387000,0.0324,0.013523,0.002678,0.000431,0.000470
29388000,0.0324,0.013523,0.002678,0.000431,0.000470
29389000,0.0324,0.013523,0.002678,0.000431,0.000470
29390000,0.0324,0.013523,0.002678,0.000431,0.000470
29391000,0.0324,0.013523,0.002678,0.000431,0.000470
29392000,0.0324,0.013523,0.002678,0.000431,0.000470
29393000,0.0324,0.013523,0.002678,0.000431,0.000588
29394000,0.0324,0.013523,0.002678,0.000431,0.000470
29395000,0.0324,0.013523,0.002678,0.000431,0.000705
29396000,0.0324,0.013523,0.002678,0.000431,0.000353
29397000,0.0324,0.013523,0.002678,0.000431,0.000588
29398000,0.0324,0.013523,0.002678,0.000431,0.000353
29399000,0.0324,0.013523,0.002678,0.000431,0.000588
29400000,0.0324,0.013523,0.002678,0.000431,0.000353
29401000,0.0324,0.013523,0.002678,0.000431,0.000588
29402000,0.0324,0.013523,0.002678,0.000431,0.000353
29403000,0.0324,0.013523,0.002678,0.000431,0.000470
29404000,0.0324,0.013523,0.002678,0.000431,0.000470
29405000,0.0324,0.013523,0.002678,0.000431,0.000470
29406000,0.0324,0.013523,0.002678,0.000431,0.000470
29407000,0.0324,0.013523,0.002678,0.000431,0.000470
29408000,0.0324,0.013523,0.002678,0.000431,0.000470
29409000,0.0324,0.013523,0.002678,0.000431,0.000470
29410000,0.0324,0.013523,0.002678,0.000431,0.000470
29411000,0.0324,0.013523,0.002678,0.000431,0.000588
29412000,0.0324,0.013523,0.002678,0.000431,0.000470
29413000,0.0324,0.013523,0.002678,0.000431,0.000705
29414000,0.0324,0.013523,0.002678,0.000431,0.000353
29415000,0.0324,0.013523,0.002678,0.000431,0.000470
29416000,0.0324,0.013523,0.002678,0.000431,0.000470
29417000,0.0324,0.013523,0.002678,0.000431,0.000588
29418000,0.0324,0.013523,0.002678,0.000431,0.000353
29419000,0.0324,0.013523,0.002678,0.000431,0.000470
29420000,0.0324,0.013523,0.002678,0.000431,0.000470
29421000,0.0324,0.013523,0.002678,0.000431,0.000470
29422000,0.0324,0.013523,0.002678,0.000431,0.000470
29423000,0.0324,0.013523,0.002678,0.000431,0.000470
29424000,0.0324,0.013523,0.002678,0.000431,0.000470
29425000,0.0324,0.013523,0.002678,0.000431,0.000588
29426000,0.0324,0.013523,0.002678,0.000431,0.000470
29427000,0.0324,0.013523,0.002678,0.000431,0.000705
29428000,0.0324,0.013523,0.002678,0.000431,0.000353
29429000,0.0324,0.013523,0.002678,0.000431,0.000705
29430000,0.0324,0.013523,0.002678,0.000431,0.000588
29431000,0.0324,0.013523,0.002678,0.000431,0.000353
29432000,0.0324,0.013523,0.002678,0.000431,0.000588
29433000,0.0324,0.013523,0.002678,0.000431,0.000470
29434000,0.0324,0.013523,0.002678,0.000431,0.000353
29435000,0.0324,0.013523,0.002678,0.000431,0.000470
29436000,0.0324,0.013523,0.002678,0.000431,0.000470
29437000,0.0324,0.013523,0.002678,0.000431,0.000470
29438000,0.0324,0.013523,0.002678,0.000431,0.000470
29439000,0.0324,0.013523,0.002678,0.000431,0.000588
29440000,0.0324,0.013523,0.002678,0.000431,0.000353
29441000,0.0324,0.013523,0.002678,0.000431,0.000470
29442000,0.0324,0.013523,0.002678,0.000431,0.000470
29443000,0.0324,0.013523,0.002678,0.000431,0.000470
29444000,0.0324,0.013523,0.002678,0.000431,0.000470
29445000,0.0324,0.013523,0.002678,0.000431,0.000470
29446000,0.0324,0.013523,0.002678,0.000431,0.000470
29447000,0.0324,0.013523,0.002678,0.000431,0.000470
29448000,0.0324,0.013523,0.002678,0.000431,0.000470
29449000,0.0324,0.013523,0.002678,0.000431,0.000470
29450000,0.0324,0.013523,0.002678,0.000431,0.000470
29451000,0.0324,0.013523,0.002678,0.000431,0.000705
29452000,0.0324,0.013523,0.002678,0.000431,0.000235
29453000,0.0324,0.013523,0.002678,0.000431,0.000823
29454000,0.0324,0.013523,0.002678,0.000431,0.000353
29455000,0.0324,0.013523,0.002678,0.000431,0.000470
29456000,0.0324,0.013523,0.002678,0.000431,0.000470
29457000,0.0324,0.013523,0.002678,0.000431,0.000588
29458000,0.0324,0.013523,0.002678,0.000431,0.000353
29459000,0.0324,0.013523,0.002678,0.000431,0.000588
29460000,0.0324,0.013523,0.002678,0.000431,0.000353
29461000,0.0324,0.013523,0.002678,0.000431,0.000470
29462000,0.0324,0.013523,0.002678,0.000431,0.000470
29463000,0.0324,0.013523,0.002678,0.000431,0.000588
29464000,0.0324,0.013523,0.002678,0.000431,0.000353
29465000,0.0324,0.013523,0.002678,0.000431,0.000588
29466000,0.0324,0.013523,0.002678,0.000431,0.000353
29467000,0.0324,0.013523,0.002678,0.000431,0.000588
29468000,0.0324,0.013523,0.002678,0.000431,0.000353
29469000,0.0324,0.013523,0.002678,0.000431,0.000588
29470000,0.0324,0.013523,0.002678,0.000431,0.000353
29471000,0.0324,0.013523,0.002678,0.000431,0.000588
29472000,0.0324,0.013523,0.002678,0.000431,0.000353
29473000,0.0324,0.013523,0.002678,0.000431,0.000588
29474000,0.0324,0.013523,0.002678,0.000431,0.000353
29475000,0.0324,0.013523,0.002678,0.000431,0.000470
29476000,0.0324,0.013523,0.002678,0.000431,0.000470
29477000,0.0324,0.013523,0.002678,0.000431,0.000470
29478000,0.0324,0.013523,0.002678,0.000431,0.000353
29479000,0.0324,0.013523,0.002678,0.000431,0.000588
29480000,0.0324,0.013523,0.002678,0.000431,0.000470
29481000,0.0324,0.013523,0.002678,0.000431,0.000470
29482000,0.0324,0.013523,0.002678,0.000431,0.000470
29483000,0.0324,0.013523,0.002678,0.000431,0.000470
29484000,0.0324,0.013523,0.002678,0.000431,0.000353
29485000,0.0324,0.013523,0.002678,0.000431,0.000588
29486000,0.0324,0.013523,0.002678,0.000431,0.000353
29487000,0.0324,0.013523,0.002678,0.000431,0.000588
29488000,0.0324,0.013523,0.002678,0.000431,0.000353
29489000,0.0324,0.013523,0.002678,0.000431,0.000588
29490000,0.0324,0.013523,0.002678,0.000431,0.000470
29491000,0.0324,0.013523,0.002678,0.000431,0.000470
29492000,0.0324,0.013523,0.002678,0.000431,0.000353
29493000,0.0324,0.013523,0.002678,0.000431,0.000705
29494000,0.0324,0.013523,0.002678,0.000431,0.000470
29495000,0.0324,0.013523,0.002678,0.000431,0.000588
29496000,0.0324,0.013523,0.002678,0.000431,0.000353
29497000,0.0324,0.013523,0.002678,0.000431,0.000470
29498000,0.0324,0.013523,0.002678,0.000431,0.000470
29499000,0.0324,0.013523,0.002678,0.000431,0.000705
29500000,0.0324,0.013523,0.002678,0.000431,0.000353
29501000,0.0324,0.013523,0.002678,0.000431,0.000705
29502000,0.0324,0.013523,0.002678,0.000431,0.000588
29503000,0.0324,0.013523,0.002678,0.000431,0.000470
29504000,0.0324,0.013523,0.002678,0.000431,0.000588
29505000,0.0324,0.013523,0.002678,0.000431,0.000353
29506000,0.0324,0.013523,0.002678,0.000431,0.000705
29507000,0.0324,0.013523,0.002678,0.000431,0.000353
29508000,0.0324,0.013523,0.002678,0.000431,0.000588
29509000,0.0324,0.013523,0.002678,0.000431,0.000353
29510000,0.0324,0.013523,0.002678,0.000431,0.000588
29511000,0.0324,0.013523,0.002678,0.000431,0.000353
29512000,0.0324,0.013523,0.002678,0.000431,0.000588
29513000,0.0324,0.013523,0.002678,0.000431,0.000353
29514000,0.0324,0.013523,0.002678,0.000431,0.000588
29515000,0.0324,0.013523,0.002678,0.000431,0.000353
29516000,0.0324,0.013523,0.002678,0.000431,0.000588
29517000,0.0324,0.013523,0.002678,0.000431,0.000353
29518000,0.0324,0.013523,0.002678,0.000431,0.000470
29519000,0.0324,0.013523,0.002678,0.000431,0.000470
29520000,0.0324,0.013523,0.002678,0.000431,0.000588
29521000,0.0324,0.013523,0.002678,0.000431,0.000470
29522000,0.0324,0.013523,0.002678,0.000431,0.000588
29523000,0.0324,0.013523,0.002678,0.000431,0.000353
29524000,0.0324,0.013523,0.002678,0.000431,0.000823
29525000,0.0324,0.013523,0.002678,0.000431,0.000235
29526000,0.0324,0.013523,0.002678,0.000431,0.000705
29527000,0.0324,0.013523,0.002678,0.000431,0.000353
29528000,0.0324,0.013523,0.002678,0.000431,0.000588
29529000,0.0324,0.013523,0.002678,0.000431,0.000353
29530000,0.0324,0.013523,0.002678,0.000431,0.000588
29531000,0.0324,0.013523,0.002678,0.000431,0.000353
29532000,0.0324,0.013523,0.002678,0.000431,0.000588
29533000,0.0324,0.013523,0.002678,0.000431,0.000353
29534000,0.0324,0.013523,0.002678,0.000431,0.000588
29535000,0.0324,0.013523,0.002678,0.000431,0.000353
29536000,0.0324,0.013523,0.002678,0.000431,0.000588
29537000,0.0324,0.013523,0.002678,0.000431,0.000353
29538000,0.0324,0.013523,0.002678,0.000431,0.000588
29539000,0.0324,0.013523,0.002678,0.000431,0.000353
29540000,0.0324,0.013523,0.002678,0.000431,0.000588
29541000,0.0324,0.013523,0.002678,0.000431,0.000353
29542000,0.0324,0.013523,0.002678,0.000431,0.000470
29543000,0.0324,0.013523,0.002678,0.000431,0.000470
29544000,0.0324,0.013523,0.002678,0.000431,0.000470
29545000,0.0324,0.013523,0.002678,0.000431,0.000470
29546000,0.0324,0.013523,0.002678,0.000431,0.000470
29547000,0.0324,0.013523,0.002678,0.000431,0.000470
29548000,0.0324,0.013523,0.002678,0.000431,0.000353
29549000,0.0324,0.013523,0.002678,0.000431,0.000588
29550000,0.0324,0.013523,0.002678,0.000431,0.000353
29551000,0.0324,0.013523,0.002678,0.000431,0.000823
29552000,0.0324,0.013523,0.002678,0.000431,0.000353
29553000,0.0324,0.013523,0.002678,0.000431,0.000588
29554000,0.0324,0.013523,0.002678,0.000431,0.000353
29555000,0.0324,0.013523,0.002678,0.000431,0.000588
29556000,0.0324,0.013523,0.002678,0.000431,0.000353
29557000,0.0324,0.013523,0.002678,0.000431,0.000588
29558000,0.0324,0.013523,0.002678,0.000431,0.000353
29559000,0.0324,0.013523,0.002678,0.000431,0.000588
29560000,0.0324,0.013523,0.002678,0.000431,0.000353
29561000,0.0324,0.013523,0.002678,0.000431,0.000588
29562000,0.0324,0.013523,0.002678,0.000431,0.000353
29563000,0.0324,0.013523,0.002678,0.000431,0.000588
29564000,0.0324,0.013523,0.002678,0.000431,0.000353
29565000,0.0324,0.013523,0.002678,0.000431,0.000588
29566000,0.0324,0.013523,0.002678,0.000431,0.000470
29567000,0.0324,0.013523,0.002678,0.000431,0.000588
29568000,0.0324,0.013523,0.002678,0.000431,0.000353
29569000,0.0324,0.013523,0.002678,0.000431,0.000588
29570000,0.0324,0.013523,0.002678,0.000431,0.000353
29571000,0.0324,0.013523,0.002678,0.000431,0.000588
29572000,0.0324,0.013523,0.002678,0.000431,0.000353
29573000,0.0324,0.013523,0.002678,0.000431,0.000588
29574000,0.0324,0.013523,0.002678,0.000431,0.000353
29575000,0.0324,0.013523,0.002678,0.000431,0.000470
29576000,0.0324,0.013523,0.002678,0.000431,0.000470
29577000,0.0324,0.013523,0.002678,0.000431,0.000470
29578000,0.0324,0.013523,0.002678,0.000431,0.000470
29579000,0.0324,0.013523,0.002678,0.000431,0.000470
29580000,0.0324,0.013523,0.002678,0.000431,0.000470
29581000,0.0324,0.013523,0.002678,0.000431,0.000353
29582000,0.0324,0.013523,0.002678,0.000431,0.000588
29583000,0.0324,0.013523,0.002678,0.000431,0.000353
29584000,0.0324,0.013523,0.002678,0.000431,0.000588
29585000,0.0324,0.013523,0.002678,0.000431,0.000353
29586000,0.0324,0.013523,0.002678,0.000431,0.000588
29587000,0.0324,0.013523,0.002678,0.000431,0.000353
29588000,0.0324,0.013523,0.002678,0.000431,0.000588
29589000,0.0324,0.013523,0.002678,0.000431,0.000353
29590000,0.0324,0.013523,0.002678,0.000431,0.000588
29591000,0.0324,0.013523,0.002678,0.000431,0.000353
29592000,0.0324,0.013523,0.002678,0.000431,0.000588
29593000,0.0324,0.013523,0.002678,0.000431,0.000353
29594000,0.0324,0.013523,0.002678,0.000431,0.000705
29595000,0.0324,0.013523,0.002678,0.000431,0.000470
29596000,0.0324,0.013523,0.002678,0.000431,0.000470
29597000,0.0324,0.013523,0.002678,0.000431,0.000588
29598000,0.0324,0.013523,0.002678,0.000431,0.000470
29599000,0.0324,0.013523,0.002678,0.000431,0.000588
29600000,0.0324,0.013523,0.002678,0.000431,0.000353
29601000,0.0324,0.013523,0.002678,0.000431,0.000470
29602000,0.0324,0.013523,0.002678,0.000431,0.000470
29603000,0.0324,0.013523,0.002678,0.000431,0.000470
29604000,0.0324,0.013523,0.002678,0.000431,0.000470
29605000,0.0324,0.013523,0.002678,0.000431,0.000470
29606000,0.0324,0.013523,0.002678,0.000431,0.000470
29607000,0.0324,0.013523,0.002678,0.000431,0.000353
29608000,0.0324,0.013523,0.002678,0.000431,0.000588
29609000,0.0324,0.013523,0.002678,0.000431,0.000353
29610000,0.0324,0.013523,0.002678,0.000431,0.000588
29611000,0.0324,0.013523,0.002678,0.000431,0.000353
29612000,0.0324,0.013523,0.002678,0.000431,0.000705
29613000,0.0324,0.013523,0.002678,0.000431,0.000470
29614000,0.0324,0.013523,0.002678,0.000431,0.000470
29615000,0.0324,0.013523,0.002678,0.000431,0.000470
29616000,0.0324,0.013523,0.002678,0.000431,0.000470
29617000,0.0324,0.013523,0.002678,0.000431,0.000470
29618000,0.0324,0.013523,0.002678,0.000431,0.000470
29619000,0.0324,0.013523,0.002678,0.000431,0.000470
29620000,0.0324,0.013523,0.002678,0.000431,0.000470
29621000,0.0324,0.013523,0.002678,0.000431,0.000470
29622000,0.0324,0.013523,0.002678,0.000431,0.000470
29623000,0.0324,0.013523,0.002678,0.000431,0.000470
29624000,0.0324,0.013523,0.002678,0.000431,0.000588
29625000,0.0324,0.013523,0.002678,0.000431,0.000353
29626000,0.0324,0.013523,0.002678,0.000431,0.000705
29627000,0.0324,0.013523,0.002678,0.000431,0.000470
29628000,0.0324,0.013523,0.002678,0.000431,0.000470
29629000,0.0324,0.013523,0.002678,0.000431,0.000470
29630000,0.0324,0.013523,0.002678,0.000431,0.000470
29631000,0.0324,0.013523,0.002678,0.000431,0.000353
29632000,0.0324,0.013523,0.002678,0.000431,0.000588
29633000,0.0324,0.013523,0.002678,0.000431,0.000353
29634000,0.0324,0.013523,0.002678,0.000431,0.000588
29635000,0.0324,0.013523,0.002678,0.000431,0.000353
29636000,0.0324,0.013523,0.002678,0.000431,0.000588
29637000,0.0324,0.013523,0.002678,0.000431,0.000353
29638000,0.0324,0.013523,0.002678,0.000431,0.000588
29639000,0.0324,0.013523,0.002678,0.000431,0.000353
29640000,0.0324,0.013523,0.002678,0.000431,0.000588
29641000,0.0324,0.013523,0.002678,0.000431,0.000353
29642000,0.0324,0.013523,0.002678,0.000431,0.000588
29643000,0.0324,0.013523,0.002678,0.000431,0.000353
29644000,0.0324,0.013523,0.002678,0.000431,0.000705
29645000,0.0324,0.013523,0.002678,0.000431,0.000353
29646000,0.0324,0.013523,0.002678,0.000431,0.000588
29647000,0.0324,0.013523,0.002678,0.000431,0.000353
29648000,0.0324,0.013523,0.002678,0.000431,0.000588
29649000,0.0324,0.013523,0.002678,0.000431,0.000353
29650000,0.0324,0.013523,0.002678,0.000431,0.000588
29651000,0.0324,0.013523,0.002678,0.000431,0.000353
29652000,0.0324,0.013523,0.002678,0.000431,0.000588
29653000,0.0324,0.013523,0.002678,0.000431,0.000353
29654000,0.0324,0.013523,0.002678,0.000431,0.000588
29655000,0.0324,0.013523,0.002678,0.000431,0.000353
29656000,0.0324,0.013523,0.002678,0.000431,0.000588
29657000,0.0324,0.013523,0.002678,0.000431,0.000353
29658000,0.0324,0.013523,0.002678,0.000431,0.000588
29659000,0.0324,0.013523,0.002678,0.000431,0.000353
29660000,0.0324,0.013523,0.002678,0.000431,0.000470
29661000,0.0324,0.013523,0.002678,0.000431,0.000470
29662000,0.0324,0.013523,0.002678,0.000431,0.000470
29663000,0.0324,0.013523,0.002678,0.000431,0.000470
29664000,0.0324,0.013523,0.002678,0.000431,0.000470
29665000,0.0324,0.013523,0.002678,0.000431,0.000470
29666000,0.0324,0.013523,0.002678,0.000431,0.000588
29667000,0.0324,0.013523,0.002678,0.000431,0.000470
29668000,0.0324,0.013523,0.002678,0.000431,0.000705
29669000,0.0324,0.013523,0.002678,0.000431,0.000353
29670000,0.0324,0.013523,0.002678,0.000431,0.000705
29671000,0.0324,0.013523,0.002678,0.000431,0.000588
29672000,0.0324,0.013523,0.002678,0.000431,0.000470
29673000,0.0324,0.013523,0.002678,0.000431,0.000705
29674000,0.0324,0.013523,0.002678,0.000431,0.000353
29675000,0.0324,0.013523,0.002678,0.000431,0.000588
29676000,0.0324,0.013523,0.002678,0.000431,0.000470
29677000,0.0324,0.013523,0.002678,0.000431,0.000588
29678000,0.0324,0.013523,0.002678,0.000431,0.000588
29679000,0.0324,0.013523,0.002678,0.000431,0.000470
29680000,0.0324,0.013523,0.002678,0.000431,0.000588
29681000,0.0324,0.013523,0.002678,0.000431,0.000353
29682000,0.0324,0.013523,0.002678,0.000431,0.000705
29683000,0.0324,0.013523,0.002678,0.000431,0.000353
29684000,0.0324,0.013523,0.002678,0.000431,0.000588
29685000,0.0324,0.013523,0.002678,0.000431,0.000353
29686000,0.0324,0.013523,0.002678,0.000431,0.000588
29687000,0.0324,0.013523,0.002678,0.000431,0.000470
29688000,0.0324,0.013523,0.002678,0.000431,0.000470
29689000,0.0324,0.013523,0.002678,0.000431,0.000353
29690000,0.0324,0.013523,0.002678,0.000431,0.000588
29691000,0.0324,0.013523,0.002678,0.000431,0.000353
29692000,0.0324,0.013523,0.002678,0.000431,0.000588
29693000,0.0324,0.013523,0.002678,0.000431,0.000353
29694000,0.0324,0.013523,0.002678,0.000431,0.000588
29695000,0.0324,0.013523,0.002678,0.000431,0.000353
29696000,0.0324,0.013523,0.002678,0.000431,0.000588
29697000,0.0324,0.013523,0.002678,0.000431,0.000470
29698000,0.0324,0.013523,0.002678,0.000431,0.000470
29699000,0.0324,0.013523,0.002678,0.000431,0.000470
29700000,0.0324,0.013523,0.002678,0.000431,0.000470
29701000,0.0324,0.013523,0.002678,0.000431,0.000470
29702000,0.0324,0.013523,0.002678,0.000431,0.000470
29703000,0.0324,0.013523,0.002678,0.000431,0.000588
29704000,0.0324,0.013523,0.002678,0.000431,0.000588
29705000,0.0324,0.013523,0.002678,0.000431,0.000470
29706000,0.0324,0.013523,0.002678,0.000431,0.000705
29707000,0.0324,0.013523,0.002678,0.000431,0.000353
29708000,0.0324,0.013523,0.002678,0.000431,0.000705
29709000,0.0324,0.013523,0.002678,0.000431,0.000470
29710000,0.0324,0.013523,0.002678,0.000431,0.000470
29711000,0.0324,0.013523,0.002678,0.000431,0.000470
29712000,0.0324,0.013523,0.002678,0.000431,0.000470
29713000,0.0324,0.013523,0.002678,0.000431,0.000470
29714000,0.0324,0.013523,0.002678,0.000431,0.000470
29715000,0.0324,0.013523,0.002678,0.000431,0.000470
29716000,0.0324,0.013523,0.002678,0.000431,0.000470
29717000,0.0324,0.013523,0.002678,0.000431,0.000470
29718000,0.0324,0.013523,0.002678,0.000431,0.000470
29719000,0.0324,0.013523,0.002678,0.000431,0.000470
29720000,0.0324,0.013523,0.002678,0.000431,0.000470
29721000,0.0324,0.013523,0.002678,0.000431,0.000470
29722000,0.0324,0.013523,0.002678,0.000431,0.000705
29723000,0.0324,0.013523,0.002678,0.000431,0.000353
29724000,0.0324,0.013523,0.002678,0.000431,0.000588
29725000,0.0324,0.013523,0.002678,0.000431,0.000353
29726000,0.0324,0.013523,0.002678,0.000431,0.000823
29727000,0.0324,0.013523,0.002678,0.000431,0.000353
29728000,0.0324,0.013523,0.002678,0.000431,0.000705
29729000,0.0324,0.013523,0.002678,0.000431,0.000353
29730000,0.0324,0.013523,0.002678,0.000431,0.000705
29731000,0.0324,0.013523,0.002678,0.000431,0.000470
29732000,0.0324,0.013523,0.002678,0.000431,0.000588
29733000,0.0324,0.013523,0.002678,0.000431,0.000353
29734000,0.0324,0.013523,0.002678,0.000431,0.000705
29735000,0.0324,0.013523,0.002678,0.000431,0.000470
29736000,0.0324,0.013523,0.002678,0.000431,0.000470
29737000,0.0324,0.013523,0.002678,0.000431,0.000470
29738000,0.0324,0.013523,0.002678,0.000431,0.000470
29739000,0.0324,0.013523,0.002678,0.000431,0.000470
29740000,0.0324,0.013523,0.002678,0.000431,0.000470
29741000,0.0324,0.013523,0.002678,0.000431,0.000470
29742000,0.0324,0.013523,0.002678,0.000431,0.000470
29743000,0.0324,0.013523,0.002678,0.000431,0.000470
29744000,0.0324,0.013523,0.002678,0.000431,0.000470
29745000,0.0324,0.013523,0.002678,0.000431,0.000470
29746000,0.0324,0.013523,0.002678,0.000431,0.000470
29747000,0.0324,0.013523,0.002678,0.000431,0.000470
29748000,0.0324,0.013523,0.002678,0.000431,0.000470
29749000,0.0324,0.013523,0.002678,0.000431,0.000353
29750000,0.0324,0.013523,0.002678,0.000431,0.000588
29751000,0.0324,0.013523,0.002678,0.000431,0.000353
29752000,0.0324,0.013523,0.002678,0.000431,0.000588
29753000,0.0324,0.013523,0.002678,0.000431,0.000353
29754000,0.0324,0.013523,0.002678,0.000431,0.000705
29755000,0.0324,0.013523,0.002678,0.000431,0.000353
29756000,0.0324,0.013523,0.002678,0.000431,0.000705
29757000,0.0324,0.013523,0.002678,0.000431,0.000588
29758000,0.0324,0.013523,0.002678,0.000431,0.000470
29759000,0.0324,0.013523,0.002678,0.000431,0.000588
29760000,0.0324,0.013523,0.002678,0.000431,0.000353
29761000,0.0324,0.013523,0.002678,0.000431,0.000588
29762000,0.0324,0.013523,0.002678,0.000431,0.000353
29763000,0.0324,0.013523,0.002678,0.000431,0.000588
29764000,0.0324,0.013523,0.002678,0.000431,0.000353
29765000,0.0324,0.013523,0.002678,0.000431,0.000588
29766000,0.0324,0.013523,0.002678,0.000431,0.000353
29767000,0.0324,0.013523,0.002678,0.000431,0.000705
29768000,0.0324,0.013523,0.002678,0.000431,0.000470
29769000,0.0324,0.013523,0.002678,0.000431,0.000470
29770000,0.0324,0.013523,0.002678,0.000431,0.000470
29771000,0.0324,0.013523,0.002678,0.000431,0.000705
29772000,0.0324,0.013523,0.002678,0.000431,0.000353
29773000,0.0324,0.013523,0.002678,0.000431,0.000705
29774000,0.0324,0.013523,0.002678,0.000431,0.000588
29775000,0.0324,0.013523,0.002678,0.000431,0.000470
29776000,0.0324,0.013523,0.002678,0.000431,0.000588
29777000,0.0324,0.013523,0.002678,0.000431,0.000353
29778000,0.0324,0.013523,0.002678,0.000431,0.000705
29779000,0.0324,0.013523,0.002678,0.000431,0.000353
29780000,0.0324,0.013523,0.002678,0.000431,0.000705
29781000,0.0324,0.013523,0.002678,0.000431,0.000470
29782000,0.0324,0.013523,0.002678,0.000431,0.000470
29783000,0.0324,0.013523,0.002678,0.000431,0.000470
29784000,0.0324,0.013523,0.002678,0.000431,0.000705
29785000,0.0324,0.013523,0.002678,0.000431,0.000470
29786000,0.0324,0.013523,0.002678,0.000431,0.000470
29787000,0.0324,0.013523,0.002678,0.000431,0.000353
29788000,0.0324,0.013523,0.002678,0.000431,0.000588
29789000,0.0324,0.013523,0.002678,0.000431,0.000353
29790000,0.0324,0.013523,0.002678,0.000431,0.000588
29791000,0.0324,0.013523,0.002678,0.000431,0.000353
29792000,0.0324,0.013523,0.002678,0.000431,0.000588
29793000,0.0324,0.013523,0.002678,0.000431,0.000353
29794000,0.0324,0.013523,0.002678,0.000431,0.000588
29795000,0.0324,0.013523,0.002678,0.000431,0.000353
29796000,0.0324,0.013523,0.002678,0.000431,0.000588
29797000,0.0324,0.013523,0.002678,0.000431,0.000353
29798000,0.0324,0.013523,0.002678,0.000431,0.000705
29799000,0.0324,0.013523,0.002678,0.000431,0.000353
29800000,0.0324,0.013523,0.002678,0.000431,0.000588
29801000,0.0324,0.013523,0.002678,0.000431,0.000353
29802000,0.0324,0.013523,0.002678,0.000431,0.000588
29803000,0.0324,0.013523,0.002678,0.000431,0.000353
29804000,0.0324,0.013523,0.002678,0.000431,0.000588
29805000,0.0324,0.013523,0.002678,0.000431,0.000353
29806000,0.0324,0.013523,0.002678,0.000431,0.000588
29807000,0.0324,0.013523,0.002678,0.000431,0.000353
29808000,0.0324,0.013523,0.002678,0.000431,0.000823
29809000,0.0324,0.013523,0.002678,0.000431,0.000353
29810000,0.0324,0.013523,0.002678,0.000431,0.000588
29811000,0.0324,0.013523,0.002678,0.000431,0.000470
29812000,0.0324,0.013523,0.002678,0.000431,0.000470
29813000,0.0324,0.013523,0.002678,0.000431,0.000353
29814000,0.0324,0.013523,0.002678,0.000431,0.000705
29815000,0.0324,0.013523,0.002678,0.000431,0.000353
29816000,0.0324,0.013523,0.002678,0.000431,0.000470
29817000,0.0324,0.013523,0.002678,0.000431,0.000470
29818000,0.0324,0.013523,0.002678,0.000431,0.000588
29819000,0.0324,0.013523,0.002678,0.000431,0.000353
29820000,0.0324,0.013523,0.002678,0.000431,0.000588
29821000,0.0324,0.013523,0.002678,0.000431,0.000353
29822000,0.0324,0.013523,0.002678,0.000431,0.000588
29823000,0.0324,0.013523,0.002678,0.000431,0.000353
29824000,0.0324,0.013523,0.002678,0.000431,0.000588
29825000,0.0324,0.013523,0.002678,0.000431,0.000353
29826000,0.0324,0.013523,0.002678,0.000431,0.000705
29827000,0.0324,0.013523,0.002678,0.000431,0.000353
29828000,0.0324,0.013523,0.002678,0.000431,0.000705
29829000,0.0324,0.013523,0.002678,0.000431,0.000588
29830000,0.0324,0.013523,0.002678,0.000431,0.000470
29831000,0.0324,0.013523,0.002678,0.000431,0.000705
29832000,0.0324,0.013523,0.002678,0.000431,0.000235
29833000,0.0324,0.013523,0.002678,0.000431,0.000823
29834000,0.0324,0.013523,0.002678,0.000431,0.000353
29835000,0.0324,0.013523,0.002678,0.000431,0.000588
29836000,0.0324,0.013523,0.002678,0.000431,0.000353
29837000,0.0324,0.013523,0.002678,0.000431,0.000588
29838000,0.0324,0.013523,0.002678,0.000431,0.000353
29839000,0.0324,0.013523,0.002678,0.000431,0.000588
29840000,0.0324,0.013523,0.002678,0.000431,0.000353
29841000,0.0324,0.013523,0.002678,0.000431,0.000588
29842000,0.0324,0.013523,0.002678,0.000431,0.000353
29843000,0.0324,0.013523,0.002678,0.000431,0.000470
29844000,0.0324,0.013523,0.002678,0.000431,0.000353
29845000,0.0324,0.013523,0.002678,0.000431,0.000588
29846000,0.0324,0.013523,0.002678,0.000431,0.000353
29847000,0.0324,0.013523,0.002678,0.000431,0.000588
29848000,0.0324,0.013523,0.002678,0.000431,0.000353
29849000,0.0324,0.013523,0.002678,0.000431,0.000823
29850000,0.0324,0.013523,0.002678,0.000431,0.000353
29851000,0.0324,0.013523,0.002678,0.000431,0.000705
29852000,0.0324,0.013523,0.002678,0.000431,0.000588
29853000,0.0324,0.013523,0.002678,0.000431,0.000353
29854000,0.0324,0.013523,0.002678,0.000431,0.000588
29855000,0.0324,0.013523,0.002678,0.000431,0.000470
29856000,0.0324,0.013523,0.002678,0.000431,0.000588
29857000,0.0324,0.013523,0.002678,0.000431,0.000353
29858000,0.0324,0.013523,0.002678,0.000431,0.000588
29859000,0.0324,0.013523,0.002678,0.000431,0.000353
29860000,0.0324,0.013523,0.002678,0.000431,0.000588
29861000,0.0324,0.013523,0.002678,0.000431,0.000470
29862000,0.0324,0.013523,0.002678,0.000431,0.000470
29863000,0.0324,0.013523,0.002678,0.000431,0.000353
29864000,0.0324,0.013523,0.002678,0.000431,0.000588
29865000,0.0324,0.013523,0.002678,0.000431,0.000353
29866000,0.0324,0.013523,0.002678,0.000431,0.000588
29867000,0.0324,0.013523,0.002678,0.000431,0.000470
29868000,0.0324,0.013523,0.002678,0.000431,0.000470
29869000,0.0324,0.013523,0.002678,0.000431,0.000470
29870000,0.0324,0.013523,0.002678,0.000431,0.000470
29871000,0.0324,0.013523,0.002678,0.000431,0.000353
29872000,0.0324,0.013523,0.002678,0.000431,0.000588
29873000,0.0324,0.013523,0.002678,0.000431,0.000470
29874000,0.0324,0.013523,0.002678,0.000431,0.000588
29875000,0.0324,0.013523,0.002678,0.000431,0.000470
29876000,0.0324,0.013523,0.002678,0.000431,0.000705
29877000,0.0324,0.013523,0.002678,0.000431,0.000353
29878000,0.0324,0.013523,0.002678,0.000431,0.000588
29879000,0.0324,0.013523,0.002678,0.000431,0.000353
29880000,0.0324,0.013523,0.002678,0.000431,0.000470
29881000,0.0324,0.013523,0.002678,0.000431,0.000353
29882000,0.0324,0.013523,0.002678,0.000431,0.000588
29883000,0.0324,0.013523,0.002678,0.000431,0.000353
29884000,0.0324,0.013523,0.002678,0.000431,0.000588
29885000,0.0324,0.013523,0.002678,0.000431,0.000353
29886000,0.0324,0.013523,0.002678,0.000431,0.000588
29887000,0.0324,0.013523,0.002678,0.000431,0.000353
29888000,0.0324,0.013523,0.002678,0.000431,0.000588
29889000,0.0324,0.013523,0.002678,0.000431,0.000353
29890000,0.0324,0.013523,0.002678,0.000431,0.000705
29891000,0.0324,0.013523,0.002678,0.000431,0.000353
29892000,0.0324,0.013523,0.002678,0.000431,0.000588
29893000,0.0324,0.013523,0.002678,0.000431,0.000353
29894000,0.0324,0.013523,0.002678,0.000431,0.000588
29895000,0.0324,0.013523,0.002678,0.000431,0.000353
29896000,0.0324,0.013523,0.002678,0.000431,0.000588
29897000,0.0324,0.013523,0.002678,0.000431,0.000353
29898000,0.0324,0.013523,0.002678,0.000431,0.000588
29899000,0.0324,0.013523,0.002678,0.000431,0.000353
29900000,0.0324,0.013523,0.002678,0.000431,0.000588
29901000,0.0324,0.013523,0.002678,0.000431,0.000353
29902000,0.0324,0.013523,0.002678,0.000431,0.000588
29903000,0.0324,0.013523,0.002678,0.000431,0.000353
29904000,0.0324,0.013523,0.002678,0.000431,0.000588
29905000,0.0324,0.013523,0.002678,0.000431,0.000353
29906000,0.0324,0.013523,0.002678,0.000431,0.000470
29907000,0.0324,0.013523,0.002678,0.000431,0.000470
29908000,0.0324,0.013523,0.002678,0.000431,0.000588
29909000,0.0324,0.013523,0.002678,0.000431,0.000470
29910000,0.0324,0.013523,0.002678,0.000431,0.000705
29911000,0.0324,0.013523,0.002678,0.000431,0.000353
29912000,0.0324,0.013523,0.002678,0.000431,0.000705
29913000,0.0324,0.013523,0.002678,0.000431,0.000588
29914000,0.0324,0.013523,0.002678,0.000431,0.000470
29915000,0.0324,0.013523,0.002678,0.000431,0.000705
29916000,0.0324,0.013523,0.002678,0.000431,0.000353
29917000,0.0324,0.013523,0.002678,0.000431,0.000588
29918000,0.0324,0.013523,0.002678,0.000431,0.000353
29919000,0.0324,0.013523,0.002678,0.000431,0.000705
29920000,0.0324,0.013523,0.002678,0.000431,0.000470
29921000,0.0324,0.013523,0.002678,0.000431,0.000470
29922000,0.0324,0.013523,0.002678,0.000431,0.000353
29923000,0.0324,0.013523,0.002678,0.000431,0.000588
29924000,0.0324,0.013523,0.002678,0.000431,0.000353
29925000,0.0324,0.013523,0.002678,0.000431,0.000588
29926000,0.0324,0.013523,0.002678,0.000431,0.000353
29927000,0.0324,0.013523,0.002678,0.000431,0.000588
29928000,0.0324,0.013523,0.002678,0.000431,0.000353
29929000,0.0324,0.013523,0.002678,0.000431,0.000588
29930000,0.0324,0.013523,0.002678,0.000431,0.000353
29931000,0.0324,0.013523,0.002678,0.000431,0.000705
29932000,0.0324,0.013523,0.002678,0.000431,0.000353
29933000,0.0324,0.013523,0.002678,0.000431,0.000588
29934000,0.0324,0.013523,0.002678,0.000431,0.000353
29935000,0.0324,0.013523,0.002678,0.000431,0.000588
29936000,0.0324,0.013523,0.002678,0.000431,0.000353
29937000,0.0324,0.013523,0.002678,0.000431,0.000588
29938000,0.0324,0.013523,0.002678,0.000431,0.000353
29939000,0.0324,0.013523,0.002678,0.000431,0.000705
29940000,0.0324,0.013523,0.002678,0.000431,0.000353
29941000,0.0324,0.013523,0.002678,0.000431,0.000705
29942000,0.0324,0.013523,0.002678,0.000431,0.000353
29943000,0.0324,0.013523,0.002678,0.000431,0.000588
29944000,0.0324,0.013523,0.002678,0.000431,0.000353
29945000,0.0324,0.013523,0.002678,0.000431,0.000588
29946000,0.0324,0.013523,0.002678,0.000431,0.000353
29947000,0.0324,0.013523,0.002678,0.000431,0.000588
29948000,0.0324,0.013523,0.002678,0.000431,0.000353
29949000,0.0324,0.013523,0.002678,0.000431,0.000588
29950000,0.0324,0.013523,0.002678,0.000431,0.000353
29951000,0.0324,0.013523,0.002678,0.000431,0.000588
29952000,0.0324,0.013523,0.002678,0.000431,0.000470
29953000,0.0324,0.013523,0.002678,0.000431,0.000705
29954000,0.0324,0.013523,0.002678,0.000431,0.000353
29955000,0.0324,0.013523,0.002678,0.000431,0.000705
29956000,0.0324,0.013523,0.002678,0.000431,0.000588
29957000,0.0324,0.013523,0.002678,0.000431,0.000470
29958000,0.0324,0.013523,0.002678,0.000431,0.000588
29959000,0.0324,0.013523,0.002678,0.000431,0.000353
29960000,0.0324,0.013523,0.002678,0.000431,0.000588
29961000,0.0324,0.013523,0.002678,0.000431,0.000470
29962000,0.0324,0.013523,0.002678,0.000431,0.000470
29963000,0.0324,0.013523,0.002678,0.000431,0.000353
29964000,0.0324,0.013523,0.002678,0.000431,0.000588
29965000,0.0324,0.013523,0.002678,0.000431,0.000470
29966000,0.0324,0.013523,0.002678,0.000431,0.000588
29967000,0.0324,0.013523,0.002678,0.000431,0.000470
29968000,0.0324,0.013523,0.002678,0.000431,0.000705
29969000,0.0324,0.013523,0.002678,0.000431,0.000353
29970000,0.0324,0.013523,0.002678,0.000431,0.000470
29971000,0.0324,0.013523,0.002678,0.000431,0.000470
29972000,0.0324,0.013523,0.002678,0.000431,0.000470
29973000,0.0324,0.013523,0.002678,0.000431,0.000353
29974000,0.0324,0.013523,0.002678,0.000431,0.000588
29975000,0.0324,0.013523,0.002678,0.000431,0.000353
29976000,0.0324,0.013523,0.002678,0.000431,0.000588
29977000,0.0324,0.013523,0.002678,0.000431,0.000470
29978000,0.0324,0.013523,0.002678,0.000431,0.000470
29979000,0.0324,0.013523,0.002678,0.000431,0.000353
29980000,0.0324,0.013523,0.002678,0.000431,0.000588
29981000,0.0324,0.013523,0.002678,0.000431,0.000353
29982000,0.0324,0.013523,0.002678,0.000431,0.000588
29983000,0.0324,0.013523,0.002678,0.000431,0.000353
29984000,0.0324,0.013523,0.002678,0.000431,0.000588
29985000,0.0324,0.013523,0.002678,0.000431,0.000353
29986000,0.0324,0.013523,0.002678,0.000431,0.000588
29987000,0.0324,0.013523,0.002678,0.000431,0.000353
29988000,0.0324,0.013523,0.002678,0.000431,0.000588
29989000,0.0324,0.013523,0.002678,0.000431,0.000353
29990000,0.0324,0.013523,0.002678,0.000431,0.000588
29991000,0.0324,0.013523,0.002678,0.000431,0.000353
29992000,0.0324,0.013523,0.002678,0.000431,0.000705
29993000,0.0324,0.013523,0.002678,0.000431,0.000470
29994000,0.0324,0.013523,0.002678,0.000431,0.000588
29995000,0.0324,0.013523,0.002678,0.000431,0.000353
29996000,0.0324,0.013523,0.002678,0.000431,0.000470
29997000,0.0324,0.013523,0.002678,0.000431,0.000470
29998000,0.0324,0.013523,0.002678,0.000431,0.000470
29999000,0.0324,0.013523,0.002678,0.000431,0.000470
