Cycle,Area(mm^2),PeakDynamic(W),SubthresholdLeakage(W),GateLeakage(W),RunTimeDynamic(W)
23000000,0.0324,0.013523,0.002678,0.000431,0.000470
23001000,0.0324,0.013523,0.002678,0.000431,0.000470
23002000,0.0324,0.013523,0.002678,0.000431,0.000470
23003000,0.0324,0.013523,0.002678,0.000431,0.000470
23004000,0.0324,0.013523,0.002678,0.000431,0.000470
23005000,0.0324,0.013523,0.002678,0.000431,0.000470
23006000,0.0324,0.013523,0.002678,0.000431,0.000588
23007000,0.0324,0.013523,0.002678,0.000431,0.000353
23008000,0.0324,0.013523,0.002678,0.000431,0.000588
23009000,0.0324,0.013523,0.002678,0.000431,0.000353
23010000,0.0324,0.013523,0.002678,0.000431,0.000588
23011000,0.0324,0.013523,0.002678,0.000431,0.000353
23012000,0.0324,0.013523,0.002678,0.000431,0.000588
23013000,0.0324,0.013523,0.002678,0.000431,0.000353
23014000,0.0324,0.013523,0.002678,0.000431,0.000588
23015000,0.0324,0.013523,0.002678,0.000431,0.000353
23016000,0.0324,0.013523,0.002678,0.000431,0.000588
23017000,0.0324,0.013523,0.002678,0.000431,0.000353
23018000,0.0324,0.013523,0.002678,0.000431,0.000470
23019000,0.0324,0.013523,0.002678,0.000431,0.000470
23020000,0.0324,0.013523,0.002678,0.000431,0.000470
23021000,0.0324,0.013523,0.002678,0.000431,0.000470
23022000,0.0324,0.013523,0.002678,0.000431,0.000470
23023000,0.0324,0.013523,0.002678,0.000431,0.000470
23024000,0.0324,0.013523,0.002678,0.000431,0.000470
23025000,0.0324,0.013523,0.002678,0.000431,0.000470
23026000,0.0324,0.013523,0.002678,0.000431,0.000470
23027000,0.0324,0.013523,0.002678,0.000431,0.000588
23028000,0.0324,0.013523,0.002678,0.000431,0.000353
23029000,0.0324,0.013523,0.002678,0.000431,0.000588
23030000,0.0324,0.013523,0.002678,0.000431,0.000353
23031000,0.0324,0.013523,0.002678,0.000431,0.000705
23032000,0.0324,0.013523,0.002678,0.000431,0.000470
23033000,0.0324,0.013523,0.002678,0.000431,0.000470
23034000,0.0324,0.013523,0.002678,0.000431,0.000470
23035000,0.0324,0.013523,0.002678,0.000431,0.000470
23036000,0.0324,0.013523,0.002678,0.000431,0.000470
23037000,0.0324,0.013523,0.002678,0.000431,0.000588
23038000,0.0324,0.013523,0.002678,0.000431,0.000353
23039000,0.0324,0.013523,0.002678,0.000431,0.000705
23040000,0.0324,0.013523,0.002678,0.000431,0.000470
23041000,0.0324,0.013523,0.002678,0.000431,0.000470
23042000,0.0324,0.013523,0.002678,0.000431,0.000470
23043000,0.0324,0.013523,0.002678,0.000431,0.000470
23044000,0.0324,0.013523,0.002678,0.000431,0.000353
23045000,0.0324,0.013523,0.002678,0.000431,0.000588
23046000,0.0324,0.013523,0.002678,0.000431,0.000353
23047000,0.0324,0.013523,0.002678,0.000431,0.000470
23048000,0.0324,0.013523,0.002678,0.000431,0.000353
23049000,0.0324,0.013523,0.002678,0.000431,0.000588
23050000,0.0324,0.013523,0.002678,0.000431,0.000470
23051000,0.0324,0.013523,0.002678,0.000431,0.000705
23052000,0.0324,0.013523,0.002678,0.000431,0.000353
23053000,0.0324,0.013523,0.002678,0.000431,0.000588
23054000,0.0324,0.013523,0.002678,0.000431,0.000353
23055000,0.0324,0.013523,0.002678,0.000431,0.000588
23056000,0.0324,0.013523,0.002678,0.000431,0.000353
23057000,0.0324,0.013523,0.002678,0.000431,0.000588
23058000,0.0324,0.013523,0.002678,0.000431,0.000353
23059000,0.0324,0.013523,0.002678,0.000431,0.000588
23060000,0.0324,0.013523,0.002678,0.000431,0.000470
23061000,0.0324,0.013523,0.002678,0.000431,0.000588
23062000,0.0324,0.013523,0.002678,0.000431,0.000353
23063000,0.0324,0.013523,0.002678,0.000431,0.000705
23064000,0.0324,0.013523,0.002678,0.000431,0.000353
23065000,0.0324,0.013523,0.002678,0.000431,0.000705
23066000,0.0324,0.013523,0.002678,0.000431,0.000470
23067000,0.0324,0.013523,0.002678,0.000431,0.000470
23068000,0.0324,0.013523,0.002678,0.000431,0.000470
23069000,0.0324,0.013523,0.002678,0.000431,0.000470
23070000,0.0324,0.013523,0.002678,0.000431,0.000353
23071000,0.0324,0.013523,0.002678,0.000431,0.000588
23072000,0.0324,0.013523,0.002678,0.000431,0.000353
23073000,0.0324,0.013523,0.002678,0.000431,0.000588
23074000,0.0324,0.013523,0.002678,0.000431,0.000353
23075000,0.0324,0.013523,0.002678,0.000431,0.000588
23076000,0.0324,0.013523,0.002678,0.000431,0.000353
23077000,0.0324,0.013523,0.002678,0.000431,0.000588
23078000,0.0324,0.013523,0.002678,0.000431,0.000353
23079000,0.0324,0.013523,0.002678,0.000431,0.000588
23080000,0.0324,0.013523,0.002678,0.000431,0.000353
23081000,0.0324,0.013523,0.002678,0.000431,0.000470
23082000,0.0324,0.013523,0.002678,0.000431,0.000353
23083000,0.0324,0.013523,0.002678,0.000431,0.000588
23084000,0.0324,0.013523,0.002678,0.000431,0.000353
23085000,0.0324,0.013523,0.002678,0.000431,0.000588
23086000,0.0324,0.013523,0.002678,0.000431,0.000353
23087000,0.0324,0.013523,0.002678,0.000431,0.000588
23088000,0.0324,0.013523,0.002678,0.000431,0.000353
23089000,0.0324,0.013523,0.002678,0.000431,0.000588
23090000,0.0324,0.013523,0.002678,0.000431,0.000470
23091000,0.0324,0.013523,0.002678,0.000431,0.000470
23092000,0.0324,0.013523,0.002678,0.000431,0.000353
23093000,0.0324,0.013523,0.002678,0.000431,0.000588
23094000,0.0324,0.013523,0.002678,0.000431,0.000353
23095000,0.0324,0.013523,0.002678,0.000431,0.000588
23096000,0.0324,0.013523,0.002678,0.000431,0.000353
23097000,0.0324,0.013523,0.002678,0.000431,0.000823
23098000,0.0324,0.013523,0.002678,0.000431,0.000353
23099000,0.0324,0.013523,0.002678,0.000431,0.000470
23100000,0.0324,0.013523,0.002678,0.000431,0.000353
23101000,0.0324,0.013523,0.002678,0.000431,0.000588
23102000,0.0324,0.013523,0.002678,0.000431,0.000353
23103000,0.0324,0.013523,0.002678,0.000431,0.000588
23104000,0.0324,0.013523,0.002678,0.000431,0.000470
23105000,0.0324,0.013523,0.002678,0.000431,0.000470
23106000,0.0324,0.013523,0.002678,0.000431,0.000470
23107000,0.0324,0.013523,0.002678,0.000431,0.000588
23108000,0.0324,0.013523,0.002678,0.000431,0.000470
23109000,0.0324,0.013523,0.002678,0.000431,0.000705
23110000,0.0324,0.013523,0.002678,0.000431,0.000353
23111000,0.0324,0.013523,0.002678,0.000431,0.000588
23112000,0.0324,0.013523,0.002678,0.000431,0.000353
23113000,0.0324,0.013523,0.002678,0.000431,0.000588
23114000,0.0324,0.013523,0.002678,0.000431,0.000353
23115000,0.0324,0.013523,0.002678,0.000431,0.000588
23116000,0.0324,0.013523,0.002678,0.000431,0.000353
23117000,0.0324,0.013523,0.002678,0.000431,0.000588
23118000,0.0324,0.013523,0.002678,0.000431,0.000353
23119000,0.0324,0.013523,0.002678,0.000431,0.000588
23120000,0.0324,0.013523,0.002678,0.000431,0.000353
23121000,0.0324,0.013523,0.002678,0.000431,0.000470
23122000,0.0324,0.013523,0.002678,0.000431,0.000470
23123000,0.0324,0.013523,0.002678,0.000431,0.000470
23124000,0.0324,0.013523,0.002678,0.000431,0.000470
23125000,0.0324,0.013523,0.002678,0.000431,0.000588
23126000,0.0324,0.013523,0.002678,0.000431,0.000470
23127000,0.0324,0.013523,0.002678,0.000431,0.000705
23128000,0.0324,0.013523,0.002678,0.000431,0.000353
23129000,0.0324,0.013523,0.002678,0.000431,0.000588
23130000,0.0324,0.013523,0.002678,0.000431,0.000470
23131000,0.0324,0.013523,0.002678,0.000431,0.000588
23132000,0.0324,0.013523,0.002678,0.000431,0.000353
23133000,0.0324,0.013523,0.002678,0.000431,0.000705
23134000,0.0324,0.013523,0.002678,0.000431,0.000353
23135000,0.0324,0.013523,0.002678,0.000431,0.000588
23136000,0.0324,0.013523,0.002678,0.000431,0.000353
23137000,0.0324,0.013523,0.002678,0.000431,0.000588
23138000,0.0324,0.013523,0.002678,0.000431,0.000353
23139000,0.0324,0.013523,0.002678,0.000431,0.000588
23140000,0.0324,0.013523,0.002678,0.000431,0.000353
23141000,0.0324,0.013523,0.002678,0.000431,0.000588
23142000,0.0324,0.013523,0.002678,0.000431,0.000470
23143000,0.0324,0.013523,0.002678,0.000431,0.000705
23144000,0.0324,0.013523,0.002678,0.000431,0.000353
23145000,0.0324,0.013523,0.002678,0.000431,0.000705
23146000,0.0324,0.013523,0.002678,0.000431,0.000588
23147000,0.0324,0.013523,0.002678,0.000431,0.000470
23148000,0.0324,0.013523,0.002678,0.000431,0.000470
23149000,0.0324,0.013523,0.002678,0.000431,0.000353
23150000,0.0324,0.013523,0.002678,0.000431,0.000588
23151000,0.0324,0.013523,0.002678,0.000431,0.000353
23152000,0.0324,0.013523,0.002678,0.000431,0.000823
23153000,0.0324,0.013523,0.002678,0.000431,0.000353
23154000,0.0324,0.013523,0.002678,0.000431,0.000470
23155000,0.0324,0.013523,0.002678,0.000431,0.000470
23156000,0.0324,0.013523,0.002678,0.000431,0.000470
23157000,0.0324,0.013523,0.002678,0.000431,0.000470
23158000,0.0324,0.013523,0.002678,0.000431,0.000588
23159000,0.0324,0.013523,0.002678,0.000431,0.000470
23160000,0.0324,0.013523,0.002678,0.000431,0.000705
23161000,0.0324,0.013523,0.002678,0.000431,0.000353
23162000,0.0324,0.013523,0.002678,0.000431,0.000705
23163000,0.0324,0.013523,0.002678,0.000431,0.000470
23164000,0.0324,0.013523,0.002678,0.000431,0.000470
23165000,0.0324,0.013523,0.002678,0.000431,0.000470
23166000,0.0324,0.013523,0.002678,0.000431,0.000470
23167000,0.0324,0.013523,0.002678,0.000431,0.000470
23168000,0.0324,0.013523,0.002678,0.000431,0.000353
23169000,0.0324,0.013523,0.002678,0.000431,0.000470
23170000,0.0324,0.013523,0.002678,0.000431,0.000588
23171000,0.0324,0.013523,0.002678,0.000431,0.000588
23172000,0.0324,0.013523,0.002678,0.000431,0.000470
23173000,0.0324,0.013523,0.002678,0.000431,0.000705
23174000,0.0324,0.013523,0.002678,0.000431,0.000353
23175000,0.0324,0.013523,0.002678,0.000431,0.000705
23176000,0.0324,0.013523,0.002678,0.000431,0.000588
23177000,0.0324,0.013523,0.002678,0.000431,0.000353
23178000,0.0324,0.013523,0.002678,0.000431,0.000823
23179000,0.0324,0.013523,0.002678,0.000431,0.000235
23180000,0.0324,0.013523,0.002678,0.000431,0.000823
23181000,0.0324,0.013523,0.002678,0.000431,0.000353
23182000,0.0324,0.013523,0.002678,0.000431,0.000470
23183000,0.0324,0.013523,0.002678,0.000431,0.000353
23184000,0.0324,0.013523,0.002678,0.000431,0.000588
23185000,0.0324,0.013523,0.002678,0.000431,0.000353
23186000,0.0324,0.013523,0.002678,0.000431,0.000588
23187000,0.0324,0.013523,0.002678,0.000431,0.000353
23188000,0.0324,0.013523,0.002678,0.000431,0.000705
23189000,0.0324,0.013523,0.002678,0.000431,0.000470
23190000,0.0324,0.013523,0.002678,0.000431,0.000470
23191000,0.0324,0.013523,0.002678,0.000431,0.000470
23192000,0.0324,0.013523,0.002678,0.000431,0.000470
23193000,0.0324,0.013523,0.002678,0.000431,0.000470
23194000,0.0324,0.013523,0.002678,0.000431,0.000470
23195000,0.0324,0.013523,0.002678,0.000431,0.000470
23196000,0.0324,0.013523,0.002678,0.000431,0.000470
23197000,0.0324,0.013523,0.002678,0.000431,0.000470
23198000,0.0324,0.013523,0.002678,0.000431,0.000470
23199000,0.0324,0.013523,0.002678,0.000431,0.000470
23200000,0.0324,0.013523,0.002678,0.000431,0.000588
23201000,0.0324,0.013523,0.002678,0.000431,0.000353
23202000,0.0324,0.013523,0.002678,0.000431,0.000588
23203000,0.0324,0.013523,0.002678,0.000431,0.000353
23204000,0.0324,0.013523,0.002678,0.000431,0.000470
23205000,0.0324,0.013523,0.002678,0.000431,0.000353
23206000,0.0324,0.013523,0.002678,0.000431,0.000588
23207000,0.0324,0.013523,0.002678,0.000431,0.000470
23208000,0.0324,0.013523,0.002678,0.000431,0.000470
23209000,0.0324,0.013523,0.002678,0.000431,0.000470
23210000,0.0324,0.013523,0.002678,0.000431,0.000470
23211000,0.0324,0.013523,0.002678,0.000431,0.000470
23212000,0.0324,0.013523,0.002678,0.000431,0.000470
23213000,0.0324,0.013523,0.002678,0.000431,0.000470
23214000,0.0324,0.013523,0.002678,0.000431,0.000470
23215000,0.0324,0.013523,0.002678,0.000431,0.000470
23216000,0.0324,0.013523,0.002678,0.000431,0.000470
23217000,0.0324,0.013523,0.002678,0.000431,0.000470
23218000,0.0324,0.013523,0.002678,0.000431,0.000470
23219000,0.0324,0.013523,0.002678,0.000431,0.000470
23220000,0.0324,0.013523,0.002678,0.000431,0.000470
23221000,0.0324,0.013523,0.002678,0.000431,0.000470
23222000,0.0324,0.013523,0.002678,0.000431,0.000470
23223000,0.0324,0.013523,0.002678,0.000431,0.000470
23224000,0.0324,0.013523,0.002678,0.000431,0.000470
23225000,0.0324,0.013523,0.002678,0.000431,0.000470
23226000,0.0324,0.013523,0.002678,0.000431,0.000588
23227000,0.0324,0.013523,0.002678,0.000431,0.000470
23228000,0.0324,0.013523,0.002678,0.000431,0.000705
23229000,0.0324,0.013523,0.002678,0.000431,0.000235
23230000,0.0324,0.013523,0.002678,0.000431,0.000705
23231000,0.0324,0.013523,0.002678,0.000431,0.000353
23232000,0.0324,0.013523,0.002678,0.000431,0.000705
23233000,0.0324,0.013523,0.002678,0.000431,0.000470
23234000,0.0324,0.013523,0.002678,0.000431,0.000588
23235000,0.0324,0.013523,0.002678,0.000431,0.000353
23236000,0.0324,0.013523,0.002678,0.000431,0.000588
23237000,0.0324,0.013523,0.002678,0.000431,0.000353
23238000,0.0324,0.013523,0.002678,0.000431,0.000588
23239000,0.0324,0.013523,0.002678,0.000431,0.000353
23240000,0.0324,0.013523,0.002678,0.000431,0.000588
23241000,0.0324,0.013523,0.002678,0.000431,0.000353
23242000,0.0324,0.013523,0.002678,0.000431,0.000588
23243000,0.0324,0.013523,0.002678,0.000431,0.000353
23244000,0.0324,0.013523,0.002678,0.000431,0.000705
23245000,0.0324,0.013523,0.002678,0.000431,0.000588
23246000,0.0324,0.013523,0.002678,0.000431,0.000470
23247000,0.0324,0.013523,0.002678,0.000431,0.000705
23248000,0.0324,0.013523,0.002678,0.000431,0.000235
23249000,0.0324,0.013523,0.002678,0.000431,0.000705
23250000,0.0324,0.013523,0.002678,0.000431,0.000353
23251000,0.0324,0.013523,0.002678,0.000431,0.000705
23252000,0.0324,0.013523,0.002678,0.000431,0.000353
23253000,0.0324,0.013523,0.002678,0.000431,0.000588
23254000,0.0324,0.013523,0.002678,0.000431,0.000353
23255000,0.0324,0.013523,0.002678,0.000431,0.000588
23256000,0.0324,0.013523,0.002678,0.000431,0.000353
23257000,0.0324,0.013523,0.002678,0.000431,0.000705
23258000,0.0324,0.013523,0.002678,0.000431,0.000353
23259000,0.0324,0.013523,0.002678,0.000431,0.000588
23260000,0.0324,0.013523,0.002678,0.000431,0.000353
23261000,0.0324,0.013523,0.002678,0.000431,0.000588
23262000,0.0324,0.013523,0.002678,0.000431,0.000353
23263000,0.0324,0.013523,0.002678,0.000431,0.000588
23264000,0.0324,0.013523,0.002678,0.000431,0.000353
23265000,0.0324,0.013523,0.002678,0.000431,0.000705
23266000,0.0324,0.013523,0.002678,0.000431,0.000353
23267000,0.0324,0.013523,0.002678,0.000431,0.000705
23268000,0.0324,0.013523,0.002678,0.000431,0.000353
23269000,0.0324,0.013523,0.002678,0.000431,0.000823
23270000,0.0324,0.013523,0.002678,0.000431,0.000353
23271000,0.0324,0.013523,0.002678,0.000431,0.000588
23272000,0.0324,0.013523,0.002678,0.000431,0.000353
23273000,0.0324,0.013523,0.002678,0.000431,0.000470
23274000,0.0324,0.013523,0.002678,0.000431,0.000353
23275000,0.0324,0.013523,0.002678,0.000431,0.000588
23276000,0.0324,0.013523,0.002678,0.000431,0.000470
23277000,0.0324,0.013523,0.002678,0.000431,0.000470
23278000,0.0324,0.013523,0.002678,0.000431,0.000470
23279000,0.0324,0.013523,0.002678,0.000431,0.000470
23280000,0.0324,0.013523,0.002678,0.000431,0.000353
23281000,0.0324,0.013523,0.002678,0.000431,0.000588
23282000,0.0324,0.013523,0.002678,0.000431,0.000353
23283000,0.0324,0.013523,0.002678,0.000431,0.000588
23284000,0.0324,0.013523,0.002678,0.000431,0.000470
23285000,0.0324,0.013523,0.002678,0.000431,0.000470
23286000,0.0324,0.013523,0.002678,0.000431,0.000353
23287000,0.0324,0.013523,0.002678,0.000431,0.000588
23288000,0.0324,0.013523,0.002678,0.000431,0.000353
23289000,0.0324,0.013523,0.002678,0.000431,0.000588
23290000,0.0324,0.013523,0.002678,0.000431,0.000353
23291000,0.0324,0.013523,0.002678,0.000431,0.000588
23292000,0.0324,0.013523,0.002678,0.000431,0.000353
23293000,0.0324,0.013523,0.002678,0.000431,0.000470
23294000,0.0324,0.013523,0.002678,0.000431,0.000470
23295000,0.0324,0.013523,0.002678,0.000431,0.000470
23296000,0.0324,0.013523,0.002678,0.000431,0.000470
23297000,0.0324,0.013523,0.002678,0.000431,0.000353
23298000,0.0324,0.013523,0.002678,0.000431,0.000588
23299000,0.0324,0.013523,0.002678,0.000431,0.000353
23300000,0.0324,0.013523,0.002678,0.000431,0.000705
23301000,0.0324,0.013523,0.002678,0.000431,0.000588
23302000,0.0324,0.013523,0.002678,0.000431,0.000470
23303000,0.0324,0.013523,0.002678,0.000431,0.000705
23304000,0.0324,0.013523,0.002678,0.000431,0.000353
23305000,0.0324,0.013523,0.002678,0.000431,0.000705
23306000,0.0324,0.013523,0.002678,0.000431,0.000353
23307000,0.0324,0.013523,0.002678,0.000431,0.000588
23308000,0.0324,0.013523,0.002678,0.000431,0.000588
23309000,0.0324,0.013523,0.002678,0.000431,0.000470
23310000,0.0324,0.013523,0.002678,0.000431,0.000353
23311000,0.0324,0.013523,0.002678,0.000431,0.000588
23312000,0.0324,0.013523,0.002678,0.000431,0.000353
23313000,0.0324,0.013523,0.002678,0.000431,0.000588
23314000,0.0324,0.013523,0.002678,0.000431,0.000353
23315000,0.0324,0.013523,0.002678,0.000431,0.000588
23316000,0.0324,0.013523,0.002678,0.000431,0.000353
23317000,0.0324,0.013523,0.002678,0.000431,0.000588
23318000,0.0324,0.013523,0.002678,0.000431,0.000353
23319000,0.0324,0.013523,0.002678,0.000431,0.000588
23320000,0.0324,0.013523,0.002678,0.000431,0.000353
23321000,0.0324,0.013523,0.002678,0.000431,0.000588
23322000,0.0324,0.013523,0.002678,0.000431,0.000353
23323000,0.0324,0.013523,0.002678,0.000431,0.000705
23324000,0.0324,0.013523,0.002678,0.000431,0.000235
23325000,0.0324,0.013523,0.002678,0.000431,0.000588
23326000,0.0324,0.013523,0.002678,0.000431,0.000353
23327000,0.0324,0.013523,0.002678,0.000431,0.000588
23328000,0.0324,0.013523,0.002678,0.000431,0.000353
23329000,0.0324,0.013523,0.002678,0.000431,0.000588
23330000,0.0324,0.013523,0.002678,0.000431,0.000470
23331000,0.0324,0.013523,0.002678,0.000431,0.000705
23332000,0.0324,0.013523,0.002678,0.000431,0.000353
23333000,0.0324,0.013523,0.002678,0.000431,0.000705
23334000,0.0324,0.013523,0.002678,0.000431,0.000588
23335000,0.0324,0.013523,0.002678,0.000431,0.000470
23336000,0.0324,0.013523,0.002678,0.000431,0.000705
23337000,0.0324,0.013523,0.002678,0.000431,0.000353
23338000,0.0324,0.013523,0.002678,0.000431,0.000705
23339000,0.0324,0.013523,0.002678,0.000431,0.000470
23340000,0.0324,0.013523,0.002678,0.000431,0.000470
23341000,0.0324,0.013523,0.002678,0.000431,0.000353
23342000,0.0324,0.013523,0.002678,0.000431,0.000588
23343000,0.0324,0.013523,0.002678,0.000431,0.000353
23344000,0.0324,0.013523,0.002678,0.000431,0.000470
23345000,0.0324,0.013523,0.002678,0.000431,0.000353
23346000,0.0324,0.013523,0.002678,0.000431,0.000588
23347000,0.0324,0.013523,0.002678,0.000431,0.000470
23348000,0.0324,0.013523,0.002678,0.000431,0.000705
23349000,0.0324,0.013523,0.002678,0.000431,0.000353
23350000,0.0324,0.013523,0.002678,0.000431,0.000705
23351000,0.0324,0.013523,0.002678,0.000431,0.000470
23352000,0.0324,0.013523,0.002678,0.000431,0.000470
23353000,0.0324,0.013523,0.002678,0.000431,0.000470
23354000,0.0324,0.013523,0.002678,0.000431,0.000470
23355000,0.0324,0.013523,0.002678,0.000431,0.000470
23356000,0.0324,0.013523,0.002678,0.000431,0.000470
23357000,0.0324,0.013523,0.002678,0.000431,0.000470
23358000,0.0324,0.013523,0.002678,0.000431,0.000470
23359000,0.0324,0.013523,0.002678,0.000431,0.000470
23360000,0.0324,0.013523,0.002678,0.000431,0.000470
23361000,0.0324,0.013523,0.002678,0.000431,0.000470
23362000,0.0324,0.013523,0.002678,0.000431,0.000470
23363000,0.0324,0.013523,0.002678,0.000431,0.000353
23364000,0.0324,0.013523,0.002678,0.000431,0.000705
23365000,0.0324,0.013523,0.002678,0.000431,0.000353
23366000,0.0324,0.013523,0.002678,0.000431,0.000705
23367000,0.0324,0.013523,0.002678,0.000431,0.000470
23368000,0.0324,0.013523,0.002678,0.000431,0.000470
23369000,0.0324,0.013523,0.002678,0.000431,0.000470
23370000,0.0324,0.013523,0.002678,0.000431,0.000588
23371000,0.0324,0.013523,0.002678,0.000431,0.000353
23372000,0.0324,0.013523,0.002678,0.000431,0.000588
23373000,0.0324,0.013523,0.002678,0.000431,0.000353
23374000,0.0324,0.013523,0.002678,0.000431,0.000588
23375000,0.0324,0.013523,0.002678,0.000431,0.000353
23376000,0.0324,0.013523,0.002678,0.000431,0.000588
23377000,0.0324,0.013523,0.002678,0.000431,0.000353
23378000,0.0324,0.013523,0.002678,0.000431,0.000588
23379000,0.0324,0.013523,0.002678,0.000431,0.000353
23380000,0.0324,0.013523,0.002678,0.000431,0.000705
23381000,0.0324,0.013523,0.002678,0.000431,0.000353
23382000,0.0324,0.013523,0.002678,0.000431,0.000705
23383000,0.0324,0.013523,0.002678,0.000431,0.000353
23384000,0.0324,0.013523,0.002678,0.000431,0.000588
23385000,0.0324,0.013523,0.002678,0.000431,0.000353
23386000,0.0324,0.013523,0.002678,0.000431,0.000588
23387000,0.0324,0.013523,0.002678,0.000431,0.000353
23388000,0.0324,0.013523,0.002678,0.000431,0.000588
23389000,0.0324,0.013523,0.002678,0.000431,0.000353
23390000,0.0324,0.013523,0.002678,0.000431,0.000470
23391000,0.0324,0.013523,0.002678,0.000431,0.000470
23392000,0.0324,0.013523,0.002678,0.000431,0.000470
23393000,0.0324,0.013523,0.002678,0.000431,0.000470
23394000,0.0324,0.013523,0.002678,0.000431,0.000470
23395000,0.0324,0.013523,0.002678,0.000431,0.000470
23396000,0.0324,0.013523,0.002678,0.000431,0.000470
23397000,0.0324,0.013523,0.002678,0.000431,0.000470
23398000,0.0324,0.013523,0.002678,0.000431,0.000470
23399000,0.0324,0.013523,0.002678,0.000431,0.000470
23400000,0.0324,0.013523,0.002678,0.000431,0.000588
23401000,0.0324,0.013523,0.002678,0.000431,0.000470
23402000,0.0324,0.013523,0.002678,0.000431,0.000588
23403000,0.0324,0.013523,0.002678,0.000431,0.000353
23404000,0.0324,0.013523,0.002678,0.000431,0.000588
23405000,0.0324,0.013523,0.002678,0.000431,0.000353
23406000,0.0324,0.013523,0.002678,0.000431,0.000588
23407000,0.0324,0.013523,0.002678,0.000431,0.000470
23408000,0.0324,0.013523,0.002678,0.000431,0.000470
23409000,0.0324,0.013523,0.002678,0.000431,0.000470
23410000,0.0324,0.013523,0.002678,0.000431,0.000470
23411000,0.0324,0.013523,0.002678,0.000431,0.000470
23412000,0.0324,0.013523,0.002678,0.000431,0.000470
23413000,0.0324,0.013523,0.002678,0.000431,0.000470
23414000,0.0324,0.013523,0.002678,0.000431,0.000470
23415000,0.0324,0.013523,0.002678,0.000431,0.000470
23416000,0.0324,0.013523,0.002678,0.000431,0.000470
23417000,0.0324,0.013523,0.002678,0.000431,0.000470
23418000,0.0324,0.013523,0.002678,0.000431,0.000470
23419000,0.0324,0.013523,0.002678,0.000431,0.000470
23420000,0.0324,0.013523,0.002678,0.000431,0.000353
23421000,0.0324,0.013523,0.002678,0.000431,0.000588
23422000,0.0324,0.013523,0.002678,0.000431,0.000353
23423000,0.0324,0.013523,0.002678,0.000431,0.000588
23424000,0.0324,0.013523,0.002678,0.000431,0.000353
23425000,0.0324,0.013523,0.002678,0.000431,0.000705
23426000,0.0324,0.013523,0.002678,0.000431,0.000353
23427000,0.0324,0.013523,0.002678,0.000431,0.000705
23428000,0.0324,0.013523,0.002678,0.000431,0.000588
23429000,0.0324,0.013523,0.002678,0.000431,0.000470
23430000,0.0324,0.013523,0.002678,0.000431,0.000705
23431000,0.0324,0.013523,0.002678,0.000431,0.000353
23432000,0.0324,0.013523,0.002678,0.000431,0.000705
23433000,0.0324,0.013523,0.002678,0.000431,0.000588
23434000,0.0324,0.013523,0.002678,0.000431,0.000470
23435000,0.0324,0.013523,0.002678,0.000431,0.000470
23436000,0.0324,0.013523,0.002678,0.000431,0.000470
23437000,0.0324,0.013523,0.002678,0.000431,0.000705
23438000,0.0324,0.013523,0.002678,0.000431,0.000353
23439000,0.0324,0.013523,0.002678,0.000431,0.000705
23440000,0.0324,0.013523,0.002678,0.000431,0.000470
23441000,0.0324,0.013523,0.002678,0.000431,0.000470
23442000,0.0324,0.013523,0.002678,0.000431,0.000470
23443000,0.0324,0.013523,0.002678,0.000431,0.000470
23444000,0.0324,0.013523,0.002678,0.000431,0.000470
23445000,0.0324,0.013523,0.002678,0.000431,0.000588
23446000,0.0324,0.013523,0.002678,0.000431,0.000353
23447000,0.0324,0.013523,0.002678,0.000431,0.000588
23448000,0.0324,0.013523,0.002678,0.000431,0.000353
23449000,0.0324,0.013523,0.002678,0.000431,0.000588
23450000,0.0324,0.013523,0.002678,0.000431,0.000353
23451000,0.0324,0.013523,0.002678,0.000431,0.000588
23452000,0.0324,0.013523,0.002678,0.000431,0.000353
23453000,0.0324,0.013523,0.002678,0.000431,0.000588
23454000,0.0324,0.013523,0.002678,0.000431,0.000353
23455000,0.0324,0.013523,0.002678,0.000431,0.000470
23456000,0.0324,0.013523,0.002678,0.000431,0.000470
23457000,0.0324,0.013523,0.002678,0.000431,0.000588
23458000,0.0324,0.013523,0.002678,0.000431,0.000470
23459000,0.0324,0.013523,0.002678,0.000431,0.000705
23460000,0.0324,0.013523,0.002678,0.000431,0.000353
23461000,0.0324,0.013523,0.002678,0.000431,0.000705
23462000,0.0324,0.013523,0.002678,0.000431,0.000470
23463000,0.0324,0.013523,0.002678,0.000431,0.000470
23464000,0.0324,0.013523,0.002678,0.000431,0.000470
23465000,0.0324,0.013523,0.002678,0.000431,0.000470
23466000,0.0324,0.013523,0.002678,0.000431,0.000470
23467000,0.0324,0.013523,0.002678,0.000431,0.000470
23468000,0.0324,0.013523,0.002678,0.000431,0.000470
23469000,0.0324,0.013523,0.002678,0.000431,0.000705
23470000,0.0324,0.013523,0.002678,0.000431,0.000588
23471000,0.0324,0.013523,0.002678,0.000431,0.000470
23472000,0.0324,0.013523,0.002678,0.000431,0.000470
23473000,0.0324,0.013523,0.002678,0.000431,0.000470
23474000,0.0324,0.013523,0.002678,0.000431,0.000470
23475000,0.0324,0.013523,0.002678,0.000431,0.000470
23476000,0.0324,0.013523,0.002678,0.000431,0.000470
23477000,0.0324,0.013523,0.002678,0.000431,0.000470
23478000,0.0324,0.013523,0.002678,0.000431,0.000353
23479000,0.0324,0.013523,0.002678,0.000431,0.000588
23480000,0.0324,0.013523,0.002678,0.000431,0.000353
23481000,0.0324,0.013523,0.002678,0.000431,0.000588
23482000,0.0324,0.013523,0.002678,0.000431,0.000353
23483000,0.0324,0.013523,0.002678,0.000431,0.000588
23484000,0.0324,0.013523,0.002678,0.000431,0.000353
23485000,0.0324,0.013523,0.002678,0.000431,0.000588
23486000,0.0324,0.013523,0.002678,0.000431,0.000353
23487000,0.0324,0.013523,0.002678,0.000431,0.000823
23488000,0.0324,0.013523,0.002678,0.000431,0.000353
23489000,0.0324,0.013523,0.002678,0.000431,0.000470
23490000,0.0324,0.013523,0.002678,0.000431,0.000470
23491000,0.0324,0.013523,0.002678,0.000431,0.000470
23492000,0.0324,0.013523,0.002678,0.000431,0.000470
23493000,0.0324,0.013523,0.002678,0.000431,0.000588
23494000,0.0324,0.013523,0.002678,0.000431,0.000353
23495000,0.0324,0.013523,0.002678,0.000431,0.000588
23496000,0.0324,0.013523,0.002678,0.000431,0.000353
23497000,0.0324,0.013523,0.002678,0.000431,0.000705
23498000,0.0324,0.013523,0.002678,0.000431,0.000353
23499000,0.0324,0.013523,0.002678,0.000431,0.000588
23500000,0.0324,0.013523,0.002678,0.000431,0.000588
23501000,0.0324,0.013523,0.002678,0.000431,0.000470
23502000,0.0324,0.013523,0.002678,0.000431,0.000353
23503000,0.0324,0.013523,0.002678,0.000431,0.000588
23504000,0.0324,0.013523,0.002678,0.000431,0.000353
23505000,0.0324,0.013523,0.002678,0.000431,0.000705
23506000,0.0324,0.013523,0.002678,0.000431,0.000470
23507000,0.0324,0.013523,0.002678,0.000431,0.000470
23508000,0.0324,0.013523,0.002678,0.000431,0.000470
23509000,0.0324,0.013523,0.002678,0.000431,0.000470
23510000,0.0324,0.013523,0.002678,0.000431,0.000470
23511000,0.0324,0.013523,0.002678,0.000431,0.000588
23512000,0.0324,0.013523,0.002678,0.000431,0.000353
23513000,0.0324,0.013523,0.002678,0.000431,0.000470
23514000,0.0324,0.013523,0.002678,0.000431,0.000470
23515000,0.0324,0.013523,0.002678,0.000431,0.000470
23516000,0.0324,0.013523,0.002678,0.000431,0.000470
23517000,0.0324,0.013523,0.002678,0.000431,0.000470
23518000,0.0324,0.013523,0.002678,0.000431,0.000470
23519000,0.0324,0.013523,0.002678,0.000431,0.000588
23520000,0.0324,0.013523,0.002678,0.000431,0.000353
23521000,0.0324,0.013523,0.002678,0.000431,0.000705
23522000,0.0324,0.013523,0.002678,0.000431,0.000353
23523000,0.0324,0.013523,0.002678,0.000431,0.000588
23524000,0.0324,0.013523,0.002678,0.000431,0.000588
23525000,0.0324,0.013523,0.002678,0.000431,0.000470
23526000,0.0324,0.013523,0.002678,0.000431,0.000470
23527000,0.0324,0.013523,0.002678,0.000431,0.000470
23528000,0.0324,0.013523,0.002678,0.000431,0.000353
23529000,0.0324,0.013523,0.002678,0.000431,0.000588
23530000,0.0324,0.013523,0.002678,0.000431,0.000353
23531000,0.0324,0.013523,0.002678,0.000431,0.000588
23532000,0.0324,0.013523,0.002678,0.000431,0.000353
23533000,0.0324,0.013523,0.002678,0.000431,0.000588
23534000,0.0324,0.013523,0.002678,0.000431,0.000353
23535000,0.0324,0.013523,0.002678,0.000431,0.000588
23536000,0.0324,0.013523,0.002678,0.000431,0.000353
23537000,0.0324,0.013523,0.002678,0.000431,0.000588
23538000,0.0324,0.013523,0.002678,0.000431,0.000353
23539000,0.0324,0.013523,0.002678,0.000431,0.000470
23540000,0.0324,0.013523,0.002678,0.000431,0.000470
23541000,0.0324,0.013523,0.002678,0.000431,0.000588
23542000,0.0324,0.013523,0.002678,0.000431,0.000353
23543000,0.0324,0.013523,0.002678,0.000431,0.000588
23544000,0.0324,0.013523,0.002678,0.000431,0.000353
23545000,0.0324,0.013523,0.002678,0.000431,0.000588
23546000,0.0324,0.013523,0.002678,0.000431,0.000470
23547000,0.0324,0.013523,0.002678,0.000431,0.000470
23548000,0.0324,0.013523,0.002678,0.000431,0.000353
23549000,0.0324,0.013523,0.002678,0.000431,0.000588
23550000,0.0324,0.013523,0.002678,0.000431,0.000353
23551000,0.0324,0.013523,0.002678,0.000431,0.000588
23552000,0.0324,0.013523,0.002678,0.000431,0.000470
23553000,0.0324,0.013523,0.002678,0.000431,0.000705
23554000,0.0324,0.013523,0.002678,0.000431,0.000353
23555000,0.0324,0.013523,0.002678,0.000431,0.000470
23556000,0.0324,0.013523,0.002678,0.000431,0.000353
23557000,0.0324,0.013523,0.002678,0.000431,0.000588
23558000,0.0324,0.013523,0.002678,0.000431,0.000353
23559000,0.0324,0.013523,0.002678,0.000431,0.000588
23560000,0.0324,0.013523,0.002678,0.000431,0.000353
23561000,0.0324,0.013523,0.002678,0.000431,0.000588
23562000,0.0324,0.013523,0.002678,0.000431,0.000470
23563000,0.0324,0.013523,0.002678,0.000431,0.000470
23564000,0.0324,0.013523,0.002678,0.000431,0.000353
23565000,0.0324,0.013523,0.002678,0.000431,0.000588
23566000,0.0324,0.013523,0.002678,0.000431,0.000353
23567000,0.0324,0.013523,0.002678,0.000431,0.000588
23568000,0.0324,0.013523,0.002678,0.000431,0.000353
23569000,0.0324,0.013523,0.002678,0.000431,0.000588
23570000,0.0324,0.013523,0.002678,0.000431,0.000470
23571000,0.0324,0.013523,0.002678,0.000431,0.000588
23572000,0.0324,0.013523,0.002678,0.000431,0.000470
23573000,0.0324,0.013523,0.002678,0.000431,0.000588
23574000,0.0324,0.013523,0.002678,0.000431,0.000353
23575000,0.0324,0.013523,0.002678,0.000431,0.000588
23576000,0.0324,0.013523,0.002678,0.000431,0.000353
23577000,0.0324,0.013523,0.002678,0.000431,0.000588
23578000,0.0324,0.013523,0.002678,0.000431,0.000353
23579000,0.0324,0.013523,0.002678,0.000431,0.000588
23580000,0.0324,0.013523,0.002678,0.000431,0.000353
23581000,0.0324,0.013523,0.002678,0.000431,0.000470
23582000,0.0324,0.013523,0.002678,0.000431,0.000470
23583000,0.0324,0.013523,0.002678,0.000431,0.000470
23584000,0.0324,0.013523,0.002678,0.000431,0.000470
23585000,0.0324,0.013523,0.002678,0.000431,0.000470
23586000,0.0324,0.013523,0.002678,0.000431,0.000470
23587000,0.0324,0.013523,0.002678,0.000431,0.000353
23588000,0.0324,0.013523,0.002678,0.000431,0.000588
23589000,0.0324,0.013523,0.002678,0.000431,0.000353
23590000,0.0324,0.013523,0.002678,0.000431,0.000588
23591000,0.0324,0.013523,0.002678,0.000431,0.000353
23592000,0.0324,0.013523,0.002678,0.000431,0.000588
23593000,0.0324,0.013523,0.002678,0.000431,0.000470
23594000,0.0324,0.013523,0.002678,0.000431,0.000588
23595000,0.0324,0.013523,0.002678,0.000431,0.000353
23596000,0.0324,0.013523,0.002678,0.000431,0.000470
23597000,0.0324,0.013523,0.002678,0.000431,0.000470
23598000,0.0324,0.013523,0.002678,0.000431,0.000588
23599000,0.0324,0.013523,0.002678,0.000431,0.000353
23600000,0.0324,0.013523,0.002678,0.000431,0.000588
23601000,0.0324,0.013523,0.002678,0.000431,0.000353
23602000,0.0324,0.013523,0.002678,0.000431,0.000705
23603000,0.0324,0.013523,0.002678,0.000431,0.000353
23604000,0.0324,0.013523,0.002678,0.000431,0.000705
23605000,0.0324,0.013523,0.002678,0.000431,0.000470
23606000,0.0324,0.013523,0.002678,0.000431,0.000470
23607000,0.0324,0.013523,0.002678,0.000431,0.000470
23608000,0.0324,0.013523,0.002678,0.000431,0.000470
23609000,0.0324,0.013523,0.002678,0.000431,0.000470
23610000,0.0324,0.013523,0.002678,0.000431,0.000470
23611000,0.0324,0.013523,0.002678,0.000431,0.000353
23612000,0.0324,0.013523,0.002678,0.000431,0.000588
23613000,0.0324,0.013523,0.002678,0.000431,0.000353
23614000,0.0324,0.013523,0.002678,0.000431,0.000705
23615000,0.0324,0.013523,0.002678,0.000431,0.000353
23616000,0.0324,0.013523,0.002678,0.000431,0.000705
23617000,0.0324,0.013523,0.002678,0.000431,0.000588
23618000,0.0324,0.013523,0.002678,0.000431,0.000470
23619000,0.0324,0.013523,0.002678,0.000431,0.000705
23620000,0.0324,0.013523,0.002678,0.000431,0.000353
23621000,0.0324,0.013523,0.002678,0.000431,0.000705
23622000,0.0324,0.013523,0.002678,0.000431,0.000470
23623000,0.0324,0.013523,0.002678,0.000431,0.000470
23624000,0.0324,0.013523,0.002678,0.000431,0.000470
23625000,0.0324,0.013523,0.002678,0.000431,0.000470
23626000,0.0324,0.013523,0.002678,0.000431,0.000470
23627000,0.0324,0.013523,0.002678,0.000431,0.000470
23628000,0.0324,0.013523,0.002678,0.000431,0.000470
23629000,0.0324,0.013523,0.002678,0.000431,0.000470
23630000,0.0324,0.013523,0.002678,0.000431,0.000353
23631000,0.0324,0.013523,0.002678,0.000431,0.000588
23632000,0.0324,0.013523,0.002678,0.000431,0.000235
23633000,0.0324,0.013523,0.002678,0.000431,0.000705
23634000,0.0324,0.013523,0.002678,0.000431,0.000353
23635000,0.0324,0.013523,0.002678,0.000431,0.000588
23636000,0.0324,0.013523,0.002678,0.000431,0.000353
23637000,0.0324,0.013523,0.002678,0.000431,0.000588
23638000,0.0324,0.013523,0.002678,0.000431,0.000353
23639000,0.0324,0.013523,0.002678,0.000431,0.000588
23640000,0.0324,0.013523,0.002678,0.000431,0.000353
23641000,0.0324,0.013523,0.002678,0.000431,0.000588
23642000,0.0324,0.013523,0.002678,0.000431,0.000353
23643000,0.0324,0.013523,0.002678,0.000431,0.000588
23644000,0.0324,0.013523,0.002678,0.000431,0.000353
23645000,0.0324,0.013523,0.002678,0.000431,0.000470
23646000,0.0324,0.013523,0.002678,0.000431,0.000353
23647000,0.0324,0.013523,0.002678,0.000431,0.000588
23648000,0.0324,0.013523,0.002678,0.000431,0.000353
23649000,0.0324,0.013523,0.002678,0.000431,0.000588
23650000,0.0324,0.013523,0.002678,0.000431,0.000353
23651000,0.0324,0.013523,0.002678,0.000431,0.000470
23652000,0.0324,0.013523,0.002678,0.000431,0.000470
23653000,0.0324,0.013523,0.002678,0.000431,0.000470
23654000,0.0324,0.013523,0.002678,0.000431,0.000470
23655000,0.0324,0.013523,0.002678,0.000431,0.000470
23656000,0.0324,0.013523,0.002678,0.000431,0.000470
23657000,0.0324,0.013523,0.002678,0.000431,0.000588
23658000,0.0324,0.013523,0.002678,0.000431,0.000470
23659000,0.0324,0.013523,0.002678,0.000431,0.000588
23660000,0.0324,0.013523,0.002678,0.000431,0.000353
23661000,0.0324,0.013523,0.002678,0.000431,0.000588
23662000,0.0324,0.013523,0.002678,0.000431,0.000353
23663000,0.0324,0.013523,0.002678,0.000431,0.000588
23664000,0.0324,0.013523,0.002678,0.000431,0.000353
23665000,0.0324,0.013523,0.002678,0.000431,0.000588
23666000,0.0324,0.013523,0.002678,0.000431,0.000353
23667000,0.0324,0.013523,0.002678,0.000431,0.000588
23668000,0.0324,0.013523,0.002678,0.000431,0.000353
23669000,0.0324,0.013523,0.002678,0.000431,0.000470
23670000,0.0324,0.013523,0.002678,0.000431,0.000470
23671000,0.0324,0.013523,0.002678,0.000431,0.000470
23672000,0.0324,0.013523,0.002678,0.000431,0.000470
23673000,0.0324,0.013523,0.002678,0.000431,0.000353
23674000,0.0324,0.013523,0.002678,0.000431,0.000823
23675000,0.0324,0.013523,0.002678,0.000431,0.000353
23676000,0.0324,0.013523,0.002678,0.000431,0.000705
23677000,0.0324,0.013523,0.002678,0.000431,0.000470
23678000,0.0324,0.013523,0.002678,0.000431,0.000470
23679000,0.0324,0.013523,0.002678,0.000431,0.000470
23680000,0.0324,0.013523,0.002678,0.000431,0.000470
23681000,0.0324,0.013523,0.002678,0.000431,0.000470
23682000,0.0324,0.013523,0.002678,0.000431,0.000470
23683000,0.0324,0.013523,0.002678,0.000431,0.000470
23684000,0.0324,0.013523,0.002678,0.000431,0.000470
23685000,0.0324,0.013523,0.002678,0.000431,0.000470
23686000,0.0324,0.013523,0.002678,0.000431,0.000470
23687000,0.0324,0.013523,0.002678,0.000431,0.000470
23688000,0.0324,0.013523,0.002678,0.000431,0.000588
23689000,0.0324,0.013523,0.002678,0.000431,0.000470
23690000,0.0324,0.013523,0.002678,0.000431,0.000588
23691000,0.0324,0.013523,0.002678,0.000431,0.000588
23692000,0.0324,0.013523,0.002678,0.000431,0.000470
23693000,0.0324,0.013523,0.002678,0.000431,0.000588
23694000,0.0324,0.013523,0.002678,0.000431,0.000353
23695000,0.0324,0.013523,0.002678,0.000431,0.000588
23696000,0.0324,0.013523,0.002678,0.000431,0.000470
23697000,0.0324,0.013523,0.002678,0.000431,0.000588
23698000,0.0324,0.013523,0.002678,0.000431,0.000470
23699000,0.0324,0.013523,0.002678,0.000431,0.000705
23700000,0.0324,0.013523,0.002678,0.000431,0.000353
23701000,0.0324,0.013523,0.002678,0.000431,0.000588
23702000,0.0324,0.013523,0.002678,0.000431,0.000470
23703000,0.0324,0.013523,0.002678,0.000431,0.000588
23704000,0.0324,0.013523,0.002678,0.000431,0.000588
23705000,0.0324,0.013523,0.002678,0.000431,0.000470
23706000,0.0324,0.013523,0.002678,0.000431,0.000705
23707000,0.0324,0.013523,0.002678,0.000431,0.000353
23708000,0.0324,0.013523,0.002678,0.000431,0.000588
23709000,0.0324,0.013523,0.002678,0.000431,0.000470
23710000,0.0324,0.013523,0.002678,0.000431,0.000588
23711000,0.0324,0.013523,0.002678,0.000431,0.000353
23712000,0.0324,0.013523,0.002678,0.000431,0.000588
23713000,0.0324,0.013523,0.002678,0.000431,0.000353
23714000,0.0324,0.013523,0.002678,0.000431,0.000470
23715000,0.0324,0.013523,0.002678,0.000431,0.000353
23716000,0.0324,0.013523,0.002678,0.000431,0.000588
23717000,0.0324,0.013523,0.002678,0.000431,0.000353
23718000,0.0324,0.013523,0.002678,0.000431,0.000588
23719000,0.0324,0.013523,0.002678,0.000431,0.000353
23720000,0.0324,0.013523,0.002678,0.000431,0.000470
23721000,0.0324,0.013523,0.002678,0.000431,0.000470
23722000,0.0324,0.013523,0.002678,0.000431,0.000470
23723000,0.0324,0.013523,0.002678,0.000431,0.000470
23724000,0.0324,0.013523,0.002678,0.000431,0.000470
23725000,0.0324,0.013523,0.002678,0.000431,0.000470
23726000,0.0324,0.013523,0.002678,0.000431,0.000470
23727000,0.0324,0.013523,0.002678,0.000431,0.000353
23728000,0.0324,0.013523,0.002678,0.000431,0.000588
23729000,0.0324,0.013523,0.002678,0.000431,0.000353
23730000,0.0324,0.013523,0.002678,0.000431,0.000588
23731000,0.0324,0.013523,0.002678,0.000431,0.000353
23732000,0.0324,0.013523,0.002678,0.000431,0.000588
23733000,0.0324,0.013523,0.002678,0.000431,0.000353
23734000,0.0324,0.013523,0.002678,0.000431,0.000588
23735000,0.0324,0.013523,0.002678,0.000431,0.000353
23736000,0.0324,0.013523,0.002678,0.000431,0.000588
23737000,0.0324,0.013523,0.002678,0.000431,0.000353
23738000,0.0324,0.013523,0.002678,0.000431,0.000588
23739000,0.0324,0.013523,0.002678,0.000431,0.000353
23740000,0.0324,0.013523,0.002678,0.000431,0.000588
23741000,0.0324,0.013523,0.002678,0.000431,0.000470
23742000,0.0324,0.013523,0.002678,0.000431,0.000470
23743000,0.0324,0.013523,0.002678,0.000431,0.000470
23744000,0.0324,0.013523,0.002678,0.000431,0.000470
23745000,0.0324,0.013523,0.002678,0.000431,0.000470
23746000,0.0324,0.013523,0.002678,0.000431,0.000470
23747000,0.0324,0.013523,0.002678,0.000431,0.000470
23748000,0.0324,0.013523,0.002678,0.000431,0.000353
23749000,0.0324,0.013523,0.002678,0.000431,0.000588
23750000,0.0324,0.013523,0.002678,0.000431,0.000353
23751000,0.0324,0.013523,0.002678,0.000431,0.000588
23752000,0.0324,0.013523,0.002678,0.000431,0.000353
23753000,0.0324,0.013523,0.002678,0.000431,0.000588
23754000,0.0324,0.013523,0.002678,0.000431,0.000353
23755000,0.0324,0.013523,0.002678,0.000431,0.000705
23756000,0.0324,0.013523,0.002678,0.000431,0.000353
23757000,0.0324,0.013523,0.002678,0.000431,0.000705
23758000,0.0324,0.013523,0.002678,0.000431,0.000470
23759000,0.0324,0.013523,0.002678,0.000431,0.000470
23760000,0.0324,0.013523,0.002678,0.000431,0.000470
23761000,0.0324,0.013523,0.002678,0.000431,0.000588
23762000,0.0324,0.013523,0.002678,0.000431,0.000353
23763000,0.0324,0.013523,0.002678,0.000431,0.000588
23764000,0.0324,0.013523,0.002678,0.000431,0.000353
23765000,0.0324,0.013523,0.002678,0.000431,0.000588
23766000,0.0324,0.013523,0.002678,0.000431,0.000353
23767000,0.0324,0.013523,0.002678,0.000431,0.000588
23768000,0.0324,0.013523,0.002678,0.000431,0.000353
23769000,0.0324,0.013523,0.002678,0.000431,0.000588
23770000,0.0324,0.013523,0.002678,0.000431,0.000588
23771000,0.0324,0.013523,0.002678,0.000431,0.000470
23772000,0.0324,0.013523,0.002678,0.000431,0.000470
23773000,0.0324,0.013523,0.002678,0.000431,0.000470
23774000,0.0324,0.013523,0.002678,0.000431,0.000353
23775000,0.0324,0.013523,0.002678,0.000431,0.000588
23776000,0.0324,0.013523,0.002678,0.000431,0.000353
23777000,0.0324,0.013523,0.002678,0.000431,0.000588
23778000,0.0324,0.013523,0.002678,0.000431,0.000353
23779000,0.0324,0.013523,0.002678,0.000431,0.000705
23780000,0.0324,0.013523,0.002678,0.000431,0.000353
23781000,0.0324,0.013523,0.002678,0.000431,0.000705
23782000,0.0324,0.013523,0.002678,0.000431,0.000588
23783000,0.0324,0.013523,0.002678,0.000431,0.000470
23784000,0.0324,0.013523,0.002678,0.000431,0.000705
23785000,0.0324,0.013523,0.002678,0.000431,0.000353
23786000,0.0324,0.013523,0.002678,0.000431,0.000705
23787000,0.0324,0.013523,0.002678,0.000431,0.000588
23788000,0.0324,0.013523,0.002678,0.000431,0.000470
23789000,0.0324,0.013523,0.002678,0.000431,0.000470
23790000,0.0324,0.013523,0.002678,0.000431,0.000470
23791000,0.0324,0.013523,0.002678,0.000431,0.000470
23792000,0.0324,0.013523,0.002678,0.000431,0.000470
23793000,0.0324,0.013523,0.002678,0.000431,0.000470
23794000,0.0324,0.013523,0.002678,0.000431,0.000588
23795000,0.0324,0.013523,0.002678,0.000431,0.000470
23796000,0.0324,0.013523,0.002678,0.000431,0.000470
23797000,0.0324,0.013523,0.002678,0.000431,0.000470
23798000,0.0324,0.013523,0.002678,0.000431,0.000470
23799000,0.0324,0.013523,0.002678,0.000431,0.000470
23800000,0.0324,0.013523,0.002678,0.000431,0.000470
23801000,0.0324,0.013523,0.002678,0.000431,0.000470
23802000,0.0324,0.013523,0.002678,0.000431,0.000588
23803000,0.0324,0.013523,0.002678,0.000431,0.000353
23804000,0.0324,0.013523,0.002678,0.000431,0.000588
23805000,0.0324,0.013523,0.002678,0.000431,0.000353
23806000,0.0324,0.013523,0.002678,0.000431,0.000705
23807000,0.0324,0.013523,0.002678,0.000431,0.000588
23808000,0.0324,0.013523,0.002678,0.000431,0.000470
23809000,0.0324,0.013523,0.002678,0.000431,0.000588
23810000,0.0324,0.013523,0.002678,0.000431,0.000353
23811000,0.0324,0.013523,0.002678,0.000431,0.000588
23812000,0.0324,0.013523,0.002678,0.000431,0.000353
23813000,0.0324,0.013523,0.002678,0.000431,0.000588
23814000,0.0324,0.013523,0.002678,0.000431,0.000353
23815000,0.0324,0.013523,0.002678,0.000431,0.000470
23816000,0.0324,0.013523,0.002678,0.000431,0.000470
23817000,0.0324,0.013523,0.002678,0.000431,0.000470
23818000,0.0324,0.013523,0.002678,0.000431,0.000470
23819000,0.0324,0.013523,0.002678,0.000431,0.000353
23820000,0.0324,0.013523,0.002678,0.000431,0.000588
23821000,0.0324,0.013523,0.002678,0.000431,0.000470
23822000,0.0324,0.013523,0.002678,0.000431,0.000470
23823000,0.0324,0.013523,0.002678,0.000431,0.000353
23824000,0.0324,0.013523,0.002678,0.000431,0.000705
23825000,0.0324,0.013523,0.002678,0.000431,0.000588
23826000,0.0324,0.013523,0.002678,0.000431,0.000470
23827000,0.0324,0.013523,0.002678,0.000431,0.000705
23828000,0.0324,0.013523,0.002678,0.000431,0.000353
23829000,0.0324,0.013523,0.002678,0.000431,0.000705
23830000,0.0324,0.013523,0.002678,0.000431,0.000470
23831000,0.0324,0.013523,0.002678,0.000431,0.000470
23832000,0.0324,0.013523,0.002678,0.000431,0.000588
23833000,0.0324,0.013523,0.002678,0.000431,0.000470
23834000,0.0324,0.013523,0.002678,0.000431,0.000470
23835000,0.0324,0.013523,0.002678,0.000431,0.000470
23836000,0.0324,0.013523,0.002678,0.000431,0.000470
23837000,0.0324,0.013523,0.002678,0.000431,0.000470
23838000,0.0324,0.013523,0.002678,0.000431,0.000353
23839000,0.0324,0.013523,0.002678,0.000431,0.000705
23840000,0.0324,0.013523,0.002678,0.000431,0.000588
23841000,0.0324,0.013523,0.002678,0.000431,0.000588
23842000,0.0324,0.013523,0.002678,0.000431,0.000470
23843000,0.0324,0.013523,0.002678,0.000431,0.000470
23844000,0.0324,0.013523,0.002678,0.000431,0.000588
23845000,0.0324,0.013523,0.002678,0.000431,0.000470
23846000,0.0324,0.013523,0.002678,0.000431,0.000588
23847000,0.0324,0.013523,0.002678,0.000431,0.000353
23848000,0.0324,0.013523,0.002678,0.000431,0.000588
23849000,0.0324,0.013523,0.002678,0.000431,0.000353
23850000,0.0324,0.013523,0.002678,0.000431,0.000588
23851000,0.0324,0.013523,0.002678,0.000431,0.000470
23852000,0.0324,0.013523,0.002678,0.000431,0.000470
23853000,0.0324,0.013523,0.002678,0.000431,0.000353
23854000,0.0324,0.013523,0.002678,0.000431,0.000588
23855000,0.0324,0.013523,0.002678,0.000431,0.000353
23856000,0.0324,0.013523,0.002678,0.000431,0.000588
23857000,0.0324,0.013523,0.002678,0.000431,0.000353
23858000,0.0324,0.013523,0.002678,0.000431,0.000588
23859000,0.0324,0.013523,0.002678,0.000431,0.000353
23860000,0.0324,0.013523,0.002678,0.000431,0.000470
23861000,0.0324,0.013523,0.002678,0.000431,0.000470
23862000,0.0324,0.013523,0.002678,0.000431,0.000588
23863000,0.0324,0.013523,0.002678,0.000431,0.000470
23864000,0.0324,0.013523,0.002678,0.000431,0.000353
23865000,0.0324,0.013523,0.002678,0.000431,0.000823
23866000,0.0324,0.013523,0.002678,0.000431,0.000353
23867000,0.0324,0.013523,0.002678,0.000431,0.000470
23868000,0.0324,0.013523,0.002678,0.000431,0.000353
23869000,0.0324,0.013523,0.002678,0.000431,0.000588
23870000,0.0324,0.013523,0.002678,0.000431,0.000353
23871000,0.0324,0.013523,0.002678,0.000431,0.000705
23872000,0.0324,0.013523,0.002678,0.000431,0.000353
23873000,0.0324,0.013523,0.002678,0.000431,0.000588
23874000,0.0324,0.013523,0.002678,0.000431,0.000353
23875000,0.0324,0.013523,0.002678,0.000431,0.000588
23876000,0.0324,0.013523,0.002678,0.000431,0.000353
23877000,0.0324,0.013523,0.002678,0.000431,0.000588
23878000,0.0324,0.013523,0.002678,0.000431,0.000353
23879000,0.0324,0.013523,0.002678,0.000431,0.000588
23880000,0.0324,0.013523,0.002678,0.000431,0.000353
23881000,0.0324,0.013523,0.002678,0.000431,0.000588
23882000,0.0324,0.013523,0.002678,0.000431,0.000353
23883000,0.0324,0.013523,0.002678,0.000431,0.000588
23884000,0.0324,0.013523,0.002678,0.000431,0.000353
23885000,0.0324,0.013523,0.002678,0.000431,0.000588
23886000,0.0324,0.013523,0.002678,0.000431,0.000353
23887000,0.0324,0.013523,0.002678,0.000431,0.000588
23888000,0.0324,0.013523,0.002678,0.000431,0.000353
23889000,0.0324,0.013523,0.002678,0.000431,0.000588
23890000,0.0324,0.013523,0.002678,0.000431,0.000353
23891000,0.0324,0.013523,0.002678,0.000431,0.000588
23892000,0.0324,0.013523,0.002678,0.000431,0.000353
23893000,0.0324,0.013523,0.002678,0.000431,0.000588
23894000,0.0324,0.013523,0.002678,0.000431,0.000470
23895000,0.0324,0.013523,0.002678,0.000431,0.000470
23896000,0.0324,0.013523,0.002678,0.000431,0.000353
23897000,0.0324,0.013523,0.002678,0.000431,0.000353
23898000,0.0324,0.013523,0.002678,0.000431,0.000705
23899000,0.0324,0.013523,0.002678,0.000431,0.000588
23900000,0.0324,0.013523,0.002678,0.000431,0.000470
23901000,0.0324,0.013523,0.002678,0.000431,0.000588
23902000,0.0324,0.013523,0.002678,0.000431,0.000353
23903000,0.0324,0.013523,0.002678,0.000431,0.000705
23904000,0.0324,0.013523,0.002678,0.000431,0.000470
23905000,0.0324,0.013523,0.002678,0.000431,0.000588
23906000,0.0324,0.013523,0.002678,0.000431,0.000353
23907000,0.0324,0.013523,0.002678,0.000431,0.000588
23908000,0.0324,0.013523,0.002678,0.000431,0.000353
23909000,0.0324,0.013523,0.002678,0.000431,0.000588
23910000,0.0324,0.013523,0.002678,0.000431,0.000353
23911000,0.0324,0.013523,0.002678,0.000431,0.000705
23912000,0.0324,0.013523,0.002678,0.000431,0.000353
23913000,0.0324,0.013523,0.002678,0.000431,0.000588
23914000,0.0324,0.013523,0.002678,0.000431,0.000353
23915000,0.0324,0.013523,0.002678,0.000431,0.000588
23916000,0.0324,0.013523,0.002678,0.000431,0.000353
23917000,0.0324,0.013523,0.002678,0.000431,0.000588
23918000,0.0324,0.013523,0.002678,0.000431,0.000353
23919000,0.0324,0.013523,0.002678,0.000431,0.000470
23920000,0.0324,0.013523,0.002678,0.000431,0.000470
23921000,0.0324,0.013523,0.002678,0.000431,0.000470
23922000,0.0324,0.013523,0.002678,0.000431,0.000470
23923000,0.0324,0.013523,0.002678,0.000431,0.000588
23924000,0.0324,0.013523,0.002678,0.000431,0.000470
23925000,0.0324,0.013523,0.002678,0.000431,0.000705
23926000,0.0324,0.013523,0.002678,0.000431,0.000353
23927000,0.0324,0.013523,0.002678,0.000431,0.000705
23928000,0.0324,0.013523,0.002678,0.000431,0.000470
23929000,0.0324,0.013523,0.002678,0.000431,0.000470
23930000,0.0324,0.013523,0.002678,0.000431,0.000470
23931000,0.0324,0.013523,0.002678,0.000431,0.000470
23932000,0.0324,0.013523,0.002678,0.000431,0.000470
23933000,0.0324,0.013523,0.002678,0.000431,0.000588
23934000,0.0324,0.013523,0.002678,0.000431,0.000353
23935000,0.0324,0.013523,0.002678,0.000431,0.000588
23936000,0.0324,0.013523,0.002678,0.000431,0.000353
23937000,0.0324,0.013523,0.002678,0.000431,0.000470
23938000,0.0324,0.013523,0.002678,0.000431,0.000470
23939000,0.0324,0.013523,0.002678,0.000431,0.000470
23940000,0.0324,0.013523,0.002678,0.000431,0.000470
23941000,0.0324,0.013523,0.002678,0.000431,0.000470
23942000,0.0324,0.013523,0.002678,0.000431,0.000353
23943000,0.0324,0.013523,0.002678,0.000431,0.000588
23944000,0.0324,0.013523,0.002678,0.000431,0.000353
23945000,0.0324,0.013523,0.002678,0.000431,0.000705
23946000,0.0324,0.013523,0.002678,0.000431,0.000353
23947000,0.0324,0.013523,0.002678,0.000431,0.000588
23948000,0.0324,0.013523,0.002678,0.000431,0.000353
23949000,0.0324,0.013523,0.002678,0.000431,0.000705
23950000,0.0324,0.013523,0.002678,0.000431,0.000353
23951000,0.0324,0.013523,0.002678,0.000431,0.000588
23952000,0.0324,0.013523,0.002678,0.000431,0.000353
23953000,0.0324,0.013523,0.002678,0.000431,0.000705
23954000,0.0324,0.013523,0.002678,0.000431,0.000353
23955000,0.0324,0.013523,0.002678,0.000431,0.000705
23956000,0.0324,0.013523,0.002678,0.000431,0.000588
23957000,0.0324,0.013523,0.002678,0.000431,0.000470
23958000,0.0324,0.013523,0.002678,0.000431,0.000705
23959000,0.0324,0.013523,0.002678,0.000431,0.000353
23960000,0.0324,0.013523,0.002678,0.000431,0.000588
23961000,0.0324,0.013523,0.002678,0.000431,0.000470
23962000,0.0324,0.013523,0.002678,0.000431,0.000705
23963000,0.0324,0.013523,0.002678,0.000431,0.000235
23964000,0.0324,0.013523,0.002678,0.000431,0.000705
23965000,0.0324,0.013523,0.002678,0.000431,0.000353
23966000,0.0324,0.013523,0.002678,0.000431,0.000705
23967000,0.0324,0.013523,0.002678,0.000431,0.000470
23968000,0.0324,0.013523,0.002678,0.000431,0.000470
23969000,0.0324,0.013523,0.002678,0.000431,0.000470
23970000,0.0324,0.013523,0.002678,0.000431,0.000588
23971000,0.0324,0.013523,0.002678,0.000431,0.000353
23972000,0.0324,0.013523,0.002678,0.000431,0.000588
23973000,0.0324,0.013523,0.002678,0.000431,0.000353
23974000,0.0324,0.013523,0.002678,0.000431,0.000705
23975000,0.0324,0.013523,0.002678,0.000431,0.000588
23976000,0.0324,0.013523,0.002678,0.000431,0.000470
23977000,0.0324,0.013523,0.002678,0.000431,0.000705
23978000,0.0324,0.013523,0.002678,0.000431,0.000353
23979000,0.0324,0.013523,0.002678,0.000431,0.000588
23980000,0.0324,0.013523,0.002678,0.000431,0.000353
23981000,0.0324,0.013523,0.002678,0.000431,0.000588
23982000,0.0324,0.013523,0.002678,0.000431,0.000353
23983000,0.0324,0.013523,0.002678,0.000431,0.000470
23984000,0.0324,0.013523,0.002678,0.000431,0.000470
23985000,0.0324,0.013523,0.002678,0.000431,0.000470
23986000,0.0324,0.013523,0.002678,0.000431,0.000470
23987000,0.0324,0.013523,0.002678,0.000431,0.000470
23988000,0.0324,0.013523,0.002678,0.000431,0.000470
23989000,0.0324,0.013523,0.002678,0.000431,0.000470
23990000,0.0324,0.013523,0.002678,0.000431,0.000470
23991000,0.0324,0.013523,0.002678,0.000431,0.000470
23992000,0.0324,0.013523,0.002678,0.000431,0.000470
23993000,0.0324,0.013523,0.002678,0.000431,0.000470
23994000,0.0324,0.013523,0.002678,0.000431,0.000470
23995000,0.0324,0.013523,0.002678,0.000431,0.000470
23996000,0.0324,0.013523,0.002678,0.000431,0.000470
23997000,0.0324,0.013523,0.002678,0.000431,0.000470
23998000,0.0324,0.013523,0.002678,0.000431,0.000470
23999000,0.0324,0.013523,0.002678,0.000431,0.000470
