Cycle,Area(mm^2),PeakDynamic(W),SubthresholdLeakage(W),GateLeakage(W),RunTimeDynamic(W)
44000000,0.0324,0.013523,0.002678,0.000431,0.000588
44001000,0.0324,0.013523,0.002678,0.000431,0.000353
44002000,0.0324,0.013523,0.002678,0.000431,0.000588
44003000,0.0324,0.013523,0.002678,0.000431,0.000353
44004000,0.0324,0.013523,0.002678,0.000431,0.000588
44005000,0.0324,0.013523,0.002678,0.000431,0.000353
44006000,0.0324,0.013523,0.002678,0.000431,0.000588
44007000,0.0324,0.013523,0.002678,0.000431,0.000353
44008000,0.0324,0.013523,0.002678,0.000431,0.000705
44009000,0.0324,0.013523,0.002678,0.000431,0.000470
44010000,0.0324,0.013523,0.002678,0.000431,0.000705
44011000,0.0324,0.013523,0.002678,0.000431,0.000353
44012000,0.0324,0.013523,0.002678,0.000431,0.000588
44013000,0.0324,0.013523,0.002678,0.000431,0.000353
44014000,0.0324,0.013523,0.002678,0.000431,0.000470
44015000,0.0324,0.013523,0.002678,0.000431,0.000353
44016000,0.0324,0.013523,0.002678,0.000431,0.000588
44017000,0.0324,0.013523,0.002678,0.000431,0.000353
44018000,0.0324,0.013523,0.002678,0.000431,0.000588
44019000,0.0324,0.013523,0.002678,0.000431,0.000353
44020000,0.0324,0.013523,0.002678,0.000431,0.000588
44021000,0.0324,0.013523,0.002678,0.000431,0.000470
44022000,0.0324,0.013523,0.002678,0.000431,0.000588
44023000,0.0324,0.013523,0.002678,0.000431,0.000470
44024000,0.0324,0.013523,0.002678,0.000431,0.000588
44025000,0.0324,0.013523,0.002678,0.000431,0.000353
44026000,0.0324,0.013523,0.002678,0.000431,0.000588
44027000,0.0324,0.013523,0.002678,0.000431,0.000470
44028000,0.0324,0.013523,0.002678,0.000431,0.000588
44029000,0.0324,0.013523,0.002678,0.000431,0.000470
44030000,0.0324,0.013523,0.002678,0.000431,0.000705
44031000,0.0324,0.013523,0.002678,0.000431,0.000353
44032000,0.0324,0.013523,0.002678,0.000431,0.000588
44033000,0.0324,0.013523,0.002678,0.000431,0.000353
44034000,0.0324,0.013523,0.002678,0.000431,0.000588
44035000,0.0324,0.013523,0.002678,0.000431,0.000353
44036000,0.0324,0.013523,0.002678,0.000431,0.000588
44037000,0.0324,0.013523,0.002678,0.000431,0.000353
44038000,0.0324,0.013523,0.002678,0.000431,0.000588
44039000,0.0324,0.013523,0.002678,0.000431,0.000353
44040000,0.0324,0.013523,0.002678,0.000431,0.000470
44041000,0.0324,0.013523,0.002678,0.000431,0.000470
44042000,0.0324,0.013523,0.002678,0.000431,0.000588
44043000,0.0324,0.013523,0.002678,0.000431,0.000470
44044000,0.0324,0.013523,0.002678,0.000431,0.000353
44045000,0.0324,0.013523,0.002678,0.000431,0.000588
44046000,0.0324,0.013523,0.002678,0.000431,0.000353
44047000,0.0324,0.013523,0.002678,0.000431,0.000588
44048000,0.0324,0.013523,0.002678,0.000431,0.000353
44049000,0.0324,0.013523,0.002678,0.000431,0.000588
44050000,0.0324,0.013523,0.002678,0.000431,0.000353
44051000,0.0324,0.013523,0.002678,0.000431,0.000588
44052000,0.0324,0.013523,0.002678,0.000431,0.000353
44053000,0.0324,0.013523,0.002678,0.000431,0.000705
44054000,0.0324,0.013523,0.002678,0.000431,0.000353
44055000,0.0324,0.013523,0.002678,0.000431,0.000470
44056000,0.0324,0.013523,0.002678,0.000431,0.000353
44057000,0.0324,0.013523,0.002678,0.000431,0.000588
44058000,0.0324,0.013523,0.002678,0.000431,0.000353
44059000,0.0324,0.013523,0.002678,0.000431,0.000588
44060000,0.0324,0.013523,0.002678,0.000431,0.000353
44061000,0.0324,0.013523,0.002678,0.000431,0.000588
44062000,0.0324,0.013523,0.002678,0.000431,0.000353
44063000,0.0324,0.013523,0.002678,0.000431,0.000588
44064000,0.0324,0.013523,0.002678,0.000431,0.000353
44065000,0.0324,0.013523,0.002678,0.000431,0.000588
44066000,0.0324,0.013523,0.002678,0.000431,0.000353
44067000,0.0324,0.013523,0.002678,0.000431,0.000588
44068000,0.0324,0.013523,0.002678,0.000431,0.000470
44069000,0.0324,0.013523,0.002678,0.000431,0.000705
44070000,0.0324,0.013523,0.002678,0.000431,0.000235
44071000,0.0324,0.013523,0.002678,0.000431,0.000823
44072000,0.0324,0.013523,0.002678,0.000431,0.000353
44073000,0.0324,0.013523,0.002678,0.000431,0.000470
44074000,0.0324,0.013523,0.002678,0.000431,0.000353
44075000,0.0324,0.013523,0.002678,0.000431,0.000705
44076000,0.0324,0.013523,0.002678,0.000431,0.000588
44077000,0.0324,0.013523,0.002678,0.000431,0.000470
44078000,0.0324,0.013523,0.002678,0.000431,0.000705
44079000,0.0324,0.013523,0.002678,0.000431,0.000353
44080000,0.0324,0.013523,0.002678,0.000431,0.000588
44081000,0.0324,0.013523,0.002678,0.000431,0.000353
44082000,0.0324,0.013523,0.002678,0.000431,0.000588
44083000,0.0324,0.013523,0.002678,0.000431,0.000353
44084000,0.0324,0.013523,0.002678,0.000431,0.000588
44085000,0.0324,0.013523,0.002678,0.000431,0.000353
44086000,0.0324,0.013523,0.002678,0.000431,0.000588
44087000,0.0324,0.013523,0.002678,0.000431,0.000353
44088000,0.0324,0.013523,0.002678,0.000431,0.000588
44089000,0.0324,0.013523,0.002678,0.000431,0.000353
44090000,0.0324,0.013523,0.002678,0.000431,0.000823
44091000,0.0324,0.013523,0.002678,0.000431,0.000235
44092000,0.0324,0.013523,0.002678,0.000431,0.000705
44093000,0.0324,0.013523,0.002678,0.000431,0.000470
44094000,0.0324,0.013523,0.002678,0.000431,0.000588
44095000,0.0324,0.013523,0.002678,0.000431,0.000353
44096000,0.0324,0.013523,0.002678,0.000431,0.000588
44097000,0.0324,0.013523,0.002678,0.000431,0.000353
44098000,0.0324,0.013523,0.002678,0.000431,0.000588
44099000,0.0324,0.013523,0.002678,0.000431,0.000353
44100000,0.0324,0.013523,0.002678,0.000431,0.000470
44101000,0.0324,0.013523,0.002678,0.000431,0.000353
44102000,0.0324,0.013523,0.002678,0.000431,0.000705
44103000,0.0324,0.013523,0.002678,0.000431,0.000353
44104000,0.0324,0.013523,0.002678,0.000431,0.000588
44105000,0.0324,0.013523,0.002678,0.000431,0.000353
44106000,0.0324,0.013523,0.002678,0.000431,0.000588
44107000,0.0324,0.013523,0.002678,0.000431,0.000353
44108000,0.0324,0.013523,0.002678,0.000431,0.000588
44109000,0.0324,0.013523,0.002678,0.000431,0.000470
44110000,0.0324,0.013523,0.002678,0.000431,0.000588
44111000,0.0324,0.013523,0.002678,0.000431,0.000470
44112000,0.0324,0.013523,0.002678,0.000431,0.000705
44113000,0.0324,0.013523,0.002678,0.000431,0.000353
44114000,0.0324,0.013523,0.002678,0.000431,0.000588
44115000,0.0324,0.013523,0.002678,0.000431,0.000470
44116000,0.0324,0.013523,0.002678,0.000431,0.000588
44117000,0.0324,0.013523,0.002678,0.000431,0.000353
44118000,0.0324,0.013523,0.002678,0.000431,0.000470
44119000,0.0324,0.013523,0.002678,0.000431,0.000353
44120000,0.0324,0.013523,0.002678,0.000431,0.000588
44121000,0.0324,0.013523,0.002678,0.000431,0.000353
44122000,0.0324,0.013523,0.002678,0.000431,0.000588
44123000,0.0324,0.013523,0.002678,0.000431,0.000470
44124000,0.0324,0.013523,0.002678,0.000431,0.000588
44125000,0.0324,0.013523,0.002678,0.000431,0.000353
44126000,0.0324,0.013523,0.002678,0.000431,0.000705
44127000,0.0324,0.013523,0.002678,0.000431,0.000353
44128000,0.0324,0.013523,0.002678,0.000431,0.000705
44129000,0.0324,0.013523,0.002678,0.000431,0.000470
44130000,0.0324,0.013523,0.002678,0.000431,0.000470
44131000,0.0324,0.013523,0.002678,0.000431,0.000470
44132000,0.0324,0.013523,0.002678,0.000431,0.000470
44133000,0.0324,0.013523,0.002678,0.000431,0.000470
44134000,0.0324,0.013523,0.002678,0.000431,0.000588
44135000,0.0324,0.013523,0.002678,0.000431,0.000353
44136000,0.0324,0.013523,0.002678,0.000431,0.000705
44137000,0.0324,0.013523,0.002678,0.000431,0.000470
44138000,0.0324,0.013523,0.002678,0.000431,0.000470
44139000,0.0324,0.013523,0.002678,0.000431,0.000470
44140000,0.0324,0.013523,0.002678,0.000431,0.000470
44141000,0.0324,0.013523,0.002678,0.000431,0.000353
44142000,0.0324,0.013523,0.002678,0.000431,0.000588
44143000,0.0324,0.013523,0.002678,0.000431,0.000353
44144000,0.0324,0.013523,0.002678,0.000431,0.000705
44145000,0.0324,0.013523,0.002678,0.000431,0.000353
44146000,0.0324,0.013523,0.002678,0.000431,0.000705
44147000,0.0324,0.013523,0.002678,0.000431,0.000588
44148000,0.0324,0.013523,0.002678,0.000431,0.000470
44149000,0.0324,0.013523,0.002678,0.000431,0.000705
44150000,0.0324,0.013523,0.002678,0.000431,0.000353
44151000,0.0324,0.013523,0.002678,0.000431,0.000705
44152000,0.0324,0.013523,0.002678,0.000431,0.000588
44153000,0.0324,0.013523,0.002678,0.000431,0.000470
44154000,0.0324,0.013523,0.002678,0.000431,0.000705
44155000,0.0324,0.013523,0.002678,0.000431,0.000353
44156000,0.0324,0.013523,0.002678,0.000431,0.000470
44157000,0.0324,0.013523,0.002678,0.000431,0.000353
44158000,0.0324,0.013523,0.002678,0.000431,0.000588
44159000,0.0324,0.013523,0.002678,0.000431,0.000353
44160000,0.0324,0.013523,0.002678,0.000431,0.000588
44161000,0.0324,0.013523,0.002678,0.000431,0.000353
44162000,0.0324,0.013523,0.002678,0.000431,0.000588
44163000,0.0324,0.013523,0.002678,0.000431,0.000353
44164000,0.0324,0.013523,0.002678,0.000431,0.000588
44165000,0.0324,0.013523,0.002678,0.000431,0.000353
44166000,0.0324,0.013523,0.002678,0.000431,0.000588
44167000,0.0324,0.013523,0.002678,0.000431,0.000353
44168000,0.0324,0.013523,0.002678,0.000431,0.000588
44169000,0.0324,0.013523,0.002678,0.000431,0.000353
44170000,0.0324,0.013523,0.002678,0.000431,0.000588
44171000,0.0324,0.013523,0.002678,0.000431,0.000470
44172000,0.0324,0.013523,0.002678,0.000431,0.000588
44173000,0.0324,0.013523,0.002678,0.000431,0.000470
44174000,0.0324,0.013523,0.002678,0.000431,0.000588
44175000,0.0324,0.013523,0.002678,0.000431,0.000353
44176000,0.0324,0.013523,0.002678,0.000431,0.000588
44177000,0.0324,0.013523,0.002678,0.000431,0.000353
44178000,0.0324,0.013523,0.002678,0.000431,0.000588
44179000,0.0324,0.013523,0.002678,0.000431,0.000353
44180000,0.0324,0.013523,0.002678,0.000431,0.000588
44181000,0.0324,0.013523,0.002678,0.000431,0.000470
44182000,0.0324,0.013523,0.002678,0.000431,0.000470
44183000,0.0324,0.013523,0.002678,0.000431,0.000470
44184000,0.0324,0.013523,0.002678,0.000431,0.000470
44185000,0.0324,0.013523,0.002678,0.000431,0.000470
44186000,0.0324,0.013523,0.002678,0.000431,0.000353
44187000,0.0324,0.013523,0.002678,0.000431,0.000588
44188000,0.0324,0.013523,0.002678,0.000431,0.000353
44189000,0.0324,0.013523,0.002678,0.000431,0.000588
44190000,0.0324,0.013523,0.002678,0.000431,0.000353
44191000,0.0324,0.013523,0.002678,0.000431,0.000588
44192000,0.0324,0.013523,0.002678,0.000431,0.000353
44193000,0.0324,0.013523,0.002678,0.000431,0.000588
44194000,0.0324,0.013523,0.002678,0.000431,0.000353
44195000,0.0324,0.013523,0.002678,0.000431,0.000588
44196000,0.0324,0.013523,0.002678,0.000431,0.000353
44197000,0.0324,0.013523,0.002678,0.000431,0.000705
44198000,0.0324,0.013523,0.002678,0.000431,0.000353
44199000,0.0324,0.013523,0.002678,0.000431,0.000705
44200000,0.0324,0.013523,0.002678,0.000431,0.000470
44201000,0.0324,0.013523,0.002678,0.000431,0.000470
44202000,0.0324,0.013523,0.002678,0.000431,0.000470
44203000,0.0324,0.013523,0.002678,0.000431,0.000470
44204000,0.0324,0.013523,0.002678,0.000431,0.000470
44205000,0.0324,0.013523,0.002678,0.000431,0.000470
44206000,0.0324,0.013523,0.002678,0.000431,0.000470
44207000,0.0324,0.013523,0.002678,0.000431,0.000470
44208000,0.0324,0.013523,0.002678,0.000431,0.000470
44209000,0.0324,0.013523,0.002678,0.000431,0.000470
44210000,0.0324,0.013523,0.002678,0.000431,0.000470
44211000,0.0324,0.013523,0.002678,0.000431,0.000470
44212000,0.0324,0.013523,0.002678,0.000431,0.000353
44213000,0.0324,0.013523,0.002678,0.000431,0.000588
44214000,0.0324,0.013523,0.002678,0.000431,0.000353
44215000,0.0324,0.013523,0.002678,0.000431,0.000588
44216000,0.0324,0.013523,0.002678,0.000431,0.000353
44217000,0.0324,0.013523,0.002678,0.000431,0.000705
44218000,0.0324,0.013523,0.002678,0.000431,0.000470
44219000,0.0324,0.013523,0.002678,0.000431,0.000588
44220000,0.0324,0.013523,0.002678,0.000431,0.000353
44221000,0.0324,0.013523,0.002678,0.000431,0.000705
44222000,0.0324,0.013523,0.002678,0.000431,0.000353
44223000,0.0324,0.013523,0.002678,0.000431,0.000705
44224000,0.0324,0.013523,0.002678,0.000431,0.000470
44225000,0.0324,0.013523,0.002678,0.000431,0.000470
44226000,0.0324,0.013523,0.002678,0.000431,0.000470
44227000,0.0324,0.013523,0.002678,0.000431,0.000470
44228000,0.0324,0.013523,0.002678,0.000431,0.000470
44229000,0.0324,0.013523,0.002678,0.000431,0.000470
44230000,0.0324,0.013523,0.002678,0.000431,0.000470
44231000,0.0324,0.013523,0.002678,0.000431,0.000470
44232000,0.0324,0.013523,0.002678,0.000431,0.000470
44233000,0.0324,0.013523,0.002678,0.000431,0.000588
44234000,0.0324,0.013523,0.002678,0.000431,0.000470
44235000,0.0324,0.013523,0.002678,0.000431,0.000588
44236000,0.0324,0.013523,0.002678,0.000431,0.000588
44237000,0.0324,0.013523,0.002678,0.000431,0.000470
44238000,0.0324,0.013523,0.002678,0.000431,0.000470
44239000,0.0324,0.013523,0.002678,0.000431,0.000470
44240000,0.0324,0.013523,0.002678,0.000431,0.000588
44241000,0.0324,0.013523,0.002678,0.000431,0.000353
44242000,0.0324,0.013523,0.002678,0.000431,0.000588
44243000,0.0324,0.013523,0.002678,0.000431,0.000353
44244000,0.0324,0.013523,0.002678,0.000431,0.000588
44245000,0.0324,0.013523,0.002678,0.000431,0.000470
44246000,0.0324,0.013523,0.002678,0.000431,0.000470
44247000,0.0324,0.013523,0.002678,0.000431,0.000470
44248000,0.0324,0.013523,0.002678,0.000431,0.000588
44249000,0.0324,0.013523,0.002678,0.000431,0.000470
44250000,0.0324,0.013523,0.002678,0.000431,0.000588
44251000,0.0324,0.013523,0.002678,0.000431,0.000353
44252000,0.0324,0.013523,0.002678,0.000431,0.000588
44253000,0.0324,0.013523,0.002678,0.000431,0.000353
44254000,0.0324,0.013523,0.002678,0.000431,0.000588
44255000,0.0324,0.013523,0.002678,0.000431,0.000353
44256000,0.0324,0.013523,0.002678,0.000431,0.000588
44257000,0.0324,0.013523,0.002678,0.000431,0.000470
44258000,0.0324,0.013523,0.002678,0.000431,0.000353
44259000,0.0324,0.013523,0.002678,0.000431,0.000588
44260000,0.0324,0.013523,0.002678,0.000431,0.000588
44261000,0.0324,0.013523,0.002678,0.000431,0.000470
44262000,0.0324,0.013523,0.002678,0.000431,0.000705
44263000,0.0324,0.013523,0.002678,0.000431,0.000353
44264000,0.0324,0.013523,0.002678,0.000431,0.000588
44265000,0.0324,0.013523,0.002678,0.000431,0.000470
44266000,0.0324,0.013523,0.002678,0.000431,0.000588
44267000,0.0324,0.013523,0.002678,0.000431,0.000353
44268000,0.0324,0.013523,0.002678,0.000431,0.000705
44269000,0.0324,0.013523,0.002678,0.000431,0.000353
44270000,0.0324,0.013523,0.002678,0.000431,0.000588
44271000,0.0324,0.013523,0.002678,0.000431,0.000353
44272000,0.0324,0.013523,0.002678,0.000431,0.000588
44273000,0.0324,0.013523,0.002678,0.000431,0.000353
44274000,0.0324,0.013523,0.002678,0.000431,0.000705
44275000,0.0324,0.013523,0.002678,0.000431,0.000235
44276000,0.0324,0.013523,0.002678,0.000431,0.000588
44277000,0.0324,0.013523,0.002678,0.000431,0.000353
44278000,0.0324,0.013523,0.002678,0.000431,0.000588
44279000,0.0324,0.013523,0.002678,0.000431,0.000353
44280000,0.0324,0.013523,0.002678,0.000431,0.000588
44281000,0.0324,0.013523,0.002678,0.000431,0.000353
44282000,0.0324,0.013523,0.002678,0.000431,0.000588
44283000,0.0324,0.013523,0.002678,0.000431,0.000353
44284000,0.0324,0.013523,0.002678,0.000431,0.000588
44285000,0.0324,0.013523,0.002678,0.000431,0.000470
44286000,0.0324,0.013523,0.002678,0.000431,0.000705
44287000,0.0324,0.013523,0.002678,0.000431,0.000353
44288000,0.0324,0.013523,0.002678,0.000431,0.000705
44289000,0.0324,0.013523,0.002678,0.000431,0.000470
44290000,0.0324,0.013523,0.002678,0.000431,0.000588
44291000,0.0324,0.013523,0.002678,0.000431,0.000353
44292000,0.0324,0.013523,0.002678,0.000431,0.000588
44293000,0.0324,0.013523,0.002678,0.000431,0.000353
44294000,0.0324,0.013523,0.002678,0.000431,0.000588
44295000,0.0324,0.013523,0.002678,0.000431,0.000353
44296000,0.0324,0.013523,0.002678,0.000431,0.000705
44297000,0.0324,0.013523,0.002678,0.000431,0.000588
44298000,0.0324,0.013523,0.002678,0.000431,0.000470
44299000,0.0324,0.013523,0.002678,0.000431,0.000705
44300000,0.0324,0.013523,0.002678,0.000431,0.000353
44301000,0.0324,0.013523,0.002678,0.000431,0.000588
44302000,0.0324,0.013523,0.002678,0.000431,0.000353
44303000,0.0324,0.013523,0.002678,0.000431,0.000470
44304000,0.0324,0.013523,0.002678,0.000431,0.000470
44305000,0.0324,0.013523,0.002678,0.000431,0.000470
44306000,0.0324,0.013523,0.002678,0.000431,0.000470
44307000,0.0324,0.013523,0.002678,0.000431,0.000588
44308000,0.0324,0.013523,0.002678,0.000431,0.000470
44309000,0.0324,0.013523,0.002678,0.000431,0.000705
44310000,0.0324,0.013523,0.002678,0.000431,0.000353
44311000,0.0324,0.013523,0.002678,0.000431,0.000705
44312000,0.0324,0.013523,0.002678,0.000431,0.000588
44313000,0.0324,0.013523,0.002678,0.000431,0.000470
44314000,0.0324,0.013523,0.002678,0.000431,0.000705
44315000,0.0324,0.013523,0.002678,0.000431,0.000353
44316000,0.0324,0.013523,0.002678,0.000431,0.000705
44317000,0.0324,0.013523,0.002678,0.000431,0.000470
44318000,0.0324,0.013523,0.002678,0.000431,0.000470
44319000,0.0324,0.013523,0.002678,0.000431,0.000470
44320000,0.0324,0.013523,0.002678,0.000431,0.000470
44321000,0.0324,0.013523,0.002678,0.000431,0.000353
44322000,0.0324,0.013523,0.002678,0.000431,0.000588
44323000,0.0324,0.013523,0.002678,0.000431,0.000353
44324000,0.0324,0.013523,0.002678,0.000431,0.000470
44325000,0.0324,0.013523,0.002678,0.000431,0.000353
44326000,0.0324,0.013523,0.002678,0.000431,0.000588
44327000,0.0324,0.013523,0.002678,0.000431,0.000353
44328000,0.0324,0.013523,0.002678,0.000431,0.000705
44329000,0.0324,0.013523,0.002678,0.000431,0.000353
44330000,0.0324,0.013523,0.002678,0.000431,0.000588
44331000,0.0324,0.013523,0.002678,0.000431,0.000353
44332000,0.0324,0.013523,0.002678,0.000431,0.000588
44333000,0.0324,0.013523,0.002678,0.000431,0.000353
44334000,0.0324,0.013523,0.002678,0.000431,0.000588
44335000,0.0324,0.013523,0.002678,0.000431,0.000353
44336000,0.0324,0.013523,0.002678,0.000431,0.000588
44337000,0.0324,0.013523,0.002678,0.000431,0.000353
44338000,0.0324,0.013523,0.002678,0.000431,0.000588
44339000,0.0324,0.013523,0.002678,0.000431,0.000353
44340000,0.0324,0.013523,0.002678,0.000431,0.000588
44341000,0.0324,0.013523,0.002678,0.000431,0.000353
44342000,0.0324,0.013523,0.002678,0.000431,0.000588
44343000,0.0324,0.013523,0.002678,0.000431,0.000353
44344000,0.0324,0.013523,0.002678,0.000431,0.000588
44345000,0.0324,0.013523,0.002678,0.000431,0.000353
44346000,0.0324,0.013523,0.002678,0.000431,0.000588
44347000,0.0324,0.013523,0.002678,0.000431,0.000353
44348000,0.0324,0.013523,0.002678,0.000431,0.000470
44349000,0.0324,0.013523,0.002678,0.000431,0.000470
44350000,0.0324,0.013523,0.002678,0.000431,0.000470
44351000,0.0324,0.013523,0.002678,0.000431,0.000470
44352000,0.0324,0.013523,0.002678,0.000431,0.000470
44353000,0.0324,0.013523,0.002678,0.000431,0.000470
44354000,0.0324,0.013523,0.002678,0.000431,0.000470
44355000,0.0324,0.013523,0.002678,0.000431,0.000588
44356000,0.0324,0.013523,0.002678,0.000431,0.000353
44357000,0.0324,0.013523,0.002678,0.000431,0.000588
44358000,0.0324,0.013523,0.002678,0.000431,0.000353
44359000,0.0324,0.013523,0.002678,0.000431,0.000588
44360000,0.0324,0.013523,0.002678,0.000431,0.000353
44361000,0.0324,0.013523,0.002678,0.000431,0.000705
44362000,0.0324,0.013523,0.002678,0.000431,0.000353
44363000,0.0324,0.013523,0.002678,0.000431,0.000705
44364000,0.0324,0.013523,0.002678,0.000431,0.000588
44365000,0.0324,0.013523,0.002678,0.000431,0.000470
44366000,0.0324,0.013523,0.002678,0.000431,0.000705
44367000,0.0324,0.013523,0.002678,0.000431,0.000353
44368000,0.0324,0.013523,0.002678,0.000431,0.000588
44369000,0.0324,0.013523,0.002678,0.000431,0.000353
44370000,0.0324,0.013523,0.002678,0.000431,0.000588
44371000,0.0324,0.013523,0.002678,0.000431,0.000353
44372000,0.0324,0.013523,0.002678,0.000431,0.000588
44373000,0.0324,0.013523,0.002678,0.000431,0.000353
44374000,0.0324,0.013523,0.002678,0.000431,0.000470
44375000,0.0324,0.013523,0.002678,0.000431,0.000470
44376000,0.0324,0.013523,0.002678,0.000431,0.000470
44377000,0.0324,0.013523,0.002678,0.000431,0.000470
44378000,0.0324,0.013523,0.002678,0.000431,0.000470
44379000,0.0324,0.013523,0.002678,0.000431,0.000588
44380000,0.0324,0.013523,0.002678,0.000431,0.000353
44381000,0.0324,0.013523,0.002678,0.000431,0.000470
44382000,0.0324,0.013523,0.002678,0.000431,0.000470
44383000,0.0324,0.013523,0.002678,0.000431,0.000588
44384000,0.0324,0.013523,0.002678,0.000431,0.000353
44385000,0.0324,0.013523,0.002678,0.000431,0.000588
44386000,0.0324,0.013523,0.002678,0.000431,0.000353
44387000,0.0324,0.013523,0.002678,0.000431,0.000588
44388000,0.0324,0.013523,0.002678,0.000431,0.000353
44389000,0.0324,0.013523,0.002678,0.000431,0.000588
44390000,0.0324,0.013523,0.002678,0.000431,0.000353
44391000,0.0324,0.013523,0.002678,0.000431,0.000588
44392000,0.0324,0.013523,0.002678,0.000431,0.000705
44393000,0.0324,0.013523,0.002678,0.000431,0.000470
44394000,0.0324,0.013523,0.002678,0.000431,0.000705
44395000,0.0324,0.013523,0.002678,0.000431,0.000353
44396000,0.0324,0.013523,0.002678,0.000431,0.000588
44397000,0.0324,0.013523,0.002678,0.000431,0.000353
44398000,0.0324,0.013523,0.002678,0.000431,0.000823
44399000,0.0324,0.013523,0.002678,0.000431,0.000353
44400000,0.0324,0.013523,0.002678,0.000431,0.000470
44401000,0.0324,0.013523,0.002678,0.000431,0.000470
44402000,0.0324,0.013523,0.002678,0.000431,0.000588
44403000,0.0324,0.013523,0.002678,0.000431,0.000353
44404000,0.0324,0.013523,0.002678,0.000431,0.000588
44405000,0.0324,0.013523,0.002678,0.000431,0.000353
44406000,0.0324,0.013523,0.002678,0.000431,0.000588
44407000,0.0324,0.013523,0.002678,0.000431,0.000353
44408000,0.0324,0.013523,0.002678,0.000431,0.000705
44409000,0.0324,0.013523,0.002678,0.000431,0.000588
44410000,0.0324,0.013523,0.002678,0.000431,0.000470
44411000,0.0324,0.013523,0.002678,0.000431,0.000705
44412000,0.0324,0.013523,0.002678,0.000431,0.000353
44413000,0.0324,0.013523,0.002678,0.000431,0.000588
44414000,0.0324,0.013523,0.002678,0.000431,0.000470
44415000,0.0324,0.013523,0.002678,0.000431,0.000705
44416000,0.0324,0.013523,0.002678,0.000431,0.000353
44417000,0.0324,0.013523,0.002678,0.000431,0.000588
44418000,0.0324,0.013523,0.002678,0.000431,0.000353
44419000,0.0324,0.013523,0.002678,0.000431,0.000588
44420000,0.0324,0.013523,0.002678,0.000431,0.000353
44421000,0.0324,0.013523,0.002678,0.000431,0.000588
44422000,0.0324,0.013523,0.002678,0.000431,0.000353
44423000,0.0324,0.013523,0.002678,0.000431,0.000588
44424000,0.0324,0.013523,0.002678,0.000431,0.000353
44425000,0.0324,0.013523,0.002678,0.000431,0.000588
44426000,0.0324,0.013523,0.002678,0.000431,0.000353
44427000,0.0324,0.013523,0.002678,0.000431,0.000705
44428000,0.0324,0.013523,0.002678,0.000431,0.000470
44429000,0.0324,0.013523,0.002678,0.000431,0.000470
44430000,0.0324,0.013523,0.002678,0.000431,0.000470
44431000,0.0324,0.013523,0.002678,0.000431,0.000705
44432000,0.0324,0.013523,0.002678,0.000431,0.000588
44433000,0.0324,0.013523,0.002678,0.000431,0.000470
44434000,0.0324,0.013523,0.002678,0.000431,0.000705
44435000,0.0324,0.013523,0.002678,0.000431,0.000353
44436000,0.0324,0.013523,0.002678,0.000431,0.000588
44437000,0.0324,0.013523,0.002678,0.000431,0.000353
44438000,0.0324,0.013523,0.002678,0.000431,0.000470
44439000,0.0324,0.013523,0.002678,0.000431,0.000470
44440000,0.0324,0.013523,0.002678,0.000431,0.000470
44441000,0.0324,0.013523,0.002678,0.000431,0.000470
44442000,0.0324,0.013523,0.002678,0.000431,0.000470
44443000,0.0324,0.013523,0.002678,0.000431,0.000470
44444000,0.0324,0.013523,0.002678,0.000431,0.000470
44445000,0.0324,0.013523,0.002678,0.000431,0.000470
44446000,0.0324,0.013523,0.002678,0.000431,0.000470
44447000,0.0324,0.013523,0.002678,0.000431,0.000470
44448000,0.0324,0.013523,0.002678,0.000431,0.000470
44449000,0.0324,0.013523,0.002678,0.000431,0.000470
44450000,0.0324,0.013523,0.002678,0.000431,0.000470
44451000,0.0324,0.013523,0.002678,0.000431,0.000470
44452000,0.0324,0.013523,0.002678,0.000431,0.000588
44453000,0.0324,0.013523,0.002678,0.000431,0.000470
44454000,0.0324,0.013523,0.002678,0.000431,0.000705
44455000,0.0324,0.013523,0.002678,0.000431,0.000353
44456000,0.0324,0.013523,0.002678,0.000431,0.000588
44457000,0.0324,0.013523,0.002678,0.000431,0.000353
44458000,0.0324,0.013523,0.002678,0.000431,0.000588
44459000,0.0324,0.013523,0.002678,0.000431,0.000353
44460000,0.0324,0.013523,0.002678,0.000431,0.000823
44461000,0.0324,0.013523,0.002678,0.000431,0.000353
44462000,0.0324,0.013523,0.002678,0.000431,0.000588
44463000,0.0324,0.013523,0.002678,0.000431,0.000353
44464000,0.0324,0.013523,0.002678,0.000431,0.000470
44465000,0.0324,0.013523,0.002678,0.000431,0.000353
44466000,0.0324,0.013523,0.002678,0.000431,0.000588
44467000,0.0324,0.013523,0.002678,0.000431,0.000470
44468000,0.0324,0.013523,0.002678,0.000431,0.000470
44469000,0.0324,0.013523,0.002678,0.000431,0.000470
44470000,0.0324,0.013523,0.002678,0.000431,0.000470
44471000,0.0324,0.013523,0.002678,0.000431,0.000470
44472000,0.0324,0.013523,0.002678,0.000431,0.000588
44473000,0.0324,0.013523,0.002678,0.000431,0.000470
44474000,0.0324,0.013523,0.002678,0.000431,0.000705
44475000,0.0324,0.013523,0.002678,0.000431,0.000353
44476000,0.0324,0.013523,0.002678,0.000431,0.000705
44477000,0.0324,0.013523,0.002678,0.000431,0.000470
44478000,0.0324,0.013523,0.002678,0.000431,0.000470
44479000,0.0324,0.013523,0.002678,0.000431,0.000470
44480000,0.0324,0.013523,0.002678,0.000431,0.000470
44481000,0.0324,0.013523,0.002678,0.000431,0.000470
44482000,0.0324,0.013523,0.002678,0.000431,0.000470
44483000,0.0324,0.013523,0.002678,0.000431,0.000470
44484000,0.0324,0.013523,0.002678,0.000431,0.000470
44485000,0.0324,0.013523,0.002678,0.000431,0.000470
44486000,0.0324,0.013523,0.002678,0.000431,0.000470
44487000,0.0324,0.013523,0.002678,0.000431,0.000353
44488000,0.0324,0.013523,0.002678,0.000431,0.000588
44489000,0.0324,0.013523,0.002678,0.000431,0.000353
44490000,0.0324,0.013523,0.002678,0.000431,0.000588
44491000,0.0324,0.013523,0.002678,0.000431,0.000353
44492000,0.0324,0.013523,0.002678,0.000431,0.000705
44493000,0.0324,0.013523,0.002678,0.000431,0.000353
44494000,0.0324,0.013523,0.002678,0.000431,0.000705
44495000,0.0324,0.013523,0.002678,0.000431,0.000588
44496000,0.0324,0.013523,0.002678,0.000431,0.000470
44497000,0.0324,0.013523,0.002678,0.000431,0.000588
44498000,0.0324,0.013523,0.002678,0.000431,0.000470
44499000,0.0324,0.013523,0.002678,0.000431,0.000470
44500000,0.0324,0.013523,0.002678,0.000431,0.000353
44501000,0.0324,0.013523,0.002678,0.000431,0.000588
44502000,0.0324,0.013523,0.002678,0.000431,0.000353
44503000,0.0324,0.013523,0.002678,0.000431,0.000588
44504000,0.0324,0.013523,0.002678,0.000431,0.000353
44505000,0.0324,0.013523,0.002678,0.000431,0.000588
44506000,0.0324,0.013523,0.002678,0.000431,0.000353
44507000,0.0324,0.013523,0.002678,0.000431,0.000588
44508000,0.0324,0.013523,0.002678,0.000431,0.000353
44509000,0.0324,0.013523,0.002678,0.000431,0.000470
44510000,0.0324,0.013523,0.002678,0.000431,0.000705
44511000,0.0324,0.013523,0.002678,0.000431,0.000470
44512000,0.0324,0.013523,0.002678,0.000431,0.000470
44513000,0.0324,0.013523,0.002678,0.000431,0.000353
44514000,0.0324,0.013523,0.002678,0.000431,0.000588
44515000,0.0324,0.013523,0.002678,0.000431,0.000353
44516000,0.0324,0.013523,0.002678,0.000431,0.000588
44517000,0.0324,0.013523,0.002678,0.000431,0.000353
44518000,0.0324,0.013523,0.002678,0.000431,0.000588
44519000,0.0324,0.013523,0.002678,0.000431,0.000353
44520000,0.0324,0.013523,0.002678,0.000431,0.000588
44521000,0.0324,0.013523,0.002678,0.000431,0.000353
44522000,0.0324,0.013523,0.002678,0.000431,0.000588
44523000,0.0324,0.013523,0.002678,0.000431,0.000353
44524000,0.0324,0.013523,0.002678,0.000431,0.000588
44525000,0.0324,0.013523,0.002678,0.000431,0.000353
44526000,0.0324,0.013523,0.002678,0.000431,0.000588
44527000,0.0324,0.013523,0.002678,0.000431,0.000353
44528000,0.0324,0.013523,0.002678,0.000431,0.000705
44529000,0.0324,0.013523,0.002678,0.000431,0.000470
44530000,0.0324,0.013523,0.002678,0.000431,0.000588
44531000,0.0324,0.013523,0.002678,0.000431,0.000705
44532000,0.0324,0.013523,0.002678,0.000431,0.000470
44533000,0.0324,0.013523,0.002678,0.000431,0.000705
44534000,0.0324,0.013523,0.002678,0.000431,0.000353
44535000,0.0324,0.013523,0.002678,0.000431,0.000470
44536000,0.0324,0.013523,0.002678,0.000431,0.000470
44537000,0.0324,0.013523,0.002678,0.000431,0.000470
44538000,0.0324,0.013523,0.002678,0.000431,0.000470
44539000,0.0324,0.013523,0.002678,0.000431,0.000470
44540000,0.0324,0.013523,0.002678,0.000431,0.000470
44541000,0.0324,0.013523,0.002678,0.000431,0.000470
44542000,0.0324,0.013523,0.002678,0.000431,0.000470
44543000,0.0324,0.013523,0.002678,0.000431,0.000470
44544000,0.0324,0.013523,0.002678,0.000431,0.000353
44545000,0.0324,0.013523,0.002678,0.000431,0.000588
44546000,0.0324,0.013523,0.002678,0.000431,0.000353
44547000,0.0324,0.013523,0.002678,0.000431,0.000588
44548000,0.0324,0.013523,0.002678,0.000431,0.000353
44549000,0.0324,0.013523,0.002678,0.000431,0.000588
44550000,0.0324,0.013523,0.002678,0.000431,0.000353
44551000,0.0324,0.013523,0.002678,0.000431,0.000588
44552000,0.0324,0.013523,0.002678,0.000431,0.000353
44553000,0.0324,0.013523,0.002678,0.000431,0.000588
44554000,0.0324,0.013523,0.002678,0.000431,0.000353
44555000,0.0324,0.013523,0.002678,0.000431,0.000588
44556000,0.0324,0.013523,0.002678,0.000431,0.000353
44557000,0.0324,0.013523,0.002678,0.000431,0.000588
44558000,0.0324,0.013523,0.002678,0.000431,0.000470
44559000,0.0324,0.013523,0.002678,0.000431,0.000588
44560000,0.0324,0.013523,0.002678,0.000431,0.000353
44561000,0.0324,0.013523,0.002678,0.000431,0.000588
44562000,0.0324,0.013523,0.002678,0.000431,0.000470
44563000,0.0324,0.013523,0.002678,0.000431,0.000588
44564000,0.0324,0.013523,0.002678,0.000431,0.000353
44565000,0.0324,0.013523,0.002678,0.000431,0.000588
44566000,0.0324,0.013523,0.002678,0.000431,0.000353
44567000,0.0324,0.013523,0.002678,0.000431,0.000588
44568000,0.0324,0.013523,0.002678,0.000431,0.000353
44569000,0.0324,0.013523,0.002678,0.000431,0.000588
44570000,0.0324,0.013523,0.002678,0.000431,0.000353
44571000,0.0324,0.013523,0.002678,0.000431,0.000705
44572000,0.0324,0.013523,0.002678,0.000431,0.000353
44573000,0.0324,0.013523,0.002678,0.000431,0.000588
44574000,0.0324,0.013523,0.002678,0.000431,0.000353
44575000,0.0324,0.013523,0.002678,0.000431,0.000588
44576000,0.0324,0.013523,0.002678,0.000431,0.000470
44577000,0.0324,0.013523,0.002678,0.000431,0.000705
44578000,0.0324,0.013523,0.002678,0.000431,0.000353
44579000,0.0324,0.013523,0.002678,0.000431,0.000588
44580000,0.0324,0.013523,0.002678,0.000431,0.000353
44581000,0.0324,0.013523,0.002678,0.000431,0.000588
44582000,0.0324,0.013523,0.002678,0.000431,0.000353
44583000,0.0324,0.013523,0.002678,0.000431,0.000588
44584000,0.0324,0.013523,0.002678,0.000431,0.000353
44585000,0.0324,0.013523,0.002678,0.000431,0.000588
44586000,0.0324,0.013523,0.002678,0.000431,0.000353
44587000,0.0324,0.013523,0.002678,0.000431,0.000470
44588000,0.0324,0.013523,0.002678,0.000431,0.000470
44589000,0.0324,0.013523,0.002678,0.000431,0.000588
44590000,0.0324,0.013523,0.002678,0.000431,0.000470
44591000,0.0324,0.013523,0.002678,0.000431,0.000705
44592000,0.0324,0.013523,0.002678,0.000431,0.000353
44593000,0.0324,0.013523,0.002678,0.000431,0.000705
44594000,0.0324,0.013523,0.002678,0.000431,0.000470
44595000,0.0324,0.013523,0.002678,0.000431,0.000470
44596000,0.0324,0.013523,0.002678,0.000431,0.000470
44597000,0.0324,0.013523,0.002678,0.000431,0.000470
44598000,0.0324,0.013523,0.002678,0.000431,0.000470
44599000,0.0324,0.013523,0.002678,0.000431,0.000470
44600000,0.0324,0.013523,0.002678,0.000431,0.000470
44601000,0.0324,0.013523,0.002678,0.000431,0.000470
44602000,0.0324,0.013523,0.002678,0.000431,0.000470
44603000,0.0324,0.013523,0.002678,0.000431,0.000470
44604000,0.0324,0.013523,0.002678,0.000431,0.000470
44605000,0.0324,0.013523,0.002678,0.000431,0.000470
44606000,0.0324,0.013523,0.002678,0.000431,0.000470
44607000,0.0324,0.013523,0.002678,0.000431,0.000470
44608000,0.0324,0.013523,0.002678,0.000431,0.000470
44609000,0.0324,0.013523,0.002678,0.000431,0.000470
44610000,0.0324,0.013523,0.002678,0.000431,0.000353
44611000,0.0324,0.013523,0.002678,0.000431,0.000588
44612000,0.0324,0.013523,0.002678,0.000431,0.000353
44613000,0.0324,0.013523,0.002678,0.000431,0.000470
44614000,0.0324,0.013523,0.002678,0.000431,0.000353
44615000,0.0324,0.013523,0.002678,0.000431,0.000705
44616000,0.0324,0.013523,0.002678,0.000431,0.000353
44617000,0.0324,0.013523,0.002678,0.000431,0.000588
44618000,0.0324,0.013523,0.002678,0.000431,0.000470
44619000,0.0324,0.013523,0.002678,0.000431,0.000470
44620000,0.0324,0.013523,0.002678,0.000431,0.000470
44621000,0.0324,0.013523,0.002678,0.000431,0.000470
44622000,0.0324,0.013523,0.002678,0.000431,0.000353
44623000,0.0324,0.013523,0.002678,0.000431,0.000588
44624000,0.0324,0.013523,0.002678,0.000431,0.000353
44625000,0.0324,0.013523,0.002678,0.000431,0.000588
44626000,0.0324,0.013523,0.002678,0.000431,0.000353
44627000,0.0324,0.013523,0.002678,0.000431,0.000588
44628000,0.0324,0.013523,0.002678,0.000431,0.000353
44629000,0.0324,0.013523,0.002678,0.000431,0.000588
44630000,0.0324,0.013523,0.002678,0.000431,0.000353
44631000,0.0324,0.013523,0.002678,0.000431,0.000588
44632000,0.0324,0.013523,0.002678,0.000431,0.000353
44633000,0.0324,0.013523,0.002678,0.000431,0.000588
44634000,0.0324,0.013523,0.002678,0.000431,0.000353
44635000,0.0324,0.013523,0.002678,0.000431,0.000588
44636000,0.0324,0.013523,0.002678,0.000431,0.000353
44637000,0.0324,0.013523,0.002678,0.000431,0.000588
44638000,0.0324,0.013523,0.002678,0.000431,0.000353
44639000,0.0324,0.013523,0.002678,0.000431,0.000470
44640000,0.0324,0.013523,0.002678,0.000431,0.000470
44641000,0.0324,0.013523,0.002678,0.000431,0.000470
44642000,0.0324,0.013523,0.002678,0.000431,0.000470
44643000,0.0324,0.013523,0.002678,0.000431,0.000353
44644000,0.0324,0.013523,0.002678,0.000431,0.000588
44645000,0.0324,0.013523,0.002678,0.000431,0.000353
44646000,0.0324,0.013523,0.002678,0.000431,0.000588
44647000,0.0324,0.013523,0.002678,0.000431,0.000353
44648000,0.0324,0.013523,0.002678,0.000431,0.000588
44649000,0.0324,0.013523,0.002678,0.000431,0.000353
44650000,0.0324,0.013523,0.002678,0.000431,0.000705
44651000,0.0324,0.013523,0.002678,0.000431,0.000588
44652000,0.0324,0.013523,0.002678,0.000431,0.000470
44653000,0.0324,0.013523,0.002678,0.000431,0.000705
44654000,0.0324,0.013523,0.002678,0.000431,0.000353
44655000,0.0324,0.013523,0.002678,0.000431,0.000705
44656000,0.0324,0.013523,0.002678,0.000431,0.000470
44657000,0.0324,0.013523,0.002678,0.000431,0.000470
44658000,0.0324,0.013523,0.002678,0.000431,0.000470
44659000,0.0324,0.013523,0.002678,0.000431,0.000470
44660000,0.0324,0.013523,0.002678,0.000431,0.000470
44661000,0.0324,0.013523,0.002678,0.000431,0.000470
44662000,0.0324,0.013523,0.002678,0.000431,0.000470
44663000,0.0324,0.013523,0.002678,0.000431,0.000588
44664000,0.0324,0.013523,0.002678,0.000431,0.000353
44665000,0.0324,0.013523,0.002678,0.000431,0.000470
44666000,0.0324,0.013523,0.002678,0.000431,0.000470
44667000,0.0324,0.013523,0.002678,0.000431,0.000470
44668000,0.0324,0.013523,0.002678,0.000431,0.000470
44669000,0.0324,0.013523,0.002678,0.000431,0.000470
44670000,0.0324,0.013523,0.002678,0.000431,0.000470
44671000,0.0324,0.013523,0.002678,0.000431,0.000588
44672000,0.0324,0.013523,0.002678,0.000431,0.000470
44673000,0.0324,0.013523,0.002678,0.000431,0.000705
44674000,0.0324,0.013523,0.002678,0.000431,0.000353
44675000,0.0324,0.013523,0.002678,0.000431,0.000588
44676000,0.0324,0.013523,0.002678,0.000431,0.000470
44677000,0.0324,0.013523,0.002678,0.000431,0.000588
44678000,0.0324,0.013523,0.002678,0.000431,0.000353
44679000,0.0324,0.013523,0.002678,0.000431,0.000588
44680000,0.0324,0.013523,0.002678,0.000431,0.000353
44681000,0.0324,0.013523,0.002678,0.000431,0.000588
44682000,0.0324,0.013523,0.002678,0.000431,0.000235
44683000,0.0324,0.013523,0.002678,0.000431,0.000823
44684000,0.0324,0.013523,0.002678,0.000431,0.000353
44685000,0.0324,0.013523,0.002678,0.000431,0.000470
44686000,0.0324,0.013523,0.002678,0.000431,0.000470
44687000,0.0324,0.013523,0.002678,0.000431,0.000705
44688000,0.0324,0.013523,0.002678,0.000431,0.000353
44689000,0.0324,0.013523,0.002678,0.000431,0.000588
44690000,0.0324,0.013523,0.002678,0.000431,0.000353
44691000,0.0324,0.013523,0.002678,0.000431,0.000588
44692000,0.0324,0.013523,0.002678,0.000431,0.000353
44693000,0.0324,0.013523,0.002678,0.000431,0.000588
44694000,0.0324,0.013523,0.002678,0.000431,0.000353
44695000,0.0324,0.013523,0.002678,0.000431,0.000588
44696000,0.0324,0.013523,0.002678,0.000431,0.000353
44697000,0.0324,0.013523,0.002678,0.000431,0.000588
44698000,0.0324,0.013523,0.002678,0.000431,0.000353
44699000,0.0324,0.013523,0.002678,0.000431,0.000470
44700000,0.0324,0.013523,0.002678,0.000431,0.000470
44701000,0.0324,0.013523,0.002678,0.000431,0.000588
44702000,0.0324,0.013523,0.002678,0.000431,0.000353
44703000,0.0324,0.013523,0.002678,0.000431,0.000588
44704000,0.0324,0.013523,0.002678,0.000431,0.000353
44705000,0.0324,0.013523,0.002678,0.000431,0.000705
44706000,0.0324,0.013523,0.002678,0.000431,0.000353
44707000,0.0324,0.013523,0.002678,0.000431,0.000705
44708000,0.0324,0.013523,0.002678,0.000431,0.000588
44709000,0.0324,0.013523,0.002678,0.000431,0.000353
44710000,0.0324,0.013523,0.002678,0.000431,0.000588
44711000,0.0324,0.013523,0.002678,0.000431,0.000470
44712000,0.0324,0.013523,0.002678,0.000431,0.000470
44713000,0.0324,0.013523,0.002678,0.000431,0.000470
44714000,0.0324,0.013523,0.002678,0.000431,0.000353
44715000,0.0324,0.013523,0.002678,0.000431,0.000588
44716000,0.0324,0.013523,0.002678,0.000431,0.000353
44717000,0.0324,0.013523,0.002678,0.000431,0.000470
44718000,0.0324,0.013523,0.002678,0.000431,0.000470
44719000,0.0324,0.013523,0.002678,0.000431,0.000470
44720000,0.0324,0.013523,0.002678,0.000431,0.000470
44721000,0.0324,0.013523,0.002678,0.000431,0.000588
44722000,0.0324,0.013523,0.002678,0.000431,0.000353
44723000,0.0324,0.013523,0.002678,0.000431,0.000705
44724000,0.0324,0.013523,0.002678,0.000431,0.000588
44725000,0.0324,0.013523,0.002678,0.000431,0.000470
44726000,0.0324,0.013523,0.002678,0.000431,0.000705
44727000,0.0324,0.013523,0.002678,0.000431,0.000353
44728000,0.0324,0.013523,0.002678,0.000431,0.000705
44729000,0.0324,0.013523,0.002678,0.000431,0.000470
44730000,0.0324,0.013523,0.002678,0.000431,0.000470
44731000,0.0324,0.013523,0.002678,0.000431,0.000470
44732000,0.0324,0.013523,0.002678,0.000431,0.000470
44733000,0.0324,0.013523,0.002678,0.000431,0.000353
44734000,0.0324,0.013523,0.002678,0.000431,0.000588
44735000,0.0324,0.013523,0.002678,0.000431,0.000353
44736000,0.0324,0.013523,0.002678,0.000431,0.000588
44737000,0.0324,0.013523,0.002678,0.000431,0.000353
44738000,0.0324,0.013523,0.002678,0.000431,0.000705
44739000,0.0324,0.013523,0.002678,0.000431,0.000353
44740000,0.0324,0.013523,0.002678,0.000431,0.000705
44741000,0.0324,0.013523,0.002678,0.000431,0.000588
44742000,0.0324,0.013523,0.002678,0.000431,0.000470
44743000,0.0324,0.013523,0.002678,0.000431,0.000705
44744000,0.0324,0.013523,0.002678,0.000431,0.000353
44745000,0.0324,0.013523,0.002678,0.000431,0.000705
44746000,0.0324,0.013523,0.002678,0.000431,0.000353
44747000,0.0324,0.013523,0.002678,0.000431,0.000588
44748000,0.0324,0.013523,0.002678,0.000431,0.000588
44749000,0.0324,0.013523,0.002678,0.000431,0.000470
44750000,0.0324,0.013523,0.002678,0.000431,0.000588
44751000,0.0324,0.013523,0.002678,0.000431,0.000353
44752000,0.0324,0.013523,0.002678,0.000431,0.000588
44753000,0.0324,0.013523,0.002678,0.000431,0.000353
44754000,0.0324,0.013523,0.002678,0.000431,0.000588
44755000,0.0324,0.013523,0.002678,0.000431,0.000353
44756000,0.0324,0.013523,0.002678,0.000431,0.000588
44757000,0.0324,0.013523,0.002678,0.000431,0.000353
44758000,0.0324,0.013523,0.002678,0.000431,0.000588
44759000,0.0324,0.013523,0.002678,0.000431,0.000353
44760000,0.0324,0.013523,0.002678,0.000431,0.000470
44761000,0.0324,0.013523,0.002678,0.000431,0.000353
44762000,0.0324,0.013523,0.002678,0.000431,0.000588
44763000,0.0324,0.013523,0.002678,0.000431,0.000470
44764000,0.0324,0.013523,0.002678,0.000431,0.000470
44765000,0.0324,0.013523,0.002678,0.000431,0.000470
44766000,0.0324,0.013523,0.002678,0.000431,0.000470
44767000,0.0324,0.013523,0.002678,0.000431,0.000470
44768000,0.0324,0.013523,0.002678,0.000431,0.000353
44769000,0.0324,0.013523,0.002678,0.000431,0.000705
44770000,0.0324,0.013523,0.002678,0.000431,0.000588
44771000,0.0324,0.013523,0.002678,0.000431,0.000470
44772000,0.0324,0.013523,0.002678,0.000431,0.000588
44773000,0.0324,0.013523,0.002678,0.000431,0.000353
44774000,0.0324,0.013523,0.002678,0.000431,0.000588
44775000,0.0324,0.013523,0.002678,0.000431,0.000470
44776000,0.0324,0.013523,0.002678,0.000431,0.000470
44777000,0.0324,0.013523,0.002678,0.000431,0.000470
44778000,0.0324,0.013523,0.002678,0.000431,0.000470
44779000,0.0324,0.013523,0.002678,0.000431,0.000353
44780000,0.0324,0.013523,0.002678,0.000431,0.000588
44781000,0.0324,0.013523,0.002678,0.000431,0.000353
44782000,0.0324,0.013523,0.002678,0.000431,0.000588
44783000,0.0324,0.013523,0.002678,0.000431,0.000470
44784000,0.0324,0.013523,0.002678,0.000431,0.000588
44785000,0.0324,0.013523,0.002678,0.000431,0.000470
44786000,0.0324,0.013523,0.002678,0.000431,0.000705
44787000,0.0324,0.013523,0.002678,0.000431,0.000353
44788000,0.0324,0.013523,0.002678,0.000431,0.000470
44789000,0.0324,0.013523,0.002678,0.000431,0.000353
44790000,0.0324,0.013523,0.002678,0.000431,0.000588
44791000,0.0324,0.013523,0.002678,0.000431,0.000353
44792000,0.0324,0.013523,0.002678,0.000431,0.000588
44793000,0.0324,0.013523,0.002678,0.000431,0.000470
44794000,0.0324,0.013523,0.002678,0.000431,0.000470
44795000,0.0324,0.013523,0.002678,0.000431,0.000470
44796000,0.0324,0.013523,0.002678,0.000431,0.000470
44797000,0.0324,0.013523,0.002678,0.000431,0.000470
44798000,0.0324,0.013523,0.002678,0.000431,0.000588
44799000,0.0324,0.013523,0.002678,0.000431,0.000470
44800000,0.0324,0.013523,0.002678,0.000431,0.000588
44801000,0.0324,0.013523,0.002678,0.000431,0.000353
44802000,0.0324,0.013523,0.002678,0.000431,0.000588
44803000,0.0324,0.013523,0.002678,0.000431,0.000470
44804000,0.0324,0.013523,0.002678,0.000431,0.000470
44805000,0.0324,0.013523,0.002678,0.000431,0.000353
44806000,0.0324,0.013523,0.002678,0.000431,0.000588
44807000,0.0324,0.013523,0.002678,0.000431,0.000353
44808000,0.0324,0.013523,0.002678,0.000431,0.000588
44809000,0.0324,0.013523,0.002678,0.000431,0.000353
44810000,0.0324,0.013523,0.002678,0.000431,0.000588
44811000,0.0324,0.013523,0.002678,0.000431,0.000353
44812000,0.0324,0.013523,0.002678,0.000431,0.000588
44813000,0.0324,0.013523,0.002678,0.000431,0.000353
44814000,0.0324,0.013523,0.002678,0.000431,0.000470
44815000,0.0324,0.013523,0.002678,0.000431,0.000705
44816000,0.0324,0.013523,0.002678,0.000431,0.000470
44817000,0.0324,0.013523,0.002678,0.000431,0.000470
44818000,0.0324,0.013523,0.002678,0.000431,0.000353
44819000,0.0324,0.013523,0.002678,0.000431,0.000470
44820000,0.0324,0.013523,0.002678,0.000431,0.000588
44821000,0.0324,0.013523,0.002678,0.000431,0.000470
44822000,0.0324,0.013523,0.002678,0.000431,0.000705
44823000,0.0324,0.013523,0.002678,0.000431,0.000353
44824000,0.0324,0.013523,0.002678,0.000431,0.000588
44825000,0.0324,0.013523,0.002678,0.000431,0.000353
44826000,0.0324,0.013523,0.002678,0.000431,0.000705
44827000,0.0324,0.013523,0.002678,0.000431,0.000470
44828000,0.0324,0.013523,0.002678,0.000431,0.000470
44829000,0.0324,0.013523,0.002678,0.000431,0.000470
44830000,0.0324,0.013523,0.002678,0.000431,0.000470
44831000,0.0324,0.013523,0.002678,0.000431,0.000470
44832000,0.0324,0.013523,0.002678,0.000431,0.000470
44833000,0.0324,0.013523,0.002678,0.000431,0.000470
44834000,0.0324,0.013523,0.002678,0.000431,0.000470
44835000,0.0324,0.013523,0.002678,0.000431,0.000470
44836000,0.0324,0.013523,0.002678,0.000431,0.000470
44837000,0.0324,0.013523,0.002678,0.000431,0.000353
44838000,0.0324,0.013523,0.002678,0.000431,0.000588
44839000,0.0324,0.013523,0.002678,0.000431,0.000353
44840000,0.0324,0.013523,0.002678,0.000431,0.000470
44841000,0.0324,0.013523,0.002678,0.000431,0.000470
44842000,0.0324,0.013523,0.002678,0.000431,0.000588
44843000,0.0324,0.013523,0.002678,0.000431,0.000353
44844000,0.0324,0.013523,0.002678,0.000431,0.000588
44845000,0.0324,0.013523,0.002678,0.000431,0.000353
44846000,0.0324,0.013523,0.002678,0.000431,0.000588
44847000,0.0324,0.013523,0.002678,0.000431,0.000353
44848000,0.0324,0.013523,0.002678,0.000431,0.000705
44849000,0.0324,0.013523,0.002678,0.000431,0.000353
44850000,0.0324,0.013523,0.002678,0.000431,0.000705
44851000,0.0324,0.013523,0.002678,0.000431,0.000588
44852000,0.0324,0.013523,0.002678,0.000431,0.000470
44853000,0.0324,0.013523,0.002678,0.000431,0.000705
44854000,0.0324,0.013523,0.002678,0.000431,0.000353
44855000,0.0324,0.013523,0.002678,0.000431,0.000588
44856000,0.0324,0.013523,0.002678,0.000431,0.000353
44857000,0.0324,0.013523,0.002678,0.000431,0.000588
44858000,0.0324,0.013523,0.002678,0.000431,0.000353
44859000,0.0324,0.013523,0.002678,0.000431,0.000470
44860000,0.0324,0.013523,0.002678,0.000431,0.000470
44861000,0.0324,0.013523,0.002678,0.000431,0.000470
44862000,0.0324,0.013523,0.002678,0.000431,0.000470
44863000,0.0324,0.013523,0.002678,0.000431,0.000470
44864000,0.0324,0.013523,0.002678,0.000431,0.000470
44865000,0.0324,0.013523,0.002678,0.000431,0.000470
44866000,0.0324,0.013523,0.002678,0.000431,0.000353
44867000,0.0324,0.013523,0.002678,0.000431,0.000588
44868000,0.0324,0.013523,0.002678,0.000431,0.000353
44869000,0.0324,0.013523,0.002678,0.000431,0.000588
44870000,0.0324,0.013523,0.002678,0.000431,0.000470
44871000,0.0324,0.013523,0.002678,0.000431,0.000470
44872000,0.0324,0.013523,0.002678,0.000431,0.000470
44873000,0.0324,0.013523,0.002678,0.000431,0.000470
44874000,0.0324,0.013523,0.002678,0.000431,0.000353
44875000,0.0324,0.013523,0.002678,0.000431,0.000588
44876000,0.0324,0.013523,0.002678,0.000431,0.000353
44877000,0.0324,0.013523,0.002678,0.000431,0.000588
44878000,0.0324,0.013523,0.002678,0.000431,0.000353
44879000,0.0324,0.013523,0.002678,0.000431,0.000470
44880000,0.0324,0.013523,0.002678,0.000431,0.000470
44881000,0.0324,0.013523,0.002678,0.000431,0.000353
44882000,0.0324,0.013523,0.002678,0.000431,0.000588
44883000,0.0324,0.013523,0.002678,0.000431,0.000353
44884000,0.0324,0.013523,0.002678,0.000431,0.000588
44885000,0.0324,0.013523,0.002678,0.000431,0.000353
44886000,0.0324,0.013523,0.002678,0.000431,0.000588
44887000,0.0324,0.013523,0.002678,0.000431,0.000353
44888000,0.0324,0.013523,0.002678,0.000431,0.000588
44889000,0.0324,0.013523,0.002678,0.000431,0.000353
44890000,0.0324,0.013523,0.002678,0.000431,0.000588
44891000,0.0324,0.013523,0.002678,0.000431,0.000353
44892000,0.0324,0.013523,0.002678,0.000431,0.000705
44893000,0.0324,0.013523,0.002678,0.000431,0.000588
44894000,0.0324,0.013523,0.002678,0.000431,0.000470
44895000,0.0324,0.013523,0.002678,0.000431,0.000470
44896000,0.0324,0.013523,0.002678,0.000431,0.000353
44897000,0.0324,0.013523,0.002678,0.000431,0.000588
44898000,0.0324,0.013523,0.002678,0.000431,0.000353
44899000,0.0324,0.013523,0.002678,0.000431,0.000470
44900000,0.0324,0.013523,0.002678,0.000431,0.000470
44901000,0.0324,0.013523,0.002678,0.000431,0.000470
44902000,0.0324,0.013523,0.002678,0.000431,0.000470
44903000,0.0324,0.013523,0.002678,0.000431,0.000588
44904000,0.0324,0.013523,0.002678,0.000431,0.000470
44905000,0.0324,0.013523,0.002678,0.000431,0.000705
44906000,0.0324,0.013523,0.002678,0.000431,0.000353
44907000,0.0324,0.013523,0.002678,0.000431,0.000588
44908000,0.0324,0.013523,0.002678,0.000431,0.000353
44909000,0.0324,0.013523,0.002678,0.000431,0.000588
44910000,0.0324,0.013523,0.002678,0.000431,0.000353
44911000,0.0324,0.013523,0.002678,0.000431,0.000705
44912000,0.0324,0.013523,0.002678,0.000431,0.000235
44913000,0.0324,0.013523,0.002678,0.000431,0.000588
44914000,0.0324,0.013523,0.002678,0.000431,0.000353
44915000,0.0324,0.013523,0.002678,0.000431,0.000588
44916000,0.0324,0.013523,0.002678,0.000431,0.000353
44917000,0.0324,0.013523,0.002678,0.000431,0.000588
44918000,0.0324,0.013523,0.002678,0.000431,0.000353
44919000,0.0324,0.013523,0.002678,0.000431,0.000470
44920000,0.0324,0.013523,0.002678,0.000431,0.000470
44921000,0.0324,0.013523,0.002678,0.000431,0.000470
44922000,0.0324,0.013523,0.002678,0.000431,0.000470
44923000,0.0324,0.013523,0.002678,0.000431,0.000588
44924000,0.0324,0.013523,0.002678,0.000431,0.000470
44925000,0.0324,0.013523,0.002678,0.000431,0.000705
44926000,0.0324,0.013523,0.002678,0.000431,0.000353
44927000,0.0324,0.013523,0.002678,0.000431,0.000588
44928000,0.0324,0.013523,0.002678,0.000431,0.000353
44929000,0.0324,0.013523,0.002678,0.000431,0.000588
44930000,0.0324,0.013523,0.002678,0.000431,0.000353
44931000,0.0324,0.013523,0.002678,0.000431,0.000588
44932000,0.0324,0.013523,0.002678,0.000431,0.000353
44933000,0.0324,0.013523,0.002678,0.000431,0.000588
44934000,0.0324,0.013523,0.002678,0.000431,0.000353
44935000,0.0324,0.013523,0.002678,0.000431,0.000588
44936000,0.0324,0.013523,0.002678,0.000431,0.000353
44937000,0.0324,0.013523,0.002678,0.000431,0.000470
44938000,0.0324,0.013523,0.002678,0.000431,0.000470
44939000,0.0324,0.013523,0.002678,0.000431,0.000470
44940000,0.0324,0.013523,0.002678,0.000431,0.000470
44941000,0.0324,0.013523,0.002678,0.000431,0.000588
44942000,0.0324,0.013523,0.002678,0.000431,0.000470
44943000,0.0324,0.013523,0.002678,0.000431,0.000588
44944000,0.0324,0.013523,0.002678,0.000431,0.000353
44945000,0.0324,0.013523,0.002678,0.000431,0.000588
44946000,0.0324,0.013523,0.002678,0.000431,0.000353
44947000,0.0324,0.013523,0.002678,0.000431,0.000588
44948000,0.0324,0.013523,0.002678,0.000431,0.000353
44949000,0.0324,0.013523,0.002678,0.000431,0.000588
44950000,0.0324,0.013523,0.002678,0.000431,0.000470
44951000,0.0324,0.013523,0.002678,0.000431,0.000588
44952000,0.0324,0.013523,0.002678,0.000431,0.000470
44953000,0.0324,0.013523,0.002678,0.000431,0.000705
44954000,0.0324,0.013523,0.002678,0.000431,0.000353
44955000,0.0324,0.013523,0.002678,0.000431,0.000588
44956000,0.0324,0.013523,0.002678,0.000431,0.000353
44957000,0.0324,0.013523,0.002678,0.000431,0.000588
44958000,0.0324,0.013523,0.002678,0.000431,0.000353
44959000,0.0324,0.013523,0.002678,0.000431,0.000588
44960000,0.0324,0.013523,0.002678,0.000431,0.000353
44961000,0.0324,0.013523,0.002678,0.000431,0.000470
44962000,0.0324,0.013523,0.002678,0.000431,0.000470
44963000,0.0324,0.013523,0.002678,0.000431,0.000588
44964000,0.0324,0.013523,0.002678,0.000431,0.000588
44965000,0.0324,0.013523,0.002678,0.000431,0.000588
44966000,0.0324,0.013523,0.002678,0.000431,0.000470
44967000,0.0324,0.013523,0.002678,0.000431,0.000588
44968000,0.0324,0.013523,0.002678,0.000431,0.000353
44969000,0.0324,0.013523,0.002678,0.000431,0.000588
44970000,0.0324,0.013523,0.002678,0.000431,0.000353
44971000,0.0324,0.013523,0.002678,0.000431,0.000588
44972000,0.0324,0.013523,0.002678,0.000431,0.000353
44973000,0.0324,0.013523,0.002678,0.000431,0.000588
44974000,0.0324,0.013523,0.002678,0.000431,0.000353
44975000,0.0324,0.013523,0.002678,0.000431,0.000588
44976000,0.0324,0.013523,0.002678,0.000431,0.000353
44977000,0.0324,0.013523,0.002678,0.000431,0.000588
44978000,0.0324,0.013523,0.002678,0.000431,0.000353
44979000,0.0324,0.013523,0.002678,0.000431,0.000588
44980000,0.0324,0.013523,0.002678,0.000431,0.000353
44981000,0.0324,0.013523,0.002678,0.000431,0.000588
44982000,0.0324,0.013523,0.002678,0.000431,0.000353
44983000,0.0324,0.013523,0.002678,0.000431,0.000588
44984000,0.0324,0.013523,0.002678,0.000431,0.000353
44985000,0.0324,0.013523,0.002678,0.000431,0.000588
44986000,0.0324,0.013523,0.002678,0.000431,0.000353
44987000,0.0324,0.013523,0.002678,0.000431,0.000470
44988000,0.0324,0.013523,0.002678,0.000431,0.000470
44989000,0.0324,0.013523,0.002678,0.000431,0.000470
44990000,0.0324,0.013523,0.002678,0.000431,0.000470
44991000,0.0324,0.013523,0.002678,0.000431,0.000353
44992000,0.0324,0.013523,0.002678,0.000431,0.000588
44993000,0.0324,0.013523,0.002678,0.000431,0.000353
44994000,0.0324,0.013523,0.002678,0.000431,0.000705
44995000,0.0324,0.013523,0.002678,0.000431,0.000470
44996000,0.0324,0.013523,0.002678,0.000431,0.000588
44997000,0.0324,0.013523,0.002678,0.000431,0.000353
44998000,0.0324,0.013523,0.002678,0.000431,0.000588
44999000,0.0324,0.013523,0.002678,0.000431,0.000353
