Cycle,Area(mm^2),PeakDynamic(W),SubthresholdLeakage(W),GateLeakage(W),RunTimeDynamic(W)
57000000,0.0324,0.013523,0.002678,0.000431,0.000470
57001000,0.0324,0.013523,0.002678,0.000431,0.000470
57002000,0.0324,0.013523,0.002678,0.000431,0.000470
57003000,0.0324,0.013523,0.002678,0.000431,0.000588
57004000,0.0324,0.013523,0.002678,0.000431,0.000470
57005000,0.0324,0.013523,0.002678,0.000431,0.000705
57006000,0.0324,0.013523,0.002678,0.000431,0.000235
57007000,0.0324,0.013523,0.002678,0.000431,0.000823
57008000,0.0324,0.013523,0.002678,0.000431,0.000353
57009000,0.0324,0.013523,0.002678,0.000431,0.000470
57010000,0.0324,0.013523,0.002678,0.000431,0.000353
57011000,0.0324,0.013523,0.002678,0.000431,0.000588
57012000,0.0324,0.013523,0.002678,0.000431,0.000353
57013000,0.0324,0.013523,0.002678,0.000431,0.000588
57014000,0.0324,0.013523,0.002678,0.000431,0.000353
57015000,0.0324,0.013523,0.002678,0.000431,0.000588
57016000,0.0324,0.013523,0.002678,0.000431,0.000353
57017000,0.0324,0.013523,0.002678,0.000431,0.000588
57018000,0.0324,0.013523,0.002678,0.000431,0.000353
57019000,0.0324,0.013523,0.002678,0.000431,0.000705
57020000,0.0324,0.013523,0.002678,0.000431,0.000470
57021000,0.0324,0.013523,0.002678,0.000431,0.000470
57022000,0.0324,0.013523,0.002678,0.000431,0.000470
57023000,0.0324,0.013523,0.002678,0.000431,0.000470
57024000,0.0324,0.013523,0.002678,0.000431,0.000470
57025000,0.0324,0.013523,0.002678,0.000431,0.000470
57026000,0.0324,0.013523,0.002678,0.000431,0.000470
57027000,0.0324,0.013523,0.002678,0.000431,0.000470
57028000,0.0324,0.013523,0.002678,0.000431,0.000470
57029000,0.0324,0.013523,0.002678,0.000431,0.000588
57030000,0.0324,0.013523,0.002678,0.000431,0.000353
57031000,0.0324,0.013523,0.002678,0.000431,0.000705
57032000,0.0324,0.013523,0.002678,0.000431,0.000588
57033000,0.0324,0.013523,0.002678,0.000431,0.000470
57034000,0.0324,0.013523,0.002678,0.000431,0.000705
57035000,0.0324,0.013523,0.002678,0.000431,0.000353
57036000,0.0324,0.013523,0.002678,0.000431,0.000705
57037000,0.0324,0.013523,0.002678,0.000431,0.000588
57038000,0.0324,0.013523,0.002678,0.000431,0.000470
57039000,0.0324,0.013523,0.002678,0.000431,0.000705
57040000,0.0324,0.013523,0.002678,0.000431,0.000353
57041000,0.0324,0.013523,0.002678,0.000431,0.000470
57042000,0.0324,0.013523,0.002678,0.000431,0.000470
57043000,0.0324,0.013523,0.002678,0.000431,0.000470
57044000,0.0324,0.013523,0.002678,0.000431,0.000470
57045000,0.0324,0.013523,0.002678,0.000431,0.000470
57046000,0.0324,0.013523,0.002678,0.000431,0.000470
57047000,0.0324,0.013523,0.002678,0.000431,0.000470
57048000,0.0324,0.013523,0.002678,0.000431,0.000470
57049000,0.0324,0.013523,0.002678,0.000431,0.000470
57050000,0.0324,0.013523,0.002678,0.000431,0.000470
57051000,0.0324,0.013523,0.002678,0.000431,0.000470
57052000,0.0324,0.013523,0.002678,0.000431,0.000470
57053000,0.0324,0.013523,0.002678,0.000431,0.000470
57054000,0.0324,0.013523,0.002678,0.000431,0.000470
57055000,0.0324,0.013523,0.002678,0.000431,0.000470
57056000,0.0324,0.013523,0.002678,0.000431,0.000353
57057000,0.0324,0.013523,0.002678,0.000431,0.000588
57058000,0.0324,0.013523,0.002678,0.000431,0.000353
57059000,0.0324,0.013523,0.002678,0.000431,0.000588
57060000,0.0324,0.013523,0.002678,0.000431,0.000353
57061000,0.0324,0.013523,0.002678,0.000431,0.000588
57062000,0.0324,0.013523,0.002678,0.000431,0.000353
57063000,0.0324,0.013523,0.002678,0.000431,0.000470
57064000,0.0324,0.013523,0.002678,0.000431,0.000470
57065000,0.0324,0.013523,0.002678,0.000431,0.000470
57066000,0.0324,0.013523,0.002678,0.000431,0.000470
57067000,0.0324,0.013523,0.002678,0.000431,0.000353
57068000,0.0324,0.013523,0.002678,0.000431,0.000588
57069000,0.0324,0.013523,0.002678,0.000431,0.000353
57070000,0.0324,0.013523,0.002678,0.000431,0.000588
57071000,0.0324,0.013523,0.002678,0.000431,0.000353
57072000,0.0324,0.013523,0.002678,0.000431,0.000705
57073000,0.0324,0.013523,0.002678,0.000431,0.000588
57074000,0.0324,0.013523,0.002678,0.000431,0.000470
57075000,0.0324,0.013523,0.002678,0.000431,0.000588
57076000,0.0324,0.013523,0.002678,0.000431,0.000353
57077000,0.0324,0.013523,0.002678,0.000431,0.000588
57078000,0.0324,0.013523,0.002678,0.000431,0.000353
57079000,0.0324,0.013523,0.002678,0.000431,0.000588
57080000,0.0324,0.013523,0.002678,0.000431,0.000353
57081000,0.0324,0.013523,0.002678,0.000431,0.000588
57082000,0.0324,0.013523,0.002678,0.000431,0.000353
57083000,0.0324,0.013523,0.002678,0.000431,0.000470
57084000,0.0324,0.013523,0.002678,0.000431,0.000470
57085000,0.0324,0.013523,0.002678,0.000431,0.000470
57086000,0.0324,0.013523,0.002678,0.000431,0.000470
57087000,0.0324,0.013523,0.002678,0.000431,0.000470
57088000,0.0324,0.013523,0.002678,0.000431,0.000588
57089000,0.0324,0.013523,0.002678,0.000431,0.000588
57090000,0.0324,0.013523,0.002678,0.000431,0.000470
57091000,0.0324,0.013523,0.002678,0.000431,0.000705
57092000,0.0324,0.013523,0.002678,0.000431,0.000353
57093000,0.0324,0.013523,0.002678,0.000431,0.000705
57094000,0.0324,0.013523,0.002678,0.000431,0.000470
57095000,0.0324,0.013523,0.002678,0.000431,0.000470
57096000,0.0324,0.013523,0.002678,0.000431,0.000470
57097000,0.0324,0.013523,0.002678,0.000431,0.000470
57098000,0.0324,0.013523,0.002678,0.000431,0.000470
57099000,0.0324,0.013523,0.002678,0.000431,0.000470
57100000,0.0324,0.013523,0.002678,0.000431,0.000353
57101000,0.0324,0.013523,0.002678,0.000431,0.000588
57102000,0.0324,0.013523,0.002678,0.000431,0.000353
57103000,0.0324,0.013523,0.002678,0.000431,0.000588
57104000,0.0324,0.013523,0.002678,0.000431,0.000353
57105000,0.0324,0.013523,0.002678,0.000431,0.000588
57106000,0.0324,0.013523,0.002678,0.000431,0.000353
57107000,0.0324,0.013523,0.002678,0.000431,0.000705
57108000,0.0324,0.013523,0.002678,0.000431,0.000353
57109000,0.0324,0.013523,0.002678,0.000431,0.000705
57110000,0.0324,0.013523,0.002678,0.000431,0.000588
57111000,0.0324,0.013523,0.002678,0.000431,0.000353
57112000,0.0324,0.013523,0.002678,0.000431,0.000823
57113000,0.0324,0.013523,0.002678,0.000431,0.000235
57114000,0.0324,0.013523,0.002678,0.000431,0.000705
57115000,0.0324,0.013523,0.002678,0.000431,0.000353
57116000,0.0324,0.013523,0.002678,0.000431,0.000705
57117000,0.0324,0.013523,0.002678,0.000431,0.000470
57118000,0.0324,0.013523,0.002678,0.000431,0.000470
57119000,0.0324,0.013523,0.002678,0.000431,0.000470
57120000,0.0324,0.013523,0.002678,0.000431,0.000470
57121000,0.0324,0.013523,0.002678,0.000431,0.000470
57122000,0.0324,0.013523,0.002678,0.000431,0.000470
57123000,0.0324,0.013523,0.002678,0.000431,0.000470
57124000,0.0324,0.013523,0.002678,0.000431,0.000470
57125000,0.0324,0.013523,0.002678,0.000431,0.000470
57126000,0.0324,0.013523,0.002678,0.000431,0.000470
57127000,0.0324,0.013523,0.002678,0.000431,0.000470
57128000,0.0324,0.013523,0.002678,0.000431,0.000588
57129000,0.0324,0.013523,0.002678,0.000431,0.000353
57130000,0.0324,0.013523,0.002678,0.000431,0.000705
57131000,0.0324,0.013523,0.002678,0.000431,0.000470
57132000,0.0324,0.013523,0.002678,0.000431,0.000470
57133000,0.0324,0.013523,0.002678,0.000431,0.000470
57134000,0.0324,0.013523,0.002678,0.000431,0.000470
57135000,0.0324,0.013523,0.002678,0.000431,0.000470
57136000,0.0324,0.013523,0.002678,0.000431,0.000470
57137000,0.0324,0.013523,0.002678,0.000431,0.000470
57138000,0.0324,0.013523,0.002678,0.000431,0.000470
57139000,0.0324,0.013523,0.002678,0.000431,0.000470
57140000,0.0324,0.013523,0.002678,0.000431,0.000470
57141000,0.0324,0.013523,0.002678,0.000431,0.000470
57142000,0.0324,0.013523,0.002678,0.000431,0.000470
57143000,0.0324,0.013523,0.002678,0.000431,0.000353
57144000,0.0324,0.013523,0.002678,0.000431,0.000588
57145000,0.0324,0.013523,0.002678,0.000431,0.000353
57146000,0.0324,0.013523,0.002678,0.000431,0.000588
57147000,0.0324,0.013523,0.002678,0.000431,0.000353
57148000,0.0324,0.013523,0.002678,0.000431,0.000588
57149000,0.0324,0.013523,0.002678,0.000431,0.000353
57150000,0.0324,0.013523,0.002678,0.000431,0.000705
57151000,0.0324,0.013523,0.002678,0.000431,0.000353
57152000,0.0324,0.013523,0.002678,0.000431,0.000588
57153000,0.0324,0.013523,0.002678,0.000431,0.000353
57154000,0.0324,0.013523,0.002678,0.000431,0.000588
57155000,0.0324,0.013523,0.002678,0.000431,0.000353
57156000,0.0324,0.013523,0.002678,0.000431,0.000588
57157000,0.0324,0.013523,0.002678,0.000431,0.000353
57158000,0.0324,0.013523,0.002678,0.000431,0.000588
57159000,0.0324,0.013523,0.002678,0.000431,0.000353
57160000,0.0324,0.013523,0.002678,0.000431,0.000588
57161000,0.0324,0.013523,0.002678,0.000431,0.000353
57162000,0.0324,0.013523,0.002678,0.000431,0.000470
57163000,0.0324,0.013523,0.002678,0.000431,0.000470
57164000,0.0324,0.013523,0.002678,0.000431,0.000588
57165000,0.0324,0.013523,0.002678,0.000431,0.000470
57166000,0.0324,0.013523,0.002678,0.000431,0.000588
57167000,0.0324,0.013523,0.002678,0.000431,0.000353
57168000,0.0324,0.013523,0.002678,0.000431,0.000588
57169000,0.0324,0.013523,0.002678,0.000431,0.000353
57170000,0.0324,0.013523,0.002678,0.000431,0.000588
57171000,0.0324,0.013523,0.002678,0.000431,0.000353
57172000,0.0324,0.013523,0.002678,0.000431,0.000470
57173000,0.0324,0.013523,0.002678,0.000431,0.000470
57174000,0.0324,0.013523,0.002678,0.000431,0.000353
57175000,0.0324,0.013523,0.002678,0.000431,0.000588
57176000,0.0324,0.013523,0.002678,0.000431,0.000353
57177000,0.0324,0.013523,0.002678,0.000431,0.000588
57178000,0.0324,0.013523,0.002678,0.000431,0.000353
57179000,0.0324,0.013523,0.002678,0.000431,0.000588
57180000,0.0324,0.013523,0.002678,0.000431,0.000353
57181000,0.0324,0.013523,0.002678,0.000431,0.000588
57182000,0.0324,0.013523,0.002678,0.000431,0.000353
57183000,0.0324,0.013523,0.002678,0.000431,0.000588
57184000,0.0324,0.013523,0.002678,0.000431,0.000353
57185000,0.0324,0.013523,0.002678,0.000431,0.000588
57186000,0.0324,0.013523,0.002678,0.000431,0.000353
57187000,0.0324,0.013523,0.002678,0.000431,0.000470
57188000,0.0324,0.013523,0.002678,0.000431,0.000470
57189000,0.0324,0.013523,0.002678,0.000431,0.000470
57190000,0.0324,0.013523,0.002678,0.000431,0.000470
57191000,0.0324,0.013523,0.002678,0.000431,0.000470
57192000,0.0324,0.013523,0.002678,0.000431,0.000470
57193000,0.0324,0.013523,0.002678,0.000431,0.000470
57194000,0.0324,0.013523,0.002678,0.000431,0.000470
57195000,0.0324,0.013523,0.002678,0.000431,0.000470
57196000,0.0324,0.013523,0.002678,0.000431,0.000353
57197000,0.0324,0.013523,0.002678,0.000431,0.000705
57198000,0.0324,0.013523,0.002678,0.000431,0.000353
57199000,0.0324,0.013523,0.002678,0.000431,0.000705
57200000,0.0324,0.013523,0.002678,0.000431,0.000588
57201000,0.0324,0.013523,0.002678,0.000431,0.000470
57202000,0.0324,0.013523,0.002678,0.000431,0.000588
57203000,0.0324,0.013523,0.002678,0.000431,0.000353
57204000,0.0324,0.013523,0.002678,0.000431,0.000705
57205000,0.0324,0.013523,0.002678,0.000431,0.000353
57206000,0.0324,0.013523,0.002678,0.000431,0.000705
57207000,0.0324,0.013523,0.002678,0.000431,0.000353
57208000,0.0324,0.013523,0.002678,0.000431,0.000588
57209000,0.0324,0.013523,0.002678,0.000431,0.000588
57210000,0.0324,0.013523,0.002678,0.000431,0.000470
57211000,0.0324,0.013523,0.002678,0.000431,0.000353
57212000,0.0324,0.013523,0.002678,0.000431,0.000588
57213000,0.0324,0.013523,0.002678,0.000431,0.000353
57214000,0.0324,0.013523,0.002678,0.000431,0.000588
57215000,0.0324,0.013523,0.002678,0.000431,0.000353
57216000,0.0324,0.013523,0.002678,0.000431,0.000588
57217000,0.0324,0.013523,0.002678,0.000431,0.000353
57218000,0.0324,0.013523,0.002678,0.000431,0.000588
57219000,0.0324,0.013523,0.002678,0.000431,0.000353
57220000,0.0324,0.013523,0.002678,0.000431,0.000705
57221000,0.0324,0.013523,0.002678,0.000431,0.000470
57222000,0.0324,0.013523,0.002678,0.000431,0.000470
57223000,0.0324,0.013523,0.002678,0.000431,0.000470
57224000,0.0324,0.013523,0.002678,0.000431,0.000470
57225000,0.0324,0.013523,0.002678,0.000431,0.000470
57226000,0.0324,0.013523,0.002678,0.000431,0.000470
57227000,0.0324,0.013523,0.002678,0.000431,0.000470
57228000,0.0324,0.013523,0.002678,0.000431,0.000470
57229000,0.0324,0.013523,0.002678,0.000431,0.000470
57230000,0.0324,0.013523,0.002678,0.000431,0.000470
57231000,0.0324,0.013523,0.002678,0.000431,0.000470
57232000,0.0324,0.013523,0.002678,0.000431,0.000470
57233000,0.0324,0.013523,0.002678,0.000431,0.000353
57234000,0.0324,0.013523,0.002678,0.000431,0.000588
57235000,0.0324,0.013523,0.002678,0.000431,0.000353
57236000,0.0324,0.013523,0.002678,0.000431,0.000588
57237000,0.0324,0.013523,0.002678,0.000431,0.000353
57238000,0.0324,0.013523,0.002678,0.000431,0.000705
57239000,0.0324,0.013523,0.002678,0.000431,0.000353
57240000,0.0324,0.013523,0.002678,0.000431,0.000705
57241000,0.0324,0.013523,0.002678,0.000431,0.000470
57242000,0.0324,0.013523,0.002678,0.000431,0.000470
57243000,0.0324,0.013523,0.002678,0.000431,0.000470
57244000,0.0324,0.013523,0.002678,0.000431,0.000470
57245000,0.0324,0.013523,0.002678,0.000431,0.000470
57246000,0.0324,0.013523,0.002678,0.000431,0.000470
57247000,0.0324,0.013523,0.002678,0.000431,0.000470
57248000,0.0324,0.013523,0.002678,0.000431,0.000705
57249000,0.0324,0.013523,0.002678,0.000431,0.000588
57250000,0.0324,0.013523,0.002678,0.000431,0.000353
57251000,0.0324,0.013523,0.002678,0.000431,0.000588
57252000,0.0324,0.013523,0.002678,0.000431,0.000470
57253000,0.0324,0.013523,0.002678,0.000431,0.000705
57254000,0.0324,0.013523,0.002678,0.000431,0.000353
57255000,0.0324,0.013523,0.002678,0.000431,0.000588
57256000,0.0324,0.013523,0.002678,0.000431,0.000353
57257000,0.0324,0.013523,0.002678,0.000431,0.000588
57258000,0.0324,0.013523,0.002678,0.000431,0.000353
57259000,0.0324,0.013523,0.002678,0.000431,0.000588
57260000,0.0324,0.013523,0.002678,0.000431,0.000353
57261000,0.0324,0.013523,0.002678,0.000431,0.000588
57262000,0.0324,0.013523,0.002678,0.000431,0.000353
57263000,0.0324,0.013523,0.002678,0.000431,0.000588
57264000,0.0324,0.013523,0.002678,0.000431,0.000353
57265000,0.0324,0.013523,0.002678,0.000431,0.000588
57266000,0.0324,0.013523,0.002678,0.000431,0.000353
57267000,0.0324,0.013523,0.002678,0.000431,0.000588
57268000,0.0324,0.013523,0.002678,0.000431,0.000353
57269000,0.0324,0.013523,0.002678,0.000431,0.000470
57270000,0.0324,0.013523,0.002678,0.000431,0.000470
57271000,0.0324,0.013523,0.002678,0.000431,0.000470
57272000,0.0324,0.013523,0.002678,0.000431,0.000470
57273000,0.0324,0.013523,0.002678,0.000431,0.000470
57274000,0.0324,0.013523,0.002678,0.000431,0.000470
57275000,0.0324,0.013523,0.002678,0.000431,0.000470
57276000,0.0324,0.013523,0.002678,0.000431,0.000470
57277000,0.0324,0.013523,0.002678,0.000431,0.000470
57278000,0.0324,0.013523,0.002678,0.000431,0.000470
57279000,0.0324,0.013523,0.002678,0.000431,0.000470
57280000,0.0324,0.013523,0.002678,0.000431,0.000470
57281000,0.0324,0.013523,0.002678,0.000431,0.000470
57282000,0.0324,0.013523,0.002678,0.000431,0.000470
57283000,0.0324,0.013523,0.002678,0.000431,0.000470
57284000,0.0324,0.013523,0.002678,0.000431,0.000470
57285000,0.0324,0.013523,0.002678,0.000431,0.000470
57286000,0.0324,0.013523,0.002678,0.000431,0.000470
57287000,0.0324,0.013523,0.002678,0.000431,0.000470
57288000,0.0324,0.013523,0.002678,0.000431,0.000470
57289000,0.0324,0.013523,0.002678,0.000431,0.000353
57290000,0.0324,0.013523,0.002678,0.000431,0.000470
57291000,0.0324,0.013523,0.002678,0.000431,0.000353
57292000,0.0324,0.013523,0.002678,0.000431,0.000588
57293000,0.0324,0.013523,0.002678,0.000431,0.000353
57294000,0.0324,0.013523,0.002678,0.000431,0.000588
57295000,0.0324,0.013523,0.002678,0.000431,0.000353
57296000,0.0324,0.013523,0.002678,0.000431,0.000588
57297000,0.0324,0.013523,0.002678,0.000431,0.000353
57298000,0.0324,0.013523,0.002678,0.000431,0.000588
57299000,0.0324,0.013523,0.002678,0.000431,0.000353
57300000,0.0324,0.013523,0.002678,0.000431,0.000588
57301000,0.0324,0.013523,0.002678,0.000431,0.000353
57302000,0.0324,0.013523,0.002678,0.000431,0.000588
57303000,0.0324,0.013523,0.002678,0.000431,0.000353
57304000,0.0324,0.013523,0.002678,0.000431,0.000588
57305000,0.0324,0.013523,0.002678,0.000431,0.000353
57306000,0.0324,0.013523,0.002678,0.000431,0.000470
57307000,0.0324,0.013523,0.002678,0.000431,0.000470
57308000,0.0324,0.013523,0.002678,0.000431,0.000470
57309000,0.0324,0.013523,0.002678,0.000431,0.000470
57310000,0.0324,0.013523,0.002678,0.000431,0.000470
57311000,0.0324,0.013523,0.002678,0.000431,0.000470
57312000,0.0324,0.013523,0.002678,0.000431,0.000470
57313000,0.0324,0.013523,0.002678,0.000431,0.000470
57314000,0.0324,0.013523,0.002678,0.000431,0.000470
57315000,0.0324,0.013523,0.002678,0.000431,0.000470
57316000,0.0324,0.013523,0.002678,0.000431,0.000470
57317000,0.0324,0.013523,0.002678,0.000431,0.000353
57318000,0.0324,0.013523,0.002678,0.000431,0.000588
57319000,0.0324,0.013523,0.002678,0.000431,0.000353
57320000,0.0324,0.013523,0.002678,0.000431,0.000705
57321000,0.0324,0.013523,0.002678,0.000431,0.000470
57322000,0.0324,0.013523,0.002678,0.000431,0.000470
57323000,0.0324,0.013523,0.002678,0.000431,0.000470
57324000,0.0324,0.013523,0.002678,0.000431,0.000470
57325000,0.0324,0.013523,0.002678,0.000431,0.000470
57326000,0.0324,0.013523,0.002678,0.000431,0.000353
57327000,0.0324,0.013523,0.002678,0.000431,0.000588
57328000,0.0324,0.013523,0.002678,0.000431,0.000353
57329000,0.0324,0.013523,0.002678,0.000431,0.000588
57330000,0.0324,0.013523,0.002678,0.000431,0.000353
57331000,0.0324,0.013523,0.002678,0.000431,0.000588
57332000,0.0324,0.013523,0.002678,0.000431,0.000353
57333000,0.0324,0.013523,0.002678,0.000431,0.000705
57334000,0.0324,0.013523,0.002678,0.000431,0.000470
57335000,0.0324,0.013523,0.002678,0.000431,0.000470
57336000,0.0324,0.013523,0.002678,0.000431,0.000470
57337000,0.0324,0.013523,0.002678,0.000431,0.000470
57338000,0.0324,0.013523,0.002678,0.000431,0.000470
57339000,0.0324,0.013523,0.002678,0.000431,0.000470
57340000,0.0324,0.013523,0.002678,0.000431,0.000353
57341000,0.0324,0.013523,0.002678,0.000431,0.000588
57342000,0.0324,0.013523,0.002678,0.000431,0.000353
57343000,0.0324,0.013523,0.002678,0.000431,0.000470
57344000,0.0324,0.013523,0.002678,0.000431,0.000470
57345000,0.0324,0.013523,0.002678,0.000431,0.000588
57346000,0.0324,0.013523,0.002678,0.000431,0.000353
57347000,0.0324,0.013523,0.002678,0.000431,0.000705
57348000,0.0324,0.013523,0.002678,0.000431,0.000353
57349000,0.0324,0.013523,0.002678,0.000431,0.000470
57350000,0.0324,0.013523,0.002678,0.000431,0.000470
57351000,0.0324,0.013523,0.002678,0.000431,0.000470
57352000,0.0324,0.013523,0.002678,0.000431,0.000353
57353000,0.0324,0.013523,0.002678,0.000431,0.000705
57354000,0.0324,0.013523,0.002678,0.000431,0.000353
57355000,0.0324,0.013523,0.002678,0.000431,0.000705
57356000,0.0324,0.013523,0.002678,0.000431,0.000588
57357000,0.0324,0.013523,0.002678,0.000431,0.000470
57358000,0.0324,0.013523,0.002678,0.000431,0.000705
57359000,0.0324,0.013523,0.002678,0.000431,0.000353
57360000,0.0324,0.013523,0.002678,0.000431,0.000705
57361000,0.0324,0.013523,0.002678,0.000431,0.000588
57362000,0.0324,0.013523,0.002678,0.000431,0.000470
57363000,0.0324,0.013523,0.002678,0.000431,0.000470
57364000,0.0324,0.013523,0.002678,0.000431,0.000470
57365000,0.0324,0.013523,0.002678,0.000431,0.000588
57366000,0.0324,0.013523,0.002678,0.000431,0.000353
57367000,0.0324,0.013523,0.002678,0.000431,0.000705
57368000,0.0324,0.013523,0.002678,0.000431,0.000353
57369000,0.0324,0.013523,0.002678,0.000431,0.000588
57370000,0.0324,0.013523,0.002678,0.000431,0.000353
57371000,0.0324,0.013523,0.002678,0.000431,0.000588
57372000,0.0324,0.013523,0.002678,0.000431,0.000353
57373000,0.0324,0.013523,0.002678,0.000431,0.000588
57374000,0.0324,0.013523,0.002678,0.000431,0.000470
57375000,0.0324,0.013523,0.002678,0.000431,0.000588
57376000,0.0324,0.013523,0.002678,0.000431,0.000353
57377000,0.0324,0.013523,0.002678,0.000431,0.000705
57378000,0.0324,0.013523,0.002678,0.000431,0.000353
57379000,0.0324,0.013523,0.002678,0.000431,0.000588
57380000,0.0324,0.013523,0.002678,0.000431,0.000353
57381000,0.0324,0.013523,0.002678,0.000431,0.000588
57382000,0.0324,0.013523,0.002678,0.000431,0.000353
57383000,0.0324,0.013523,0.002678,0.000431,0.000588
57384000,0.0324,0.013523,0.002678,0.000431,0.000353
57385000,0.0324,0.013523,0.002678,0.000431,0.000470
57386000,0.0324,0.013523,0.002678,0.000431,0.000470
57387000,0.0324,0.013523,0.002678,0.000431,0.000470
57388000,0.0324,0.013523,0.002678,0.000431,0.000470
57389000,0.0324,0.013523,0.002678,0.000431,0.000470
57390000,0.0324,0.013523,0.002678,0.000431,0.000470
57391000,0.0324,0.013523,0.002678,0.000431,0.000470
57392000,0.0324,0.013523,0.002678,0.000431,0.000470
57393000,0.0324,0.013523,0.002678,0.000431,0.000470
57394000,0.0324,0.013523,0.002678,0.000431,0.000470
57395000,0.0324,0.013523,0.002678,0.000431,0.000470
57396000,0.0324,0.013523,0.002678,0.000431,0.000470
57397000,0.0324,0.013523,0.002678,0.000431,0.000470
57398000,0.0324,0.013523,0.002678,0.000431,0.000470
57399000,0.0324,0.013523,0.002678,0.000431,0.000588
57400000,0.0324,0.013523,0.002678,0.000431,0.000470
57401000,0.0324,0.013523,0.002678,0.000431,0.000588
57402000,0.0324,0.013523,0.002678,0.000431,0.000353
57403000,0.0324,0.013523,0.002678,0.000431,0.000588
57404000,0.0324,0.013523,0.002678,0.000431,0.000353
57405000,0.0324,0.013523,0.002678,0.000431,0.000705
57406000,0.0324,0.013523,0.002678,0.000431,0.000470
57407000,0.0324,0.013523,0.002678,0.000431,0.000470
57408000,0.0324,0.013523,0.002678,0.000431,0.000470
57409000,0.0324,0.013523,0.002678,0.000431,0.000823
57410000,0.0324,0.013523,0.002678,0.000431,0.000353
57411000,0.0324,0.013523,0.002678,0.000431,0.000588
57412000,0.0324,0.013523,0.002678,0.000431,0.000353
57413000,0.0324,0.013523,0.002678,0.000431,0.000588
57414000,0.0324,0.013523,0.002678,0.000431,0.000353
57415000,0.0324,0.013523,0.002678,0.000431,0.000705
57416000,0.0324,0.013523,0.002678,0.000431,0.000353
57417000,0.0324,0.013523,0.002678,0.000431,0.000588
57418000,0.0324,0.013523,0.002678,0.000431,0.000353
57419000,0.0324,0.013523,0.002678,0.000431,0.000588
57420000,0.0324,0.013523,0.002678,0.000431,0.000353
57421000,0.0324,0.013523,0.002678,0.000431,0.000588
57422000,0.0324,0.013523,0.002678,0.000431,0.000353
57423000,0.0324,0.013523,0.002678,0.000431,0.000588
57424000,0.0324,0.013523,0.002678,0.000431,0.000353
57425000,0.0324,0.013523,0.002678,0.000431,0.000588
57426000,0.0324,0.013523,0.002678,0.000431,0.000353
57427000,0.0324,0.013523,0.002678,0.000431,0.000588
57428000,0.0324,0.013523,0.002678,0.000431,0.000353
57429000,0.0324,0.013523,0.002678,0.000431,0.000470
57430000,0.0324,0.013523,0.002678,0.000431,0.000470
57431000,0.0324,0.013523,0.002678,0.000431,0.000470
57432000,0.0324,0.013523,0.002678,0.000431,0.000470
57433000,0.0324,0.013523,0.002678,0.000431,0.000470
57434000,0.0324,0.013523,0.002678,0.000431,0.000470
57435000,0.0324,0.013523,0.002678,0.000431,0.000470
57436000,0.0324,0.013523,0.002678,0.000431,0.000470
57437000,0.0324,0.013523,0.002678,0.000431,0.000470
57438000,0.0324,0.013523,0.002678,0.000431,0.000470
57439000,0.0324,0.013523,0.002678,0.000431,0.000470
57440000,0.0324,0.013523,0.002678,0.000431,0.000470
57441000,0.0324,0.013523,0.002678,0.000431,0.000588
57442000,0.0324,0.013523,0.002678,0.000431,0.000470
57443000,0.0324,0.013523,0.002678,0.000431,0.000705
57444000,0.0324,0.013523,0.002678,0.000431,0.000235
57445000,0.0324,0.013523,0.002678,0.000431,0.000705
57446000,0.0324,0.013523,0.002678,0.000431,0.000353
57447000,0.0324,0.013523,0.002678,0.000431,0.000588
57448000,0.0324,0.013523,0.002678,0.000431,0.000353
57449000,0.0324,0.013523,0.002678,0.000431,0.000588
57450000,0.0324,0.013523,0.002678,0.000431,0.000353
57451000,0.0324,0.013523,0.002678,0.000431,0.000588
57452000,0.0324,0.013523,0.002678,0.000431,0.000353
57453000,0.0324,0.013523,0.002678,0.000431,0.000588
57454000,0.0324,0.013523,0.002678,0.000431,0.000353
57455000,0.0324,0.013523,0.002678,0.000431,0.000588
57456000,0.0324,0.013523,0.002678,0.000431,0.000353
57457000,0.0324,0.013523,0.002678,0.000431,0.000588
57458000,0.0324,0.013523,0.002678,0.000431,0.000353
57459000,0.0324,0.013523,0.002678,0.000431,0.000823
57460000,0.0324,0.013523,0.002678,0.000431,0.000235
57461000,0.0324,0.013523,0.002678,0.000431,0.000705
57462000,0.0324,0.013523,0.002678,0.000431,0.000353
57463000,0.0324,0.013523,0.002678,0.000431,0.000588
57464000,0.0324,0.013523,0.002678,0.000431,0.000353
57465000,0.0324,0.013523,0.002678,0.000431,0.000588
57466000,0.0324,0.013523,0.002678,0.000431,0.000353
57467000,0.0324,0.013523,0.002678,0.000431,0.000588
57468000,0.0324,0.013523,0.002678,0.000431,0.000353
57469000,0.0324,0.013523,0.002678,0.000431,0.000705
57470000,0.0324,0.013523,0.002678,0.000431,0.000353
57471000,0.0324,0.013523,0.002678,0.000431,0.000705
57472000,0.0324,0.013523,0.002678,0.000431,0.000353
57473000,0.0324,0.013523,0.002678,0.000431,0.000588
57474000,0.0324,0.013523,0.002678,0.000431,0.000353
57475000,0.0324,0.013523,0.002678,0.000431,0.000588
57476000,0.0324,0.013523,0.002678,0.000431,0.000353
57477000,0.0324,0.013523,0.002678,0.000431,0.000470
57478000,0.0324,0.013523,0.002678,0.000431,0.000470
57479000,0.0324,0.013523,0.002678,0.000431,0.000588
57480000,0.0324,0.013523,0.002678,0.000431,0.000470
57481000,0.0324,0.013523,0.002678,0.000431,0.000588
57482000,0.0324,0.013523,0.002678,0.000431,0.000353
57483000,0.0324,0.013523,0.002678,0.000431,0.000705
57484000,0.0324,0.013523,0.002678,0.000431,0.000353
57485000,0.0324,0.013523,0.002678,0.000431,0.000705
57486000,0.0324,0.013523,0.002678,0.000431,0.000470
57487000,0.0324,0.013523,0.002678,0.000431,0.000470
57488000,0.0324,0.013523,0.002678,0.000431,0.000470
57489000,0.0324,0.013523,0.002678,0.000431,0.000470
57490000,0.0324,0.013523,0.002678,0.000431,0.000470
57491000,0.0324,0.013523,0.002678,0.000431,0.000470
57492000,0.0324,0.013523,0.002678,0.000431,0.000353
57493000,0.0324,0.013523,0.002678,0.000431,0.000588
57494000,0.0324,0.013523,0.002678,0.000431,0.000353
57495000,0.0324,0.013523,0.002678,0.000431,0.000588
57496000,0.0324,0.013523,0.002678,0.000431,0.000353
57497000,0.0324,0.013523,0.002678,0.000431,0.000588
57498000,0.0324,0.013523,0.002678,0.000431,0.000353
57499000,0.0324,0.013523,0.002678,0.000431,0.000705
57500000,0.0324,0.013523,0.002678,0.000431,0.000353
57501000,0.0324,0.013523,0.002678,0.000431,0.000705
57502000,0.0324,0.013523,0.002678,0.000431,0.000588
57503000,0.0324,0.013523,0.002678,0.000431,0.000470
57504000,0.0324,0.013523,0.002678,0.000431,0.000588
57505000,0.0324,0.013523,0.002678,0.000431,0.000353
57506000,0.0324,0.013523,0.002678,0.000431,0.000705
57507000,0.0324,0.013523,0.002678,0.000431,0.000353
57508000,0.0324,0.013523,0.002678,0.000431,0.000705
57509000,0.0324,0.013523,0.002678,0.000431,0.000470
57510000,0.0324,0.013523,0.002678,0.000431,0.000470
57511000,0.0324,0.013523,0.002678,0.000431,0.000470
57512000,0.0324,0.013523,0.002678,0.000431,0.000470
57513000,0.0324,0.013523,0.002678,0.000431,0.000470
57514000,0.0324,0.013523,0.002678,0.000431,0.000470
57515000,0.0324,0.013523,0.002678,0.000431,0.000470
57516000,0.0324,0.013523,0.002678,0.000431,0.000470
57517000,0.0324,0.013523,0.002678,0.000431,0.000353
57518000,0.0324,0.013523,0.002678,0.000431,0.000470
57519000,0.0324,0.013523,0.002678,0.000431,0.000353
57520000,0.0324,0.013523,0.002678,0.000431,0.000588
57521000,0.0324,0.013523,0.002678,0.000431,0.000353
57522000,0.0324,0.013523,0.002678,0.000431,0.000588
57523000,0.0324,0.013523,0.002678,0.000431,0.000470
57524000,0.0324,0.013523,0.002678,0.000431,0.000588
57525000,0.0324,0.013523,0.002678,0.000431,0.000353
57526000,0.0324,0.013523,0.002678,0.000431,0.000705
57527000,0.0324,0.013523,0.002678,0.000431,0.000353
57528000,0.0324,0.013523,0.002678,0.000431,0.000588
57529000,0.0324,0.013523,0.002678,0.000431,0.000353
57530000,0.0324,0.013523,0.002678,0.000431,0.000588
57531000,0.0324,0.013523,0.002678,0.000431,0.000353
57532000,0.0324,0.013523,0.002678,0.000431,0.000588
57533000,0.0324,0.013523,0.002678,0.000431,0.000353
57534000,0.0324,0.013523,0.002678,0.000431,0.000588
57535000,0.0324,0.013523,0.002678,0.000431,0.000353
57536000,0.0324,0.013523,0.002678,0.000431,0.000588
57537000,0.0324,0.013523,0.002678,0.000431,0.000353
57538000,0.0324,0.013523,0.002678,0.000431,0.000470
57539000,0.0324,0.013523,0.002678,0.000431,0.000588
57540000,0.0324,0.013523,0.002678,0.000431,0.000470
57541000,0.0324,0.013523,0.002678,0.000431,0.000470
57542000,0.0324,0.013523,0.002678,0.000431,0.000588
57543000,0.0324,0.013523,0.002678,0.000431,0.000470
57544000,0.0324,0.013523,0.002678,0.000431,0.000353
57545000,0.0324,0.013523,0.002678,0.000431,0.000470
57546000,0.0324,0.013523,0.002678,0.000431,0.000353
57547000,0.0324,0.013523,0.002678,0.000431,0.000705
57548000,0.0324,0.013523,0.002678,0.000431,0.000353
57549000,0.0324,0.013523,0.002678,0.000431,0.000705
57550000,0.0324,0.013523,0.002678,0.000431,0.000353
57551000,0.0324,0.013523,0.002678,0.000431,0.000705
57552000,0.0324,0.013523,0.002678,0.000431,0.000470
57553000,0.0324,0.013523,0.002678,0.000431,0.000470
57554000,0.0324,0.013523,0.002678,0.000431,0.000470
57555000,0.0324,0.013523,0.002678,0.000431,0.000470
57556000,0.0324,0.013523,0.002678,0.000431,0.000470
57557000,0.0324,0.013523,0.002678,0.000431,0.000470
57558000,0.0324,0.013523,0.002678,0.000431,0.000470
57559000,0.0324,0.013523,0.002678,0.000431,0.000470
57560000,0.0324,0.013523,0.002678,0.000431,0.000470
57561000,0.0324,0.013523,0.002678,0.000431,0.000470
57562000,0.0324,0.013523,0.002678,0.000431,0.000470
57563000,0.0324,0.013523,0.002678,0.000431,0.000470
57564000,0.0324,0.013523,0.002678,0.000431,0.000353
57565000,0.0324,0.013523,0.002678,0.000431,0.000588
57566000,0.0324,0.013523,0.002678,0.000431,0.000353
57567000,0.0324,0.013523,0.002678,0.000431,0.000588
57568000,0.0324,0.013523,0.002678,0.000431,0.000353
57569000,0.0324,0.013523,0.002678,0.000431,0.000588
57570000,0.0324,0.013523,0.002678,0.000431,0.000353
57571000,0.0324,0.013523,0.002678,0.000431,0.000588
57572000,0.0324,0.013523,0.002678,0.000431,0.000353
57573000,0.0324,0.013523,0.002678,0.000431,0.000588
57574000,0.0324,0.013523,0.002678,0.000431,0.000353
57575000,0.0324,0.013523,0.002678,0.000431,0.000588
57576000,0.0324,0.013523,0.002678,0.000431,0.000353
57577000,0.0324,0.013523,0.002678,0.000431,0.000588
57578000,0.0324,0.013523,0.002678,0.000431,0.000353
57579000,0.0324,0.013523,0.002678,0.000431,0.000588
57580000,0.0324,0.013523,0.002678,0.000431,0.000353
57581000,0.0324,0.013523,0.002678,0.000431,0.000588
57582000,0.0324,0.013523,0.002678,0.000431,0.000353
57583000,0.0324,0.013523,0.002678,0.000431,0.000588
57584000,0.0324,0.013523,0.002678,0.000431,0.000353
57585000,0.0324,0.013523,0.002678,0.000431,0.000588
57586000,0.0324,0.013523,0.002678,0.000431,0.000353
57587000,0.0324,0.013523,0.002678,0.000431,0.000470
57588000,0.0324,0.013523,0.002678,0.000431,0.000470
57589000,0.0324,0.013523,0.002678,0.000431,0.000470
57590000,0.0324,0.013523,0.002678,0.000431,0.000470
57591000,0.0324,0.013523,0.002678,0.000431,0.000470
57592000,0.0324,0.013523,0.002678,0.000431,0.000470
57593000,0.0324,0.013523,0.002678,0.000431,0.000353
57594000,0.0324,0.013523,0.002678,0.000431,0.000588
57595000,0.0324,0.013523,0.002678,0.000431,0.000353
57596000,0.0324,0.013523,0.002678,0.000431,0.000705
57597000,0.0324,0.013523,0.002678,0.000431,0.000470
57598000,0.0324,0.013523,0.002678,0.000431,0.000470
57599000,0.0324,0.013523,0.002678,0.000431,0.000470
57600000,0.0324,0.013523,0.002678,0.000431,0.000588
57601000,0.0324,0.013523,0.002678,0.000431,0.000353
57602000,0.0324,0.013523,0.002678,0.000431,0.000588
57603000,0.0324,0.013523,0.002678,0.000431,0.000353
57604000,0.0324,0.013523,0.002678,0.000431,0.000588
57605000,0.0324,0.013523,0.002678,0.000431,0.000353
57606000,0.0324,0.013523,0.002678,0.000431,0.000470
57607000,0.0324,0.013523,0.002678,0.000431,0.000470
57608000,0.0324,0.013523,0.002678,0.000431,0.000588
57609000,0.0324,0.013523,0.002678,0.000431,0.000470
57610000,0.0324,0.013523,0.002678,0.000431,0.000588
57611000,0.0324,0.013523,0.002678,0.000431,0.000588
57612000,0.0324,0.013523,0.002678,0.000431,0.000470
57613000,0.0324,0.013523,0.002678,0.000431,0.000588
57614000,0.0324,0.013523,0.002678,0.000431,0.000353
57615000,0.0324,0.013523,0.002678,0.000431,0.000588
57616000,0.0324,0.013523,0.002678,0.000431,0.000353
57617000,0.0324,0.013523,0.002678,0.000431,0.000588
57618000,0.0324,0.013523,0.002678,0.000431,0.000353
57619000,0.0324,0.013523,0.002678,0.000431,0.000588
57620000,0.0324,0.013523,0.002678,0.000431,0.000353
57621000,0.0324,0.013523,0.002678,0.000431,0.000588
57622000,0.0324,0.013523,0.002678,0.000431,0.000353
57623000,0.0324,0.013523,0.002678,0.000431,0.000588
57624000,0.0324,0.013523,0.002678,0.000431,0.000353
57625000,0.0324,0.013523,0.002678,0.000431,0.000470
57626000,0.0324,0.013523,0.002678,0.000431,0.000470
57627000,0.0324,0.013523,0.002678,0.000431,0.000353
57628000,0.0324,0.013523,0.002678,0.000431,0.000705
57629000,0.0324,0.013523,0.002678,0.000431,0.000588
57630000,0.0324,0.013523,0.002678,0.000431,0.000470
57631000,0.0324,0.013523,0.002678,0.000431,0.000705
57632000,0.0324,0.013523,0.002678,0.000431,0.000353
57633000,0.0324,0.013523,0.002678,0.000431,0.000588
57634000,0.0324,0.013523,0.002678,0.000431,0.000353
57635000,0.0324,0.013523,0.002678,0.000431,0.000588
57636000,0.0324,0.013523,0.002678,0.000431,0.000470
57637000,0.0324,0.013523,0.002678,0.000431,0.000705
57638000,0.0324,0.013523,0.002678,0.000431,0.000353
57639000,0.0324,0.013523,0.002678,0.000431,0.000470
57640000,0.0324,0.013523,0.002678,0.000431,0.000470
57641000,0.0324,0.013523,0.002678,0.000431,0.000470
57642000,0.0324,0.013523,0.002678,0.000431,0.000470
57643000,0.0324,0.013523,0.002678,0.000431,0.000470
57644000,0.0324,0.013523,0.002678,0.000431,0.000353
57645000,0.0324,0.013523,0.002678,0.000431,0.000588
57646000,0.0324,0.013523,0.002678,0.000431,0.000470
57647000,0.0324,0.013523,0.002678,0.000431,0.000470
57648000,0.0324,0.013523,0.002678,0.000431,0.000470
57649000,0.0324,0.013523,0.002678,0.000431,0.000588
57650000,0.0324,0.013523,0.002678,0.000431,0.000470
57651000,0.0324,0.013523,0.002678,0.000431,0.000705
57652000,0.0324,0.013523,0.002678,0.000431,0.000353
57653000,0.0324,0.013523,0.002678,0.000431,0.000470
57654000,0.0324,0.013523,0.002678,0.000431,0.000470
57655000,0.0324,0.013523,0.002678,0.000431,0.000470
57656000,0.0324,0.013523,0.002678,0.000431,0.000470
57657000,0.0324,0.013523,0.002678,0.000431,0.000588
57658000,0.0324,0.013523,0.002678,0.000431,0.000470
57659000,0.0324,0.013523,0.002678,0.000431,0.000705
57660000,0.0324,0.013523,0.002678,0.000431,0.000353
57661000,0.0324,0.013523,0.002678,0.000431,0.000705
57662000,0.0324,0.013523,0.002678,0.000431,0.000588
57663000,0.0324,0.013523,0.002678,0.000431,0.000470
57664000,0.0324,0.013523,0.002678,0.000431,0.000470
57665000,0.0324,0.013523,0.002678,0.000431,0.000470
57666000,0.0324,0.013523,0.002678,0.000431,0.000705
57667000,0.0324,0.013523,0.002678,0.000431,0.000353
57668000,0.0324,0.013523,0.002678,0.000431,0.000588
57669000,0.0324,0.013523,0.002678,0.000431,0.000353
57670000,0.0324,0.013523,0.002678,0.000431,0.000705
57671000,0.0324,0.013523,0.002678,0.000431,0.000470
57672000,0.0324,0.013523,0.002678,0.000431,0.000353
57673000,0.0324,0.013523,0.002678,0.000431,0.000588
57674000,0.0324,0.013523,0.002678,0.000431,0.000353
57675000,0.0324,0.013523,0.002678,0.000431,0.000470
57676000,0.0324,0.013523,0.002678,0.000431,0.000470
57677000,0.0324,0.013523,0.002678,0.000431,0.000353
57678000,0.0324,0.013523,0.002678,0.000431,0.000588
57679000,0.0324,0.013523,0.002678,0.000431,0.000470
57680000,0.0324,0.013523,0.002678,0.000431,0.000588
57681000,0.0324,0.013523,0.002678,0.000431,0.000353
57682000,0.0324,0.013523,0.002678,0.000431,0.000470
57683000,0.0324,0.013523,0.002678,0.000431,0.000353
57684000,0.0324,0.013523,0.002678,0.000431,0.000588
57685000,0.0324,0.013523,0.002678,0.000431,0.000353
57686000,0.0324,0.013523,0.002678,0.000431,0.000588
57687000,0.0324,0.013523,0.002678,0.000431,0.000353
57688000,0.0324,0.013523,0.002678,0.000431,0.000588
57689000,0.0324,0.013523,0.002678,0.000431,0.000353
57690000,0.0324,0.013523,0.002678,0.000431,0.000588
57691000,0.0324,0.013523,0.002678,0.000431,0.000353
57692000,0.0324,0.013523,0.002678,0.000431,0.000588
57693000,0.0324,0.013523,0.002678,0.000431,0.000588
57694000,0.0324,0.013523,0.002678,0.000431,0.000470
57695000,0.0324,0.013523,0.002678,0.000431,0.000470
57696000,0.0324,0.013523,0.002678,0.000431,0.000470
57697000,0.0324,0.013523,0.002678,0.000431,0.000470
57698000,0.0324,0.013523,0.002678,0.000431,0.000588
57699000,0.0324,0.013523,0.002678,0.000431,0.000470
57700000,0.0324,0.013523,0.002678,0.000431,0.000588
57701000,0.0324,0.013523,0.002678,0.000431,0.000353
57702000,0.0324,0.013523,0.002678,0.000431,0.000588
57703000,0.0324,0.013523,0.002678,0.000431,0.000353
57704000,0.0324,0.013523,0.002678,0.000431,0.000588
57705000,0.0324,0.013523,0.002678,0.000431,0.000353
57706000,0.0324,0.013523,0.002678,0.000431,0.000588
57707000,0.0324,0.013523,0.002678,0.000431,0.000470
57708000,0.0324,0.013523,0.002678,0.000431,0.000470
57709000,0.0324,0.013523,0.002678,0.000431,0.000470
57710000,0.0324,0.013523,0.002678,0.000431,0.000353
57711000,0.0324,0.013523,0.002678,0.000431,0.000470
57712000,0.0324,0.013523,0.002678,0.000431,0.000470
57713000,0.0324,0.013523,0.002678,0.000431,0.000470
57714000,0.0324,0.013523,0.002678,0.000431,0.000353
57715000,0.0324,0.013523,0.002678,0.000431,0.000588
57716000,0.0324,0.013523,0.002678,0.000431,0.000353
57717000,0.0324,0.013523,0.002678,0.000431,0.000588
57718000,0.0324,0.013523,0.002678,0.000431,0.000353
57719000,0.0324,0.013523,0.002678,0.000431,0.000588
57720000,0.0324,0.013523,0.002678,0.000431,0.000353
57721000,0.0324,0.013523,0.002678,0.000431,0.000588
57722000,0.0324,0.013523,0.002678,0.000431,0.000353
57723000,0.0324,0.013523,0.002678,0.000431,0.000705
57724000,0.0324,0.013523,0.002678,0.000431,0.000588
57725000,0.0324,0.013523,0.002678,0.000431,0.000470
57726000,0.0324,0.013523,0.002678,0.000431,0.000588
57727000,0.0324,0.013523,0.002678,0.000431,0.000353
57728000,0.0324,0.013523,0.002678,0.000431,0.000470
57729000,0.0324,0.013523,0.002678,0.000431,0.000470
57730000,0.0324,0.013523,0.002678,0.000431,0.000470
57731000,0.0324,0.013523,0.002678,0.000431,0.000470
57732000,0.0324,0.013523,0.002678,0.000431,0.000353
57733000,0.0324,0.013523,0.002678,0.000431,0.000588
57734000,0.0324,0.013523,0.002678,0.000431,0.000353
57735000,0.0324,0.013523,0.002678,0.000431,0.000705
57736000,0.0324,0.013523,0.002678,0.000431,0.000588
57737000,0.0324,0.013523,0.002678,0.000431,0.000470
57738000,0.0324,0.013523,0.002678,0.000431,0.000588
57739000,0.0324,0.013523,0.002678,0.000431,0.000353
57740000,0.0324,0.013523,0.002678,0.000431,0.000705
57741000,0.0324,0.013523,0.002678,0.000431,0.000353
57742000,0.0324,0.013523,0.002678,0.000431,0.000588
57743000,0.0324,0.013523,0.002678,0.000431,0.000353
57744000,0.0324,0.013523,0.002678,0.000431,0.000588
57745000,0.0324,0.013523,0.002678,0.000431,0.000353
57746000,0.0324,0.013523,0.002678,0.000431,0.000588
57747000,0.0324,0.013523,0.002678,0.000431,0.000235
57748000,0.0324,0.013523,0.002678,0.000431,0.000705
57749000,0.0324,0.013523,0.002678,0.000431,0.000353
57750000,0.0324,0.013523,0.002678,0.000431,0.000705
57751000,0.0324,0.013523,0.002678,0.000431,0.000588
57752000,0.0324,0.013523,0.002678,0.000431,0.000470
57753000,0.0324,0.013523,0.002678,0.000431,0.000705
57754000,0.0324,0.013523,0.002678,0.000431,0.000353
57755000,0.0324,0.013523,0.002678,0.000431,0.000705
57756000,0.0324,0.013523,0.002678,0.000431,0.000470
57757000,0.0324,0.013523,0.002678,0.000431,0.000470
57758000,0.0324,0.013523,0.002678,0.000431,0.000470
57759000,0.0324,0.013523,0.002678,0.000431,0.000470
57760000,0.0324,0.013523,0.002678,0.000431,0.000353
57761000,0.0324,0.013523,0.002678,0.000431,0.000470
57762000,0.0324,0.013523,0.002678,0.000431,0.000353
57763000,0.0324,0.013523,0.002678,0.000431,0.000588
57764000,0.0324,0.013523,0.002678,0.000431,0.000353
57765000,0.0324,0.013523,0.002678,0.000431,0.000588
57766000,0.0324,0.013523,0.002678,0.000431,0.000353
57767000,0.0324,0.013523,0.002678,0.000431,0.000588
57768000,0.0324,0.013523,0.002678,0.000431,0.000353
57769000,0.0324,0.013523,0.002678,0.000431,0.000705
57770000,0.0324,0.013523,0.002678,0.000431,0.000588
57771000,0.0324,0.013523,0.002678,0.000431,0.000470
57772000,0.0324,0.013523,0.002678,0.000431,0.000588
57773000,0.0324,0.013523,0.002678,0.000431,0.000353
57774000,0.0324,0.013523,0.002678,0.000431,0.000470
57775000,0.0324,0.013523,0.002678,0.000431,0.000470
57776000,0.0324,0.013523,0.002678,0.000431,0.000353
57777000,0.0324,0.013523,0.002678,0.000431,0.000588
57778000,0.0324,0.013523,0.002678,0.000431,0.000353
57779000,0.0324,0.013523,0.002678,0.000431,0.000470
57780000,0.0324,0.013523,0.002678,0.000431,0.000470
57781000,0.0324,0.013523,0.002678,0.000431,0.000470
57782000,0.0324,0.013523,0.002678,0.000431,0.000470
57783000,0.0324,0.013523,0.002678,0.000431,0.000470
57784000,0.0324,0.013523,0.002678,0.000431,0.000470
57785000,0.0324,0.013523,0.002678,0.000431,0.000470
57786000,0.0324,0.013523,0.002678,0.000431,0.000470
57787000,0.0324,0.013523,0.002678,0.000431,0.000470
57788000,0.0324,0.013523,0.002678,0.000431,0.000470
57789000,0.0324,0.013523,0.002678,0.000431,0.000470
57790000,0.0324,0.013523,0.002678,0.000431,0.000470
57791000,0.0324,0.013523,0.002678,0.000431,0.000470
57792000,0.0324,0.013523,0.002678,0.000431,0.000353
57793000,0.0324,0.013523,0.002678,0.000431,0.000588
57794000,0.0324,0.013523,0.002678,0.000431,0.000353
57795000,0.0324,0.013523,0.002678,0.000431,0.000588
57796000,0.0324,0.013523,0.002678,0.000431,0.000353
57797000,0.0324,0.013523,0.002678,0.000431,0.000705
57798000,0.0324,0.013523,0.002678,0.000431,0.000353
57799000,0.0324,0.013523,0.002678,0.000431,0.000705
57800000,0.0324,0.013523,0.002678,0.000431,0.000588
57801000,0.0324,0.013523,0.002678,0.000431,0.000470
57802000,0.0324,0.013523,0.002678,0.000431,0.000470
57803000,0.0324,0.013523,0.002678,0.000431,0.000470
57804000,0.0324,0.013523,0.002678,0.000431,0.000470
57805000,0.0324,0.013523,0.002678,0.000431,0.000470
57806000,0.0324,0.013523,0.002678,0.000431,0.000353
57807000,0.0324,0.013523,0.002678,0.000431,0.000588
57808000,0.0324,0.013523,0.002678,0.000431,0.000353
57809000,0.0324,0.013523,0.002678,0.000431,0.000588
57810000,0.0324,0.013523,0.002678,0.000431,0.000353
57811000,0.0324,0.013523,0.002678,0.000431,0.000588
57812000,0.0324,0.013523,0.002678,0.000431,0.000353
57813000,0.0324,0.013523,0.002678,0.000431,0.000588
57814000,0.0324,0.013523,0.002678,0.000431,0.000353
57815000,0.0324,0.013523,0.002678,0.000431,0.000705
57816000,0.0324,0.013523,0.002678,0.000431,0.000353
57817000,0.0324,0.013523,0.002678,0.000431,0.000588
57818000,0.0324,0.013523,0.002678,0.000431,0.000588
57819000,0.0324,0.013523,0.002678,0.000431,0.000470
57820000,0.0324,0.013523,0.002678,0.000431,0.000353
57821000,0.0324,0.013523,0.002678,0.000431,0.000470
57822000,0.0324,0.013523,0.002678,0.000431,0.000470
57823000,0.0324,0.013523,0.002678,0.000431,0.000470
57824000,0.0324,0.013523,0.002678,0.000431,0.000470
57825000,0.0324,0.013523,0.002678,0.000431,0.000588
57826000,0.0324,0.013523,0.002678,0.000431,0.000353
57827000,0.0324,0.013523,0.002678,0.000431,0.000588
57828000,0.0324,0.013523,0.002678,0.000431,0.000353
57829000,0.0324,0.013523,0.002678,0.000431,0.000705
57830000,0.0324,0.013523,0.002678,0.000431,0.000588
57831000,0.0324,0.013523,0.002678,0.000431,0.000470
57832000,0.0324,0.013523,0.002678,0.000431,0.000470
57833000,0.0324,0.013523,0.002678,0.000431,0.000470
57834000,0.0324,0.013523,0.002678,0.000431,0.000470
57835000,0.0324,0.013523,0.002678,0.000431,0.000470
57836000,0.0324,0.013523,0.002678,0.000431,0.000353
57837000,0.0324,0.013523,0.002678,0.000431,0.000588
57838000,0.0324,0.013523,0.002678,0.000431,0.000353
57839000,0.0324,0.013523,0.002678,0.000431,0.000470
57840000,0.0324,0.013523,0.002678,0.000431,0.000470
57841000,0.0324,0.013523,0.002678,0.000431,0.000470
57842000,0.0324,0.013523,0.002678,0.000431,0.000470
57843000,0.0324,0.013523,0.002678,0.000431,0.000470
57844000,0.0324,0.013523,0.002678,0.000431,0.000470
57845000,0.0324,0.013523,0.002678,0.000431,0.000470
57846000,0.0324,0.013523,0.002678,0.000431,0.000470
57847000,0.0324,0.013523,0.002678,0.000431,0.000470
57848000,0.0324,0.013523,0.002678,0.000431,0.000470
57849000,0.0324,0.013523,0.002678,0.000431,0.000470
57850000,0.0324,0.013523,0.002678,0.000431,0.000470
57851000,0.0324,0.013523,0.002678,0.000431,0.000470
57852000,0.0324,0.013523,0.002678,0.000431,0.000353
57853000,0.0324,0.013523,0.002678,0.000431,0.000588
57854000,0.0324,0.013523,0.002678,0.000431,0.000353
57855000,0.0324,0.013523,0.002678,0.000431,0.000588
57856000,0.0324,0.013523,0.002678,0.000431,0.000235
57857000,0.0324,0.013523,0.002678,0.000431,0.000588
57858000,0.0324,0.013523,0.002678,0.000431,0.000353
57859000,0.0324,0.013523,0.002678,0.000431,0.000705
57860000,0.0324,0.013523,0.002678,0.000431,0.000235
57861000,0.0324,0.013523,0.002678,0.000431,0.000588
57862000,0.0324,0.013523,0.002678,0.000431,0.000353
57863000,0.0324,0.013523,0.002678,0.000431,0.000588
57864000,0.0324,0.013523,0.002678,0.000431,0.000353
57865000,0.0324,0.013523,0.002678,0.000431,0.000588
57866000,0.0324,0.013523,0.002678,0.000431,0.000353
57867000,0.0324,0.013523,0.002678,0.000431,0.000588
57868000,0.0324,0.013523,0.002678,0.000431,0.000470
57869000,0.0324,0.013523,0.002678,0.000431,0.000705
57870000,0.0324,0.013523,0.002678,0.000431,0.000353
57871000,0.0324,0.013523,0.002678,0.000431,0.000705
57872000,0.0324,0.013523,0.002678,0.000431,0.000470
57873000,0.0324,0.013523,0.002678,0.000431,0.000470
57874000,0.0324,0.013523,0.002678,0.000431,0.000470
57875000,0.0324,0.013523,0.002678,0.000431,0.000470
57876000,0.0324,0.013523,0.002678,0.000431,0.000470
57877000,0.0324,0.013523,0.002678,0.000431,0.000470
57878000,0.0324,0.013523,0.002678,0.000431,0.000470
57879000,0.0324,0.013523,0.002678,0.000431,0.000470
57880000,0.0324,0.013523,0.002678,0.000431,0.000470
57881000,0.0324,0.013523,0.002678,0.000431,0.000470
57882000,0.0324,0.013523,0.002678,0.000431,0.000470
57883000,0.0324,0.013523,0.002678,0.000431,0.000588
57884000,0.0324,0.013523,0.002678,0.000431,0.000588
57885000,0.0324,0.013523,0.002678,0.000431,0.000470
57886000,0.0324,0.013523,0.002678,0.000431,0.000470
57887000,0.0324,0.013523,0.002678,0.000431,0.000470
57888000,0.0324,0.013523,0.002678,0.000431,0.000353
57889000,0.0324,0.013523,0.002678,0.000431,0.000588
57890000,0.0324,0.013523,0.002678,0.000431,0.000353
57891000,0.0324,0.013523,0.002678,0.000431,0.000588
57892000,0.0324,0.013523,0.002678,0.000431,0.000353
57893000,0.0324,0.013523,0.002678,0.000431,0.000588
57894000,0.0324,0.013523,0.002678,0.000431,0.000353
57895000,0.0324,0.013523,0.002678,0.000431,0.000470
57896000,0.0324,0.013523,0.002678,0.000431,0.000470
57897000,0.0324,0.013523,0.002678,0.000431,0.000588
57898000,0.0324,0.013523,0.002678,0.000431,0.000353
57899000,0.0324,0.013523,0.002678,0.000431,0.000588
57900000,0.0324,0.013523,0.002678,0.000431,0.000353
57901000,0.0324,0.013523,0.002678,0.000431,0.000705
57902000,0.0324,0.013523,0.002678,0.000431,0.000353
57903000,0.0324,0.013523,0.002678,0.000431,0.000588
57904000,0.0324,0.013523,0.002678,0.000431,0.000353
57905000,0.0324,0.013523,0.002678,0.000431,0.000588
57906000,0.0324,0.013523,0.002678,0.000431,0.000353
57907000,0.0324,0.013523,0.002678,0.000431,0.000588
57908000,0.0324,0.013523,0.002678,0.000431,0.000353
57909000,0.0324,0.013523,0.002678,0.000431,0.000588
57910000,0.0324,0.013523,0.002678,0.000431,0.000353
57911000,0.0324,0.013523,0.002678,0.000431,0.000470
57912000,0.0324,0.013523,0.002678,0.000431,0.000470
57913000,0.0324,0.013523,0.002678,0.000431,0.000470
57914000,0.0324,0.013523,0.002678,0.000431,0.000470
57915000,0.0324,0.013523,0.002678,0.000431,0.000470
57916000,0.0324,0.013523,0.002678,0.000431,0.000470
57917000,0.0324,0.013523,0.002678,0.000431,0.000470
57918000,0.0324,0.013523,0.002678,0.000431,0.000470
57919000,0.0324,0.013523,0.002678,0.000431,0.000470
57920000,0.0324,0.013523,0.002678,0.000431,0.000470
57921000,0.0324,0.013523,0.002678,0.000431,0.000470
57922000,0.0324,0.013523,0.002678,0.000431,0.000470
57923000,0.0324,0.013523,0.002678,0.000431,0.000470
57924000,0.0324,0.013523,0.002678,0.000431,0.000588
57925000,0.0324,0.013523,0.002678,0.000431,0.000353
57926000,0.0324,0.013523,0.002678,0.000431,0.000588
57927000,0.0324,0.013523,0.002678,0.000431,0.000353
57928000,0.0324,0.013523,0.002678,0.000431,0.000588
57929000,0.0324,0.013523,0.002678,0.000431,0.000353
57930000,0.0324,0.013523,0.002678,0.000431,0.000470
57931000,0.0324,0.013523,0.002678,0.000431,0.000470
57932000,0.0324,0.013523,0.002678,0.000431,0.000470
57933000,0.0324,0.013523,0.002678,0.000431,0.000470
57934000,0.0324,0.013523,0.002678,0.000431,0.000470
57935000,0.0324,0.013523,0.002678,0.000431,0.000470
57936000,0.0324,0.013523,0.002678,0.000431,0.000705
57937000,0.0324,0.013523,0.002678,0.000431,0.000353
57938000,0.0324,0.013523,0.002678,0.000431,0.000470
57939000,0.0324,0.013523,0.002678,0.000431,0.000353
57940000,0.0324,0.013523,0.002678,0.000431,0.000588
57941000,0.0324,0.013523,0.002678,0.000431,0.000353
57942000,0.0324,0.013523,0.002678,0.000431,0.000588
57943000,0.0324,0.013523,0.002678,0.000431,0.000353
57944000,0.0324,0.013523,0.002678,0.000431,0.000705
57945000,0.0324,0.013523,0.002678,0.000431,0.000353
57946000,0.0324,0.013523,0.002678,0.000431,0.000588
57947000,0.0324,0.013523,0.002678,0.000431,0.000235
57948000,0.0324,0.013523,0.002678,0.000431,0.000588
57949000,0.0324,0.013523,0.002678,0.000431,0.000353
57950000,0.0324,0.013523,0.002678,0.000431,0.000705
57951000,0.0324,0.013523,0.002678,0.000431,0.000235
57952000,0.0324,0.013523,0.002678,0.000431,0.000823
57953000,0.0324,0.013523,0.002678,0.000431,0.000353
57954000,0.0324,0.013523,0.002678,0.000431,0.000588
57955000,0.0324,0.013523,0.002678,0.000431,0.000353
57956000,0.0324,0.013523,0.002678,0.000431,0.000705
57957000,0.0324,0.013523,0.002678,0.000431,0.000588
57958000,0.0324,0.013523,0.002678,0.000431,0.000470
57959000,0.0324,0.013523,0.002678,0.000431,0.000588
57960000,0.0324,0.013523,0.002678,0.000431,0.000353
57961000,0.0324,0.013523,0.002678,0.000431,0.000588
57962000,0.0324,0.013523,0.002678,0.000431,0.000353
57963000,0.0324,0.013523,0.002678,0.000431,0.000588
57964000,0.0324,0.013523,0.002678,0.000431,0.000353
57965000,0.0324,0.013523,0.002678,0.000431,0.000588
57966000,0.0324,0.013523,0.002678,0.000431,0.000353
57967000,0.0324,0.013523,0.002678,0.000431,0.000470
57968000,0.0324,0.013523,0.002678,0.000431,0.000470
57969000,0.0324,0.013523,0.002678,0.000431,0.000470
57970000,0.0324,0.013523,0.002678,0.000431,0.000470
57971000,0.0324,0.013523,0.002678,0.000431,0.000353
57972000,0.0324,0.013523,0.002678,0.000431,0.000588
57973000,0.0324,0.013523,0.002678,0.000431,0.000353
57974000,0.0324,0.013523,0.002678,0.000431,0.000588
57975000,0.0324,0.013523,0.002678,0.000431,0.000353
57976000,0.0324,0.013523,0.002678,0.000431,0.000588
57977000,0.0324,0.013523,0.002678,0.000431,0.000353
57978000,0.0324,0.013523,0.002678,0.000431,0.000588
57979000,0.0324,0.013523,0.002678,0.000431,0.000353
57980000,0.0324,0.013523,0.002678,0.000431,0.000588
57981000,0.0324,0.013523,0.002678,0.000431,0.000470
57982000,0.0324,0.013523,0.002678,0.000431,0.000588
57983000,0.0324,0.013523,0.002678,0.000431,0.000353
57984000,0.0324,0.013523,0.002678,0.000431,0.000470
57985000,0.0324,0.013523,0.002678,0.000431,0.000353
57986000,0.0324,0.013523,0.002678,0.000431,0.000588
57987000,0.0324,0.013523,0.002678,0.000431,0.000470
57988000,0.0324,0.013523,0.002678,0.000431,0.000470
57989000,0.0324,0.013523,0.002678,0.000431,0.000470
57990000,0.0324,0.013523,0.002678,0.000431,0.000705
57991000,0.0324,0.013523,0.002678,0.000431,0.000353
57992000,0.0324,0.013523,0.002678,0.000431,0.000705
57993000,0.0324,0.013523,0.002678,0.000431,0.000588
57994000,0.0324,0.013523,0.002678,0.000431,0.000470
57995000,0.0324,0.013523,0.002678,0.000431,0.000705
57996000,0.0324,0.013523,0.002678,0.000431,0.000353
57997000,0.0324,0.013523,0.002678,0.000431,0.000588
57998000,0.0324,0.013523,0.002678,0.000431,0.000353
57999000,0.0324,0.013523,0.002678,0.000431,0.000705
