Cycle,Area(mm^2),PeakDynamic(W),SubthresholdLeakage(W),GateLeakage(W),RunTimeDynamic(W)
7000000,0.0324,0.013523,0.002678,0.000431,0.011988
7001000,0.0324,0.013523,0.002678,0.000431,0.011870
7002000,0.0324,0.013523,0.002678,0.000431,0.012811
7003000,0.0324,0.013523,0.002678,0.000431,0.012223
7004000,0.0324,0.013523,0.002678,0.000431,0.012105
7005000,0.0324,0.013523,0.002678,0.000431,0.012105
7006000,0.0324,0.013523,0.002678,0.000431,0.012693
7007000,0.0324,0.013523,0.002678,0.000431,0.011400
7008000,0.0324,0.013523,0.002678,0.000431,0.012576
7009000,0.0324,0.013523,0.002678,0.000431,0.012105
7010000,0.0324,0.013523,0.002678,0.000431,0.012105
7011000,0.0324,0.013523,0.002678,0.000431,0.011753
7012000,0.0324,0.013523,0.002678,0.000431,0.011870
7013000,0.0324,0.013523,0.002678,0.000431,0.013398
7014000,0.0324,0.013523,0.002678,0.000431,0.011870
7015000,0.0324,0.013523,0.002678,0.000431,0.011165
7016000,0.0324,0.013523,0.002678,0.000431,0.012105
7017000,0.0324,0.013523,0.002678,0.000431,0.012811
7018000,0.0324,0.013523,0.002678,0.000431,0.011400
7019000,0.0324,0.013523,0.002678,0.000431,0.012576
7020000,0.0324,0.013523,0.002678,0.000431,0.011753
7021000,0.0324,0.013523,0.002678,0.000431,0.012223
7022000,0.0324,0.013523,0.002678,0.000431,0.012340
7023000,0.0324,0.013523,0.002678,0.000431,0.012105
7024000,0.0324,0.013523,0.002678,0.000431,0.012811
7025000,0.0324,0.013523,0.002678,0.000431,0.011635
7026000,0.0324,0.013523,0.002678,0.000431,0.012223
7027000,0.0324,0.013523,0.002678,0.000431,0.012340
7028000,0.0324,0.013523,0.002678,0.000431,0.011635
7029000,0.0324,0.013523,0.002678,0.000431,0.012223
7030000,0.0324,0.013523,0.002678,0.000431,0.011870
7031000,0.0324,0.013523,0.002678,0.000431,0.012576
7032000,0.0324,0.013523,0.002678,0.000431,0.012458
7033000,0.0324,0.013523,0.002678,0.000431,0.012458
7034000,0.0324,0.013523,0.002678,0.000431,0.012458
7035000,0.0324,0.013523,0.002678,0.000431,0.011283
7036000,0.0324,0.013523,0.002678,0.000431,0.013868
7037000,0.0324,0.013523,0.002678,0.000431,0.012458
7038000,0.0324,0.013523,0.002678,0.000431,0.012458
7039000,0.0324,0.013523,0.002678,0.000431,0.011870
7040000,0.0324,0.013523,0.002678,0.000431,0.012928
7041000,0.0324,0.013523,0.002678,0.000431,0.012105
7042000,0.0324,0.013523,0.002678,0.000431,0.012693
7043000,0.0324,0.013523,0.002678,0.000431,0.012105
7044000,0.0324,0.013523,0.002678,0.000431,0.013516
7045000,0.0324,0.013523,0.002678,0.000431,0.011165
7046000,0.0324,0.013523,0.002678,0.000431,0.012340
7047000,0.0324,0.013523,0.002678,0.000431,0.012693
7048000,0.0324,0.013523,0.002678,0.000431,0.012340
7049000,0.0324,0.013523,0.002678,0.000431,0.012340
7050000,0.0324,0.013523,0.002678,0.000431,0.013046
7051000,0.0324,0.013523,0.002678,0.000431,0.012811
7052000,0.0324,0.013523,0.002678,0.000431,0.012811
7053000,0.0324,0.013523,0.002678,0.000431,0.011870
7054000,0.0324,0.013523,0.002678,0.000431,0.012458
7055000,0.0324,0.013523,0.002678,0.000431,0.012928
7056000,0.0324,0.013523,0.002678,0.000431,0.011518
7057000,0.0324,0.013523,0.002678,0.000431,0.012928
7058000,0.0324,0.013523,0.002678,0.000431,0.011400
7059000,0.0324,0.013523,0.002678,0.000431,0.013163
7060000,0.0324,0.013523,0.002678,0.000431,0.013281
7061000,0.0324,0.013523,0.002678,0.000431,0.011753
7062000,0.0324,0.013523,0.002678,0.000431,0.011048
7063000,0.0324,0.013523,0.002678,0.000431,0.013046
7064000,0.0324,0.013523,0.002678,0.000431,0.011870
7065000,0.0324,0.013523,0.002678,0.000431,0.013633
7066000,0.0324,0.013523,0.002678,0.000431,0.010695
7067000,0.0324,0.013523,0.002678,0.000431,0.014691
7068000,0.0324,0.013523,0.002678,0.000431,0.011165
7069000,0.0324,0.013523,0.002678,0.000431,0.013046
7070000,0.0324,0.013523,0.002678,0.000431,0.011870
7071000,0.0324,0.013523,0.002678,0.000431,0.013986
7072000,0.0324,0.013523,0.002678,0.000431,0.011870
7073000,0.0324,0.013523,0.002678,0.000431,0.011870
7074000,0.0324,0.013523,0.002678,0.000431,0.013046
7075000,0.0324,0.013523,0.002678,0.000431,0.013868
7076000,0.0324,0.013523,0.002678,0.000431,0.010930
7077000,0.0324,0.013523,0.002678,0.000431,0.012576
7078000,0.0324,0.013523,0.002678,0.000431,0.013398
7079000,0.0324,0.013523,0.002678,0.000431,0.011400
7080000,0.0324,0.013523,0.002678,0.000431,0.011988
7081000,0.0324,0.013523,0.002678,0.000431,0.012340
7082000,0.0324,0.013523,0.002678,0.000431,0.012811
7083000,0.0324,0.013523,0.002678,0.000431,0.012693
7084000,0.0324,0.013523,0.002678,0.000431,0.012223
7085000,0.0324,0.013523,0.002678,0.000431,0.011988
7086000,0.0324,0.013523,0.002678,0.000431,0.012458
7087000,0.0324,0.013523,0.002678,0.000431,0.012811
7088000,0.0324,0.013523,0.002678,0.000431,0.013281
7089000,0.0324,0.013523,0.002678,0.000431,0.010460
7090000,0.0324,0.013523,0.002678,0.000431,0.013046
7091000,0.0324,0.013523,0.002678,0.000431,0.012693
7092000,0.0324,0.013523,0.002678,0.000431,0.013751
7093000,0.0324,0.013523,0.002678,0.000431,0.011283
7094000,0.0324,0.013523,0.002678,0.000431,0.013751
7095000,0.0324,0.013523,0.002678,0.000431,0.012223
7096000,0.0324,0.013523,0.002678,0.000431,0.012105
7097000,0.0324,0.013523,0.002678,0.000431,0.012223
7098000,0.0324,0.013523,0.002678,0.000431,0.012693
7099000,0.0324,0.013523,0.002678,0.000431,0.011400
7100000,0.0324,0.013523,0.002678,0.000431,0.012693
7101000,0.0324,0.013523,0.002678,0.000431,0.012105
7102000,0.0324,0.013523,0.002678,0.000431,0.013633
7103000,0.0324,0.013523,0.002678,0.000431,0.011165
7104000,0.0324,0.013523,0.002678,0.000431,0.011518
7105000,0.0324,0.013523,0.002678,0.000431,0.011870
7106000,0.0324,0.013523,0.002678,0.000431,0.012811
7107000,0.0324,0.013523,0.002678,0.000431,0.012811
7108000,0.0324,0.013523,0.002678,0.000431,0.012105
7109000,0.0324,0.013523,0.002678,0.000431,0.012576
7110000,0.0324,0.013523,0.002678,0.000431,0.011518
7111000,0.0324,0.013523,0.002678,0.000431,0.013163
7112000,0.0324,0.013523,0.002678,0.000431,0.011635
7113000,0.0324,0.013523,0.002678,0.000431,0.011400
7114000,0.0324,0.013523,0.002678,0.000431,0.011400
7115000,0.0324,0.013523,0.002678,0.000431,0.012928
7116000,0.0324,0.013523,0.002678,0.000431,0.011870
7117000,0.0324,0.013523,0.002678,0.000431,0.012105
7118000,0.0324,0.013523,0.002678,0.000431,0.013163
7119000,0.0324,0.013523,0.002678,0.000431,0.012693
7120000,0.0324,0.013523,0.002678,0.000431,0.011518
7121000,0.0324,0.013523,0.002678,0.000431,0.012928
7122000,0.0324,0.013523,0.002678,0.000431,0.012105
7123000,0.0324,0.013523,0.002678,0.000431,0.011988
7124000,0.0324,0.013523,0.002678,0.000431,0.011635
7125000,0.0324,0.013523,0.002678,0.000431,0.013281
7126000,0.0324,0.013523,0.002678,0.000431,0.012576
7127000,0.0324,0.013523,0.002678,0.000431,0.011870
7128000,0.0324,0.013523,0.002678,0.000431,0.011635
7129000,0.0324,0.013523,0.002678,0.000431,0.012928
7130000,0.0324,0.013523,0.002678,0.000431,0.012340
7131000,0.0324,0.013523,0.002678,0.000431,0.012223
7132000,0.0324,0.013523,0.002678,0.000431,0.011283
7133000,0.0324,0.013523,0.002678,0.000431,0.012340
7134000,0.0324,0.013523,0.002678,0.000431,0.011518
7135000,0.0324,0.013523,0.002678,0.000431,0.013516
7136000,0.0324,0.013523,0.002678,0.000431,0.011753
7137000,0.0324,0.013523,0.002678,0.000431,0.010813
7138000,0.0324,0.013523,0.002678,0.000431,0.013516
7139000,0.0324,0.013523,0.002678,0.000431,0.012458
7140000,0.0324,0.013523,0.002678,0.000431,0.012105
7141000,0.0324,0.013523,0.002678,0.000431,0.012223
7142000,0.0324,0.013523,0.002678,0.000431,0.012928
7143000,0.0324,0.013523,0.002678,0.000431,0.011870
7144000,0.0324,0.013523,0.002678,0.000431,0.013046
7145000,0.0324,0.013523,0.002678,0.000431,0.011988
7146000,0.0324,0.013523,0.002678,0.000431,0.011400
7147000,0.0324,0.013523,0.002678,0.000431,0.011635
7148000,0.0324,0.013523,0.002678,0.000431,0.011635
7149000,0.0324,0.013523,0.002678,0.000431,0.013633
7150000,0.0324,0.013523,0.002678,0.000431,0.012223
7151000,0.0324,0.013523,0.002678,0.000431,0.011048
7152000,0.0324,0.013523,0.002678,0.000431,0.012458
7153000,0.0324,0.013523,0.002678,0.000431,0.013751
7154000,0.0324,0.013523,0.002678,0.000431,0.011048
7155000,0.0324,0.013523,0.002678,0.000431,0.011635
7156000,0.0324,0.013523,0.002678,0.000431,0.013398
7157000,0.0324,0.013523,0.002678,0.000431,0.010813
7158000,0.0324,0.013523,0.002678,0.000431,0.013398
7159000,0.0324,0.013523,0.002678,0.000431,0.012458
7160000,0.0324,0.013523,0.002678,0.000431,0.012105
7161000,0.0324,0.013523,0.002678,0.000431,0.011988
7162000,0.0324,0.013523,0.002678,0.000431,0.012105
7163000,0.0324,0.013523,0.002678,0.000431,0.013751
7164000,0.0324,0.013523,0.002678,0.000431,0.011635
7165000,0.0324,0.013523,0.002678,0.000431,0.011988
7166000,0.0324,0.013523,0.002678,0.000431,0.012811
7167000,0.0324,0.013523,0.002678,0.000431,0.012458
7168000,0.0324,0.013523,0.002678,0.000431,0.011165
7169000,0.0324,0.013523,0.002678,0.000431,0.012928
7170000,0.0324,0.013523,0.002678,0.000431,0.011988
7171000,0.0324,0.013523,0.002678,0.000431,0.011635
7172000,0.0324,0.013523,0.002678,0.000431,0.012458
7173000,0.0324,0.013523,0.002678,0.000431,0.012105
7174000,0.0324,0.013523,0.002678,0.000431,0.011870
7175000,0.0324,0.013523,0.002678,0.000431,0.010930
7176000,0.0324,0.013523,0.002678,0.000431,0.013751
7177000,0.0324,0.013523,0.002678,0.000431,0.012693
7178000,0.0324,0.013523,0.002678,0.000431,0.011988
7179000,0.0324,0.013523,0.002678,0.000431,0.012105
7180000,0.0324,0.013523,0.002678,0.000431,0.013281
7181000,0.0324,0.013523,0.002678,0.000431,0.012693
7182000,0.0324,0.013523,0.002678,0.000431,0.012458
7183000,0.0324,0.013523,0.002678,0.000431,0.011518
7184000,0.0324,0.013523,0.002678,0.000431,0.012223
7185000,0.0324,0.013523,0.002678,0.000431,0.011518
7186000,0.0324,0.013523,0.002678,0.000431,0.013868
7187000,0.0324,0.013523,0.002678,0.000431,0.012105
7188000,0.0324,0.013523,0.002678,0.000431,0.012105
7189000,0.0324,0.013523,0.002678,0.000431,0.011635
7190000,0.0324,0.013523,0.002678,0.000431,0.012928
7191000,0.0324,0.013523,0.002678,0.000431,0.011870
7192000,0.0324,0.013523,0.002678,0.000431,0.012576
7193000,0.0324,0.013523,0.002678,0.000431,0.012928
7194000,0.0324,0.013523,0.002678,0.000431,0.012105
7195000,0.0324,0.013523,0.002678,0.000431,0.011870
7196000,0.0324,0.013523,0.002678,0.000431,0.013281
7197000,0.0324,0.013523,0.002678,0.000431,0.011988
7198000,0.0324,0.013523,0.002678,0.000431,0.011988
7199000,0.0324,0.013523,0.002678,0.000431,0.012576
7200000,0.0324,0.013523,0.002678,0.000431,0.013868
7201000,0.0324,0.013523,0.002678,0.000431,0.012105
7202000,0.0324,0.013523,0.002678,0.000431,0.012458
7203000,0.0324,0.013523,0.002678,0.000431,0.012811
7204000,0.0324,0.013523,0.002678,0.000431,0.012811
7205000,0.0324,0.013523,0.002678,0.000431,0.012811
7206000,0.0324,0.013523,0.002678,0.000431,0.010460
7207000,0.0324,0.013523,0.002678,0.000431,0.013516
7208000,0.0324,0.013523,0.002678,0.000431,0.010578
7209000,0.0324,0.013523,0.002678,0.000431,0.013046
7210000,0.0324,0.013523,0.002678,0.000431,0.010930
7211000,0.0324,0.013523,0.002678,0.000431,0.013163
7212000,0.0324,0.013523,0.002678,0.000431,0.010342
7213000,0.0324,0.013523,0.002678,0.000431,0.012693
7214000,0.0324,0.013523,0.002678,0.000431,0.011870
7215000,0.0324,0.013523,0.002678,0.000431,0.012576
7216000,0.0324,0.013523,0.002678,0.000431,0.010342
7217000,0.0324,0.013523,0.002678,0.000431,0.012693
7218000,0.0324,0.013523,0.002678,0.000431,0.011048
7219000,0.0324,0.013523,0.002678,0.000431,0.012693
7220000,0.0324,0.013523,0.002678,0.000431,0.012340
7221000,0.0324,0.013523,0.002678,0.000431,0.011635
7222000,0.0324,0.013523,0.002678,0.000431,0.010813
7223000,0.0324,0.013523,0.002678,0.000431,0.012928
7224000,0.0324,0.013523,0.002678,0.000431,0.012458
7225000,0.0324,0.013523,0.002678,0.000431,0.011870
7226000,0.0324,0.013523,0.002678,0.000431,0.011048
7227000,0.0324,0.013523,0.002678,0.000431,0.012458
7228000,0.0324,0.013523,0.002678,0.000431,0.013163
7229000,0.0324,0.013523,0.002678,0.000431,0.010460
7230000,0.0324,0.013523,0.002678,0.000431,0.013281
7231000,0.0324,0.013523,0.002678,0.000431,0.011870
7232000,0.0324,0.013523,0.002678,0.000431,0.011048
7233000,0.0324,0.013523,0.002678,0.000431,0.012340
7234000,0.0324,0.013523,0.002678,0.000431,0.012576
7235000,0.0324,0.013523,0.002678,0.000431,0.010460
7236000,0.0324,0.013523,0.002678,0.000431,0.013163
7237000,0.0324,0.013523,0.002678,0.000431,0.011518
7238000,0.0324,0.013523,0.002678,0.000431,0.013163
7239000,0.0324,0.013523,0.002678,0.000431,0.010813
7240000,0.0324,0.013523,0.002678,0.000431,0.012340
7241000,0.0324,0.013523,0.002678,0.000431,0.011518
7242000,0.0324,0.013523,0.002678,0.000431,0.012576
7243000,0.0324,0.013523,0.002678,0.000431,0.011283
7244000,0.0324,0.013523,0.002678,0.000431,0.012223
7245000,0.0324,0.013523,0.002678,0.000431,0.011988
7246000,0.0324,0.013523,0.002678,0.000431,0.012576
7247000,0.0324,0.013523,0.002678,0.000431,0.011753
7248000,0.0324,0.013523,0.002678,0.000431,0.012340
7249000,0.0324,0.013523,0.002678,0.000431,0.011753
7250000,0.0324,0.013523,0.002678,0.000431,0.011988
7251000,0.0324,0.013523,0.002678,0.000431,0.011753
7252000,0.0324,0.013523,0.002678,0.000431,0.011988
7253000,0.0324,0.013523,0.002678,0.000431,0.012458
7254000,0.0324,0.013523,0.002678,0.000431,0.011165
7255000,0.0324,0.013523,0.002678,0.000431,0.012458
7256000,0.0324,0.013523,0.002678,0.000431,0.011753
7257000,0.0324,0.013523,0.002678,0.000431,0.013281
7258000,0.0324,0.013523,0.002678,0.000431,0.011165
7259000,0.0324,0.013523,0.002678,0.000431,0.011518
7260000,0.0324,0.013523,0.002678,0.000431,0.011165
7261000,0.0324,0.013523,0.002678,0.000431,0.013633
7262000,0.0324,0.013523,0.002678,0.000431,0.010930
7263000,0.0324,0.013523,0.002678,0.000431,0.012693
7264000,0.0324,0.013523,0.002678,0.000431,0.010813
7265000,0.0324,0.013523,0.002678,0.000431,0.012223
7266000,0.0324,0.013523,0.002678,0.000431,0.011870
7267000,0.0324,0.013523,0.002678,0.000431,0.011988
7268000,0.0324,0.013523,0.002678,0.000431,0.011518
7269000,0.0324,0.013523,0.002678,0.000431,0.011635
7270000,0.0324,0.013523,0.002678,0.000431,0.011988
7271000,0.0324,0.013523,0.002678,0.000431,0.011635
7272000,0.0324,0.013523,0.002678,0.000431,0.012223
7273000,0.0324,0.013523,0.002678,0.000431,0.011400
7274000,0.0324,0.013523,0.002678,0.000431,0.011753
7275000,0.0324,0.013523,0.002678,0.000431,0.012576
7276000,0.0324,0.013523,0.002678,0.000431,0.012105
7277000,0.0324,0.013523,0.002678,0.000431,0.011048
7278000,0.0324,0.013523,0.002678,0.000431,0.012105
7279000,0.0324,0.013523,0.002678,0.000431,0.011048
7280000,0.0324,0.013523,0.002678,0.000431,0.013163
7281000,0.0324,0.013523,0.002678,0.000431,0.011753
7282000,0.0324,0.013523,0.002678,0.000431,0.012458
7283000,0.0324,0.013523,0.002678,0.000431,0.009872
7284000,0.0324,0.013523,0.002678,0.000431,0.014221
7285000,0.0324,0.013523,0.002678,0.000431,0.011048
7286000,0.0324,0.013523,0.002678,0.000431,0.013281
7287000,0.0324,0.013523,0.002678,0.000431,0.010225
7288000,0.0324,0.013523,0.002678,0.000431,0.013046
7289000,0.0324,0.013523,0.002678,0.000431,0.010695
7290000,0.0324,0.013523,0.002678,0.000431,0.012458
7291000,0.0324,0.013523,0.002678,0.000431,0.011870
7292000,0.0324,0.013523,0.002678,0.000431,0.011870
7293000,0.0324,0.013523,0.002678,0.000431,0.011988
7294000,0.0324,0.013523,0.002678,0.000431,0.011518
7295000,0.0324,0.013523,0.002678,0.000431,0.011283
7296000,0.0324,0.013523,0.002678,0.000431,0.012105
7297000,0.0324,0.013523,0.002678,0.000431,0.011048
7298000,0.0324,0.013523,0.002678,0.000431,0.012105
7299000,0.0324,0.013523,0.002678,0.000431,0.011870
7300000,0.0324,0.013523,0.002678,0.000431,0.011048
7301000,0.0324,0.013523,0.002678,0.000431,0.012576
7302000,0.0324,0.013523,0.002678,0.000431,0.011635
7303000,0.0324,0.013523,0.002678,0.000431,0.012576
7304000,0.0324,0.013523,0.002678,0.000431,0.012105
7305000,0.0324,0.013523,0.002678,0.000431,0.011870
7306000,0.0324,0.013523,0.002678,0.000431,0.011165
7307000,0.0324,0.013523,0.002678,0.000431,0.011988
7308000,0.0324,0.013523,0.002678,0.000431,0.011988
7309000,0.0324,0.013523,0.002678,0.000431,0.012458
7310000,0.0324,0.013523,0.002678,0.000431,0.010930
7311000,0.0324,0.013523,0.002678,0.000431,0.011870
7312000,0.0324,0.013523,0.002678,0.000431,0.011988
7313000,0.0324,0.013523,0.002678,0.000431,0.012105
7314000,0.0324,0.013523,0.002678,0.000431,0.010930
7315000,0.0324,0.013523,0.002678,0.000431,0.012928
7316000,0.0324,0.013523,0.002678,0.000431,0.011988
7317000,0.0324,0.013523,0.002678,0.000431,0.011635
7318000,0.0324,0.013523,0.002678,0.000431,0.011753
7319000,0.0324,0.013523,0.002678,0.000431,0.012458
7320000,0.0324,0.013523,0.002678,0.000431,0.010578
7321000,0.0324,0.013523,0.002678,0.000431,0.012693
7322000,0.0324,0.013523,0.002678,0.000431,0.011635
7323000,0.0324,0.013523,0.002678,0.000431,0.011635
7324000,0.0324,0.013523,0.002678,0.000431,0.011518
7325000,0.0324,0.013523,0.002678,0.000431,0.010578
7326000,0.0324,0.013523,0.002678,0.000431,0.012223
7327000,0.0324,0.013523,0.002678,0.000431,0.012105
7328000,0.0324,0.013523,0.002678,0.000431,0.011988
7329000,0.0324,0.013523,0.002678,0.000431,0.011165
7330000,0.0324,0.013523,0.002678,0.000431,0.012458
7331000,0.0324,0.013523,0.002678,0.000431,0.012223
7332000,0.0324,0.013523,0.002678,0.000431,0.012340
7333000,0.0324,0.013523,0.002678,0.000431,0.010930
7334000,0.0324,0.013523,0.002678,0.000431,0.011635
7335000,0.0324,0.013523,0.002678,0.000431,0.010930
7336000,0.0324,0.013523,0.002678,0.000431,0.013046
7337000,0.0324,0.013523,0.002678,0.000431,0.010930
7338000,0.0324,0.013523,0.002678,0.000431,0.011870
7339000,0.0324,0.013523,0.002678,0.000431,0.011870
7340000,0.0324,0.013523,0.002678,0.000431,0.011870
7341000,0.0324,0.013523,0.002678,0.000431,0.011048
7342000,0.0324,0.013523,0.002678,0.000431,0.012340
7343000,0.0324,0.013523,0.002678,0.000431,0.011283
7344000,0.0324,0.013523,0.002678,0.000431,0.011283
7345000,0.0324,0.013523,0.002678,0.000431,0.011753
7346000,0.0324,0.013523,0.002678,0.000431,0.011870
7347000,0.0324,0.013523,0.002678,0.000431,0.012105
7348000,0.0324,0.013523,0.002678,0.000431,0.010107
7349000,0.0324,0.013523,0.002678,0.000431,0.012576
7350000,0.0324,0.013523,0.002678,0.000431,0.012576
7351000,0.0324,0.013523,0.002678,0.000431,0.011635
7352000,0.0324,0.013523,0.002678,0.000431,0.011048
7353000,0.0324,0.013523,0.002678,0.000431,0.012340
7354000,0.0324,0.013523,0.002678,0.000431,0.011400
7355000,0.0324,0.013523,0.002678,0.000431,0.011635
7356000,0.0324,0.013523,0.002678,0.000431,0.010930
7357000,0.0324,0.013523,0.002678,0.000431,0.012105
7358000,0.0324,0.013523,0.002678,0.000431,0.011635
7359000,0.0324,0.013523,0.002678,0.000431,0.012458
7360000,0.0324,0.013523,0.002678,0.000431,0.012223
7361000,0.0324,0.013523,0.002678,0.000431,0.011870
7362000,0.0324,0.013523,0.002678,0.000431,0.010695
7363000,0.0324,0.013523,0.002678,0.000431,0.011753
7364000,0.0324,0.013523,0.002678,0.000431,0.012811
7365000,0.0324,0.013523,0.002678,0.000431,0.011870
7366000,0.0324,0.013523,0.002678,0.000431,0.010813
7367000,0.0324,0.013523,0.002678,0.000431,0.012223
7368000,0.0324,0.013523,0.002678,0.000431,0.011400
7369000,0.0324,0.013523,0.002678,0.000431,0.011870
7370000,0.0324,0.013523,0.002678,0.000431,0.011753
7371000,0.0324,0.013523,0.002678,0.000431,0.011048
7372000,0.0324,0.013523,0.002678,0.000431,0.011870
7373000,0.0324,0.013523,0.002678,0.000431,0.011753
7374000,0.0324,0.013523,0.002678,0.000431,0.012223
7375000,0.0324,0.013523,0.002678,0.000431,0.010342
7376000,0.0324,0.013523,0.002678,0.000431,0.013046
7377000,0.0324,0.013523,0.002678,0.000431,0.011400
7378000,0.0324,0.013523,0.002678,0.000431,0.012458
7379000,0.0324,0.013523,0.002678,0.000431,0.009872
7380000,0.0324,0.013523,0.002678,0.000431,0.012458
7381000,0.0324,0.013523,0.002678,0.000431,0.011518
7382000,0.0324,0.013523,0.002678,0.000431,0.011988
7383000,0.0324,0.013523,0.002678,0.000431,0.011400
7384000,0.0324,0.013523,0.002678,0.000431,0.012693
7385000,0.0324,0.013523,0.002678,0.000431,0.009872
7386000,0.0324,0.013523,0.002678,0.000431,0.012811
7387000,0.0324,0.013523,0.002678,0.000431,0.011518
7388000,0.0324,0.013523,0.002678,0.000431,0.012458
7389000,0.0324,0.013523,0.002678,0.000431,0.011048
7390000,0.0324,0.013523,0.002678,0.000431,0.012811
7391000,0.0324,0.013523,0.002678,0.000431,0.010930
7392000,0.0324,0.013523,0.002678,0.000431,0.012340
7393000,0.0324,0.013523,0.002678,0.000431,0.010930
7394000,0.0324,0.013523,0.002678,0.000431,0.012340
7395000,0.0324,0.013523,0.002678,0.000431,0.011400
7396000,0.0324,0.013523,0.002678,0.000431,0.010695
7397000,0.0324,0.013523,0.002678,0.000431,0.013163
7398000,0.0324,0.013523,0.002678,0.000431,0.011165
7399000,0.0324,0.013523,0.002678,0.000431,0.011870
7400000,0.0324,0.013523,0.002678,0.000431,0.011165
7401000,0.0324,0.013523,0.002678,0.000431,0.014103
7402000,0.0324,0.013523,0.002678,0.000431,0.010342
7403000,0.0324,0.013523,0.002678,0.000431,0.011283
7404000,0.0324,0.013523,0.002678,0.000431,0.011048
7405000,0.0324,0.013523,0.002678,0.000431,0.011870
7406000,0.0324,0.013523,0.002678,0.000431,0.011518
7407000,0.0324,0.013523,0.002678,0.000431,0.012340
7408000,0.0324,0.013523,0.002678,0.000431,0.011518
7409000,0.0324,0.013523,0.002678,0.000431,0.011988
7410000,0.0324,0.013523,0.002678,0.000431,0.011048
7411000,0.0324,0.013523,0.002678,0.000431,0.012576
7412000,0.0324,0.013523,0.002678,0.000431,0.011518
7413000,0.0324,0.013523,0.002678,0.000431,0.011283
7414000,0.0324,0.013523,0.002678,0.000431,0.011400
7415000,0.0324,0.013523,0.002678,0.000431,0.012105
7416000,0.0324,0.013523,0.002678,0.000431,0.011753
7417000,0.0324,0.013523,0.002678,0.000431,0.012105
7418000,0.0324,0.013523,0.002678,0.000431,0.012223
7419000,0.0324,0.013523,0.002678,0.000431,0.011518
7420000,0.0324,0.013523,0.002678,0.000431,0.012223
7421000,0.0324,0.013523,0.002678,0.000431,0.011518
7422000,0.0324,0.013523,0.002678,0.000431,0.011753
7423000,0.0324,0.013523,0.002678,0.000431,0.010930
7424000,0.0324,0.013523,0.002678,0.000431,0.011988
7425000,0.0324,0.013523,0.002678,0.000431,0.012223
7426000,0.0324,0.013523,0.002678,0.000431,0.010930
7427000,0.0324,0.013523,0.002678,0.000431,0.011635
7428000,0.0324,0.013523,0.002678,0.000431,0.013046
7429000,0.0324,0.013523,0.002678,0.000431,0.010578
7430000,0.0324,0.013523,0.002678,0.000431,0.012811
7431000,0.0324,0.013523,0.002678,0.000431,0.011870
7432000,0.0324,0.013523,0.002678,0.000431,0.012105
7433000,0.0324,0.013523,0.002678,0.000431,0.011283
7434000,0.0324,0.013523,0.002678,0.000431,0.012576
7435000,0.0324,0.013523,0.002678,0.000431,0.011870
7436000,0.0324,0.013523,0.002678,0.000431,0.011753
7437000,0.0324,0.013523,0.002678,0.000431,0.011283
7438000,0.0324,0.013523,0.002678,0.000431,0.011753
7439000,0.0324,0.013523,0.002678,0.000431,0.012458
7440000,0.0324,0.013523,0.002678,0.000431,0.011165
7441000,0.0324,0.013523,0.002678,0.000431,0.012340
7442000,0.0324,0.013523,0.002678,0.000431,0.011988
7443000,0.0324,0.013523,0.002678,0.000431,0.011283
7444000,0.0324,0.013523,0.002678,0.000431,0.012223
7445000,0.0324,0.013523,0.002678,0.000431,0.012693
7446000,0.0324,0.013523,0.002678,0.000431,0.010813
7447000,0.0324,0.013523,0.002678,0.000431,0.011518
7448000,0.0324,0.013523,0.002678,0.000431,0.011870
7449000,0.0324,0.013523,0.002678,0.000431,0.011165
7450000,0.0324,0.013523,0.002678,0.000431,0.009637
7451000,0.0324,0.013523,0.002678,0.000431,0.012811
7452000,0.0324,0.013523,0.002678,0.000431,0.011518
7453000,0.0324,0.013523,0.002678,0.000431,0.011988
7454000,0.0324,0.013523,0.002678,0.000431,0.010813
7455000,0.0324,0.013523,0.002678,0.000431,0.013281
7456000,0.0324,0.013523,0.002678,0.000431,0.011048
7457000,0.0324,0.013523,0.002678,0.000431,0.011283
7458000,0.0324,0.013523,0.002678,0.000431,0.012458
7459000,0.0324,0.013523,0.002678,0.000431,0.011635
7460000,0.0324,0.013523,0.002678,0.000431,0.010695
7461000,0.0324,0.013523,0.002678,0.000431,0.011048
7462000,0.0324,0.013523,0.002678,0.000431,0.013046
7463000,0.0324,0.013523,0.002678,0.000431,0.011870
7464000,0.0324,0.013523,0.002678,0.000431,0.011165
7465000,0.0324,0.013523,0.002678,0.000431,0.012105
7466000,0.0324,0.013523,0.002678,0.000431,0.011753
7467000,0.0324,0.013523,0.002678,0.000431,0.012576
7468000,0.0324,0.013523,0.002678,0.000431,0.011635
7469000,0.0324,0.013523,0.002678,0.000431,0.010225
7470000,0.0324,0.013523,0.002678,0.000431,0.011400
7471000,0.0324,0.013523,0.002678,0.000431,0.011635
7472000,0.0324,0.013523,0.002678,0.000431,0.012105
7473000,0.0324,0.013523,0.002678,0.000431,0.011635
7474000,0.0324,0.013523,0.002678,0.000431,0.011635
7475000,0.0324,0.013523,0.002678,0.000431,0.011048
7476000,0.0324,0.013523,0.002678,0.000431,0.012811
7477000,0.0324,0.013523,0.002678,0.000431,0.010813
7478000,0.0324,0.013523,0.002678,0.000431,0.012340
7479000,0.0324,0.013523,0.002678,0.000431,0.011518
7480000,0.0324,0.013523,0.002678,0.000431,0.011753
7481000,0.0324,0.013523,0.002678,0.000431,0.011988
7482000,0.0324,0.013523,0.002678,0.000431,0.012811
7483000,0.0324,0.013523,0.002678,0.000431,0.011165
7484000,0.0324,0.013523,0.002678,0.000431,0.010578
7485000,0.0324,0.013523,0.002678,0.000431,0.012223
7486000,0.0324,0.013523,0.002678,0.000431,0.013163
7487000,0.0324,0.013523,0.002678,0.000431,0.011048
7488000,0.0324,0.013523,0.002678,0.000431,0.011283
7489000,0.0324,0.013523,0.002678,0.000431,0.011988
7490000,0.0324,0.013523,0.002678,0.000431,0.012693
7491000,0.0324,0.013523,0.002678,0.000431,0.011635
7492000,0.0324,0.013523,0.002678,0.000431,0.011988
7493000,0.0324,0.013523,0.002678,0.000431,0.011870
7494000,0.0324,0.013523,0.002678,0.000431,0.011165
7495000,0.0324,0.013523,0.002678,0.000431,0.013516
7496000,0.0324,0.013523,0.002678,0.000431,0.011400
7497000,0.0324,0.013523,0.002678,0.000431,0.011753
7498000,0.0324,0.013523,0.002678,0.000431,0.011518
7499000,0.0324,0.013523,0.002678,0.000431,0.012340
7500000,0.0324,0.013523,0.002678,0.000431,0.012458
7501000,0.0324,0.013523,0.002678,0.000431,0.012928
7502000,0.0324,0.013523,0.002678,0.000431,0.011048
7503000,0.0324,0.013523,0.002678,0.000431,0.012693
7504000,0.0324,0.013523,0.002678,0.000431,0.010460
7505000,0.0324,0.013523,0.002678,0.000431,0.013516
7506000,0.0324,0.013523,0.002678,0.000431,0.011635
7507000,0.0324,0.013523,0.002678,0.000431,0.011635
7508000,0.0324,0.013523,0.002678,0.000431,0.011518
7509000,0.0324,0.013523,0.002678,0.000431,0.012928
7510000,0.0324,0.013523,0.002678,0.000431,0.011988
7511000,0.0324,0.013523,0.002678,0.000431,0.010460
7512000,0.0324,0.013523,0.002678,0.000431,0.012811
7513000,0.0324,0.013523,0.002678,0.000431,0.011988
7514000,0.0324,0.013523,0.002678,0.000431,0.011635
7515000,0.0324,0.013523,0.002678,0.000431,0.012105
7516000,0.0324,0.013523,0.002678,0.000431,0.012576
7517000,0.0324,0.013523,0.002678,0.000431,0.011988
7518000,0.0324,0.013523,0.002678,0.000431,0.011518
7519000,0.0324,0.013523,0.002678,0.000431,0.012105
7520000,0.0324,0.013523,0.002678,0.000431,0.012223
7521000,0.0324,0.013523,0.002678,0.000431,0.011048
7522000,0.0324,0.013523,0.002678,0.000431,0.012811
7523000,0.0324,0.013523,0.002678,0.000431,0.011518
7524000,0.0324,0.013523,0.002678,0.000431,0.012458
7525000,0.0324,0.013523,0.002678,0.000431,0.010578
7526000,0.0324,0.013523,0.002678,0.000431,0.012458
7527000,0.0324,0.013523,0.002678,0.000431,0.010930
7528000,0.0324,0.013523,0.002678,0.000431,0.013163
7529000,0.0324,0.013523,0.002678,0.000431,0.011048
7530000,0.0324,0.013523,0.002678,0.000431,0.012693
7531000,0.0324,0.013523,0.002678,0.000431,0.010578
7532000,0.0324,0.013523,0.002678,0.000431,0.012576
7533000,0.0324,0.013523,0.002678,0.000431,0.011988
7534000,0.0324,0.013523,0.002678,0.000431,0.012811
7535000,0.0324,0.013523,0.002678,0.000431,0.011518
7536000,0.0324,0.013523,0.002678,0.000431,0.011870
7537000,0.0324,0.013523,0.002678,0.000431,0.011870
7538000,0.0324,0.013523,0.002678,0.000431,0.010342
7539000,0.0324,0.013523,0.002678,0.000431,0.012223
7540000,0.0324,0.013523,0.002678,0.000431,0.011635
7541000,0.0324,0.013523,0.002678,0.000431,0.011635
7542000,0.0324,0.013523,0.002678,0.000431,0.011518
7543000,0.0324,0.013523,0.002678,0.000431,0.012693
7544000,0.0324,0.013523,0.002678,0.000431,0.011635
7545000,0.0324,0.013523,0.002678,0.000431,0.011400
7546000,0.0324,0.013523,0.002678,0.000431,0.010695
7547000,0.0324,0.013523,0.002678,0.000431,0.013868
7548000,0.0324,0.013523,0.002678,0.000431,0.010695
7549000,0.0324,0.013523,0.002678,0.000431,0.011988
7550000,0.0324,0.013523,0.002678,0.000431,0.012105
7551000,0.0324,0.013523,0.002678,0.000431,0.012223
7552000,0.0324,0.013523,0.002678,0.000431,0.011283
7553000,0.0324,0.013523,0.002678,0.000431,0.012105
7554000,0.0324,0.013523,0.002678,0.000431,0.010342
7555000,0.0324,0.013523,0.002678,0.000431,0.013046
7556000,0.0324,0.013523,0.002678,0.000431,0.012223
7557000,0.0324,0.013523,0.002678,0.000431,0.012223
7558000,0.0324,0.013523,0.002678,0.000431,0.011048
7559000,0.0324,0.013523,0.002678,0.000431,0.012340
7560000,0.0324,0.013523,0.002678,0.000431,0.011283
7561000,0.0324,0.013523,0.002678,0.000431,0.012693
7562000,0.0324,0.013523,0.002678,0.000431,0.011400
7563000,0.0324,0.013523,0.002678,0.000431,0.012223
7564000,0.0324,0.013523,0.002678,0.000431,0.011988
7565000,0.0324,0.013523,0.002678,0.000431,0.011988
7566000,0.0324,0.013523,0.002678,0.000431,0.011635
7567000,0.0324,0.013523,0.002678,0.000431,0.012340
7568000,0.0324,0.013523,0.002678,0.000431,0.011283
7569000,0.0324,0.013523,0.002678,0.000431,0.011518
7570000,0.0324,0.013523,0.002678,0.000431,0.013046
7571000,0.0324,0.013523,0.002678,0.000431,0.011048
7572000,0.0324,0.013523,0.002678,0.000431,0.011870
7573000,0.0324,0.013523,0.002678,0.000431,0.011048
7574000,0.0324,0.013523,0.002678,0.000431,0.013046
7575000,0.0324,0.013523,0.002678,0.000431,0.012458
7576000,0.0324,0.013523,0.002678,0.000431,0.011753
7577000,0.0324,0.013523,0.002678,0.000431,0.011400
7578000,0.0324,0.013523,0.002678,0.000431,0.012105
7579000,0.0324,0.013523,0.002678,0.000431,0.011753
7580000,0.0324,0.013523,0.002678,0.000431,0.013163
7581000,0.0324,0.013523,0.002678,0.000431,0.010813
7582000,0.0324,0.013523,0.002678,0.000431,0.012576
7583000,0.0324,0.013523,0.002678,0.000431,0.010813
7584000,0.0324,0.013523,0.002678,0.000431,0.013281
7585000,0.0324,0.013523,0.002678,0.000431,0.011635
7586000,0.0324,0.013523,0.002678,0.000431,0.011753
7587000,0.0324,0.013523,0.002678,0.000431,0.011048
7588000,0.0324,0.013523,0.002678,0.000431,0.012928
7589000,0.0324,0.013523,0.002678,0.000431,0.011635
7590000,0.0324,0.013523,0.002678,0.000431,0.012105
7591000,0.0324,0.013523,0.002678,0.000431,0.012693
7592000,0.0324,0.013523,0.002678,0.000431,0.011870
7593000,0.0324,0.013523,0.002678,0.000431,0.011635
7594000,0.0324,0.013523,0.002678,0.000431,0.011635
7595000,0.0324,0.013523,0.002678,0.000431,0.012105
7596000,0.0324,0.013523,0.002678,0.000431,0.011988
7597000,0.0324,0.013523,0.002678,0.000431,0.011400
7598000,0.0324,0.013523,0.002678,0.000431,0.013398
7599000,0.0324,0.013523,0.002678,0.000431,0.011988
7600000,0.0324,0.013523,0.002678,0.000431,0.010460
7601000,0.0324,0.013523,0.002678,0.000431,0.012458
7602000,0.0324,0.013523,0.002678,0.000431,0.011635
7603000,0.0324,0.013523,0.002678,0.000431,0.012576
7604000,0.0324,0.013523,0.002678,0.000431,0.011283
7605000,0.0324,0.013523,0.002678,0.000431,0.012693
7606000,0.0324,0.013523,0.002678,0.000431,0.010813
7607000,0.0324,0.013523,0.002678,0.000431,0.013281
7608000,0.0324,0.013523,0.002678,0.000431,0.011048
7609000,0.0324,0.013523,0.002678,0.000431,0.012105
7610000,0.0324,0.013523,0.002678,0.000431,0.011635
7611000,0.0324,0.013523,0.002678,0.000431,0.011870
7612000,0.0324,0.013523,0.002678,0.000431,0.012105
7613000,0.0324,0.013523,0.002678,0.000431,0.012223
7614000,0.0324,0.013523,0.002678,0.000431,0.011518
7615000,0.0324,0.013523,0.002678,0.000431,0.011635
7616000,0.0324,0.013523,0.002678,0.000431,0.011753
7617000,0.0324,0.013523,0.002678,0.000431,0.012105
7618000,0.0324,0.013523,0.002678,0.000431,0.011988
7619000,0.0324,0.013523,0.002678,0.000431,0.011165
7620000,0.0324,0.013523,0.002678,0.000431,0.012105
7621000,0.0324,0.013523,0.002678,0.000431,0.011400
7622000,0.0324,0.013523,0.002678,0.000431,0.011283
7623000,0.0324,0.013523,0.002678,0.000431,0.010578
7624000,0.0324,0.013523,0.002678,0.000431,0.011518
7625000,0.0324,0.013523,0.002678,0.000431,0.010930
7626000,0.0324,0.013523,0.002678,0.000431,0.012105
7627000,0.0324,0.013523,0.002678,0.000431,0.010225
7628000,0.0324,0.013523,0.002678,0.000431,0.011518
7629000,0.0324,0.013523,0.002678,0.000431,0.011283
7630000,0.0324,0.013523,0.002678,0.000431,0.011165
7631000,0.0324,0.013523,0.002678,0.000431,0.010460
7632000,0.0324,0.013523,0.002678,0.000431,0.010930
7633000,0.0324,0.013523,0.002678,0.000431,0.011753
7634000,0.0324,0.013523,0.002678,0.000431,0.010695
7635000,0.0324,0.013523,0.002678,0.000431,0.012458
7636000,0.0324,0.013523,0.002678,0.000431,0.010460
7637000,0.0324,0.013523,0.002678,0.000431,0.010813
7638000,0.0324,0.013523,0.002678,0.000431,0.011048
7639000,0.0324,0.013523,0.002678,0.000431,0.010813
7640000,0.0324,0.013523,0.002678,0.000431,0.011753
7641000,0.0324,0.013523,0.002678,0.000431,0.011518
7642000,0.0324,0.013523,0.002678,0.000431,0.010225
7643000,0.0324,0.013523,0.002678,0.000431,0.010460
7644000,0.0324,0.013523,0.002678,0.000431,0.010930
7645000,0.0324,0.013523,0.002678,0.000431,0.012223
7646000,0.0324,0.013523,0.002678,0.000431,0.009990
7647000,0.0324,0.013523,0.002678,0.000431,0.011165
7648000,0.0324,0.013523,0.002678,0.000431,0.010695
7649000,0.0324,0.013523,0.002678,0.000431,0.012223
7650000,0.0324,0.013523,0.002678,0.000431,0.010695
7651000,0.0324,0.013523,0.002678,0.000431,0.010813
7652000,0.0324,0.013523,0.002678,0.000431,0.010930
7653000,0.0324,0.013523,0.002678,0.000431,0.010813
7654000,0.0324,0.013523,0.002678,0.000431,0.011988
7655000,0.0324,0.013523,0.002678,0.000431,0.010107
7656000,0.0324,0.013523,0.002678,0.000431,0.011753
7657000,0.0324,0.013523,0.002678,0.000431,0.011400
7658000,0.0324,0.013523,0.002678,0.000431,0.010930
7659000,0.0324,0.013523,0.002678,0.000431,0.011518
7660000,0.0324,0.013523,0.002678,0.000431,0.010225
7661000,0.0324,0.013523,0.002678,0.000431,0.010460
7662000,0.0324,0.013523,0.002678,0.000431,0.010460
7663000,0.0324,0.013523,0.002678,0.000431,0.010342
7664000,0.0324,0.013523,0.002678,0.000431,0.012576
7665000,0.0324,0.013523,0.002678,0.000431,0.010225
7666000,0.0324,0.013523,0.002678,0.000431,0.010695
7667000,0.0324,0.013523,0.002678,0.000431,0.011165
7668000,0.0324,0.013523,0.002678,0.000431,0.011753
7669000,0.0324,0.013523,0.002678,0.000431,0.010107
7670000,0.0324,0.013523,0.002678,0.000431,0.011753
7671000,0.0324,0.013523,0.002678,0.000431,0.009050
7672000,0.0324,0.013523,0.002678,0.000431,0.011753
7673000,0.0324,0.013523,0.002678,0.000431,0.011048
7674000,0.0324,0.013523,0.002678,0.000431,0.010578
7675000,0.0324,0.013523,0.002678,0.000431,0.010930
7676000,0.0324,0.013523,0.002678,0.000431,0.011400
7677000,0.0324,0.013523,0.002678,0.000431,0.010342
7678000,0.0324,0.013523,0.002678,0.000431,0.011165
7679000,0.0324,0.013523,0.002678,0.000431,0.010930
7680000,0.0324,0.013523,0.002678,0.000431,0.011753
7681000,0.0324,0.013523,0.002678,0.000431,0.010578
7682000,0.0324,0.013523,0.002678,0.000431,0.011518
7683000,0.0324,0.013523,0.002678,0.000431,0.010813
7684000,0.0324,0.013523,0.002678,0.000431,0.011400
7685000,0.0324,0.013523,0.002678,0.000431,0.010460
7686000,0.0324,0.013523,0.002678,0.000431,0.010930
7687000,0.0324,0.013523,0.002678,0.000431,0.012223
7688000,0.0324,0.013523,0.002678,0.000431,0.009755
7689000,0.0324,0.013523,0.002678,0.000431,0.011165
7690000,0.0324,0.013523,0.002678,0.000431,0.011518
7691000,0.0324,0.013523,0.002678,0.000431,0.012105
7692000,0.0324,0.013523,0.002678,0.000431,0.010578
7693000,0.0324,0.013523,0.002678,0.000431,0.010460
7694000,0.0324,0.013523,0.002678,0.000431,0.010225
7695000,0.0324,0.013523,0.002678,0.000431,0.011635
7696000,0.0324,0.013523,0.002678,0.000431,0.011753
7697000,0.0324,0.013523,0.002678,0.000431,0.010342
7698000,0.0324,0.013523,0.002678,0.000431,0.011518
7699000,0.0324,0.013523,0.002678,0.000431,0.010460
7700000,0.0324,0.013523,0.002678,0.000431,0.010930
7701000,0.0324,0.013523,0.002678,0.000431,0.011283
7702000,0.0324,0.013523,0.002678,0.000431,0.010813
7703000,0.0324,0.013523,0.002678,0.000431,0.011518
7704000,0.0324,0.013523,0.002678,0.000431,0.010695
7705000,0.0324,0.013523,0.002678,0.000431,0.009990
7706000,0.0324,0.013523,0.002678,0.000431,0.011753
7707000,0.0324,0.013523,0.002678,0.000431,0.010695
7708000,0.0324,0.013523,0.002678,0.000431,0.010930
7709000,0.0324,0.013523,0.002678,0.000431,0.010578
7710000,0.0324,0.013523,0.002678,0.000431,0.011870
7711000,0.0324,0.013523,0.002678,0.000431,0.010342
7712000,0.0324,0.013523,0.002678,0.000431,0.010342
7713000,0.0324,0.013523,0.002678,0.000431,0.010107
7714000,0.0324,0.013523,0.002678,0.000431,0.012340
7715000,0.0324,0.013523,0.002678,0.000431,0.011165
7716000,0.0324,0.013523,0.002678,0.000431,0.010460
7717000,0.0324,0.013523,0.002678,0.000431,0.010695
7718000,0.0324,0.013523,0.002678,0.000431,0.011635
7719000,0.0324,0.013523,0.002678,0.000431,0.011165
7720000,0.0324,0.013523,0.002678,0.000431,0.010813
7721000,0.0324,0.013523,0.002678,0.000431,0.009872
7722000,0.0324,0.013523,0.002678,0.000431,0.011753
7723000,0.0324,0.013523,0.002678,0.000431,0.010460
7724000,0.0324,0.013523,0.002678,0.000431,0.012576
7725000,0.0324,0.013523,0.002678,0.000431,0.010342
7726000,0.0324,0.013523,0.002678,0.000431,0.011165
7727000,0.0324,0.013523,0.002678,0.000431,0.010930
7728000,0.0324,0.013523,0.002678,0.000431,0.010460
7729000,0.0324,0.013523,0.002678,0.000431,0.010342
7730000,0.0324,0.013523,0.002678,0.000431,0.011635
7731000,0.0324,0.013523,0.002678,0.000431,0.010578
7732000,0.0324,0.013523,0.002678,0.000431,0.009990
7733000,0.0324,0.013523,0.002678,0.000431,0.012576
7734000,0.0324,0.013523,0.002678,0.000431,0.010930
7735000,0.0324,0.013523,0.002678,0.000431,0.011283
7736000,0.0324,0.013523,0.002678,0.000431,0.010225
7737000,0.0324,0.013523,0.002678,0.000431,0.011283
7738000,0.0324,0.013523,0.002678,0.000431,0.011870
7739000,0.0324,0.013523,0.002678,0.000431,0.010460
7740000,0.0324,0.013523,0.002678,0.000431,0.010225
7741000,0.0324,0.013523,0.002678,0.000431,0.011753
7742000,0.0324,0.013523,0.002678,0.000431,0.010813
7743000,0.0324,0.013523,0.002678,0.000431,0.012105
7744000,0.0324,0.013523,0.002678,0.000431,0.010225
7745000,0.0324,0.013523,0.002678,0.000431,0.011988
7746000,0.0324,0.013523,0.002678,0.000431,0.009872
7747000,0.0324,0.013523,0.002678,0.000431,0.012340
7748000,0.0324,0.013523,0.002678,0.000431,0.010578
7749000,0.0324,0.013523,0.002678,0.000431,0.011283
7750000,0.0324,0.013523,0.002678,0.000431,0.010460
7751000,0.0324,0.013523,0.002678,0.000431,0.010930
7752000,0.0324,0.013523,0.002678,0.000431,0.011518
7753000,0.0324,0.013523,0.002678,0.000431,0.011283
7754000,0.0324,0.013523,0.002678,0.000431,0.010695
7755000,0.0324,0.013523,0.002678,0.000431,0.010342
7756000,0.0324,0.013523,0.002678,0.000431,0.011283
7757000,0.0324,0.013523,0.002678,0.000431,0.011165
7758000,0.0324,0.013523,0.002678,0.000431,0.011753
7759000,0.0324,0.013523,0.002678,0.000431,0.009402
7760000,0.0324,0.013523,0.002678,0.000431,0.010930
7761000,0.0324,0.013523,0.002678,0.000431,0.011048
7762000,0.0324,0.013523,0.002678,0.000431,0.011635
7763000,0.0324,0.013523,0.002678,0.000431,0.010342
7764000,0.0324,0.013523,0.002678,0.000431,0.010930
7765000,0.0324,0.013523,0.002678,0.000431,0.010225
7766000,0.0324,0.013523,0.002678,0.000431,0.012340
7767000,0.0324,0.013523,0.002678,0.000431,0.009990
7768000,0.0324,0.013523,0.002678,0.000431,0.011753
7769000,0.0324,0.013523,0.002678,0.000431,0.010460
7770000,0.0324,0.013523,0.002678,0.000431,0.010695
7771000,0.0324,0.013523,0.002678,0.000431,0.011988
7772000,0.0324,0.013523,0.002678,0.000431,0.010460
7773000,0.0324,0.013523,0.002678,0.000431,0.011400
7774000,0.0324,0.013523,0.002678,0.000431,0.011518
7775000,0.0324,0.013523,0.002678,0.000431,0.011048
7776000,0.0324,0.013523,0.002678,0.000431,0.011753
7777000,0.0324,0.013523,0.002678,0.000431,0.010460
7778000,0.0324,0.013523,0.002678,0.000431,0.011165
7779000,0.0324,0.013523,0.002678,0.000431,0.010930
7780000,0.0324,0.013523,0.002678,0.000431,0.011048
7781000,0.0324,0.013523,0.002678,0.000431,0.011988
7782000,0.0324,0.013523,0.002678,0.000431,0.010225
7783000,0.0324,0.013523,0.002678,0.000431,0.010930
7784000,0.0324,0.013523,0.002678,0.000431,0.009755
7785000,0.0324,0.013523,0.002678,0.000431,0.013516
7786000,0.0324,0.013523,0.002678,0.000431,0.010225
7787000,0.0324,0.013523,0.002678,0.000431,0.010578
7788000,0.0324,0.013523,0.002678,0.000431,0.010930
7789000,0.0324,0.013523,0.002678,0.000431,0.011283
7790000,0.0324,0.013523,0.002678,0.000431,0.011753
7791000,0.0324,0.013523,0.002678,0.000431,0.011518
7792000,0.0324,0.013523,0.002678,0.000431,0.010342
7793000,0.0324,0.013523,0.002678,0.000431,0.011400
7794000,0.0324,0.013523,0.002678,0.000431,0.010813
7795000,0.0324,0.013523,0.002678,0.000431,0.011283
7796000,0.0324,0.013523,0.002678,0.000431,0.010225
7797000,0.0324,0.013523,0.002678,0.000431,0.011400
7798000,0.0324,0.013523,0.002678,0.000431,0.011048
7799000,0.0324,0.013523,0.002678,0.000431,0.011518
7800000,0.0324,0.013523,0.002678,0.000431,0.009755
7801000,0.0324,0.013523,0.002678,0.000431,0.011870
7802000,0.0324,0.013523,0.002678,0.000431,0.010813
7803000,0.0324,0.013523,0.002678,0.000431,0.011165
7804000,0.0324,0.013523,0.002678,0.000431,0.011048
7805000,0.0324,0.013523,0.002678,0.000431,0.011048
7806000,0.0324,0.013523,0.002678,0.000431,0.010930
7807000,0.0324,0.013523,0.002678,0.000431,0.009637
7808000,0.0324,0.013523,0.002678,0.000431,0.011988
7809000,0.0324,0.013523,0.002678,0.000431,0.011283
7810000,0.0324,0.013523,0.002678,0.000431,0.011283
7811000,0.0324,0.013523,0.002678,0.000431,0.009637
7812000,0.0324,0.013523,0.002678,0.000431,0.011518
7813000,0.0324,0.013523,0.002678,0.000431,0.011400
7814000,0.0324,0.013523,0.002678,0.000431,0.010813
7815000,0.0324,0.013523,0.002678,0.000431,0.010107
7816000,0.0324,0.013523,0.002678,0.000431,0.011283
7817000,0.0324,0.013523,0.002678,0.000431,0.010578
7818000,0.0324,0.013523,0.002678,0.000431,0.012340
7819000,0.0324,0.013523,0.002678,0.000431,0.009872
7820000,0.0324,0.013523,0.002678,0.000431,0.012105
7821000,0.0324,0.013523,0.002678,0.000431,0.009990
7822000,0.0324,0.013523,0.002678,0.000431,0.011518
7823000,0.0324,0.013523,0.002678,0.000431,0.011165
7824000,0.0324,0.013523,0.002678,0.000431,0.010695
7825000,0.0324,0.013523,0.002678,0.000431,0.011165
7826000,0.0324,0.013523,0.002678,0.000431,0.011635
7827000,0.0324,0.013523,0.002678,0.000431,0.010342
7828000,0.0324,0.013523,0.002678,0.000431,0.012105
7829000,0.0324,0.013523,0.002678,0.000431,0.010695
7830000,0.0324,0.013523,0.002678,0.000431,0.010930
7831000,0.0324,0.013523,0.002678,0.000431,0.010930
7832000,0.0324,0.013523,0.002678,0.000431,0.012105
7833000,0.0324,0.013523,0.002678,0.000431,0.010930
7834000,0.0324,0.013523,0.002678,0.000431,0.010460
7835000,0.0324,0.013523,0.002678,0.000431,0.010342
7836000,0.0324,0.013523,0.002678,0.000431,0.010578
7837000,0.0324,0.013523,0.002678,0.000431,0.011988
7838000,0.0324,0.013523,0.002678,0.000431,0.009872
7839000,0.0324,0.013523,0.002678,0.000431,0.010695
7840000,0.0324,0.013523,0.002678,0.000431,0.011400
7841000,0.0324,0.013523,0.002678,0.000431,0.011400
7842000,0.0324,0.013523,0.002678,0.000431,0.010107
7843000,0.0324,0.013523,0.002678,0.000431,0.011048
7844000,0.0324,0.013523,0.002678,0.000431,0.010225
7845000,0.0324,0.013523,0.002678,0.000431,0.011165
7846000,0.0324,0.013523,0.002678,0.000431,0.010813
7847000,0.0324,0.013523,0.002678,0.000431,0.011400
7848000,0.0324,0.013523,0.002678,0.000431,0.010460
7849000,0.0324,0.013523,0.002678,0.000431,0.011048
7850000,0.0324,0.013523,0.002678,0.000431,0.011400
7851000,0.0324,0.013523,0.002678,0.000431,0.011988
7852000,0.0324,0.013523,0.002678,0.000431,0.010695
7853000,0.0324,0.013523,0.002678,0.000431,0.010930
7854000,0.0324,0.013523,0.002678,0.000431,0.011048
7855000,0.0324,0.013523,0.002678,0.000431,0.011165
7856000,0.0324,0.013523,0.002678,0.000431,0.011988
7857000,0.0324,0.013523,0.002678,0.000431,0.010578
7858000,0.0324,0.013523,0.002678,0.000431,0.010695
7859000,0.0324,0.013523,0.002678,0.000431,0.010695
7860000,0.0324,0.013523,0.002678,0.000431,0.011988
7861000,0.0324,0.013523,0.002678,0.000431,0.010225
7862000,0.0324,0.013523,0.002678,0.000431,0.010695
7863000,0.0324,0.013523,0.002678,0.000431,0.010930
7864000,0.0324,0.013523,0.002678,0.000431,0.011753
7865000,0.0324,0.013523,0.002678,0.000431,0.010578
7866000,0.0324,0.013523,0.002678,0.000431,0.011753
7867000,0.0324,0.013523,0.002678,0.000431,0.010930
7868000,0.0324,0.013523,0.002678,0.000431,0.011870
7869000,0.0324,0.013523,0.002678,0.000431,0.010813
7870000,0.0324,0.013523,0.002678,0.000431,0.011400
7871000,0.0324,0.013523,0.002678,0.000431,0.010695
7872000,0.0324,0.013523,0.002678,0.000431,0.010342
7873000,0.0324,0.013523,0.002678,0.000431,0.010107
7874000,0.0324,0.013523,0.002678,0.000431,0.013986
7875000,0.0324,0.013523,0.002678,0.000431,0.009637
7876000,0.0324,0.013523,0.002678,0.000431,0.011048
7877000,0.0324,0.013523,0.002678,0.000431,0.011165
7878000,0.0324,0.013523,0.002678,0.000431,0.011165
7879000,0.0324,0.013523,0.002678,0.000431,0.011753
7880000,0.0324,0.013523,0.002678,0.000431,0.010930
7881000,0.0324,0.013523,0.002678,0.000431,0.011048
7882000,0.0324,0.013523,0.002678,0.000431,0.011518
7883000,0.0324,0.013523,0.002678,0.000431,0.010813
7884000,0.0324,0.013523,0.002678,0.000431,0.011635
7885000,0.0324,0.013523,0.002678,0.000431,0.010930
7886000,0.0324,0.013523,0.002678,0.000431,0.010107
7887000,0.0324,0.013523,0.002678,0.000431,0.011988
7888000,0.0324,0.013523,0.002678,0.000431,0.011048
7889000,0.0324,0.013523,0.002678,0.000431,0.011635
7890000,0.0324,0.013523,0.002678,0.000431,0.010225
7891000,0.0324,0.013523,0.002678,0.000431,0.011165
7892000,0.0324,0.013523,0.002678,0.000431,0.010107
7893000,0.0324,0.013523,0.002678,0.000431,0.012223
7894000,0.0324,0.013523,0.002678,0.000431,0.011165
7895000,0.0324,0.013523,0.002678,0.000431,0.011165
7896000,0.0324,0.013523,0.002678,0.000431,0.009990
7897000,0.0324,0.013523,0.002678,0.000431,0.012693
7898000,0.0324,0.013523,0.002678,0.000431,0.010342
7899000,0.0324,0.013523,0.002678,0.000431,0.011283
7900000,0.0324,0.013523,0.002678,0.000431,0.010578
7901000,0.0324,0.013523,0.002678,0.000431,0.011165
7902000,0.0324,0.013523,0.002678,0.000431,0.011753
7903000,0.0324,0.013523,0.002678,0.000431,0.009990
7904000,0.0324,0.013523,0.002678,0.000431,0.011283
7905000,0.0324,0.013523,0.002678,0.000431,0.011048
7906000,0.0324,0.013523,0.002678,0.000431,0.011400
7907000,0.0324,0.013523,0.002678,0.000431,0.010342
7908000,0.0324,0.013523,0.002678,0.000431,0.011048
7909000,0.0324,0.013523,0.002678,0.000431,0.010930
7910000,0.0324,0.013523,0.002678,0.000431,0.010225
7911000,0.0324,0.013523,0.002678,0.000431,0.011048
7912000,0.0324,0.013523,0.002678,0.000431,0.012105
7913000,0.0324,0.013523,0.002678,0.000431,0.010342
7914000,0.0324,0.013523,0.002678,0.000431,0.011635
7915000,0.0324,0.013523,0.002678,0.000431,0.010578
7916000,0.0324,0.013523,0.002678,0.000431,0.012105
7917000,0.0324,0.013523,0.002678,0.000431,0.010930
7918000,0.0324,0.013523,0.002678,0.000431,0.011283
7919000,0.0324,0.013523,0.002678,0.000431,0.010930
7920000,0.0324,0.013523,0.002678,0.000431,0.009755
7921000,0.0324,0.013523,0.002678,0.000431,0.012223
7922000,0.0324,0.013523,0.002678,0.000431,0.011518
7923000,0.0324,0.013523,0.002678,0.000431,0.010578
7924000,0.0324,0.013523,0.002678,0.000431,0.011283
7925000,0.0324,0.013523,0.002678,0.000431,0.011283
7926000,0.0324,0.013523,0.002678,0.000431,0.011400
7927000,0.0324,0.013523,0.002678,0.000431,0.010342
7928000,0.0324,0.013523,0.002678,0.000431,0.010342
7929000,0.0324,0.013523,0.002678,0.000431,0.012105
7930000,0.0324,0.013523,0.002678,0.000431,0.010342
7931000,0.0324,0.013523,0.002678,0.000431,0.011635
7932000,0.0324,0.013523,0.002678,0.000431,0.010695
7933000,0.0324,0.013523,0.002678,0.000431,0.010695
7934000,0.0324,0.013523,0.002678,0.000431,0.010107
7935000,0.0324,0.013523,0.002678,0.000431,0.012340
7936000,0.0324,0.013523,0.002678,0.000431,0.010695
7937000,0.0324,0.013523,0.002678,0.000431,0.010578
7938000,0.0324,0.013523,0.002678,0.000431,0.010930
7939000,0.0324,0.013523,0.002678,0.000431,0.011400
7940000,0.0324,0.013523,0.002678,0.000431,0.010813
7941000,0.0324,0.013523,0.002678,0.000431,0.011635
7942000,0.0324,0.013523,0.002678,0.000431,0.010225
7943000,0.0324,0.013523,0.002678,0.000431,0.011870
7944000,0.0324,0.013523,0.002678,0.000431,0.010930
7945000,0.0324,0.013523,0.002678,0.000431,0.011165
7946000,0.0324,0.013523,0.002678,0.000431,0.010813
7947000,0.0324,0.013523,0.002678,0.000431,0.010342
7948000,0.0324,0.013523,0.002678,0.000431,0.011753
7949000,0.0324,0.013523,0.002678,0.000431,0.011988
7950000,0.0324,0.013523,0.002678,0.000431,0.009990
7951000,0.0324,0.013523,0.002678,0.000431,0.010342
7952000,0.0324,0.013523,0.002678,0.000431,0.012340
7953000,0.0324,0.013523,0.002678,0.000431,0.010342
7954000,0.0324,0.013523,0.002678,0.000431,0.011988
7955000,0.0324,0.013523,0.002678,0.000431,0.010813
7956000,0.0324,0.013523,0.002678,0.000431,0.011518
7957000,0.0324,0.013523,0.002678,0.000431,0.010460
7958000,0.0324,0.013523,0.002678,0.000431,0.012340
7959000,0.0324,0.013523,0.002678,0.000431,0.010342
7960000,0.0324,0.013523,0.002678,0.000431,0.012458
7961000,0.0324,0.013523,0.002678,0.000431,0.010225
7962000,0.0324,0.013523,0.002678,0.000431,0.011753
7963000,0.0324,0.013523,0.002678,0.000431,0.011635
7964000,0.0324,0.013523,0.002678,0.000431,0.010813
7965000,0.0324,0.013523,0.002678,0.000431,0.010225
7966000,0.0324,0.013523,0.002678,0.000431,0.011518
7967000,0.0324,0.013523,0.002678,0.000431,0.010578
7968000,0.0324,0.013523,0.002678,0.000431,0.012340
7969000,0.0324,0.013523,0.002678,0.000431,0.010695
7970000,0.0324,0.013523,0.002678,0.000431,0.011400
7971000,0.0324,0.013523,0.002678,0.000431,0.010460
7972000,0.0324,0.013523,0.002678,0.000431,0.011753
7973000,0.0324,0.013523,0.002678,0.000431,0.010460
7974000,0.0324,0.013523,0.002678,0.000431,0.009520
7975000,0.0324,0.013523,0.002678,0.000431,0.012576
7976000,0.0324,0.013523,0.002678,0.000431,0.010107
7977000,0.0324,0.013523,0.002678,0.000431,0.012340
7978000,0.0324,0.013523,0.002678,0.000431,0.009990
7979000,0.0324,0.013523,0.002678,0.000431,0.012223
7980000,0.0324,0.013523,0.002678,0.000431,0.010813
7981000,0.0324,0.013523,0.002678,0.000431,0.010930
7982000,0.0324,0.013523,0.002678,0.000431,0.010930
7983000,0.0324,0.013523,0.002678,0.000431,0.011400
7984000,0.0324,0.013523,0.002678,0.000431,0.010342
7985000,0.0324,0.013523,0.002678,0.000431,0.010578
7986000,0.0324,0.013523,0.002678,0.000431,0.011048
7987000,0.0324,0.013523,0.002678,0.000431,0.012693
7988000,0.0324,0.013523,0.002678,0.000431,0.010342
7989000,0.0324,0.013523,0.002678,0.000431,0.010578
7990000,0.0324,0.013523,0.002678,0.000431,0.010578
7991000,0.0324,0.013523,0.002678,0.000431,0.012223
7992000,0.0324,0.013523,0.002678,0.000431,0.010107
7993000,0.0324,0.013523,0.002678,0.000431,0.011870
7994000,0.0324,0.013523,0.002678,0.000431,0.010460
7995000,0.0324,0.013523,0.002678,0.000431,0.011400
7996000,0.0324,0.013523,0.002678,0.000431,0.012693
7997000,0.0324,0.013523,0.002678,0.000431,0.011165
7998000,0.0324,0.013523,0.002678,0.000431,0.010695
7999000,0.0324,0.013523,0.002678,0.000431,0.009872
