Cycle,Area(mm^2),PeakDynamic(W),SubthresholdLeakage(W),GateLeakage(W),RunTimeDynamic(W)
5000000,0.0324,0.013523,0.002678,0.000431,0.021860
5001000,0.0324,0.013523,0.002678,0.000431,0.024211
5002000,0.0324,0.013523,0.002678,0.000431,0.023623
5003000,0.0324,0.013523,0.002678,0.000431,0.022565
5004000,0.0324,0.013523,0.002678,0.000431,0.023976
5005000,0.0324,0.013523,0.002678,0.000431,0.022565
5006000,0.0324,0.013523,0.002678,0.000431,0.023036
5007000,0.0324,0.013523,0.002678,0.000431,0.023741
5008000,0.0324,0.013523,0.002678,0.000431,0.022565
5009000,0.0324,0.013523,0.002678,0.000431,0.022213
5010000,0.0324,0.013523,0.002678,0.000431,0.022683
5011000,0.0324,0.013523,0.002678,0.000431,0.023976
5012000,0.0324,0.013523,0.002678,0.000431,0.020685
5013000,0.0324,0.013523,0.002678,0.000431,0.022918
5014000,0.0324,0.013523,0.002678,0.000431,0.022800
5015000,0.0324,0.013523,0.002678,0.000431,0.023388
5016000,0.0324,0.013523,0.002678,0.000431,0.022330
5017000,0.0324,0.013523,0.002678,0.000431,0.024446
5018000,0.0324,0.013523,0.002678,0.000431,0.022213
5019000,0.0324,0.013523,0.002678,0.000431,0.023741
5020000,0.0324,0.013523,0.002678,0.000431,0.022565
5021000,0.0324,0.013523,0.002678,0.000431,0.023858
5022000,0.0324,0.013523,0.002678,0.000431,0.022800
5023000,0.0324,0.013523,0.002678,0.000431,0.023858
5024000,0.0324,0.013523,0.002678,0.000431,0.022683
5025000,0.0324,0.013523,0.002678,0.000431,0.023388
5026000,0.0324,0.013523,0.002678,0.000431,0.023741
5027000,0.0324,0.013523,0.002678,0.000431,0.023741
5028000,0.0324,0.013523,0.002678,0.000431,0.023271
5029000,0.0324,0.013523,0.002678,0.000431,0.023153
5030000,0.0324,0.013523,0.002678,0.000431,0.023153
5031000,0.0324,0.013523,0.002678,0.000431,0.022800
5032000,0.0324,0.013523,0.002678,0.000431,0.023506
5033000,0.0324,0.013523,0.002678,0.000431,0.020802
5034000,0.0324,0.013523,0.002678,0.000431,0.024211
5035000,0.0324,0.013523,0.002678,0.000431,0.021625
5036000,0.0324,0.013523,0.002678,0.000431,0.023858
5037000,0.0324,0.013523,0.002678,0.000431,0.020802
5038000,0.0324,0.013523,0.002678,0.000431,0.024798
5039000,0.0324,0.013523,0.002678,0.000431,0.021038
5040000,0.0324,0.013523,0.002678,0.000431,0.022565
5041000,0.0324,0.013523,0.002678,0.000431,0.023271
5042000,0.0324,0.013523,0.002678,0.000431,0.023976
5043000,0.0324,0.013523,0.002678,0.000431,0.020332
5044000,0.0324,0.013523,0.002678,0.000431,0.022330
5045000,0.0324,0.013523,0.002678,0.000431,0.022918
5046000,0.0324,0.013523,0.002678,0.000431,0.022683
5047000,0.0324,0.013523,0.002678,0.000431,0.022095
5048000,0.0324,0.013523,0.002678,0.000431,0.023271
5049000,0.0324,0.013523,0.002678,0.000431,0.023036
5050000,0.0324,0.013523,0.002678,0.000431,0.022565
5051000,0.0324,0.013523,0.002678,0.000431,0.023153
5052000,0.0324,0.013523,0.002678,0.000431,0.023153
5053000,0.0324,0.013523,0.002678,0.000431,0.022213
5054000,0.0324,0.013523,0.002678,0.000431,0.022213
5055000,0.0324,0.013523,0.002678,0.000431,0.024093
5056000,0.0324,0.013523,0.002678,0.000431,0.022565
5057000,0.0324,0.013523,0.002678,0.000431,0.023858
5058000,0.0324,0.013523,0.002678,0.000431,0.023271
5059000,0.0324,0.013523,0.002678,0.000431,0.024681
5060000,0.0324,0.013523,0.002678,0.000431,0.021390
5061000,0.0324,0.013523,0.002678,0.000431,0.023741
5062000,0.0324,0.013523,0.002678,0.000431,0.021860
5063000,0.0324,0.013523,0.002678,0.000431,0.024446
5064000,0.0324,0.013523,0.002678,0.000431,0.022095
5065000,0.0324,0.013523,0.002678,0.000431,0.022918
5066000,0.0324,0.013523,0.002678,0.000431,0.022330
5067000,0.0324,0.013523,0.002678,0.000431,0.024328
5068000,0.0324,0.013523,0.002678,0.000431,0.023271
5069000,0.0324,0.013523,0.002678,0.000431,0.022918
5070000,0.0324,0.013523,0.002678,0.000431,0.021038
5071000,0.0324,0.013523,0.002678,0.000431,0.024093
5072000,0.0324,0.013523,0.002678,0.000431,0.021743
5073000,0.0324,0.013523,0.002678,0.000431,0.021390
5074000,0.0324,0.013523,0.002678,0.000431,0.023036
5075000,0.0324,0.013523,0.002678,0.000431,0.023506
5076000,0.0324,0.013523,0.002678,0.000431,0.021860
5077000,0.0324,0.013523,0.002678,0.000431,0.023506
5078000,0.0324,0.013523,0.002678,0.000431,0.023506
5079000,0.0324,0.013523,0.002678,0.000431,0.022683
5080000,0.0324,0.013523,0.002678,0.000431,0.022565
5081000,0.0324,0.013523,0.002678,0.000431,0.023741
5082000,0.0324,0.013523,0.002678,0.000431,0.023271
5083000,0.0324,0.013523,0.002678,0.000431,0.021860
5084000,0.0324,0.013523,0.002678,0.000431,0.023623
5085000,0.0324,0.013523,0.002678,0.000431,0.021743
5086000,0.0324,0.013523,0.002678,0.000431,0.023271
5087000,0.0324,0.013523,0.002678,0.000431,0.021860
5088000,0.0324,0.013523,0.002678,0.000431,0.023271
5089000,0.0324,0.013523,0.002678,0.000431,0.023036
5090000,0.0324,0.013523,0.002678,0.000431,0.021508
5091000,0.0324,0.013523,0.002678,0.000431,0.022095
5092000,0.0324,0.013523,0.002678,0.000431,0.022683
5093000,0.0324,0.013523,0.002678,0.000431,0.022683
5094000,0.0324,0.013523,0.002678,0.000431,0.022800
5095000,0.0324,0.013523,0.002678,0.000431,0.023976
5096000,0.0324,0.013523,0.002678,0.000431,0.023153
5097000,0.0324,0.013523,0.002678,0.000431,0.021625
5098000,0.0324,0.013523,0.002678,0.000431,0.021625
5099000,0.0324,0.013523,0.002678,0.000431,0.024798
5100000,0.0324,0.013523,0.002678,0.000431,0.020450
5101000,0.0324,0.013523,0.002678,0.000431,0.023858
5102000,0.0324,0.013523,0.002678,0.000431,0.022918
5103000,0.0324,0.013523,0.002678,0.000431,0.023271
5104000,0.0324,0.013523,0.002678,0.000431,0.020920
5105000,0.0324,0.013523,0.002678,0.000431,0.025034
5106000,0.0324,0.013523,0.002678,0.000431,0.020802
5107000,0.0324,0.013523,0.002678,0.000431,0.023858
5108000,0.0324,0.013523,0.002678,0.000431,0.023271
5109000,0.0324,0.013523,0.002678,0.000431,0.022800
5110000,0.0324,0.013523,0.002678,0.000431,0.022565
5111000,0.0324,0.013523,0.002678,0.000431,0.022918
5112000,0.0324,0.013523,0.002678,0.000431,0.022448
5113000,0.0324,0.013523,0.002678,0.000431,0.023858
5114000,0.0324,0.013523,0.002678,0.000431,0.022448
5115000,0.0324,0.013523,0.002678,0.000431,0.022095
5116000,0.0324,0.013523,0.002678,0.000431,0.025504
5117000,0.0324,0.013523,0.002678,0.000431,0.021390
5118000,0.0324,0.013523,0.002678,0.000431,0.023388
5119000,0.0324,0.013523,0.002678,0.000431,0.021155
5120000,0.0324,0.013523,0.002678,0.000431,0.023976
5121000,0.0324,0.013523,0.002678,0.000431,0.022213
5122000,0.0324,0.013523,0.002678,0.000431,0.023741
5123000,0.0324,0.013523,0.002678,0.000431,0.021743
5124000,0.0324,0.013523,0.002678,0.000431,0.025034
5125000,0.0324,0.013523,0.002678,0.000431,0.022095
5126000,0.0324,0.013523,0.002678,0.000431,0.023976
5127000,0.0324,0.013523,0.002678,0.000431,0.022330
5128000,0.0324,0.013523,0.002678,0.000431,0.023036
5129000,0.0324,0.013523,0.002678,0.000431,0.022565
5130000,0.0324,0.013523,0.002678,0.000431,0.022213
5131000,0.0324,0.013523,0.002678,0.000431,0.021860
5132000,0.0324,0.013523,0.002678,0.000431,0.025856
5133000,0.0324,0.013523,0.002678,0.000431,0.021390
5134000,0.0324,0.013523,0.002678,0.000431,0.022448
5135000,0.0324,0.013523,0.002678,0.000431,0.023623
5136000,0.0324,0.013523,0.002678,0.000431,0.023036
5137000,0.0324,0.013523,0.002678,0.000431,0.022213
5138000,0.0324,0.013523,0.002678,0.000431,0.022330
5139000,0.0324,0.013523,0.002678,0.000431,0.022565
5140000,0.0324,0.013523,0.002678,0.000431,0.023271
5141000,0.0324,0.013523,0.002678,0.000431,0.023153
5142000,0.0324,0.013523,0.002678,0.000431,0.022683
5143000,0.0324,0.013523,0.002678,0.000431,0.023858
5144000,0.0324,0.013523,0.002678,0.000431,0.023388
5145000,0.0324,0.013523,0.002678,0.000431,0.022918
5146000,0.0324,0.013523,0.002678,0.000431,0.021743
5147000,0.0324,0.013523,0.002678,0.000431,0.023388
5148000,0.0324,0.013523,0.002678,0.000431,0.022213
5149000,0.0324,0.013523,0.002678,0.000431,0.025034
5150000,0.0324,0.013523,0.002678,0.000431,0.019157
5151000,0.0324,0.013523,0.002678,0.000431,0.023623
5152000,0.0324,0.013523,0.002678,0.000431,0.023506
5153000,0.0324,0.013523,0.002678,0.000431,0.024328
5154000,0.0324,0.013523,0.002678,0.000431,0.021860
5155000,0.0324,0.013523,0.002678,0.000431,0.021625
5156000,0.0324,0.013523,0.002678,0.000431,0.023153
5157000,0.0324,0.013523,0.002678,0.000431,0.022683
5158000,0.0324,0.013523,0.002678,0.000431,0.023153
5159000,0.0324,0.013523,0.002678,0.000431,0.022683
5160000,0.0324,0.013523,0.002678,0.000431,0.023388
5161000,0.0324,0.013523,0.002678,0.000431,0.021860
5162000,0.0324,0.013523,0.002678,0.000431,0.022448
5163000,0.0324,0.013523,0.002678,0.000431,0.022683
5164000,0.0324,0.013523,0.002678,0.000431,0.022330
5165000,0.0324,0.013523,0.002678,0.000431,0.021038
5166000,0.0324,0.013523,0.002678,0.000431,0.024211
5167000,0.0324,0.013523,0.002678,0.000431,0.020685
5168000,0.0324,0.013523,0.002678,0.000431,0.025856
5169000,0.0324,0.013523,0.002678,0.000431,0.021860
5170000,0.0324,0.013523,0.002678,0.000431,0.023506
5171000,0.0324,0.013523,0.002678,0.000431,0.021038
5172000,0.0324,0.013523,0.002678,0.000431,0.023153
5173000,0.0324,0.013523,0.002678,0.000431,0.022565
5174000,0.0324,0.013523,0.002678,0.000431,0.022800
5175000,0.0324,0.013523,0.002678,0.000431,0.022095
5176000,0.0324,0.013523,0.002678,0.000431,0.022918
5177000,0.0324,0.013523,0.002678,0.000431,0.023858
5178000,0.0324,0.013523,0.002678,0.000431,0.023036
5179000,0.0324,0.013523,0.002678,0.000431,0.024328
5180000,0.0324,0.013523,0.002678,0.000431,0.022683
5181000,0.0324,0.013523,0.002678,0.000431,0.022448
5182000,0.0324,0.013523,0.002678,0.000431,0.022918
5183000,0.0324,0.013523,0.002678,0.000431,0.023271
5184000,0.0324,0.013523,0.002678,0.000431,0.020802
5185000,0.0324,0.013523,0.002678,0.000431,0.024093
5186000,0.0324,0.013523,0.002678,0.000431,0.021978
5187000,0.0324,0.013523,0.002678,0.000431,0.022565
5188000,0.0324,0.013523,0.002678,0.000431,0.020802
5189000,0.0324,0.013523,0.002678,0.000431,0.023623
5190000,0.0324,0.013523,0.002678,0.000431,0.022683
5191000,0.0324,0.013523,0.002678,0.000431,0.021743
5192000,0.0324,0.013523,0.002678,0.000431,0.022448
5193000,0.0324,0.013523,0.002678,0.000431,0.025386
5194000,0.0324,0.013523,0.002678,0.000431,0.021978
5195000,0.0324,0.013523,0.002678,0.000431,0.022565
5196000,0.0324,0.013523,0.002678,0.000431,0.022565
5197000,0.0324,0.013523,0.002678,0.000431,0.024211
5198000,0.0324,0.013523,0.002678,0.000431,0.021038
5199000,0.0324,0.013523,0.002678,0.000431,0.021625
5200000,0.0324,0.013523,0.002678,0.000431,0.021860
5201000,0.0324,0.013523,0.002678,0.000431,0.024093
5202000,0.0324,0.013523,0.002678,0.000431,0.021155
5203000,0.0324,0.013523,0.002678,0.000431,0.023036
5204000,0.0324,0.013523,0.002678,0.000431,0.022565
5205000,0.0324,0.013523,0.002678,0.000431,0.022800
5206000,0.0324,0.013523,0.002678,0.000431,0.023036
5207000,0.0324,0.013523,0.002678,0.000431,0.022800
5208000,0.0324,0.013523,0.002678,0.000431,0.022330
5209000,0.0324,0.013523,0.002678,0.000431,0.022683
5210000,0.0324,0.013523,0.002678,0.000431,0.023976
5211000,0.0324,0.013523,0.002678,0.000431,0.022800
5212000,0.0324,0.013523,0.002678,0.000431,0.022918
5213000,0.0324,0.013523,0.002678,0.000431,0.022683
5214000,0.0324,0.013523,0.002678,0.000431,0.021860
5215000,0.0324,0.013523,0.002678,0.000431,0.023271
5216000,0.0324,0.013523,0.002678,0.000431,0.021155
5217000,0.0324,0.013523,0.002678,0.000431,0.024211
5218000,0.0324,0.013523,0.002678,0.000431,0.022800
5219000,0.0324,0.013523,0.002678,0.000431,0.021860
5220000,0.0324,0.013523,0.002678,0.000431,0.023153
5221000,0.0324,0.013523,0.002678,0.000431,0.021743
5222000,0.0324,0.013523,0.002678,0.000431,0.023741
5223000,0.0324,0.013523,0.002678,0.000431,0.023858
5224000,0.0324,0.013523,0.002678,0.000431,0.021390
5225000,0.0324,0.013523,0.002678,0.000431,0.023271
5226000,0.0324,0.013523,0.002678,0.000431,0.023388
5227000,0.0324,0.013523,0.002678,0.000431,0.023036
5228000,0.0324,0.013523,0.002678,0.000431,0.023623
5229000,0.0324,0.013523,0.002678,0.000431,0.020802
5230000,0.0324,0.013523,0.002678,0.000431,0.024093
5231000,0.0324,0.013523,0.002678,0.000431,0.021273
5232000,0.0324,0.013523,0.002678,0.000431,0.022683
5233000,0.0324,0.013523,0.002678,0.000431,0.023388
5234000,0.0324,0.013523,0.002678,0.000431,0.024093
5235000,0.0324,0.013523,0.002678,0.000431,0.022683
5236000,0.0324,0.013523,0.002678,0.000431,0.023976
5237000,0.0324,0.013523,0.002678,0.000431,0.022095
5238000,0.0324,0.013523,0.002678,0.000431,0.024211
5239000,0.0324,0.013523,0.002678,0.000431,0.022448
5240000,0.0324,0.013523,0.002678,0.000431,0.023858
5241000,0.0324,0.013523,0.002678,0.000431,0.021273
5242000,0.0324,0.013523,0.002678,0.000431,0.022800
5243000,0.0324,0.013523,0.002678,0.000431,0.022800
5244000,0.0324,0.013523,0.002678,0.000431,0.022330
5245000,0.0324,0.013523,0.002678,0.000431,0.023506
5246000,0.0324,0.013523,0.002678,0.000431,0.024563
5247000,0.0324,0.013523,0.002678,0.000431,0.022095
5248000,0.0324,0.013523,0.002678,0.000431,0.023388
5249000,0.0324,0.013523,0.002678,0.000431,0.023036
5250000,0.0324,0.013523,0.002678,0.000431,0.023036
5251000,0.0324,0.013523,0.002678,0.000431,0.023741
5252000,0.0324,0.013523,0.002678,0.000431,0.021273
5253000,0.0324,0.013523,0.002678,0.000431,0.023976
5254000,0.0324,0.013523,0.002678,0.000431,0.023506
5255000,0.0324,0.013523,0.002678,0.000431,0.022448
5256000,0.0324,0.013523,0.002678,0.000431,0.022330
5257000,0.0324,0.013523,0.002678,0.000431,0.023976
5258000,0.0324,0.013523,0.002678,0.000431,0.022800
5259000,0.0324,0.013523,0.002678,0.000431,0.022213
5260000,0.0324,0.013523,0.002678,0.000431,0.023388
5261000,0.0324,0.013523,0.002678,0.000431,0.023976
5262000,0.0324,0.013523,0.002678,0.000431,0.023271
5263000,0.0324,0.013523,0.002678,0.000431,0.022565
5264000,0.0324,0.013523,0.002678,0.000431,0.022918
5265000,0.0324,0.013523,0.002678,0.000431,0.023976
5266000,0.0324,0.013523,0.002678,0.000431,0.022800
5267000,0.0324,0.013523,0.002678,0.000431,0.023271
5268000,0.0324,0.013523,0.002678,0.000431,0.022918
5269000,0.0324,0.013523,0.002678,0.000431,0.022565
5270000,0.0324,0.013523,0.002678,0.000431,0.023036
5271000,0.0324,0.013523,0.002678,0.000431,0.022095
5272000,0.0324,0.013523,0.002678,0.000431,0.024563
5273000,0.0324,0.013523,0.002678,0.000431,0.023623
5274000,0.0324,0.013523,0.002678,0.000431,0.022918
5275000,0.0324,0.013523,0.002678,0.000431,0.021860
5276000,0.0324,0.013523,0.002678,0.000431,0.023741
5277000,0.0324,0.013523,0.002678,0.000431,0.022918
5278000,0.0324,0.013523,0.002678,0.000431,0.022213
5279000,0.0324,0.013523,0.002678,0.000431,0.022683
5280000,0.0324,0.013523,0.002678,0.000431,0.024093
5281000,0.0324,0.013523,0.002678,0.000431,0.022095
5282000,0.0324,0.013523,0.002678,0.000431,0.022918
5283000,0.0324,0.013523,0.002678,0.000431,0.020450
5284000,0.0324,0.013523,0.002678,0.000431,0.024681
5285000,0.0324,0.013523,0.002678,0.000431,0.021860
5286000,0.0324,0.013523,0.002678,0.000431,0.023036
5287000,0.0324,0.013523,0.002678,0.000431,0.023153
5288000,0.0324,0.013523,0.002678,0.000431,0.024093
5289000,0.0324,0.013523,0.002678,0.000431,0.021390
5290000,0.0324,0.013523,0.002678,0.000431,0.023271
5291000,0.0324,0.013523,0.002678,0.000431,0.023623
5292000,0.0324,0.013523,0.002678,0.000431,0.023153
5293000,0.0324,0.013523,0.002678,0.000431,0.021860
5294000,0.0324,0.013523,0.002678,0.000431,0.023271
5295000,0.0324,0.013523,0.002678,0.000431,0.022213
5296000,0.0324,0.013523,0.002678,0.000431,0.022448
5297000,0.0324,0.013523,0.002678,0.000431,0.022213
5298000,0.0324,0.013523,0.002678,0.000431,0.022565
5299000,0.0324,0.013523,0.002678,0.000431,0.021860
5300000,0.0324,0.013523,0.002678,0.000431,0.023741
5301000,0.0324,0.013523,0.002678,0.000431,0.022565
5302000,0.0324,0.013523,0.002678,0.000431,0.020802
5303000,0.0324,0.013523,0.002678,0.000431,0.024211
5304000,0.0324,0.013523,0.002678,0.000431,0.022683
5305000,0.0324,0.013523,0.002678,0.000431,0.023623
5306000,0.0324,0.013523,0.002678,0.000431,0.022330
5307000,0.0324,0.013523,0.002678,0.000431,0.024328
5308000,0.0324,0.013523,0.002678,0.000431,0.021625
5309000,0.0324,0.013523,0.002678,0.000431,0.023506
5310000,0.0324,0.013523,0.002678,0.000431,0.021860
5311000,0.0324,0.013523,0.002678,0.000431,0.023388
5312000,0.0324,0.013523,0.002678,0.000431,0.021860
5313000,0.0324,0.013523,0.002678,0.000431,0.022800
5314000,0.0324,0.013523,0.002678,0.000431,0.021273
5315000,0.0324,0.013523,0.002678,0.000431,0.023976
5316000,0.0324,0.013523,0.002678,0.000431,0.021978
5317000,0.0324,0.013523,0.002678,0.000431,0.023506
5318000,0.0324,0.013523,0.002678,0.000431,0.022095
5319000,0.0324,0.013523,0.002678,0.000431,0.021860
5320000,0.0324,0.013523,0.002678,0.000431,0.022565
5321000,0.0324,0.013523,0.002678,0.000431,0.022918
5322000,0.0324,0.013523,0.002678,0.000431,0.022448
5323000,0.0324,0.013523,0.002678,0.000431,0.022565
5324000,0.0324,0.013523,0.002678,0.000431,0.023976
5325000,0.0324,0.013523,0.002678,0.000431,0.022330
5326000,0.0324,0.013523,0.002678,0.000431,0.022565
5327000,0.0324,0.013523,0.002678,0.000431,0.021508
5328000,0.0324,0.013523,0.002678,0.000431,0.024211
5329000,0.0324,0.013523,0.002678,0.000431,0.020802
5330000,0.0324,0.013523,0.002678,0.000431,0.022918
5331000,0.0324,0.013523,0.002678,0.000431,0.021860
5332000,0.0324,0.013523,0.002678,0.000431,0.023388
5333000,0.0324,0.013523,0.002678,0.000431,0.021625
5334000,0.0324,0.013523,0.002678,0.000431,0.024211
5335000,0.0324,0.013523,0.002678,0.000431,0.020802
5336000,0.0324,0.013523,0.002678,0.000431,0.023623
5337000,0.0324,0.013523,0.002678,0.000431,0.022330
5338000,0.0324,0.013523,0.002678,0.000431,0.023271
5339000,0.0324,0.013523,0.002678,0.000431,0.023271
5340000,0.0324,0.013523,0.002678,0.000431,0.023036
5341000,0.0324,0.013523,0.002678,0.000431,0.021508
5342000,0.0324,0.013523,0.002678,0.000431,0.023153
5343000,0.0324,0.013523,0.002678,0.000431,0.023388
5344000,0.0324,0.013523,0.002678,0.000431,0.023741
5345000,0.0324,0.013523,0.002678,0.000431,0.022213
5346000,0.0324,0.013523,0.002678,0.000431,0.021625
5347000,0.0324,0.013523,0.002678,0.000431,0.022565
5348000,0.0324,0.013523,0.002678,0.000431,0.024798
5349000,0.0324,0.013523,0.002678,0.000431,0.023741
5350000,0.0324,0.013523,0.002678,0.000431,0.021390
5351000,0.0324,0.013523,0.002678,0.000431,0.023976
5352000,0.0324,0.013523,0.002678,0.000431,0.021743
5353000,0.0324,0.013523,0.002678,0.000431,0.023036
5354000,0.0324,0.013523,0.002678,0.000431,0.022213
5355000,0.0324,0.013523,0.002678,0.000431,0.023741
5356000,0.0324,0.013523,0.002678,0.000431,0.023506
5357000,0.0324,0.013523,0.002678,0.000431,0.023741
5358000,0.0324,0.013523,0.002678,0.000431,0.022095
5359000,0.0324,0.013523,0.002678,0.000431,0.023036
5360000,0.0324,0.013523,0.002678,0.000431,0.022448
5361000,0.0324,0.013523,0.002678,0.000431,0.023623
5362000,0.0324,0.013523,0.002678,0.000431,0.022683
5363000,0.0324,0.013523,0.002678,0.000431,0.022213
5364000,0.0324,0.013523,0.002678,0.000431,0.022330
5365000,0.0324,0.013523,0.002678,0.000431,0.023741
5366000,0.0324,0.013523,0.002678,0.000431,0.023153
5367000,0.0324,0.013523,0.002678,0.000431,0.023036
5368000,0.0324,0.013523,0.002678,0.000431,0.023741
5369000,0.0324,0.013523,0.002678,0.000431,0.022800
5370000,0.0324,0.013523,0.002678,0.000431,0.023741
5371000,0.0324,0.013523,0.002678,0.000431,0.019980
5372000,0.0324,0.013523,0.002678,0.000431,0.023741
5373000,0.0324,0.013523,0.002678,0.000431,0.022565
5374000,0.0324,0.013523,0.002678,0.000431,0.022918
5375000,0.0324,0.013523,0.002678,0.000431,0.021508
5376000,0.0324,0.013523,0.002678,0.000431,0.024563
5377000,0.0324,0.013523,0.002678,0.000431,0.021273
5378000,0.0324,0.013523,0.002678,0.000431,0.024211
5379000,0.0324,0.013523,0.002678,0.000431,0.020685
5380000,0.0324,0.013523,0.002678,0.000431,0.023036
5381000,0.0324,0.013523,0.002678,0.000431,0.022448
5382000,0.0324,0.013523,0.002678,0.000431,0.023741
5383000,0.0324,0.013523,0.002678,0.000431,0.021743
5384000,0.0324,0.013523,0.002678,0.000431,0.023741
5385000,0.0324,0.013523,0.002678,0.000431,0.022683
5386000,0.0324,0.013523,0.002678,0.000431,0.023271
5387000,0.0324,0.013523,0.002678,0.000431,0.023506
5388000,0.0324,0.013523,0.002678,0.000431,0.023506
5389000,0.0324,0.013523,0.002678,0.000431,0.021508
5390000,0.0324,0.013523,0.002678,0.000431,0.022330
5391000,0.0324,0.013523,0.002678,0.000431,0.022800
5392000,0.0324,0.013523,0.002678,0.000431,0.021743
5393000,0.0324,0.013523,0.002678,0.000431,0.023388
5394000,0.0324,0.013523,0.002678,0.000431,0.021508
5395000,0.0324,0.013523,0.002678,0.000431,0.023976
5396000,0.0324,0.013523,0.002678,0.000431,0.021508
5397000,0.0324,0.013523,0.002678,0.000431,0.024211
5398000,0.0324,0.013523,0.002678,0.000431,0.020332
5399000,0.0324,0.013523,0.002678,0.000431,0.024211
5400000,0.0324,0.013523,0.002678,0.000431,0.022095
5401000,0.0324,0.013523,0.002678,0.000431,0.023506
5402000,0.0324,0.013523,0.002678,0.000431,0.021625
5403000,0.0324,0.013523,0.002678,0.000431,0.023271
5404000,0.0324,0.013523,0.002678,0.000431,0.021978
5405000,0.0324,0.013523,0.002678,0.000431,0.023623
5406000,0.0324,0.013523,0.002678,0.000431,0.022095
5407000,0.0324,0.013523,0.002678,0.000431,0.022095
5408000,0.0324,0.013523,0.002678,0.000431,0.022330
5409000,0.0324,0.013523,0.002678,0.000431,0.023506
5410000,0.0324,0.013523,0.002678,0.000431,0.023036
5411000,0.0324,0.013523,0.002678,0.000431,0.021860
5412000,0.0324,0.013523,0.002678,0.000431,0.022800
5413000,0.0324,0.013523,0.002678,0.000431,0.021743
5414000,0.0324,0.013523,0.002678,0.000431,0.022448
5415000,0.0324,0.013523,0.002678,0.000431,0.022565
5416000,0.0324,0.013523,0.002678,0.000431,0.023506
5417000,0.0324,0.013523,0.002678,0.000431,0.022565
5418000,0.0324,0.013523,0.002678,0.000431,0.022683
5419000,0.0324,0.013523,0.002678,0.000431,0.020685
5420000,0.0324,0.013523,0.002678,0.000431,0.024093
5421000,0.0324,0.013523,0.002678,0.000431,0.022448
5422000,0.0324,0.013523,0.002678,0.000431,0.022448
5423000,0.0324,0.013523,0.002678,0.000431,0.022330
5424000,0.0324,0.013523,0.002678,0.000431,0.022330
5425000,0.0324,0.013523,0.002678,0.000431,0.022213
5426000,0.0324,0.013523,0.002678,0.000431,0.023036
5427000,0.0324,0.013523,0.002678,0.000431,0.021743
5428000,0.0324,0.013523,0.002678,0.000431,0.025504
5429000,0.0324,0.013523,0.002678,0.000431,0.022213
5430000,0.0324,0.013523,0.002678,0.000431,0.023388
5431000,0.0324,0.013523,0.002678,0.000431,0.022330
5432000,0.0324,0.013523,0.002678,0.000431,0.022683
5433000,0.0324,0.013523,0.002678,0.000431,0.024093
5434000,0.0324,0.013523,0.002678,0.000431,0.022918
5435000,0.0324,0.013523,0.002678,0.000431,0.022448
5436000,0.0324,0.013523,0.002678,0.000431,0.021860
5437000,0.0324,0.013523,0.002678,0.000431,0.024093
5438000,0.0324,0.013523,0.002678,0.000431,0.021978
5439000,0.0324,0.013523,0.002678,0.000431,0.023153
5440000,0.0324,0.013523,0.002678,0.000431,0.022800
5441000,0.0324,0.013523,0.002678,0.000431,0.021273
5442000,0.0324,0.013523,0.002678,0.000431,0.021625
5443000,0.0324,0.013523,0.002678,0.000431,0.023976
5444000,0.0324,0.013523,0.002678,0.000431,0.021273
5445000,0.0324,0.013523,0.002678,0.000431,0.023153
5446000,0.0324,0.013523,0.002678,0.000431,0.022095
5447000,0.0324,0.013523,0.002678,0.000431,0.024211
5448000,0.0324,0.013523,0.002678,0.000431,0.020450
5449000,0.0324,0.013523,0.002678,0.000431,0.023036
5450000,0.0324,0.013523,0.002678,0.000431,0.021978
5451000,0.0324,0.013523,0.002678,0.000431,0.022448
5452000,0.0324,0.013523,0.002678,0.000431,0.021155
5453000,0.0324,0.013523,0.002678,0.000431,0.023623
5454000,0.0324,0.013523,0.002678,0.000431,0.022095
5455000,0.0324,0.013523,0.002678,0.000431,0.023036
5456000,0.0324,0.013523,0.002678,0.000431,0.024328
5457000,0.0324,0.013523,0.002678,0.000431,0.022918
5458000,0.0324,0.013523,0.002678,0.000431,0.023153
5459000,0.0324,0.013523,0.002678,0.000431,0.021978
5460000,0.0324,0.013523,0.002678,0.000431,0.022918
5461000,0.0324,0.013523,0.002678,0.000431,0.023153
5462000,0.0324,0.013523,0.002678,0.000431,0.021860
5463000,0.0324,0.013523,0.002678,0.000431,0.021390
5464000,0.0324,0.013523,0.002678,0.000431,0.020920
5465000,0.0324,0.013523,0.002678,0.000431,0.021978
5466000,0.0324,0.013523,0.002678,0.000431,0.022448
5467000,0.0324,0.013523,0.002678,0.000431,0.021625
5468000,0.0324,0.013523,0.002678,0.000431,0.022565
5469000,0.0324,0.013523,0.002678,0.000431,0.021743
5470000,0.0324,0.013523,0.002678,0.000431,0.022330
5471000,0.0324,0.013523,0.002678,0.000431,0.021860
5472000,0.0324,0.013523,0.002678,0.000431,0.021860
5473000,0.0324,0.013523,0.002678,0.000431,0.021390
5474000,0.0324,0.013523,0.002678,0.000431,0.021508
5475000,0.0324,0.013523,0.002678,0.000431,0.021508
5476000,0.0324,0.013523,0.002678,0.000431,0.020920
5477000,0.0324,0.013523,0.002678,0.000431,0.021978
5478000,0.0324,0.013523,0.002678,0.000431,0.022330
5479000,0.0324,0.013523,0.002678,0.000431,0.020920
5480000,0.0324,0.013523,0.002678,0.000431,0.021273
5481000,0.0324,0.013523,0.002678,0.000431,0.022448
5482000,0.0324,0.013523,0.002678,0.000431,0.021390
5483000,0.0324,0.013523,0.002678,0.000431,0.022213
5484000,0.0324,0.013523,0.002678,0.000431,0.021860
5485000,0.0324,0.013523,0.002678,0.000431,0.022683
5486000,0.0324,0.013523,0.002678,0.000431,0.021155
5487000,0.0324,0.013523,0.002678,0.000431,0.022800
5488000,0.0324,0.013523,0.002678,0.000431,0.020802
5489000,0.0324,0.013523,0.002678,0.000431,0.022565
5490000,0.0324,0.013523,0.002678,0.000431,0.021390
5491000,0.0324,0.013523,0.002678,0.000431,0.020920
5492000,0.0324,0.013523,0.002678,0.000431,0.022683
5493000,0.0324,0.013523,0.002678,0.000431,0.022918
5494000,0.0324,0.013523,0.002678,0.000431,0.022213
5495000,0.0324,0.013523,0.002678,0.000431,0.021860
5496000,0.0324,0.013523,0.002678,0.000431,0.021155
5497000,0.0324,0.013523,0.002678,0.000431,0.021038
5498000,0.0324,0.013523,0.002678,0.000431,0.022330
5499000,0.0324,0.013523,0.002678,0.000431,0.022330
5500000,0.0324,0.013523,0.002678,0.000431,0.022095
5501000,0.0324,0.013523,0.002678,0.000431,0.021508
5502000,0.0324,0.013523,0.002678,0.000431,0.021155
5503000,0.0324,0.013523,0.002678,0.000431,0.022095
5504000,0.0324,0.013523,0.002678,0.000431,0.021273
5505000,0.0324,0.013523,0.002678,0.000431,0.019745
5506000,0.0324,0.013523,0.002678,0.000431,0.022918
5507000,0.0324,0.013523,0.002678,0.000431,0.019980
5508000,0.0324,0.013523,0.002678,0.000431,0.023388
5509000,0.0324,0.013523,0.002678,0.000431,0.021155
5510000,0.0324,0.013523,0.002678,0.000431,0.021155
5511000,0.0324,0.013523,0.002678,0.000431,0.021273
5512000,0.0324,0.013523,0.002678,0.000431,0.020450
5513000,0.0324,0.013523,0.002678,0.000431,0.022565
5514000,0.0324,0.013523,0.002678,0.000431,0.020215
5515000,0.0324,0.013523,0.002678,0.000431,0.021625
5516000,0.0324,0.013523,0.002678,0.000431,0.019275
5517000,0.0324,0.013523,0.002678,0.000431,0.020332
5518000,0.0324,0.013523,0.002678,0.000431,0.022565
5519000,0.0324,0.013523,0.002678,0.000431,0.020567
5520000,0.0324,0.013523,0.002678,0.000431,0.020920
5521000,0.0324,0.013523,0.002678,0.000431,0.020215
5522000,0.0324,0.013523,0.002678,0.000431,0.021743
5523000,0.0324,0.013523,0.002678,0.000431,0.021860
5524000,0.0324,0.013523,0.002678,0.000431,0.020450
5525000,0.0324,0.013523,0.002678,0.000431,0.020097
5526000,0.0324,0.013523,0.002678,0.000431,0.021508
5527000,0.0324,0.013523,0.002678,0.000431,0.020802
5528000,0.0324,0.013523,0.002678,0.000431,0.021155
5529000,0.0324,0.013523,0.002678,0.000431,0.020567
5530000,0.0324,0.013523,0.002678,0.000431,0.020567
5531000,0.0324,0.013523,0.002678,0.000431,0.019745
5532000,0.0324,0.013523,0.002678,0.000431,0.022213
5533000,0.0324,0.013523,0.002678,0.000431,0.019392
5534000,0.0324,0.013523,0.002678,0.000431,0.020215
5535000,0.0324,0.013523,0.002678,0.000431,0.020920
5536000,0.0324,0.013523,0.002678,0.000431,0.021273
5537000,0.0324,0.013523,0.002678,0.000431,0.020802
5538000,0.0324,0.013523,0.002678,0.000431,0.020215
5539000,0.0324,0.013523,0.002678,0.000431,0.022095
5540000,0.0324,0.013523,0.002678,0.000431,0.020215
5541000,0.0324,0.013523,0.002678,0.000431,0.020920
5542000,0.0324,0.013523,0.002678,0.000431,0.021038
5543000,0.0324,0.013523,0.002678,0.000431,0.020097
5544000,0.0324,0.013523,0.002678,0.000431,0.019745
5545000,0.0324,0.013523,0.002678,0.000431,0.021860
5546000,0.0324,0.013523,0.002678,0.000431,0.021273
5547000,0.0324,0.013523,0.002678,0.000431,0.020450
5548000,0.0324,0.013523,0.002678,0.000431,0.020920
5549000,0.0324,0.013523,0.002678,0.000431,0.021273
5550000,0.0324,0.013523,0.002678,0.000431,0.019745
5551000,0.0324,0.013523,0.002678,0.000431,0.021508
5552000,0.0324,0.013523,0.002678,0.000431,0.020450
5553000,0.0324,0.013523,0.002678,0.000431,0.021038
5554000,0.0324,0.013523,0.002678,0.000431,0.021625
5555000,0.0324,0.013523,0.002678,0.000431,0.022095
5556000,0.0324,0.013523,0.002678,0.000431,0.020920
5557000,0.0324,0.013523,0.002678,0.000431,0.020802
5558000,0.0324,0.013523,0.002678,0.000431,0.020450
5559000,0.0324,0.013523,0.002678,0.000431,0.021273
5560000,0.0324,0.013523,0.002678,0.000431,0.018569
5561000,0.0324,0.013523,0.002678,0.000431,0.021390
5562000,0.0324,0.013523,0.002678,0.000431,0.021390
5563000,0.0324,0.013523,0.002678,0.000431,0.019980
5564000,0.0324,0.013523,0.002678,0.000431,0.020685
5565000,0.0324,0.013523,0.002678,0.000431,0.022213
5566000,0.0324,0.013523,0.002678,0.000431,0.020567
5567000,0.0324,0.013523,0.002678,0.000431,0.021625
5568000,0.0324,0.013523,0.002678,0.000431,0.019627
5569000,0.0324,0.013523,0.002678,0.000431,0.023036
5570000,0.0324,0.013523,0.002678,0.000431,0.019980
5571000,0.0324,0.013523,0.002678,0.000431,0.021743
5572000,0.0324,0.013523,0.002678,0.000431,0.021743
5573000,0.0324,0.013523,0.002678,0.000431,0.020567
5574000,0.0324,0.013523,0.002678,0.000431,0.019627
5575000,0.0324,0.013523,0.002678,0.000431,0.023506
5576000,0.0324,0.013523,0.002678,0.000431,0.019980
5577000,0.0324,0.013523,0.002678,0.000431,0.020097
5578000,0.0324,0.013523,0.002678,0.000431,0.021155
5579000,0.0324,0.013523,0.002678,0.000431,0.021860
5580000,0.0324,0.013523,0.002678,0.000431,0.019980
5581000,0.0324,0.013523,0.002678,0.000431,0.020685
5582000,0.0324,0.013523,0.002678,0.000431,0.020802
5583000,0.0324,0.013523,0.002678,0.000431,0.020215
5584000,0.0324,0.013523,0.002678,0.000431,0.019980
5585000,0.0324,0.013523,0.002678,0.000431,0.020215
5586000,0.0324,0.013523,0.002678,0.000431,0.021155
5587000,0.0324,0.013523,0.002678,0.000431,0.020332
5588000,0.0324,0.013523,0.002678,0.000431,0.022213
5589000,0.0324,0.013523,0.002678,0.000431,0.019980
5590000,0.0324,0.013523,0.002678,0.000431,0.019980
5591000,0.0324,0.013523,0.002678,0.000431,0.019862
5592000,0.0324,0.013523,0.002678,0.000431,0.021155
5593000,0.0324,0.013523,0.002678,0.000431,0.021273
5594000,0.0324,0.013523,0.002678,0.000431,0.019392
5595000,0.0324,0.013523,0.002678,0.000431,0.021390
5596000,0.0324,0.013523,0.002678,0.000431,0.020567
5597000,0.0324,0.013523,0.002678,0.000431,0.021155
5598000,0.0324,0.013523,0.002678,0.000431,0.020685
5599000,0.0324,0.013523,0.002678,0.000431,0.021273
5600000,0.0324,0.013523,0.002678,0.000431,0.020215
5601000,0.0324,0.013523,0.002678,0.000431,0.019157
5602000,0.0324,0.013523,0.002678,0.000431,0.021038
5603000,0.0324,0.013523,0.002678,0.000431,0.021390
5604000,0.0324,0.013523,0.002678,0.000431,0.019862
5605000,0.0324,0.013523,0.002678,0.000431,0.021390
5606000,0.0324,0.013523,0.002678,0.000431,0.019040
5607000,0.0324,0.013523,0.002678,0.000431,0.021390
5608000,0.0324,0.013523,0.002678,0.000431,0.022565
5609000,0.0324,0.013523,0.002678,0.000431,0.021038
5610000,0.0324,0.013523,0.002678,0.000431,0.019040
5611000,0.0324,0.013523,0.002678,0.000431,0.023036
5612000,0.0324,0.013523,0.002678,0.000431,0.020685
5613000,0.0324,0.013523,0.002678,0.000431,0.022095
5614000,0.0324,0.013523,0.002678,0.000431,0.019392
5615000,0.0324,0.013523,0.002678,0.000431,0.021743
5616000,0.0324,0.013523,0.002678,0.000431,0.021273
5617000,0.0324,0.013523,0.002678,0.000431,0.019745
5618000,0.0324,0.013523,0.002678,0.000431,0.020802
5619000,0.0324,0.013523,0.002678,0.000431,0.021508
5620000,0.0324,0.013523,0.002678,0.000431,0.019510
5621000,0.0324,0.013523,0.002678,0.000431,0.020685
5622000,0.0324,0.013523,0.002678,0.000431,0.021743
5623000,0.0324,0.013523,0.002678,0.000431,0.019040
5624000,0.0324,0.013523,0.002678,0.000431,0.021508
5625000,0.0324,0.013523,0.002678,0.000431,0.020567
5626000,0.0324,0.013523,0.002678,0.000431,0.022330
5627000,0.0324,0.013523,0.002678,0.000431,0.018099
5628000,0.0324,0.013523,0.002678,0.000431,0.023036
5629000,0.0324,0.013523,0.002678,0.000431,0.019392
5630000,0.0324,0.013523,0.002678,0.000431,0.022800
5631000,0.0324,0.013523,0.002678,0.000431,0.019510
5632000,0.0324,0.013523,0.002678,0.000431,0.021978
5633000,0.0324,0.013523,0.002678,0.000431,0.020567
5634000,0.0324,0.013523,0.002678,0.000431,0.021860
5635000,0.0324,0.013523,0.002678,0.000431,0.019862
5636000,0.0324,0.013523,0.002678,0.000431,0.022095
5637000,0.0324,0.013523,0.002678,0.000431,0.019157
5638000,0.0324,0.013523,0.002678,0.000431,0.020802
5639000,0.0324,0.013523,0.002678,0.000431,0.020332
5640000,0.0324,0.013523,0.002678,0.000431,0.019862
5641000,0.0324,0.013523,0.002678,0.000431,0.021625
5642000,0.0324,0.013523,0.002678,0.000431,0.019275
5643000,0.0324,0.013523,0.002678,0.000431,0.021038
5644000,0.0324,0.013523,0.002678,0.000431,0.020332
5645000,0.0324,0.013523,0.002678,0.000431,0.022330
5646000,0.0324,0.013523,0.002678,0.000431,0.019627
5647000,0.0324,0.013523,0.002678,0.000431,0.022565
5648000,0.0324,0.013523,0.002678,0.000431,0.019862
5649000,0.0324,0.013523,0.002678,0.000431,0.021155
5650000,0.0324,0.013523,0.002678,0.000431,0.020215
5651000,0.0324,0.013523,0.002678,0.000431,0.020802
5652000,0.0324,0.013523,0.002678,0.000431,0.020685
5653000,0.0324,0.013523,0.002678,0.000431,0.021625
5654000,0.0324,0.013523,0.002678,0.000431,0.019980
5655000,0.0324,0.013523,0.002678,0.000431,0.021273
5656000,0.0324,0.013523,0.002678,0.000431,0.019862
5657000,0.0324,0.013523,0.002678,0.000431,0.020097
5658000,0.0324,0.013523,0.002678,0.000431,0.019510
5659000,0.0324,0.013523,0.002678,0.000431,0.019980
5660000,0.0324,0.013523,0.002678,0.000431,0.021155
5661000,0.0324,0.013523,0.002678,0.000431,0.020332
5662000,0.0324,0.013523,0.002678,0.000431,0.019275
5663000,0.0324,0.013523,0.002678,0.000431,0.020685
5664000,0.0324,0.013523,0.002678,0.000431,0.021155
5665000,0.0324,0.013523,0.002678,0.000431,0.020567
5666000,0.0324,0.013523,0.002678,0.000431,0.021038
5667000,0.0324,0.013523,0.002678,0.000431,0.018334
5668000,0.0324,0.013523,0.002678,0.000431,0.021038
5669000,0.0324,0.013523,0.002678,0.000431,0.020920
5670000,0.0324,0.013523,0.002678,0.000431,0.020567
5671000,0.0324,0.013523,0.002678,0.000431,0.018334
5672000,0.0324,0.013523,0.002678,0.000431,0.021155
5673000,0.0324,0.013523,0.002678,0.000431,0.019862
5674000,0.0324,0.013523,0.002678,0.000431,0.021038
5675000,0.0324,0.013523,0.002678,0.000431,0.018922
5676000,0.0324,0.013523,0.002678,0.000431,0.020685
5677000,0.0324,0.013523,0.002678,0.000431,0.019862
5678000,0.0324,0.013523,0.002678,0.000431,0.020450
5679000,0.0324,0.013523,0.002678,0.000431,0.019745
5680000,0.0324,0.013523,0.002678,0.000431,0.021978
5681000,0.0324,0.013523,0.002678,0.000431,0.019157
5682000,0.0324,0.013523,0.002678,0.000431,0.019980
5683000,0.0324,0.013523,0.002678,0.000431,0.022565
5684000,0.0324,0.013523,0.002678,0.000431,0.019862
5685000,0.0324,0.013523,0.002678,0.000431,0.020802
5686000,0.0324,0.013523,0.002678,0.000431,0.020332
5687000,0.0324,0.013523,0.002678,0.000431,0.020332
5688000,0.0324,0.013523,0.002678,0.000431,0.019745
5689000,0.0324,0.013523,0.002678,0.000431,0.021743
5690000,0.0324,0.013523,0.002678,0.000431,0.019745
5691000,0.0324,0.013523,0.002678,0.000431,0.020685
5692000,0.0324,0.013523,0.002678,0.000431,0.020097
5693000,0.0324,0.013523,0.002678,0.000431,0.021508
5694000,0.0324,0.013523,0.002678,0.000431,0.017747
5695000,0.0324,0.013523,0.002678,0.000431,0.021860
5696000,0.0324,0.013523,0.002678,0.000431,0.021038
5697000,0.0324,0.013523,0.002678,0.000431,0.020685
5698000,0.0324,0.013523,0.002678,0.000431,0.019040
5699000,0.0324,0.013523,0.002678,0.000431,0.020802
5700000,0.0324,0.013523,0.002678,0.000431,0.018569
5701000,0.0324,0.013523,0.002678,0.000431,0.020097
5702000,0.0324,0.013523,0.002678,0.000431,0.019980
5703000,0.0324,0.013523,0.002678,0.000431,0.019980
5704000,0.0324,0.013523,0.002678,0.000431,0.020450
5705000,0.0324,0.013523,0.002678,0.000431,0.018334
5706000,0.0324,0.013523,0.002678,0.000431,0.020450
5707000,0.0324,0.013523,0.002678,0.000431,0.019862
5708000,0.0324,0.013523,0.002678,0.000431,0.018922
5709000,0.0324,0.013523,0.002678,0.000431,0.019862
5710000,0.0324,0.013523,0.002678,0.000431,0.020685
5711000,0.0324,0.013523,0.002678,0.000431,0.019627
5712000,0.0324,0.013523,0.002678,0.000431,0.019275
5713000,0.0324,0.013523,0.002678,0.000431,0.021273
5714000,0.0324,0.013523,0.002678,0.000431,0.019980
5715000,0.0324,0.013523,0.002678,0.000431,0.019040
5716000,0.0324,0.013523,0.002678,0.000431,0.021273
5717000,0.0324,0.013523,0.002678,0.000431,0.019745
5718000,0.0324,0.013523,0.002678,0.000431,0.020450
5719000,0.0324,0.013523,0.002678,0.000431,0.018805
5720000,0.0324,0.013523,0.002678,0.000431,0.020920
5721000,0.0324,0.013523,0.002678,0.000431,0.018922
5722000,0.0324,0.013523,0.002678,0.000431,0.019745
5723000,0.0324,0.013523,0.002678,0.000431,0.020450
5724000,0.0324,0.013523,0.002678,0.000431,0.019980
5725000,0.0324,0.013523,0.002678,0.000431,0.020567
5726000,0.0324,0.013523,0.002678,0.000431,0.020450
5727000,0.0324,0.013523,0.002678,0.000431,0.020215
5728000,0.0324,0.013523,0.002678,0.000431,0.019157
5729000,0.0324,0.013523,0.002678,0.000431,0.020097
5730000,0.0324,0.013523,0.002678,0.000431,0.021743
5731000,0.0324,0.013523,0.002678,0.000431,0.019510
5732000,0.0324,0.013523,0.002678,0.000431,0.019627
5733000,0.0324,0.013523,0.002678,0.000431,0.020332
5734000,0.0324,0.013523,0.002678,0.000431,0.019980
5735000,0.0324,0.013523,0.002678,0.000431,0.020215
5736000,0.0324,0.013523,0.002678,0.000431,0.019275
5737000,0.0324,0.013523,0.002678,0.000431,0.021390
5738000,0.0324,0.013523,0.002678,0.000431,0.019392
5739000,0.0324,0.013523,0.002678,0.000431,0.020802
5740000,0.0324,0.013523,0.002678,0.000431,0.021038
5741000,0.0324,0.013523,0.002678,0.000431,0.018805
5742000,0.0324,0.013523,0.002678,0.000431,0.021978
5743000,0.0324,0.013523,0.002678,0.000431,0.020450
5744000,0.0324,0.013523,0.002678,0.000431,0.019862
5745000,0.0324,0.013523,0.002678,0.000431,0.019040
5746000,0.0324,0.013523,0.002678,0.000431,0.019392
5747000,0.0324,0.013523,0.002678,0.000431,0.019980
5748000,0.0324,0.013523,0.002678,0.000431,0.020215
5749000,0.0324,0.013523,0.002678,0.000431,0.020215
5750000,0.0324,0.013523,0.002678,0.000431,0.020332
5751000,0.0324,0.013523,0.002678,0.000431,0.020215
5752000,0.0324,0.013523,0.002678,0.000431,0.018687
5753000,0.0324,0.013523,0.002678,0.000431,0.021508
5754000,0.0324,0.013523,0.002678,0.000431,0.019510
5755000,0.0324,0.013523,0.002678,0.000431,0.019392
5756000,0.0324,0.013523,0.002678,0.000431,0.019392
5757000,0.0324,0.013523,0.002678,0.000431,0.020450
5758000,0.0324,0.013523,0.002678,0.000431,0.019627
5759000,0.0324,0.013523,0.002678,0.000431,0.019745
5760000,0.0324,0.013523,0.002678,0.000431,0.019745
5761000,0.0324,0.013523,0.002678,0.000431,0.019627
5762000,0.0324,0.013523,0.002678,0.000431,0.018805
5763000,0.0324,0.013523,0.002678,0.000431,0.021743
5764000,0.0324,0.013523,0.002678,0.000431,0.019510
5765000,0.0324,0.013523,0.002678,0.000431,0.019745
5766000,0.0324,0.013523,0.002678,0.000431,0.019510
5767000,0.0324,0.013523,0.002678,0.000431,0.020215
5768000,0.0324,0.013523,0.002678,0.000431,0.019275
5769000,0.0324,0.013523,0.002678,0.000431,0.019510
5770000,0.0324,0.013523,0.002678,0.000431,0.019040
5771000,0.0324,0.013523,0.002678,0.000431,0.018922
5772000,0.0324,0.013523,0.002678,0.000431,0.019745
5773000,0.0324,0.013523,0.002678,0.000431,0.020332
5774000,0.0324,0.013523,0.002678,0.000431,0.019040
5775000,0.0324,0.013523,0.002678,0.000431,0.019275
5776000,0.0324,0.013523,0.002678,0.000431,0.019627
5777000,0.0324,0.013523,0.002678,0.000431,0.019745
5778000,0.0324,0.013523,0.002678,0.000431,0.018922
5779000,0.0324,0.013523,0.002678,0.000431,0.019745
5780000,0.0324,0.013523,0.002678,0.000431,0.020332
5781000,0.0324,0.013523,0.002678,0.000431,0.019157
5782000,0.0324,0.013523,0.002678,0.000431,0.019157
5783000,0.0324,0.013523,0.002678,0.000431,0.019275
5784000,0.0324,0.013523,0.002678,0.000431,0.020685
5785000,0.0324,0.013523,0.002678,0.000431,0.018452
5786000,0.0324,0.013523,0.002678,0.000431,0.020920
5787000,0.0324,0.013523,0.002678,0.000431,0.019980
5788000,0.0324,0.013523,0.002678,0.000431,0.018099
5789000,0.0324,0.013523,0.002678,0.000431,0.018687
5790000,0.0324,0.013523,0.002678,0.000431,0.019745
5791000,0.0324,0.013523,0.002678,0.000431,0.019627
5792000,0.0324,0.013523,0.002678,0.000431,0.019040
5793000,0.0324,0.013523,0.002678,0.000431,0.019157
5794000,0.0324,0.013523,0.002678,0.000431,0.019980
5795000,0.0324,0.013523,0.002678,0.000431,0.019980
5796000,0.0324,0.013523,0.002678,0.000431,0.019980
5797000,0.0324,0.013523,0.002678,0.000431,0.018805
5798000,0.0324,0.013523,0.002678,0.000431,0.019275
5799000,0.0324,0.013523,0.002678,0.000431,0.019040
5800000,0.0324,0.013523,0.002678,0.000431,0.018452
5801000,0.0324,0.013523,0.002678,0.000431,0.021508
5802000,0.0324,0.013523,0.002678,0.000431,0.018099
5803000,0.0324,0.013523,0.002678,0.000431,0.021155
5804000,0.0324,0.013523,0.002678,0.000431,0.019627
5805000,0.0324,0.013523,0.002678,0.000431,0.020567
5806000,0.0324,0.013523,0.002678,0.000431,0.019275
5807000,0.0324,0.013523,0.002678,0.000431,0.020567
5808000,0.0324,0.013523,0.002678,0.000431,0.019157
5809000,0.0324,0.013523,0.002678,0.000431,0.018334
5810000,0.0324,0.013523,0.002678,0.000431,0.020450
5811000,0.0324,0.013523,0.002678,0.000431,0.019627
5812000,0.0324,0.013523,0.002678,0.000431,0.019627
5813000,0.0324,0.013523,0.002678,0.000431,0.018687
5814000,0.0324,0.013523,0.002678,0.000431,0.021273
5815000,0.0324,0.013523,0.002678,0.000431,0.019040
5816000,0.0324,0.013523,0.002678,0.000431,0.019275
5817000,0.0324,0.013523,0.002678,0.000431,0.018922
5818000,0.0324,0.013523,0.002678,0.000431,0.020567
5819000,0.0324,0.013523,0.002678,0.000431,0.019040
5820000,0.0324,0.013523,0.002678,0.000431,0.019627
5821000,0.0324,0.013523,0.002678,0.000431,0.020685
5822000,0.0324,0.013523,0.002678,0.000431,0.018217
5823000,0.0324,0.013523,0.002678,0.000431,0.019392
5824000,0.0324,0.013523,0.002678,0.000431,0.021625
5825000,0.0324,0.013523,0.002678,0.000431,0.018217
5826000,0.0324,0.013523,0.002678,0.000431,0.020332
5827000,0.0324,0.013523,0.002678,0.000431,0.020215
5828000,0.0324,0.013523,0.002678,0.000431,0.018569
5829000,0.0324,0.013523,0.002678,0.000431,0.020567
5830000,0.0324,0.013523,0.002678,0.000431,0.017982
5831000,0.0324,0.013523,0.002678,0.000431,0.018334
5832000,0.0324,0.013523,0.002678,0.000431,0.018687
5833000,0.0324,0.013523,0.002678,0.000431,0.018922
5834000,0.0324,0.013523,0.002678,0.000431,0.021390
5835000,0.0324,0.013523,0.002678,0.000431,0.019275
5836000,0.0324,0.013523,0.002678,0.000431,0.018334
5837000,0.0324,0.013523,0.002678,0.000431,0.019275
5838000,0.0324,0.013523,0.002678,0.000431,0.021038
5839000,0.0324,0.013523,0.002678,0.000431,0.018452
5840000,0.0324,0.013523,0.002678,0.000431,0.019275
5841000,0.0324,0.013523,0.002678,0.000431,0.019627
5842000,0.0324,0.013523,0.002678,0.000431,0.019275
5843000,0.0324,0.013523,0.002678,0.000431,0.018569
5844000,0.0324,0.013523,0.002678,0.000431,0.019157
5845000,0.0324,0.013523,0.002678,0.000431,0.019157
5846000,0.0324,0.013523,0.002678,0.000431,0.019157
5847000,0.0324,0.013523,0.002678,0.000431,0.019157
5848000,0.0324,0.013523,0.002678,0.000431,0.019862
5849000,0.0324,0.013523,0.002678,0.000431,0.017277
5850000,0.0324,0.013523,0.002678,0.000431,0.019275
5851000,0.0324,0.013523,0.002678,0.000431,0.018452
5852000,0.0324,0.013523,0.002678,0.000431,0.019627
5853000,0.0324,0.013523,0.002678,0.000431,0.019392
5854000,0.0324,0.013523,0.002678,0.000431,0.019275
5855000,0.0324,0.013523,0.002678,0.000431,0.019040
5856000,0.0324,0.013523,0.002678,0.000431,0.017394
5857000,0.0324,0.013523,0.002678,0.000431,0.020685
5858000,0.0324,0.013523,0.002678,0.000431,0.020450
5859000,0.0324,0.013523,0.002678,0.000431,0.017982
5860000,0.0324,0.013523,0.002678,0.000431,0.019392
5861000,0.0324,0.013523,0.002678,0.000431,0.020450
5862000,0.0324,0.013523,0.002678,0.000431,0.020097
5863000,0.0324,0.013523,0.002678,0.000431,0.018922
5864000,0.0324,0.013523,0.002678,0.000431,0.018805
5865000,0.0324,0.013523,0.002678,0.000431,0.020215
5866000,0.0324,0.013523,0.002678,0.000431,0.018452
5867000,0.0324,0.013523,0.002678,0.000431,0.018687
5868000,0.0324,0.013523,0.002678,0.000431,0.019627
5869000,0.0324,0.013523,0.002678,0.000431,0.019745
5870000,0.0324,0.013523,0.002678,0.000431,0.017394
5871000,0.0324,0.013523,0.002678,0.000431,0.021273
5872000,0.0324,0.013523,0.002678,0.000431,0.017982
5873000,0.0324,0.013523,0.002678,0.000431,0.017864
5874000,0.0324,0.013523,0.002678,0.000431,0.019627
5875000,0.0324,0.013523,0.002678,0.000431,0.019510
5876000,0.0324,0.013523,0.002678,0.000431,0.018922
5877000,0.0324,0.013523,0.002678,0.000431,0.019862
5878000,0.0324,0.013523,0.002678,0.000431,0.018805
5879000,0.0324,0.013523,0.002678,0.000431,0.019980
5880000,0.0324,0.013523,0.002678,0.000431,0.017982
5881000,0.0324,0.013523,0.002678,0.000431,0.021273
5882000,0.0324,0.013523,0.002678,0.000431,0.019157
5883000,0.0324,0.013523,0.002678,0.000431,0.017394
5884000,0.0324,0.013523,0.002678,0.000431,0.019040
5885000,0.0324,0.013523,0.002678,0.000431,0.020567
5886000,0.0324,0.013523,0.002678,0.000431,0.019157
5887000,0.0324,0.013523,0.002678,0.000431,0.018334
5888000,0.0324,0.013523,0.002678,0.000431,0.021155
5889000,0.0324,0.013523,0.002678,0.000431,0.017747
5890000,0.0324,0.013523,0.002678,0.000431,0.021625
5891000,0.0324,0.013523,0.002678,0.000431,0.017277
5892000,0.0324,0.013523,0.002678,0.000431,0.020215
5893000,0.0324,0.013523,0.002678,0.000431,0.017042
5894000,0.0324,0.013523,0.002678,0.000431,0.020920
5895000,0.0324,0.013523,0.002678,0.000431,0.018687
5896000,0.0324,0.013523,0.002678,0.000431,0.019862
5897000,0.0324,0.013523,0.002678,0.000431,0.017747
5898000,0.0324,0.013523,0.002678,0.000431,0.019745
5899000,0.0324,0.013523,0.002678,0.000431,0.019392
5900000,0.0324,0.013523,0.002678,0.000431,0.018569
5901000,0.0324,0.013523,0.002678,0.000431,0.018217
5902000,0.0324,0.013523,0.002678,0.000431,0.020215
5903000,0.0324,0.013523,0.002678,0.000431,0.018687
5904000,0.0324,0.013523,0.002678,0.000431,0.019862
5905000,0.0324,0.013523,0.002678,0.000431,0.018099
5906000,0.0324,0.013523,0.002678,0.000431,0.018687
5907000,0.0324,0.013523,0.002678,0.000431,0.018687
5908000,0.0324,0.013523,0.002678,0.000431,0.020215
5909000,0.0324,0.013523,0.002678,0.000431,0.019980
5910000,0.0324,0.013523,0.002678,0.000431,0.018687
5911000,0.0324,0.013523,0.002678,0.000431,0.019275
5912000,0.0324,0.013523,0.002678,0.000431,0.019862
5913000,0.0324,0.013523,0.002678,0.000431,0.019862
5914000,0.0324,0.013523,0.002678,0.000431,0.019745
5915000,0.0324,0.013523,0.002678,0.000431,0.020567
5916000,0.0324,0.013523,0.002678,0.000431,0.017512
5917000,0.0324,0.013523,0.002678,0.000431,0.019040
5918000,0.0324,0.013523,0.002678,0.000431,0.020450
5919000,0.0324,0.013523,0.002678,0.000431,0.020097
5920000,0.0324,0.013523,0.002678,0.000431,0.017982
5921000,0.0324,0.013523,0.002678,0.000431,0.018334
5922000,0.0324,0.013523,0.002678,0.000431,0.018217
5923000,0.0324,0.013523,0.002678,0.000431,0.019627
5924000,0.0324,0.013523,0.002678,0.000431,0.018452
5925000,0.0324,0.013523,0.002678,0.000431,0.019627
5926000,0.0324,0.013523,0.002678,0.000431,0.018922
5927000,0.0324,0.013523,0.002678,0.000431,0.017042
5928000,0.0324,0.013523,0.002678,0.000431,0.018687
5929000,0.0324,0.013523,0.002678,0.000431,0.018217
5930000,0.0324,0.013523,0.002678,0.000431,0.017982
5931000,0.0324,0.013523,0.002678,0.000431,0.017042
5932000,0.0324,0.013523,0.002678,0.000431,0.019157
5933000,0.0324,0.013523,0.002678,0.000431,0.016689
5934000,0.0324,0.013523,0.002678,0.000431,0.018217
5935000,0.0324,0.013523,0.002678,0.000431,0.018922
5936000,0.0324,0.013523,0.002678,0.000431,0.018099
5937000,0.0324,0.013523,0.002678,0.000431,0.017982
5938000,0.0324,0.013523,0.002678,0.000431,0.018334
5939000,0.0324,0.013523,0.002678,0.000431,0.017747
5940000,0.0324,0.013523,0.002678,0.000431,0.016807
5941000,0.0324,0.013523,0.002678,0.000431,0.017864
5942000,0.0324,0.013523,0.002678,0.000431,0.019627
5943000,0.0324,0.013523,0.002678,0.000431,0.016924
5944000,0.0324,0.013523,0.002678,0.000431,0.017864
5945000,0.0324,0.013523,0.002678,0.000431,0.017982
5946000,0.0324,0.013523,0.002678,0.000431,0.017747
5947000,0.0324,0.013523,0.002678,0.000431,0.018217
5948000,0.0324,0.013523,0.002678,0.000431,0.016689
5949000,0.0324,0.013523,0.002678,0.000431,0.018805
5950000,0.0324,0.013523,0.002678,0.000431,0.016689
5951000,0.0324,0.013523,0.002678,0.000431,0.018569
5952000,0.0324,0.013523,0.002678,0.000431,0.017747
5953000,0.0324,0.013523,0.002678,0.000431,0.017159
5954000,0.0324,0.013523,0.002678,0.000431,0.018805
5955000,0.0324,0.013523,0.002678,0.000431,0.016219
5956000,0.0324,0.013523,0.002678,0.000431,0.019980
5957000,0.0324,0.013523,0.002678,0.000431,0.017864
5958000,0.0324,0.013523,0.002678,0.000431,0.017159
5959000,0.0324,0.013523,0.002678,0.000431,0.018099
5960000,0.0324,0.013523,0.002678,0.000431,0.018099
5961000,0.0324,0.013523,0.002678,0.000431,0.017629
5962000,0.0324,0.013523,0.002678,0.000431,0.018334
5963000,0.0324,0.013523,0.002678,0.000431,0.016101
5964000,0.0324,0.013523,0.002678,0.000431,0.018922
5965000,0.0324,0.013523,0.002678,0.000431,0.017042
5966000,0.0324,0.013523,0.002678,0.000431,0.018452
5967000,0.0324,0.013523,0.002678,0.000431,0.017042
5968000,0.0324,0.013523,0.002678,0.000431,0.017394
5969000,0.0324,0.013523,0.002678,0.000431,0.018099
5970000,0.0324,0.013523,0.002678,0.000431,0.018452
5971000,0.0324,0.013523,0.002678,0.000431,0.017277
5972000,0.0324,0.013523,0.002678,0.000431,0.018687
5973000,0.0324,0.013523,0.002678,0.000431,0.018452
5974000,0.0324,0.013523,0.002678,0.000431,0.016689
5975000,0.0324,0.013523,0.002678,0.000431,0.018805
5976000,0.0324,0.013523,0.002678,0.000431,0.017394
5977000,0.0324,0.013523,0.002678,0.000431,0.017982
5978000,0.0324,0.013523,0.002678,0.000431,0.018099
5979000,0.0324,0.013523,0.002678,0.000431,0.017277
5980000,0.0324,0.013523,0.002678,0.000431,0.018099
5981000,0.0324,0.013523,0.002678,0.000431,0.017042
5982000,0.0324,0.013523,0.002678,0.000431,0.016571
5983000,0.0324,0.013523,0.002678,0.000431,0.017512
5984000,0.0324,0.013523,0.002678,0.000431,0.017159
5985000,0.0324,0.013523,0.002678,0.000431,0.018099
5986000,0.0324,0.013523,0.002678,0.000431,0.017042
5987000,0.0324,0.013523,0.002678,0.000431,0.018334
5988000,0.0324,0.013523,0.002678,0.000431,0.016454
5989000,0.0324,0.013523,0.002678,0.000431,0.018805
5990000,0.0324,0.013523,0.002678,0.000431,0.016571
5991000,0.0324,0.013523,0.002678,0.000431,0.018687
5992000,0.0324,0.013523,0.002678,0.000431,0.017394
5993000,0.0324,0.013523,0.002678,0.000431,0.019745
5994000,0.0324,0.013523,0.002678,0.000431,0.016336
5995000,0.0324,0.013523,0.002678,0.000431,0.018099
5996000,0.0324,0.013523,0.002678,0.000431,0.017629
5997000,0.0324,0.013523,0.002678,0.000431,0.016807
5998000,0.0324,0.013523,0.002678,0.000431,0.017629
5999000,0.0324,0.013523,0.002678,0.000431,0.016807
