Cycle,Area(mm^2),PeakDynamic(W),SubthresholdLeakage(W),GateLeakage(W),RunTimeDynamic(W)
6000000,0.0324,0.013523,0.002678,0.000431,0.018569
6001000,0.0324,0.013523,0.002678,0.000431,0.017159
6002000,0.0324,0.013523,0.002678,0.000431,0.017747
6003000,0.0324,0.013523,0.002678,0.000431,0.018217
6004000,0.0324,0.013523,0.002678,0.000431,0.018099
6005000,0.0324,0.013523,0.002678,0.000431,0.017394
6006000,0.0324,0.013523,0.002678,0.000431,0.018334
6007000,0.0324,0.013523,0.002678,0.000431,0.016924
6008000,0.0324,0.013523,0.002678,0.000431,0.016924
6009000,0.0324,0.013523,0.002678,0.000431,0.017394
6010000,0.0324,0.013523,0.002678,0.000431,0.018687
6011000,0.0324,0.013523,0.002678,0.000431,0.018099
6012000,0.0324,0.013523,0.002678,0.000431,0.017982
6013000,0.0324,0.013523,0.002678,0.000431,0.017042
6014000,0.0324,0.013523,0.002678,0.000431,0.019275
6015000,0.0324,0.013523,0.002678,0.000431,0.017864
6016000,0.0324,0.013523,0.002678,0.000431,0.016689
6017000,0.0324,0.013523,0.002678,0.000431,0.019040
6018000,0.0324,0.013523,0.002678,0.000431,0.018569
6019000,0.0324,0.013523,0.002678,0.000431,0.016689
6020000,0.0324,0.013523,0.002678,0.000431,0.018217
6021000,0.0324,0.013523,0.002678,0.000431,0.018099
6022000,0.0324,0.013523,0.002678,0.000431,0.018922
6023000,0.0324,0.013523,0.002678,0.000431,0.016336
6024000,0.0324,0.013523,0.002678,0.000431,0.017629
6025000,0.0324,0.013523,0.002678,0.000431,0.017277
6026000,0.0324,0.013523,0.002678,0.000431,0.016807
6027000,0.0324,0.013523,0.002678,0.000431,0.018569
6028000,0.0324,0.013523,0.002678,0.000431,0.017629
6029000,0.0324,0.013523,0.002678,0.000431,0.015631
6030000,0.0324,0.013523,0.002678,0.000431,0.019510
6031000,0.0324,0.013523,0.002678,0.000431,0.017277
6032000,0.0324,0.013523,0.002678,0.000431,0.018099
6033000,0.0324,0.013523,0.002678,0.000431,0.017982
6034000,0.0324,0.013523,0.002678,0.000431,0.018687
6035000,0.0324,0.013523,0.002678,0.000431,0.016336
6036000,0.0324,0.013523,0.002678,0.000431,0.017864
6037000,0.0324,0.013523,0.002678,0.000431,0.018569
6038000,0.0324,0.013523,0.002678,0.000431,0.017159
6039000,0.0324,0.013523,0.002678,0.000431,0.017042
6040000,0.0324,0.013523,0.002678,0.000431,0.018569
6041000,0.0324,0.013523,0.002678,0.000431,0.018099
6042000,0.0324,0.013523,0.002678,0.000431,0.017394
6043000,0.0324,0.013523,0.002678,0.000431,0.016219
6044000,0.0324,0.013523,0.002678,0.000431,0.018452
6045000,0.0324,0.013523,0.002678,0.000431,0.017277
6046000,0.0324,0.013523,0.002678,0.000431,0.018334
6047000,0.0324,0.013523,0.002678,0.000431,0.017394
6048000,0.0324,0.013523,0.002678,0.000431,0.018099
6049000,0.0324,0.013523,0.002678,0.000431,0.017982
6050000,0.0324,0.013523,0.002678,0.000431,0.016571
6051000,0.0324,0.013523,0.002678,0.000431,0.017982
6052000,0.0324,0.013523,0.002678,0.000431,0.016807
6053000,0.0324,0.013523,0.002678,0.000431,0.017512
6054000,0.0324,0.013523,0.002678,0.000431,0.018452
6055000,0.0324,0.013523,0.002678,0.000431,0.018922
6056000,0.0324,0.013523,0.002678,0.000431,0.016571
6057000,0.0324,0.013523,0.002678,0.000431,0.018099
6058000,0.0324,0.013523,0.002678,0.000431,0.016807
6059000,0.0324,0.013523,0.002678,0.000431,0.017512
6060000,0.0324,0.013523,0.002678,0.000431,0.017864
6061000,0.0324,0.013523,0.002678,0.000431,0.017277
6062000,0.0324,0.013523,0.002678,0.000431,0.016807
6063000,0.0324,0.013523,0.002678,0.000431,0.017277
6064000,0.0324,0.013523,0.002678,0.000431,0.018099
6065000,0.0324,0.013523,0.002678,0.000431,0.019392
6066000,0.0324,0.013523,0.002678,0.000431,0.016101
6067000,0.0324,0.013523,0.002678,0.000431,0.019040
6068000,0.0324,0.013523,0.002678,0.000431,0.017512
6069000,0.0324,0.013523,0.002678,0.000431,0.018334
6070000,0.0324,0.013523,0.002678,0.000431,0.016454
6071000,0.0324,0.013523,0.002678,0.000431,0.018452
6072000,0.0324,0.013523,0.002678,0.000431,0.017747
6073000,0.0324,0.013523,0.002678,0.000431,0.016454
6074000,0.0324,0.013523,0.002678,0.000431,0.019040
6075000,0.0324,0.013523,0.002678,0.000431,0.017982
6076000,0.0324,0.013523,0.002678,0.000431,0.017629
6077000,0.0324,0.013523,0.002678,0.000431,0.017512
6078000,0.0324,0.013523,0.002678,0.000431,0.017512
6079000,0.0324,0.013523,0.002678,0.000431,0.017394
6080000,0.0324,0.013523,0.002678,0.000431,0.017042
6081000,0.0324,0.013523,0.002678,0.000431,0.017277
6082000,0.0324,0.013523,0.002678,0.000431,0.018687
6083000,0.0324,0.013523,0.002678,0.000431,0.016807
6084000,0.0324,0.013523,0.002678,0.000431,0.018687
6085000,0.0324,0.013523,0.002678,0.000431,0.017159
6086000,0.0324,0.013523,0.002678,0.000431,0.018099
6087000,0.0324,0.013523,0.002678,0.000431,0.017277
6088000,0.0324,0.013523,0.002678,0.000431,0.019510
6089000,0.0324,0.013523,0.002678,0.000431,0.015984
6090000,0.0324,0.013523,0.002678,0.000431,0.018334
6091000,0.0324,0.013523,0.002678,0.000431,0.017629
6092000,0.0324,0.013523,0.002678,0.000431,0.019157
6093000,0.0324,0.013523,0.002678,0.000431,0.017394
6094000,0.0324,0.013523,0.002678,0.000431,0.017159
6095000,0.0324,0.013523,0.002678,0.000431,0.018099
6096000,0.0324,0.013523,0.002678,0.000431,0.017394
6097000,0.0324,0.013523,0.002678,0.000431,0.016336
6098000,0.0324,0.013523,0.002678,0.000431,0.019157
6099000,0.0324,0.013523,0.002678,0.000431,0.017394
6100000,0.0324,0.013523,0.002678,0.000431,0.016454
6101000,0.0324,0.013523,0.002678,0.000431,0.018687
6102000,0.0324,0.013523,0.002678,0.000431,0.018099
6103000,0.0324,0.013523,0.002678,0.000431,0.017159
6104000,0.0324,0.013523,0.002678,0.000431,0.016571
6105000,0.0324,0.013523,0.002678,0.000431,0.019157
6106000,0.0324,0.013523,0.002678,0.000431,0.017159
6107000,0.0324,0.013523,0.002678,0.000431,0.018099
6108000,0.0324,0.013523,0.002678,0.000431,0.016454
6109000,0.0324,0.013523,0.002678,0.000431,0.018687
6110000,0.0324,0.013523,0.002678,0.000431,0.017277
6111000,0.0324,0.013523,0.002678,0.000431,0.017747
6112000,0.0324,0.013523,0.002678,0.000431,0.017277
6113000,0.0324,0.013523,0.002678,0.000431,0.017747
6114000,0.0324,0.013523,0.002678,0.000431,0.017512
6115000,0.0324,0.013523,0.002678,0.000431,0.018452
6116000,0.0324,0.013523,0.002678,0.000431,0.017629
6117000,0.0324,0.013523,0.002678,0.000431,0.016571
6118000,0.0324,0.013523,0.002678,0.000431,0.017629
6119000,0.0324,0.013523,0.002678,0.000431,0.016571
6120000,0.0324,0.013523,0.002678,0.000431,0.016454
6121000,0.0324,0.013523,0.002678,0.000431,0.017747
6122000,0.0324,0.013523,0.002678,0.000431,0.017277
6123000,0.0324,0.013523,0.002678,0.000431,0.016571
6124000,0.0324,0.013523,0.002678,0.000431,0.018452
6125000,0.0324,0.013523,0.002678,0.000431,0.018334
6126000,0.0324,0.013523,0.002678,0.000431,0.018687
6127000,0.0324,0.013523,0.002678,0.000431,0.015984
6128000,0.0324,0.013523,0.002678,0.000431,0.018099
6129000,0.0324,0.013523,0.002678,0.000431,0.016454
6130000,0.0324,0.013523,0.002678,0.000431,0.019040
6131000,0.0324,0.013523,0.002678,0.000431,0.016336
6132000,0.0324,0.013523,0.002678,0.000431,0.017747
6133000,0.0324,0.013523,0.002678,0.000431,0.016219
6134000,0.0324,0.013523,0.002678,0.000431,0.018922
6135000,0.0324,0.013523,0.002678,0.000431,0.017277
6136000,0.0324,0.013523,0.002678,0.000431,0.018922
6137000,0.0324,0.013523,0.002678,0.000431,0.015514
6138000,0.0324,0.013523,0.002678,0.000431,0.019862
6139000,0.0324,0.013523,0.002678,0.000431,0.017042
6140000,0.0324,0.013523,0.002678,0.000431,0.016689
6141000,0.0324,0.013523,0.002678,0.000431,0.017629
6142000,0.0324,0.013523,0.002678,0.000431,0.017042
6143000,0.0324,0.013523,0.002678,0.000431,0.017864
6144000,0.0324,0.013523,0.002678,0.000431,0.017394
6145000,0.0324,0.013523,0.002678,0.000431,0.018805
6146000,0.0324,0.013523,0.002678,0.000431,0.016689
6147000,0.0324,0.013523,0.002678,0.000431,0.017159
6148000,0.0324,0.013523,0.002678,0.000431,0.017747
6149000,0.0324,0.013523,0.002678,0.000431,0.019040
6150000,0.0324,0.013523,0.002678,0.000431,0.016924
6151000,0.0324,0.013523,0.002678,0.000431,0.016689
6152000,0.0324,0.013523,0.002678,0.000431,0.017982
6153000,0.0324,0.013523,0.002678,0.000431,0.018569
6154000,0.0324,0.013523,0.002678,0.000431,0.017629
6155000,0.0324,0.013523,0.002678,0.000431,0.017629
6156000,0.0324,0.013523,0.002678,0.000431,0.017277
6157000,0.0324,0.013523,0.002678,0.000431,0.018569
6158000,0.0324,0.013523,0.002678,0.000431,0.016219
6159000,0.0324,0.013523,0.002678,0.000431,0.018099
6160000,0.0324,0.013523,0.002678,0.000431,0.016807
6161000,0.0324,0.013523,0.002678,0.000431,0.018569
6162000,0.0324,0.013523,0.002678,0.000431,0.016807
6163000,0.0324,0.013523,0.002678,0.000431,0.019627
6164000,0.0324,0.013523,0.002678,0.000431,0.016689
6165000,0.0324,0.013523,0.002678,0.000431,0.018217
6166000,0.0324,0.013523,0.002678,0.000431,0.017629
6167000,0.0324,0.013523,0.002678,0.000431,0.017394
6168000,0.0324,0.013523,0.002678,0.000431,0.018099
6169000,0.0324,0.013523,0.002678,0.000431,0.017629
6170000,0.0324,0.013523,0.002678,0.000431,0.017159
6171000,0.0324,0.013523,0.002678,0.000431,0.017042
6172000,0.0324,0.013523,0.002678,0.000431,0.018805
6173000,0.0324,0.013523,0.002678,0.000431,0.016807
6174000,0.0324,0.013523,0.002678,0.000431,0.018452
6175000,0.0324,0.013523,0.002678,0.000431,0.015984
6176000,0.0324,0.013523,0.002678,0.000431,0.019392
6177000,0.0324,0.013523,0.002678,0.000431,0.015866
6178000,0.0324,0.013523,0.002678,0.000431,0.016101
6179000,0.0324,0.013523,0.002678,0.000431,0.017747
6180000,0.0324,0.013523,0.002678,0.000431,0.017512
6181000,0.0324,0.013523,0.002678,0.000431,0.015631
6182000,0.0324,0.013523,0.002678,0.000431,0.018569
6183000,0.0324,0.013523,0.002678,0.000431,0.015631
6184000,0.0324,0.013523,0.002678,0.000431,0.018334
6185000,0.0324,0.013523,0.002678,0.000431,0.017512
6186000,0.0324,0.013523,0.002678,0.000431,0.018334
6187000,0.0324,0.013523,0.002678,0.000431,0.017982
6188000,0.0324,0.013523,0.002678,0.000431,0.017159
6189000,0.0324,0.013523,0.002678,0.000431,0.017394
6190000,0.0324,0.013523,0.002678,0.000431,0.017864
6191000,0.0324,0.013523,0.002678,0.000431,0.018922
6192000,0.0324,0.013523,0.002678,0.000431,0.016219
6193000,0.0324,0.013523,0.002678,0.000431,0.017982
6194000,0.0324,0.013523,0.002678,0.000431,0.016336
6195000,0.0324,0.013523,0.002678,0.000431,0.018099
6196000,0.0324,0.013523,0.002678,0.000431,0.017747
6197000,0.0324,0.013523,0.002678,0.000431,0.017159
6198000,0.0324,0.013523,0.002678,0.000431,0.015161
6199000,0.0324,0.013523,0.002678,0.000431,0.018687
6200000,0.0324,0.013523,0.002678,0.000431,0.016807
6201000,0.0324,0.013523,0.002678,0.000431,0.017159
6202000,0.0324,0.013523,0.002678,0.000431,0.017277
6203000,0.0324,0.013523,0.002678,0.000431,0.017629
6204000,0.0324,0.013523,0.002678,0.000431,0.016336
6205000,0.0324,0.013523,0.002678,0.000431,0.017394
6206000,0.0324,0.013523,0.002678,0.000431,0.017747
6207000,0.0324,0.013523,0.002678,0.000431,0.017629
6208000,0.0324,0.013523,0.002678,0.000431,0.015749
6209000,0.0324,0.013523,0.002678,0.000431,0.018099
6210000,0.0324,0.013523,0.002678,0.000431,0.018217
6211000,0.0324,0.013523,0.002678,0.000431,0.016924
6212000,0.0324,0.013523,0.002678,0.000431,0.016336
6213000,0.0324,0.013523,0.002678,0.000431,0.017629
6214000,0.0324,0.013523,0.002678,0.000431,0.018569
6215000,0.0324,0.013523,0.002678,0.000431,0.016807
6216000,0.0324,0.013523,0.002678,0.000431,0.016689
6217000,0.0324,0.013523,0.002678,0.000431,0.017277
6218000,0.0324,0.013523,0.002678,0.000431,0.017512
6219000,0.0324,0.013523,0.002678,0.000431,0.015044
6220000,0.0324,0.013523,0.002678,0.000431,0.018099
6221000,0.0324,0.013523,0.002678,0.000431,0.016219
6222000,0.0324,0.013523,0.002678,0.000431,0.017747
6223000,0.0324,0.013523,0.002678,0.000431,0.016219
6224000,0.0324,0.013523,0.002678,0.000431,0.018805
6225000,0.0324,0.013523,0.002678,0.000431,0.015749
6226000,0.0324,0.013523,0.002678,0.000431,0.017042
6227000,0.0324,0.013523,0.002678,0.000431,0.016689
6228000,0.0324,0.013523,0.002678,0.000431,0.017159
6229000,0.0324,0.013523,0.002678,0.000431,0.017394
6230000,0.0324,0.013523,0.002678,0.000431,0.017277
6231000,0.0324,0.013523,0.002678,0.000431,0.015396
6232000,0.0324,0.013523,0.002678,0.000431,0.017864
6233000,0.0324,0.013523,0.002678,0.000431,0.016454
6234000,0.0324,0.013523,0.002678,0.000431,0.016571
6235000,0.0324,0.013523,0.002678,0.000431,0.017159
6236000,0.0324,0.013523,0.002678,0.000431,0.015044
6237000,0.0324,0.013523,0.002678,0.000431,0.017277
6238000,0.0324,0.013523,0.002678,0.000431,0.016571
6239000,0.0324,0.013523,0.002678,0.000431,0.017042
6240000,0.0324,0.013523,0.002678,0.000431,0.017159
6241000,0.0324,0.013523,0.002678,0.000431,0.016454
6242000,0.0324,0.013523,0.002678,0.000431,0.016807
6243000,0.0324,0.013523,0.002678,0.000431,0.017512
6244000,0.0324,0.013523,0.002678,0.000431,0.015984
6245000,0.0324,0.013523,0.002678,0.000431,0.016807
6246000,0.0324,0.013523,0.002678,0.000431,0.016454
6247000,0.0324,0.013523,0.002678,0.000431,0.017042
6248000,0.0324,0.013523,0.002678,0.000431,0.017982
6249000,0.0324,0.013523,0.002678,0.000431,0.016454
6250000,0.0324,0.013523,0.002678,0.000431,0.016571
6251000,0.0324,0.013523,0.002678,0.000431,0.017747
6252000,0.0324,0.013523,0.002678,0.000431,0.015514
6253000,0.0324,0.013523,0.002678,0.000431,0.017394
6254000,0.0324,0.013523,0.002678,0.000431,0.016689
6255000,0.0324,0.013523,0.002678,0.000431,0.016336
6256000,0.0324,0.013523,0.002678,0.000431,0.016336
6257000,0.0324,0.013523,0.002678,0.000431,0.017512
6258000,0.0324,0.013523,0.002678,0.000431,0.016454
6259000,0.0324,0.013523,0.002678,0.000431,0.015631
6260000,0.0324,0.013523,0.002678,0.000431,0.018334
6261000,0.0324,0.013523,0.002678,0.000431,0.016454
6262000,0.0324,0.013523,0.002678,0.000431,0.017512
6263000,0.0324,0.013523,0.002678,0.000431,0.016454
6264000,0.0324,0.013523,0.002678,0.000431,0.016571
6265000,0.0324,0.013523,0.002678,0.000431,0.018099
6266000,0.0324,0.013523,0.002678,0.000431,0.016807
6267000,0.0324,0.013523,0.002678,0.000431,0.016219
6268000,0.0324,0.013523,0.002678,0.000431,0.016924
6269000,0.0324,0.013523,0.002678,0.000431,0.016807
6270000,0.0324,0.013523,0.002678,0.000431,0.018334
6271000,0.0324,0.013523,0.002678,0.000431,0.015866
6272000,0.0324,0.013523,0.002678,0.000431,0.018452
6273000,0.0324,0.013523,0.002678,0.000431,0.015984
6274000,0.0324,0.013523,0.002678,0.000431,0.017512
6275000,0.0324,0.013523,0.002678,0.000431,0.016689
6276000,0.0324,0.013523,0.002678,0.000431,0.017277
6277000,0.0324,0.013523,0.002678,0.000431,0.017629
6278000,0.0324,0.013523,0.002678,0.000431,0.016454
6279000,0.0324,0.013523,0.002678,0.000431,0.017159
6280000,0.0324,0.013523,0.002678,0.000431,0.016689
6281000,0.0324,0.013523,0.002678,0.000431,0.016807
6282000,0.0324,0.013523,0.002678,0.000431,0.015866
6283000,0.0324,0.013523,0.002678,0.000431,0.016219
6284000,0.0324,0.013523,0.002678,0.000431,0.018217
6285000,0.0324,0.013523,0.002678,0.000431,0.017747
6286000,0.0324,0.013523,0.002678,0.000431,0.017159
6287000,0.0324,0.013523,0.002678,0.000431,0.016571
6288000,0.0324,0.013523,0.002678,0.000431,0.016571
6289000,0.0324,0.013523,0.002678,0.000431,0.017042
6290000,0.0324,0.013523,0.002678,0.000431,0.017277
6291000,0.0324,0.013523,0.002678,0.000431,0.018452
6292000,0.0324,0.013523,0.002678,0.000431,0.016689
6293000,0.0324,0.013523,0.002678,0.000431,0.016454
6294000,0.0324,0.013523,0.002678,0.000431,0.017042
6295000,0.0324,0.013523,0.002678,0.000431,0.018217
6296000,0.0324,0.013523,0.002678,0.000431,0.015984
6297000,0.0324,0.013523,0.002678,0.000431,0.015749
6298000,0.0324,0.013523,0.002678,0.000431,0.017042
6299000,0.0324,0.013523,0.002678,0.000431,0.017512
6300000,0.0324,0.013523,0.002678,0.000431,0.016571
6301000,0.0324,0.013523,0.002678,0.000431,0.017277
6302000,0.0324,0.013523,0.002678,0.000431,0.016571
6303000,0.0324,0.013523,0.002678,0.000431,0.016924
6304000,0.0324,0.013523,0.002678,0.000431,0.017512
6305000,0.0324,0.013523,0.002678,0.000431,0.015984
6306000,0.0324,0.013523,0.002678,0.000431,0.016924
6307000,0.0324,0.013523,0.002678,0.000431,0.014691
6308000,0.0324,0.013523,0.002678,0.000431,0.016571
6309000,0.0324,0.013523,0.002678,0.000431,0.015396
6310000,0.0324,0.013523,0.002678,0.000431,0.016571
6311000,0.0324,0.013523,0.002678,0.000431,0.016101
6312000,0.0324,0.013523,0.002678,0.000431,0.017629
6313000,0.0324,0.013523,0.002678,0.000431,0.014926
6314000,0.0324,0.013523,0.002678,0.000431,0.018805
6315000,0.0324,0.013523,0.002678,0.000431,0.016454
6316000,0.0324,0.013523,0.002678,0.000431,0.017042
6317000,0.0324,0.013523,0.002678,0.000431,0.016807
6318000,0.0324,0.013523,0.002678,0.000431,0.017277
6319000,0.0324,0.013523,0.002678,0.000431,0.017982
6320000,0.0324,0.013523,0.002678,0.000431,0.015866
6321000,0.0324,0.013523,0.002678,0.000431,0.017159
6322000,0.0324,0.013523,0.002678,0.000431,0.016101
6323000,0.0324,0.013523,0.002678,0.000431,0.017277
6324000,0.0324,0.013523,0.002678,0.000431,0.016454
6325000,0.0324,0.013523,0.002678,0.000431,0.016454
6326000,0.0324,0.013523,0.002678,0.000431,0.017042
6327000,0.0324,0.013523,0.002678,0.000431,0.017159
6328000,0.0324,0.013523,0.002678,0.000431,0.016689
6329000,0.0324,0.013523,0.002678,0.000431,0.017629
6330000,0.0324,0.013523,0.002678,0.000431,0.016219
6331000,0.0324,0.013523,0.002678,0.000431,0.018217
6332000,0.0324,0.013523,0.002678,0.000431,0.016807
6333000,0.0324,0.013523,0.002678,0.000431,0.017512
6334000,0.0324,0.013523,0.002678,0.000431,0.016689
6335000,0.0324,0.013523,0.002678,0.000431,0.016807
6336000,0.0324,0.013523,0.002678,0.000431,0.016336
6337000,0.0324,0.013523,0.002678,0.000431,0.017394
6338000,0.0324,0.013523,0.002678,0.000431,0.016807
6339000,0.0324,0.013523,0.002678,0.000431,0.016571
6340000,0.0324,0.013523,0.002678,0.000431,0.016924
6341000,0.0324,0.013523,0.002678,0.000431,0.017277
6342000,0.0324,0.013523,0.002678,0.000431,0.017747
6343000,0.0324,0.013523,0.002678,0.000431,0.017159
6344000,0.0324,0.013523,0.002678,0.000431,0.016807
6345000,0.0324,0.013523,0.002678,0.000431,0.017629
6346000,0.0324,0.013523,0.002678,0.000431,0.017629
6347000,0.0324,0.013523,0.002678,0.000431,0.016336
6348000,0.0324,0.013523,0.002678,0.000431,0.016807
6349000,0.0324,0.013523,0.002678,0.000431,0.017629
6350000,0.0324,0.013523,0.002678,0.000431,0.016924
6351000,0.0324,0.013523,0.002678,0.000431,0.016336
6352000,0.0324,0.013523,0.002678,0.000431,0.018099
6353000,0.0324,0.013523,0.002678,0.000431,0.016219
6354000,0.0324,0.013523,0.002678,0.000431,0.017277
6355000,0.0324,0.013523,0.002678,0.000431,0.016219
6356000,0.0324,0.013523,0.002678,0.000431,0.017629
6357000,0.0324,0.013523,0.002678,0.000431,0.017512
6358000,0.0324,0.013523,0.002678,0.000431,0.015984
6359000,0.0324,0.013523,0.002678,0.000431,0.017394
6360000,0.0324,0.013523,0.002678,0.000431,0.016336
6361000,0.0324,0.013523,0.002678,0.000431,0.017747
6362000,0.0324,0.013523,0.002678,0.000431,0.017159
6363000,0.0324,0.013523,0.002678,0.000431,0.017629
6364000,0.0324,0.013523,0.002678,0.000431,0.017042
6365000,0.0324,0.013523,0.002678,0.000431,0.016924
6366000,0.0324,0.013523,0.002678,0.000431,0.015866
6367000,0.0324,0.013523,0.002678,0.000431,0.017042
6368000,0.0324,0.013523,0.002678,0.000431,0.016807
6369000,0.0324,0.013523,0.002678,0.000431,0.017864
6370000,0.0324,0.013523,0.002678,0.000431,0.014926
6371000,0.0324,0.013523,0.002678,0.000431,0.017512
6372000,0.0324,0.013523,0.002678,0.000431,0.016807
6373000,0.0324,0.013523,0.002678,0.000431,0.017277
6374000,0.0324,0.013523,0.002678,0.000431,0.015984
6375000,0.0324,0.013523,0.002678,0.000431,0.017864
6376000,0.0324,0.013523,0.002678,0.000431,0.015631
6377000,0.0324,0.013523,0.002678,0.000431,0.016807
6378000,0.0324,0.013523,0.002678,0.000431,0.015984
6379000,0.0324,0.013523,0.002678,0.000431,0.018334
6380000,0.0324,0.013523,0.002678,0.000431,0.016219
6381000,0.0324,0.013523,0.002678,0.000431,0.016571
6382000,0.0324,0.013523,0.002678,0.000431,0.016101
6383000,0.0324,0.013523,0.002678,0.000431,0.016924
6384000,0.0324,0.013523,0.002678,0.000431,0.017042
6385000,0.0324,0.013523,0.002678,0.000431,0.016454
6386000,0.0324,0.013523,0.002678,0.000431,0.015279
6387000,0.0324,0.013523,0.002678,0.000431,0.018569
6388000,0.0324,0.013523,0.002678,0.000431,0.015749
6389000,0.0324,0.013523,0.002678,0.000431,0.016689
6390000,0.0324,0.013523,0.002678,0.000431,0.016689
6391000,0.0324,0.013523,0.002678,0.000431,0.015749
6392000,0.0324,0.013523,0.002678,0.000431,0.017864
6393000,0.0324,0.013523,0.002678,0.000431,0.016336
6394000,0.0324,0.013523,0.002678,0.000431,0.016807
6395000,0.0324,0.013523,0.002678,0.000431,0.015866
6396000,0.0324,0.013523,0.002678,0.000431,0.016336
6397000,0.0324,0.013523,0.002678,0.000431,0.016101
6398000,0.0324,0.013523,0.002678,0.000431,0.017864
6399000,0.0324,0.013523,0.002678,0.000431,0.016454
6400000,0.0324,0.013523,0.002678,0.000431,0.018099
6401000,0.0324,0.013523,0.002678,0.000431,0.015749
6402000,0.0324,0.013523,0.002678,0.000431,0.017277
6403000,0.0324,0.013523,0.002678,0.000431,0.017864
6404000,0.0324,0.013523,0.002678,0.000431,0.016689
6405000,0.0324,0.013523,0.002678,0.000431,0.016336
6406000,0.0324,0.013523,0.002678,0.000431,0.017864
6407000,0.0324,0.013523,0.002678,0.000431,0.017042
6408000,0.0324,0.013523,0.002678,0.000431,0.017277
6409000,0.0324,0.013523,0.002678,0.000431,0.015866
6410000,0.0324,0.013523,0.002678,0.000431,0.017042
6411000,0.0324,0.013523,0.002678,0.000431,0.016689
6412000,0.0324,0.013523,0.002678,0.000431,0.015749
6413000,0.0324,0.013523,0.002678,0.000431,0.018334
6414000,0.0324,0.013523,0.002678,0.000431,0.016101
6415000,0.0324,0.013523,0.002678,0.000431,0.016689
6416000,0.0324,0.013523,0.002678,0.000431,0.015866
6417000,0.0324,0.013523,0.002678,0.000431,0.017277
6418000,0.0324,0.013523,0.002678,0.000431,0.015161
6419000,0.0324,0.013523,0.002678,0.000431,0.016924
6420000,0.0324,0.013523,0.002678,0.000431,0.016571
6421000,0.0324,0.013523,0.002678,0.000431,0.017512
6422000,0.0324,0.013523,0.002678,0.000431,0.017159
6423000,0.0324,0.013523,0.002678,0.000431,0.017042
6424000,0.0324,0.013523,0.002678,0.000431,0.016689
6425000,0.0324,0.013523,0.002678,0.000431,0.016689
6426000,0.0324,0.013523,0.002678,0.000431,0.016454
6427000,0.0324,0.013523,0.002678,0.000431,0.017042
6428000,0.0324,0.013523,0.002678,0.000431,0.015984
6429000,0.0324,0.013523,0.002678,0.000431,0.016571
6430000,0.0324,0.013523,0.002678,0.000431,0.017394
6431000,0.0324,0.013523,0.002678,0.000431,0.017042
6432000,0.0324,0.013523,0.002678,0.000431,0.016336
6433000,0.0324,0.013523,0.002678,0.000431,0.015984
6434000,0.0324,0.013523,0.002678,0.000431,0.016807
6435000,0.0324,0.013523,0.002678,0.000431,0.016454
6436000,0.0324,0.013523,0.002678,0.000431,0.017747
6437000,0.0324,0.013523,0.002678,0.000431,0.015749
6438000,0.0324,0.013523,0.002678,0.000431,0.017159
6439000,0.0324,0.013523,0.002678,0.000431,0.014926
6440000,0.0324,0.013523,0.002678,0.000431,0.018334
6441000,0.0324,0.013523,0.002678,0.000431,0.016571
6442000,0.0324,0.013523,0.002678,0.000431,0.017277
6443000,0.0324,0.013523,0.002678,0.000431,0.015984
6444000,0.0324,0.013523,0.002678,0.000431,0.017629
6445000,0.0324,0.013523,0.002678,0.000431,0.015749
6446000,0.0324,0.013523,0.002678,0.000431,0.018217
6447000,0.0324,0.013523,0.002678,0.000431,0.016219
6448000,0.0324,0.013523,0.002678,0.000431,0.017042
6449000,0.0324,0.013523,0.002678,0.000431,0.016807
6450000,0.0324,0.013523,0.002678,0.000431,0.017159
6451000,0.0324,0.013523,0.002678,0.000431,0.016689
6452000,0.0324,0.013523,0.002678,0.000431,0.015279
6453000,0.0324,0.013523,0.002678,0.000431,0.018687
6454000,0.0324,0.013523,0.002678,0.000431,0.016924
6455000,0.0324,0.013523,0.002678,0.000431,0.017394
6456000,0.0324,0.013523,0.002678,0.000431,0.015984
6457000,0.0324,0.013523,0.002678,0.000431,0.017042
6458000,0.0324,0.013523,0.002678,0.000431,0.016571
6459000,0.0324,0.013523,0.002678,0.000431,0.018217
6460000,0.0324,0.013523,0.002678,0.000431,0.016807
6461000,0.0324,0.013523,0.002678,0.000431,0.016689
6462000,0.0324,0.013523,0.002678,0.000431,0.017042
6463000,0.0324,0.013523,0.002678,0.000431,0.016924
6464000,0.0324,0.013523,0.002678,0.000431,0.018099
6465000,0.0324,0.013523,0.002678,0.000431,0.016924
6466000,0.0324,0.013523,0.002678,0.000431,0.015631
6467000,0.0324,0.013523,0.002678,0.000431,0.017512
6468000,0.0324,0.013523,0.002678,0.000431,0.017512
6469000,0.0324,0.013523,0.002678,0.000431,0.018334
6470000,0.0324,0.013523,0.002678,0.000431,0.015514
6471000,0.0324,0.013523,0.002678,0.000431,0.017277
6472000,0.0324,0.013523,0.002678,0.000431,0.015396
6473000,0.0324,0.013523,0.002678,0.000431,0.017512
6474000,0.0324,0.013523,0.002678,0.000431,0.017982
6475000,0.0324,0.013523,0.002678,0.000431,0.016924
6476000,0.0324,0.013523,0.002678,0.000431,0.016807
6477000,0.0324,0.013523,0.002678,0.000431,0.015866
6478000,0.0324,0.013523,0.002678,0.000431,0.018099
6479000,0.0324,0.013523,0.002678,0.000431,0.014809
6480000,0.0324,0.013523,0.002678,0.000431,0.016924
6481000,0.0324,0.013523,0.002678,0.000431,0.015749
6482000,0.0324,0.013523,0.002678,0.000431,0.017982
6483000,0.0324,0.013523,0.002678,0.000431,0.016336
6484000,0.0324,0.013523,0.002678,0.000431,0.016454
6485000,0.0324,0.013523,0.002678,0.000431,0.016571
6486000,0.0324,0.013523,0.002678,0.000431,0.015984
6487000,0.0324,0.013523,0.002678,0.000431,0.017394
6488000,0.0324,0.013523,0.002678,0.000431,0.017394
6489000,0.0324,0.013523,0.002678,0.000431,0.014691
6490000,0.0324,0.013523,0.002678,0.000431,0.017277
6491000,0.0324,0.013523,0.002678,0.000431,0.016571
6492000,0.0324,0.013523,0.002678,0.000431,0.016454
6493000,0.0324,0.013523,0.002678,0.000431,0.016219
6494000,0.0324,0.013523,0.002678,0.000431,0.017747
6495000,0.0324,0.013523,0.002678,0.000431,0.016219
6496000,0.0324,0.013523,0.002678,0.000431,0.015631
6497000,0.0324,0.013523,0.002678,0.000431,0.016336
6498000,0.0324,0.013523,0.002678,0.000431,0.015866
6499000,0.0324,0.013523,0.002678,0.000431,0.017512
6500000,0.0324,0.013523,0.002678,0.000431,0.016689
6501000,0.0324,0.013523,0.002678,0.000431,0.017277
6502000,0.0324,0.013523,0.002678,0.000431,0.017864
6503000,0.0324,0.013523,0.002678,0.000431,0.015631
6504000,0.0324,0.013523,0.002678,0.000431,0.016336
6505000,0.0324,0.013523,0.002678,0.000431,0.017159
6506000,0.0324,0.013523,0.002678,0.000431,0.017629
6507000,0.0324,0.013523,0.002678,0.000431,0.016807
6508000,0.0324,0.013523,0.002678,0.000431,0.015984
6509000,0.0324,0.013523,0.002678,0.000431,0.017864
6510000,0.0324,0.013523,0.002678,0.000431,0.016571
6511000,0.0324,0.013523,0.002678,0.000431,0.017042
6512000,0.0324,0.013523,0.002678,0.000431,0.015866
6513000,0.0324,0.013523,0.002678,0.000431,0.017512
6514000,0.0324,0.013523,0.002678,0.000431,0.016571
6515000,0.0324,0.013523,0.002678,0.000431,0.017394
6516000,0.0324,0.013523,0.002678,0.000431,0.016336
6517000,0.0324,0.013523,0.002678,0.000431,0.015984
6518000,0.0324,0.013523,0.002678,0.000431,0.017629
6519000,0.0324,0.013523,0.002678,0.000431,0.015631
6520000,0.0324,0.013523,0.002678,0.000431,0.016571
6521000,0.0324,0.013523,0.002678,0.000431,0.017512
6522000,0.0324,0.013523,0.002678,0.000431,0.015749
6523000,0.0324,0.013523,0.002678,0.000431,0.016101
6524000,0.0324,0.013523,0.002678,0.000431,0.016571
6525000,0.0324,0.013523,0.002678,0.000431,0.016807
6526000,0.0324,0.013523,0.002678,0.000431,0.016219
6527000,0.0324,0.013523,0.002678,0.000431,0.015749
6528000,0.0324,0.013523,0.002678,0.000431,0.018099
6529000,0.0324,0.013523,0.002678,0.000431,0.016336
6530000,0.0324,0.013523,0.002678,0.000431,0.017982
6531000,0.0324,0.013523,0.002678,0.000431,0.015279
6532000,0.0324,0.013523,0.002678,0.000431,0.016689
6533000,0.0324,0.013523,0.002678,0.000431,0.017277
6534000,0.0324,0.013523,0.002678,0.000431,0.016571
6535000,0.0324,0.013523,0.002678,0.000431,0.015631
6536000,0.0324,0.013523,0.002678,0.000431,0.017629
6537000,0.0324,0.013523,0.002678,0.000431,0.017042
6538000,0.0324,0.013523,0.002678,0.000431,0.016454
6539000,0.0324,0.013523,0.002678,0.000431,0.018217
6540000,0.0324,0.013523,0.002678,0.000431,0.015749
6541000,0.0324,0.013523,0.002678,0.000431,0.017042
6542000,0.0324,0.013523,0.002678,0.000431,0.016101
6543000,0.0324,0.013523,0.002678,0.000431,0.016571
6544000,0.0324,0.013523,0.002678,0.000431,0.018099
6545000,0.0324,0.013523,0.002678,0.000431,0.016454
6546000,0.0324,0.013523,0.002678,0.000431,0.014926
6547000,0.0324,0.013523,0.002678,0.000431,0.018334
6548000,0.0324,0.013523,0.002678,0.000431,0.015866
6549000,0.0324,0.013523,0.002678,0.000431,0.017629
6550000,0.0324,0.013523,0.002678,0.000431,0.016571
6551000,0.0324,0.013523,0.002678,0.000431,0.016336
6552000,0.0324,0.013523,0.002678,0.000431,0.016336
6553000,0.0324,0.013523,0.002678,0.000431,0.017277
6554000,0.0324,0.013523,0.002678,0.000431,0.016336
6555000,0.0324,0.013523,0.002678,0.000431,0.016336
6556000,0.0324,0.013523,0.002678,0.000431,0.017159
6557000,0.0324,0.013523,0.002678,0.000431,0.016924
6558000,0.0324,0.013523,0.002678,0.000431,0.017394
6559000,0.0324,0.013523,0.002678,0.000431,0.015161
6560000,0.0324,0.013523,0.002678,0.000431,0.016807
6561000,0.0324,0.013523,0.002678,0.000431,0.016571
6562000,0.0324,0.013523,0.002678,0.000431,0.016924
6563000,0.0324,0.013523,0.002678,0.000431,0.015749
6564000,0.0324,0.013523,0.002678,0.000431,0.017747
6565000,0.0324,0.013523,0.002678,0.000431,0.015631
6566000,0.0324,0.013523,0.002678,0.000431,0.016924
6567000,0.0324,0.013523,0.002678,0.000431,0.016571
6568000,0.0324,0.013523,0.002678,0.000431,0.016454
6569000,0.0324,0.013523,0.002678,0.000431,0.015984
6570000,0.0324,0.013523,0.002678,0.000431,0.017982
6571000,0.0324,0.013523,0.002678,0.000431,0.014573
6572000,0.0324,0.013523,0.002678,0.000431,0.017747
6573000,0.0324,0.013523,0.002678,0.000431,0.016219
6574000,0.0324,0.013523,0.002678,0.000431,0.016571
6575000,0.0324,0.013523,0.002678,0.000431,0.017042
6576000,0.0324,0.013523,0.002678,0.000431,0.016454
6577000,0.0324,0.013523,0.002678,0.000431,0.017747
6578000,0.0324,0.013523,0.002678,0.000431,0.015279
6579000,0.0324,0.013523,0.002678,0.000431,0.016454
6580000,0.0324,0.013523,0.002678,0.000431,0.017394
6581000,0.0324,0.013523,0.002678,0.000431,0.017277
6582000,0.0324,0.013523,0.002678,0.000431,0.016571
6583000,0.0324,0.013523,0.002678,0.000431,0.015396
6584000,0.0324,0.013523,0.002678,0.000431,0.015866
6585000,0.0324,0.013523,0.002678,0.000431,0.017277
6586000,0.0324,0.013523,0.002678,0.000431,0.015749
6587000,0.0324,0.013523,0.002678,0.000431,0.016689
6588000,0.0324,0.013523,0.002678,0.000431,0.015279
6589000,0.0324,0.013523,0.002678,0.000431,0.017394
6590000,0.0324,0.013523,0.002678,0.000431,0.015866
6591000,0.0324,0.013523,0.002678,0.000431,0.016219
6592000,0.0324,0.013523,0.002678,0.000431,0.014338
6593000,0.0324,0.013523,0.002678,0.000431,0.015396
6594000,0.0324,0.013523,0.002678,0.000431,0.014926
6595000,0.0324,0.013523,0.002678,0.000431,0.016336
6596000,0.0324,0.013523,0.002678,0.000431,0.014691
6597000,0.0324,0.013523,0.002678,0.000431,0.014456
6598000,0.0324,0.013523,0.002678,0.000431,0.013868
6599000,0.0324,0.013523,0.002678,0.000431,0.015279
6600000,0.0324,0.013523,0.002678,0.000431,0.014809
6601000,0.0324,0.013523,0.002678,0.000431,0.013986
6602000,0.0324,0.013523,0.002678,0.000431,0.015161
6603000,0.0324,0.013523,0.002678,0.000431,0.014221
6604000,0.0324,0.013523,0.002678,0.000431,0.014926
6605000,0.0324,0.013523,0.002678,0.000431,0.014809
6606000,0.0324,0.013523,0.002678,0.000431,0.014809
6607000,0.0324,0.013523,0.002678,0.000431,0.014221
6608000,0.0324,0.013523,0.002678,0.000431,0.015514
6609000,0.0324,0.013523,0.002678,0.000431,0.014691
6610000,0.0324,0.013523,0.002678,0.000431,0.014691
6611000,0.0324,0.013523,0.002678,0.000431,0.014573
6612000,0.0324,0.013523,0.002678,0.000431,0.014573
6613000,0.0324,0.013523,0.002678,0.000431,0.013868
6614000,0.0324,0.013523,0.002678,0.000431,0.016336
6615000,0.0324,0.013523,0.002678,0.000431,0.013986
6616000,0.0324,0.013523,0.002678,0.000431,0.014573
6617000,0.0324,0.013523,0.002678,0.000431,0.014456
6618000,0.0324,0.013523,0.002678,0.000431,0.015866
6619000,0.0324,0.013523,0.002678,0.000431,0.014338
6620000,0.0324,0.013523,0.002678,0.000431,0.013986
6621000,0.0324,0.013523,0.002678,0.000431,0.014338
6622000,0.0324,0.013523,0.002678,0.000431,0.015631
6623000,0.0324,0.013523,0.002678,0.000431,0.013868
6624000,0.0324,0.013523,0.002678,0.000431,0.014103
6625000,0.0324,0.013523,0.002678,0.000431,0.014809
6626000,0.0324,0.013523,0.002678,0.000431,0.014221
6627000,0.0324,0.013523,0.002678,0.000431,0.014338
6628000,0.0324,0.013523,0.002678,0.000431,0.016101
6629000,0.0324,0.013523,0.002678,0.000431,0.014338
6630000,0.0324,0.013523,0.002678,0.000431,0.013046
6631000,0.0324,0.013523,0.002678,0.000431,0.013868
6632000,0.0324,0.013523,0.002678,0.000431,0.014456
6633000,0.0324,0.013523,0.002678,0.000431,0.013751
6634000,0.0324,0.013523,0.002678,0.000431,0.014809
6635000,0.0324,0.013523,0.002678,0.000431,0.014926
6636000,0.0324,0.013523,0.002678,0.000431,0.013398
6637000,0.0324,0.013523,0.002678,0.000431,0.015044
6638000,0.0324,0.013523,0.002678,0.000431,0.013868
6639000,0.0324,0.013523,0.002678,0.000431,0.015631
6640000,0.0324,0.013523,0.002678,0.000431,0.013046
6641000,0.0324,0.013523,0.002678,0.000431,0.013868
6642000,0.0324,0.013523,0.002678,0.000431,0.015161
6643000,0.0324,0.013523,0.002678,0.000431,0.013868
6644000,0.0324,0.013523,0.002678,0.000431,0.013868
6645000,0.0324,0.013523,0.002678,0.000431,0.014456
6646000,0.0324,0.013523,0.002678,0.000431,0.015044
6647000,0.0324,0.013523,0.002678,0.000431,0.013986
6648000,0.0324,0.013523,0.002678,0.000431,0.013868
6649000,0.0324,0.013523,0.002678,0.000431,0.014103
6650000,0.0324,0.013523,0.002678,0.000431,0.014221
6651000,0.0324,0.013523,0.002678,0.000431,0.013163
6652000,0.0324,0.013523,0.002678,0.000431,0.015631
6653000,0.0324,0.013523,0.002678,0.000431,0.013398
6654000,0.0324,0.013523,0.002678,0.000431,0.014809
6655000,0.0324,0.013523,0.002678,0.000431,0.013516
6656000,0.0324,0.013523,0.002678,0.000431,0.015279
6657000,0.0324,0.013523,0.002678,0.000431,0.014809
6658000,0.0324,0.013523,0.002678,0.000431,0.013046
6659000,0.0324,0.013523,0.002678,0.000431,0.015044
6660000,0.0324,0.013523,0.002678,0.000431,0.013986
6661000,0.0324,0.013523,0.002678,0.000431,0.013633
6662000,0.0324,0.013523,0.002678,0.000431,0.015396
6663000,0.0324,0.013523,0.002678,0.000431,0.013163
6664000,0.0324,0.013523,0.002678,0.000431,0.014103
6665000,0.0324,0.013523,0.002678,0.000431,0.012811
6666000,0.0324,0.013523,0.002678,0.000431,0.015631
6667000,0.0324,0.013523,0.002678,0.000431,0.013868
6668000,0.0324,0.013523,0.002678,0.000431,0.013516
6669000,0.0324,0.013523,0.002678,0.000431,0.014221
6670000,0.0324,0.013523,0.002678,0.000431,0.015044
6671000,0.0324,0.013523,0.002678,0.000431,0.013398
6672000,0.0324,0.013523,0.002678,0.000431,0.014691
6673000,0.0324,0.013523,0.002678,0.000431,0.014338
6674000,0.0324,0.013523,0.002678,0.000431,0.014103
6675000,0.0324,0.013523,0.002678,0.000431,0.014338
6676000,0.0324,0.013523,0.002678,0.000431,0.014573
6677000,0.0324,0.013523,0.002678,0.000431,0.014338
6678000,0.0324,0.013523,0.002678,0.000431,0.013281
6679000,0.0324,0.013523,0.002678,0.000431,0.014926
6680000,0.0324,0.013523,0.002678,0.000431,0.014338
6681000,0.0324,0.013523,0.002678,0.000431,0.013516
6682000,0.0324,0.013523,0.002678,0.000431,0.013868
6683000,0.0324,0.013523,0.002678,0.000431,0.014809
6684000,0.0324,0.013523,0.002678,0.000431,0.013751
6685000,0.0324,0.013523,0.002678,0.000431,0.014926
6686000,0.0324,0.013523,0.002678,0.000431,0.013751
6687000,0.0324,0.013523,0.002678,0.000431,0.015161
6688000,0.0324,0.013523,0.002678,0.000431,0.012105
6689000,0.0324,0.013523,0.002678,0.000431,0.015631
6690000,0.0324,0.013523,0.002678,0.000431,0.014221
6691000,0.0324,0.013523,0.002678,0.000431,0.013516
6692000,0.0324,0.013523,0.002678,0.000431,0.013046
6693000,0.0324,0.013523,0.002678,0.000431,0.014926
6694000,0.0324,0.013523,0.002678,0.000431,0.015631
6695000,0.0324,0.013523,0.002678,0.000431,0.013281
6696000,0.0324,0.013523,0.002678,0.000431,0.013986
6697000,0.0324,0.013523,0.002678,0.000431,0.014809
6698000,0.0324,0.013523,0.002678,0.000431,0.013751
6699000,0.0324,0.013523,0.002678,0.000431,0.014926
6700000,0.0324,0.013523,0.002678,0.000431,0.013281
6701000,0.0324,0.013523,0.002678,0.000431,0.013516
6702000,0.0324,0.013523,0.002678,0.000431,0.014691
6703000,0.0324,0.013523,0.002678,0.000431,0.013868
6704000,0.0324,0.013523,0.002678,0.000431,0.014926
6705000,0.0324,0.013523,0.002678,0.000431,0.013633
6706000,0.0324,0.013523,0.002678,0.000431,0.014221
6707000,0.0324,0.013523,0.002678,0.000431,0.014221
6708000,0.0324,0.013523,0.002678,0.000431,0.014221
6709000,0.0324,0.013523,0.002678,0.000431,0.013986
6710000,0.0324,0.013523,0.002678,0.000431,0.014691
6711000,0.0324,0.013523,0.002678,0.000431,0.013751
6712000,0.0324,0.013523,0.002678,0.000431,0.013868
6713000,0.0324,0.013523,0.002678,0.000431,0.015044
6714000,0.0324,0.013523,0.002678,0.000431,0.014573
6715000,0.0324,0.013523,0.002678,0.000431,0.013868
6716000,0.0324,0.013523,0.002678,0.000431,0.013986
6717000,0.0324,0.013523,0.002678,0.000431,0.015514
6718000,0.0324,0.013523,0.002678,0.000431,0.014103
6719000,0.0324,0.013523,0.002678,0.000431,0.013751
6720000,0.0324,0.013523,0.002678,0.000431,0.014103
6721000,0.0324,0.013523,0.002678,0.000431,0.015514
6722000,0.0324,0.013523,0.002678,0.000431,0.014809
6723000,0.0324,0.013523,0.002678,0.000431,0.013868
6724000,0.0324,0.013523,0.002678,0.000431,0.013633
6725000,0.0324,0.013523,0.002678,0.000431,0.014573
6726000,0.0324,0.013523,0.002678,0.000431,0.014691
6727000,0.0324,0.013523,0.002678,0.000431,0.015044
6728000,0.0324,0.013523,0.002678,0.000431,0.013986
6729000,0.0324,0.013523,0.002678,0.000431,0.014338
6730000,0.0324,0.013523,0.002678,0.000431,0.014338
6731000,0.0324,0.013523,0.002678,0.000431,0.015514
6732000,0.0324,0.013523,0.002678,0.000431,0.013751
6733000,0.0324,0.013523,0.002678,0.000431,0.013751
6734000,0.0324,0.013523,0.002678,0.000431,0.013986
6735000,0.0324,0.013523,0.002678,0.000431,0.013868
6736000,0.0324,0.013523,0.002678,0.000431,0.014456
6737000,0.0324,0.013523,0.002678,0.000431,0.015396
6738000,0.0324,0.013523,0.002678,0.000431,0.013398
6739000,0.0324,0.013523,0.002678,0.000431,0.014103
6740000,0.0324,0.013523,0.002678,0.000431,0.013868
6741000,0.0324,0.013523,0.002678,0.000431,0.015161
6742000,0.0324,0.013523,0.002678,0.000431,0.013751
6743000,0.0324,0.013523,0.002678,0.000431,0.012693
6744000,0.0324,0.013523,0.002678,0.000431,0.013516
6745000,0.0324,0.013523,0.002678,0.000431,0.013633
6746000,0.0324,0.013523,0.002678,0.000431,0.012928
6747000,0.0324,0.013523,0.002678,0.000431,0.013398
6748000,0.0324,0.013523,0.002678,0.000431,0.014456
6749000,0.0324,0.013523,0.002678,0.000431,0.013163
6750000,0.0324,0.013523,0.002678,0.000431,0.013163
6751000,0.0324,0.013523,0.002678,0.000431,0.014221
6752000,0.0324,0.013523,0.002678,0.000431,0.013516
6753000,0.0324,0.013523,0.002678,0.000431,0.013633
6754000,0.0324,0.013523,0.002678,0.000431,0.013868
6755000,0.0324,0.013523,0.002678,0.000431,0.015044
6756000,0.0324,0.013523,0.002678,0.000431,0.013281
6757000,0.0324,0.013523,0.002678,0.000431,0.012223
6758000,0.0324,0.013523,0.002678,0.000431,0.013868
6759000,0.0324,0.013523,0.002678,0.000431,0.013633
6760000,0.0324,0.013523,0.002678,0.000431,0.015396
6761000,0.0324,0.013523,0.002678,0.000431,0.013163
6762000,0.0324,0.013523,0.002678,0.000431,0.014926
6763000,0.0324,0.013523,0.002678,0.000431,0.013868
6764000,0.0324,0.013523,0.002678,0.000431,0.014221
6765000,0.0324,0.013523,0.002678,0.000431,0.014691
6766000,0.0324,0.013523,0.002678,0.000431,0.013046
6767000,0.0324,0.013523,0.002678,0.000431,0.014338
6768000,0.0324,0.013523,0.002678,0.000431,0.013751
6769000,0.0324,0.013523,0.002678,0.000431,0.014573
6770000,0.0324,0.013523,0.002678,0.000431,0.012693
6771000,0.0324,0.013523,0.002678,0.000431,0.015631
6772000,0.0324,0.013523,0.002678,0.000431,0.013281
6773000,0.0324,0.013523,0.002678,0.000431,0.013868
6774000,0.0324,0.013523,0.002678,0.000431,0.014573
6775000,0.0324,0.013523,0.002678,0.000431,0.013868
6776000,0.0324,0.013523,0.002678,0.000431,0.013516
6777000,0.0324,0.013523,0.002678,0.000431,0.013398
6778000,0.0324,0.013523,0.002678,0.000431,0.013986
6779000,0.0324,0.013523,0.002678,0.000431,0.014926
6780000,0.0324,0.013523,0.002678,0.000431,0.012576
6781000,0.0324,0.013523,0.002678,0.000431,0.014691
6782000,0.0324,0.013523,0.002678,0.000431,0.013633
6783000,0.0324,0.013523,0.002678,0.000431,0.014456
6784000,0.0324,0.013523,0.002678,0.000431,0.012811
6785000,0.0324,0.013523,0.002678,0.000431,0.013516
6786000,0.0324,0.013523,0.002678,0.000431,0.014573
6787000,0.0324,0.013523,0.002678,0.000431,0.013868
6788000,0.0324,0.013523,0.002678,0.000431,0.014456
6789000,0.0324,0.013523,0.002678,0.000431,0.013516
6790000,0.0324,0.013523,0.002678,0.000431,0.012576
6791000,0.0324,0.013523,0.002678,0.000431,0.014809
6792000,0.0324,0.013523,0.002678,0.000431,0.013751
6793000,0.0324,0.013523,0.002678,0.000431,0.013398
6794000,0.0324,0.013523,0.002678,0.000431,0.014573
6795000,0.0324,0.013523,0.002678,0.000431,0.012928
6796000,0.0324,0.013523,0.002678,0.000431,0.014338
6797000,0.0324,0.013523,0.002678,0.000431,0.013281
6798000,0.0324,0.013523,0.002678,0.000431,0.014456
6799000,0.0324,0.013523,0.002678,0.000431,0.012811
6800000,0.0324,0.013523,0.002678,0.000431,0.013751
6801000,0.0324,0.013523,0.002678,0.000431,0.013281
6802000,0.0324,0.013523,0.002678,0.000431,0.015044
6803000,0.0324,0.013523,0.002678,0.000431,0.012576
6804000,0.0324,0.013523,0.002678,0.000431,0.014809
6805000,0.0324,0.013523,0.002678,0.000431,0.013046
6806000,0.0324,0.013523,0.002678,0.000431,0.014221
6807000,0.0324,0.013523,0.002678,0.000431,0.013633
6808000,0.0324,0.013523,0.002678,0.000431,0.014221
6809000,0.0324,0.013523,0.002678,0.000431,0.013868
6810000,0.0324,0.013523,0.002678,0.000431,0.013163
6811000,0.0324,0.013523,0.002678,0.000431,0.014338
6812000,0.0324,0.013523,0.002678,0.000431,0.014338
6813000,0.0324,0.013523,0.002678,0.000431,0.013398
6814000,0.0324,0.013523,0.002678,0.000431,0.014456
6815000,0.0324,0.013523,0.002678,0.000431,0.013163
6816000,0.0324,0.013523,0.002678,0.000431,0.013868
6817000,0.0324,0.013523,0.002678,0.000431,0.013516
6818000,0.0324,0.013523,0.002678,0.000431,0.014573
6819000,0.0324,0.013523,0.002678,0.000431,0.013163
6820000,0.0324,0.013523,0.002678,0.000431,0.013163
6821000,0.0324,0.013523,0.002678,0.000431,0.013633
6822000,0.0324,0.013523,0.002678,0.000431,0.014338
6823000,0.0324,0.013523,0.002678,0.000431,0.014456
6824000,0.0324,0.013523,0.002678,0.000431,0.013281
6825000,0.0324,0.013523,0.002678,0.000431,0.014338
6826000,0.0324,0.013523,0.002678,0.000431,0.013751
6827000,0.0324,0.013523,0.002678,0.000431,0.014338
6828000,0.0324,0.013523,0.002678,0.000431,0.013046
6829000,0.0324,0.013523,0.002678,0.000431,0.013046
6830000,0.0324,0.013523,0.002678,0.000431,0.013868
6831000,0.0324,0.013523,0.002678,0.000431,0.013868
6832000,0.0324,0.013523,0.002678,0.000431,0.013046
6833000,0.0324,0.013523,0.002678,0.000431,0.013633
6834000,0.0324,0.013523,0.002678,0.000431,0.013868
6835000,0.0324,0.013523,0.002678,0.000431,0.013516
6836000,0.0324,0.013523,0.002678,0.000431,0.014103
6837000,0.0324,0.013523,0.002678,0.000431,0.013633
6838000,0.0324,0.013523,0.002678,0.000431,0.012928
6839000,0.0324,0.013523,0.002678,0.000431,0.014809
6840000,0.0324,0.013523,0.002678,0.000431,0.012811
6841000,0.0324,0.013523,0.002678,0.000431,0.013516
6842000,0.0324,0.013523,0.002678,0.000431,0.015044
6843000,0.0324,0.013523,0.002678,0.000431,0.013046
6844000,0.0324,0.013523,0.002678,0.000431,0.015044
6845000,0.0324,0.013523,0.002678,0.000431,0.013633
6846000,0.0324,0.013523,0.002678,0.000431,0.014103
6847000,0.0324,0.013523,0.002678,0.000431,0.013398
6848000,0.0324,0.013523,0.002678,0.000431,0.014691
6849000,0.0324,0.013523,0.002678,0.000431,0.014456
6850000,0.0324,0.013523,0.002678,0.000431,0.014573
6851000,0.0324,0.013523,0.002678,0.000431,0.013163
6852000,0.0324,0.013523,0.002678,0.000431,0.013751
6853000,0.0324,0.013523,0.002678,0.000431,0.013868
6854000,0.0324,0.013523,0.002678,0.000431,0.014573
6855000,0.0324,0.013523,0.002678,0.000431,0.012105
6856000,0.0324,0.013523,0.002678,0.000431,0.014691
6857000,0.0324,0.013523,0.002678,0.000431,0.012928
6858000,0.0324,0.013523,0.002678,0.000431,0.014456
6859000,0.0324,0.013523,0.002678,0.000431,0.012576
6860000,0.0324,0.013523,0.002678,0.000431,0.014456
6861000,0.0324,0.013523,0.002678,0.000431,0.013281
6862000,0.0324,0.013523,0.002678,0.000431,0.013163
6863000,0.0324,0.013523,0.002678,0.000431,0.014221
6864000,0.0324,0.013523,0.002678,0.000431,0.014103
6865000,0.0324,0.013523,0.002678,0.000431,0.013163
6866000,0.0324,0.013523,0.002678,0.000431,0.014809
6867000,0.0324,0.013523,0.002678,0.000431,0.013281
6868000,0.0324,0.013523,0.002678,0.000431,0.013633
6869000,0.0324,0.013523,0.002678,0.000431,0.014103
6870000,0.0324,0.013523,0.002678,0.000431,0.012928
6871000,0.0324,0.013523,0.002678,0.000431,0.014691
6872000,0.0324,0.013523,0.002678,0.000431,0.013868
6873000,0.0324,0.013523,0.002678,0.000431,0.014338
6874000,0.0324,0.013523,0.002678,0.000431,0.013163
6875000,0.0324,0.013523,0.002678,0.000431,0.013751
6876000,0.0324,0.013523,0.002678,0.000431,0.013163
6877000,0.0324,0.013523,0.002678,0.000431,0.014809
6878000,0.0324,0.013523,0.002678,0.000431,0.013046
6879000,0.0324,0.013523,0.002678,0.000431,0.013868
6880000,0.0324,0.013523,0.002678,0.000431,0.013633
6881000,0.0324,0.013523,0.002678,0.000431,0.014573
6882000,0.0324,0.013523,0.002678,0.000431,0.013046
6883000,0.0324,0.013523,0.002678,0.000431,0.014221
6884000,0.0324,0.013523,0.002678,0.000431,0.015044
6885000,0.0324,0.013523,0.002678,0.000431,0.013398
6886000,0.0324,0.013523,0.002678,0.000431,0.014691
6887000,0.0324,0.013523,0.002678,0.000431,0.012693
6888000,0.0324,0.013523,0.002678,0.000431,0.013281
6889000,0.0324,0.013523,0.002678,0.000431,0.012811
6890000,0.0324,0.013523,0.002678,0.000431,0.012576
6891000,0.0324,0.013523,0.002678,0.000431,0.013516
6892000,0.0324,0.013523,0.002678,0.000431,0.013046
6893000,0.0324,0.013523,0.002678,0.000431,0.013046
6894000,0.0324,0.013523,0.002678,0.000431,0.013163
6895000,0.0324,0.013523,0.002678,0.000431,0.011988
6896000,0.0324,0.013523,0.002678,0.000431,0.014691
6897000,0.0324,0.013523,0.002678,0.000431,0.013046
6898000,0.0324,0.013523,0.002678,0.000431,0.013751
6899000,0.0324,0.013523,0.002678,0.000431,0.011283
6900000,0.0324,0.013523,0.002678,0.000431,0.013398
6901000,0.0324,0.013523,0.002678,0.000431,0.013986
6902000,0.0324,0.013523,0.002678,0.000431,0.012928
6903000,0.0324,0.013523,0.002678,0.000431,0.011753
6904000,0.0324,0.013523,0.002678,0.000431,0.014221
6905000,0.0324,0.013523,0.002678,0.000431,0.012458
6906000,0.0324,0.013523,0.002678,0.000431,0.013633
6907000,0.0324,0.013523,0.002678,0.000431,0.012223
6908000,0.0324,0.013523,0.002678,0.000431,0.013163
6909000,0.0324,0.013523,0.002678,0.000431,0.012340
6910000,0.0324,0.013523,0.002678,0.000431,0.013633
6911000,0.0324,0.013523,0.002678,0.000431,0.013516
6912000,0.0324,0.013523,0.002678,0.000431,0.013046
6913000,0.0324,0.013523,0.002678,0.000431,0.011753
6914000,0.0324,0.013523,0.002678,0.000431,0.013046
6915000,0.0324,0.013523,0.002678,0.000431,0.013046
6916000,0.0324,0.013523,0.002678,0.000431,0.012458
6917000,0.0324,0.013523,0.002678,0.000431,0.012340
6918000,0.0324,0.013523,0.002678,0.000431,0.012223
6919000,0.0324,0.013523,0.002678,0.000431,0.013398
6920000,0.0324,0.013523,0.002678,0.000431,0.013046
6921000,0.0324,0.013523,0.002678,0.000431,0.012928
6922000,0.0324,0.013523,0.002678,0.000431,0.013516
6923000,0.0324,0.013523,0.002678,0.000431,0.012811
6924000,0.0324,0.013523,0.002678,0.000431,0.013751
6925000,0.0324,0.013523,0.002678,0.000431,0.013046
6926000,0.0324,0.013523,0.002678,0.000431,0.012693
6927000,0.0324,0.013523,0.002678,0.000431,0.013751
6928000,0.0324,0.013523,0.002678,0.000431,0.013398
6929000,0.0324,0.013523,0.002678,0.000431,0.013398
6930000,0.0324,0.013523,0.002678,0.000431,0.012340
6931000,0.0324,0.013523,0.002678,0.000431,0.013633
6932000,0.0324,0.013523,0.002678,0.000431,0.012576
6933000,0.0324,0.013523,0.002678,0.000431,0.013751
6934000,0.0324,0.013523,0.002678,0.000431,0.012928
6935000,0.0324,0.013523,0.002678,0.000431,0.012811
6936000,0.0324,0.013523,0.002678,0.000431,0.012928
6937000,0.0324,0.013523,0.002678,0.000431,0.012928
6938000,0.0324,0.013523,0.002678,0.000431,0.013751
6939000,0.0324,0.013523,0.002678,0.000431,0.013868
6940000,0.0324,0.013523,0.002678,0.000431,0.011400
6941000,0.0324,0.013523,0.002678,0.000431,0.013633
6942000,0.0324,0.013523,0.002678,0.000431,0.012576
6943000,0.0324,0.013523,0.002678,0.000431,0.012693
6944000,0.0324,0.013523,0.002678,0.000431,0.013281
6945000,0.0324,0.013523,0.002678,0.000431,0.013163
6946000,0.0324,0.013523,0.002678,0.000431,0.013633
6947000,0.0324,0.013523,0.002678,0.000431,0.011518
6948000,0.0324,0.013523,0.002678,0.000431,0.012811
6949000,0.0324,0.013523,0.002678,0.000431,0.012811
6950000,0.0324,0.013523,0.002678,0.000431,0.012928
6951000,0.0324,0.013523,0.002678,0.000431,0.010930
6952000,0.0324,0.013523,0.002678,0.000431,0.013868
6953000,0.0324,0.013523,0.002678,0.000431,0.011400
6954000,0.0324,0.013523,0.002678,0.000431,0.011635
6955000,0.0324,0.013523,0.002678,0.000431,0.012693
6956000,0.0324,0.013523,0.002678,0.000431,0.012928
6957000,0.0324,0.013523,0.002678,0.000431,0.013163
6958000,0.0324,0.013523,0.002678,0.000431,0.011988
6959000,0.0324,0.013523,0.002678,0.000431,0.011988
6960000,0.0324,0.013523,0.002678,0.000431,0.012105
6961000,0.0324,0.013523,0.002678,0.000431,0.012576
6962000,0.0324,0.013523,0.002678,0.000431,0.012693
6963000,0.0324,0.013523,0.002678,0.000431,0.011635
6964000,0.0324,0.013523,0.002678,0.000431,0.011753
6965000,0.0324,0.013523,0.002678,0.000431,0.012458
6966000,0.0324,0.013523,0.002678,0.000431,0.012811
6967000,0.0324,0.013523,0.002678,0.000431,0.010813
6968000,0.0324,0.013523,0.002678,0.000431,0.012105
6969000,0.0324,0.013523,0.002678,0.000431,0.012458
6970000,0.0324,0.013523,0.002678,0.000431,0.011753
6971000,0.0324,0.013523,0.002678,0.000431,0.012105
6972000,0.0324,0.013523,0.002678,0.000431,0.011635
6973000,0.0324,0.013523,0.002678,0.000431,0.012576
6974000,0.0324,0.013523,0.002678,0.000431,0.010342
6975000,0.0324,0.013523,0.002678,0.000431,0.013398
6976000,0.0324,0.013523,0.002678,0.000431,0.012811
6977000,0.0324,0.013523,0.002678,0.000431,0.012105
6978000,0.0324,0.013523,0.002678,0.000431,0.012576
6979000,0.0324,0.013523,0.002678,0.000431,0.012458
6980000,0.0324,0.013523,0.002678,0.000431,0.011753
6981000,0.0324,0.013523,0.002678,0.000431,0.012105
6982000,0.0324,0.013523,0.002678,0.000431,0.012105
6983000,0.0324,0.013523,0.002678,0.000431,0.012576
6984000,0.0324,0.013523,0.002678,0.000431,0.012105
6985000,0.0324,0.013523,0.002678,0.000431,0.012693
6986000,0.0324,0.013523,0.002678,0.000431,0.012576
6987000,0.0324,0.013523,0.002678,0.000431,0.011988
6988000,0.0324,0.013523,0.002678,0.000431,0.011400
6989000,0.0324,0.013523,0.002678,0.000431,0.012928
6990000,0.0324,0.013523,0.002678,0.000431,0.012223
6991000,0.0324,0.013523,0.002678,0.000431,0.011518
6992000,0.0324,0.013523,0.002678,0.000431,0.012223
6993000,0.0324,0.013523,0.002678,0.000431,0.011753
6994000,0.0324,0.013523,0.002678,0.000431,0.012928
6995000,0.0324,0.013523,0.002678,0.000431,0.011635
6996000,0.0324,0.013523,0.002678,0.000431,0.013163
6997000,0.0324,0.013523,0.002678,0.000431,0.011635
6998000,0.0324,0.013523,0.002678,0.000431,0.012223
6999000,0.0324,0.013523,0.002678,0.000431,0.012105
