Cycle,Area(mm^2),PeakDynamic(W),SubthresholdLeakage(W),GateLeakage(W),RunTimeDynamic(W)
4000000,0.0324,0.013523,0.002678,0.000431,0.803540
4001000,0.0324,0.013523,0.002678,0.000431,0.805773
4002000,0.0324,0.013523,0.002678,0.000431,0.843735
4003000,0.0324,0.013523,0.002678,0.000431,0.767459
4004000,0.0324,0.013523,0.002678,0.000431,0.959853
4005000,0.0324,0.013523,0.002678,0.000431,0.927532
4006000,0.0324,0.013523,0.002678,0.000431,0.756294
4007000,0.0324,0.013523,0.002678,0.000431,0.844910
4008000,0.0324,0.013523,0.002678,0.000431,0.926827
4009000,0.0324,0.013523,0.002678,0.000431,0.842560
4010000,0.0324,0.013523,0.002678,0.000431,0.706462
4011000,0.0324,0.013523,0.002678,0.000431,0.731613
4012000,0.0324,0.013523,0.002678,0.000431,0.655925
4013000,0.0324,0.013523,0.002678,0.000431,0.678020
4014000,0.0324,0.013523,0.002678,0.000431,0.767577
4015000,0.0324,0.013523,0.002678,0.000431,0.847026
4016000,0.0324,0.013523,0.002678,0.000431,0.816233
4017000,0.0324,0.013523,0.002678,0.000431,0.679078
4018000,0.0324,0.013523,0.002678,0.000431,0.751593
4019000,0.0324,0.013523,0.002678,0.000431,0.732671
4020000,0.0324,0.013523,0.002678,0.000431,0.637238
4021000,0.0324,0.013523,0.002678,0.000431,0.570247
4022000,0.0324,0.013523,0.002678,0.000431,0.665445
4023000,0.0324,0.013523,0.002678,0.000431,0.656395
4024000,0.0324,0.013523,0.002678,0.000431,0.717274
4025000,0.0324,0.013523,0.002678,0.000431,1.103002
4026000,0.0324,0.013523,0.002678,0.000431,0.984886
4027000,0.0324,0.013523,0.002678,0.000431,0.989940
4028000,0.0324,0.013523,0.002678,0.000431,1.024376
4029000,0.0324,0.013523,0.002678,0.000431,1.134735
4030000,0.0324,0.013523,0.002678,0.000431,1.015443
4031000,0.0324,0.013523,0.002678,0.000431,0.936230
4032000,0.0324,0.013523,0.002678,0.000431,0.842207
4033000,0.0324,0.013523,0.002678,0.000431,0.804010
4034000,0.0324,0.013523,0.002678,0.000431,0.627953
4035000,0.0324,0.013523,0.002678,0.000431,0.593635
4036000,0.0324,0.013523,0.002678,0.000431,0.677080
4037000,0.0324,0.013523,0.002678,0.000431,0.732553
4038000,0.0324,0.013523,0.002678,0.000431,0.647345
4039000,0.0324,0.013523,0.002678,0.000431,0.939873
4040000,0.0324,0.013523,0.002678,0.000431,0.947512
4041000,0.0324,0.013523,0.002678,0.000431,0.824225
4042000,0.0324,0.013523,0.002678,0.000431,1.241450
4043000,0.0324,0.013523,0.002678,0.000431,1.335708
4044000,0.0324,0.013523,0.002678,0.000431,1.362269
4045000,0.0324,0.013523,0.002678,0.000431,1.436900
4046000,0.0324,0.013523,0.002678,0.000431,1.356040
4047000,0.0324,0.013523,0.002678,0.000431,1.249677
4048000,0.0324,0.013523,0.002678,0.000431,1.219707
4049000,0.0324,0.013523,0.002678,0.000431,0.959147
4050000,0.0324,0.013523,0.002678,0.000431,0.940813
4051000,0.0324,0.013523,0.002678,0.000431,0.952801
4052000,0.0324,0.013523,0.002678,0.000431,0.925299
4053000,0.0324,0.013523,0.002678,0.000431,0.927885
4054000,0.0324,0.013523,0.002678,0.000431,0.928355
4055000,0.0324,0.013523,0.002678,0.000431,1.097948
4056000,0.0324,0.013523,0.002678,0.000431,1.246739
4057000,0.0324,0.013523,0.002678,0.000431,1.144607
4058000,0.0324,0.013523,0.002678,0.000431,1.233576
4059000,0.0324,0.013523,0.002678,0.000431,1.092189
4060000,0.0324,0.013523,0.002678,0.000431,1.175752
4061000,0.0324,0.013523,0.002678,0.000431,1.228522
4062000,0.0324,0.013523,0.002678,0.000431,1.124862
4063000,0.0324,0.013523,0.002678,0.000431,1.357803
4064000,0.0324,0.013523,0.002678,0.000431,1.282468
4065000,0.0324,0.013523,0.002678,0.000431,1.361094
4066000,0.0324,0.013523,0.002678,0.000431,1.406577
4067000,0.0324,0.013523,0.002678,0.000431,1.290930
4068000,0.0324,0.013523,0.002678,0.000431,1.407870
4069000,0.0324,0.013523,0.002678,0.000431,1.385187
4070000,0.0324,0.013523,0.002678,0.000431,1.331829
4071000,0.0324,0.013523,0.002678,0.000431,1.089839
4072000,0.0324,0.013523,0.002678,0.000431,1.106763
4073000,0.0324,0.013523,0.002678,0.000431,1.394002
4074000,0.0324,0.013523,0.002678,0.000431,1.302917
4075000,0.0324,0.013523,0.002678,0.000431,1.320899
4076000,0.0324,0.013523,0.002678,0.000431,1.368616
4077000,0.0324,0.013523,0.002678,0.000431,1.123452
4078000,0.0324,0.013523,0.002678,0.000431,1.021672
4079000,0.0324,0.013523,0.002678,0.000431,0.932469
4080000,0.0324,0.013523,0.002678,0.000431,1.194909
4081000,0.0324,0.013523,0.002678,0.000431,1.470278
4082000,0.0324,0.013523,0.002678,0.000431,1.527984
4083000,0.0324,0.013523,0.002678,0.000431,1.301625
4084000,0.0324,0.013523,0.002678,0.000431,1.054463
4085000,0.0324,0.013523,0.002678,0.000431,1.161061
4086000,0.0324,0.013523,0.002678,0.000431,1.280470
4087000,0.0324,0.013523,0.002678,0.000431,1.365207
4088000,0.0324,0.013523,0.002678,0.000431,1.257199
4089000,0.0324,0.013523,0.002678,0.000431,1.248502
4090000,0.0324,0.013523,0.002678,0.000431,1.123804
4091000,0.0324,0.013523,0.002678,0.000431,1.117575
4092000,0.0324,0.013523,0.002678,0.000431,1.201256
4093000,0.0324,0.013523,0.002678,0.000431,1.089134
4094000,0.0324,0.013523,0.002678,0.000431,1.034483
4095000,0.0324,0.013523,0.002678,0.000431,1.074795
4096000,0.0324,0.013523,0.002678,0.000431,0.369509
4097000,0.0324,0.013523,0.002678,0.000431,0.089439
4098000,0.0324,0.013523,0.002678,0.000431,0.060527
4099000,0.0324,0.013523,0.002678,0.000431,0.054886
4100000,0.0324,0.013523,0.002678,0.000431,0.049597
4101000,0.0324,0.013523,0.002678,0.000431,0.042193
4102000,0.0324,0.013523,0.002678,0.000431,0.042075
4103000,0.0324,0.013523,0.002678,0.000431,0.043485
4104000,0.0324,0.013523,0.002678,0.000431,0.043015
4105000,0.0324,0.013523,0.002678,0.000431,0.043250
4106000,0.0324,0.013523,0.002678,0.000431,0.040665
4107000,0.0324,0.013523,0.002678,0.000431,0.040077
4108000,0.0324,0.013523,0.002678,0.000431,0.040782
4109000,0.0324,0.013523,0.002678,0.000431,0.041370
4110000,0.0324,0.013523,0.002678,0.000431,0.038432
4111000,0.0324,0.013523,0.002678,0.000431,0.041605
4112000,0.0324,0.013523,0.002678,0.000431,0.041017
4113000,0.0324,0.013523,0.002678,0.000431,0.039842
4114000,0.0324,0.013523,0.002678,0.000431,0.039842
4115000,0.0324,0.013523,0.002678,0.000431,0.039607
4116000,0.0324,0.013523,0.002678,0.000431,0.037962
4117000,0.0324,0.013523,0.002678,0.000431,0.039372
4118000,0.0324,0.013523,0.002678,0.000431,0.034671
4119000,0.0324,0.013523,0.002678,0.000431,0.039137
4120000,0.0324,0.013523,0.002678,0.000431,0.038314
4121000,0.0324,0.013523,0.002678,0.000431,0.036904
4122000,0.0324,0.013523,0.002678,0.000431,0.039019
4123000,0.0324,0.013523,0.002678,0.000431,0.039489
4124000,0.0324,0.013523,0.002678,0.000431,0.037021
4125000,0.0324,0.013523,0.002678,0.000431,0.038784
4126000,0.0324,0.013523,0.002678,0.000431,0.036786
4127000,0.0324,0.013523,0.002678,0.000431,0.036669
4128000,0.0324,0.013523,0.002678,0.000431,0.038432
4129000,0.0324,0.013523,0.002678,0.000431,0.037609
4130000,0.0324,0.013523,0.002678,0.000431,0.037491
4131000,0.0324,0.013523,0.002678,0.000431,0.038549
4132000,0.0324,0.013523,0.002678,0.000431,0.034436
4133000,0.0324,0.013523,0.002678,0.000431,0.039489
4134000,0.0324,0.013523,0.002678,0.000431,0.036551
4135000,0.0324,0.013523,0.002678,0.000431,0.037962
4136000,0.0324,0.013523,0.002678,0.000431,0.038432
4137000,0.0324,0.013523,0.002678,0.000431,0.035494
4138000,0.0324,0.013523,0.002678,0.000431,0.039372
4139000,0.0324,0.013523,0.002678,0.000431,0.035846
4140000,0.0324,0.013523,0.002678,0.000431,0.037844
4141000,0.0324,0.013523,0.002678,0.000431,0.036199
4142000,0.0324,0.013523,0.002678,0.000431,0.037491
4143000,0.0324,0.013523,0.002678,0.000431,0.036316
4144000,0.0324,0.013523,0.002678,0.000431,0.039725
4145000,0.0324,0.013523,0.002678,0.000431,0.035964
4146000,0.0324,0.013523,0.002678,0.000431,0.035494
4147000,0.0324,0.013523,0.002678,0.000431,0.039019
4148000,0.0324,0.013523,0.002678,0.000431,0.038432
4149000,0.0324,0.013523,0.002678,0.000431,0.036081
4150000,0.0324,0.013523,0.002678,0.000431,0.036904
4151000,0.0324,0.013523,0.002678,0.000431,0.040312
4152000,0.0324,0.013523,0.002678,0.000431,0.036551
4153000,0.0324,0.013523,0.002678,0.000431,0.037139
4154000,0.0324,0.013523,0.002678,0.000431,0.035729
4155000,0.0324,0.013523,0.002678,0.000431,0.037609
4156000,0.0324,0.013523,0.002678,0.000431,0.034788
4157000,0.0324,0.013523,0.002678,0.000431,0.039137
4158000,0.0324,0.013523,0.002678,0.000431,0.036669
4159000,0.0324,0.013523,0.002678,0.000431,0.033613
4160000,0.0324,0.013523,0.002678,0.000431,0.036199
4161000,0.0324,0.013523,0.002678,0.000431,0.036434
4162000,0.0324,0.013523,0.002678,0.000431,0.035376
4163000,0.0324,0.013523,0.002678,0.000431,0.035964
4164000,0.0324,0.013523,0.002678,0.000431,0.036199
4165000,0.0324,0.013523,0.002678,0.000431,0.037021
4166000,0.0324,0.013523,0.002678,0.000431,0.035376
4167000,0.0324,0.013523,0.002678,0.000431,0.035258
4168000,0.0324,0.013523,0.002678,0.000431,0.035023
4169000,0.0324,0.013523,0.002678,0.000431,0.036669
4170000,0.0324,0.013523,0.002678,0.000431,0.034436
4171000,0.0324,0.013523,0.002678,0.000431,0.034553
4172000,0.0324,0.013523,0.002678,0.000431,0.036904
4173000,0.0324,0.013523,0.002678,0.000431,0.034083
4174000,0.0324,0.013523,0.002678,0.000431,0.035494
4175000,0.0324,0.013523,0.002678,0.000431,0.033966
4176000,0.0324,0.013523,0.002678,0.000431,0.036434
4177000,0.0324,0.013523,0.002678,0.000431,0.035964
4178000,0.0324,0.013523,0.002678,0.000431,0.035846
4179000,0.0324,0.013523,0.002678,0.000431,0.033143
4180000,0.0324,0.013523,0.002678,0.000431,0.037139
4181000,0.0324,0.013523,0.002678,0.000431,0.032790
4182000,0.0324,0.013523,0.002678,0.000431,0.034553
4183000,0.0324,0.013523,0.002678,0.000431,0.035141
4184000,0.0324,0.013523,0.002678,0.000431,0.035964
4185000,0.0324,0.013523,0.002678,0.000431,0.033260
4186000,0.0324,0.013523,0.002678,0.000431,0.038079
4187000,0.0324,0.013523,0.002678,0.000431,0.032908
4188000,0.0324,0.013523,0.002678,0.000431,0.035611
4189000,0.0324,0.013523,0.002678,0.000431,0.030910
4190000,0.0324,0.013523,0.002678,0.000431,0.032320
4191000,0.0324,0.013523,0.002678,0.000431,0.035494
4192000,0.0324,0.013523,0.002678,0.000431,0.031145
4193000,0.0324,0.013523,0.002678,0.000431,0.033378
4194000,0.0324,0.013523,0.002678,0.000431,0.035611
4195000,0.0324,0.013523,0.002678,0.000431,0.033025
4196000,0.0324,0.013523,0.002678,0.000431,0.031850
4197000,0.0324,0.013523,0.002678,0.000431,0.037021
4198000,0.0324,0.013523,0.002678,0.000431,0.032085
4199000,0.0324,0.013523,0.002678,0.000431,0.033966
4200000,0.0324,0.013523,0.002678,0.000431,0.034436
4201000,0.0324,0.013523,0.002678,0.000431,0.032320
4202000,0.0324,0.013523,0.002678,0.000431,0.031968
4203000,0.0324,0.013523,0.002678,0.000431,0.034318
4204000,0.0324,0.013523,0.002678,0.000431,0.032085
4205000,0.0324,0.013523,0.002678,0.000431,0.034436
4206000,0.0324,0.013523,0.002678,0.000431,0.032320
4207000,0.0324,0.013523,0.002678,0.000431,0.033025
4208000,0.0324,0.013523,0.002678,0.000431,0.034201
4209000,0.0324,0.013523,0.002678,0.000431,0.032320
4210000,0.0324,0.013523,0.002678,0.000431,0.032085
4211000,0.0324,0.013523,0.002678,0.000431,0.033496
4212000,0.0324,0.013523,0.002678,0.000431,0.032673
4213000,0.0324,0.013523,0.002678,0.000431,0.031380
4214000,0.0324,0.013523,0.002678,0.000431,0.034201
4215000,0.0324,0.013523,0.002678,0.000431,0.033731
4216000,0.0324,0.013523,0.002678,0.000431,0.031498
4217000,0.0324,0.013523,0.002678,0.000431,0.032203
4218000,0.0324,0.013523,0.002678,0.000431,0.032790
4219000,0.0324,0.013523,0.002678,0.000431,0.033025
4220000,0.0324,0.013523,0.002678,0.000431,0.031968
4221000,0.0324,0.013523,0.002678,0.000431,0.031380
4222000,0.0324,0.013523,0.002678,0.000431,0.035729
4223000,0.0324,0.013523,0.002678,0.000431,0.031027
4224000,0.0324,0.013523,0.002678,0.000431,0.033143
4225000,0.0324,0.013523,0.002678,0.000431,0.034083
4226000,0.0324,0.013523,0.002678,0.000431,0.032438
4227000,0.0324,0.013523,0.002678,0.000431,0.029970
4228000,0.0324,0.013523,0.002678,0.000431,0.035729
4229000,0.0324,0.013523,0.002678,0.000431,0.032673
4230000,0.0324,0.013523,0.002678,0.000431,0.031498
4231000,0.0324,0.013523,0.002678,0.000431,0.033378
4232000,0.0324,0.013523,0.002678,0.000431,0.032673
4233000,0.0324,0.013523,0.002678,0.000431,0.032673
4234000,0.0324,0.013523,0.002678,0.000431,0.033613
4235000,0.0324,0.013523,0.002678,0.000431,0.034083
4236000,0.0324,0.013523,0.002678,0.000431,0.031380
4237000,0.0324,0.013523,0.002678,0.000431,0.033025
4238000,0.0324,0.013523,0.002678,0.000431,0.033731
4239000,0.0324,0.013523,0.002678,0.000431,0.033260
4240000,0.0324,0.013523,0.002678,0.000431,0.032438
4241000,0.0324,0.013523,0.002678,0.000431,0.033966
4242000,0.0324,0.013523,0.002678,0.000431,0.031262
4243000,0.0324,0.013523,0.002678,0.000431,0.033260
4244000,0.0324,0.013523,0.002678,0.000431,0.031733
4245000,0.0324,0.013523,0.002678,0.000431,0.031733
4246000,0.0324,0.013523,0.002678,0.000431,0.029970
4247000,0.0324,0.013523,0.002678,0.000431,0.033848
4248000,0.0324,0.013523,0.002678,0.000431,0.031968
4249000,0.0324,0.013523,0.002678,0.000431,0.030792
4250000,0.0324,0.013523,0.002678,0.000431,0.030557
4251000,0.0324,0.013523,0.002678,0.000431,0.032438
4252000,0.0324,0.013523,0.002678,0.000431,0.032673
4253000,0.0324,0.013523,0.002678,0.000431,0.031615
4254000,0.0324,0.013523,0.002678,0.000431,0.030675
4255000,0.0324,0.013523,0.002678,0.000431,0.033378
4256000,0.0324,0.013523,0.002678,0.000431,0.028559
4257000,0.0324,0.013523,0.002678,0.000431,0.032908
4258000,0.0324,0.013523,0.002678,0.000431,0.033731
4259000,0.0324,0.013523,0.002678,0.000431,0.031615
4260000,0.0324,0.013523,0.002678,0.000431,0.031498
4261000,0.0324,0.013523,0.002678,0.000431,0.032908
4262000,0.0324,0.013523,0.002678,0.000431,0.031498
4263000,0.0324,0.013523,0.002678,0.000431,0.031380
4264000,0.0324,0.013523,0.002678,0.000431,0.031498
4265000,0.0324,0.013523,0.002678,0.000431,0.030557
4266000,0.0324,0.013523,0.002678,0.000431,0.032320
4267000,0.0324,0.013523,0.002678,0.000431,0.031262
4268000,0.0324,0.013523,0.002678,0.000431,0.031262
4269000,0.0324,0.013523,0.002678,0.000431,0.031380
4270000,0.0324,0.013523,0.002678,0.000431,0.031027
4271000,0.0324,0.013523,0.002678,0.000431,0.033143
4272000,0.0324,0.013523,0.002678,0.000431,0.032085
4273000,0.0324,0.013523,0.002678,0.000431,0.029617
4274000,0.0324,0.013523,0.002678,0.000431,0.031145
4275000,0.0324,0.013523,0.002678,0.000431,0.031380
4276000,0.0324,0.013523,0.002678,0.000431,0.030792
4277000,0.0324,0.013523,0.002678,0.000431,0.033025
4278000,0.0324,0.013523,0.002678,0.000431,0.029852
4279000,0.0324,0.013523,0.002678,0.000431,0.030910
4280000,0.0324,0.013523,0.002678,0.000431,0.031850
4281000,0.0324,0.013523,0.002678,0.000431,0.032320
4282000,0.0324,0.013523,0.002678,0.000431,0.030792
4283000,0.0324,0.013523,0.002678,0.000431,0.032203
4284000,0.0324,0.013523,0.002678,0.000431,0.030322
4285000,0.0324,0.013523,0.002678,0.000431,0.030205
4286000,0.0324,0.013523,0.002678,0.000431,0.032673
4287000,0.0324,0.013523,0.002678,0.000431,0.029500
4288000,0.0324,0.013523,0.002678,0.000431,0.033731
4289000,0.0324,0.013523,0.002678,0.000431,0.029852
4290000,0.0324,0.013523,0.002678,0.000431,0.030792
4291000,0.0324,0.013523,0.002678,0.000431,0.033260
4292000,0.0324,0.013523,0.002678,0.000431,0.030440
4293000,0.0324,0.013523,0.002678,0.000431,0.030087
4294000,0.0324,0.013523,0.002678,0.000431,0.031615
4295000,0.0324,0.013523,0.002678,0.000431,0.031968
4296000,0.0324,0.013523,0.002678,0.000431,0.031145
4297000,0.0324,0.013523,0.002678,0.000431,0.032908
4298000,0.0324,0.013523,0.002678,0.000431,0.030792
4299000,0.0324,0.013523,0.002678,0.000431,0.031498
4300000,0.0324,0.013523,0.002678,0.000431,0.033378
4301000,0.0324,0.013523,0.002678,0.000431,0.031145
4302000,0.0324,0.013523,0.002678,0.000431,0.030557
4303000,0.0324,0.013523,0.002678,0.000431,0.034083
4304000,0.0324,0.013523,0.002678,0.000431,0.030792
4305000,0.0324,0.013523,0.002678,0.000431,0.033143
4306000,0.0324,0.013523,0.002678,0.000431,0.031027
4307000,0.0324,0.013523,0.002678,0.000431,0.030675
4308000,0.0324,0.013523,0.002678,0.000431,0.031968
4309000,0.0324,0.013523,0.002678,0.000431,0.031380
4310000,0.0324,0.013523,0.002678,0.000431,0.031498
4311000,0.0324,0.013523,0.002678,0.000431,0.034201
4312000,0.0324,0.013523,0.002678,0.000431,0.031027
4313000,0.0324,0.013523,0.002678,0.000431,0.030557
4314000,0.0324,0.013523,0.002678,0.000431,0.033731
4315000,0.0324,0.013523,0.002678,0.000431,0.031615
4316000,0.0324,0.013523,0.002678,0.000431,0.032085
4317000,0.0324,0.013523,0.002678,0.000431,0.031615
4318000,0.0324,0.013523,0.002678,0.000431,0.030440
4319000,0.0324,0.013523,0.002678,0.000431,0.032555
4320000,0.0324,0.013523,0.002678,0.000431,0.031380
4321000,0.0324,0.013523,0.002678,0.000431,0.032203
4322000,0.0324,0.013523,0.002678,0.000431,0.033025
4323000,0.0324,0.013523,0.002678,0.000431,0.029617
4324000,0.0324,0.013523,0.002678,0.000431,0.031733
4325000,0.0324,0.013523,0.002678,0.000431,0.032438
4326000,0.0324,0.013523,0.002678,0.000431,0.030087
4327000,0.0324,0.013523,0.002678,0.000431,0.031615
4328000,0.0324,0.013523,0.002678,0.000431,0.032673
4329000,0.0324,0.013523,0.002678,0.000431,0.030087
4330000,0.0324,0.013523,0.002678,0.000431,0.031733
4331000,0.0324,0.013523,0.002678,0.000431,0.031145
4332000,0.0324,0.013523,0.002678,0.000431,0.029970
4333000,0.0324,0.013523,0.002678,0.000431,0.032790
4334000,0.0324,0.013523,0.002678,0.000431,0.029147
4335000,0.0324,0.013523,0.002678,0.000431,0.032320
4336000,0.0324,0.013523,0.002678,0.000431,0.031027
4337000,0.0324,0.013523,0.002678,0.000431,0.030675
4338000,0.0324,0.013523,0.002678,0.000431,0.032555
4339000,0.0324,0.013523,0.002678,0.000431,0.031498
4340000,0.0324,0.013523,0.002678,0.000431,0.029970
4341000,0.0324,0.013523,0.002678,0.000431,0.031850
4342000,0.0324,0.013523,0.002678,0.000431,0.030910
4343000,0.0324,0.013523,0.002678,0.000431,0.029029
4344000,0.0324,0.013523,0.002678,0.000431,0.033378
4345000,0.0324,0.013523,0.002678,0.000431,0.030440
4346000,0.0324,0.013523,0.002678,0.000431,0.030205
4347000,0.0324,0.013523,0.002678,0.000431,0.032085
4348000,0.0324,0.013523,0.002678,0.000431,0.030675
4349000,0.0324,0.013523,0.002678,0.000431,0.029735
4350000,0.0324,0.013523,0.002678,0.000431,0.030910
4351000,0.0324,0.013523,0.002678,0.000431,0.029500
4352000,0.0324,0.013523,0.002678,0.000431,0.031145
4353000,0.0324,0.013523,0.002678,0.000431,0.029735
4354000,0.0324,0.013523,0.002678,0.000431,0.029265
4355000,0.0324,0.013523,0.002678,0.000431,0.030675
4356000,0.0324,0.013523,0.002678,0.000431,0.031145
4357000,0.0324,0.013523,0.002678,0.000431,0.028442
4358000,0.0324,0.013523,0.002678,0.000431,0.031850
4359000,0.0324,0.013523,0.002678,0.000431,0.031380
4360000,0.0324,0.013523,0.002678,0.000431,0.028559
4361000,0.0324,0.013523,0.002678,0.000431,0.031733
4362000,0.0324,0.013523,0.002678,0.000431,0.032673
4363000,0.0324,0.013523,0.002678,0.000431,0.030440
4364000,0.0324,0.013523,0.002678,0.000431,0.029970
4365000,0.0324,0.013523,0.002678,0.000431,0.030910
4366000,0.0324,0.013523,0.002678,0.000431,0.031145
4367000,0.0324,0.013523,0.002678,0.000431,0.031027
4368000,0.0324,0.013523,0.002678,0.000431,0.029735
4369000,0.0324,0.013523,0.002678,0.000431,0.029970
4370000,0.0324,0.013523,0.002678,0.000431,0.031027
4371000,0.0324,0.013523,0.002678,0.000431,0.031262
4372000,0.0324,0.013523,0.002678,0.000431,0.031027
4373000,0.0324,0.013523,0.002678,0.000431,0.029500
4374000,0.0324,0.013523,0.002678,0.000431,0.031027
4375000,0.0324,0.013523,0.002678,0.000431,0.031850
4376000,0.0324,0.013523,0.002678,0.000431,0.028677
4377000,0.0324,0.013523,0.002678,0.000431,0.030322
4378000,0.0324,0.013523,0.002678,0.000431,0.032790
4379000,0.0324,0.013523,0.002678,0.000431,0.028207
4380000,0.0324,0.013523,0.002678,0.000431,0.030322
4381000,0.0324,0.013523,0.002678,0.000431,0.032203
4382000,0.0324,0.013523,0.002678,0.000431,0.029970
4383000,0.0324,0.013523,0.002678,0.000431,0.030205
4384000,0.0324,0.013523,0.002678,0.000431,0.029970
4385000,0.0324,0.013523,0.002678,0.000431,0.031850
4386000,0.0324,0.013523,0.002678,0.000431,0.030322
4387000,0.0324,0.013523,0.002678,0.000431,0.031027
4388000,0.0324,0.013523,0.002678,0.000431,0.031733
4389000,0.0324,0.013523,0.002678,0.000431,0.029970
4390000,0.0324,0.013523,0.002678,0.000431,0.028794
4391000,0.0324,0.013523,0.002678,0.000431,0.032320
4392000,0.0324,0.013523,0.002678,0.000431,0.029382
4393000,0.0324,0.013523,0.002678,0.000431,0.027031
4394000,0.0324,0.013523,0.002678,0.000431,0.031850
4395000,0.0324,0.013523,0.002678,0.000431,0.029735
4396000,0.0324,0.013523,0.002678,0.000431,0.028559
4397000,0.0324,0.013523,0.002678,0.000431,0.029735
4398000,0.0324,0.013523,0.002678,0.000431,0.030910
4399000,0.0324,0.013523,0.002678,0.000431,0.028559
4400000,0.0324,0.013523,0.002678,0.000431,0.031498
4401000,0.0324,0.013523,0.002678,0.000431,0.028912
4402000,0.0324,0.013523,0.002678,0.000431,0.030087
4403000,0.0324,0.013523,0.002678,0.000431,0.029617
4404000,0.0324,0.013523,0.002678,0.000431,0.031145
4405000,0.0324,0.013523,0.002678,0.000431,0.029617
4406000,0.0324,0.013523,0.002678,0.000431,0.030322
4407000,0.0324,0.013523,0.002678,0.000431,0.030440
4408000,0.0324,0.013523,0.002678,0.000431,0.030322
4409000,0.0324,0.013523,0.002678,0.000431,0.027972
4410000,0.0324,0.013523,0.002678,0.000431,0.030675
4411000,0.0324,0.013523,0.002678,0.000431,0.030440
4412000,0.0324,0.013523,0.002678,0.000431,0.026796
4413000,0.0324,0.013523,0.002678,0.000431,0.030087
4414000,0.0324,0.013523,0.002678,0.000431,0.030440
4415000,0.0324,0.013523,0.002678,0.000431,0.028207
4416000,0.0324,0.013523,0.002678,0.000431,0.030792
4417000,0.0324,0.013523,0.002678,0.000431,0.030322
4418000,0.0324,0.013523,0.002678,0.000431,0.029147
4419000,0.0324,0.013523,0.002678,0.000431,0.029382
4420000,0.0324,0.013523,0.002678,0.000431,0.028089
4421000,0.0324,0.013523,0.002678,0.000431,0.029147
4422000,0.0324,0.013523,0.002678,0.000431,0.028912
4423000,0.0324,0.013523,0.002678,0.000431,0.028559
4424000,0.0324,0.013523,0.002678,0.000431,0.031850
4425000,0.0324,0.013523,0.002678,0.000431,0.028677
4426000,0.0324,0.013523,0.002678,0.000431,0.026091
4427000,0.0324,0.013523,0.002678,0.000431,0.031615
4428000,0.0324,0.013523,0.002678,0.000431,0.027502
4429000,0.0324,0.013523,0.002678,0.000431,0.027737
4430000,0.0324,0.013523,0.002678,0.000431,0.030792
4431000,0.0324,0.013523,0.002678,0.000431,0.027384
4432000,0.0324,0.013523,0.002678,0.000431,0.029500
4433000,0.0324,0.013523,0.002678,0.000431,0.030205
4434000,0.0324,0.013523,0.002678,0.000431,0.027854
4435000,0.0324,0.013523,0.002678,0.000431,0.029735
4436000,0.0324,0.013523,0.002678,0.000431,0.027384
4437000,0.0324,0.013523,0.002678,0.000431,0.028089
4438000,0.0324,0.013523,0.002678,0.000431,0.029265
4439000,0.0324,0.013523,0.002678,0.000431,0.028207
4440000,0.0324,0.013523,0.002678,0.000431,0.028442
4441000,0.0324,0.013523,0.002678,0.000431,0.031262
4442000,0.0324,0.013523,0.002678,0.000431,0.027267
4443000,0.0324,0.013523,0.002678,0.000431,0.028442
4444000,0.0324,0.013523,0.002678,0.000431,0.029970
4445000,0.0324,0.013523,0.002678,0.000431,0.025856
4446000,0.0324,0.013523,0.002678,0.000431,0.029617
4447000,0.0324,0.013523,0.002678,0.000431,0.029500
4448000,0.0324,0.013523,0.002678,0.000431,0.026679
4449000,0.0324,0.013523,0.002678,0.000431,0.026326
4450000,0.0324,0.013523,0.002678,0.000431,0.028794
4451000,0.0324,0.013523,0.002678,0.000431,0.027854
4452000,0.0324,0.013523,0.002678,0.000431,0.028912
4453000,0.0324,0.013523,0.002678,0.000431,0.025974
4454000,0.0324,0.013523,0.002678,0.000431,0.028442
4455000,0.0324,0.013523,0.002678,0.000431,0.029029
4456000,0.0324,0.013523,0.002678,0.000431,0.027619
4457000,0.0324,0.013523,0.002678,0.000431,0.026561
4458000,0.0324,0.013523,0.002678,0.000431,0.029852
4459000,0.0324,0.013523,0.002678,0.000431,0.028794
4460000,0.0324,0.013523,0.002678,0.000431,0.029265
4461000,0.0324,0.013523,0.002678,0.000431,0.028324
4462000,0.0324,0.013523,0.002678,0.000431,0.027149
4463000,0.0324,0.013523,0.002678,0.000431,0.029735
4464000,0.0324,0.013523,0.002678,0.000431,0.027149
4465000,0.0324,0.013523,0.002678,0.000431,0.026796
4466000,0.0324,0.013523,0.002678,0.000431,0.028912
4467000,0.0324,0.013523,0.002678,0.000431,0.028677
4468000,0.0324,0.013523,0.002678,0.000431,0.026326
4469000,0.0324,0.013523,0.002678,0.000431,0.030322
4470000,0.0324,0.013523,0.002678,0.000431,0.026796
4471000,0.0324,0.013523,0.002678,0.000431,0.030322
4472000,0.0324,0.013523,0.002678,0.000431,0.027267
4473000,0.0324,0.013523,0.002678,0.000431,0.026796
4474000,0.0324,0.013523,0.002678,0.000431,0.027854
4475000,0.0324,0.013523,0.002678,0.000431,0.028442
4476000,0.0324,0.013523,0.002678,0.000431,0.026326
4477000,0.0324,0.013523,0.002678,0.000431,0.029029
4478000,0.0324,0.013523,0.002678,0.000431,0.024916
4479000,0.0324,0.013523,0.002678,0.000431,0.027737
4480000,0.0324,0.013523,0.002678,0.000431,0.028207
4481000,0.0324,0.013523,0.002678,0.000431,0.026796
4482000,0.0324,0.013523,0.002678,0.000431,0.026796
4483000,0.0324,0.013523,0.002678,0.000431,0.028912
4484000,0.0324,0.013523,0.002678,0.000431,0.027502
4485000,0.0324,0.013523,0.002678,0.000431,0.027854
4486000,0.0324,0.013523,0.002678,0.000431,0.027031
4487000,0.0324,0.013523,0.002678,0.000431,0.026914
4488000,0.0324,0.013523,0.002678,0.000431,0.028677
4489000,0.0324,0.013523,0.002678,0.000431,0.026091
4490000,0.0324,0.013523,0.002678,0.000431,0.027972
4491000,0.0324,0.013523,0.002678,0.000431,0.027854
4492000,0.0324,0.013523,0.002678,0.000431,0.027031
4493000,0.0324,0.013523,0.002678,0.000431,0.026914
4494000,0.0324,0.013523,0.002678,0.000431,0.028912
4495000,0.0324,0.013523,0.002678,0.000431,0.025739
4496000,0.0324,0.013523,0.002678,0.000431,0.029852
4497000,0.0324,0.013523,0.002678,0.000431,0.027149
4498000,0.0324,0.013523,0.002678,0.000431,0.026914
4499000,0.0324,0.013523,0.002678,0.000431,0.026914
4500000,0.0324,0.013523,0.002678,0.000431,0.028324
4501000,0.0324,0.013523,0.002678,0.000431,0.025151
4502000,0.0324,0.013523,0.002678,0.000431,0.028442
4503000,0.0324,0.013523,0.002678,0.000431,0.025974
4504000,0.0324,0.013523,0.002678,0.000431,0.027267
4505000,0.0324,0.013523,0.002678,0.000431,0.028324
4506000,0.0324,0.013523,0.002678,0.000431,0.025504
4507000,0.0324,0.013523,0.002678,0.000431,0.025621
4508000,0.0324,0.013523,0.002678,0.000431,0.029265
4509000,0.0324,0.013523,0.002678,0.000431,0.026914
4510000,0.0324,0.013523,0.002678,0.000431,0.026561
4511000,0.0324,0.013523,0.002678,0.000431,0.026209
4512000,0.0324,0.013523,0.002678,0.000431,0.028089
4513000,0.0324,0.013523,0.002678,0.000431,0.026209
4514000,0.0324,0.013523,0.002678,0.000431,0.027737
4515000,0.0324,0.013523,0.002678,0.000431,0.025856
4516000,0.0324,0.013523,0.002678,0.000431,0.028324
4517000,0.0324,0.013523,0.002678,0.000431,0.026209
4518000,0.0324,0.013523,0.002678,0.000431,0.026209
4519000,0.0324,0.013523,0.002678,0.000431,0.029265
4520000,0.0324,0.013523,0.002678,0.000431,0.024681
4521000,0.0324,0.013523,0.002678,0.000431,0.027854
4522000,0.0324,0.013523,0.002678,0.000431,0.028089
4523000,0.0324,0.013523,0.002678,0.000431,0.026914
4524000,0.0324,0.013523,0.002678,0.000431,0.028559
4525000,0.0324,0.013523,0.002678,0.000431,0.027149
4526000,0.0324,0.013523,0.002678,0.000431,0.024681
4527000,0.0324,0.013523,0.002678,0.000431,0.028794
4528000,0.0324,0.013523,0.002678,0.000431,0.026914
4529000,0.0324,0.013523,0.002678,0.000431,0.027031
4530000,0.0324,0.013523,0.002678,0.000431,0.027619
4531000,0.0324,0.013523,0.002678,0.000431,0.026091
4532000,0.0324,0.013523,0.002678,0.000431,0.027149
4533000,0.0324,0.013523,0.002678,0.000431,0.027267
4534000,0.0324,0.013523,0.002678,0.000431,0.026679
4535000,0.0324,0.013523,0.002678,0.000431,0.027502
4536000,0.0324,0.013523,0.002678,0.000431,0.027149
4537000,0.0324,0.013523,0.002678,0.000431,0.025151
4538000,0.0324,0.013523,0.002678,0.000431,0.029617
4539000,0.0324,0.013523,0.002678,0.000431,0.026209
4540000,0.0324,0.013523,0.002678,0.000431,0.025504
4541000,0.0324,0.013523,0.002678,0.000431,0.027854
4542000,0.0324,0.013523,0.002678,0.000431,0.027149
4543000,0.0324,0.013523,0.002678,0.000431,0.025621
4544000,0.0324,0.013523,0.002678,0.000431,0.026561
4545000,0.0324,0.013523,0.002678,0.000431,0.027854
4546000,0.0324,0.013523,0.002678,0.000431,0.028677
4547000,0.0324,0.013523,0.002678,0.000431,0.026679
4548000,0.0324,0.013523,0.002678,0.000431,0.025151
4549000,0.0324,0.013523,0.002678,0.000431,0.028559
4550000,0.0324,0.013523,0.002678,0.000431,0.026326
4551000,0.0324,0.013523,0.002678,0.000431,0.025739
4552000,0.0324,0.013523,0.002678,0.000431,0.028559
4553000,0.0324,0.013523,0.002678,0.000431,0.026796
4554000,0.0324,0.013523,0.002678,0.000431,0.025504
4555000,0.0324,0.013523,0.002678,0.000431,0.029617
4556000,0.0324,0.013523,0.002678,0.000431,0.027854
4557000,0.0324,0.013523,0.002678,0.000431,0.025034
4558000,0.0324,0.013523,0.002678,0.000431,0.029147
4559000,0.0324,0.013523,0.002678,0.000431,0.025856
4560000,0.0324,0.013523,0.002678,0.000431,0.027502
4561000,0.0324,0.013523,0.002678,0.000431,0.028442
4562000,0.0324,0.013523,0.002678,0.000431,0.026796
4563000,0.0324,0.013523,0.002678,0.000431,0.027267
4564000,0.0324,0.013523,0.002678,0.000431,0.026796
4565000,0.0324,0.013523,0.002678,0.000431,0.027737
4566000,0.0324,0.013523,0.002678,0.000431,0.027149
4567000,0.0324,0.013523,0.002678,0.000431,0.025151
4568000,0.0324,0.013523,0.002678,0.000431,0.026796
4569000,0.0324,0.013523,0.002678,0.000431,0.027267
4570000,0.0324,0.013523,0.002678,0.000431,0.024798
4571000,0.0324,0.013523,0.002678,0.000431,0.027737
4572000,0.0324,0.013523,0.002678,0.000431,0.025856
4573000,0.0324,0.013523,0.002678,0.000431,0.025504
4574000,0.0324,0.013523,0.002678,0.000431,0.027031
4575000,0.0324,0.013523,0.002678,0.000431,0.026679
4576000,0.0324,0.013523,0.002678,0.000431,0.024563
4577000,0.0324,0.013523,0.002678,0.000431,0.028324
4578000,0.0324,0.013523,0.002678,0.000431,0.026444
4579000,0.0324,0.013523,0.002678,0.000431,0.025739
4580000,0.0324,0.013523,0.002678,0.000431,0.025856
4581000,0.0324,0.013523,0.002678,0.000431,0.026679
4582000,0.0324,0.013523,0.002678,0.000431,0.027267
4583000,0.0324,0.013523,0.002678,0.000431,0.026209
4584000,0.0324,0.013523,0.002678,0.000431,0.024446
4585000,0.0324,0.013523,0.002678,0.000431,0.027619
4586000,0.0324,0.013523,0.002678,0.000431,0.025974
4587000,0.0324,0.013523,0.002678,0.000431,0.023506
4588000,0.0324,0.013523,0.002678,0.000431,0.027384
4589000,0.0324,0.013523,0.002678,0.000431,0.024093
4590000,0.0324,0.013523,0.002678,0.000431,0.025269
4591000,0.0324,0.013523,0.002678,0.000431,0.027854
4592000,0.0324,0.013523,0.002678,0.000431,0.025739
4593000,0.0324,0.013523,0.002678,0.000431,0.025621
4594000,0.0324,0.013523,0.002678,0.000431,0.026796
4595000,0.0324,0.013523,0.002678,0.000431,0.024916
4596000,0.0324,0.013523,0.002678,0.000431,0.025856
4597000,0.0324,0.013523,0.002678,0.000431,0.024798
4598000,0.0324,0.013523,0.002678,0.000431,0.025621
4599000,0.0324,0.013523,0.002678,0.000431,0.027149
4600000,0.0324,0.013523,0.002678,0.000431,0.024211
4601000,0.0324,0.013523,0.002678,0.000431,0.025269
4602000,0.0324,0.013523,0.002678,0.000431,0.027149
4603000,0.0324,0.013523,0.002678,0.000431,0.024798
4604000,0.0324,0.013523,0.002678,0.000431,0.027619
4605000,0.0324,0.013523,0.002678,0.000431,0.026091
4606000,0.0324,0.013523,0.002678,0.000431,0.025151
4607000,0.0324,0.013523,0.002678,0.000431,0.025974
4608000,0.0324,0.013523,0.002678,0.000431,0.025856
4609000,0.0324,0.013523,0.002678,0.000431,0.025151
4610000,0.0324,0.013523,0.002678,0.000431,0.026679
4611000,0.0324,0.013523,0.002678,0.000431,0.023271
4612000,0.0324,0.013523,0.002678,0.000431,0.026679
4613000,0.0324,0.013523,0.002678,0.000431,0.025974
4614000,0.0324,0.013523,0.002678,0.000431,0.026091
4615000,0.0324,0.013523,0.002678,0.000431,0.026679
4616000,0.0324,0.013523,0.002678,0.000431,0.025504
4617000,0.0324,0.013523,0.002678,0.000431,0.024328
4618000,0.0324,0.013523,0.002678,0.000431,0.026679
4619000,0.0324,0.013523,0.002678,0.000431,0.026444
4620000,0.0324,0.013523,0.002678,0.000431,0.026561
4621000,0.0324,0.013523,0.002678,0.000431,0.025739
4622000,0.0324,0.013523,0.002678,0.000431,0.025269
4623000,0.0324,0.013523,0.002678,0.000431,0.027031
4624000,0.0324,0.013523,0.002678,0.000431,0.026679
4625000,0.0324,0.013523,0.002678,0.000431,0.025621
4626000,0.0324,0.013523,0.002678,0.000431,0.026561
4627000,0.0324,0.013523,0.002678,0.000431,0.025386
4628000,0.0324,0.013523,0.002678,0.000431,0.026326
4629000,0.0324,0.013523,0.002678,0.000431,0.026209
4630000,0.0324,0.013523,0.002678,0.000431,0.026091
4631000,0.0324,0.013523,0.002678,0.000431,0.025151
4632000,0.0324,0.013523,0.002678,0.000431,0.026561
4633000,0.0324,0.013523,0.002678,0.000431,0.026679
4634000,0.0324,0.013523,0.002678,0.000431,0.024798
4635000,0.0324,0.013523,0.002678,0.000431,0.026796
4636000,0.0324,0.013523,0.002678,0.000431,0.026209
4637000,0.0324,0.013523,0.002678,0.000431,0.026326
4638000,0.0324,0.013523,0.002678,0.000431,0.025151
4639000,0.0324,0.013523,0.002678,0.000431,0.028207
4640000,0.0324,0.013523,0.002678,0.000431,0.026796
4641000,0.0324,0.013523,0.002678,0.000431,0.024681
4642000,0.0324,0.013523,0.002678,0.000431,0.026561
4643000,0.0324,0.013523,0.002678,0.000431,0.027737
4644000,0.0324,0.013523,0.002678,0.000431,0.024916
4645000,0.0324,0.013523,0.002678,0.000431,0.026209
4646000,0.0324,0.013523,0.002678,0.000431,0.027619
4647000,0.0324,0.013523,0.002678,0.000431,0.026326
4648000,0.0324,0.013523,0.002678,0.000431,0.025269
4649000,0.0324,0.013523,0.002678,0.000431,0.026561
4650000,0.0324,0.013523,0.002678,0.000431,0.026091
4651000,0.0324,0.013523,0.002678,0.000431,0.027737
4652000,0.0324,0.013523,0.002678,0.000431,0.024211
4653000,0.0324,0.013523,0.002678,0.000431,0.026679
4654000,0.0324,0.013523,0.002678,0.000431,0.025269
4655000,0.0324,0.013523,0.002678,0.000431,0.025974
4656000,0.0324,0.013523,0.002678,0.000431,0.026444
4657000,0.0324,0.013523,0.002678,0.000431,0.026561
4658000,0.0324,0.013523,0.002678,0.000431,0.024916
4659000,0.0324,0.013523,0.002678,0.000431,0.028559
4660000,0.0324,0.013523,0.002678,0.000431,0.026561
4661000,0.0324,0.013523,0.002678,0.000431,0.025974
4662000,0.0324,0.013523,0.002678,0.000431,0.026679
4663000,0.0324,0.013523,0.002678,0.000431,0.025386
4664000,0.0324,0.013523,0.002678,0.000431,0.023741
4665000,0.0324,0.013523,0.002678,0.000431,0.026679
4666000,0.0324,0.013523,0.002678,0.000431,0.026209
4667000,0.0324,0.013523,0.002678,0.000431,0.025739
4668000,0.0324,0.013523,0.002678,0.000431,0.025739
4669000,0.0324,0.013523,0.002678,0.000431,0.026091
4670000,0.0324,0.013523,0.002678,0.000431,0.024446
4671000,0.0324,0.013523,0.002678,0.000431,0.026209
4672000,0.0324,0.013523,0.002678,0.000431,0.025621
4673000,0.0324,0.013523,0.002678,0.000431,0.025504
4674000,0.0324,0.013523,0.002678,0.000431,0.025034
4675000,0.0324,0.013523,0.002678,0.000431,0.024093
4676000,0.0324,0.013523,0.002678,0.000431,0.028442
4677000,0.0324,0.013523,0.002678,0.000431,0.025034
4678000,0.0324,0.013523,0.002678,0.000431,0.024681
4679000,0.0324,0.013523,0.002678,0.000431,0.025974
4680000,0.0324,0.013523,0.002678,0.000431,0.026326
4681000,0.0324,0.013523,0.002678,0.000431,0.024446
4682000,0.0324,0.013523,0.002678,0.000431,0.026444
4683000,0.0324,0.013523,0.002678,0.000431,0.026561
4684000,0.0324,0.013523,0.002678,0.000431,0.024328
4685000,0.0324,0.013523,0.002678,0.000431,0.025856
4686000,0.0324,0.013523,0.002678,0.000431,0.026914
4687000,0.0324,0.013523,0.002678,0.000431,0.025856
4688000,0.0324,0.013523,0.002678,0.000431,0.025269
4689000,0.0324,0.013523,0.002678,0.000431,0.025974
4690000,0.0324,0.013523,0.002678,0.000431,0.027502
4691000,0.0324,0.013523,0.002678,0.000431,0.024916
4692000,0.0324,0.013523,0.002678,0.000431,0.025856
4693000,0.0324,0.013523,0.002678,0.000431,0.028089
4694000,0.0324,0.013523,0.002678,0.000431,0.024798
4695000,0.0324,0.013523,0.002678,0.000431,0.026091
4696000,0.0324,0.013523,0.002678,0.000431,0.025739
4697000,0.0324,0.013523,0.002678,0.000431,0.026444
4698000,0.0324,0.013523,0.002678,0.000431,0.024328
4699000,0.0324,0.013523,0.002678,0.000431,0.025621
4700000,0.0324,0.013523,0.002678,0.000431,0.027384
4701000,0.0324,0.013523,0.002678,0.000431,0.025504
4702000,0.0324,0.013523,0.002678,0.000431,0.025856
4703000,0.0324,0.013523,0.002678,0.000431,0.025386
4704000,0.0324,0.013523,0.002678,0.000431,0.027737
4705000,0.0324,0.013523,0.002678,0.000431,0.024798
4706000,0.0324,0.013523,0.002678,0.000431,0.025269
4707000,0.0324,0.013523,0.002678,0.000431,0.025034
4708000,0.0324,0.013523,0.002678,0.000431,0.025974
4709000,0.0324,0.013523,0.002678,0.000431,0.027737
4710000,0.0324,0.013523,0.002678,0.000431,0.024563
4711000,0.0324,0.013523,0.002678,0.000431,0.023976
4712000,0.0324,0.013523,0.002678,0.000431,0.027737
4713000,0.0324,0.013523,0.002678,0.000431,0.025621
4714000,0.0324,0.013523,0.002678,0.000431,0.024916
4715000,0.0324,0.013523,0.002678,0.000431,0.025856
4716000,0.0324,0.013523,0.002678,0.000431,0.026796
4717000,0.0324,0.013523,0.002678,0.000431,0.025034
4718000,0.0324,0.013523,0.002678,0.000431,0.026796
4719000,0.0324,0.013523,0.002678,0.000431,0.025974
4720000,0.0324,0.013523,0.002678,0.000431,0.026914
4721000,0.0324,0.013523,0.002678,0.000431,0.025739
4722000,0.0324,0.013523,0.002678,0.000431,0.025621
4723000,0.0324,0.013523,0.002678,0.000431,0.028794
4724000,0.0324,0.013523,0.002678,0.000431,0.024446
4725000,0.0324,0.013523,0.002678,0.000431,0.026091
4726000,0.0324,0.013523,0.002678,0.000431,0.025739
4727000,0.0324,0.013523,0.002678,0.000431,0.024446
4728000,0.0324,0.013523,0.002678,0.000431,0.024563
4729000,0.0324,0.013523,0.002678,0.000431,0.025739
4730000,0.0324,0.013523,0.002678,0.000431,0.024681
4731000,0.0324,0.013523,0.002678,0.000431,0.024798
4732000,0.0324,0.013523,0.002678,0.000431,0.025856
4733000,0.0324,0.013523,0.002678,0.000431,0.024798
4734000,0.0324,0.013523,0.002678,0.000431,0.024563
4735000,0.0324,0.013523,0.002678,0.000431,0.025034
4736000,0.0324,0.013523,0.002678,0.000431,0.025739
4737000,0.0324,0.013523,0.002678,0.000431,0.025269
4738000,0.0324,0.013523,0.002678,0.000431,0.021978
4739000,0.0324,0.013523,0.002678,0.000431,0.023976
4740000,0.0324,0.013523,0.002678,0.000431,0.027149
4741000,0.0324,0.013523,0.002678,0.000431,0.023036
4742000,0.0324,0.013523,0.002678,0.000431,0.025856
4743000,0.0324,0.013523,0.002678,0.000431,0.024328
4744000,0.0324,0.013523,0.002678,0.000431,0.023506
4745000,0.0324,0.013523,0.002678,0.000431,0.027619
4746000,0.0324,0.013523,0.002678,0.000431,0.023858
4747000,0.0324,0.013523,0.002678,0.000431,0.024328
4748000,0.0324,0.013523,0.002678,0.000431,0.026561
4749000,0.0324,0.013523,0.002678,0.000431,0.024681
4750000,0.0324,0.013523,0.002678,0.000431,0.024563
4751000,0.0324,0.013523,0.002678,0.000431,0.025386
4752000,0.0324,0.013523,0.002678,0.000431,0.023271
4753000,0.0324,0.013523,0.002678,0.000431,0.025739
4754000,0.0324,0.013523,0.002678,0.000431,0.025269
4755000,0.0324,0.013523,0.002678,0.000431,0.022565
4756000,0.0324,0.013523,0.002678,0.000431,0.026914
4757000,0.0324,0.013523,0.002678,0.000431,0.024798
4758000,0.0324,0.013523,0.002678,0.000431,0.022800
4759000,0.0324,0.013523,0.002678,0.000431,0.024446
4760000,0.0324,0.013523,0.002678,0.000431,0.025269
4761000,0.0324,0.013523,0.002678,0.000431,0.024328
4762000,0.0324,0.013523,0.002678,0.000431,0.023741
4763000,0.0324,0.013523,0.002678,0.000431,0.024328
4764000,0.0324,0.013523,0.002678,0.000431,0.022800
4765000,0.0324,0.013523,0.002678,0.000431,0.025974
4766000,0.0324,0.013523,0.002678,0.000431,0.023741
4767000,0.0324,0.013523,0.002678,0.000431,0.027267
4768000,0.0324,0.013523,0.002678,0.000431,0.022448
4769000,0.0324,0.013523,0.002678,0.000431,0.023506
4770000,0.0324,0.013523,0.002678,0.000431,0.026209
4771000,0.0324,0.013523,0.002678,0.000431,0.024798
4772000,0.0324,0.013523,0.002678,0.000431,0.022800
4773000,0.0324,0.013523,0.002678,0.000431,0.026091
4774000,0.0324,0.013523,0.002678,0.000431,0.023153
4775000,0.0324,0.013523,0.002678,0.000431,0.025621
4776000,0.0324,0.013523,0.002678,0.000431,0.023858
4777000,0.0324,0.013523,0.002678,0.000431,0.024446
4778000,0.0324,0.013523,0.002678,0.000431,0.026796
4779000,0.0324,0.013523,0.002678,0.000431,0.024798
4780000,0.0324,0.013523,0.002678,0.000431,0.022800
4781000,0.0324,0.013523,0.002678,0.000431,0.024093
4782000,0.0324,0.013523,0.002678,0.000431,0.024916
4783000,0.0324,0.013523,0.002678,0.000431,0.021860
4784000,0.0324,0.013523,0.002678,0.000431,0.026914
4785000,0.0324,0.013523,0.002678,0.000431,0.023388
4786000,0.0324,0.013523,0.002678,0.000431,0.024328
4787000,0.0324,0.013523,0.002678,0.000431,0.025151
4788000,0.0324,0.013523,0.002678,0.000431,0.023506
4789000,0.0324,0.013523,0.002678,0.000431,0.023388
4790000,0.0324,0.013523,0.002678,0.000431,0.024563
4791000,0.0324,0.013523,0.002678,0.000431,0.023036
4792000,0.0324,0.013523,0.002678,0.000431,0.025739
4793000,0.0324,0.013523,0.002678,0.000431,0.022095
4794000,0.0324,0.013523,0.002678,0.000431,0.024211
4795000,0.0324,0.013523,0.002678,0.000431,0.023271
4796000,0.0324,0.013523,0.002678,0.000431,0.024211
4797000,0.0324,0.013523,0.002678,0.000431,0.021625
4798000,0.0324,0.013523,0.002678,0.000431,0.025974
4799000,0.0324,0.013523,0.002678,0.000431,0.023506
4800000,0.0324,0.013523,0.002678,0.000431,0.022918
4801000,0.0324,0.013523,0.002678,0.000431,0.025974
4802000,0.0324,0.013523,0.002678,0.000431,0.022683
4803000,0.0324,0.013523,0.002678,0.000431,0.025739
4804000,0.0324,0.013523,0.002678,0.000431,0.025151
4805000,0.0324,0.013523,0.002678,0.000431,0.022565
4806000,0.0324,0.013523,0.002678,0.000431,0.024328
4807000,0.0324,0.013523,0.002678,0.000431,0.024328
4808000,0.0324,0.013523,0.002678,0.000431,0.023271
4809000,0.0324,0.013523,0.002678,0.000431,0.025739
4810000,0.0324,0.013523,0.002678,0.000431,0.022213
4811000,0.0324,0.013523,0.002678,0.000431,0.024211
4812000,0.0324,0.013523,0.002678,0.000431,0.024681
4813000,0.0324,0.013523,0.002678,0.000431,0.025269
4814000,0.0324,0.013523,0.002678,0.000431,0.023153
4815000,0.0324,0.013523,0.002678,0.000431,0.025504
4816000,0.0324,0.013523,0.002678,0.000431,0.022565
4817000,0.0324,0.013523,0.002678,0.000431,0.025269
4818000,0.0324,0.013523,0.002678,0.000431,0.023858
4819000,0.0324,0.013523,0.002678,0.000431,0.025386
4820000,0.0324,0.013523,0.002678,0.000431,0.025974
4821000,0.0324,0.013523,0.002678,0.000431,0.023976
4822000,0.0324,0.013523,0.002678,0.000431,0.024798
4823000,0.0324,0.013523,0.002678,0.000431,0.025151
4824000,0.0324,0.013523,0.002678,0.000431,0.022448
4825000,0.0324,0.013523,0.002678,0.000431,0.024446
4826000,0.0324,0.013523,0.002678,0.000431,0.023976
4827000,0.0324,0.013523,0.002678,0.000431,0.024446
4828000,0.0324,0.013523,0.002678,0.000431,0.023741
4829000,0.0324,0.013523,0.002678,0.000431,0.021978
4830000,0.0324,0.013523,0.002678,0.000431,0.023858
4831000,0.0324,0.013523,0.002678,0.000431,0.024798
4832000,0.0324,0.013523,0.002678,0.000431,0.025504
4833000,0.0324,0.013523,0.002678,0.000431,0.022800
4834000,0.0324,0.013523,0.002678,0.000431,0.025739
4835000,0.0324,0.013523,0.002678,0.000431,0.022213
4836000,0.0324,0.013523,0.002678,0.000431,0.024093
4837000,0.0324,0.013523,0.002678,0.000431,0.024681
4838000,0.0324,0.013523,0.002678,0.000431,0.023741
4839000,0.0324,0.013523,0.002678,0.000431,0.024446
4840000,0.0324,0.013523,0.002678,0.000431,0.023388
4841000,0.0324,0.013523,0.002678,0.000431,0.023036
4842000,0.0324,0.013523,0.002678,0.000431,0.023271
4843000,0.0324,0.013523,0.002678,0.000431,0.023741
4844000,0.0324,0.013523,0.002678,0.000431,0.022918
4845000,0.0324,0.013523,0.002678,0.000431,0.023623
4846000,0.0324,0.013523,0.002678,0.000431,0.023506
4847000,0.0324,0.013523,0.002678,0.000431,0.023388
4848000,0.0324,0.013523,0.002678,0.000431,0.024563
4849000,0.0324,0.013523,0.002678,0.000431,0.022330
4850000,0.0324,0.013523,0.002678,0.000431,0.023388
4851000,0.0324,0.013523,0.002678,0.000431,0.025739
4852000,0.0324,0.013523,0.002678,0.000431,0.022213
4853000,0.0324,0.013523,0.002678,0.000431,0.024328
4854000,0.0324,0.013523,0.002678,0.000431,0.021860
4855000,0.0324,0.013523,0.002678,0.000431,0.023388
4856000,0.0324,0.013523,0.002678,0.000431,0.024446
4857000,0.0324,0.013523,0.002678,0.000431,0.023153
4858000,0.0324,0.013523,0.002678,0.000431,0.022918
4859000,0.0324,0.013523,0.002678,0.000431,0.025504
4860000,0.0324,0.013523,0.002678,0.000431,0.022330
4861000,0.0324,0.013523,0.002678,0.000431,0.022213
4862000,0.0324,0.013523,0.002678,0.000431,0.023623
4863000,0.0324,0.013523,0.002678,0.000431,0.023858
4864000,0.0324,0.013523,0.002678,0.000431,0.024563
4865000,0.0324,0.013523,0.002678,0.000431,0.024328
4866000,0.0324,0.013523,0.002678,0.000431,0.022095
4867000,0.0324,0.013523,0.002678,0.000431,0.024328
4868000,0.0324,0.013523,0.002678,0.000431,0.023741
4869000,0.0324,0.013523,0.002678,0.000431,0.022565
4870000,0.0324,0.013523,0.002678,0.000431,0.025034
4871000,0.0324,0.013523,0.002678,0.000431,0.023388
4872000,0.0324,0.013523,0.002678,0.000431,0.020920
4873000,0.0324,0.013523,0.002678,0.000431,0.023271
4874000,0.0324,0.013523,0.002678,0.000431,0.022330
4875000,0.0324,0.013523,0.002678,0.000431,0.024916
4876000,0.0324,0.013523,0.002678,0.000431,0.021743
4877000,0.0324,0.013523,0.002678,0.000431,0.022095
4878000,0.0324,0.013523,0.002678,0.000431,0.022213
4879000,0.0324,0.013523,0.002678,0.000431,0.022330
4880000,0.0324,0.013523,0.002678,0.000431,0.023976
4881000,0.0324,0.013523,0.002678,0.000431,0.024093
4882000,0.0324,0.013523,0.002678,0.000431,0.021625
4883000,0.0324,0.013523,0.002678,0.000431,0.023036
4884000,0.0324,0.013523,0.002678,0.000431,0.025974
4885000,0.0324,0.013523,0.002678,0.000431,0.022213
4886000,0.0324,0.013523,0.002678,0.000431,0.023623
4887000,0.0324,0.013523,0.002678,0.000431,0.022800
4888000,0.0324,0.013523,0.002678,0.000431,0.022448
4889000,0.0324,0.013523,0.002678,0.000431,0.023858
4890000,0.0324,0.013523,0.002678,0.000431,0.022918
4891000,0.0324,0.013523,0.002678,0.000431,0.019980
4892000,0.0324,0.013523,0.002678,0.000431,0.024798
4893000,0.0324,0.013523,0.002678,0.000431,0.021273
4894000,0.0324,0.013523,0.002678,0.000431,0.023741
4895000,0.0324,0.013523,0.002678,0.000431,0.020567
4896000,0.0324,0.013523,0.002678,0.000431,0.025621
4897000,0.0324,0.013523,0.002678,0.000431,0.021860
4898000,0.0324,0.013523,0.002678,0.000431,0.024563
4899000,0.0324,0.013523,0.002678,0.000431,0.021390
4900000,0.0324,0.013523,0.002678,0.000431,0.023858
4901000,0.0324,0.013523,0.002678,0.000431,0.021390
4902000,0.0324,0.013523,0.002678,0.000431,0.022448
4903000,0.0324,0.013523,0.002678,0.000431,0.023506
4904000,0.0324,0.013523,0.002678,0.000431,0.024328
4905000,0.0324,0.013523,0.002678,0.000431,0.023976
4906000,0.0324,0.013523,0.002678,0.000431,0.021390
4907000,0.0324,0.013523,0.002678,0.000431,0.025504
4908000,0.0324,0.013523,0.002678,0.000431,0.023976
4909000,0.0324,0.013523,0.002678,0.000431,0.024328
4910000,0.0324,0.013523,0.002678,0.000431,0.022448
4911000,0.0324,0.013523,0.002678,0.000431,0.024446
4912000,0.0324,0.013523,0.002678,0.000431,0.022918
4913000,0.0324,0.013523,0.002678,0.000431,0.023271
4914000,0.0324,0.013523,0.002678,0.000431,0.023388
4915000,0.0324,0.013523,0.002678,0.000431,0.023506
4916000,0.0324,0.013523,0.002678,0.000431,0.023153
4917000,0.0324,0.013523,0.002678,0.000431,0.024798
4918000,0.0324,0.013523,0.002678,0.000431,0.022800
4919000,0.0324,0.013523,0.002678,0.000431,0.023153
4920000,0.0324,0.013523,0.002678,0.000431,0.023858
4921000,0.0324,0.013523,0.002678,0.000431,0.022683
4922000,0.0324,0.013523,0.002678,0.000431,0.024681
4923000,0.0324,0.013523,0.002678,0.000431,0.023623
4924000,0.0324,0.013523,0.002678,0.000431,0.023153
4925000,0.0324,0.013523,0.002678,0.000431,0.022095
4926000,0.0324,0.013523,0.002678,0.000431,0.025269
4927000,0.0324,0.013523,0.002678,0.000431,0.023036
4928000,0.0324,0.013523,0.002678,0.000431,0.023153
4929000,0.0324,0.013523,0.002678,0.000431,0.022918
4930000,0.0324,0.013523,0.002678,0.000431,0.024328
4931000,0.0324,0.013523,0.002678,0.000431,0.022213
4932000,0.0324,0.013523,0.002678,0.000431,0.022918
4933000,0.0324,0.013523,0.002678,0.000431,0.023858
4934000,0.0324,0.013523,0.002678,0.000431,0.025034
4935000,0.0324,0.013523,0.002678,0.000431,0.021273
4936000,0.0324,0.013523,0.002678,0.000431,0.025151
4937000,0.0324,0.013523,0.002678,0.000431,0.023036
4938000,0.0324,0.013523,0.002678,0.000431,0.022683
4939000,0.0324,0.013523,0.002678,0.000431,0.024681
4940000,0.0324,0.013523,0.002678,0.000431,0.022330
4941000,0.0324,0.013523,0.002678,0.000431,0.023153
4942000,0.0324,0.013523,0.002678,0.000431,0.023506
4943000,0.0324,0.013523,0.002678,0.000431,0.022330
4944000,0.0324,0.013523,0.002678,0.000431,0.022565
4945000,0.0324,0.013523,0.002678,0.000431,0.024211
4946000,0.0324,0.013523,0.002678,0.000431,0.022918
4947000,0.0324,0.013523,0.002678,0.000431,0.023506
4948000,0.0324,0.013523,0.002678,0.000431,0.022565
4949000,0.0324,0.013523,0.002678,0.000431,0.025034
4950000,0.0324,0.013523,0.002678,0.000431,0.023506
4951000,0.0324,0.013523,0.002678,0.000431,0.025504
4952000,0.0324,0.013523,0.002678,0.000431,0.022565
4953000,0.0324,0.013523,0.002678,0.000431,0.024798
4954000,0.0324,0.013523,0.002678,0.000431,0.022095
4955000,0.0324,0.013523,0.002678,0.000431,0.023858
4956000,0.0324,0.013523,0.002678,0.000431,0.022330
4957000,0.0324,0.013523,0.002678,0.000431,0.024328
4958000,0.0324,0.013523,0.002678,0.000431,0.023858
4959000,0.0324,0.013523,0.002678,0.000431,0.021625
4960000,0.0324,0.013523,0.002678,0.000431,0.024798
4961000,0.0324,0.013523,0.002678,0.000431,0.023858
4962000,0.0324,0.013523,0.002678,0.000431,0.022800
4963000,0.0324,0.013523,0.002678,0.000431,0.022800
4964000,0.0324,0.013523,0.002678,0.000431,0.022800
4965000,0.0324,0.013523,0.002678,0.000431,0.022800
4966000,0.0324,0.013523,0.002678,0.000431,0.023036
4967000,0.0324,0.013523,0.002678,0.000431,0.021625
4968000,0.0324,0.013523,0.002678,0.000431,0.023506
4969000,0.0324,0.013523,0.002678,0.000431,0.024446
4970000,0.0324,0.013523,0.002678,0.000431,0.024093
4971000,0.0324,0.013523,0.002678,0.000431,0.022213
4972000,0.0324,0.013523,0.002678,0.000431,0.024563
4973000,0.0324,0.013523,0.002678,0.000431,0.021860
4974000,0.0324,0.013523,0.002678,0.000431,0.025856
4975000,0.0324,0.013523,0.002678,0.000431,0.021860
4976000,0.0324,0.013523,0.002678,0.000431,0.022213
4977000,0.0324,0.013523,0.002678,0.000431,0.023506
4978000,0.0324,0.013523,0.002678,0.000431,0.023623
4979000,0.0324,0.013523,0.002678,0.000431,0.022448
4980000,0.0324,0.013523,0.002678,0.000431,0.023271
4981000,0.0324,0.013523,0.002678,0.000431,0.023623
4982000,0.0324,0.013523,0.002678,0.000431,0.022095
4983000,0.0324,0.013523,0.002678,0.000431,0.024328
4984000,0.0324,0.013523,0.002678,0.000431,0.023623
4985000,0.0324,0.013523,0.002678,0.000431,0.023741
4986000,0.0324,0.013523,0.002678,0.000431,0.022213
4987000,0.0324,0.013523,0.002678,0.000431,0.025034
4988000,0.0324,0.013523,0.002678,0.000431,0.023036
4989000,0.0324,0.013523,0.002678,0.000431,0.023271
4990000,0.0324,0.013523,0.002678,0.000431,0.023036
4991000,0.0324,0.013523,0.002678,0.000431,0.023506
4992000,0.0324,0.013523,0.002678,0.000431,0.022213
4993000,0.0324,0.013523,0.002678,0.000431,0.023153
4994000,0.0324,0.013523,0.002678,0.000431,0.022800
4995000,0.0324,0.013523,0.002678,0.000431,0.022683
4996000,0.0324,0.013523,0.002678,0.000431,0.022683
4997000,0.0324,0.013523,0.002678,0.000431,0.022213
4998000,0.0324,0.013523,0.002678,0.000431,0.024798
4999000,0.0324,0.013523,0.002678,0.000431,0.022095
