Cycle,Area(mm^2),PeakDynamic(W),SubthresholdLeakage(W),GateLeakage(W),RunTimeDynamic(W)
1000000,0.0324,0.013523,0.002678,0.000431,0.001175
1001000,0.0324,0.013523,0.002678,0.000431,0.001528
1002000,0.0324,0.013523,0.002678,0.000431,0.001410
1003000,0.0324,0.013523,0.002678,0.000431,0.001528
1004000,0.0324,0.013523,0.002678,0.000431,0.001528
1005000,0.0324,0.013523,0.002678,0.000431,0.001175
1006000,0.0324,0.013523,0.002678,0.000431,0.000940
1007000,0.0324,0.013523,0.002678,0.000431,0.000705
1008000,0.0324,0.013523,0.002678,0.000431,0.001293
1009000,0.0324,0.013523,0.002678,0.000431,0.000705
1010000,0.0324,0.013523,0.002678,0.000431,0.000940
1011000,0.0324,0.013523,0.002678,0.000431,0.000823
1012000,0.0324,0.013523,0.002678,0.000431,0.000823
1013000,0.0324,0.013523,0.002678,0.000431,0.000705
1014000,0.0324,0.013523,0.002678,0.000431,0.001175
1015000,0.0324,0.013523,0.002678,0.000431,0.000823
1016000,0.0324,0.013523,0.002678,0.000431,0.001175
1017000,0.0324,0.013523,0.002678,0.000431,0.000940
1018000,0.0324,0.013523,0.002678,0.000431,0.000705
1019000,0.0324,0.013523,0.002678,0.000431,0.001175
1020000,0.0324,0.013523,0.002678,0.000431,0.000705
1021000,0.0324,0.013523,0.002678,0.000431,0.001175
1022000,0.0324,0.013523,0.002678,0.000431,0.001058
1023000,0.0324,0.013523,0.002678,0.000431,0.001058
1024000,0.0324,0.013523,0.002678,0.000431,0.000823
1025000,0.0324,0.013523,0.002678,0.000431,0.001058
1026000,0.0324,0.013523,0.002678,0.000431,0.000940
1027000,0.0324,0.013523,0.002678,0.000431,0.001293
1028000,0.0324,0.013523,0.002678,0.000431,0.000940
1029000,0.0324,0.013523,0.002678,0.000431,0.001058
1030000,0.0324,0.013523,0.002678,0.000431,0.000940
1031000,0.0324,0.013523,0.002678,0.000431,0.001058
1032000,0.0324,0.013523,0.002678,0.000431,0.000823
1033000,0.0324,0.013523,0.002678,0.000431,0.001293
1034000,0.0324,0.013523,0.002678,0.000431,0.000940
1035000,0.0324,0.013523,0.002678,0.000431,0.001293
1036000,0.0324,0.013523,0.002678,0.000431,0.001058
1037000,0.0324,0.013523,0.002678,0.000431,0.000940
1038000,0.0324,0.013523,0.002678,0.000431,0.000588
1039000,0.0324,0.013523,0.002678,0.000431,0.001175
1040000,0.0324,0.013523,0.002678,0.000431,0.001058
1041000,0.0324,0.013523,0.002678,0.000431,0.001058
1042000,0.0324,0.013523,0.002678,0.000431,0.001058
1043000,0.0324,0.013523,0.002678,0.000431,0.001058
1044000,0.0324,0.013523,0.002678,0.000431,0.001058
1045000,0.0324,0.013523,0.002678,0.000431,0.000823
1046000,0.0324,0.013523,0.002678,0.000431,0.001058
1047000,0.0324,0.013523,0.002678,0.000431,0.000940
1048000,0.0324,0.013523,0.002678,0.000431,0.000940
1049000,0.0324,0.013523,0.002678,0.000431,0.001058
1050000,0.0324,0.013523,0.002678,0.000431,0.000705
1051000,0.0324,0.013523,0.002678,0.000431,0.001293
1052000,0.0324,0.013523,0.002678,0.000431,0.000940
1053000,0.0324,0.013523,0.002678,0.000431,0.000823
1054000,0.0324,0.013523,0.002678,0.000431,0.001058
1055000,0.0324,0.013523,0.002678,0.000431,0.001058
1056000,0.0324,0.013523,0.002678,0.000431,0.000940
1057000,0.0324,0.013523,0.002678,0.000431,0.000705
1058000,0.0324,0.013523,0.002678,0.000431,0.000940
1059000,0.0324,0.013523,0.002678,0.000431,0.001175
1060000,0.0324,0.013523,0.002678,0.000431,0.001058
1061000,0.0324,0.013523,0.002678,0.000431,0.001058
1062000,0.0324,0.013523,0.002678,0.000431,0.000940
1063000,0.0324,0.013523,0.002678,0.000431,0.001175
1064000,0.0324,0.013523,0.002678,0.000431,0.000940
1065000,0.0324,0.013523,0.002678,0.000431,0.001175
1066000,0.0324,0.013523,0.002678,0.000431,0.001058
1067000,0.0324,0.013523,0.002678,0.000431,0.000588
1068000,0.0324,0.013523,0.002678,0.000431,0.000940
1069000,0.0324,0.013523,0.002678,0.000431,0.000940
1070000,0.0324,0.013523,0.002678,0.000431,0.001175
1071000,0.0324,0.013523,0.002678,0.000431,0.001175
1072000,0.0324,0.013523,0.002678,0.000431,0.001175
1073000,0.0324,0.013523,0.002678,0.000431,0.000940
1074000,0.0324,0.013523,0.002678,0.000431,0.000940
1075000,0.0324,0.013523,0.002678,0.000431,0.000823
1076000,0.0324,0.013523,0.002678,0.000431,0.000940
1077000,0.0324,0.013523,0.002678,0.000431,0.001058
1078000,0.0324,0.013523,0.002678,0.000431,0.000940
1079000,0.0324,0.013523,0.002678,0.000431,0.001058
1080000,0.0324,0.013523,0.002678,0.000431,0.001058
1081000,0.0324,0.013523,0.002678,0.000431,0.001058
1082000,0.0324,0.013523,0.002678,0.000431,0.000940
1083000,0.0324,0.013523,0.002678,0.000431,0.000823
1084000,0.0324,0.013523,0.002678,0.000431,0.001058
1085000,0.0324,0.013523,0.002678,0.000431,0.001293
1086000,0.0324,0.013523,0.002678,0.000431,0.001058
1087000,0.0324,0.013523,0.002678,0.000431,0.000940
1088000,0.0324,0.013523,0.002678,0.000431,0.000823
1089000,0.0324,0.013523,0.002678,0.000431,0.001293
1090000,0.0324,0.013523,0.002678,0.000431,0.000940
1091000,0.0324,0.013523,0.002678,0.000431,0.001175
1092000,0.0324,0.013523,0.002678,0.000431,0.000705
1093000,0.0324,0.013523,0.002678,0.000431,0.000940
1094000,0.0324,0.013523,0.002678,0.000431,0.001058
1095000,0.0324,0.013523,0.002678,0.000431,0.001058
1096000,0.0324,0.013523,0.002678,0.000431,0.001058
1097000,0.0324,0.013523,0.002678,0.000431,0.000940
1098000,0.0324,0.013523,0.002678,0.000431,0.000705
1099000,0.0324,0.013523,0.002678,0.000431,0.001175
1100000,0.0324,0.013523,0.002678,0.000431,0.000705
1101000,0.0324,0.013523,0.002678,0.000431,0.001175
1102000,0.0324,0.013523,0.002678,0.000431,0.000940
1103000,0.0324,0.013523,0.002678,0.000431,0.001058
1104000,0.0324,0.013523,0.002678,0.000431,0.000705
1105000,0.0324,0.013523,0.002678,0.000431,0.001058
1106000,0.0324,0.013523,0.002678,0.000431,0.000823
1107000,0.0324,0.013523,0.002678,0.000431,0.001058
1108000,0.0324,0.013523,0.002678,0.000431,0.000940
1109000,0.0324,0.013523,0.002678,0.000431,0.001058
1110000,0.0324,0.013523,0.002678,0.000431,0.001058
1111000,0.0324,0.013523,0.002678,0.000431,0.001058
1112000,0.0324,0.013523,0.002678,0.000431,0.001058
1113000,0.0324,0.013523,0.002678,0.000431,0.001058
1114000,0.0324,0.013523,0.002678,0.000431,0.000588
1115000,0.0324,0.013523,0.002678,0.000431,0.001058
1116000,0.0324,0.013523,0.002678,0.000431,0.000940
1117000,0.0324,0.013523,0.002678,0.000431,0.000940
1118000,0.0324,0.013523,0.002678,0.000431,0.001058
1119000,0.0324,0.013523,0.002678,0.000431,0.000940
1120000,0.0324,0.013523,0.002678,0.000431,0.000823
1121000,0.0324,0.013523,0.002678,0.000431,0.001175
1122000,0.0324,0.013523,0.002678,0.000431,0.001175
1123000,0.0324,0.013523,0.002678,0.000431,0.001058
1124000,0.0324,0.013523,0.002678,0.000431,0.001058
1125000,0.0324,0.013523,0.002678,0.000431,0.000705
1126000,0.0324,0.013523,0.002678,0.000431,0.001175
1127000,0.0324,0.013523,0.002678,0.000431,0.000940
1128000,0.0324,0.013523,0.002678,0.000431,0.000823
1129000,0.0324,0.013523,0.002678,0.000431,0.001175
1130000,0.0324,0.013523,0.002678,0.000431,0.001058
1131000,0.0324,0.013523,0.002678,0.000431,0.001058
1132000,0.0324,0.013523,0.002678,0.000431,0.001175
1133000,0.0324,0.013523,0.002678,0.000431,0.000705
1134000,0.0324,0.013523,0.002678,0.000431,0.001058
1135000,0.0324,0.013523,0.002678,0.000431,0.001175
1136000,0.0324,0.013523,0.002678,0.000431,0.000470
1137000,0.0324,0.013523,0.002678,0.000431,0.001058
1138000,0.0324,0.013523,0.002678,0.000431,0.001058
1139000,0.0324,0.013523,0.002678,0.000431,0.001175
1140000,0.0324,0.013523,0.002678,0.000431,0.001293
1141000,0.0324,0.013523,0.002678,0.000431,0.000470
1142000,0.0324,0.013523,0.002678,0.000431,0.000823
1143000,0.0324,0.013523,0.002678,0.000431,0.000588
1144000,0.0324,0.013523,0.002678,0.000431,0.001175
1145000,0.0324,0.013523,0.002678,0.000431,0.000823
1146000,0.0324,0.013523,0.002678,0.000431,0.000940
1147000,0.0324,0.013523,0.002678,0.000431,0.001058
1148000,0.0324,0.013523,0.002678,0.000431,0.000940
1149000,0.0324,0.013523,0.002678,0.000431,0.000940
1150000,0.0324,0.013523,0.002678,0.000431,0.001175
1151000,0.0324,0.013523,0.002678,0.000431,0.001058
1152000,0.0324,0.013523,0.002678,0.000431,0.001058
1153000,0.0324,0.013523,0.002678,0.000431,0.000940
1154000,0.0324,0.013523,0.002678,0.000431,0.001175
1155000,0.0324,0.013523,0.002678,0.000431,0.001058
1156000,0.0324,0.013523,0.002678,0.000431,0.000940
1157000,0.0324,0.013523,0.002678,0.000431,0.000940
1158000,0.0324,0.013523,0.002678,0.000431,0.000823
1159000,0.0324,0.013523,0.002678,0.000431,0.001058
1160000,0.0324,0.013523,0.002678,0.000431,0.001175
1161000,0.0324,0.013523,0.002678,0.000431,0.000940
1162000,0.0324,0.013523,0.002678,0.000431,0.000940
1163000,0.0324,0.013523,0.002678,0.000431,0.000940
1164000,0.0324,0.013523,0.002678,0.000431,0.001058
1165000,0.0324,0.013523,0.002678,0.000431,0.001058
1166000,0.0324,0.013523,0.002678,0.000431,0.000940
1167000,0.0324,0.013523,0.002678,0.000431,0.000940
1168000,0.0324,0.013523,0.002678,0.000431,0.000940
1169000,0.0324,0.013523,0.002678,0.000431,0.001175
1170000,0.0324,0.013523,0.002678,0.000431,0.000588
1171000,0.0324,0.013523,0.002678,0.000431,0.001175
1172000,0.0324,0.013523,0.002678,0.000431,0.000940
1173000,0.0324,0.013523,0.002678,0.000431,0.001058
1174000,0.0324,0.013523,0.002678,0.000431,0.001175
1175000,0.0324,0.013523,0.002678,0.000431,0.000940
1176000,0.0324,0.013523,0.002678,0.000431,0.000940
1177000,0.0324,0.013523,0.002678,0.000431,0.000940
1178000,0.0324,0.013523,0.002678,0.000431,0.001175
1179000,0.0324,0.013523,0.002678,0.000431,0.000823
1180000,0.0324,0.013523,0.002678,0.000431,0.001058
1181000,0.0324,0.013523,0.002678,0.000431,0.001175
1182000,0.0324,0.013523,0.002678,0.000431,0.000940
1183000,0.0324,0.013523,0.002678,0.000431,0.001293
1184000,0.0324,0.013523,0.002678,0.000431,0.001058
1185000,0.0324,0.013523,0.002678,0.000431,0.001058
1186000,0.0324,0.013523,0.002678,0.000431,0.000823
1187000,0.0324,0.013523,0.002678,0.000431,0.001175
1188000,0.0324,0.013523,0.002678,0.000431,0.000940
1189000,0.0324,0.013523,0.002678,0.000431,0.000823
1190000,0.0324,0.013523,0.002678,0.000431,0.001175
1191000,0.0324,0.013523,0.002678,0.000431,0.001175
1192000,0.0324,0.013523,0.002678,0.000431,0.000940
1193000,0.0324,0.013523,0.002678,0.000431,0.000940
1194000,0.0324,0.013523,0.002678,0.000431,0.001058
1195000,0.0324,0.013523,0.002678,0.000431,0.001293
1196000,0.0324,0.013523,0.002678,0.000431,0.000823
1197000,0.0324,0.013523,0.002678,0.000431,0.001058
1198000,0.0324,0.013523,0.002678,0.000431,0.001175
1199000,0.0324,0.013523,0.002678,0.000431,0.000705
1200000,0.0324,0.013523,0.002678,0.000431,0.000940
1201000,0.0324,0.013523,0.002678,0.000431,0.000823
1202000,0.0324,0.013523,0.002678,0.000431,0.000823
1203000,0.0324,0.013523,0.002678,0.000431,0.000940
1204000,0.0324,0.013523,0.002678,0.000431,0.001058
1205000,0.0324,0.013523,0.002678,0.000431,0.000940
1206000,0.0324,0.013523,0.002678,0.000431,0.001058
1207000,0.0324,0.013523,0.002678,0.000431,0.001058
1208000,0.0324,0.013523,0.002678,0.000431,0.001175
1209000,0.0324,0.013523,0.002678,0.000431,0.001058
1210000,0.0324,0.013523,0.002678,0.000431,0.000940
1211000,0.0324,0.013523,0.002678,0.000431,0.001058
1212000,0.0324,0.013523,0.002678,0.000431,0.000940
1213000,0.0324,0.013523,0.002678,0.000431,0.001175
1214000,0.0324,0.013523,0.002678,0.000431,0.001058
1215000,0.0324,0.013523,0.002678,0.000431,0.000823
1216000,0.0324,0.013523,0.002678,0.000431,0.000588
1217000,0.0324,0.013523,0.002678,0.000431,0.000705
1218000,0.0324,0.013523,0.002678,0.000431,0.000705
1219000,0.0324,0.013523,0.002678,0.000431,0.000823
1220000,0.0324,0.013523,0.002678,0.000431,0.000705
1221000,0.0324,0.013523,0.002678,0.000431,0.000705
1222000,0.0324,0.013523,0.002678,0.000431,0.000823
1223000,0.0324,0.013523,0.002678,0.000431,0.000470
1224000,0.0324,0.013523,0.002678,0.000431,0.000705
1225000,0.0324,0.013523,0.002678,0.000431,0.000940
1226000,0.0324,0.013523,0.002678,0.000431,0.000823
1227000,0.0324,0.013523,0.002678,0.000431,0.001058
1228000,0.0324,0.013523,0.002678,0.000431,0.000823
1229000,0.0324,0.013523,0.002678,0.000431,0.000940
1230000,0.0324,0.013523,0.002678,0.000431,0.001175
1231000,0.0324,0.013523,0.002678,0.000431,0.000705
1232000,0.0324,0.013523,0.002678,0.000431,0.000940
1233000,0.0324,0.013523,0.002678,0.000431,0.001293
1234000,0.0324,0.013523,0.002678,0.000431,0.000823
1235000,0.0324,0.013523,0.002678,0.000431,0.001058
1236000,0.0324,0.013523,0.002678,0.000431,0.000353
1237000,0.0324,0.013523,0.002678,0.000431,0.000823
1238000,0.0324,0.013523,0.002678,0.000431,0.000353
1239000,0.0324,0.013523,0.002678,0.000431,0.000705
1240000,0.0324,0.013523,0.002678,0.000431,0.000353
1241000,0.0324,0.013523,0.002678,0.000431,0.000353
1242000,0.0324,0.013523,0.002678,0.000431,0.000823
1243000,0.0324,0.013523,0.002678,0.000431,0.000235
1244000,0.0324,0.013523,0.002678,0.000431,0.000940
1245000,0.0324,0.013523,0.002678,0.000431,0.000823
1246000,0.0324,0.013523,0.002678,0.000431,0.000940
1247000,0.0324,0.013523,0.002678,0.000431,0.001175
1248000,0.0324,0.013523,0.002678,0.000431,0.000823
1249000,0.0324,0.013523,0.002678,0.000431,0.000940
1250000,0.0324,0.013523,0.002678,0.000431,0.000823
1251000,0.0324,0.013523,0.002678,0.000431,0.000588
1252000,0.0324,0.013523,0.002678,0.000431,0.000705
1253000,0.0324,0.013523,0.002678,0.000431,0.000470
1254000,0.0324,0.013523,0.002678,0.000431,0.000588
1255000,0.0324,0.013523,0.002678,0.000431,0.000588
1256000,0.0324,0.013523,0.002678,0.000431,0.000470
1257000,0.0324,0.013523,0.002678,0.000431,0.000588
1258000,0.0324,0.013523,0.002678,0.000431,0.000588
1259000,0.0324,0.013523,0.002678,0.000431,0.000235
1260000,0.0324,0.013523,0.002678,0.000431,0.000588
1261000,0.0324,0.013523,0.002678,0.000431,0.000118
1262000,0.0324,0.013523,0.002678,0.000431,0.000000
1263000,0.0324,0.013523,0.002678,0.000431,0.000000
1264000,0.0324,0.013523,0.002678,0.000431,0.000000
1265000,0.0324,0.013523,0.002678,0.000431,0.000000
1266000,0.0324,0.013523,0.002678,0.000431,1.744471
1267000,0.0324,0.013523,0.002678,0.000431,2.385822
1268000,0.0324,0.013523,0.002678,0.000431,0.043368
1269000,0.0324,0.013523,0.002678,0.000431,0.000000
1270000,0.0324,0.013523,0.002678,0.000431,0.000000
1271000,0.0324,0.013523,0.002678,0.000431,0.000000
1272000,0.0324,0.013523,0.002678,0.000431,0.000000
1273000,0.0324,0.013523,0.002678,0.000431,1.448065
1274000,0.0324,0.013523,0.002678,0.000431,2.561762
1275000,0.0324,0.013523,0.002678,0.000431,1.244153
1276000,0.0324,0.013523,0.002678,0.000431,1.829326
1277000,0.0324,0.013523,0.002678,0.000431,2.094822
1278000,0.0324,0.013523,0.002678,0.000431,3.061374
1279000,0.0324,0.013523,0.002678,0.000431,3.978447
1280000,0.0324,0.013523,0.002678,0.000431,4.140283
1281000,0.0324,0.013523,0.002678,0.000431,4.234540
1282000,0.0324,0.013523,0.002678,0.000431,4.049198
1283000,0.0324,0.013523,0.002678,0.000431,4.108550
1284000,0.0324,0.013523,0.002678,0.000431,4.024870
1285000,0.0324,0.013523,0.002678,0.000431,4.053312
1286000,0.0324,0.013523,0.002678,0.000431,4.078698
1287000,0.0324,0.013523,0.002678,0.000431,4.033450
1288000,0.0324,0.013523,0.002678,0.000431,4.063067
1289000,0.0324,0.013523,0.002678,0.000431,4.016408
1290000,0.0324,0.013523,0.002678,0.000431,4.051549
1291000,0.0324,0.013523,0.002678,0.000431,3.985498
1292000,0.0324,0.013523,0.002678,0.000431,4.051196
1293000,0.0324,0.013523,0.002678,0.000431,4.051196
1294000,0.0324,0.013523,0.002678,0.000431,4.040971
1295000,0.0324,0.013523,0.002678,0.000431,4.052959
1296000,0.0324,0.013523,0.002678,0.000431,4.082576
1297000,0.0324,0.013523,0.002678,0.000431,4.028749
1298000,0.0324,0.013523,0.002678,0.000431,4.030747
1299000,0.0324,0.013523,0.002678,0.000431,4.061304
1300000,0.0324,0.013523,0.002678,0.000431,4.059894
1301000,0.0324,0.013523,0.002678,0.000431,4.009121
1302000,0.0324,0.013523,0.002678,0.000431,4.036388
1303000,0.0324,0.013523,0.002678,0.000431,4.085162
1304000,0.0324,0.013523,0.002678,0.000431,4.040736
1305000,0.0324,0.013523,0.002678,0.000431,4.003598
1306000,0.0324,0.013523,0.002678,0.000431,4.052724
1307000,0.0324,0.013523,0.002678,0.000431,4.078463
1308000,0.0324,0.013523,0.002678,0.000431,4.068356
1309000,0.0324,0.013523,0.002678,0.000431,4.066593
1310000,0.0324,0.013523,0.002678,0.000431,4.007476
1311000,0.0324,0.013523,0.002678,0.000431,4.074585
1312000,0.0324,0.013523,0.002678,0.000431,4.075642
1313000,0.0324,0.013523,0.002678,0.000431,4.094094
1314000,0.0324,0.013523,0.002678,0.000431,4.047906
1315000,0.0324,0.013523,0.002678,0.000431,4.035918
1316000,0.0324,0.013523,0.002678,0.000431,4.060716
1317000,0.0324,0.013523,0.002678,0.000431,4.033685
1318000,0.0324,0.013523,0.002678,0.000431,4.065535
1319000,0.0324,0.013523,0.002678,0.000431,4.105612
1320000,0.0324,0.013523,0.002678,0.000431,4.075995
1321000,0.0324,0.013523,0.002678,0.000431,4.053782
1322000,0.0324,0.013523,0.002678,0.000431,4.108550
1323000,0.0324,0.013523,0.002678,0.000431,4.087748
1324000,0.0324,0.013523,0.002678,0.000431,4.068591
1325000,0.0324,0.013523,0.002678,0.000431,4.064007
1326000,0.0324,0.013523,0.002678,0.000431,4.062009
1327000,0.0324,0.013523,0.002678,0.000431,4.014880
1328000,0.0324,0.013523,0.002678,0.000431,4.093742
1329000,0.0324,0.013523,0.002678,0.000431,4.068708
1330000,0.0324,0.013523,0.002678,0.000431,4.060364
1331000,0.0324,0.013523,0.002678,0.000431,4.059188
1332000,0.0324,0.013523,0.002678,0.000431,4.029219
1333000,0.0324,0.013523,0.002678,0.000431,4.058366
1334000,0.0324,0.013523,0.002678,0.000431,4.035565
1335000,0.0324,0.013523,0.002678,0.000431,4.016173
1336000,0.0324,0.013523,0.002678,0.000431,4.110431
1337000,0.0324,0.013523,0.002678,0.000431,4.072939
1338000,0.0324,0.013523,0.002678,0.000431,4.050374
1339000,0.0324,0.013523,0.002678,0.000431,4.024870
1340000,0.0324,0.013523,0.002678,0.000431,4.042734
1341000,0.0324,0.013523,0.002678,0.000431,4.053077
1342000,0.0324,0.013523,0.002678,0.000431,4.074937
1343000,0.0324,0.013523,0.002678,0.000431,4.091039
1344000,0.0324,0.013523,0.002678,0.000431,4.114779
1345000,0.0324,0.013523,0.002678,0.000431,4.041912
1346000,0.0324,0.013523,0.002678,0.000431,4.078581
1347000,0.0324,0.013523,0.002678,0.000431,4.053429
1348000,0.0324,0.013523,0.002678,0.000431,4.078110
1349000,0.0324,0.013523,0.002678,0.000431,4.055898
1350000,0.0324,0.013523,0.002678,0.000431,4.013587
1351000,0.0324,0.013523,0.002678,0.000431,4.115837
1352000,0.0324,0.013523,0.002678,0.000431,4.010649
1353000,0.0324,0.013523,0.002678,0.000431,4.046143
1354000,0.0324,0.013523,0.002678,0.000431,4.154856
1355000,0.0324,0.013523,0.002678,0.000431,4.078228
1356000,0.0324,0.013523,0.002678,0.000431,4.022402
1357000,0.0324,0.013523,0.002678,0.000431,4.063654
1358000,0.0324,0.013523,0.002678,0.000431,4.056133
1359000,0.0324,0.013523,0.002678,0.000431,4.026868
1360000,0.0324,0.013523,0.002678,0.000431,4.039914
1361000,0.0324,0.013523,0.002678,0.000431,4.080343
1362000,0.0324,0.013523,0.002678,0.000431,4.064477
1363000,0.0324,0.013523,0.002678,0.000431,4.022520
1364000,0.0324,0.013523,0.002678,0.000431,4.043087
1365000,0.0324,0.013523,0.002678,0.000431,3.985381
1366000,0.0324,0.013523,0.002678,0.000431,4.004655
1367000,0.0324,0.013523,0.002678,0.000431,3.942483
1368000,0.0324,0.013523,0.002678,0.000431,3.931083
1369000,0.0324,0.013523,0.002678,0.000431,3.850811
1370000,0.0324,0.013523,0.002678,0.000431,3.790166
1371000,0.0324,0.013523,0.002678,0.000431,3.719414
1372000,0.0324,0.013523,0.002678,0.000431,3.619045
1373000,0.0324,0.013523,0.002678,0.000431,3.384106
1374000,0.0324,0.013523,0.002678,0.000431,3.231790
1375000,0.0324,0.013523,0.002678,0.000431,3.117788
1376000,0.0324,0.013523,0.002678,0.000431,2.991327
1377000,0.0324,0.013523,0.002678,0.000431,2.827611
1378000,0.0324,0.013523,0.002678,0.000431,2.702208
1379000,0.0324,0.013523,0.002678,0.000431,2.584445
1380000,0.0324,0.013523,0.002678,0.000431,2.508757
1381000,0.0324,0.013523,0.002678,0.000431,2.364550
1382000,0.0324,0.013523,0.002678,0.000431,2.304375
1383000,0.0324,0.013523,0.002678,0.000431,2.161108
1384000,0.0324,0.013523,0.002678,0.000431,2.135134
1385000,0.0324,0.013523,0.002678,0.000431,2.090004
1386000,0.0324,0.013523,0.002678,0.000431,1.984698
1387000,0.0324,0.013523,0.002678,0.000431,1.955199
1388000,0.0324,0.013523,0.002678,0.000431,1.884682
1389000,0.0324,0.013523,0.002678,0.000431,1.821687
1390000,0.0324,0.013523,0.002678,0.000431,1.787956
1391000,0.0324,0.013523,0.002678,0.000431,1.725079
1392000,0.0324,0.013523,0.002678,0.000431,1.681241
1393000,0.0324,0.013523,0.002678,0.000431,1.650918
1394000,0.0324,0.013523,0.002678,0.000431,1.588863
1395000,0.0324,0.013523,0.002678,0.000431,1.523988
1396000,0.0324,0.013523,0.002678,0.000431,1.480267
1397000,0.0324,0.013523,0.002678,0.000431,1.451826
1398000,0.0324,0.013523,0.002678,0.000431,1.385540
1399000,0.0324,0.013523,0.002678,0.000431,1.358391
1400000,0.0324,0.013523,0.002678,0.000431,1.289872
1401000,0.0324,0.013523,0.002678,0.000431,1.255671
1402000,0.0324,0.013523,0.002678,0.000431,1.243213
1403000,0.0324,0.013523,0.002678,0.000431,1.199493
1404000,0.0324,0.013523,0.002678,0.000431,1.154949
1405000,0.0324,0.013523,0.002678,0.000431,1.107703
1406000,0.0324,0.013523,0.002678,0.000431,1.074560
1407000,0.0324,0.013523,0.002678,0.000431,1.031545
1408000,0.0324,0.013523,0.002678,0.000431,0.992173
1409000,0.0324,0.013523,0.002678,0.000431,0.979245
1410000,0.0324,0.013523,0.002678,0.000431,0.934114
1411000,0.0324,0.013523,0.002678,0.000431,0.899326
1412000,0.0324,0.013523,0.002678,0.000431,0.861247
1413000,0.0324,0.013523,0.002678,0.000431,0.834803
1414000,0.0324,0.013523,0.002678,0.000431,0.811062
1415000,0.0324,0.013523,0.002678,0.000431,0.781327
1416000,0.0324,0.013523,0.002678,0.000431,0.744659
1417000,0.0324,0.013523,0.002678,0.000431,0.725619
1418000,0.0324,0.013523,0.002678,0.000431,0.705052
1419000,0.0324,0.013523,0.002678,0.000431,0.681663
1420000,0.0324,0.013523,0.002678,0.000431,0.644407
1421000,0.0324,0.013523,0.002678,0.000431,0.631009
1422000,0.0324,0.013523,0.002678,0.000431,0.604682
1423000,0.0324,0.013523,0.002678,0.000431,0.580354
1424000,0.0324,0.013523,0.002678,0.000431,0.554733
1425000,0.0324,0.013523,0.002678,0.000431,0.529347
1426000,0.0324,0.013523,0.002678,0.000431,0.499847
1427000,0.0324,0.013523,0.002678,0.000431,0.480573
1428000,0.0324,0.013523,0.002678,0.000431,0.478457
1429000,0.0324,0.013523,0.002678,0.000431,0.457067
1430000,0.0324,0.013523,0.002678,0.000431,0.434149
1431000,0.0324,0.013523,0.002678,0.000431,0.418870
1432000,0.0324,0.013523,0.002678,0.000431,0.397598
1433000,0.0324,0.013523,0.002678,0.000431,0.366453
1434000,0.0324,0.013523,0.002678,0.000431,0.369274
1435000,0.0324,0.013523,0.002678,0.000431,0.359284
1436000,0.0324,0.013523,0.002678,0.000431,0.333310
1437000,0.0324,0.013523,0.002678,0.000431,0.326141
1438000,0.0324,0.013523,0.002678,0.000431,0.306043
1439000,0.0324,0.013523,0.002678,0.000431,0.296641
1440000,0.0324,0.013523,0.002678,0.000431,0.287591
1441000,0.0324,0.013523,0.002678,0.000431,0.276074
1442000,0.0324,0.013523,0.002678,0.000431,0.254919
1443000,0.0324,0.013523,0.002678,0.000431,0.249160
1444000,0.0324,0.013523,0.002678,0.000431,0.235879
1445000,0.0324,0.013523,0.002678,0.000431,0.223539
1446000,0.0324,0.013523,0.002678,0.000431,0.220013
1447000,0.0324,0.013523,0.002678,0.000431,0.205322
1448000,0.0324,0.013523,0.002678,0.000431,0.202501
1449000,0.0324,0.013523,0.002678,0.000431,0.192159
1450000,0.0324,0.013523,0.002678,0.000431,0.185577
1451000,0.0324,0.013523,0.002678,0.000431,0.179936
1452000,0.0324,0.013523,0.002678,0.000431,0.164304
1453000,0.0324,0.013523,0.002678,0.000431,0.160308
1454000,0.0324,0.013523,0.002678,0.000431,0.150436
1455000,0.0324,0.013523,0.002678,0.000431,0.146558
1456000,0.0324,0.013523,0.002678,0.000431,0.138331
1457000,0.0324,0.013523,0.002678,0.000431,0.135157
1458000,0.0324,0.013523,0.002678,0.000431,0.130809
1459000,0.0324,0.013523,0.002678,0.000431,0.124815
1460000,0.0324,0.013523,0.002678,0.000431,0.118703
1461000,0.0324,0.013523,0.002678,0.000431,0.111652
1462000,0.0324,0.013523,0.002678,0.000431,0.111887
1463000,0.0324,0.013523,0.002678,0.000431,0.107656
1464000,0.0324,0.013523,0.002678,0.000431,0.097783
1465000,0.0324,0.013523,0.002678,0.000431,0.095903
1466000,0.0324,0.013523,0.002678,0.000431,0.097078
1467000,0.0324,0.013523,0.002678,0.000431,0.090732
1468000,0.0324,0.013523,0.002678,0.000431,0.089792
1469000,0.0324,0.013523,0.002678,0.000431,0.079802
1470000,0.0324,0.013523,0.002678,0.000431,0.083092
1471000,0.0324,0.013523,0.002678,0.000431,0.080389
1472000,0.0324,0.013523,0.002678,0.000431,0.074630
1473000,0.0324,0.013523,0.002678,0.000431,0.068636
1474000,0.0324,0.013523,0.002678,0.000431,0.068166
1475000,0.0324,0.013523,0.002678,0.000431,0.065698
1476000,0.0324,0.013523,0.002678,0.000431,0.064876
1477000,0.0324,0.013523,0.002678,0.000431,0.062172
1478000,0.0324,0.013523,0.002678,0.000431,0.059352
1479000,0.0324,0.013523,0.002678,0.000431,0.058294
1480000,0.0324,0.013523,0.002678,0.000431,0.056884
1481000,0.0324,0.013523,0.002678,0.000431,0.054063
1482000,0.0324,0.013523,0.002678,0.000431,0.050890
1483000,0.0324,0.013523,0.002678,0.000431,0.047599
1484000,0.0324,0.013523,0.002678,0.000431,0.048774
1485000,0.0324,0.013523,0.002678,0.000431,0.045013
1486000,0.0324,0.013523,0.002678,0.000431,0.045131
1487000,0.0324,0.013523,0.002678,0.000431,0.043015
1488000,0.0324,0.013523,0.002678,0.000431,0.043720
1489000,0.0324,0.013523,0.002678,0.000431,0.041605
1490000,0.0324,0.013523,0.002678,0.000431,0.038079
1491000,0.0324,0.013523,0.002678,0.000431,0.038667
1492000,0.0324,0.013523,0.002678,0.000431,0.037374
1493000,0.0324,0.013523,0.002678,0.000431,0.035376
1494000,0.0324,0.013523,0.002678,0.000431,0.034083
1495000,0.0324,0.013523,0.002678,0.000431,0.034671
1496000,0.0324,0.013523,0.002678,0.000431,0.032320
1497000,0.0324,0.013523,0.002678,0.000431,0.030910
1498000,0.0324,0.013523,0.002678,0.000431,0.029265
1499000,0.0324,0.013523,0.002678,0.000431,0.029147
1500000,0.0324,0.013523,0.002678,0.000431,0.027619
1501000,0.0324,0.013523,0.002678,0.000431,0.027149
1502000,0.0324,0.013523,0.002678,0.000431,0.027149
1503000,0.0324,0.013523,0.002678,0.000431,0.024916
1504000,0.0324,0.013523,0.002678,0.000431,0.025034
1505000,0.0324,0.013523,0.002678,0.000431,0.023623
1506000,0.0324,0.013523,0.002678,0.000431,0.024328
1507000,0.0324,0.013523,0.002678,0.000431,0.023858
1508000,0.0324,0.013523,0.002678,0.000431,0.023623
1509000,0.0324,0.013523,0.002678,0.000431,0.023153
1510000,0.0324,0.013523,0.002678,0.000431,0.020567
1511000,0.0324,0.013523,0.002678,0.000431,0.023153
1512000,0.0324,0.013523,0.002678,0.000431,0.018805
1513000,0.0324,0.013523,0.002678,0.000431,0.021860
1514000,0.0324,0.013523,0.002678,0.000431,0.018569
1515000,0.0324,0.013523,0.002678,0.000431,0.017629
1516000,0.0324,0.013523,0.002678,0.000431,0.018452
1517000,0.0324,0.013523,0.002678,0.000431,0.017982
1518000,0.0324,0.013523,0.002678,0.000431,0.015984
1519000,0.0324,0.013523,0.002678,0.000431,0.016689
1520000,0.0324,0.013523,0.002678,0.000431,0.016807
1521000,0.0324,0.013523,0.002678,0.000431,0.015866
1522000,0.0324,0.013523,0.002678,0.000431,0.016924
1523000,0.0324,0.013523,0.002678,0.000431,0.014103
1524000,0.0324,0.013523,0.002678,0.000431,0.012928
1525000,0.0324,0.013523,0.002678,0.000431,0.013751
1526000,0.0324,0.013523,0.002678,0.000431,0.014103
1527000,0.0324,0.013523,0.002678,0.000431,0.013398
1528000,0.0324,0.013523,0.002678,0.000431,0.012693
1529000,0.0324,0.013523,0.002678,0.000431,0.011753
1530000,0.0324,0.013523,0.002678,0.000431,0.011048
1531000,0.0324,0.013523,0.002678,0.000431,0.010930
1532000,0.0324,0.013523,0.002678,0.000431,0.011518
1533000,0.0324,0.013523,0.002678,0.000431,0.009520
1534000,0.0324,0.013523,0.002678,0.000431,0.011048
1535000,0.0324,0.013523,0.002678,0.000431,0.010695
1536000,0.0324,0.013523,0.002678,0.000431,0.009050
1537000,0.0324,0.013523,0.002678,0.000431,0.010342
1538000,0.0324,0.013523,0.002678,0.000431,0.009167
1539000,0.0324,0.013523,0.002678,0.000431,0.009520
1540000,0.0324,0.013523,0.002678,0.000431,0.008580
1541000,0.0324,0.013523,0.002678,0.000431,0.009872
1542000,0.0324,0.013523,0.002678,0.000431,0.009520
1543000,0.0324,0.013523,0.002678,0.000431,0.009990
1544000,0.0324,0.013523,0.002678,0.000431,0.009402
1545000,0.0324,0.013523,0.002678,0.000431,0.008345
1546000,0.0324,0.013523,0.002678,0.000431,0.008109
1547000,0.0324,0.013523,0.002678,0.000431,0.008462
1548000,0.0324,0.013523,0.002678,0.000431,0.008932
1549000,0.0324,0.013523,0.002678,0.000431,0.007992
1550000,0.0324,0.013523,0.002678,0.000431,0.007052
1551000,0.0324,0.013523,0.002678,0.000431,0.008227
1552000,0.0324,0.013523,0.002678,0.000431,0.007992
1553000,0.0324,0.013523,0.002678,0.000431,0.008227
1554000,0.0324,0.013523,0.002678,0.000431,0.008815
1555000,0.0324,0.013523,0.002678,0.000431,0.007404
1556000,0.0324,0.013523,0.002678,0.000431,0.007639
1557000,0.0324,0.013523,0.002678,0.000431,0.007052
1558000,0.0324,0.013523,0.002678,0.000431,0.007052
1559000,0.0324,0.013523,0.002678,0.000431,0.007052
1560000,0.0324,0.013523,0.002678,0.000431,0.006111
1561000,0.0324,0.013523,0.002678,0.000431,0.005876
1562000,0.0324,0.013523,0.002678,0.000431,0.006582
1563000,0.0324,0.013523,0.002678,0.000431,0.006464
1564000,0.0324,0.013523,0.002678,0.000431,0.005641
1565000,0.0324,0.013523,0.002678,0.000431,0.006347
1566000,0.0324,0.013523,0.002678,0.000431,0.006229
1567000,0.0324,0.013523,0.002678,0.000431,0.005641
1568000,0.0324,0.013523,0.002678,0.000431,0.006699
1569000,0.0324,0.013523,0.002678,0.000431,0.005994
1570000,0.0324,0.013523,0.002678,0.000431,0.006111
1571000,0.0324,0.013523,0.002678,0.000431,0.005994
1572000,0.0324,0.013523,0.002678,0.000431,0.006582
1573000,0.0324,0.013523,0.002678,0.000431,0.005406
1574000,0.0324,0.013523,0.002678,0.000431,0.006582
1575000,0.0324,0.013523,0.002678,0.000431,0.005406
1576000,0.0324,0.013523,0.002678,0.000431,0.005759
1577000,0.0324,0.013523,0.002678,0.000431,0.005759
1578000,0.0324,0.013523,0.002678,0.000431,0.006229
1579000,0.0324,0.013523,0.002678,0.000431,0.004936
1580000,0.0324,0.013523,0.002678,0.000431,0.005641
1581000,0.0324,0.013523,0.002678,0.000431,0.005759
1582000,0.0324,0.013523,0.002678,0.000431,0.005289
1583000,0.0324,0.013523,0.002678,0.000431,0.005406
1584000,0.0324,0.013523,0.002678,0.000431,0.005289
1585000,0.0324,0.013523,0.002678,0.000431,0.004936
1586000,0.0324,0.013523,0.002678,0.000431,0.005054
1587000,0.0324,0.013523,0.002678,0.000431,0.005524
1588000,0.0324,0.013523,0.002678,0.000431,0.005406
1589000,0.0324,0.013523,0.002678,0.000431,0.004819
1590000,0.0324,0.013523,0.002678,0.000431,0.004584
1591000,0.0324,0.013523,0.002678,0.000431,0.004819
1592000,0.0324,0.013523,0.002678,0.000431,0.004231
1593000,0.0324,0.013523,0.002678,0.000431,0.005054
1594000,0.0324,0.013523,0.002678,0.000431,0.004466
1595000,0.0324,0.013523,0.002678,0.000431,0.003761
1596000,0.0324,0.013523,0.002678,0.000431,0.004936
1597000,0.0324,0.013523,0.002678,0.000431,0.004113
1598000,0.0324,0.013523,0.002678,0.000431,0.003761
1599000,0.0324,0.013523,0.002678,0.000431,0.004466
1600000,0.0324,0.013523,0.002678,0.000431,0.003173
1601000,0.0324,0.013523,0.002678,0.000431,0.004231
1602000,0.0324,0.013523,0.002678,0.000431,0.003878
1603000,0.0324,0.013523,0.002678,0.000431,0.004113
1604000,0.0324,0.013523,0.002678,0.000431,0.003526
1605000,0.0324,0.013523,0.002678,0.000431,0.003643
1606000,0.0324,0.013523,0.002678,0.000431,0.003996
1607000,0.0324,0.013523,0.002678,0.000431,0.003526
1608000,0.0324,0.013523,0.002678,0.000431,0.003526
1609000,0.0324,0.013523,0.002678,0.000431,0.003526
1610000,0.0324,0.013523,0.002678,0.000431,0.003761
1611000,0.0324,0.013523,0.002678,0.000431,0.003761
1612000,0.0324,0.013523,0.002678,0.000431,0.004113
1613000,0.0324,0.013523,0.002678,0.000431,0.003643
1614000,0.0324,0.013523,0.002678,0.000431,0.003643
1615000,0.0324,0.013523,0.002678,0.000431,0.004231
1616000,0.0324,0.013523,0.002678,0.000431,0.003878
1617000,0.0324,0.013523,0.002678,0.000431,0.003878
1618000,0.0324,0.013523,0.002678,0.000431,0.003408
1619000,0.0324,0.013523,0.002678,0.000431,0.002938
1620000,0.0324,0.013523,0.002678,0.000431,0.003643
1621000,0.0324,0.013523,0.002678,0.000431,0.003408
1622000,0.0324,0.013523,0.002678,0.000431,0.003291
1623000,0.0324,0.013523,0.002678,0.000431,0.003056
1624000,0.0324,0.013523,0.002678,0.000431,0.003643
1625000,0.0324,0.013523,0.002678,0.000431,0.003643
1626000,0.0324,0.013523,0.002678,0.000431,0.003408
1627000,0.0324,0.013523,0.002678,0.000431,0.003526
1628000,0.0324,0.013523,0.002678,0.000431,0.003526
1629000,0.0324,0.013523,0.002678,0.000431,0.003408
1630000,0.0324,0.013523,0.002678,0.000431,0.003056
1631000,0.0324,0.013523,0.002678,0.000431,0.002938
1632000,0.0324,0.013523,0.002678,0.000431,0.003056
1633000,0.0324,0.013523,0.002678,0.000431,0.003408
1634000,0.0324,0.013523,0.002678,0.000431,0.003408
1635000,0.0324,0.013523,0.002678,0.000431,0.003056
1636000,0.0324,0.013523,0.002678,0.000431,0.002821
1637000,0.0324,0.013523,0.002678,0.000431,0.002821
1638000,0.0324,0.013523,0.002678,0.000431,0.003056
1639000,0.0324,0.013523,0.002678,0.000431,0.003643
1640000,0.0324,0.013523,0.002678,0.000431,0.003056
1641000,0.0324,0.013523,0.002678,0.000431,0.002821
1642000,0.0324,0.013523,0.002678,0.000431,0.003173
1643000,0.0324,0.013523,0.002678,0.000431,0.003408
1644000,0.0324,0.013523,0.002678,0.000431,0.003291
1645000,0.0324,0.013523,0.002678,0.000431,0.002586
1646000,0.0324,0.013523,0.002678,0.000431,0.003056
1647000,0.0324,0.013523,0.002678,0.000431,0.002586
1648000,0.0324,0.013523,0.002678,0.000431,0.003056
1649000,0.0324,0.013523,0.002678,0.000431,0.002821
1650000,0.0324,0.013523,0.002678,0.000431,0.003291
1651000,0.0324,0.013523,0.002678,0.000431,0.002703
1652000,0.0324,0.013523,0.002678,0.000431,0.002703
1653000,0.0324,0.013523,0.002678,0.000431,0.002938
1654000,0.0324,0.013523,0.002678,0.000431,0.002938
1655000,0.0324,0.013523,0.002678,0.000431,0.002821
1656000,0.0324,0.013523,0.002678,0.000431,0.002821
1657000,0.0324,0.013523,0.002678,0.000431,0.002233
1658000,0.0324,0.013523,0.002678,0.000431,0.002938
1659000,0.0324,0.013523,0.002678,0.000431,0.002821
1660000,0.0324,0.013523,0.002678,0.000431,0.002938
1661000,0.0324,0.013523,0.002678,0.000431,0.002586
1662000,0.0324,0.013523,0.002678,0.000431,0.002233
1663000,0.0324,0.013523,0.002678,0.000431,0.003291
1664000,0.0324,0.013523,0.002678,0.000431,0.002586
1665000,0.0324,0.013523,0.002678,0.000431,0.002821
1666000,0.0324,0.013523,0.002678,0.000431,0.002586
1667000,0.0324,0.013523,0.002678,0.000431,0.002821
1668000,0.0324,0.013523,0.002678,0.000431,0.002351
1669000,0.0324,0.013523,0.002678,0.000431,0.002233
1670000,0.0324,0.013523,0.002678,0.000431,0.002468
1671000,0.0324,0.013523,0.002678,0.000431,0.002703
1672000,0.0324,0.013523,0.002678,0.000431,0.002116
1673000,0.0324,0.013523,0.002678,0.000431,0.002586
1674000,0.0324,0.013523,0.002678,0.000431,0.002703
1675000,0.0324,0.013523,0.002678,0.000431,0.002468
1676000,0.0324,0.013523,0.002678,0.000431,0.002821
1677000,0.0324,0.013523,0.002678,0.000431,0.002116
1678000,0.0324,0.013523,0.002678,0.000431,0.002351
1679000,0.0324,0.013523,0.002678,0.000431,0.003408
1680000,0.0324,0.013523,0.002678,0.000431,0.002586
1681000,0.0324,0.013523,0.002678,0.000431,0.002586
1682000,0.0324,0.013523,0.002678,0.000431,0.002821
1683000,0.0324,0.013523,0.002678,0.000431,0.002703
1684000,0.0324,0.013523,0.002678,0.000431,0.002938
1685000,0.0324,0.013523,0.002678,0.000431,0.002351
1686000,0.0324,0.013523,0.002678,0.000431,0.003056
1687000,0.0324,0.013523,0.002678,0.000431,0.003056
1688000,0.0324,0.013523,0.002678,0.000431,0.002586
1689000,0.0324,0.013523,0.002678,0.000431,0.002468
1690000,0.0324,0.013523,0.002678,0.000431,0.002586
1691000,0.0324,0.013523,0.002678,0.000431,0.003056
1692000,0.0324,0.013523,0.002678,0.000431,0.001998
1693000,0.0324,0.013523,0.002678,0.000431,0.002116
1694000,0.0324,0.013523,0.002678,0.000431,0.002468
1695000,0.0324,0.013523,0.002678,0.000431,0.002351
1696000,0.0324,0.013523,0.002678,0.000431,0.002821
1697000,0.0324,0.013523,0.002678,0.000431,0.002233
1698000,0.0324,0.013523,0.002678,0.000431,0.002586
1699000,0.0324,0.013523,0.002678,0.000431,0.002468
1700000,0.0324,0.013523,0.002678,0.000431,0.002351
1701000,0.0324,0.013523,0.002678,0.000431,0.002116
1702000,0.0324,0.013523,0.002678,0.000431,0.002116
1703000,0.0324,0.013523,0.002678,0.000431,0.001763
1704000,0.0324,0.013523,0.002678,0.000431,0.002116
1705000,0.0324,0.013523,0.002678,0.000431,0.002351
1706000,0.0324,0.013523,0.002678,0.000431,0.002116
1707000,0.0324,0.013523,0.002678,0.000431,0.001998
1708000,0.0324,0.013523,0.002678,0.000431,0.002116
1709000,0.0324,0.013523,0.002678,0.000431,0.001528
1710000,0.0324,0.013523,0.002678,0.000431,0.001763
1711000,0.0324,0.013523,0.002678,0.000431,0.002233
1712000,0.0324,0.013523,0.002678,0.000431,0.001645
1713000,0.0324,0.013523,0.002678,0.000431,0.002116
1714000,0.0324,0.013523,0.002678,0.000431,0.002116
1715000,0.0324,0.013523,0.002678,0.000431,0.002233
1716000,0.0324,0.013523,0.002678,0.000431,0.001880
1717000,0.0324,0.013523,0.002678,0.000431,0.002703
1718000,0.0324,0.013523,0.002678,0.000431,0.001880
1719000,0.0324,0.013523,0.002678,0.000431,0.002116
1720000,0.0324,0.013523,0.002678,0.000431,0.001293
1721000,0.0324,0.013523,0.002678,0.000431,0.001410
1722000,0.0324,0.013523,0.002678,0.000431,0.001410
1723000,0.0324,0.013523,0.002678,0.000431,0.001293
1724000,0.0324,0.013523,0.002678,0.000431,0.001410
1725000,0.0324,0.013523,0.002678,0.000431,0.001175
1726000,0.0324,0.013523,0.002678,0.000431,0.001058
1727000,0.0324,0.013523,0.002678,0.000431,0.001528
1728000,0.0324,0.013523,0.002678,0.000431,0.001410
1729000,0.0324,0.013523,0.002678,0.000431,0.001645
1730000,0.0324,0.013523,0.002678,0.000431,0.001410
1731000,0.0324,0.013523,0.002678,0.000431,0.001645
1732000,0.0324,0.013523,0.002678,0.000431,0.001410
1733000,0.0324,0.013523,0.002678,0.000431,0.001410
1734000,0.0324,0.013523,0.002678,0.000431,0.001645
1735000,0.0324,0.013523,0.002678,0.000431,0.001293
1736000,0.0324,0.013523,0.002678,0.000431,0.001293
1737000,0.0324,0.013523,0.002678,0.000431,0.001410
1738000,0.0324,0.013523,0.002678,0.000431,0.001645
1739000,0.0324,0.013523,0.002678,0.000431,0.001528
1740000,0.0324,0.013523,0.002678,0.000431,0.001528
1741000,0.0324,0.013523,0.002678,0.000431,0.001410
1742000,0.0324,0.013523,0.002678,0.000431,0.000940
1743000,0.0324,0.013523,0.002678,0.000431,0.001528
1744000,0.0324,0.013523,0.002678,0.000431,0.001645
1745000,0.0324,0.013523,0.002678,0.000431,0.001645
1746000,0.0324,0.013523,0.002678,0.000431,0.001528
1747000,0.0324,0.013523,0.002678,0.000431,0.001293
1748000,0.0324,0.013523,0.002678,0.000431,0.001645
1749000,0.0324,0.013523,0.002678,0.000431,0.001175
1750000,0.0324,0.013523,0.002678,0.000431,0.001645
1751000,0.0324,0.013523,0.002678,0.000431,0.001293
1752000,0.0324,0.013523,0.002678,0.000431,0.001410
1753000,0.0324,0.013523,0.002678,0.000431,0.001410
1754000,0.0324,0.013523,0.002678,0.000431,0.001410
1755000,0.0324,0.013523,0.002678,0.000431,0.001645
1756000,0.0324,0.013523,0.002678,0.000431,0.001293
1757000,0.0324,0.013523,0.002678,0.000431,0.001410
1758000,0.0324,0.013523,0.002678,0.000431,0.001763
1759000,0.0324,0.013523,0.002678,0.000431,0.001410
1760000,0.0324,0.013523,0.002678,0.000431,0.001528
1761000,0.0324,0.013523,0.002678,0.000431,0.001175
1762000,0.0324,0.013523,0.002678,0.000431,0.001528
1763000,0.0324,0.013523,0.002678,0.000431,0.001175
1764000,0.0324,0.013523,0.002678,0.000431,0.001410
1765000,0.0324,0.013523,0.002678,0.000431,0.001293
1766000,0.0324,0.013523,0.002678,0.000431,0.001410
1767000,0.0324,0.013523,0.002678,0.000431,0.001763
1768000,0.0324,0.013523,0.002678,0.000431,0.001058
1769000,0.0324,0.013523,0.002678,0.000431,0.001645
1770000,0.0324,0.013523,0.002678,0.000431,0.001175
1771000,0.0324,0.013523,0.002678,0.000431,0.001175
1772000,0.0324,0.013523,0.002678,0.000431,0.001528
1773000,0.0324,0.013523,0.002678,0.000431,0.000940
1774000,0.0324,0.013523,0.002678,0.000431,0.001293
1775000,0.0324,0.013523,0.002678,0.000431,0.001293
1776000,0.0324,0.013523,0.002678,0.000431,0.001410
1777000,0.0324,0.013523,0.002678,0.000431,0.001410
1778000,0.0324,0.013523,0.002678,0.000431,0.001175
1779000,0.0324,0.013523,0.002678,0.000431,0.001293
1780000,0.0324,0.013523,0.002678,0.000431,0.001410
1781000,0.0324,0.013523,0.002678,0.000431,0.001763
1782000,0.0324,0.013523,0.002678,0.000431,0.001175
1783000,0.0324,0.013523,0.002678,0.000431,0.001528
1784000,0.0324,0.013523,0.002678,0.000431,0.001293
1785000,0.0324,0.013523,0.002678,0.000431,0.001528
1786000,0.0324,0.013523,0.002678,0.000431,0.001645
1787000,0.0324,0.013523,0.002678,0.000431,0.001293
1788000,0.0324,0.013523,0.002678,0.000431,0.001528
1789000,0.0324,0.013523,0.002678,0.000431,0.001175
1790000,0.0324,0.013523,0.002678,0.000431,0.001645
1791000,0.0324,0.013523,0.002678,0.000431,0.001410
1792000,0.0324,0.013523,0.002678,0.000431,0.001410
1793000,0.0324,0.013523,0.002678,0.000431,0.001645
1794000,0.0324,0.013523,0.002678,0.000431,0.001058
1795000,0.0324,0.013523,0.002678,0.000431,0.001528
1796000,0.0324,0.013523,0.002678,0.000431,0.001410
1797000,0.0324,0.013523,0.002678,0.000431,0.001175
1798000,0.0324,0.013523,0.002678,0.000431,0.001410
1799000,0.0324,0.013523,0.002678,0.000431,0.001293
1800000,0.0324,0.013523,0.002678,0.000431,0.001410
1801000,0.0324,0.013523,0.002678,0.000431,0.001293
1802000,0.0324,0.013523,0.002678,0.000431,0.001645
1803000,0.0324,0.013523,0.002678,0.000431,0.001175
1804000,0.0324,0.013523,0.002678,0.000431,0.001293
1805000,0.0324,0.013523,0.002678,0.000431,0.001410
1806000,0.0324,0.013523,0.002678,0.000431,0.001410
1807000,0.0324,0.013523,0.002678,0.000431,0.001410
1808000,0.0324,0.013523,0.002678,0.000431,0.001528
1809000,0.0324,0.013523,0.002678,0.000431,0.001293
1810000,0.0324,0.013523,0.002678,0.000431,0.001410
1811000,0.0324,0.013523,0.002678,0.000431,0.001058
1812000,0.0324,0.013523,0.002678,0.000431,0.001763
1813000,0.0324,0.013523,0.002678,0.000431,0.001293
1814000,0.0324,0.013523,0.002678,0.000431,0.001528
1815000,0.0324,0.013523,0.002678,0.000431,0.001528
1816000,0.0324,0.013523,0.002678,0.000431,0.001645
1817000,0.0324,0.013523,0.002678,0.000431,0.001293
1818000,0.0324,0.013523,0.002678,0.000431,0.001175
1819000,0.0324,0.013523,0.002678,0.000431,0.001528
1820000,0.0324,0.013523,0.002678,0.000431,0.001175
1821000,0.0324,0.013523,0.002678,0.000431,0.001528
1822000,0.0324,0.013523,0.002678,0.000431,0.001528
1823000,0.0324,0.013523,0.002678,0.000431,0.001293
1824000,0.0324,0.013523,0.002678,0.000431,0.001410
1825000,0.0324,0.013523,0.002678,0.000431,0.001293
1826000,0.0324,0.013523,0.002678,0.000431,0.001410
1827000,0.0324,0.013523,0.002678,0.000431,0.001175
1828000,0.0324,0.013523,0.002678,0.000431,0.001528
1829000,0.0324,0.013523,0.002678,0.000431,0.001645
1830000,0.0324,0.013523,0.002678,0.000431,0.001410
1831000,0.0324,0.013523,0.002678,0.000431,0.001293
1832000,0.0324,0.013523,0.002678,0.000431,0.001293
1833000,0.0324,0.013523,0.002678,0.000431,0.001410
1834000,0.0324,0.013523,0.002678,0.000431,0.001175
1835000,0.0324,0.013523,0.002678,0.000431,0.001175
1836000,0.0324,0.013523,0.002678,0.000431,0.001528
1837000,0.0324,0.013523,0.002678,0.000431,0.001293
1838000,0.0324,0.013523,0.002678,0.000431,0.001293
1839000,0.0324,0.013523,0.002678,0.000431,0.001528
1840000,0.0324,0.013523,0.002678,0.000431,0.001293
1841000,0.0324,0.013523,0.002678,0.000431,0.001528
1842000,0.0324,0.013523,0.002678,0.000431,0.001175
1843000,0.0324,0.013523,0.002678,0.000431,0.001528
1844000,0.0324,0.013523,0.002678,0.000431,0.001058
1845000,0.0324,0.013523,0.002678,0.000431,0.001645
1846000,0.0324,0.013523,0.002678,0.000431,0.001410
1847000,0.0324,0.013523,0.002678,0.000431,0.001410
1848000,0.0324,0.013523,0.002678,0.000431,0.001763
1849000,0.0324,0.013523,0.002678,0.000431,0.001293
1850000,0.0324,0.013523,0.002678,0.000431,0.001763
1851000,0.0324,0.013523,0.002678,0.000431,0.001175
1852000,0.0324,0.013523,0.002678,0.000431,0.001528
1853000,0.0324,0.013523,0.002678,0.000431,0.001293
1854000,0.0324,0.013523,0.002678,0.000431,0.001058
1855000,0.0324,0.013523,0.002678,0.000431,0.001645
1856000,0.0324,0.013523,0.002678,0.000431,0.001293
1857000,0.0324,0.013523,0.002678,0.000431,0.001175
1858000,0.0324,0.013523,0.002678,0.000431,0.001175
1859000,0.0324,0.013523,0.002678,0.000431,0.001410
1860000,0.0324,0.013523,0.002678,0.000431,0.001645
1861000,0.0324,0.013523,0.002678,0.000431,0.000940
1862000,0.0324,0.013523,0.002678,0.000431,0.001293
1863000,0.0324,0.013523,0.002678,0.000431,0.001058
1864000,0.0324,0.013523,0.002678,0.000431,0.001528
1865000,0.0324,0.013523,0.002678,0.000431,0.001410
1866000,0.0324,0.013523,0.002678,0.000431,0.001410
1867000,0.0324,0.013523,0.002678,0.000431,0.001293
1868000,0.0324,0.013523,0.002678,0.000431,0.001293
1869000,0.0324,0.013523,0.002678,0.000431,0.001410
1870000,0.0324,0.013523,0.002678,0.000431,0.000940
1871000,0.0324,0.013523,0.002678,0.000431,0.001410
1872000,0.0324,0.013523,0.002678,0.000431,0.000823
1873000,0.0324,0.013523,0.002678,0.000431,0.001410
1874000,0.0324,0.013523,0.002678,0.000431,0.001058
1875000,0.0324,0.013523,0.002678,0.000431,0.001293
1876000,0.0324,0.013523,0.002678,0.000431,0.001528
1877000,0.0324,0.013523,0.002678,0.000431,0.001410
1878000,0.0324,0.013523,0.002678,0.000431,0.001293
1879000,0.0324,0.013523,0.002678,0.000431,0.001528
1880000,0.0324,0.013523,0.002678,0.000431,0.001058
1881000,0.0324,0.013523,0.002678,0.000431,0.001528
1882000,0.0324,0.013523,0.002678,0.000431,0.001058
1883000,0.0324,0.013523,0.002678,0.000431,0.001645
1884000,0.0324,0.013523,0.002678,0.000431,0.001645
1885000,0.0324,0.013523,0.002678,0.000431,0.001410
1886000,0.0324,0.013523,0.002678,0.000431,0.001175
1887000,0.0324,0.013523,0.002678,0.000431,0.001410
1888000,0.0324,0.013523,0.002678,0.000431,0.001645
1889000,0.0324,0.013523,0.002678,0.000431,0.001528
1890000,0.0324,0.013523,0.002678,0.000431,0.001175
1891000,0.0324,0.013523,0.002678,0.000431,0.001293
1892000,0.0324,0.013523,0.002678,0.000431,0.001410
1893000,0.0324,0.013523,0.002678,0.000431,0.001410
1894000,0.0324,0.013523,0.002678,0.000431,0.001410
1895000,0.0324,0.013523,0.002678,0.000431,0.001293
1896000,0.0324,0.013523,0.002678,0.000431,0.001058
1897000,0.0324,0.013523,0.002678,0.000431,0.001293
1898000,0.0324,0.013523,0.002678,0.000431,0.001293
1899000,0.0324,0.013523,0.002678,0.000431,0.001058
1900000,0.0324,0.013523,0.002678,0.000431,0.001058
1901000,0.0324,0.013523,0.002678,0.000431,0.001058
1902000,0.0324,0.013523,0.002678,0.000431,0.001528
1903000,0.0324,0.013523,0.002678,0.000431,0.001175
1904000,0.0324,0.013523,0.002678,0.000431,0.001410
1905000,0.0324,0.013523,0.002678,0.000431,0.001175
1906000,0.0324,0.013523,0.002678,0.000431,0.001293
1907000,0.0324,0.013523,0.002678,0.000431,0.001058
1908000,0.0324,0.013523,0.002678,0.000431,0.001410
1909000,0.0324,0.013523,0.002678,0.000431,0.001410
1910000,0.0324,0.013523,0.002678,0.000431,0.000940
1911000,0.0324,0.013523,0.002678,0.000431,0.001763
1912000,0.0324,0.013523,0.002678,0.000431,0.001058
1913000,0.0324,0.013523,0.002678,0.000431,0.001175
1914000,0.0324,0.013523,0.002678,0.000431,0.001528
1915000,0.0324,0.013523,0.002678,0.000431,0.001293
1916000,0.0324,0.013523,0.002678,0.000431,0.001175
1917000,0.0324,0.013523,0.002678,0.000431,0.001410
1918000,0.0324,0.013523,0.002678,0.000431,0.001175
1919000,0.0324,0.013523,0.002678,0.000431,0.001293
1920000,0.0324,0.013523,0.002678,0.000431,0.001175
1921000,0.0324,0.013523,0.002678,0.000431,0.001410
1922000,0.0324,0.013523,0.002678,0.000431,0.001293
1923000,0.0324,0.013523,0.002678,0.000431,0.001410
1924000,0.0324,0.013523,0.002678,0.000431,0.001528
1925000,0.0324,0.013523,0.002678,0.000431,0.000940
1926000,0.0324,0.013523,0.002678,0.000431,0.001645
1927000,0.0324,0.013523,0.002678,0.000431,0.001410
1928000,0.0324,0.013523,0.002678,0.000431,0.001645
1929000,0.0324,0.013523,0.002678,0.000431,0.001175
1930000,0.0324,0.013523,0.002678,0.000431,0.001293
1931000,0.0324,0.013523,0.002678,0.000431,0.001410
1932000,0.0324,0.013523,0.002678,0.000431,0.001528
1933000,0.0324,0.013523,0.002678,0.000431,0.001058
1934000,0.0324,0.013523,0.002678,0.000431,0.001058
1935000,0.0324,0.013523,0.002678,0.000431,0.001763
1936000,0.0324,0.013523,0.002678,0.000431,0.001410
1937000,0.0324,0.013523,0.002678,0.000431,0.001058
1938000,0.0324,0.013523,0.002678,0.000431,0.001528
1939000,0.0324,0.013523,0.002678,0.000431,0.001175
1940000,0.0324,0.013523,0.002678,0.000431,0.001763
1941000,0.0324,0.013523,0.002678,0.000431,0.001293
1942000,0.0324,0.013523,0.002678,0.000431,0.001410
1943000,0.0324,0.013523,0.002678,0.000431,0.001410
1944000,0.0324,0.013523,0.002678,0.000431,0.001293
1945000,0.0324,0.013523,0.002678,0.000431,0.001528
1946000,0.0324,0.013523,0.002678,0.000431,0.001410
1947000,0.0324,0.013523,0.002678,0.000431,0.001528
1948000,0.0324,0.013523,0.002678,0.000431,0.001175
1949000,0.0324,0.013523,0.002678,0.000431,0.001175
1950000,0.0324,0.013523,0.002678,0.000431,0.001645
1951000,0.0324,0.013523,0.002678,0.000431,0.001175
1952000,0.0324,0.013523,0.002678,0.000431,0.001293
1953000,0.0324,0.013523,0.002678,0.000431,0.001058
1954000,0.0324,0.013523,0.002678,0.000431,0.001175
1955000,0.0324,0.013523,0.002678,0.000431,0.001645
1956000,0.0324,0.013523,0.002678,0.000431,0.001058
1957000,0.0324,0.013523,0.002678,0.000431,0.001175
1958000,0.0324,0.013523,0.002678,0.000431,0.001410
1959000,0.0324,0.013523,0.002678,0.000431,0.001645
1960000,0.0324,0.013523,0.002678,0.000431,0.001528
1961000,0.0324,0.013523,0.002678,0.000431,0.001175
1962000,0.0324,0.013523,0.002678,0.000431,0.001175
1963000,0.0324,0.013523,0.002678,0.000431,0.000940
1964000,0.0324,0.013523,0.002678,0.000431,0.001528
1965000,0.0324,0.013523,0.002678,0.000431,0.001410
1966000,0.0324,0.013523,0.002678,0.000431,0.001175
1967000,0.0324,0.013523,0.002678,0.000431,0.001528
1968000,0.0324,0.013523,0.002678,0.000431,0.001058
1969000,0.0324,0.013523,0.002678,0.000431,0.001645
1970000,0.0324,0.013523,0.002678,0.000431,0.001058
1971000,0.0324,0.013523,0.002678,0.000431,0.001528
1972000,0.0324,0.013523,0.002678,0.000431,0.001410
1973000,0.0324,0.013523,0.002678,0.000431,0.001528
1974000,0.0324,0.013523,0.002678,0.000431,0.001410
1975000,0.0324,0.013523,0.002678,0.000431,0.001410
1976000,0.0324,0.013523,0.002678,0.000431,0.001763
1977000,0.0324,0.013523,0.002678,0.000431,0.000940
1978000,0.0324,0.013523,0.002678,0.000431,0.001293
1979000,0.0324,0.013523,0.002678,0.000431,0.000823
1980000,0.0324,0.013523,0.002678,0.000431,0.000940
1981000,0.0324,0.013523,0.002678,0.000431,0.001645
1982000,0.0324,0.013523,0.002678,0.000431,0.000705
1983000,0.0324,0.013523,0.002678,0.000431,0.001410
1984000,0.0324,0.013523,0.002678,0.000431,0.001175
1985000,0.0324,0.013523,0.002678,0.000431,0.001175
1986000,0.0324,0.013523,0.002678,0.000431,0.001763
1987000,0.0324,0.013523,0.002678,0.000431,0.001058
1988000,0.0324,0.013523,0.002678,0.000431,0.001175
1989000,0.0324,0.013523,0.002678,0.000431,0.001058
1990000,0.0324,0.013523,0.002678,0.000431,0.001410
1991000,0.0324,0.013523,0.002678,0.000431,0.001410
1992000,0.0324,0.013523,0.002678,0.000431,0.001175
1993000,0.0324,0.013523,0.002678,0.000431,0.001293
1994000,0.0324,0.013523,0.002678,0.000431,0.001058
1995000,0.0324,0.013523,0.002678,0.000431,0.001410
1996000,0.0324,0.013523,0.002678,0.000431,0.001058
1997000,0.0324,0.013523,0.002678,0.000431,0.001175
1998000,0.0324,0.013523,0.002678,0.000431,0.001528
1999000,0.0324,0.013523,0.002678,0.000431,0.001410
