Cycle,Area(mm^2),PeakDynamic(W),SubthresholdLeakage(W),GateLeakage(W),RunTimeDynamic(W)
3000000,0.0324,0.013523,0.002678,0.000431,0.652399
3001000,0.0324,0.013523,0.002678,0.000431,0.572832
3002000,0.0324,0.013523,0.002678,0.000431,0.529817
3003000,0.0324,0.013523,0.002678,0.000431,0.516654
3004000,0.0324,0.013523,0.002678,0.000431,0.515831
3005000,0.0324,0.013523,0.002678,0.000431,0.629951
3006000,0.0324,0.013523,0.002678,0.000431,0.589991
3007000,0.0324,0.013523,0.002678,0.000431,0.646405
3008000,0.0324,0.013523,0.002678,0.000431,0.594810
3009000,0.0324,0.013523,0.002678,0.000431,0.634065
3010000,0.0324,0.013523,0.002678,0.000431,0.608208
3011000,0.0324,0.013523,0.002678,0.000431,0.571422
3012000,0.0324,0.013523,0.002678,0.000431,0.537574
3013000,0.0324,0.013523,0.002678,0.000431,0.607503
3014000,0.0324,0.013523,0.002678,0.000431,0.633829
3015000,0.0324,0.013523,0.002678,0.000431,0.783325
3016000,0.0324,0.013523,0.002678,0.000431,0.769339
3017000,0.0324,0.013523,0.002678,0.000431,0.769575
3018000,0.0324,0.013523,0.002678,0.000431,0.888396
3019000,0.0324,0.013523,0.002678,0.000431,0.819877
3020000,0.0324,0.013523,0.002678,0.000431,0.753943
3021000,0.0324,0.013523,0.002678,0.000431,0.810944
3022000,0.0324,0.013523,0.002678,0.000431,0.797664
3023000,0.0324,0.013523,0.002678,0.000431,0.699058
3024000,0.0324,0.013523,0.002678,0.000431,0.683426
3025000,0.0324,0.013523,0.002678,0.000431,0.691066
3026000,0.0324,0.013523,0.002678,0.000431,0.637708
3027000,0.0324,0.013523,0.002678,0.000431,0.640529
3028000,0.0324,0.013523,0.002678,0.000431,0.587523
3029000,0.0324,0.013523,0.002678,0.000431,0.543685
3030000,0.0324,0.013523,0.002678,0.000431,0.491973
3031000,0.0324,0.013523,0.002678,0.000431,0.465647
3032000,0.0324,0.013523,0.002678,0.000431,0.432974
3033000,0.0324,0.013523,0.002678,0.000431,0.443904
3034000,0.0324,0.013523,0.002678,0.000431,0.453424
3035000,0.0324,0.013523,0.002678,0.000431,0.403827
3036000,0.0324,0.013523,0.002678,0.000431,0.441318
3037000,0.0324,0.013523,0.002678,0.000431,0.446137
3038000,0.0324,0.013523,0.002678,0.000431,0.486684
3039000,0.0324,0.013523,0.002678,0.000431,0.586466
3040000,0.0324,0.013523,0.002678,0.000431,0.498319
3041000,0.0324,0.013523,0.002678,0.000431,0.513951
3042000,0.0324,0.013523,0.002678,0.000431,0.654750
3043000,0.0324,0.013523,0.002678,0.000431,0.569894
3044000,0.0324,0.013523,0.002678,0.000431,0.524411
3045000,0.0324,0.013523,0.002678,0.000431,0.652164
3046000,0.0324,0.013523,0.002678,0.000431,0.680723
3047000,0.0324,0.013523,0.002678,0.000431,0.608796
3048000,0.0324,0.013523,0.002678,0.000431,0.683779
3049000,0.0324,0.013523,0.002678,0.000431,0.688950
3050000,0.0324,0.013523,0.002678,0.000431,0.739017
3051000,0.0324,0.013523,0.002678,0.000431,0.761700
3052000,0.0324,0.013523,0.002678,0.000431,0.743366
3053000,0.0324,0.013523,0.002678,0.000431,0.755706
3054000,0.0324,0.013523,0.002678,0.000431,0.900736
3055000,0.0324,0.013523,0.002678,0.000431,0.867476
3056000,0.0324,0.013523,0.002678,0.000431,0.770515
3057000,0.0324,0.013523,0.002678,0.000431,0.733493
3058000,0.0324,0.013523,0.002678,0.000431,0.777331
3059000,0.0324,0.013523,0.002678,0.000431,0.727264
3060000,0.0324,0.013523,0.002678,0.000431,0.649226
3061000,0.0324,0.013523,0.002678,0.000431,0.593047
3062000,0.0324,0.013523,0.002678,0.000431,0.574125
3063000,0.0324,0.013523,0.002678,0.000431,0.658158
3064000,0.0324,0.013523,0.002678,0.000431,0.534518
3065000,0.0324,0.013523,0.002678,0.000431,0.499142
3066000,0.0324,0.013523,0.002678,0.000431,0.528759
3067000,0.0324,0.013523,0.002678,0.000431,0.460123
3068000,0.0324,0.013523,0.002678,0.000431,0.497497
3069000,0.0324,0.013523,0.002678,0.000431,0.701526
3070000,0.0324,0.013523,0.002678,0.000431,0.606328
3071000,0.0324,0.013523,0.002678,0.000431,0.583998
3072000,0.0324,0.013523,0.002678,0.000431,0.654514
3073000,0.0324,0.013523,0.002678,0.000431,0.627953
3074000,0.0324,0.013523,0.002678,0.000431,0.770280
3075000,0.0324,0.013523,0.002678,0.000431,0.850904
3076000,0.0324,0.013523,0.002678,0.000431,0.770867
3077000,0.0324,0.013523,0.002678,0.000431,0.845733
3078000,0.0324,0.013523,0.002678,0.000431,0.883342
3079000,0.0324,0.013523,0.002678,0.000431,0.842324
3080000,0.0324,0.013523,0.002678,0.000431,0.827281
3081000,0.0324,0.013523,0.002678,0.000431,0.813295
3082000,0.0324,0.013523,0.002678,0.000431,0.847613
3083000,0.0324,0.013523,0.002678,0.000431,0.807654
3084000,0.0324,0.013523,0.002678,0.000431,0.810592
3085000,0.0324,0.013523,0.002678,0.000431,0.779212
3086000,0.0324,0.013523,0.002678,0.000431,0.726794
3087000,0.0324,0.013523,0.002678,0.000431,0.673436
3088000,0.0324,0.013523,0.002678,0.000431,0.710810
3089000,0.0324,0.013523,0.002678,0.000431,0.775216
3090000,0.0324,0.013523,0.002678,0.000431,0.731730
3091000,0.0324,0.013523,0.002678,0.000431,0.638178
3092000,0.0324,0.013523,0.002678,0.000431,0.639471
3093000,0.0324,0.013523,0.002678,0.000431,0.649461
3094000,0.0324,0.013523,0.002678,0.000431,0.669323
3095000,0.0324,0.013523,0.002678,0.000431,0.549914
3096000,0.0324,0.013523,0.002678,0.000431,0.606328
3097000,0.0324,0.013523,0.002678,0.000431,0.735961
3098000,0.0324,0.013523,0.002678,0.000431,0.689185
3099000,0.0324,0.013523,0.002678,0.000431,0.600099
3100000,0.0324,0.013523,0.002678,0.000431,0.612909
3101000,0.0324,0.013523,0.002678,0.000431,0.630656
3102000,0.0324,0.013523,0.002678,0.000431,0.633947
3103000,0.0324,0.013523,0.002678,0.000431,0.582117
3104000,0.0324,0.013523,0.002678,0.000431,0.535341
3105000,0.0324,0.013523,0.002678,0.000431,0.541100
3106000,0.0324,0.013523,0.002678,0.000431,0.513011
3107000,0.0324,0.013523,0.002678,0.000431,0.550384
3108000,0.0324,0.013523,0.002678,0.000431,0.529464
3109000,0.0324,0.013523,0.002678,0.000431,0.443199
3110000,0.0324,0.013523,0.002678,0.000431,0.454481
3111000,0.0324,0.013523,0.002678,0.000431,0.481160
3112000,0.0324,0.013523,0.002678,0.000431,0.466469
3113000,0.0324,0.013523,0.002678,0.000431,0.500317
3114000,0.0324,0.013523,0.002678,0.000431,0.459300
3115000,0.0324,0.013523,0.002678,0.000431,0.487742
3116000,0.0324,0.013523,0.002678,0.000431,0.437205
3117000,0.0324,0.013523,0.002678,0.000431,0.455657
3118000,0.0324,0.013523,0.002678,0.000431,0.530640
3119000,0.0324,0.013523,0.002678,0.000431,0.598218
3120000,0.0324,0.013523,0.002678,0.000431,0.756646
3121000,0.0324,0.013523,0.002678,0.000431,0.740780
3122000,0.0324,0.013523,0.002678,0.000431,0.757939
3123000,0.0324,0.013523,0.002678,0.000431,0.864890
3124000,0.0324,0.013523,0.002678,0.000431,0.878171
3125000,0.0324,0.013523,0.002678,0.000431,0.909316
3126000,0.0324,0.013523,0.002678,0.000431,0.929295
3127000,0.0324,0.013523,0.002678,0.000431,0.935289
3128000,0.0324,0.013523,0.002678,0.000431,0.843970
3129000,0.0324,0.013523,0.002678,0.000431,0.812707
3130000,0.0324,0.013523,0.002678,0.000431,0.769927
3131000,0.0324,0.013523,0.002678,0.000431,0.747949
3132000,0.0324,0.013523,0.002678,0.000431,0.660038
3133000,0.0324,0.013523,0.002678,0.000431,0.687305
3134000,0.0324,0.013523,0.002678,0.000431,0.666855
3135000,0.0324,0.013523,0.002678,0.000431,0.678960
3136000,0.0324,0.013523,0.002678,0.000431,0.685659
3137000,0.0324,0.013523,0.002678,0.000431,0.623605
3138000,0.0324,0.013523,0.002678,0.000431,0.682839
3139000,0.0324,0.013523,0.002678,0.000431,0.786734
3140000,0.0324,0.013523,0.002678,0.000431,0.696119
3141000,0.0324,0.013523,0.002678,0.000431,0.651811
3142000,0.0324,0.013523,0.002678,0.000431,0.612557
3143000,0.0324,0.013523,0.002678,0.000431,0.619844
3144000,0.0324,0.013523,0.002678,0.000431,0.594928
3145000,0.0324,0.013523,0.002678,0.000431,0.575536
3146000,0.0324,0.013523,0.002678,0.000431,0.478457
3147000,0.0324,0.013523,0.002678,0.000431,0.515479
3148000,0.0324,0.013523,0.002678,0.000431,0.517006
3149000,0.0324,0.013523,0.002678,0.000431,0.462591
3150000,0.0324,0.013523,0.002678,0.000431,0.525233
3151000,0.0324,0.013523,0.002678,0.000431,0.549562
3152000,0.0324,0.013523,0.002678,0.000431,0.538279
3153000,0.0324,0.013523,0.002678,0.000431,0.541452
3154000,0.0324,0.013523,0.002678,0.000431,0.583880
3155000,0.0324,0.013523,0.002678,0.000431,0.645112
3156000,0.0324,0.013523,0.002678,0.000431,0.627483
3157000,0.0324,0.013523,0.002678,0.000431,0.547681
3158000,0.0324,0.013523,0.002678,0.000431,0.531110
3159000,0.0324,0.013523,0.002678,0.000431,0.518652
3160000,0.0324,0.013523,0.002678,0.000431,0.452836
3161000,0.0324,0.013523,0.002678,0.000431,0.463179
3162000,0.0324,0.013523,0.002678,0.000431,0.547329
3163000,0.0324,0.013523,0.002678,0.000431,0.478222
3164000,0.0324,0.013523,0.002678,0.000431,0.436500
3165000,0.0324,0.013523,0.002678,0.000431,0.498437
3166000,0.0324,0.013523,0.002678,0.000431,0.446019
3167000,0.0324,0.013523,0.002678,0.000431,0.477635
3168000,0.0324,0.013523,0.002678,0.000431,0.536164
3169000,0.0324,0.013523,0.002678,0.000431,0.703406
3170000,0.0324,0.013523,0.002678,0.000431,0.761230
3171000,0.0324,0.013523,0.002678,0.000431,0.627365
3172000,0.0324,0.013523,0.002678,0.000431,0.736197
3173000,0.0324,0.013523,0.002678,0.000431,0.822345
3174000,0.0324,0.013523,0.002678,0.000431,0.804833
3175000,0.0324,0.013523,0.002678,0.000431,0.824578
3176000,0.0324,0.013523,0.002678,0.000431,0.823755
3177000,0.0324,0.013523,0.002678,0.000431,0.762053
3178000,0.0324,0.013523,0.002678,0.000431,0.876408
3179000,0.0324,0.013523,0.002678,0.000431,0.840914
3180000,0.0324,0.013523,0.002678,0.000431,0.808946
3181000,0.0324,0.013523,0.002678,0.000431,0.793903
3182000,0.0324,0.013523,0.002678,0.000431,0.837506
3183000,0.0324,0.013523,0.002678,0.000431,0.845380
3184000,0.0324,0.013523,0.002678,0.000431,0.793315
3185000,0.0324,0.013523,0.002678,0.000431,0.746774
3186000,0.0324,0.013523,0.002678,0.000431,0.724561
3187000,0.0324,0.013523,0.002678,0.000431,0.746069
3188000,0.0324,0.013523,0.002678,0.000431,0.683309
3189000,0.0324,0.013523,0.002678,0.000431,0.699175
3190000,0.0324,0.013523,0.002678,0.000431,0.764638
3191000,0.0324,0.013523,0.002678,0.000431,0.674377
3192000,0.0324,0.013523,0.002678,0.000431,0.677197
3193000,0.0324,0.013523,0.002678,0.000431,0.668853
3194000,0.0324,0.013523,0.002678,0.000431,0.606328
3195000,0.0324,0.013523,0.002678,0.000431,0.563665
3196000,0.0324,0.013523,0.002678,0.000431,0.566368
3197000,0.0324,0.013523,0.002678,0.000431,0.565898
3198000,0.0324,0.013523,0.002678,0.000431,0.638883
3199000,0.0324,0.013523,0.002678,0.000431,0.577181
3200000,0.0324,0.013523,0.002678,0.000431,0.663447
3201000,0.0324,0.013523,0.002678,0.000431,0.582470
3202000,0.0324,0.013523,0.002678,0.000431,0.717980
3203000,0.0324,0.013523,0.002678,0.000431,0.717980
3204000,0.0324,0.013523,0.002678,0.000431,0.632184
3205000,0.0324,0.013523,0.002678,0.000431,0.738430
3206000,0.0324,0.013523,0.002678,0.000431,0.829514
3207000,0.0324,0.013523,0.002678,0.000431,0.832452
3208000,0.0324,0.013523,0.002678,0.000431,0.731848
3209000,0.0324,0.013523,0.002678,0.000431,0.747244
3210000,0.0324,0.013523,0.002678,0.000431,0.782738
3211000,0.0324,0.013523,0.002678,0.000431,0.731378
3212000,0.0324,0.013523,0.002678,0.000431,0.709165
3213000,0.0324,0.013523,0.002678,0.000431,0.693886
3214000,0.0324,0.013523,0.002678,0.000431,0.771220
3215000,0.0324,0.013523,0.002678,0.000431,0.644877
3216000,0.0324,0.013523,0.002678,0.000431,0.585055
3217000,0.0324,0.013523,0.002678,0.000431,0.578004
3218000,0.0324,0.013523,0.002678,0.000431,0.623017
3219000,0.0324,0.013523,0.002678,0.000431,0.586936
3220000,0.0324,0.013523,0.002678,0.000431,0.483041
3221000,0.0324,0.013523,0.002678,0.000431,0.621136
3222000,0.0324,0.013523,0.002678,0.000431,0.601979
3223000,0.0324,0.013523,0.002678,0.000431,0.519710
3224000,0.0324,0.013523,0.002678,0.000431,0.545683
3225000,0.0324,0.013523,0.002678,0.000431,0.512893
3226000,0.0324,0.013523,0.002678,0.000431,0.538162
3227000,0.0324,0.013523,0.002678,0.000431,0.449428
3228000,0.0324,0.013523,0.002678,0.000431,0.407235
3229000,0.0324,0.013523,0.002678,0.000431,0.392897
3230000,0.0324,0.013523,0.002678,0.000431,0.379969
3231000,0.0324,0.013523,0.002678,0.000431,0.401711
3232000,0.0324,0.013523,0.002678,0.000431,0.355288
3233000,0.0324,0.013523,0.002678,0.000431,0.491150
3234000,0.0324,0.013523,0.002678,0.000431,0.555791
3235000,0.0324,0.013523,0.002678,0.000431,0.739135
3236000,0.0324,0.013523,0.002678,0.000431,0.628071
3237000,0.0324,0.013523,0.002678,0.000431,0.680958
3238000,0.0324,0.013523,0.002678,0.000431,0.834098
3239000,0.0324,0.013523,0.002678,0.000431,0.876995
3240000,0.0324,0.013523,0.002678,0.000431,0.823990
3241000,0.0324,0.013523,0.002678,0.000431,0.785558
3242000,0.0324,0.013523,0.002678,0.000431,0.833745
3243000,0.0324,0.013523,0.002678,0.000431,0.838681
3244000,0.0324,0.013523,0.002678,0.000431,0.941166
3245000,0.0324,0.013523,0.002678,0.000431,0.965494
3246000,0.0324,0.013523,0.002678,0.000431,0.836095
3247000,0.0324,0.013523,0.002678,0.000431,0.802482
3248000,0.0324,0.013523,0.002678,0.000431,0.844440
3249000,0.0324,0.013523,0.002678,0.000431,0.809534
3250000,0.0324,0.013523,0.002678,0.000431,0.821169
3251000,0.0324,0.013523,0.002678,0.000431,0.836918
3252000,0.0324,0.013523,0.002678,0.000431,0.910608
3253000,0.0324,0.013523,0.002678,0.000431,0.779447
3254000,0.0324,0.013523,0.002678,0.000431,0.744424
3255000,0.0324,0.013523,0.002678,0.000431,0.769222
3256000,0.0324,0.013523,0.002678,0.000431,0.714454
3257000,0.0324,0.013523,0.002678,0.000431,0.683779
3258000,0.0324,0.013523,0.002678,0.000431,0.750182
3259000,0.0324,0.013523,0.002678,0.000431,0.758409
3260000,0.0324,0.013523,0.002678,0.000431,0.673436
3261000,0.0324,0.013523,0.002678,0.000431,0.655925
3262000,0.0324,0.013523,0.002678,0.000431,0.750770
3263000,0.0324,0.013523,0.002678,0.000431,0.724326
3264000,0.0324,0.013523,0.002678,0.000431,0.679783
3265000,0.0324,0.013523,0.002678,0.000431,0.653574
3266000,0.0324,0.013523,0.002678,0.000431,0.776861
3267000,0.0324,0.013523,0.002678,0.000431,0.855605
3268000,0.0324,0.013523,0.002678,0.000431,0.736197
3269000,0.0324,0.013523,0.002678,0.000431,0.786381
3270000,0.0324,0.013523,0.002678,0.000431,0.801542
3271000,0.0324,0.013523,0.002678,0.000431,0.750417
3272000,0.0324,0.013523,0.002678,0.000431,0.703759
3273000,0.0324,0.013523,0.002678,0.000431,0.676962
3274000,0.0324,0.013523,0.002678,0.000431,0.664152
3275000,0.0324,0.013523,0.002678,0.000431,0.654397
3276000,0.0324,0.013523,0.002678,0.000431,0.630539
3277000,0.0324,0.013523,0.002678,0.000431,0.566368
3278000,0.0324,0.013523,0.002678,0.000431,0.530875
3279000,0.0324,0.013523,0.002678,0.000431,0.580824
3280000,0.0324,0.013523,0.002678,0.000431,0.497027
3281000,0.0324,0.013523,0.002678,0.000431,0.525704
3282000,0.0324,0.013523,0.002678,0.000431,0.684954
3283000,0.0324,0.013523,0.002678,0.000431,0.618081
3284000,0.0324,0.013523,0.002678,0.000431,0.633594
3285000,0.0324,0.013523,0.002678,0.000431,0.835978
3286000,0.0324,0.013523,0.002678,0.000431,0.808594
3287000,0.0324,0.013523,0.002678,0.000431,0.786734
3288000,0.0324,0.013523,0.002678,0.000431,0.767694
3289000,0.0324,0.013523,0.002678,0.000431,0.741015
3290000,0.0324,0.013523,0.002678,0.000431,0.812120
3291000,0.0324,0.013523,0.002678,0.000431,0.828104
3292000,0.0324,0.013523,0.002678,0.000431,0.760055
3293000,0.0324,0.013523,0.002678,0.000431,0.753473
3294000,0.0324,0.013523,0.002678,0.000431,0.840444
3295000,0.0324,0.013523,0.002678,0.000431,0.880639
3296000,0.0324,0.013523,0.002678,0.000431,0.799779
3297000,0.0324,0.013523,0.002678,0.000431,0.755941
3298000,0.0324,0.013523,0.002678,0.000431,0.721506
3299000,0.0324,0.013523,0.002678,0.000431,0.682839
3300000,0.0324,0.013523,0.002678,0.000431,0.586348
3301000,0.0324,0.013523,0.002678,0.000431,0.554968
3302000,0.0324,0.013523,0.002678,0.000431,0.552030
3303000,0.0324,0.013523,0.002678,0.000431,0.598454
3304000,0.0324,0.013523,0.002678,0.000431,0.541100
3305000,0.0324,0.013523,0.002678,0.000431,0.527231
3306000,0.0324,0.013523,0.002678,0.000431,0.492326
3307000,0.0324,0.013523,0.002678,0.000431,0.499260
3308000,0.0324,0.013523,0.002678,0.000431,0.513951
3309000,0.0324,0.013523,0.002678,0.000431,0.538749
3310000,0.0324,0.013523,0.002678,0.000431,0.535811
3311000,0.0324,0.013523,0.002678,0.000431,0.462944
3312000,0.0324,0.013523,0.002678,0.000431,0.492561
3313000,0.0324,0.013523,0.002678,0.000431,0.483158
3314000,0.0324,0.013523,0.002678,0.000431,0.515008
3315000,0.0324,0.013523,0.002678,0.000431,0.501023
3316000,0.0324,0.013523,0.002678,0.000431,0.507017
3317000,0.0324,0.013523,0.002678,0.000431,0.554968
3318000,0.0324,0.013523,0.002678,0.000431,0.466352
3319000,0.0324,0.013523,0.002678,0.000431,0.466822
3320000,0.0324,0.013523,0.002678,0.000431,0.457890
3321000,0.0324,0.013523,0.002678,0.000431,0.484099
3322000,0.0324,0.013523,0.002678,0.000431,0.416285
3323000,0.0324,0.013523,0.002678,0.000431,0.410879
3324000,0.0324,0.013523,0.002678,0.000431,0.493618
3325000,0.0324,0.013523,0.002678,0.000431,0.604682
3326000,0.0324,0.013523,0.002678,0.000431,0.600804
3327000,0.0324,0.013523,0.002678,0.000431,0.595280
3328000,0.0324,0.013523,0.002678,0.000431,0.558024
3329000,0.0324,0.013523,0.002678,0.000431,0.580824
3330000,0.0324,0.013523,0.002678,0.000431,0.530757
3331000,0.0324,0.013523,0.002678,0.000431,0.496439
3332000,0.0324,0.013523,0.002678,0.000431,0.512658
3333000,0.0324,0.013523,0.002678,0.000431,0.541922
3334000,0.0324,0.013523,0.002678,0.000431,0.552147
3335000,0.0324,0.013523,0.002678,0.000431,0.620079
3336000,0.0324,0.013523,0.002678,0.000431,0.676022
3337000,0.0324,0.013523,0.002678,0.000431,0.622782
3338000,0.0324,0.013523,0.002678,0.000431,0.622664
3339000,0.0324,0.013523,0.002678,0.000431,0.646170
3340000,0.0324,0.013523,0.002678,0.000431,0.813295
3341000,0.0324,0.013523,0.002678,0.000431,0.729615
3342000,0.0324,0.013523,0.002678,0.000431,0.717039
3343000,0.0324,0.013523,0.002678,0.000431,0.774158
3344000,0.0324,0.013523,0.002678,0.000431,0.806243
3345000,0.0324,0.013523,0.002678,0.000431,0.731143
3346000,0.0324,0.013523,0.002678,0.000431,0.671791
3347000,0.0324,0.013523,0.002678,0.000431,0.676140
3348000,0.0324,0.013523,0.002678,0.000431,0.640529
3349000,0.0324,0.013523,0.002678,0.000431,0.576711
3350000,0.0324,0.013523,0.002678,0.000431,0.522060
3351000,0.0324,0.013523,0.002678,0.000431,0.487037
3352000,0.0324,0.013523,0.002678,0.000431,0.524763
3353000,0.0324,0.013523,0.002678,0.000431,0.607503
3354000,0.0324,0.013523,0.002678,0.000431,0.580237
3355000,0.0324,0.013523,0.002678,0.000431,0.581529
3356000,0.0324,0.013523,0.002678,0.000431,0.597278
3357000,0.0324,0.013523,0.002678,0.000431,0.558729
3358000,0.0324,0.013523,0.002678,0.000431,0.599511
3359000,0.0324,0.013523,0.002678,0.000431,0.714101
3360000,0.0324,0.013523,0.002678,0.000431,0.610089
3361000,0.0324,0.013523,0.002678,0.000431,0.550384
3362000,0.0324,0.013523,0.002678,0.000431,0.625015
3363000,0.0324,0.013523,0.002678,0.000431,0.768047
3364000,0.0324,0.013523,0.002678,0.000431,0.767459
3365000,0.0324,0.013523,0.002678,0.000431,0.687070
3366000,0.0324,0.013523,0.002678,0.000431,0.759115
3367000,0.0324,0.013523,0.002678,0.000431,0.837388
3368000,0.0324,0.013523,0.002678,0.000431,0.878758
3369000,0.0324,0.013523,0.002678,0.000431,0.824343
3370000,0.0324,0.013523,0.002678,0.000431,0.737959
3371000,0.0324,0.013523,0.002678,0.000431,0.729968
3372000,0.0324,0.013523,0.002678,0.000431,0.674612
3373000,0.0324,0.013523,0.002678,0.000431,0.617493
3374000,0.0324,0.013523,0.002678,0.000431,0.556613
3375000,0.0324,0.013523,0.002678,0.000431,0.502668
3376000,0.0324,0.013523,0.002678,0.000431,0.452954
3377000,0.0324,0.013523,0.002678,0.000431,0.433561
3378000,0.0324,0.013523,0.002678,0.000431,0.393014
3379000,0.0324,0.013523,0.002678,0.000431,0.362339
3380000,0.0324,0.013523,0.002678,0.000431,0.343535
3381000,0.0324,0.013523,0.002678,0.000431,0.320382
3382000,0.0324,0.013523,0.002678,0.000431,0.297581
3383000,0.0324,0.013523,0.002678,0.000431,0.279364
3384000,0.0324,0.013523,0.002678,0.000431,0.266789
3385000,0.0324,0.013523,0.002678,0.000431,0.257152
3386000,0.0324,0.013523,0.002678,0.000431,0.243166
3387000,0.0324,0.013523,0.002678,0.000431,0.243401
3388000,0.0324,0.013523,0.002678,0.000431,0.226594
3389000,0.0324,0.013523,0.002678,0.000431,0.214842
3390000,0.0324,0.013523,0.002678,0.000431,0.214724
3391000,0.0324,0.013523,0.002678,0.000431,0.204617
3392000,0.0324,0.013523,0.002678,0.000431,0.200150
3393000,0.0324,0.013523,0.002678,0.000431,0.190278
3394000,0.0324,0.013523,0.002678,0.000431,0.185342
3395000,0.0324,0.013523,0.002678,0.000431,0.182639
3396000,0.0324,0.013523,0.002678,0.000431,0.173354
3397000,0.0324,0.013523,0.002678,0.000431,0.171591
3398000,0.0324,0.013523,0.002678,0.000431,0.169476
3399000,0.0324,0.013523,0.002678,0.000431,0.156900
3400000,0.0324,0.013523,0.002678,0.000431,0.157488
3401000,0.0324,0.013523,0.002678,0.000431,0.155960
3402000,0.0324,0.013523,0.002678,0.000431,0.147263
3403000,0.0324,0.013523,0.002678,0.000431,0.149026
3404000,0.0324,0.013523,0.002678,0.000431,0.146323
3405000,0.0324,0.013523,0.002678,0.000431,0.139388
3406000,0.0324,0.013523,0.002678,0.000431,0.141386
3407000,0.0324,0.013523,0.002678,0.000431,0.140329
3408000,0.0324,0.013523,0.002678,0.000431,0.133394
3409000,0.0324,0.013523,0.002678,0.000431,0.133982
3410000,0.0324,0.013523,0.002678,0.000431,0.127401
3411000,0.0324,0.013523,0.002678,0.000431,0.126343
3412000,0.0324,0.013523,0.002678,0.000431,0.121642
3413000,0.0324,0.013523,0.002678,0.000431,0.122229
3414000,0.0324,0.013523,0.002678,0.000431,0.120231
3415000,0.0324,0.013523,0.002678,0.000431,0.115178
3416000,0.0324,0.013523,0.002678,0.000431,0.114590
3417000,0.0324,0.013523,0.002678,0.000431,0.114120
3418000,0.0324,0.013523,0.002678,0.000431,0.110712
3419000,0.0324,0.013523,0.002678,0.000431,0.111182
3420000,0.0324,0.013523,0.002678,0.000431,0.109066
3421000,0.0324,0.013523,0.002678,0.000431,0.108008
3422000,0.0324,0.013523,0.002678,0.000431,0.104130
3423000,0.0324,0.013523,0.002678,0.000431,0.104835
3424000,0.0324,0.013523,0.002678,0.000431,0.100604
3425000,0.0324,0.013523,0.002678,0.000431,0.098724
3426000,0.0324,0.013523,0.002678,0.000431,0.099194
3427000,0.0324,0.013523,0.002678,0.000431,0.094023
3428000,0.0324,0.013523,0.002678,0.000431,0.095668
3429000,0.0324,0.013523,0.002678,0.000431,0.094140
3430000,0.0324,0.013523,0.002678,0.000431,0.091084
3431000,0.0324,0.013523,0.002678,0.000431,0.091790
3432000,0.0324,0.013523,0.002678,0.000431,0.086501
3433000,0.0324,0.013523,0.002678,0.000431,0.085796
3434000,0.0324,0.013523,0.002678,0.000431,0.083680
3435000,0.0324,0.013523,0.002678,0.000431,0.084503
3436000,0.0324,0.013523,0.002678,0.000431,0.085678
3437000,0.0324,0.013523,0.002678,0.000431,0.084620
3438000,0.0324,0.013523,0.002678,0.000431,0.082975
3439000,0.0324,0.013523,0.002678,0.000431,0.082035
3440000,0.0324,0.013523,0.002678,0.000431,0.080859
3441000,0.0324,0.013523,0.002678,0.000431,0.078861
3442000,0.0324,0.013523,0.002678,0.000431,0.080154
3443000,0.0324,0.013523,0.002678,0.000431,0.078156
3444000,0.0324,0.013523,0.002678,0.000431,0.078509
3445000,0.0324,0.013523,0.002678,0.000431,0.076393
3446000,0.0324,0.013523,0.002678,0.000431,0.076981
3447000,0.0324,0.013523,0.002678,0.000431,0.076981
3448000,0.0324,0.013523,0.002678,0.000431,0.076981
3449000,0.0324,0.013523,0.002678,0.000431,0.072397
3450000,0.0324,0.013523,0.002678,0.000431,0.073455
3451000,0.0324,0.013523,0.002678,0.000431,0.070399
3452000,0.0324,0.013523,0.002678,0.000431,0.071105
3453000,0.0324,0.013523,0.002678,0.000431,0.070399
3454000,0.0324,0.013523,0.002678,0.000431,0.069107
3455000,0.0324,0.013523,0.002678,0.000431,0.067344
3456000,0.0324,0.013523,0.002678,0.000431,0.066756
3457000,0.0324,0.013523,0.002678,0.000431,0.065111
3458000,0.0324,0.013523,0.002678,0.000431,0.066168
3459000,0.0324,0.013523,0.002678,0.000431,0.065816
3460000,0.0324,0.013523,0.002678,0.000431,0.064993
3461000,0.0324,0.013523,0.002678,0.000431,0.064993
3462000,0.0324,0.013523,0.002678,0.000431,0.065933
3463000,0.0324,0.013523,0.002678,0.000431,0.063113
3464000,0.0324,0.013523,0.002678,0.000431,0.064405
3465000,0.0324,0.013523,0.002678,0.000431,0.064641
3466000,0.0324,0.013523,0.002678,0.000431,0.063113
3467000,0.0324,0.013523,0.002678,0.000431,0.062407
3468000,0.0324,0.013523,0.002678,0.000431,0.060409
3469000,0.0324,0.013523,0.002678,0.000431,0.061702
3470000,0.0324,0.013523,0.002678,0.000431,0.059704
3471000,0.0324,0.013523,0.002678,0.000431,0.058999
3472000,0.0324,0.013523,0.002678,0.000431,0.061585
3473000,0.0324,0.013523,0.002678,0.000431,0.059469
3474000,0.0324,0.013523,0.002678,0.000431,0.060645
3475000,0.0324,0.013523,0.002678,0.000431,0.057001
3476000,0.0324,0.013523,0.002678,0.000431,0.060645
3477000,0.0324,0.013523,0.002678,0.000431,0.058294
3478000,0.0324,0.013523,0.002678,0.000431,0.056178
3479000,0.0324,0.013523,0.002678,0.000431,0.055943
3480000,0.0324,0.013523,0.002678,0.000431,0.055591
3481000,0.0324,0.013523,0.002678,0.000431,0.055943
3482000,0.0324,0.013523,0.002678,0.000431,0.054768
3483000,0.0324,0.013523,0.002678,0.000431,0.055826
3484000,0.0324,0.013523,0.002678,0.000431,0.052888
3485000,0.0324,0.013523,0.002678,0.000431,0.051595
3486000,0.0324,0.013523,0.002678,0.000431,0.052653
3487000,0.0324,0.013523,0.002678,0.000431,0.053240
3488000,0.0324,0.013523,0.002678,0.000431,0.051595
3489000,0.0324,0.013523,0.002678,0.000431,0.051712
3490000,0.0324,0.013523,0.002678,0.000431,0.052535
3491000,0.0324,0.013523,0.002678,0.000431,0.050655
3492000,0.0324,0.013523,0.002678,0.000431,0.047716
3493000,0.0324,0.013523,0.002678,0.000431,0.048892
3494000,0.0324,0.013523,0.002678,0.000431,0.048069
3495000,0.0324,0.013523,0.002678,0.000431,0.047716
3496000,0.0324,0.013523,0.002678,0.000431,0.046894
3497000,0.0324,0.013523,0.002678,0.000431,0.046541
3498000,0.0324,0.013523,0.002678,0.000431,0.045483
3499000,0.0324,0.013523,0.002678,0.000431,0.044543
3500000,0.0324,0.013523,0.002678,0.000431,0.043603
3501000,0.0324,0.013523,0.002678,0.000431,0.043015
3502000,0.0324,0.013523,0.002678,0.000431,0.044661
3503000,0.0324,0.013523,0.002678,0.000431,0.042193
3504000,0.0324,0.013523,0.002678,0.000431,0.043015
3505000,0.0324,0.013523,0.002678,0.000431,0.042898
3506000,0.0324,0.013523,0.002678,0.000431,0.042898
3507000,0.0324,0.013523,0.002678,0.000431,0.042428
3508000,0.0324,0.013523,0.002678,0.000431,0.042310
3509000,0.0324,0.013523,0.002678,0.000431,0.043720
3510000,0.0324,0.013523,0.002678,0.000431,0.041252
3511000,0.0324,0.013523,0.002678,0.000431,0.041723
3512000,0.0324,0.013523,0.002678,0.000431,0.042428
3513000,0.0324,0.013523,0.002678,0.000431,0.042193
3514000,0.0324,0.013523,0.002678,0.000431,0.042193
3515000,0.0324,0.013523,0.002678,0.000431,0.042075
3516000,0.0324,0.013523,0.002678,0.000431,0.041840
3517000,0.0324,0.013523,0.002678,0.000431,0.042075
3518000,0.0324,0.013523,0.002678,0.000431,0.041840
3519000,0.0324,0.013523,0.002678,0.000431,0.041370
3520000,0.0324,0.013523,0.002678,0.000431,0.041135
3521000,0.0324,0.013523,0.002678,0.000431,0.040430
3522000,0.0324,0.013523,0.002678,0.000431,0.041487
3523000,0.0324,0.013523,0.002678,0.000431,0.042428
3524000,0.0324,0.013523,0.002678,0.000431,0.040430
3525000,0.0324,0.013523,0.002678,0.000431,0.041135
3526000,0.0324,0.013523,0.002678,0.000431,0.039607
3527000,0.0324,0.013523,0.002678,0.000431,0.040430
3528000,0.0324,0.013523,0.002678,0.000431,0.040195
3529000,0.0324,0.013523,0.002678,0.000431,0.038549
3530000,0.0324,0.013523,0.002678,0.000431,0.039489
3531000,0.0324,0.013523,0.002678,0.000431,0.039489
3532000,0.0324,0.013523,0.002678,0.000431,0.036904
3533000,0.0324,0.013523,0.002678,0.000431,0.037609
3534000,0.0324,0.013523,0.002678,0.000431,0.038784
3535000,0.0324,0.013523,0.002678,0.000431,0.038079
3536000,0.0324,0.013523,0.002678,0.000431,0.037139
3537000,0.0324,0.013523,0.002678,0.000431,0.037256
3538000,0.0324,0.013523,0.002678,0.000431,0.037962
3539000,0.0324,0.013523,0.002678,0.000431,0.037727
3540000,0.0324,0.013523,0.002678,0.000431,0.036669
3541000,0.0324,0.013523,0.002678,0.000431,0.037609
3542000,0.0324,0.013523,0.002678,0.000431,0.037021
3543000,0.0324,0.013523,0.002678,0.000431,0.035611
3544000,0.0324,0.013523,0.002678,0.000431,0.035729
3545000,0.0324,0.013523,0.002678,0.000431,0.035494
3546000,0.0324,0.013523,0.002678,0.000431,0.034788
3547000,0.0324,0.013523,0.002678,0.000431,0.033848
3548000,0.0324,0.013523,0.002678,0.000431,0.034083
3549000,0.0324,0.013523,0.002678,0.000431,0.034671
3550000,0.0324,0.013523,0.002678,0.000431,0.034436
3551000,0.0324,0.013523,0.002678,0.000431,0.033025
3552000,0.0324,0.013523,0.002678,0.000431,0.034436
3553000,0.0324,0.013523,0.002678,0.000431,0.035023
3554000,0.0324,0.013523,0.002678,0.000431,0.032908
3555000,0.0324,0.013523,0.002678,0.000431,0.034906
3556000,0.0324,0.013523,0.002678,0.000431,0.031498
3557000,0.0324,0.013523,0.002678,0.000431,0.033966
3558000,0.0324,0.013523,0.002678,0.000431,0.033613
3559000,0.0324,0.013523,0.002678,0.000431,0.032908
3560000,0.0324,0.013523,0.002678,0.000431,0.033613
3561000,0.0324,0.013523,0.002678,0.000431,0.033378
3562000,0.0324,0.013523,0.002678,0.000431,0.033613
3563000,0.0324,0.013523,0.002678,0.000431,0.032790
3564000,0.0324,0.013523,0.002678,0.000431,0.033260
3565000,0.0324,0.013523,0.002678,0.000431,0.032320
3566000,0.0324,0.013523,0.002678,0.000431,0.033966
3567000,0.0324,0.013523,0.002678,0.000431,0.033025
3568000,0.0324,0.013523,0.002678,0.000431,0.033731
3569000,0.0324,0.013523,0.002678,0.000431,0.033378
3570000,0.0324,0.013523,0.002678,0.000431,0.034436
3571000,0.0324,0.013523,0.002678,0.000431,0.033025
3572000,0.0324,0.013523,0.002678,0.000431,0.034201
3573000,0.0324,0.013523,0.002678,0.000431,0.032320
3574000,0.0324,0.013523,0.002678,0.000431,0.032908
3575000,0.0324,0.013523,0.002678,0.000431,0.033025
3576000,0.0324,0.013523,0.002678,0.000431,0.032790
3577000,0.0324,0.013523,0.002678,0.000431,0.033378
3578000,0.0324,0.013523,0.002678,0.000431,0.033025
3579000,0.0324,0.013523,0.002678,0.000431,0.032555
3580000,0.0324,0.013523,0.002678,0.000431,0.032203
3581000,0.0324,0.013523,0.002678,0.000431,0.032790
3582000,0.0324,0.013523,0.002678,0.000431,0.031850
3583000,0.0324,0.013523,0.002678,0.000431,0.032790
3584000,0.0324,0.013523,0.002678,0.000431,0.032085
3585000,0.0324,0.013523,0.002678,0.000431,0.031850
3586000,0.0324,0.013523,0.002678,0.000431,0.032320
3587000,0.0324,0.013523,0.002678,0.000431,0.032085
3588000,0.0324,0.013523,0.002678,0.000431,0.031615
3589000,0.0324,0.013523,0.002678,0.000431,0.031733
3590000,0.0324,0.013523,0.002678,0.000431,0.032085
3591000,0.0324,0.013523,0.002678,0.000431,0.032555
3592000,0.0324,0.013523,0.002678,0.000431,0.031850
3593000,0.0324,0.013523,0.002678,0.000431,0.031615
3594000,0.0324,0.013523,0.002678,0.000431,0.033613
3595000,0.0324,0.013523,0.002678,0.000431,0.032438
3596000,0.0324,0.013523,0.002678,0.000431,0.031615
3597000,0.0324,0.013523,0.002678,0.000431,0.030792
3598000,0.0324,0.013523,0.002678,0.000431,0.031027
3599000,0.0324,0.013523,0.002678,0.000431,0.031145
3600000,0.0324,0.013523,0.002678,0.000431,0.028324
3601000,0.0324,0.013523,0.002678,0.000431,0.029382
3602000,0.0324,0.013523,0.002678,0.000431,0.029029
3603000,0.0324,0.013523,0.002678,0.000431,0.029147
3604000,0.0324,0.013523,0.002678,0.000431,0.029029
3605000,0.0324,0.013523,0.002678,0.000431,0.028677
3606000,0.0324,0.013523,0.002678,0.000431,0.027502
3607000,0.0324,0.013523,0.002678,0.000431,0.028207
3608000,0.0324,0.013523,0.002678,0.000431,0.028442
3609000,0.0324,0.013523,0.002678,0.000431,0.027972
3610000,0.0324,0.013523,0.002678,0.000431,0.027972
3611000,0.0324,0.013523,0.002678,0.000431,0.028794
3612000,0.0324,0.013523,0.002678,0.000431,0.028089
3613000,0.0324,0.013523,0.002678,0.000431,0.028324
3614000,0.0324,0.013523,0.002678,0.000431,0.028089
3615000,0.0324,0.013523,0.002678,0.000431,0.029029
3616000,0.0324,0.013523,0.002678,0.000431,0.028559
3617000,0.0324,0.013523,0.002678,0.000431,0.027737
3618000,0.0324,0.013523,0.002678,0.000431,0.027384
3619000,0.0324,0.013523,0.002678,0.000431,0.027619
3620000,0.0324,0.013523,0.002678,0.000431,0.027267
3621000,0.0324,0.013523,0.002678,0.000431,0.027619
3622000,0.0324,0.013523,0.002678,0.000431,0.027502
3623000,0.0324,0.013523,0.002678,0.000431,0.027031
3624000,0.0324,0.013523,0.002678,0.000431,0.028207
3625000,0.0324,0.013523,0.002678,0.000431,0.026091
3626000,0.0324,0.013523,0.002678,0.000431,0.027149
3627000,0.0324,0.013523,0.002678,0.000431,0.027031
3628000,0.0324,0.013523,0.002678,0.000431,0.026679
3629000,0.0324,0.013523,0.002678,0.000431,0.027031
3630000,0.0324,0.013523,0.002678,0.000431,0.026561
3631000,0.0324,0.013523,0.002678,0.000431,0.026444
3632000,0.0324,0.013523,0.002678,0.000431,0.025621
3633000,0.0324,0.013523,0.002678,0.000431,0.026209
3634000,0.0324,0.013523,0.002678,0.000431,0.026444
3635000,0.0324,0.013523,0.002678,0.000431,0.026091
3636000,0.0324,0.013523,0.002678,0.000431,0.025621
3637000,0.0324,0.013523,0.002678,0.000431,0.024328
3638000,0.0324,0.013523,0.002678,0.000431,0.023858
3639000,0.0324,0.013523,0.002678,0.000431,0.024681
3640000,0.0324,0.013523,0.002678,0.000431,0.023741
3641000,0.0324,0.013523,0.002678,0.000431,0.023976
3642000,0.0324,0.013523,0.002678,0.000431,0.023858
3643000,0.0324,0.013523,0.002678,0.000431,0.023623
3644000,0.0324,0.013523,0.002678,0.000431,0.024563
3645000,0.0324,0.013523,0.002678,0.000431,0.023153
3646000,0.0324,0.013523,0.002678,0.000431,0.024328
3647000,0.0324,0.013523,0.002678,0.000431,0.022800
3648000,0.0324,0.013523,0.002678,0.000431,0.024328
3649000,0.0324,0.013523,0.002678,0.000431,0.023506
3650000,0.0324,0.013523,0.002678,0.000431,0.023388
3651000,0.0324,0.013523,0.002678,0.000431,0.023858
3652000,0.0324,0.013523,0.002678,0.000431,0.024328
3653000,0.0324,0.013523,0.002678,0.000431,0.023271
3654000,0.0324,0.013523,0.002678,0.000431,0.023858
3655000,0.0324,0.013523,0.002678,0.000431,0.022918
3656000,0.0324,0.013523,0.002678,0.000431,0.023623
3657000,0.0324,0.013523,0.002678,0.000431,0.023036
3658000,0.0324,0.013523,0.002678,0.000431,0.023506
3659000,0.0324,0.013523,0.002678,0.000431,0.022683
3660000,0.0324,0.013523,0.002678,0.000431,0.023506
3661000,0.0324,0.013523,0.002678,0.000431,0.022330
3662000,0.0324,0.013523,0.002678,0.000431,0.023506
3663000,0.0324,0.013523,0.002678,0.000431,0.023271
3664000,0.0324,0.013523,0.002678,0.000431,0.022565
3665000,0.0324,0.013523,0.002678,0.000431,0.023858
3666000,0.0324,0.013523,0.002678,0.000431,0.022565
3667000,0.0324,0.013523,0.002678,0.000431,0.023153
3668000,0.0324,0.013523,0.002678,0.000431,0.023153
3669000,0.0324,0.013523,0.002678,0.000431,0.022095
3670000,0.0324,0.013523,0.002678,0.000431,0.022683
3671000,0.0324,0.013523,0.002678,0.000431,0.023976
3672000,0.0324,0.013523,0.002678,0.000431,0.023153
3673000,0.0324,0.013523,0.002678,0.000431,0.023153
3674000,0.0324,0.013523,0.002678,0.000431,0.022683
3675000,0.0324,0.013523,0.002678,0.000431,0.023271
3676000,0.0324,0.013523,0.002678,0.000431,0.023623
3677000,0.0324,0.013523,0.002678,0.000431,0.022095
3678000,0.0324,0.013523,0.002678,0.000431,0.023506
3679000,0.0324,0.013523,0.002678,0.000431,0.022330
3680000,0.0324,0.013523,0.002678,0.000431,0.023741
3681000,0.0324,0.013523,0.002678,0.000431,0.021978
3682000,0.0324,0.013523,0.002678,0.000431,0.021155
3683000,0.0324,0.013523,0.002678,0.000431,0.021978
3684000,0.0324,0.013523,0.002678,0.000431,0.021978
3685000,0.0324,0.013523,0.002678,0.000431,0.021508
3686000,0.0324,0.013523,0.002678,0.000431,0.021743
3687000,0.0324,0.013523,0.002678,0.000431,0.022565
3688000,0.0324,0.013523,0.002678,0.000431,0.020685
3689000,0.0324,0.013523,0.002678,0.000431,0.022448
3690000,0.0324,0.013523,0.002678,0.000431,0.022213
3691000,0.0324,0.013523,0.002678,0.000431,0.022095
3692000,0.0324,0.013523,0.002678,0.000431,0.021508
3693000,0.0324,0.013523,0.002678,0.000431,0.021155
3694000,0.0324,0.013523,0.002678,0.000431,0.022683
3695000,0.0324,0.013523,0.002678,0.000431,0.020802
3696000,0.0324,0.013523,0.002678,0.000431,0.022683
3697000,0.0324,0.013523,0.002678,0.000431,0.021743
3698000,0.0324,0.013523,0.002678,0.000431,0.021978
3699000,0.0324,0.013523,0.002678,0.000431,0.021038
3700000,0.0324,0.013523,0.002678,0.000431,0.022213
3701000,0.0324,0.013523,0.002678,0.000431,0.022565
3702000,0.0324,0.013523,0.002678,0.000431,0.022565
3703000,0.0324,0.013523,0.002678,0.000431,0.021155
3704000,0.0324,0.013523,0.002678,0.000431,0.021978
3705000,0.0324,0.013523,0.002678,0.000431,0.022565
3706000,0.0324,0.013523,0.002678,0.000431,0.020920
3707000,0.0324,0.013523,0.002678,0.000431,0.022095
3708000,0.0324,0.013523,0.002678,0.000431,0.022683
3709000,0.0324,0.013523,0.002678,0.000431,0.021038
3710000,0.0324,0.013523,0.002678,0.000431,0.022095
3711000,0.0324,0.013523,0.002678,0.000431,0.021625
3712000,0.0324,0.013523,0.002678,0.000431,0.021625
3713000,0.0324,0.013523,0.002678,0.000431,0.020802
3714000,0.0324,0.013523,0.002678,0.000431,0.020567
3715000,0.0324,0.013523,0.002678,0.000431,0.021743
3716000,0.0324,0.013523,0.002678,0.000431,0.021625
3717000,0.0324,0.013523,0.002678,0.000431,0.021860
3718000,0.0324,0.013523,0.002678,0.000431,0.021390
3719000,0.0324,0.013523,0.002678,0.000431,0.021508
3720000,0.0324,0.013523,0.002678,0.000431,0.021038
3721000,0.0324,0.013523,0.002678,0.000431,0.021038
3722000,0.0324,0.013523,0.002678,0.000431,0.020450
3723000,0.0324,0.013523,0.002678,0.000431,0.018569
3724000,0.0324,0.013523,0.002678,0.000431,0.018334
3725000,0.0324,0.013523,0.002678,0.000431,0.019157
3726000,0.0324,0.013523,0.002678,0.000431,0.018217
3727000,0.0324,0.013523,0.002678,0.000431,0.018922
3728000,0.0324,0.013523,0.002678,0.000431,0.017982
3729000,0.0324,0.013523,0.002678,0.000431,0.018922
3730000,0.0324,0.013523,0.002678,0.000431,0.018217
3731000,0.0324,0.013523,0.002678,0.000431,0.018805
3732000,0.0324,0.013523,0.002678,0.000431,0.018687
3733000,0.0324,0.013523,0.002678,0.000431,0.018687
3734000,0.0324,0.013523,0.002678,0.000431,0.018687
3735000,0.0324,0.013523,0.002678,0.000431,0.018569
3736000,0.0324,0.013523,0.002678,0.000431,0.019157
3737000,0.0324,0.013523,0.002678,0.000431,0.017982
3738000,0.0324,0.013523,0.002678,0.000431,0.019157
3739000,0.0324,0.013523,0.002678,0.000431,0.018452
3740000,0.0324,0.013523,0.002678,0.000431,0.019157
3741000,0.0324,0.013523,0.002678,0.000431,0.017747
3742000,0.0324,0.013523,0.002678,0.000431,0.019510
3743000,0.0324,0.013523,0.002678,0.000431,0.017747
3744000,0.0324,0.013523,0.002678,0.000431,0.017982
3745000,0.0324,0.013523,0.002678,0.000431,0.019157
3746000,0.0324,0.013523,0.002678,0.000431,0.017512
3747000,0.0324,0.013523,0.002678,0.000431,0.019040
3748000,0.0324,0.013523,0.002678,0.000431,0.018922
3749000,0.0324,0.013523,0.002678,0.000431,0.019040
3750000,0.0324,0.013523,0.002678,0.000431,0.017512
3751000,0.0324,0.013523,0.002678,0.000431,0.018334
3752000,0.0324,0.013523,0.002678,0.000431,0.017277
3753000,0.0324,0.013523,0.002678,0.000431,0.017982
3754000,0.0324,0.013523,0.002678,0.000431,0.017512
3755000,0.0324,0.013523,0.002678,0.000431,0.018805
3756000,0.0324,0.013523,0.002678,0.000431,0.017042
3757000,0.0324,0.013523,0.002678,0.000431,0.017394
3758000,0.0324,0.013523,0.002678,0.000431,0.018569
3759000,0.0324,0.013523,0.002678,0.000431,0.017394
3760000,0.0324,0.013523,0.002678,0.000431,0.018452
3761000,0.0324,0.013523,0.002678,0.000431,0.017277
3762000,0.0324,0.013523,0.002678,0.000431,0.017864
3763000,0.0324,0.013523,0.002678,0.000431,0.016689
3764000,0.0324,0.013523,0.002678,0.000431,0.015866
3765000,0.0324,0.013523,0.002678,0.000431,0.016807
3766000,0.0324,0.013523,0.002678,0.000431,0.015749
3767000,0.0324,0.013523,0.002678,0.000431,0.015044
3768000,0.0324,0.013523,0.002678,0.000431,0.015984
3769000,0.0324,0.013523,0.002678,0.000431,0.016101
3770000,0.0324,0.013523,0.002678,0.000431,0.015514
3771000,0.0324,0.013523,0.002678,0.000431,0.015866
3772000,0.0324,0.013523,0.002678,0.000431,0.015514
3773000,0.0324,0.013523,0.002678,0.000431,0.015984
3774000,0.0324,0.013523,0.002678,0.000431,0.016101
3775000,0.0324,0.013523,0.002678,0.000431,0.015514
3776000,0.0324,0.013523,0.002678,0.000431,0.016219
3777000,0.0324,0.013523,0.002678,0.000431,0.015631
3778000,0.0324,0.013523,0.002678,0.000431,0.016454
3779000,0.0324,0.013523,0.002678,0.000431,0.015984
3780000,0.0324,0.013523,0.002678,0.000431,0.015866
3781000,0.0324,0.013523,0.002678,0.000431,0.015866
3782000,0.0324,0.013523,0.002678,0.000431,0.015984
3783000,0.0324,0.013523,0.002678,0.000431,0.015866
3784000,0.0324,0.013523,0.002678,0.000431,0.015631
3785000,0.0324,0.013523,0.002678,0.000431,0.015514
3786000,0.0324,0.013523,0.002678,0.000431,0.015749
3787000,0.0324,0.013523,0.002678,0.000431,0.015984
3788000,0.0324,0.013523,0.002678,0.000431,0.016336
3789000,0.0324,0.013523,0.002678,0.000431,0.015161
3790000,0.0324,0.013523,0.002678,0.000431,0.016219
3791000,0.0324,0.013523,0.002678,0.000431,0.015631
3792000,0.0324,0.013523,0.002678,0.000431,0.015396
3793000,0.0324,0.013523,0.002678,0.000431,0.015396
3794000,0.0324,0.013523,0.002678,0.000431,0.015631
3795000,0.0324,0.013523,0.002678,0.000431,0.014456
3796000,0.0324,0.013523,0.002678,0.000431,0.014926
3797000,0.0324,0.013523,0.002678,0.000431,0.014573
3798000,0.0324,0.013523,0.002678,0.000431,0.014809
3799000,0.0324,0.013523,0.002678,0.000431,0.014926
3800000,0.0324,0.013523,0.002678,0.000431,0.014221
3801000,0.0324,0.013523,0.002678,0.000431,0.014573
3802000,0.0324,0.013523,0.002678,0.000431,0.014338
3803000,0.0324,0.013523,0.002678,0.000431,0.013751
3804000,0.0324,0.013523,0.002678,0.000431,0.014221
3805000,0.0324,0.013523,0.002678,0.000431,0.013633
3806000,0.0324,0.013523,0.002678,0.000431,0.014809
3807000,0.0324,0.013523,0.002678,0.000431,0.013986
3808000,0.0324,0.013523,0.002678,0.000431,0.013986
3809000,0.0324,0.013523,0.002678,0.000431,0.014221
3810000,0.0324,0.013523,0.002678,0.000431,0.013633
3811000,0.0324,0.013523,0.002678,0.000431,0.014456
3812000,0.0324,0.013523,0.002678,0.000431,0.013633
3813000,0.0324,0.013523,0.002678,0.000431,0.014809
3814000,0.0324,0.013523,0.002678,0.000431,0.014456
3815000,0.0324,0.013523,0.002678,0.000431,0.014691
3816000,0.0324,0.013523,0.002678,0.000431,0.014221
3817000,0.0324,0.013523,0.002678,0.000431,0.014809
3818000,0.0324,0.013523,0.002678,0.000431,0.014103
3819000,0.0324,0.013523,0.002678,0.000431,0.014573
3820000,0.0324,0.013523,0.002678,0.000431,0.013633
3821000,0.0324,0.013523,0.002678,0.000431,0.014456
3822000,0.0324,0.013523,0.002678,0.000431,0.014809
3823000,0.0324,0.013523,0.002678,0.000431,0.014338
3824000,0.0324,0.013523,0.002678,0.000431,0.013986
3825000,0.0324,0.013523,0.002678,0.000431,0.014338
3826000,0.0324,0.013523,0.002678,0.000431,0.014573
3827000,0.0324,0.013523,0.002678,0.000431,0.013868
3828000,0.0324,0.013523,0.002678,0.000431,0.014221
3829000,0.0324,0.013523,0.002678,0.000431,0.013516
3830000,0.0324,0.013523,0.002678,0.000431,0.014103
3831000,0.0324,0.013523,0.002678,0.000431,0.014456
3832000,0.0324,0.013523,0.002678,0.000431,0.014221
3833000,0.0324,0.013523,0.002678,0.000431,0.013868
3834000,0.0324,0.013523,0.002678,0.000431,0.014221
3835000,0.0324,0.013523,0.002678,0.000431,0.015044
3836000,0.0324,0.013523,0.002678,0.000431,0.013868
3837000,0.0324,0.013523,0.002678,0.000431,0.015044
3838000,0.0324,0.013523,0.002678,0.000431,0.014103
3839000,0.0324,0.013523,0.002678,0.000431,0.013986
3840000,0.0324,0.013523,0.002678,0.000431,0.014221
3841000,0.0324,0.013523,0.002678,0.000431,0.015044
3842000,0.0324,0.013523,0.002678,0.000431,0.013868
3843000,0.0324,0.013523,0.002678,0.000431,0.013986
3844000,0.0324,0.013523,0.002678,0.000431,0.013751
3845000,0.0324,0.013523,0.002678,0.000431,0.014691
3846000,0.0324,0.013523,0.002678,0.000431,0.013281
3847000,0.0324,0.013523,0.002678,0.000431,0.013633
3848000,0.0324,0.013523,0.002678,0.000431,0.013868
3849000,0.0324,0.013523,0.002678,0.000431,0.012576
3850000,0.0324,0.013523,0.002678,0.000431,0.014103
3851000,0.0324,0.013523,0.002678,0.000431,0.013751
3852000,0.0324,0.013523,0.002678,0.000431,0.013633
3853000,0.0324,0.013523,0.002678,0.000431,0.014103
3854000,0.0324,0.013523,0.002678,0.000431,0.012811
3855000,0.0324,0.013523,0.002678,0.000431,0.013516
3856000,0.0324,0.013523,0.002678,0.000431,0.013986
3857000,0.0324,0.013523,0.002678,0.000431,0.013986
3858000,0.0324,0.013523,0.002678,0.000431,0.013751
3859000,0.0324,0.013523,0.002678,0.000431,0.013751
3860000,0.0324,0.013523,0.002678,0.000431,0.012928
3861000,0.0324,0.013523,0.002678,0.000431,0.014221
3862000,0.0324,0.013523,0.002678,0.000431,0.013868
3863000,0.0324,0.013523,0.002678,0.000431,0.013046
3864000,0.0324,0.013523,0.002678,0.000431,0.013986
3865000,0.0324,0.013523,0.002678,0.000431,0.013163
3866000,0.0324,0.013523,0.002678,0.000431,0.013281
3867000,0.0324,0.013523,0.002678,0.000431,0.012576
3868000,0.0324,0.013523,0.002678,0.000431,0.013163
3869000,0.0324,0.013523,0.002678,0.000431,0.012576
3870000,0.0324,0.013523,0.002678,0.000431,0.013751
3871000,0.0324,0.013523,0.002678,0.000431,0.012576
3872000,0.0324,0.013523,0.002678,0.000431,0.013046
3873000,0.0324,0.013523,0.002678,0.000431,0.012458
3874000,0.0324,0.013523,0.002678,0.000431,0.013281
3875000,0.0324,0.013523,0.002678,0.000431,0.013163
3876000,0.0324,0.013523,0.002678,0.000431,0.012576
3877000,0.0324,0.013523,0.002678,0.000431,0.013398
3878000,0.0324,0.013523,0.002678,0.000431,0.012340
3879000,0.0324,0.013523,0.002678,0.000431,0.011753
3880000,0.0324,0.013523,0.002678,0.000431,0.012928
3881000,0.0324,0.013523,0.002678,0.000431,0.012693
3882000,0.0324,0.013523,0.002678,0.000431,0.012458
3883000,0.0324,0.013523,0.002678,0.000431,0.011753
3884000,0.0324,0.013523,0.002678,0.000431,0.012105
3885000,0.0324,0.013523,0.002678,0.000431,0.012576
3886000,0.0324,0.013523,0.002678,0.000431,0.011870
3887000,0.0324,0.013523,0.002678,0.000431,0.012105
3888000,0.0324,0.013523,0.002678,0.000431,0.012811
3889000,0.0324,0.013523,0.002678,0.000431,0.011635
3890000,0.0324,0.013523,0.002678,0.000431,0.011988
3891000,0.0324,0.013523,0.002678,0.000431,0.011870
3892000,0.0324,0.013523,0.002678,0.000431,0.012458
3893000,0.0324,0.013523,0.002678,0.000431,0.012693
3894000,0.0324,0.013523,0.002678,0.000431,0.012811
3895000,0.0324,0.013523,0.002678,0.000431,0.011870
3896000,0.0324,0.013523,0.002678,0.000431,0.012458
3897000,0.0324,0.013523,0.002678,0.000431,0.012105
3898000,0.0324,0.013523,0.002678,0.000431,0.012928
3899000,0.0324,0.013523,0.002678,0.000431,0.011988
3900000,0.0324,0.013523,0.002678,0.000431,0.012223
3901000,0.0324,0.013523,0.002678,0.000431,0.011635
3902000,0.0324,0.013523,0.002678,0.000431,0.011753
3903000,0.0324,0.013523,0.002678,0.000431,0.011048
3904000,0.0324,0.013523,0.002678,0.000431,0.011518
3905000,0.0324,0.013523,0.002678,0.000431,0.011870
3906000,0.0324,0.013523,0.002678,0.000431,0.011518
3907000,0.0324,0.013523,0.002678,0.000431,0.012105
3908000,0.0324,0.013523,0.002678,0.000431,0.011400
3909000,0.0324,0.013523,0.002678,0.000431,0.011400
3910000,0.0324,0.013523,0.002678,0.000431,0.011048
3911000,0.0324,0.013523,0.002678,0.000431,0.010930
3912000,0.0324,0.013523,0.002678,0.000431,0.010930
3913000,0.0324,0.013523,0.002678,0.000431,0.011165
3914000,0.0324,0.013523,0.002678,0.000431,0.010695
3915000,0.0324,0.013523,0.002678,0.000431,0.010460
3916000,0.0324,0.013523,0.002678,0.000431,0.011400
3917000,0.0324,0.013523,0.002678,0.000431,0.010813
3918000,0.0324,0.013523,0.002678,0.000431,0.010930
3919000,0.0324,0.013523,0.002678,0.000431,0.010930
3920000,0.0324,0.013523,0.002678,0.000431,0.010930
3921000,0.0324,0.013523,0.002678,0.000431,0.011283
3922000,0.0324,0.013523,0.002678,0.000431,0.010460
3923000,0.0324,0.013523,0.002678,0.000431,0.010813
3924000,0.0324,0.013523,0.002678,0.000431,0.011048
3925000,0.0324,0.013523,0.002678,0.000431,0.010460
3926000,0.0324,0.013523,0.002678,0.000431,0.011165
3927000,0.0324,0.013523,0.002678,0.000431,0.011048
3928000,0.0324,0.013523,0.002678,0.000431,0.010578
3929000,0.0324,0.013523,0.002678,0.000431,0.011048
3930000,0.0324,0.013523,0.002678,0.000431,0.011048
3931000,0.0324,0.013523,0.002678,0.000431,0.011283
3932000,0.0324,0.013523,0.002678,0.000431,0.010813
3933000,0.0324,0.013523,0.002678,0.000431,0.011165
3934000,0.0324,0.013523,0.002678,0.000431,0.011048
3935000,0.0324,0.013523,0.002678,0.000431,0.011400
3936000,0.0324,0.013523,0.002678,0.000431,0.011165
3937000,0.0324,0.013523,0.002678,0.000431,0.011165
3938000,0.0324,0.013523,0.002678,0.000431,0.011165
3939000,0.0324,0.013523,0.002678,0.000431,0.010930
3940000,0.0324,0.013523,0.002678,0.000431,0.010813
3941000,0.0324,0.013523,0.002678,0.000431,0.011165
3942000,0.0324,0.013523,0.002678,0.000431,0.010813
3943000,0.0324,0.013523,0.002678,0.000431,0.010578
3944000,0.0324,0.013523,0.002678,0.000431,0.011048
3945000,0.0324,0.013523,0.002678,0.000431,0.011518
3946000,0.0324,0.013523,0.002678,0.000431,0.010342
3947000,0.0324,0.013523,0.002678,0.000431,0.011283
3948000,0.0324,0.013523,0.002678,0.000431,0.010695
3949000,0.0324,0.013523,0.002678,0.000431,0.011635
3950000,0.0324,0.013523,0.002678,0.000431,0.010578
3951000,0.0324,0.013523,0.002678,0.000431,0.010813
3952000,0.0324,0.013523,0.002678,0.000431,0.010460
3953000,0.0324,0.013523,0.002678,0.000431,0.011048
3954000,0.0324,0.013523,0.002678,0.000431,0.011400
3955000,0.0324,0.013523,0.002678,0.000431,0.011048
3956000,0.0324,0.013523,0.002678,0.000431,0.010813
3957000,0.0324,0.013523,0.002678,0.000431,0.011165
3958000,0.0324,0.013523,0.002678,0.000431,0.011283
3959000,0.0324,0.013523,0.002678,0.000431,0.010578
3960000,0.0324,0.013523,0.002678,0.000431,0.011400
3961000,0.0324,0.013523,0.002678,0.000431,0.010813
3962000,0.0324,0.013523,0.002678,0.000431,0.011283
3963000,0.0324,0.013523,0.002678,0.000431,0.011165
3964000,0.0324,0.013523,0.002678,0.000431,0.010813
3965000,0.0324,0.013523,0.002678,0.000431,0.011165
3966000,0.0324,0.013523,0.002678,0.000431,0.011048
3967000,0.0324,0.013523,0.002678,0.000431,0.010460
3968000,0.0324,0.013523,0.002678,0.000431,0.010342
3969000,0.0324,0.013523,0.002678,0.000431,0.010107
3970000,0.0324,0.013523,0.002678,0.000431,0.009520
3971000,0.0324,0.013523,0.002678,0.000431,0.009167
3972000,0.0324,0.013523,0.002678,0.000431,0.009285
3973000,0.0324,0.013523,0.002678,0.000431,0.009637
3974000,0.0324,0.013523,0.002678,0.000431,0.009402
3975000,0.0324,0.013523,0.002678,0.000431,0.009990
3976000,0.0324,0.013523,0.002678,0.000431,0.009637
3977000,0.0324,0.013523,0.002678,0.000431,0.009755
3978000,0.0324,0.013523,0.002678,0.000431,0.009050
3979000,0.0324,0.013523,0.002678,0.000431,0.009167
3980000,0.0324,0.013523,0.002678,0.000431,0.008932
3981000,0.0324,0.013523,0.002678,0.000431,0.008580
3982000,0.0324,0.013523,0.002678,0.000431,0.009167
3983000,0.0324,0.013523,0.002678,0.000431,0.009050
3984000,0.0324,0.013523,0.002678,0.000431,0.008815
3985000,0.0324,0.013523,0.002678,0.000431,0.008697
3986000,0.0324,0.013523,0.002678,0.000431,0.009285
3987000,0.0324,0.013523,0.002678,0.000431,0.008815
3988000,0.0324,0.013523,0.002678,0.000431,0.008697
3989000,0.0324,0.013523,0.002678,0.000431,0.008815
3990000,0.0324,0.013523,0.002678,0.000431,0.008697
3991000,0.0324,0.013523,0.002678,0.000431,0.008109
3992000,0.0324,0.013523,0.002678,0.000431,0.008109
3993000,0.0324,0.013523,0.002678,0.000431,0.008109
3994000,0.0324,0.013523,0.002678,0.000431,0.008227
3995000,0.0324,0.013523,0.002678,0.000431,0.008462
3996000,0.0324,0.013523,0.002678,0.000431,0.007757
3997000,0.0324,0.013523,0.002678,0.000431,0.008345
3998000,0.0324,0.013523,0.002678,0.000431,0.008462
3999000,0.0324,0.013523,0.002678,0.000431,0.007757
