Cycle,Area(mm^2),PeakDynamic(W),SubthresholdLeakage(W),GateLeakage(W),RunTimeDynamic(W)
1000000,0.0324,0.013523,0.002678,0.000431,0.871471
1001000,0.0324,0.013523,0.002678,0.000431,0.857133
1002000,0.0324,0.013523,0.002678,0.000431,0.749477
1003000,0.0324,0.013523,0.002678,0.000431,0.692359
1004000,0.0324,0.013523,0.002678,0.000431,0.672144
1005000,0.0324,0.013523,0.002678,0.000431,0.695297
1006000,0.0324,0.013523,0.002678,0.000431,0.707872
1007000,0.0324,0.013523,0.002678,0.000431,0.698352
1008000,0.0324,0.013523,0.002678,0.000431,0.727735
1009000,0.0324,0.013523,0.002678,0.000431,0.649461
1010000,0.0324,0.013523,0.002678,0.000431,0.685424
1011000,0.0324,0.013523,0.002678,0.000431,0.632889
1012000,0.0324,0.013523,0.002678,0.000431,0.605975
1013000,0.0324,0.013523,0.002678,0.000431,0.593987
1014000,0.0324,0.013523,0.002678,0.000431,0.566956
1015000,0.0324,0.013523,0.002678,0.000431,0.597631
1016000,0.0324,0.013523,0.002678,0.000431,0.623840
1017000,0.0324,0.013523,0.002678,0.000431,0.575653
1018000,0.0324,0.013523,0.002678,0.000431,0.643114
1019000,0.0324,0.013523,0.002678,0.000431,0.653692
1020000,0.0324,0.013523,0.002678,0.000431,0.608914
1021000,0.0324,0.013523,0.002678,0.000431,0.653104
1022000,0.0324,0.013523,0.002678,0.000431,0.601744
1023000,0.0324,0.013523,0.002678,0.000431,0.548504
1024000,0.0324,0.013523,0.002678,0.000431,0.518652
1025000,0.0324,0.013523,0.002678,0.000431,0.485156
1026000,0.0324,0.013523,0.002678,0.000431,0.412289
1027000,0.0324,0.013523,0.002678,0.000431,0.546271
1028000,0.0324,0.013523,0.002678,0.000431,0.776274
1029000,0.0324,0.013523,0.002678,0.000431,0.721976
1030000,0.0324,0.013523,0.002678,0.000431,0.803305
1031000,0.0324,0.013523,0.002678,0.000431,0.784383
1032000,0.0324,0.013523,0.002678,0.000431,0.813060
1033000,0.0324,0.013523,0.002678,0.000431,0.722093
1034000,0.0324,0.013523,0.002678,0.000431,0.726912
1035000,0.0324,0.013523,0.002678,0.000431,0.840327
1036000,0.0324,0.013523,0.002678,0.000431,0.921186
1037000,0.0324,0.013523,0.002678,0.000431,0.942694
1038000,0.0324,0.013523,0.002678,0.000431,0.916837
1039000,0.0324,0.013523,0.002678,0.000431,0.962086
1040000,0.0324,0.013523,0.002678,0.000431,0.926357
1041000,0.0324,0.013523,0.002678,0.000431,0.826106
1042000,0.0324,0.013523,0.002678,0.000431,0.779094
1043000,0.0324,0.013523,0.002678,0.000431,0.782738
1044000,0.0324,0.013523,0.002678,0.000431,0.787204
1045000,0.0324,0.013523,0.002678,0.000431,0.675434
1046000,0.0324,0.013523,0.002678,0.000431,0.672026
1047000,0.0324,0.013523,0.002678,0.000431,0.688128
1048000,0.0324,0.013523,0.002678,0.000431,0.640529
1049000,0.0324,0.013523,0.002678,0.000431,0.634535
1050000,0.0324,0.013523,0.002678,0.000431,0.614202
1051000,0.0324,0.013523,0.002678,0.000431,0.667090
1052000,0.0324,0.013523,0.002678,0.000431,0.618903
1053000,0.0324,0.013523,0.002678,0.000431,0.574125
1054000,0.0324,0.013523,0.002678,0.000431,0.550032
1055000,0.0324,0.013523,0.002678,0.000431,0.558024
1056000,0.0324,0.013523,0.002678,0.000431,0.554380
1057000,0.0324,0.013523,0.002678,0.000431,0.521355
1058000,0.0324,0.013523,0.002678,0.000431,0.432621
1059000,0.0324,0.013523,0.002678,0.000431,0.411114
1060000,0.0324,0.013523,0.002678,0.000431,0.410408
1061000,0.0324,0.013523,0.002678,0.000431,0.478575
1062000,0.0324,0.013523,0.002678,0.000431,0.536281
1063000,0.0324,0.013523,0.002678,0.000431,0.575065
1064000,0.0324,0.013523,0.002678,0.000431,0.738195
1065000,0.0324,0.013523,0.002678,0.000431,0.901441
1066000,0.0324,0.013523,0.002678,0.000431,0.948923
1067000,0.0324,0.013523,0.002678,0.000431,0.901559
1068000,0.0324,0.013523,0.002678,0.000431,0.851727
1069000,0.0324,0.013523,0.002678,0.000431,0.925652
1070000,0.0324,0.013523,0.002678,0.000431,0.930588
1071000,0.0324,0.013523,0.002678,0.000431,0.957267
1072000,0.0324,0.013523,0.002678,0.000431,0.914957
1073000,0.0324,0.013523,0.002678,0.000431,0.965141
1074000,0.0324,0.013523,0.002678,0.000431,0.900854
1075000,0.0324,0.013523,0.002678,0.000431,0.931411
1076000,0.0324,0.013523,0.002678,0.000431,0.977952
1077000,0.0324,0.013523,0.002678,0.000431,0.896623
1078000,0.0324,0.013523,0.002678,0.000431,0.859836
1079000,0.0324,0.013523,0.002678,0.000431,0.775098
1080000,0.0324,0.013523,0.002678,0.000431,0.724796
1081000,0.0324,0.013523,0.002678,0.000431,0.632067
1082000,0.0324,0.013523,0.002678,0.000431,0.691888
1083000,0.0324,0.013523,0.002678,0.000431,0.723503
1084000,0.0324,0.013523,0.002678,0.000431,0.684249
1085000,0.0324,0.013523,0.002678,0.000431,0.656865
1086000,0.0324,0.013523,0.002678,0.000431,0.605623
1087000,0.0324,0.013523,0.002678,0.000431,0.678725
1088000,0.0324,0.013523,0.002678,0.000431,0.911784
1089000,0.0324,0.013523,0.002678,0.000431,0.929648
1090000,0.0324,0.013523,0.002678,0.000431,0.895447
1091000,0.0324,0.013523,0.002678,0.000431,1.068096
1092000,0.0324,0.013523,0.002678,0.000431,1.127683
1093000,0.0324,0.013523,0.002678,0.000431,1.135675
1094000,0.0324,0.013523,0.002678,0.000431,1.020732
1095000,0.0324,0.013523,0.002678,0.000431,1.179983
1096000,0.0324,0.013523,0.002678,0.000431,1.178338
1097000,0.0324,0.013523,0.002678,0.000431,0.973368
1098000,0.0324,0.013523,0.002678,0.000431,0.946102
1099000,0.0324,0.013523,0.002678,0.000431,0.923419
1100000,0.0324,0.013523,0.002678,0.000431,0.851492
1101000,0.0324,0.013523,0.002678,0.000431,0.727029
1102000,0.0324,0.013523,0.002678,0.000431,0.726794
1103000,0.0324,0.013523,0.002678,0.000431,0.745011
1104000,0.0324,0.013523,0.002678,0.000431,0.604800
1105000,0.0324,0.013523,0.002678,0.000431,0.617493
1106000,0.0324,0.013523,0.002678,0.000431,0.701761
1107000,0.0324,0.013523,0.002678,0.000431,0.640881
1108000,0.0324,0.013523,0.002678,0.000431,0.678020
1109000,0.0324,0.013523,0.002678,0.000431,0.726089
1110000,0.0324,0.013523,0.002678,0.000431,0.683191
1111000,0.0324,0.013523,0.002678,0.000431,0.695767
1112000,0.0324,0.013523,0.002678,0.000431,0.718567
1113000,0.0324,0.013523,0.002678,0.000431,0.818466
1114000,0.0324,0.013523,0.002678,0.000431,0.848671
1115000,0.0324,0.013523,0.002678,0.000431,0.906612
1116000,0.0324,0.013523,0.002678,0.000431,0.983241
1117000,0.0324,0.013523,0.002678,0.000431,1.007804
1118000,0.0324,0.013523,0.002678,0.000431,1.029312
1119000,0.0324,0.013523,0.002678,0.000431,0.883577
1120000,0.0324,0.013523,0.002678,0.000431,0.918600
1121000,0.0324,0.013523,0.002678,0.000431,0.886985
1122000,0.0324,0.013523,0.002678,0.000431,0.776391
1123000,0.0324,0.013523,0.002678,0.000431,0.723739
1124000,0.0324,0.013523,0.002678,0.000431,0.651341
1125000,0.0324,0.013523,0.002678,0.000431,0.701761
1126000,0.0324,0.013523,0.002678,0.000431,0.755589
1127000,0.0324,0.013523,0.002678,0.000431,0.743131
1128000,0.0324,0.013523,0.002678,0.000431,0.657453
1129000,0.0324,0.013523,0.002678,0.000431,0.772983
1130000,0.0324,0.013523,0.002678,0.000431,0.923184
1131000,0.0324,0.013523,0.002678,0.000431,0.841032
1132000,0.0324,0.013523,0.002678,0.000431,0.778154
1133000,0.0324,0.013523,0.002678,0.000431,0.785323
1134000,0.0324,0.013523,0.002678,0.000431,0.798016
1135000,0.0324,0.013523,0.002678,0.000431,0.743836
1136000,0.0324,0.013523,0.002678,0.000431,0.632537
1137000,0.0324,0.013523,0.002678,0.000431,0.652869
1138000,0.0324,0.013523,0.002678,0.000431,0.568249
1139000,0.0324,0.013523,0.002678,0.000431,0.567426
1140000,0.0324,0.013523,0.002678,0.000431,0.582235
1141000,0.0324,0.013523,0.002678,0.000431,0.610676
1142000,0.0324,0.013523,0.002678,0.000431,0.658863
1143000,0.0324,0.013523,0.002678,0.000431,0.629951
1144000,0.0324,0.013523,0.002678,0.000431,0.677315
1145000,0.0324,0.013523,0.002678,0.000431,0.700703
1146000,0.0324,0.013523,0.002678,0.000431,0.672849
1147000,0.0324,0.013523,0.002678,0.000431,0.682251
1148000,0.0324,0.013523,0.002678,0.000431,0.736667
1149000,0.0324,0.013523,0.002678,0.000431,0.687070
1150000,0.0324,0.013523,0.002678,0.000431,0.766871
1151000,0.0324,0.013523,0.002678,0.000431,0.717392
1152000,0.0324,0.013523,0.002678,0.000431,0.589286
1153000,0.0324,0.013523,0.002678,0.000431,0.590814
1154000,0.0324,0.013523,0.002678,0.000431,0.635710
1155000,0.0324,0.013523,0.002678,0.000431,0.646758
1156000,0.0324,0.013523,0.002678,0.000431,0.627718
1157000,0.0324,0.013523,0.002678,0.000431,0.537809
1158000,0.0324,0.013523,0.002678,0.000431,0.583527
1159000,0.0324,0.013523,0.002678,0.000431,0.622194
1160000,0.0324,0.013523,0.002678,0.000431,0.771455
1161000,0.0324,0.013523,0.002678,0.000431,0.736079
1162000,0.0324,0.013523,0.002678,0.000431,0.684837
1163000,0.0324,0.013523,0.002678,0.000431,0.693416
1164000,0.0324,0.013523,0.002678,0.000431,0.679665
1165000,0.0324,0.013523,0.002678,0.000431,0.728440
1166000,0.0324,0.013523,0.002678,0.000431,0.776979
1167000,0.0324,0.013523,0.002678,0.000431,0.848553
1168000,0.0324,0.013523,0.002678,0.000431,0.711751
1169000,0.0324,0.013523,0.002678,0.000431,0.729850
1170000,0.0324,0.013523,0.002678,0.000431,0.846673
1171000,0.0324,0.013523,0.002678,0.000431,0.929178
1172000,0.0324,0.013523,0.002678,0.000431,0.908493
1173000,0.0324,0.013523,0.002678,0.000431,0.784971
1174000,0.0324,0.013523,0.002678,0.000431,0.928355
1175000,0.0324,0.013523,0.002678,0.000431,0.866300
1176000,0.0324,0.013523,0.002678,0.000431,0.764756
1177000,0.0324,0.013523,0.002678,0.000431,0.721388
1178000,0.0324,0.013523,0.002678,0.000431,0.657335
1179000,0.0324,0.013523,0.002678,0.000431,0.613615
1180000,0.0324,0.013523,0.002678,0.000431,0.694121
1181000,0.0324,0.013523,0.002678,0.000431,0.634652
1182000,0.0324,0.013523,0.002678,0.000431,0.722446
1183000,0.0324,0.013523,0.002678,0.000431,0.821992
1184000,0.0324,0.013523,0.002678,0.000431,0.850199
1185000,0.0324,0.013523,0.002678,0.000431,0.786851
1186000,0.0324,0.013523,0.002678,0.000431,0.803893
1187000,0.0324,0.013523,0.002678,0.000431,0.932586
1188000,0.0324,0.013523,0.002678,0.000431,0.805303
1189000,0.0324,0.013523,0.002678,0.000431,0.822697
1190000,0.0324,0.013523,0.002678,0.000431,0.912489
1191000,0.0324,0.013523,0.002678,0.000431,1.019322
1192000,0.0324,0.013523,0.002678,0.000431,0.998284
1193000,0.0324,0.013523,0.002678,0.000431,0.973133
1194000,0.0324,0.013523,0.002678,0.000431,0.884165
1195000,0.0324,0.013523,0.002678,0.000431,0.823755
1196000,0.0324,0.013523,0.002678,0.000431,0.827751
1197000,0.0324,0.013523,0.002678,0.000431,0.800132
1198000,0.0324,0.013523,0.002678,0.000431,0.733376
1199000,0.0324,0.013523,0.002678,0.000431,0.705404
1200000,0.0324,0.013523,0.002678,0.000431,0.662624
1201000,0.0324,0.013523,0.002678,0.000431,0.657688
1202000,0.0324,0.013523,0.002678,0.000431,0.620431
1203000,0.0324,0.013523,0.002678,0.000431,0.583762
1204000,0.0324,0.013523,0.002678,0.000431,0.564723
1205000,0.0324,0.013523,0.002678,0.000431,0.611499
1206000,0.0324,0.013523,0.002678,0.000431,0.625015
1207000,0.0324,0.013523,0.002678,0.000431,0.554145
1208000,0.0324,0.013523,0.002678,0.000431,0.563313
1209000,0.0324,0.013523,0.002678,0.000431,0.563078
1210000,0.0324,0.013523,0.002678,0.000431,0.477399
1211000,0.0324,0.013523,0.002678,0.000431,0.574360
1212000,0.0324,0.013523,0.002678,0.000431,0.605623
1213000,0.0324,0.013523,0.002678,0.000431,0.504548
1214000,0.0324,0.013523,0.002678,0.000431,0.678373
1215000,0.0324,0.013523,0.002678,0.000431,0.717980
1216000,0.0324,0.013523,0.002678,0.000431,0.948570
1217000,0.0324,0.013523,0.002678,0.000431,0.944456
1218000,0.0324,0.013523,0.002678,0.000431,0.832335
1219000,0.0324,0.013523,0.002678,0.000431,1.022730
1220000,0.0324,0.013523,0.002678,0.000431,1.063865
1221000,0.0324,0.013523,0.002678,0.000431,0.837976
1222000,0.0324,0.013523,0.002678,0.000431,0.887573
1223000,0.0324,0.013523,0.002678,0.000431,0.938580
1224000,0.0324,0.013523,0.002678,0.000431,0.800955
1225000,0.0324,0.013523,0.002678,0.000431,0.763110
1226000,0.0324,0.013523,0.002678,0.000431,0.774041
1227000,0.0324,0.013523,0.002678,0.000431,0.746539
1228000,0.0324,0.013523,0.002678,0.000431,0.649696
1229000,0.0324,0.013523,0.002678,0.000431,0.649343
1230000,0.0324,0.013523,0.002678,0.000431,0.617376
1231000,0.0324,0.013523,0.002678,0.000431,0.560609
1232000,0.0324,0.013523,0.002678,0.000431,0.631949
1233000,0.0324,0.013523,0.002678,0.000431,0.600099
1234000,0.0324,0.013523,0.002678,0.000431,0.522178
1235000,0.0324,0.013523,0.002678,0.000431,0.513481
1236000,0.0324,0.013523,0.002678,0.000431,0.585643
1237000,0.0324,0.013523,0.002678,0.000431,0.621959
1238000,0.0324,0.013523,0.002678,0.000431,0.573302
1239000,0.0324,0.013523,0.002678,0.000431,0.583645
1240000,0.0324,0.013523,0.002678,0.000431,0.563548
1241000,0.0324,0.013523,0.002678,0.000431,0.519122
1242000,0.0324,0.013523,0.002678,0.000431,0.551442
1243000,0.0324,0.013523,0.002678,0.000431,0.558964
1244000,0.0324,0.013523,0.002678,0.000431,0.563548
1245000,0.0324,0.013523,0.002678,0.000431,0.556966
1246000,0.0324,0.013523,0.002678,0.000431,0.558376
1247000,0.0324,0.013523,0.002678,0.000431,0.798839
1248000,0.0324,0.013523,0.002678,0.000431,0.718215
1249000,0.0324,0.013523,0.002678,0.000431,0.701761
1250000,0.0324,0.013523,0.002678,0.000431,0.713514
1251000,0.0324,0.013523,0.002678,0.000431,0.687540
1252000,0.0324,0.013523,0.002678,0.000431,0.683779
1253000,0.0324,0.013523,0.002678,0.000431,0.768752
1254000,0.0324,0.013523,0.002678,0.000431,0.832100
1255000,0.0324,0.013523,0.002678,0.000431,0.791435
1256000,0.0324,0.013523,0.002678,0.000431,0.714924
1257000,0.0324,0.013523,0.002678,0.000431,0.823285
1258000,0.0324,0.013523,0.002678,0.000431,0.878993
1259000,0.0324,0.013523,0.002678,0.000431,0.733376
1260000,0.0324,0.013523,0.002678,0.000431,0.737372
1261000,0.0324,0.013523,0.002678,0.000431,0.705639
1262000,0.0324,0.013523,0.002678,0.000431,0.653339
1263000,0.0324,0.013523,0.002678,0.000431,0.642174
1264000,0.0324,0.013523,0.002678,0.000431,0.648873
1265000,0.0324,0.013523,0.002678,0.000431,0.676257
1266000,0.0324,0.013523,0.002678,0.000431,0.649696
1267000,0.0324,0.013523,0.002678,0.000431,0.735609
1268000,0.0324,0.013523,0.002678,0.000431,0.760995
1269000,0.0324,0.013523,0.002678,0.000431,0.713514
1270000,0.0324,0.013523,0.002678,0.000431,0.740192
1271000,0.0324,0.013523,0.002678,0.000431,0.693886
1272000,0.0324,0.013523,0.002678,0.000431,0.697882
1273000,0.0324,0.013523,0.002678,0.000431,0.727147
1274000,0.0324,0.013523,0.002678,0.000431,0.762405
1275000,0.0324,0.013523,0.002678,0.000431,0.677080
1276000,0.0324,0.013523,0.002678,0.000431,0.710458
1277000,0.0324,0.013523,0.002678,0.000431,0.620901
1278000,0.0324,0.013523,0.002678,0.000431,0.776156
1279000,0.0324,0.013523,0.002678,0.000431,0.841737
1280000,0.0324,0.013523,0.002678,0.000431,0.766166
1281000,0.0324,0.013523,0.002678,0.000431,0.940108
1282000,0.0324,0.013523,0.002678,0.000431,0.871236
1283000,0.0324,0.013523,0.002678,0.000431,0.818231
1284000,0.0324,0.013523,0.002678,0.000431,0.984416
1285000,0.0324,0.013523,0.002678,0.000431,0.851022
1286000,0.0324,0.013523,0.002678,0.000431,0.760055
1287000,0.0324,0.013523,0.002678,0.000431,0.881579
1288000,0.0324,0.013523,0.002678,0.000431,0.742190
1289000,0.0324,0.013523,0.002678,0.000431,0.762640
1290000,0.0324,0.013523,0.002678,0.000431,0.919305
1291000,0.0324,0.013523,0.002678,0.000431,0.809652
1292000,0.0324,0.013523,0.002678,0.000431,0.786734
1293000,0.0324,0.013523,0.002678,0.000431,0.741015
1294000,0.0324,0.013523,0.002678,0.000431,0.685777
1295000,0.0324,0.013523,0.002678,0.000431,0.622429
1296000,0.0324,0.013523,0.002678,0.000431,0.598689
1297000,0.0324,0.013523,0.002678,0.000431,0.551090
1298000,0.0324,0.013523,0.002678,0.000431,0.563900
1299000,0.0324,0.013523,0.002678,0.000431,0.538162
1300000,0.0324,0.013523,0.002678,0.000431,0.574948
1301000,0.0324,0.013523,0.002678,0.000431,0.612322
1302000,0.0324,0.013523,0.002678,0.000431,0.555321
1303000,0.0324,0.013523,0.002678,0.000431,0.560844
1304000,0.0324,0.013523,0.002678,0.000431,0.517477
1305000,0.0324,0.013523,0.002678,0.000431,0.486097
1306000,0.0324,0.013523,0.002678,0.000431,0.528524
1307000,0.0324,0.013523,0.002678,0.000431,0.483276
1308000,0.0324,0.013523,0.002678,0.000431,0.446490
1309000,0.0324,0.013523,0.002678,0.000431,0.466587
1310000,0.0324,0.013523,0.002678,0.000431,0.422984
1311000,0.0324,0.013523,0.002678,0.000431,0.394542
1312000,0.0324,0.013523,0.002678,0.000431,0.393484
1313000,0.0324,0.013523,0.002678,0.000431,0.434032
1314000,0.0324,0.013523,0.002678,0.000431,0.444492
1315000,0.0324,0.013523,0.002678,0.000431,0.495264
1316000,0.0324,0.013523,0.002678,0.000431,0.396893
1317000,0.0324,0.013523,0.002678,0.000431,0.481748
1318000,0.0324,0.013523,0.002678,0.000431,0.614672
1319000,0.0324,0.013523,0.002678,0.000431,0.810239
1320000,0.0324,0.013523,0.002678,0.000431,0.654279
1321000,0.0324,0.013523,0.002678,0.000431,0.691771
1322000,0.0324,0.013523,0.002678,0.000431,0.703524
1323000,0.0324,0.013523,0.002678,0.000431,0.698823
1324000,0.0324,0.013523,0.002678,0.000431,0.660978
1325000,0.0324,0.013523,0.002678,0.000431,0.647815
1326000,0.0324,0.013523,0.002678,0.000431,0.641704
1327000,0.0324,0.013523,0.002678,0.000431,0.706227
1328000,0.0324,0.013523,0.002678,0.000431,0.717862
1329000,0.0324,0.013523,0.002678,0.000431,0.640646
1330000,0.0324,0.013523,0.002678,0.000431,0.774276
1331000,0.0324,0.013523,0.002678,0.000431,0.699998
1332000,0.0324,0.013523,0.002678,0.000431,0.788967
1333000,0.0324,0.013523,0.002678,0.000431,0.887573
1334000,0.0324,0.013523,0.002678,0.000431,0.822697
1335000,0.0324,0.013523,0.002678,0.000431,0.709870
1336000,0.0324,0.013523,0.002678,0.000431,0.760877
1337000,0.0324,0.013523,0.002678,0.000431,0.825871
1338000,0.0324,0.013523,0.002678,0.000431,0.713396
1339000,0.0324,0.013523,0.002678,0.000431,0.681781
1340000,0.0324,0.013523,0.002678,0.000431,0.608208
1341000,0.0324,0.013523,0.002678,0.000431,0.623487
1342000,0.0324,0.013523,0.002678,0.000431,0.562372
1343000,0.0324,0.013523,0.002678,0.000431,0.567779
1344000,0.0324,0.013523,0.002678,0.000431,0.552618
1345000,0.0324,0.013523,0.002678,0.000431,0.466822
1346000,0.0324,0.013523,0.002678,0.000431,0.560374
1347000,0.0324,0.013523,0.002678,0.000431,0.534048
1348000,0.0324,0.013523,0.002678,0.000431,0.486567
1349000,0.0324,0.013523,0.002678,0.000431,0.537809
1350000,0.0324,0.013523,0.002678,0.000431,0.553558
1351000,0.0324,0.013523,0.002678,0.000431,0.579649
1352000,0.0324,0.013523,0.002678,0.000431,0.501140
1353000,0.0324,0.013523,0.002678,0.000431,0.569777
1354000,0.0324,0.013523,0.002678,0.000431,0.574243
1355000,0.0324,0.013523,0.002678,0.000431,0.500200
1356000,0.0324,0.013523,0.002678,0.000431,0.634182
1357000,0.0324,0.013523,0.002678,0.000431,0.678020
1358000,0.0324,0.013523,0.002678,0.000431,0.686952
1359000,0.0324,0.013523,0.002678,0.000431,0.602802
1360000,0.0324,0.013523,0.002678,0.000431,0.739840
1361000,0.0324,0.013523,0.002678,0.000431,0.741250
1362000,0.0324,0.013523,0.002678,0.000431,0.611969
1363000,0.0324,0.013523,0.002678,0.000431,0.606093
1364000,0.0324,0.013523,0.002678,0.000431,0.677550
1365000,0.0324,0.013523,0.002678,0.000431,0.675199
1366000,0.0324,0.013523,0.002678,0.000431,0.626425
1367000,0.0324,0.013523,0.002678,0.000431,0.495851
1368000,0.0324,0.013523,0.002678,0.000431,0.499730
1369000,0.0324,0.013523,0.002678,0.000431,0.496909
1370000,0.0324,0.013523,0.002678,0.000431,0.558964
1371000,0.0324,0.013523,0.002678,0.000431,0.572480
1372000,0.0324,0.013523,0.002678,0.000431,0.523706
1373000,0.0324,0.013523,0.002678,0.000431,0.529582
1374000,0.0324,0.013523,0.002678,0.000431,0.623840
1375000,0.0324,0.013523,0.002678,0.000431,0.613850
1376000,0.0324,0.013523,0.002678,0.000431,0.575418
1377000,0.0324,0.013523,0.002678,0.000431,0.579767
1378000,0.0324,0.013523,0.002678,0.000431,0.644525
1379000,0.0324,0.013523,0.002678,0.000431,0.696002
1380000,0.0324,0.013523,0.002678,0.000431,0.682839
1381000,0.0324,0.013523,0.002678,0.000431,0.637825
1382000,0.0324,0.013523,0.002678,0.000431,0.599629
1383000,0.0324,0.013523,0.002678,0.000431,0.578826
1384000,0.0324,0.013523,0.002678,0.000431,0.544978
1385000,0.0324,0.013523,0.002678,0.000431,0.458125
1386000,0.0324,0.013523,0.002678,0.000431,0.452013
1387000,0.0324,0.013523,0.002678,0.000431,0.559904
1388000,0.0324,0.013523,0.002678,0.000431,0.450956
1389000,0.0324,0.013523,0.002678,0.000431,0.374327
1390000,0.0324,0.013523,0.002678,0.000431,0.481630
1391000,0.0324,0.013523,0.002678,0.000431,0.562137
1392000,0.0324,0.013523,0.002678,0.000431,0.527937
1393000,0.0324,0.013523,0.002678,0.000431,0.585173
1394000,0.0324,0.013523,0.002678,0.000431,0.563665
1395000,0.0324,0.013523,0.002678,0.000431,0.556849
1396000,0.0324,0.013523,0.002678,0.000431,0.691888
1397000,0.0324,0.013523,0.002678,0.000431,0.606210
1398000,0.0324,0.013523,0.002678,0.000431,0.573773
1399000,0.0324,0.013523,0.002678,0.000431,0.599394
1400000,0.0324,0.013523,0.002678,0.000431,0.744424
1401000,0.0324,0.013523,0.002678,0.000431,0.745481
1402000,0.0324,0.013523,0.002678,0.000431,0.827986
1403000,0.0324,0.013523,0.002678,0.000431,0.796959
1404000,0.0324,0.013523,0.002678,0.000431,0.738430
1405000,0.0324,0.013523,0.002678,0.000431,0.793198
1406000,0.0324,0.013523,0.002678,0.000431,0.720683
1407000,0.0324,0.013523,0.002678,0.000431,0.709283
1408000,0.0324,0.013523,0.002678,0.000431,0.731378
1409000,0.0324,0.013523,0.002678,0.000431,0.615730
1410000,0.0324,0.013523,0.002678,0.000431,0.643114
1411000,0.0324,0.013523,0.002678,0.000431,0.680723
1412000,0.0324,0.013523,0.002678,0.000431,0.530992
1413000,0.0324,0.013523,0.002678,0.000431,0.597396
1414000,0.0324,0.013523,0.002678,0.000431,0.526526
1415000,0.0324,0.013523,0.002678,0.000431,0.534753
1416000,0.0324,0.013523,0.002678,0.000431,0.524176
1417000,0.0324,0.013523,0.002678,0.000431,0.487389
1418000,0.0324,0.013523,0.002678,0.000431,0.593987
1419000,0.0324,0.013523,0.002678,0.000431,0.659333
1420000,0.0324,0.013523,0.002678,0.000431,0.580589
1421000,0.0324,0.013523,0.002678,0.000431,0.559317
1422000,0.0324,0.013523,0.002678,0.000431,0.712456
1423000,0.0324,0.013523,0.002678,0.000431,0.711751
1424000,0.0324,0.013523,0.002678,0.000431,0.674494
1425000,0.0324,0.013523,0.002678,0.000431,0.707990
1426000,0.0324,0.013523,0.002678,0.000431,0.770045
1427000,0.0324,0.013523,0.002678,0.000431,0.711751
1428000,0.0324,0.013523,0.002678,0.000431,0.769457
1429000,0.0324,0.013523,0.002678,0.000431,0.799779
1430000,0.0324,0.013523,0.002678,0.000431,0.731966
1431000,0.0324,0.013523,0.002678,0.000431,0.745481
1432000,0.0324,0.013523,0.002678,0.000431,0.719625
1433000,0.0324,0.013523,0.002678,0.000431,0.747714
1434000,0.0324,0.013523,0.002678,0.000431,0.798251
1435000,0.0324,0.013523,0.002678,0.000431,0.785793
1436000,0.0324,0.013523,0.002678,0.000431,0.690125
1437000,0.0324,0.013523,0.002678,0.000431,0.780387
1438000,0.0324,0.013523,0.002678,0.000431,0.816938
1439000,0.0324,0.013523,0.002678,0.000431,0.712691
1440000,0.0324,0.013523,0.002678,0.000431,0.641704
1441000,0.0324,0.013523,0.002678,0.000431,0.626543
1442000,0.0324,0.013523,0.002678,0.000431,0.590109
1443000,0.0324,0.013523,0.002678,0.000431,0.570952
1444000,0.0324,0.013523,0.002678,0.000431,0.621019
1445000,0.0324,0.013523,0.002678,0.000431,0.588464
1446000,0.0324,0.013523,0.002678,0.000431,0.606328
1447000,0.0324,0.013523,0.002678,0.000431,0.591402
1448000,0.0324,0.013523,0.002678,0.000431,0.529464
1449000,0.0324,0.013523,0.002678,0.000431,0.563665
1450000,0.0324,0.013523,0.002678,0.000431,0.668383
1451000,0.0324,0.013523,0.002678,0.000431,0.634770
1452000,0.0324,0.013523,0.002678,0.000431,0.692829
1453000,0.0324,0.013523,0.002678,0.000431,0.815528
1454000,0.0324,0.013523,0.002678,0.000431,0.695297
1455000,0.0324,0.013523,0.002678,0.000431,0.706814
1456000,0.0324,0.013523,0.002678,0.000431,0.766519
1457000,0.0324,0.013523,0.002678,0.000431,0.715159
1458000,0.0324,0.013523,0.002678,0.000431,0.766049
1459000,0.0324,0.013523,0.002678,0.000431,0.701408
1460000,0.0324,0.013523,0.002678,0.000431,0.720918
1461000,0.0324,0.013523,0.002678,0.000431,0.885692
1462000,0.0324,0.013523,0.002678,0.000431,0.855018
1463000,0.0324,0.013523,0.002678,0.000431,0.868063
1464000,0.0324,0.013523,0.002678,0.000431,0.832452
1465000,0.0324,0.013523,0.002678,0.000431,0.754061
1466000,0.0324,0.013523,0.002678,0.000431,0.781797
1467000,0.0324,0.013523,0.002678,0.000431,0.792375
1468000,0.0324,0.013523,0.002678,0.000431,0.684367
1469000,0.0324,0.013523,0.002678,0.000431,0.751005
1470000,0.0324,0.013523,0.002678,0.000431,0.781797
1471000,0.0324,0.013523,0.002678,0.000431,0.728910
1472000,0.0324,0.013523,0.002678,0.000431,0.687070
1473000,0.0324,0.013523,0.002678,0.000431,0.785206
1474000,0.0324,0.013523,0.002678,0.000431,0.723974
1475000,0.0324,0.013523,0.002678,0.000431,0.637120
1476000,0.0324,0.013523,0.002678,0.000431,0.754413
1477000,0.0324,0.013523,0.002678,0.000431,0.684014
1478000,0.0324,0.013523,0.002678,0.000431,0.575065
1479000,0.0324,0.013523,0.002678,0.000431,0.567426
1480000,0.0324,0.013523,0.002678,0.000431,0.555556
1481000,0.0324,0.013523,0.002678,0.000431,0.563078
1482000,0.0324,0.013523,0.002678,0.000431,0.573890
1483000,0.0324,0.013523,0.002678,0.000431,0.526761
1484000,0.0324,0.013523,0.002678,0.000431,0.505841
1485000,0.0324,0.013523,0.002678,0.000431,0.519240
1486000,0.0324,0.013523,0.002678,0.000431,0.476224
1487000,0.0324,0.013523,0.002678,0.000431,0.537809
1488000,0.0324,0.013523,0.002678,0.000431,0.470230
1489000,0.0324,0.013523,0.002678,0.000431,0.525586
1490000,0.0324,0.013523,0.002678,0.000431,0.512305
1491000,0.0324,0.013523,0.002678,0.000431,0.443786
1492000,0.0324,0.013523,0.002678,0.000431,0.515361
1493000,0.0324,0.013523,0.002678,0.000431,0.570482
1494000,0.0324,0.013523,0.002678,0.000431,0.570599
1495000,0.0324,0.013523,0.002678,0.000431,0.697060
1496000,0.0324,0.013523,0.002678,0.000431,0.680488
1497000,0.0324,0.013523,0.002678,0.000431,0.717392
1498000,0.0324,0.013523,0.002678,0.000431,0.721976
1499000,0.0324,0.013523,0.002678,0.000431,0.725266
1500000,0.0324,0.013523,0.002678,0.000431,0.705522
1501000,0.0324,0.013523,0.002678,0.000431,0.647228
1502000,0.0324,0.013523,0.002678,0.000431,0.637355
1503000,0.0324,0.013523,0.002678,0.000431,0.663564
1504000,0.0324,0.013523,0.002678,0.000431,0.691888
1505000,0.0324,0.013523,0.002678,0.000431,0.698470
1506000,0.0324,0.013523,0.002678,0.000431,0.741133
1507000,0.0324,0.013523,0.002678,0.000431,0.815293
1508000,0.0324,0.013523,0.002678,0.000431,0.708695
1509000,0.0324,0.013523,0.002678,0.000431,0.790377
1510000,0.0324,0.013523,0.002678,0.000431,0.737137
1511000,0.0324,0.013523,0.002678,0.000431,0.724091
1512000,0.0324,0.013523,0.002678,0.000431,0.759232
1513000,0.0324,0.013523,0.002678,0.000431,0.637473
1514000,0.0324,0.013523,0.002678,0.000431,0.634300
1515000,0.0324,0.013523,0.002678,0.000431,0.734669
1516000,0.0324,0.013523,0.002678,0.000431,0.723386
1517000,0.0324,0.013523,0.002678,0.000431,0.718685
1518000,0.0324,0.013523,0.002678,0.000431,0.764991
1519000,0.0324,0.013523,0.002678,0.000431,0.829044
1520000,0.0324,0.013523,0.002678,0.000431,0.704817
1521000,0.0324,0.013523,0.002678,0.000431,0.686952
1522000,0.0324,0.013523,0.002678,0.000431,0.714689
1523000,0.0324,0.013523,0.002678,0.000431,0.609736
1524000,0.0324,0.013523,0.002678,0.000431,0.574595
1525000,0.0324,0.013523,0.002678,0.000431,0.595633
1526000,0.0324,0.013523,0.002678,0.000431,0.490210
1527000,0.0324,0.013523,0.002678,0.000431,0.452248
1528000,0.0324,0.013523,0.002678,0.000431,0.517594
1529000,0.0324,0.013523,0.002678,0.000431,0.602567
1530000,0.0324,0.013523,0.002678,0.000431,0.519827
1531000,0.0324,0.013523,0.002678,0.000431,0.579767
1532000,0.0324,0.013523,0.002678,0.000431,0.519004
1533000,0.0324,0.013523,0.002678,0.000431,0.564135
1534000,0.0324,0.013523,0.002678,0.000431,0.540747
1535000,0.0324,0.013523,0.002678,0.000431,0.485156
1536000,0.0324,0.013523,0.002678,0.000431,0.460358
1537000,0.0324,0.013523,0.002678,0.000431,0.523118
1538000,0.0324,0.013523,0.002678,0.000431,0.481160
1539000,0.0324,0.013523,0.002678,0.000431,0.534518
1540000,0.0324,0.013523,0.002678,0.000431,0.550267
1541000,0.0324,0.013523,0.002678,0.000431,0.597748
1542000,0.0324,0.013523,0.002678,0.000431,0.705287
1543000,0.0324,0.013523,0.002678,0.000431,0.691771
1544000,0.0324,0.013523,0.002678,0.000431,0.605623
1545000,0.0324,0.013523,0.002678,0.000431,0.618316
1546000,0.0324,0.013523,0.002678,0.000431,0.648873
1547000,0.0324,0.013523,0.002678,0.000431,0.648521
1548000,0.0324,0.013523,0.002678,0.000431,0.613145
1549000,0.0324,0.013523,0.002678,0.000431,0.643467
1550000,0.0324,0.013523,0.002678,0.000431,0.568484
1551000,0.0324,0.013523,0.002678,0.000431,0.504313
1552000,0.0324,0.013523,0.002678,0.000431,0.646170
1553000,0.0324,0.013523,0.002678,0.000431,0.669088
1554000,0.0324,0.013523,0.002678,0.000431,0.597983
1555000,0.0324,0.013523,0.002678,0.000431,0.598454
1556000,0.0324,0.013523,0.002678,0.000431,0.746421
1557000,0.0324,0.013523,0.002678,0.000431,0.804363
1558000,0.0324,0.013523,0.002678,0.000431,0.810592
1559000,0.0324,0.013523,0.002678,0.000431,0.842442
1560000,0.0324,0.013523,0.002678,0.000431,0.696354
1561000,0.0324,0.013523,0.002678,0.000431,0.682369
1562000,0.0324,0.013523,0.002678,0.000431,0.753473
1563000,0.0324,0.013523,0.002678,0.000431,0.843735
1564000,0.0324,0.013523,0.002678,0.000431,0.625720
1565000,0.0324,0.013523,0.002678,0.000431,0.623722
1566000,0.0324,0.013523,0.002678,0.000431,0.697295
1567000,0.0324,0.013523,0.002678,0.000431,0.684837
1568000,0.0324,0.013523,0.002678,0.000431,0.585055
1569000,0.0324,0.013523,0.002678,0.000431,0.586466
1570000,0.0324,0.013523,0.002678,0.000431,0.659451
1571000,0.0324,0.013523,0.002678,0.000431,0.607738
1572000,0.0324,0.013523,0.002678,0.000431,0.715982
1573000,0.0324,0.013523,0.002678,0.000431,0.840209
1574000,0.0324,0.013523,0.002678,0.000431,0.826928
1575000,0.0324,0.013523,0.002678,0.000431,0.750300
1576000,0.0324,0.013523,0.002678,0.000431,0.841737
1577000,0.0324,0.013523,0.002678,0.000431,0.797664
1578000,0.0324,0.013523,0.002678,0.000431,0.689538
1579000,0.0324,0.013523,0.002678,0.000431,0.675199
1580000,0.0324,0.013523,0.002678,0.000431,0.649226
1581000,0.0324,0.013523,0.002678,0.000431,0.586583
1582000,0.0324,0.013523,0.002678,0.000431,0.721976
1583000,0.0324,0.013523,0.002678,0.000431,0.854430
1584000,0.0324,0.013523,0.002678,0.000431,0.730438
1585000,0.0324,0.013523,0.002678,0.000431,0.741603
1586000,0.0324,0.013523,0.002678,0.000431,0.743366
1587000,0.0324,0.013523,0.002678,0.000431,0.708107
1588000,0.0324,0.013523,0.002678,0.000431,0.765931
1589000,0.0324,0.013523,0.002678,0.000431,0.827281
1590000,0.0324,0.013523,0.002678,0.000431,0.767106
1591000,0.0324,0.013523,0.002678,0.000431,0.689655
1592000,0.0324,0.013523,0.002678,0.000431,0.707637
1593000,0.0324,0.013523,0.002678,0.000431,0.627013
1594000,0.0324,0.013523,0.002678,0.000431,0.638413
1595000,0.0324,0.013523,0.002678,0.000431,0.694944
1596000,0.0324,0.013523,0.002678,0.000431,0.638883
1597000,0.0324,0.013523,0.002678,0.000431,0.568719
1598000,0.0324,0.013523,0.002678,0.000431,0.642644
1599000,0.0324,0.013523,0.002678,0.000431,0.667795
1600000,0.0324,0.013523,0.002678,0.000431,0.697412
1601000,0.0324,0.013523,0.002678,0.000431,0.683426
1602000,0.0324,0.013523,0.002678,0.000431,0.708460
1603000,0.0324,0.013523,0.002678,0.000431,0.656630
1604000,0.0324,0.013523,0.002678,0.000431,0.651224
1605000,0.0324,0.013523,0.002678,0.000431,0.643467
1606000,0.0324,0.013523,0.002678,0.000431,0.604918
1607000,0.0324,0.013523,0.002678,0.000431,0.649343
1608000,0.0324,0.013523,0.002678,0.000431,0.799662
1609000,0.0324,0.013523,0.002678,0.000431,0.769575
1610000,0.0324,0.013523,0.002678,0.000431,0.629363
1611000,0.0324,0.013523,0.002678,0.000431,0.626425
1612000,0.0324,0.013523,0.002678,0.000431,0.631244
1613000,0.0324,0.013523,0.002678,0.000431,0.701173
1614000,0.0324,0.013523,0.002678,0.000431,0.738195
1615000,0.0324,0.013523,0.002678,0.000431,0.626895
1616000,0.0324,0.013523,0.002678,0.000431,0.642174
1617000,0.0324,0.013523,0.002678,0.000431,0.658393
1618000,0.0324,0.013523,0.002678,0.000431,0.751005
1619000,0.0324,0.013523,0.002678,0.000431,0.576358
1620000,0.0324,0.013523,0.002678,0.000431,0.596338
1621000,0.0324,0.013523,0.002678,0.000431,0.595868
1622000,0.0324,0.013523,0.002678,0.000431,0.546389
1623000,0.0324,0.013523,0.002678,0.000431,0.539337
1624000,0.0324,0.013523,0.002678,0.000431,0.510307
1625000,0.0324,0.013523,0.002678,0.000431,0.476812
1626000,0.0324,0.013523,0.002678,0.000431,0.513481
1627000,0.0324,0.013523,0.002678,0.000431,0.563665
1628000,0.0324,0.013523,0.002678,0.000431,0.449663
1629000,0.0324,0.013523,0.002678,0.000431,0.605035
1630000,0.0324,0.013523,0.002678,0.000431,0.565193
1631000,0.0324,0.013523,0.002678,0.000431,0.463884
1632000,0.0324,0.013523,0.002678,0.000431,0.569189
1633000,0.0324,0.013523,0.002678,0.000431,0.605858
1634000,0.0324,0.013523,0.002678,0.000431,0.673319
1635000,0.0324,0.013523,0.002678,0.000431,0.679901
1636000,0.0324,0.013523,0.002678,0.000431,0.574948
1637000,0.0324,0.013523,0.002678,0.000431,0.649108
1638000,0.0324,0.013523,0.002678,0.000431,0.672261
1639000,0.0324,0.013523,0.002678,0.000431,0.735256
1640000,0.0324,0.013523,0.002678,0.000431,0.744776
1641000,0.0324,0.013523,0.002678,0.000431,0.659451
1642000,0.0324,0.013523,0.002678,0.000431,0.609031
1643000,0.0324,0.013523,0.002678,0.000431,0.619138
1644000,0.0324,0.013523,0.002678,0.000431,0.691888
1645000,0.0324,0.013523,0.002678,0.000431,0.688128
1646000,0.0324,0.013523,0.002678,0.000431,0.647345
1647000,0.0324,0.013523,0.002678,0.000431,0.625250
1648000,0.0324,0.013523,0.002678,0.000431,0.710810
1649000,0.0324,0.013523,0.002678,0.000431,0.727735
1650000,0.0324,0.013523,0.002678,0.000431,0.768752
1651000,0.0324,0.013523,0.002678,0.000431,0.716452
1652000,0.0324,0.013523,0.002678,0.000431,0.706814
1653000,0.0324,0.013523,0.002678,0.000431,0.804128
1654000,0.0324,0.013523,0.002678,0.000431,0.801660
1655000,0.0324,0.013523,0.002678,0.000431,0.753356
1656000,0.0324,0.013523,0.002678,0.000431,0.734669
1657000,0.0324,0.013523,0.002678,0.000431,0.662976
1658000,0.0324,0.013523,0.002678,0.000431,0.616905
1659000,0.0324,0.013523,0.002678,0.000431,0.766871
1660000,0.0324,0.013523,0.002678,0.000431,0.745481
1661000,0.0324,0.013523,0.002678,0.000431,0.696002
1662000,0.0324,0.013523,0.002678,0.000431,0.774393
1663000,0.0324,0.013523,0.002678,0.000431,0.677315
1664000,0.0324,0.013523,0.002678,0.000431,0.741603
1665000,0.0324,0.013523,0.002678,0.000431,0.694944
1666000,0.0324,0.013523,0.002678,0.000431,0.645582
1667000,0.0324,0.013523,0.002678,0.000431,0.681781
1668000,0.0324,0.013523,0.002678,0.000431,0.724914
1669000,0.0324,0.013523,0.002678,0.000431,0.647110
1670000,0.0324,0.013523,0.002678,0.000431,0.555673
1671000,0.0324,0.013523,0.002678,0.000431,0.599511
1672000,0.0324,0.013523,0.002678,0.000431,0.616435
1673000,0.0324,0.013523,0.002678,0.000431,0.577416
1674000,0.0324,0.013523,0.002678,0.000431,0.548386
1675000,0.0324,0.013523,0.002678,0.000431,0.542980
1676000,0.0324,0.013523,0.002678,0.000431,0.548622
1677000,0.0324,0.013523,0.002678,0.000431,0.526996
1678000,0.0324,0.013523,0.002678,0.000431,0.544861
1679000,0.0324,0.013523,0.002678,0.000431,0.615143
1680000,0.0324,0.013523,0.002678,0.000431,0.675670
1681000,0.0324,0.013523,0.002678,0.000431,0.641586
1682000,0.0324,0.013523,0.002678,0.000431,0.570834
1683000,0.0324,0.013523,0.002678,0.000431,0.617140
1684000,0.0324,0.013523,0.002678,0.000431,0.698705
1685000,0.0324,0.013523,0.002678,0.000431,0.681781
1686000,0.0324,0.013523,0.002678,0.000431,0.606210
1687000,0.0324,0.013523,0.002678,0.000431,0.596456
1688000,0.0324,0.013523,0.002678,0.000431,0.605623
1689000,0.0324,0.013523,0.002678,0.000431,0.510190
1690000,0.0324,0.013523,0.002678,0.000431,0.485626
1691000,0.0324,0.013523,0.002678,0.000431,0.492326
1692000,0.0324,0.013523,0.002678,0.000431,0.507839
1693000,0.0324,0.013523,0.002678,0.000431,0.569542
1694000,0.0324,0.013523,0.002678,0.000431,0.528994
1695000,0.0324,0.013523,0.002678,0.000431,0.594222
1696000,0.0324,0.013523,0.002678,0.000431,0.665562
1697000,0.0324,0.013523,0.002678,0.000431,0.689420
1698000,0.0324,0.013523,0.002678,0.000431,0.669441
1699000,0.0324,0.013523,0.002678,0.000431,0.668030
1700000,0.0324,0.013523,0.002678,0.000431,0.656277
1701000,0.0324,0.013523,0.002678,0.000431,0.722093
1702000,0.0324,0.013523,0.002678,0.000431,0.697647
1703000,0.0324,0.013523,0.002678,0.000431,0.728087
1704000,0.0324,0.013523,0.002678,0.000431,0.695297
1705000,0.0324,0.013523,0.002678,0.000431,0.655337
1706000,0.0324,0.013523,0.002678,0.000431,0.708225
1707000,0.0324,0.013523,0.002678,0.000431,0.686835
1708000,0.0324,0.013523,0.002678,0.000431,0.706579
1709000,0.0324,0.013523,0.002678,0.000431,0.769810
1710000,0.0324,0.013523,0.002678,0.000431,0.698588
1711000,0.0324,0.013523,0.002678,0.000431,0.690831
1712000,0.0324,0.013523,0.002678,0.000431,0.732201
1713000,0.0324,0.013523,0.002678,0.000431,0.729968
1714000,0.0324,0.013523,0.002678,0.000431,0.665210
1715000,0.0324,0.013523,0.002678,0.000431,0.632419
1716000,0.0324,0.013523,0.002678,0.000431,0.750300
1717000,0.0324,0.013523,0.002678,0.000431,0.738430
1718000,0.0324,0.013523,0.002678,0.000431,0.671674
1719000,0.0324,0.013523,0.002678,0.000431,0.605388
1720000,0.0324,0.013523,0.002678,0.000431,0.688128
1721000,0.0324,0.013523,0.002678,0.000431,0.608914
1722000,0.0324,0.013523,0.002678,0.000431,0.787791
1723000,0.0324,0.013523,0.002678,0.000431,0.794255
1724000,0.0324,0.013523,0.002678,0.000431,0.773100
1725000,0.0324,0.013523,0.002678,0.000431,0.792493
1726000,0.0324,0.013523,0.002678,0.000431,0.798369
1727000,0.0324,0.013523,0.002678,0.000431,0.825871
1728000,0.0324,0.013523,0.002678,0.000431,0.796488
1729000,0.0324,0.013523,0.002678,0.000431,0.772513
1730000,0.0324,0.013523,0.002678,0.000431,0.793668
1731000,0.0324,0.013523,0.002678,0.000431,0.775804
1732000,0.0324,0.013523,0.002678,0.000431,0.676727
1733000,0.0324,0.013523,0.002678,0.000431,0.746186
1734000,0.0324,0.013523,0.002678,0.000431,0.741485
1735000,0.0324,0.013523,0.002678,0.000431,0.644877
1736000,0.0324,0.013523,0.002678,0.000431,0.584703
1737000,0.0324,0.013523,0.002678,0.000431,0.640294
1738000,0.0324,0.013523,0.002678,0.000431,0.678608
1739000,0.0324,0.013523,0.002678,0.000431,0.588934
1740000,0.0324,0.013523,0.002678,0.000431,0.621019
1741000,0.0324,0.013523,0.002678,0.000431,0.674964
1742000,0.0324,0.013523,0.002678,0.000431,0.634770
1743000,0.0324,0.013523,0.002678,0.000431,0.733728
1744000,0.0324,0.013523,0.002678,0.000431,0.731495
1745000,0.0324,0.013523,0.002678,0.000431,0.705639
1746000,0.0324,0.013523,0.002678,0.000431,0.721153
1747000,0.0324,0.013523,0.002678,0.000431,0.744776
1748000,0.0324,0.013523,0.002678,0.000431,0.653809
1749000,0.0324,0.013523,0.002678,0.000431,0.615965
1750000,0.0324,0.013523,0.002678,0.000431,0.607268
1751000,0.0324,0.013523,0.002678,0.000431,0.588816
1752000,0.0324,0.013523,0.002678,0.000431,0.547681
1753000,0.0324,0.013523,0.002678,0.000431,0.578004
1754000,0.0324,0.013523,0.002678,0.000431,0.596103
1755000,0.0324,0.013523,0.002678,0.000431,0.507134
1756000,0.0324,0.013523,0.002678,0.000431,0.552030
1757000,0.0324,0.013523,0.002678,0.000431,0.622782
1758000,0.0324,0.013523,0.002678,0.000431,0.547094
1759000,0.0324,0.013523,0.002678,0.000431,0.479633
1760000,0.0324,0.013523,0.002678,0.000431,0.511835
1761000,0.0324,0.013523,0.002678,0.000431,0.544391
1762000,0.0324,0.013523,0.002678,0.000431,0.574948
1763000,0.0324,0.013523,0.002678,0.000431,0.643702
1764000,0.0324,0.013523,0.002678,0.000431,0.623369
1765000,0.0324,0.013523,0.002678,0.000431,0.545448
1766000,0.0324,0.013523,0.002678,0.000431,0.558847
1767000,0.0324,0.013523,0.002678,0.000431,0.583175
1768000,0.0324,0.013523,0.002678,0.000431,0.608678
1769000,0.0324,0.013523,0.002678,0.000431,0.525233
1770000,0.0324,0.013523,0.002678,0.000431,0.460710
1771000,0.0324,0.013523,0.002678,0.000431,0.469995
1772000,0.0324,0.013523,0.002678,0.000431,0.491150
1773000,0.0324,0.013523,0.002678,0.000431,0.488447
1774000,0.0324,0.013523,0.002678,0.000431,0.426510
1775000,0.0324,0.013523,0.002678,0.000431,0.677315
1776000,0.0324,0.013523,0.002678,0.000431,0.904027
1777000,0.0324,0.013523,0.002678,0.000431,0.744894
1778000,0.0324,0.013523,0.002678,0.000431,0.891569
1779000,0.0324,0.013523,0.002678,0.000431,0.868416
1780000,0.0324,0.013523,0.002678,0.000431,0.877230
1781000,0.0324,0.013523,0.002678,0.000431,0.807536
1782000,0.0324,0.013523,0.002678,0.000431,0.892274
1783000,0.0324,0.013523,0.002678,0.000431,0.795901
1784000,0.0324,0.013523,0.002678,0.000431,0.768634
1785000,0.0324,0.013523,0.002678,0.000431,0.805538
1786000,0.0324,0.013523,0.002678,0.000431,0.680841
1787000,0.0324,0.013523,0.002678,0.000431,0.755824
1788000,0.0324,0.013523,0.002678,0.000431,0.668500
1789000,0.0324,0.013523,0.002678,0.000431,0.624075
1790000,0.0324,0.013523,0.002678,0.000431,0.712808
1791000,0.0324,0.013523,0.002678,0.000431,0.677315
1792000,0.0324,0.013523,0.002678,0.000431,0.660273
1793000,0.0324,0.013523,0.002678,0.000431,0.760760
1794000,0.0324,0.013523,0.002678,0.000431,0.735021
1795000,0.0324,0.013523,0.002678,0.000431,0.701643
1796000,0.0324,0.013523,0.002678,0.000431,0.794020
1797000,0.0324,0.013523,0.002678,0.000431,0.902969
1798000,0.0324,0.013523,0.002678,0.000431,0.880404
1799000,0.0324,0.013523,0.002678,0.000431,0.879581
1800000,0.0324,0.013523,0.002678,0.000431,0.811180
1801000,0.0324,0.013523,0.002678,0.000431,0.757117
1802000,0.0324,0.013523,0.002678,0.000431,0.675199
1803000,0.0324,0.013523,0.002678,0.000431,0.616670
1804000,0.0324,0.013523,0.002678,0.000431,0.583527
1805000,0.0324,0.013523,0.002678,0.000431,0.542628
1806000,0.0324,0.013523,0.002678,0.000431,0.537104
1807000,0.0324,0.013523,0.002678,0.000431,0.533343
1808000,0.0324,0.013523,0.002678,0.000431,0.465882
1809000,0.0324,0.013523,0.002678,0.000431,0.485744
1810000,0.0324,0.013523,0.002678,0.000431,0.523941
1811000,0.0324,0.013523,0.002678,0.000431,0.539454
1812000,0.0324,0.013523,0.002678,0.000431,0.552265
1813000,0.0324,0.013523,0.002678,0.000431,0.590932
1814000,0.0324,0.013523,0.002678,0.000431,0.537339
1815000,0.0324,0.013523,0.002678,0.000431,0.499142
1816000,0.0324,0.013523,0.002678,0.000431,0.498907
1817000,0.0324,0.013523,0.002678,0.000431,0.496674
1818000,0.0324,0.013523,0.002678,0.000431,0.460123
1819000,0.0324,0.013523,0.002678,0.000431,0.593987
1820000,0.0324,0.013523,0.002678,0.000431,0.632772
1821000,0.0324,0.013523,0.002678,0.000431,0.659803
1822000,0.0324,0.013523,0.002678,0.000431,0.599276
1823000,0.0324,0.013523,0.002678,0.000431,0.599864
1824000,0.0324,0.013523,0.002678,0.000431,0.550267
1825000,0.0324,0.013523,0.002678,0.000431,0.503373
1826000,0.0324,0.013523,0.002678,0.000431,0.482923
1827000,0.0324,0.013523,0.002678,0.000431,0.642409
1828000,0.0324,0.013523,0.002678,0.000431,0.597983
1829000,0.0324,0.013523,0.002678,0.000431,0.531462
1830000,0.0324,0.013523,0.002678,0.000431,0.589991
1831000,0.0324,0.013523,0.002678,0.000431,0.674142
1832000,0.0324,0.013523,0.002678,0.000431,0.594105
1833000,0.0324,0.013523,0.002678,0.000431,0.590697
1834000,0.0324,0.013523,0.002678,0.000431,0.756294
1835000,0.0324,0.013523,0.002678,0.000431,0.720330
1836000,0.0324,0.013523,0.002678,0.000431,0.591872
1837000,0.0324,0.013523,0.002678,0.000431,0.667913
1838000,0.0324,0.013523,0.002678,0.000431,0.639236
1839000,0.0324,0.013523,0.002678,0.000431,0.588229
1840000,0.0324,0.013523,0.002678,0.000431,0.606328
1841000,0.0324,0.013523,0.002678,0.000431,0.791317
1842000,0.0324,0.013523,0.002678,0.000431,0.769339
1843000,0.0324,0.013523,0.002678,0.000431,0.680018
1844000,0.0324,0.013523,0.002678,0.000431,0.729968
1845000,0.0324,0.013523,0.002678,0.000431,0.764051
1846000,0.0324,0.013523,0.002678,0.000431,0.767106
1847000,0.0324,0.013523,0.002678,0.000431,0.656983
1848000,0.0324,0.013523,0.002678,0.000431,0.578591
1849000,0.0324,0.013523,0.002678,0.000431,0.560844
1850000,0.0324,0.013523,0.002678,0.000431,0.556026
1851000,0.0324,0.013523,0.002678,0.000431,0.574478
1852000,0.0324,0.013523,0.002678,0.000431,0.644995
1853000,0.0324,0.013523,0.002678,0.000431,0.556613
1854000,0.0324,0.013523,0.002678,0.000431,0.587758
1855000,0.0324,0.013523,0.002678,0.000431,0.735961
1856000,0.0324,0.013523,0.002678,0.000431,0.680253
1857000,0.0324,0.013523,0.002678,0.000431,0.620079
1858000,0.0324,0.013523,0.002678,0.000431,0.709988
1859000,0.0324,0.013523,0.002678,0.000431,0.695884
1860000,0.0324,0.013523,0.002678,0.000431,0.632654
1861000,0.0324,0.013523,0.002678,0.000431,0.615143
1862000,0.0324,0.013523,0.002678,0.000431,0.512070
1863000,0.0324,0.013523,0.002678,0.000431,0.536281
1864000,0.0324,0.013523,0.002678,0.000431,0.654279
1865000,0.0324,0.013523,0.002678,0.000431,0.670616
1866000,0.0324,0.013523,0.002678,0.000431,0.642056
1867000,0.0324,0.013523,0.002678,0.000431,0.739840
1868000,0.0324,0.013523,0.002678,0.000431,0.689773
1869000,0.0324,0.013523,0.002678,0.000431,0.704699
1870000,0.0324,0.013523,0.002678,0.000431,0.684719
1871000,0.0324,0.013523,0.002678,0.000431,0.585996
1872000,0.0324,0.013523,0.002678,0.000431,0.648168
1873000,0.0324,0.013523,0.002678,0.000431,0.573890
1874000,0.0324,0.013523,0.002678,0.000431,0.551207
1875000,0.0324,0.013523,0.002678,0.000431,0.566486
1876000,0.0324,0.013523,0.002678,0.000431,0.611147
1877000,0.0324,0.013523,0.002678,0.000431,0.674377
1878000,0.0324,0.013523,0.002678,0.000431,0.588699
1879000,0.0324,0.013523,0.002678,0.000431,0.616200
1880000,0.0324,0.013523,0.002678,0.000431,0.632419
1881000,0.0324,0.013523,0.002678,0.000431,0.685424
1882000,0.0324,0.013523,0.002678,0.000431,0.764286
1883000,0.0324,0.013523,0.002678,0.000431,0.630186
1884000,0.0324,0.013523,0.002678,0.000431,0.646993
1885000,0.0324,0.013523,0.002678,0.000431,0.747009
1886000,0.0324,0.013523,0.002678,0.000431,0.612909
1887000,0.0324,0.013523,0.002678,0.000431,0.589639
1888000,0.0324,0.013523,0.002678,0.000431,0.658040
1889000,0.0324,0.013523,0.002678,0.000431,0.681663
1890000,0.0324,0.013523,0.002678,0.000431,0.676610
1891000,0.0324,0.013523,0.002678,0.000431,0.752415
1892000,0.0324,0.013523,0.002678,0.000431,0.692594
1893000,0.0324,0.013523,0.002678,0.000431,0.644877
1894000,0.0324,0.013523,0.002678,0.000431,0.740310
1895000,0.0324,0.013523,0.002678,0.000431,0.772395
1896000,0.0324,0.013523,0.002678,0.000431,0.714101
1897000,0.0324,0.013523,0.002678,0.000431,0.705052
1898000,0.0324,0.013523,0.002678,0.000431,0.696590
1899000,0.0324,0.013523,0.002678,0.000431,0.835508
1900000,0.0324,0.013523,0.002678,0.000431,0.783325
1901000,0.0324,0.013523,0.002678,0.000431,0.734081
1902000,0.0324,0.013523,0.002678,0.000431,0.744424
1903000,0.0324,0.013523,0.002678,0.000431,0.756294
1904000,0.0324,0.013523,0.002678,0.000431,0.707285
1905000,0.0324,0.013523,0.002678,0.000431,0.638061
1906000,0.0324,0.013523,0.002678,0.000431,0.759232
1907000,0.0324,0.013523,0.002678,0.000431,0.679665
1908000,0.0324,0.013523,0.002678,0.000431,0.635945
1909000,0.0324,0.013523,0.002678,0.000431,0.713043
1910000,0.0324,0.013523,0.002678,0.000431,0.568719
1911000,0.0324,0.013523,0.002678,0.000431,0.573185
1912000,0.0324,0.013523,0.002678,0.000431,0.552853
1913000,0.0324,0.013523,0.002678,0.000431,0.478457
1914000,0.0324,0.013523,0.002678,0.000431,0.523000
1915000,0.0324,0.013523,0.002678,0.000431,0.455539
1916000,0.0324,0.013523,0.002678,0.000431,0.443904
1917000,0.0324,0.013523,0.002678,0.000431,0.446960
1918000,0.0324,0.013523,0.002678,0.000431,0.400654
1919000,0.0324,0.013523,0.002678,0.000431,0.419811
1920000,0.0324,0.013523,0.002678,0.000431,0.414639
1921000,0.0324,0.013523,0.002678,0.000431,0.461651
1922000,0.0324,0.013523,0.002678,0.000431,0.580707
1923000,0.0324,0.013523,0.002678,0.000431,0.578121
1924000,0.0324,0.013523,0.002678,0.000431,0.558729
1925000,0.0324,0.013523,0.002678,0.000431,0.707402
1926000,0.0324,0.013523,0.002678,0.000431,0.671086
1927000,0.0324,0.013523,0.002678,0.000431,0.643937
1928000,0.0324,0.013523,0.002678,0.000431,0.714571
1929000,0.0324,0.013523,0.002678,0.000431,0.681076
1930000,0.0324,0.013523,0.002678,0.000431,0.625132
1931000,0.0324,0.013523,0.002678,0.000431,0.684249
1932000,0.0324,0.013523,0.002678,0.000431,0.604212
1933000,0.0324,0.013523,0.002678,0.000431,0.612087
1934000,0.0324,0.013523,0.002678,0.000431,0.790024
1935000,0.0324,0.013523,0.002678,0.000431,0.648991
1936000,0.0324,0.013523,0.002678,0.000431,0.565898
1937000,0.0324,0.013523,0.002678,0.000431,0.639941
1938000,0.0324,0.013523,0.002678,0.000431,0.570364
1939000,0.0324,0.013523,0.002678,0.000431,0.539924
1940000,0.0324,0.013523,0.002678,0.000431,0.607503
1941000,0.0324,0.013523,0.002678,0.000431,0.502551
1942000,0.0324,0.013523,0.002678,0.000431,0.494559
1943000,0.0324,0.013523,0.002678,0.000431,0.516066
1944000,0.0324,0.013523,0.002678,0.000431,0.424042
1945000,0.0324,0.013523,0.002678,0.000431,0.397010
1946000,0.0324,0.013523,0.002678,0.000431,0.406765
1947000,0.0324,0.013523,0.002678,0.000431,0.389018
1948000,0.0324,0.013523,0.002678,0.000431,0.349176
1949000,0.0324,0.013523,0.002678,0.000431,0.448723
1950000,0.0324,0.013523,0.002678,0.000431,0.527937
1951000,0.0324,0.013523,0.002678,0.000431,0.563195
1952000,0.0324,0.013523,0.002678,0.000431,0.581059
1953000,0.0324,0.013523,0.002678,0.000431,0.648873
1954000,0.0324,0.013523,0.002678,0.000431,0.626425
1955000,0.0324,0.013523,0.002678,0.000431,0.560492
1956000,0.0324,0.013523,0.002678,0.000431,0.598336
1957000,0.0324,0.013523,0.002678,0.000431,0.574478
1958000,0.0324,0.013523,0.002678,0.000431,0.599276
1959000,0.0324,0.013523,0.002678,0.000431,0.613967
1960000,0.0324,0.013523,0.002678,0.000431,0.662859
1961000,0.0324,0.013523,0.002678,0.000431,0.749947
1962000,0.0324,0.013523,0.002678,0.000431,0.620079
1963000,0.0324,0.013523,0.002678,0.000431,0.626073
1964000,0.0324,0.013523,0.002678,0.000431,0.583410
1965000,0.0324,0.013523,0.002678,0.000431,0.536046
1966000,0.0324,0.013523,0.002678,0.000431,0.472581
1967000,0.0324,0.013523,0.002678,0.000431,0.507134
1968000,0.0324,0.013523,0.002678,0.000431,0.474461
1969000,0.0324,0.013523,0.002678,0.000431,0.551207
1970000,0.0324,0.013523,0.002678,0.000431,0.595750
1971000,0.0324,0.013523,0.002678,0.000431,0.564018
1972000,0.0324,0.013523,0.002678,0.000431,0.661331
1973000,0.0324,0.013523,0.002678,0.000431,0.782503
1974000,0.0324,0.013523,0.002678,0.000431,0.878993
1975000,0.0324,0.013523,0.002678,0.000431,0.832335
1976000,0.0324,0.013523,0.002678,0.000431,0.801660
1977000,0.0324,0.013523,0.002678,0.000431,0.784266
1978000,0.0324,0.013523,0.002678,0.000431,0.754531
1979000,0.0324,0.013523,0.002678,0.000431,0.807419
1980000,0.0324,0.013523,0.002678,0.000431,0.837153
1981000,0.0324,0.013523,0.002678,0.000431,0.784618
1982000,0.0324,0.013523,0.002678,0.000431,0.756646
1983000,0.0324,0.013523,0.002678,0.000431,0.812002
1984000,0.0324,0.013523,0.002678,0.000431,0.852079
1985000,0.0324,0.013523,0.002678,0.000431,0.886985
1986000,0.0324,0.013523,0.002678,0.000431,0.865713
1987000,0.0324,0.013523,0.002678,0.000431,0.848789
1988000,0.0324,0.013523,0.002678,0.000431,0.804951
1989000,0.0324,0.013523,0.002678,0.000431,0.729497
1990000,0.0324,0.013523,0.002678,0.000431,0.743718
1991000,0.0324,0.013523,0.002678,0.000431,0.661214
1992000,0.0324,0.013523,0.002678,0.000431,0.558376
1993000,0.0324,0.013523,0.002678,0.000431,0.555203
1994000,0.0324,0.013523,0.002678,0.000431,0.583998
1995000,0.0324,0.013523,0.002678,0.000431,0.581059
1996000,0.0324,0.013523,0.002678,0.000431,0.492561
1997000,0.0324,0.013523,0.002678,0.000431,0.557906
1998000,0.0324,0.013523,0.002678,0.000431,0.579296
1999000,0.0324,0.013523,0.002678,0.000431,0.664739
