Cycle,Area(mm^2),PeakDynamic(W),SubthresholdLeakage(W),GateLeakage(W),RunTimeDynamic(W)
2000000,0.0324,0.013523,0.002678,0.000431,0.334133
2001000,0.0324,0.013523,0.002678,0.000431,0.333427
2002000,0.0324,0.013523,0.002678,0.000431,0.328139
2003000,0.0324,0.013523,0.002678,0.000431,0.338951
2004000,0.0324,0.013523,0.002678,0.000431,0.315563
2005000,0.0324,0.013523,0.002678,0.000431,0.285829
2006000,0.0324,0.013523,0.002678,0.000431,0.311450
2007000,0.0324,0.013523,0.002678,0.000431,0.323085
2008000,0.0324,0.013523,0.002678,0.000431,0.291235
2009000,0.0324,0.013523,0.002678,0.000431,0.313330
2010000,0.0324,0.013523,0.002678,0.000431,0.280070
2011000,0.0324,0.013523,0.002678,0.000431,0.307336
2012000,0.0324,0.013523,0.002678,0.000431,0.277249
2013000,0.0324,0.013523,0.002678,0.000431,0.284183
2014000,0.0324,0.013523,0.002678,0.000431,0.308511
2015000,0.0324,0.013523,0.002678,0.000431,0.301577
2016000,0.0324,0.013523,0.002678,0.000431,0.300755
2017000,0.0324,0.013523,0.002678,0.000431,0.295113
2018000,0.0324,0.013523,0.002678,0.000431,0.302870
2019000,0.0324,0.013523,0.002678,0.000431,0.334603
2020000,0.0324,0.013523,0.002678,0.000431,0.292763
2021000,0.0324,0.013523,0.002678,0.000431,0.303810
2022000,0.0324,0.013523,0.002678,0.000431,0.318971
2023000,0.0324,0.013523,0.002678,0.000431,0.295231
2024000,0.0324,0.013523,0.002678,0.000431,0.279012
2025000,0.0324,0.013523,0.002678,0.000431,0.293350
2026000,0.0324,0.013523,0.002678,0.000431,0.290765
2027000,0.0324,0.013523,0.002678,0.000431,0.282185
2028000,0.0324,0.013523,0.002678,0.000431,0.306278
2029000,0.0324,0.013523,0.002678,0.000431,0.289589
2030000,0.0324,0.013523,0.002678,0.000431,0.290295
2031000,0.0324,0.013523,0.002678,0.000431,0.278424
2032000,0.0324,0.013523,0.002678,0.000431,0.329549
2033000,0.0324,0.013523,0.002678,0.000431,0.288414
2034000,0.0324,0.013523,0.002678,0.000431,0.313565
2035000,0.0324,0.013523,0.002678,0.000431,0.299344
2036000,0.0324,0.013523,0.002678,0.000431,0.287239
2037000,0.0324,0.013523,0.002678,0.000431,0.256094
2038000,0.0324,0.013523,0.002678,0.000431,0.268082
2039000,0.0324,0.013523,0.002678,0.000431,0.281715
2040000,0.0324,0.013523,0.002678,0.000431,0.281245
2041000,0.0324,0.013523,0.002678,0.000431,0.286416
2042000,0.0324,0.013523,0.002678,0.000431,0.265261
2043000,0.0324,0.013523,0.002678,0.000431,0.249160
2044000,0.0324,0.013523,0.002678,0.000431,0.283831
2045000,0.0324,0.013523,0.002678,0.000431,0.265261
2046000,0.0324,0.013523,0.002678,0.000431,0.304633
2047000,0.0324,0.013523,0.002678,0.000431,0.289119
2048000,0.0324,0.013523,0.002678,0.000431,0.256682
2049000,0.0324,0.013523,0.002678,0.000431,0.249512
2050000,0.0324,0.013523,0.002678,0.000431,0.278894
2051000,0.0324,0.013523,0.002678,0.000431,0.242696
2052000,0.0324,0.013523,0.002678,0.000431,0.267494
2053000,0.0324,0.013523,0.002678,0.000431,0.259267
2054000,0.0324,0.013523,0.002678,0.000431,0.257857
2055000,0.0324,0.013523,0.002678,0.000431,0.257622
2056000,0.0324,0.013523,0.002678,0.000431,0.250453
2057000,0.0324,0.013523,0.002678,0.000431,0.237172
2058000,0.0324,0.013523,0.002678,0.000431,0.251863
2059000,0.0324,0.013523,0.002678,0.000431,0.255741
2060000,0.0324,0.013523,0.002678,0.000431,0.265731
2061000,0.0324,0.013523,0.002678,0.000431,0.237054
2062000,0.0324,0.013523,0.002678,0.000431,0.255036
2063000,0.0324,0.013523,0.002678,0.000431,0.253391
2064000,0.0324,0.013523,0.002678,0.000431,0.246222
2065000,0.0324,0.013523,0.002678,0.000431,0.256211
2066000,0.0324,0.013523,0.002678,0.000431,0.260325
2067000,0.0324,0.013523,0.002678,0.000431,0.222011
2068000,0.0324,0.013523,0.002678,0.000431,0.233764
2069000,0.0324,0.013523,0.002678,0.000431,0.261853
2070000,0.0324,0.013523,0.002678,0.000431,0.248102
2071000,0.0324,0.013523,0.002678,0.000431,0.239875
2072000,0.0324,0.013523,0.002678,0.000431,0.265144
2073000,0.0324,0.013523,0.002678,0.000431,0.214371
2074000,0.0324,0.013523,0.002678,0.000431,0.237995
2075000,0.0324,0.013523,0.002678,0.000431,0.262675
2076000,0.0324,0.013523,0.002678,0.000431,0.246927
2077000,0.0324,0.013523,0.002678,0.000431,0.216017
2078000,0.0324,0.013523,0.002678,0.000431,0.249277
2079000,0.0324,0.013523,0.002678,0.000431,0.244811
2080000,0.0324,0.013523,0.002678,0.000431,0.217310
2081000,0.0324,0.013523,0.002678,0.000431,0.203206
2082000,0.0324,0.013523,0.002678,0.000431,0.228710
2083000,0.0324,0.013523,0.002678,0.000431,0.231060
2084000,0.0324,0.013523,0.002678,0.000431,0.219073
2085000,0.0324,0.013523,0.002678,0.000431,0.239522
2086000,0.0324,0.013523,0.002678,0.000431,0.212021
2087000,0.0324,0.013523,0.002678,0.000431,0.234939
2088000,0.0324,0.013523,0.002678,0.000431,0.219660
2089000,0.0324,0.013523,0.002678,0.000431,0.218367
2090000,0.0324,0.013523,0.002678,0.000431,0.227535
2091000,0.0324,0.013523,0.002678,0.000431,0.226712
2092000,0.0324,0.013523,0.002678,0.000431,0.206732
2093000,0.0324,0.013523,0.002678,0.000431,0.231178
2094000,0.0324,0.013523,0.002678,0.000431,0.194627
2095000,0.0324,0.013523,0.002678,0.000431,0.198505
2096000,0.0324,0.013523,0.002678,0.000431,0.204969
2097000,0.0324,0.013523,0.002678,0.000431,0.200621
2098000,0.0324,0.013523,0.002678,0.000431,0.215782
2099000,0.0324,0.013523,0.002678,0.000431,0.206144
2100000,0.0324,0.013523,0.002678,0.000431,0.210846
2101000,0.0324,0.013523,0.002678,0.000431,0.212491
2102000,0.0324,0.013523,0.002678,0.000431,0.212373
2103000,0.0324,0.013523,0.002678,0.000431,0.224361
2104000,0.0324,0.013523,0.002678,0.000431,0.236584
2105000,0.0324,0.013523,0.002678,0.000431,0.201208
2106000,0.0324,0.013523,0.002678,0.000431,0.195802
2107000,0.0324,0.013523,0.002678,0.000431,0.221071
2108000,0.0324,0.013523,0.002678,0.000431,0.184167
2109000,0.0324,0.013523,0.002678,0.000431,0.200973
2110000,0.0324,0.013523,0.002678,0.000431,0.182286
2111000,0.0324,0.013523,0.002678,0.000431,0.223304
2112000,0.0324,0.013523,0.002678,0.000431,0.202031
2113000,0.0324,0.013523,0.002678,0.000431,0.199328
2114000,0.0324,0.013523,0.002678,0.000431,0.196155
2115000,0.0324,0.013523,0.002678,0.000431,0.203206
2116000,0.0324,0.013523,0.002678,0.000431,0.200738
2117000,0.0324,0.013523,0.002678,0.000431,0.227417
2118000,0.0324,0.013523,0.002678,0.000431,0.195449
2119000,0.0324,0.013523,0.002678,0.000431,0.214019
2120000,0.0324,0.013523,0.002678,0.000431,0.213549
2121000,0.0324,0.013523,0.002678,0.000431,0.203206
2122000,0.0324,0.013523,0.002678,0.000431,0.198858
2123000,0.0324,0.013523,0.002678,0.000431,0.196742
2124000,0.0324,0.013523,0.002678,0.000431,0.174882
2125000,0.0324,0.013523,0.002678,0.000431,0.186517
2126000,0.0324,0.013523,0.002678,0.000431,0.225654
2127000,0.0324,0.013523,0.002678,0.000431,0.207437
2128000,0.0324,0.013523,0.002678,0.000431,0.206732
2129000,0.0324,0.013523,0.002678,0.000431,0.213901
2130000,0.0324,0.013523,0.002678,0.000431,0.221423
2131000,0.0324,0.013523,0.002678,0.000431,0.232236
2132000,0.0324,0.013523,0.002678,0.000431,0.189573
2133000,0.0324,0.013523,0.002678,0.000431,0.175940
2134000,0.0324,0.013523,0.002678,0.000431,0.189690
2135000,0.0324,0.013523,0.002678,0.000431,0.166185
2136000,0.0324,0.013523,0.002678,0.000431,0.178643
2137000,0.0324,0.013523,0.002678,0.000431,0.196625
2138000,0.0324,0.013523,0.002678,0.000431,0.162306
2139000,0.0324,0.013523,0.002678,0.000431,0.182874
2140000,0.0324,0.013523,0.002678,0.000431,0.152081
2141000,0.0324,0.013523,0.002678,0.000431,0.187340
2142000,0.0324,0.013523,0.002678,0.000431,0.191453
2143000,0.0324,0.013523,0.002678,0.000431,0.167243
2144000,0.0324,0.013523,0.002678,0.000431,0.161249
2145000,0.0324,0.013523,0.002678,0.000431,0.170416
2146000,0.0324,0.013523,0.002678,0.000431,0.188868
2147000,0.0324,0.013523,0.002678,0.000431,0.155020
2148000,0.0324,0.013523,0.002678,0.000431,0.180993
2149000,0.0324,0.013523,0.002678,0.000431,0.176292
2150000,0.0324,0.013523,0.002678,0.000431,0.190513
2151000,0.0324,0.013523,0.002678,0.000431,0.207437
2152000,0.0324,0.013523,0.002678,0.000431,0.178643
2153000,0.0324,0.013523,0.002678,0.000431,0.158075
2154000,0.0324,0.013523,0.002678,0.000431,0.160191
2155000,0.0324,0.013523,0.002678,0.000431,0.174177
2156000,0.0324,0.013523,0.002678,0.000431,0.177468
2157000,0.0324,0.013523,0.002678,0.000431,0.182639
2158000,0.0324,0.013523,0.002678,0.000431,0.166655
2159000,0.0324,0.013523,0.002678,0.000431,0.167713
2160000,0.0324,0.013523,0.002678,0.000431,0.205557
2161000,0.0324,0.013523,0.002678,0.000431,0.141621
2162000,0.0324,0.013523,0.002678,0.000431,0.149613
2163000,0.0324,0.013523,0.002678,0.000431,0.149848
2164000,0.0324,0.013523,0.002678,0.000431,0.182639
2165000,0.0324,0.013523,0.002678,0.000431,0.180876
2166000,0.0324,0.013523,0.002678,0.000431,0.164657
2167000,0.0324,0.013523,0.002678,0.000431,0.172531
2168000,0.0324,0.013523,0.002678,0.000431,0.162424
2169000,0.0324,0.013523,0.002678,0.000431,0.171709
2170000,0.0324,0.013523,0.002678,0.000431,0.160073
2171000,0.0324,0.013523,0.002678,0.000431,0.164892
2172000,0.0324,0.013523,0.002678,0.000431,0.178408
2173000,0.0324,0.013523,0.002678,0.000431,0.171474
2174000,0.0324,0.013523,0.002678,0.000431,0.204499
2175000,0.0324,0.013523,0.002678,0.000431,0.175117
2176000,0.0324,0.013523,0.002678,0.000431,0.174412
2177000,0.0324,0.013523,0.002678,0.000431,0.189338
2178000,0.0324,0.013523,0.002678,0.000431,0.193686
2179000,0.0324,0.013523,0.002678,0.000431,0.165010
2180000,0.0324,0.013523,0.002678,0.000431,0.140446
2181000,0.0324,0.013523,0.002678,0.000431,0.152199
2182000,0.0324,0.013523,0.002678,0.000431,0.151846
2183000,0.0324,0.013523,0.002678,0.000431,0.171709
2184000,0.0324,0.013523,0.002678,0.000431,0.136685
2185000,0.0324,0.013523,0.002678,0.000431,0.142327
2186000,0.0324,0.013523,0.002678,0.000431,0.143267
2187000,0.0324,0.013523,0.002678,0.000431,0.156783
2188000,0.0324,0.013523,0.002678,0.000431,0.147263
2189000,0.0324,0.013523,0.002678,0.000431,0.161836
2190000,0.0324,0.013523,0.002678,0.000431,0.136803
2191000,0.0324,0.013523,0.002678,0.000431,0.165597
2192000,0.0324,0.013523,0.002678,0.000431,0.160073
2193000,0.0324,0.013523,0.002678,0.000431,0.147145
2194000,0.0324,0.013523,0.002678,0.000431,0.136920
2195000,0.0324,0.013523,0.002678,0.000431,0.144795
2196000,0.0324,0.013523,0.002678,0.000431,0.125168
2197000,0.0324,0.013523,0.002678,0.000431,0.154902
2198000,0.0324,0.013523,0.002678,0.000431,0.142209
2199000,0.0324,0.013523,0.002678,0.000431,0.163364
2200000,0.0324,0.013523,0.002678,0.000431,0.147145
2201000,0.0324,0.013523,0.002678,0.000431,0.138448
2202000,0.0324,0.013523,0.002678,0.000431,0.151376
2203000,0.0324,0.013523,0.002678,0.000431,0.155255
2204000,0.0324,0.013523,0.002678,0.000431,0.138096
2205000,0.0324,0.013523,0.002678,0.000431,0.127165
2206000,0.0324,0.013523,0.002678,0.000431,0.124580
2207000,0.0324,0.013523,0.002678,0.000431,0.165597
2208000,0.0324,0.013523,0.002678,0.000431,0.148438
2209000,0.0324,0.013523,0.002678,0.000431,0.117058
2210000,0.0324,0.013523,0.002678,0.000431,0.131044
2211000,0.0324,0.013523,0.002678,0.000431,0.156548
2212000,0.0324,0.013523,0.002678,0.000431,0.153139
2213000,0.0324,0.013523,0.002678,0.000431,0.132689
2214000,0.0324,0.013523,0.002678,0.000431,0.139976
2215000,0.0324,0.013523,0.002678,0.000431,0.139976
2216000,0.0324,0.013523,0.002678,0.000431,0.123170
2217000,0.0324,0.013523,0.002678,0.000431,0.151259
2218000,0.0324,0.013523,0.002678,0.000431,0.154197
2219000,0.0324,0.013523,0.002678,0.000431,0.145500
2220000,0.0324,0.013523,0.002678,0.000431,0.142209
2221000,0.0324,0.013523,0.002678,0.000431,0.147380
2222000,0.0324,0.013523,0.002678,0.000431,0.146558
2223000,0.0324,0.013523,0.002678,0.000431,0.154550
2224000,0.0324,0.013523,0.002678,0.000431,0.142914
2225000,0.0324,0.013523,0.002678,0.000431,0.141974
2226000,0.0324,0.013523,0.002678,0.000431,0.151376
2227000,0.0324,0.013523,0.002678,0.000431,0.146323
2228000,0.0324,0.013523,0.002678,0.000431,0.149378
2229000,0.0324,0.013523,0.002678,0.000431,0.114590
2230000,0.0324,0.013523,0.002678,0.000431,0.109301
2231000,0.0324,0.013523,0.002678,0.000431,0.129163
2232000,0.0324,0.013523,0.002678,0.000431,0.146793
2233000,0.0324,0.013523,0.002678,0.000431,0.125990
2234000,0.0324,0.013523,0.002678,0.000431,0.132924
2235000,0.0324,0.013523,0.002678,0.000431,0.131632
2236000,0.0324,0.013523,0.002678,0.000431,0.140564
2237000,0.0324,0.013523,0.002678,0.000431,0.158075
2238000,0.0324,0.013523,0.002678,0.000431,0.130809
2239000,0.0324,0.013523,0.002678,0.000431,0.145265
2240000,0.0324,0.013523,0.002678,0.000431,0.120936
2241000,0.0324,0.013523,0.002678,0.000431,0.130691
2242000,0.0324,0.013523,0.002678,0.000431,0.139153
2243000,0.0324,0.013523,0.002678,0.000431,0.162189
2244000,0.0324,0.013523,0.002678,0.000431,0.139506
2245000,0.0324,0.013523,0.002678,0.000431,0.137273
2246000,0.0324,0.013523,0.002678,0.000431,0.128223
2247000,0.0324,0.013523,0.002678,0.000431,0.128811
2248000,0.0324,0.013523,0.002678,0.000431,0.114120
2249000,0.0324,0.013523,0.002678,0.000431,0.113415
2250000,0.0324,0.013523,0.002678,0.000431,0.153257
2251000,0.0324,0.013523,0.002678,0.000431,0.124345
2252000,0.0324,0.013523,0.002678,0.000431,0.122464
2253000,0.0324,0.013523,0.002678,0.000431,0.131279
2254000,0.0324,0.013523,0.002678,0.000431,0.162071
2255000,0.0324,0.013523,0.002678,0.000431,0.099546
2256000,0.0324,0.013523,0.002678,0.000431,0.133159
2257000,0.0324,0.013523,0.002678,0.000431,0.122582
2258000,0.0324,0.013523,0.002678,0.000431,0.132572
2259000,0.0324,0.013523,0.002678,0.000431,0.146675
2260000,0.0324,0.013523,0.002678,0.000431,0.146088
2261000,0.0324,0.013523,0.002678,0.000431,0.115413
2262000,0.0324,0.013523,0.002678,0.000431,0.145852
2263000,0.0324,0.013523,0.002678,0.000431,0.120466
2264000,0.0324,0.013523,0.002678,0.000431,0.119879
2265000,0.0324,0.013523,0.002678,0.000431,0.136450
2266000,0.0324,0.013523,0.002678,0.000431,0.146558
2267000,0.0324,0.013523,0.002678,0.000431,0.133159
2268000,0.0324,0.013523,0.002678,0.000431,0.125755
2269000,0.0324,0.013523,0.002678,0.000431,0.123757
2270000,0.0324,0.013523,0.002678,0.000431,0.124697
2271000,0.0324,0.013523,0.002678,0.000431,0.132572
2272000,0.0324,0.013523,0.002678,0.000431,0.119526
2273000,0.0324,0.013523,0.002678,0.000431,0.126813
2274000,0.0324,0.013523,0.002678,0.000431,0.114237
2275000,0.0324,0.013523,0.002678,0.000431,0.144677
2276000,0.0324,0.013523,0.002678,0.000431,0.107538
2277000,0.0324,0.013523,0.002678,0.000431,0.117176
2278000,0.0324,0.013523,0.002678,0.000431,0.124815
2279000,0.0324,0.013523,0.002678,0.000431,0.127283
2280000,0.0324,0.013523,0.002678,0.000431,0.128928
2281000,0.0324,0.013523,0.002678,0.000431,0.127048
2282000,0.0324,0.013523,0.002678,0.000431,0.132102
2283000,0.0324,0.013523,0.002678,0.000431,0.102837
2284000,0.0324,0.013523,0.002678,0.000431,0.113062
2285000,0.0324,0.013523,0.002678,0.000431,0.130574
2286000,0.0324,0.013523,0.002678,0.000431,0.119526
2287000,0.0324,0.013523,0.002678,0.000431,0.115295
2288000,0.0324,0.013523,0.002678,0.000431,0.105540
2289000,0.0324,0.013523,0.002678,0.000431,0.112945
2290000,0.0324,0.013523,0.002678,0.000431,0.121759
2291000,0.0324,0.013523,0.002678,0.000431,0.111769
2292000,0.0324,0.013523,0.002678,0.000431,0.139506
2293000,0.0324,0.013523,0.002678,0.000431,0.123640
2294000,0.0324,0.013523,0.002678,0.000431,0.100722
2295000,0.0324,0.013523,0.002678,0.000431,0.116118
2296000,0.0324,0.013523,0.002678,0.000431,0.145147
2297000,0.0324,0.013523,0.002678,0.000431,0.104953
2298000,0.0324,0.013523,0.002678,0.000431,0.128811
2299000,0.0324,0.013523,0.002678,0.000431,0.122229
2300000,0.0324,0.013523,0.002678,0.000431,0.106951
2301000,0.0324,0.013523,0.002678,0.000431,0.104718
2302000,0.0324,0.013523,0.002678,0.000431,0.112474
2303000,0.0324,0.013523,0.002678,0.000431,0.110124
2304000,0.0324,0.013523,0.002678,0.000431,0.107068
2305000,0.0324,0.013523,0.002678,0.000431,0.106245
2306000,0.0324,0.013523,0.002678,0.000431,0.129399
2307000,0.0324,0.013523,0.002678,0.000431,0.127283
2308000,0.0324,0.013523,0.002678,0.000431,0.104835
2309000,0.0324,0.013523,0.002678,0.000431,0.117293
2310000,0.0324,0.013523,0.002678,0.000431,0.107656
2311000,0.0324,0.013523,0.002678,0.000431,0.086266
2312000,0.0324,0.013523,0.002678,0.000431,0.103072
2313000,0.0324,0.013523,0.002678,0.000431,0.110829
2314000,0.0324,0.013523,0.002678,0.000431,0.119174
2315000,0.0324,0.013523,0.002678,0.000431,0.139976
2316000,0.0324,0.013523,0.002678,0.000431,0.139036
2317000,0.0324,0.013523,0.002678,0.000431,0.107186
2318000,0.0324,0.013523,0.002678,0.000431,0.112592
2319000,0.0324,0.013523,0.002678,0.000431,0.137978
2320000,0.0324,0.013523,0.002678,0.000431,0.090614
2321000,0.0324,0.013523,0.002678,0.000431,0.094258
2322000,0.0324,0.013523,0.002678,0.000431,0.107538
2323000,0.0324,0.013523,0.002678,0.000431,0.109419
2324000,0.0324,0.013523,0.002678,0.000431,0.089792
2325000,0.0324,0.013523,0.002678,0.000431,0.106010
2326000,0.0324,0.013523,0.002678,0.000431,0.126813
2327000,0.0324,0.013523,0.002678,0.000431,0.077569
2328000,0.0324,0.013523,0.002678,0.000431,0.119056
2329000,0.0324,0.013523,0.002678,0.000431,0.107068
2330000,0.0324,0.013523,0.002678,0.000431,0.127636
2331000,0.0324,0.013523,0.002678,0.000431,0.113062
2332000,0.0324,0.013523,0.002678,0.000431,0.130691
2333000,0.0324,0.013523,0.002678,0.000431,0.111299
2334000,0.0324,0.013523,0.002678,0.000431,0.110712
2335000,0.0324,0.013523,0.002678,0.000431,0.113415
2336000,0.0324,0.013523,0.002678,0.000431,0.102250
2337000,0.0324,0.013523,0.002678,0.000431,0.106716
2338000,0.0324,0.013523,0.002678,0.000431,0.104247
2339000,0.0324,0.013523,0.002678,0.000431,0.119526
2340000,0.0324,0.013523,0.002678,0.000431,0.111182
2341000,0.0324,0.013523,0.002678,0.000431,0.101192
2342000,0.0324,0.013523,0.002678,0.000431,0.088734
2343000,0.0324,0.013523,0.002678,0.000431,0.122347
2344000,0.0324,0.013523,0.002678,0.000431,0.108008
2345000,0.0324,0.013523,0.002678,0.000431,0.106833
2346000,0.0324,0.013523,0.002678,0.000431,0.125285
2347000,0.0324,0.013523,0.002678,0.000431,0.105540
2348000,0.0324,0.013523,0.002678,0.000431,0.107186
2349000,0.0324,0.013523,0.002678,0.000431,0.114002
2350000,0.0324,0.013523,0.002678,0.000431,0.121172
2351000,0.0324,0.013523,0.002678,0.000431,0.095198
2352000,0.0324,0.013523,0.002678,0.000431,0.111887
2353000,0.0324,0.013523,0.002678,0.000431,0.096843
2354000,0.0324,0.013523,0.002678,0.000431,0.083445
2355000,0.0324,0.013523,0.002678,0.000431,0.081917
2356000,0.0324,0.013523,0.002678,0.000431,0.104835
2357000,0.0324,0.013523,0.002678,0.000431,0.103072
2358000,0.0324,0.013523,0.002678,0.000431,0.109301
2359000,0.0324,0.013523,0.002678,0.000431,0.109889
2360000,0.0324,0.013523,0.002678,0.000431,0.094963
2361000,0.0324,0.013523,0.002678,0.000431,0.109536
2362000,0.0324,0.013523,0.002678,0.000431,0.106833
2363000,0.0324,0.013523,0.002678,0.000431,0.109066
2364000,0.0324,0.013523,0.002678,0.000431,0.108361
2365000,0.0324,0.013523,0.002678,0.000431,0.115413
2366000,0.0324,0.013523,0.002678,0.000431,0.073455
2367000,0.0324,0.013523,0.002678,0.000431,0.116941
2368000,0.0324,0.013523,0.002678,0.000431,0.116000
2369000,0.0324,0.013523,0.002678,0.000431,0.098841
2370000,0.0324,0.013523,0.002678,0.000431,0.075571
2371000,0.0324,0.013523,0.002678,0.000431,0.117763
2372000,0.0324,0.013523,0.002678,0.000431,0.110947
2373000,0.0324,0.013523,0.002678,0.000431,0.092025
2374000,0.0324,0.013523,0.002678,0.000431,0.112710
2375000,0.0324,0.013523,0.002678,0.000431,0.093787
2376000,0.0324,0.013523,0.002678,0.000431,0.107538
2377000,0.0324,0.013523,0.002678,0.000431,0.129634
2378000,0.0324,0.013523,0.002678,0.000431,0.103895
2379000,0.0324,0.013523,0.002678,0.000431,0.104953
2380000,0.0324,0.013523,0.002678,0.000431,0.113415
2381000,0.0324,0.013523,0.002678,0.000431,0.093200
2382000,0.0324,0.013523,0.002678,0.000431,0.093787
2383000,0.0324,0.013523,0.002678,0.000431,0.094493
2384000,0.0324,0.013523,0.002678,0.000431,0.102014
2385000,0.0324,0.013523,0.002678,0.000431,0.107303
2386000,0.0324,0.013523,0.002678,0.000431,0.087676
2387000,0.0324,0.013523,0.002678,0.000431,0.087206
2388000,0.0324,0.013523,0.002678,0.000431,0.084973
2389000,0.0324,0.013523,0.002678,0.000431,0.096138
2390000,0.0324,0.013523,0.002678,0.000431,0.080977
2391000,0.0324,0.013523,0.002678,0.000431,0.114355
2392000,0.0324,0.013523,0.002678,0.000431,0.104953
2393000,0.0324,0.013523,0.002678,0.000431,0.096373
2394000,0.0324,0.013523,0.002678,0.000431,0.104953
2395000,0.0324,0.013523,0.002678,0.000431,0.090497
2396000,0.0324,0.013523,0.002678,0.000431,0.100252
2397000,0.0324,0.013523,0.002678,0.000431,0.108479
2398000,0.0324,0.013523,0.002678,0.000431,0.125520
2399000,0.0324,0.013523,0.002678,0.000431,0.102367
2400000,0.0324,0.013523,0.002678,0.000431,0.117293
2401000,0.0324,0.013523,0.002678,0.000431,0.104365
2402000,0.0324,0.013523,0.002678,0.000431,0.104483
2403000,0.0324,0.013523,0.002678,0.000431,0.115765
2404000,0.0324,0.013523,0.002678,0.000431,0.096726
2405000,0.0324,0.013523,0.002678,0.000431,0.086266
2406000,0.0324,0.013523,0.002678,0.000431,0.095903
2407000,0.0324,0.013523,0.002678,0.000431,0.099546
2408000,0.0324,0.013523,0.002678,0.000431,0.102720
2409000,0.0324,0.013523,0.002678,0.000431,0.103072
2410000,0.0324,0.013523,0.002678,0.000431,0.076981
2411000,0.0324,0.013523,0.002678,0.000431,0.098841
2412000,0.0324,0.013523,0.002678,0.000431,0.094728
2413000,0.0324,0.013523,0.002678,0.000431,0.093787
2414000,0.0324,0.013523,0.002678,0.000431,0.109536
2415000,0.0324,0.013523,0.002678,0.000431,0.079567
2416000,0.0324,0.013523,0.002678,0.000431,0.075218
2417000,0.0324,0.013523,0.002678,0.000431,0.098254
2418000,0.0324,0.013523,0.002678,0.000431,0.091554
2419000,0.0324,0.013523,0.002678,0.000431,0.087676
2420000,0.0324,0.013523,0.002678,0.000431,0.092495
2421000,0.0324,0.013523,0.002678,0.000431,0.096608
2422000,0.0324,0.013523,0.002678,0.000431,0.090027
2423000,0.0324,0.013523,0.002678,0.000431,0.085796
2424000,0.0324,0.013523,0.002678,0.000431,0.108361
2425000,0.0324,0.013523,0.002678,0.000431,0.090497
2426000,0.0324,0.013523,0.002678,0.000431,0.093317
2427000,0.0324,0.013523,0.002678,0.000431,0.086148
2428000,0.0324,0.013523,0.002678,0.000431,0.092025
2429000,0.0324,0.013523,0.002678,0.000431,0.094963
2430000,0.0324,0.013523,0.002678,0.000431,0.084738
2431000,0.0324,0.013523,0.002678,0.000431,0.116235
2432000,0.0324,0.013523,0.002678,0.000431,0.104600
2433000,0.0324,0.013523,0.002678,0.000431,0.083092
2434000,0.0324,0.013523,0.002678,0.000431,0.113180
2435000,0.0324,0.013523,0.002678,0.000431,0.081565
2436000,0.0324,0.013523,0.002678,0.000431,0.110947
2437000,0.0324,0.013523,0.002678,0.000431,0.085443
2438000,0.0324,0.013523,0.002678,0.000431,0.091437
2439000,0.0324,0.013523,0.002678,0.000431,0.080154
2440000,0.0324,0.013523,0.002678,0.000431,0.094375
2441000,0.0324,0.013523,0.002678,0.000431,0.079802
2442000,0.0324,0.013523,0.002678,0.000431,0.075923
2443000,0.0324,0.013523,0.002678,0.000431,0.100957
2444000,0.0324,0.013523,0.002678,0.000431,0.083210
2445000,0.0324,0.013523,0.002678,0.000431,0.099429
2446000,0.0324,0.013523,0.002678,0.000431,0.086618
2447000,0.0324,0.013523,0.002678,0.000431,0.089086
2448000,0.0324,0.013523,0.002678,0.000431,0.076511
2449000,0.0324,0.013523,0.002678,0.000431,0.093552
2450000,0.0324,0.013523,0.002678,0.000431,0.078039
2451000,0.0324,0.013523,0.002678,0.000431,0.087794
2452000,0.0324,0.013523,0.002678,0.000431,0.101779
2453000,0.0324,0.013523,0.002678,0.000431,0.103660
2454000,0.0324,0.013523,0.002678,0.000431,0.076981
2455000,0.0324,0.013523,0.002678,0.000431,0.081800
2456000,0.0324,0.013523,0.002678,0.000431,0.085090
2457000,0.0324,0.013523,0.002678,0.000431,0.081330
2458000,0.0324,0.013523,0.002678,0.000431,0.083798
2459000,0.0324,0.013523,0.002678,0.000431,0.094728
2460000,0.0324,0.013523,0.002678,0.000431,0.079449
2461000,0.0324,0.013523,0.002678,0.000431,0.065581
2462000,0.0324,0.013523,0.002678,0.000431,0.072162
2463000,0.0324,0.013523,0.002678,0.000431,0.068636
2464000,0.0324,0.013523,0.002678,0.000431,0.071340
2465000,0.0324,0.013523,0.002678,0.000431,0.083092
2466000,0.0324,0.013523,0.002678,0.000431,0.074865
2467000,0.0324,0.013523,0.002678,0.000431,0.076863
2468000,0.0324,0.013523,0.002678,0.000431,0.063818
2469000,0.0324,0.013523,0.002678,0.000431,0.070752
2470000,0.0324,0.013523,0.002678,0.000431,0.073338
2471000,0.0324,0.013523,0.002678,0.000431,0.061115
2472000,0.0324,0.013523,0.002678,0.000431,0.065228
2473000,0.0324,0.013523,0.002678,0.000431,0.076863
2474000,0.0324,0.013523,0.002678,0.000431,0.066638
2475000,0.0324,0.013523,0.002678,0.000431,0.071927
2476000,0.0324,0.013523,0.002678,0.000431,0.077216
2477000,0.0324,0.013523,0.002678,0.000431,0.088029
2478000,0.0324,0.013523,0.002678,0.000431,0.082035
2479000,0.0324,0.013523,0.002678,0.000431,0.080154
2480000,0.0324,0.013523,0.002678,0.000431,0.069694
2481000,0.0324,0.013523,0.002678,0.000431,0.059117
2482000,0.0324,0.013523,0.002678,0.000431,0.059822
2483000,0.0324,0.013523,0.002678,0.000431,0.080389
2484000,0.0324,0.013523,0.002678,0.000431,0.092495
2485000,0.0324,0.013523,0.002678,0.000431,0.091790
2486000,0.0324,0.013523,0.002678,0.000431,0.086618
2487000,0.0324,0.013523,0.002678,0.000431,0.067344
2488000,0.0324,0.013523,0.002678,0.000431,0.075688
2489000,0.0324,0.013523,0.002678,0.000431,0.072280
2490000,0.0324,0.013523,0.002678,0.000431,0.068166
2491000,0.0324,0.013523,0.002678,0.000431,0.086031
2492000,0.0324,0.013523,0.002678,0.000431,0.074865
2493000,0.0324,0.013523,0.002678,0.000431,0.059704
2494000,0.0324,0.013523,0.002678,0.000431,0.076393
2495000,0.0324,0.013523,0.002678,0.000431,0.073455
2496000,0.0324,0.013523,0.002678,0.000431,0.083680
2497000,0.0324,0.013523,0.002678,0.000431,0.079214
2498000,0.0324,0.013523,0.002678,0.000431,0.083563
2499000,0.0324,0.013523,0.002678,0.000431,0.065698
2500000,0.0324,0.013523,0.002678,0.000431,0.073220
2501000,0.0324,0.013523,0.002678,0.000431,0.066168
2502000,0.0324,0.013523,0.002678,0.000431,0.079802
2503000,0.0324,0.013523,0.002678,0.000431,0.078156
2504000,0.0324,0.013523,0.002678,0.000431,0.082622
2505000,0.0324,0.013523,0.002678,0.000431,0.082035
2506000,0.0324,0.013523,0.002678,0.000431,0.080154
2507000,0.0324,0.013523,0.002678,0.000431,0.066051
2508000,0.0324,0.013523,0.002678,0.000431,0.067461
2509000,0.0324,0.013523,0.002678,0.000431,0.068519
2510000,0.0324,0.013523,0.002678,0.000431,0.069929
2511000,0.0324,0.013523,0.002678,0.000431,0.076276
2512000,0.0324,0.013523,0.002678,0.000431,0.089321
2513000,0.0324,0.013523,0.002678,0.000431,0.077686
2514000,0.0324,0.013523,0.002678,0.000431,0.077098
2515000,0.0324,0.013523,0.002678,0.000431,0.077451
2516000,0.0324,0.013523,0.002678,0.000431,0.073690
2517000,0.0324,0.013523,0.002678,0.000431,0.057941
2518000,0.0324,0.013523,0.002678,0.000431,0.084268
2519000,0.0324,0.013523,0.002678,0.000431,0.062995
2520000,0.0324,0.013523,0.002678,0.000431,0.084973
2521000,0.0324,0.013523,0.002678,0.000431,0.076981
2522000,0.0324,0.013523,0.002678,0.000431,0.075336
2523000,0.0324,0.013523,0.002678,0.000431,0.065698
2524000,0.0324,0.013523,0.002678,0.000431,0.064876
2525000,0.0324,0.013523,0.002678,0.000431,0.084973
2526000,0.0324,0.013523,0.002678,0.000431,0.090262
2527000,0.0324,0.013523,0.002678,0.000431,0.060645
2528000,0.0324,0.013523,0.002678,0.000431,0.070987
2529000,0.0324,0.013523,0.002678,0.000431,0.056061
2530000,0.0324,0.013523,0.002678,0.000431,0.065816
2531000,0.0324,0.013523,0.002678,0.000431,0.062290
2532000,0.0324,0.013523,0.002678,0.000431,0.061937
2533000,0.0324,0.013523,0.002678,0.000431,0.060762
2534000,0.0324,0.013523,0.002678,0.000431,0.067696
2535000,0.0324,0.013523,0.002678,0.000431,0.063935
2536000,0.0324,0.013523,0.002678,0.000431,0.055826
2537000,0.0324,0.013523,0.002678,0.000431,0.075101
2538000,0.0324,0.013523,0.002678,0.000431,0.054651
2539000,0.0324,0.013523,0.002678,0.000431,0.062878
2540000,0.0324,0.013523,0.002678,0.000431,0.049009
2541000,0.0324,0.013523,0.002678,0.000431,0.066756
2542000,0.0324,0.013523,0.002678,0.000431,0.054416
2543000,0.0324,0.013523,0.002678,0.000431,0.070399
2544000,0.0324,0.013523,0.002678,0.000431,0.057706
2545000,0.0324,0.013523,0.002678,0.000431,0.059469
2546000,0.0324,0.013523,0.002678,0.000431,0.072515
2547000,0.0324,0.013523,0.002678,0.000431,0.066403
2548000,0.0324,0.013523,0.002678,0.000431,0.062290
2549000,0.0324,0.013523,0.002678,0.000431,0.057706
2550000,0.0324,0.013523,0.002678,0.000431,0.064523
2551000,0.0324,0.013523,0.002678,0.000431,0.053945
2552000,0.0324,0.013523,0.002678,0.000431,0.055356
2553000,0.0324,0.013523,0.002678,0.000431,0.050067
2554000,0.0324,0.013523,0.002678,0.000431,0.067344
2555000,0.0324,0.013523,0.002678,0.000431,0.056884
2556000,0.0324,0.013523,0.002678,0.000431,0.057941
2557000,0.0324,0.013523,0.002678,0.000431,0.045836
2558000,0.0324,0.013523,0.002678,0.000431,0.058294
2559000,0.0324,0.013523,0.002678,0.000431,0.071105
2560000,0.0324,0.013523,0.002678,0.000431,0.070399
2561000,0.0324,0.013523,0.002678,0.000431,0.050772
2562000,0.0324,0.013523,0.002678,0.000431,0.054533
2563000,0.0324,0.013523,0.002678,0.000431,0.066168
2564000,0.0324,0.013523,0.002678,0.000431,0.054651
2565000,0.0324,0.013523,0.002678,0.000431,0.044191
2566000,0.0324,0.013523,0.002678,0.000431,0.052888
2567000,0.0324,0.013523,0.002678,0.000431,0.068166
2568000,0.0324,0.013523,0.002678,0.000431,0.057941
2569000,0.0324,0.013523,0.002678,0.000431,0.062525
2570000,0.0324,0.013523,0.002678,0.000431,0.054063
2571000,0.0324,0.013523,0.002678,0.000431,0.072632
2572000,0.0324,0.013523,0.002678,0.000431,0.068989
2573000,0.0324,0.013523,0.002678,0.000431,0.051360
2574000,0.0324,0.013523,0.002678,0.000431,0.052300
2575000,0.0324,0.013523,0.002678,0.000431,0.053945
2576000,0.0324,0.013523,0.002678,0.000431,0.048539
2577000,0.0324,0.013523,0.002678,0.000431,0.046776
2578000,0.0324,0.013523,0.002678,0.000431,0.044661
2579000,0.0324,0.013523,0.002678,0.000431,0.056178
2580000,0.0324,0.013523,0.002678,0.000431,0.072632
2581000,0.0324,0.013523,0.002678,0.000431,0.053240
2582000,0.0324,0.013523,0.002678,0.000431,0.040195
2583000,0.0324,0.013523,0.002678,0.000431,0.052300
2584000,0.0324,0.013523,0.002678,0.000431,0.042310
2585000,0.0324,0.013523,0.002678,0.000431,0.046659
2586000,0.0324,0.013523,0.002678,0.000431,0.044073
2587000,0.0324,0.013523,0.002678,0.000431,0.041958
2588000,0.0324,0.013523,0.002678,0.000431,0.060645
2589000,0.0324,0.013523,0.002678,0.000431,0.069929
2590000,0.0324,0.013523,0.002678,0.000431,0.056884
2591000,0.0324,0.013523,0.002678,0.000431,0.048539
2592000,0.0324,0.013523,0.002678,0.000431,0.046894
2593000,0.0324,0.013523,0.002678,0.000431,0.034553
2594000,0.0324,0.013523,0.002678,0.000431,0.066403
2595000,0.0324,0.013523,0.002678,0.000431,0.059352
2596000,0.0324,0.013523,0.002678,0.000431,0.061232
2597000,0.0324,0.013523,0.002678,0.000431,0.044543
2598000,0.0324,0.013523,0.002678,0.000431,0.075453
2599000,0.0324,0.013523,0.002678,0.000431,0.045836
2600000,0.0324,0.013523,0.002678,0.000431,0.040195
2601000,0.0324,0.013523,0.002678,0.000431,0.049597
2602000,0.0324,0.013523,0.002678,0.000431,0.056531
2603000,0.0324,0.013523,0.002678,0.000431,0.051595
2604000,0.0324,0.013523,0.002678,0.000431,0.050420
2605000,0.0324,0.013523,0.002678,0.000431,0.051360
2606000,0.0324,0.013523,0.002678,0.000431,0.034201
2607000,0.0324,0.013523,0.002678,0.000431,0.057119
2608000,0.0324,0.013523,0.002678,0.000431,0.036434
2609000,0.0324,0.013523,0.002678,0.000431,0.029147
2610000,0.0324,0.013523,0.002678,0.000431,0.040782
2611000,0.0324,0.013523,0.002678,0.000431,0.051242
2612000,0.0324,0.013523,0.002678,0.000431,0.053593
2613000,0.0324,0.013523,0.002678,0.000431,0.042545
2614000,0.0324,0.013523,0.002678,0.000431,0.049714
2615000,0.0324,0.013523,0.002678,0.000431,0.053945
2616000,0.0324,0.013523,0.002678,0.000431,0.042075
2617000,0.0324,0.013523,0.002678,0.000431,0.048539
2618000,0.0324,0.013523,0.002678,0.000431,0.045954
2619000,0.0324,0.013523,0.002678,0.000431,0.046894
2620000,0.0324,0.013523,0.002678,0.000431,0.043720
2621000,0.0324,0.013523,0.002678,0.000431,0.043603
2622000,0.0324,0.013523,0.002678,0.000431,0.057706
2623000,0.0324,0.013523,0.002678,0.000431,0.051947
2624000,0.0324,0.013523,0.002678,0.000431,0.053945
2625000,0.0324,0.013523,0.002678,0.000431,0.051125
2626000,0.0324,0.013523,0.002678,0.000431,0.043133
2627000,0.0324,0.013523,0.002678,0.000431,0.042310
2628000,0.0324,0.013523,0.002678,0.000431,0.058412
2629000,0.0324,0.013523,0.002678,0.000431,0.059587
2630000,0.0324,0.013523,0.002678,0.000431,0.054768
2631000,0.0324,0.013523,0.002678,0.000431,0.068284
2632000,0.0324,0.013523,0.002678,0.000431,0.061350
2633000,0.0324,0.013523,0.002678,0.000431,0.060527
2634000,0.0324,0.013523,0.002678,0.000431,0.041723
2635000,0.0324,0.013523,0.002678,0.000431,0.046306
2636000,0.0324,0.013523,0.002678,0.000431,0.043485
2637000,0.0324,0.013523,0.002678,0.000431,0.060174
2638000,0.0324,0.013523,0.002678,0.000431,0.059234
2639000,0.0324,0.013523,0.002678,0.000431,0.048069
2640000,0.0324,0.013523,0.002678,0.000431,0.054768
2641000,0.0324,0.013523,0.002678,0.000431,0.046776
2642000,0.0324,0.013523,0.002678,0.000431,0.047951
2643000,0.0324,0.013523,0.002678,0.000431,0.044543
2644000,0.0324,0.013523,0.002678,0.000431,0.044543
2645000,0.0324,0.013523,0.002678,0.000431,0.060997
2646000,0.0324,0.013523,0.002678,0.000431,0.057706
2647000,0.0324,0.013523,0.002678,0.000431,0.043250
2648000,0.0324,0.013523,0.002678,0.000431,0.030557
2649000,0.0324,0.013523,0.002678,0.000431,0.058176
2650000,0.0324,0.013523,0.002678,0.000431,0.038079
2651000,0.0324,0.013523,0.002678,0.000431,0.029500
2652000,0.0324,0.013523,0.002678,0.000431,0.040077
2653000,0.0324,0.013523,0.002678,0.000431,0.037727
2654000,0.0324,0.013523,0.002678,0.000431,0.034671
2655000,0.0324,0.013523,0.002678,0.000431,0.032320
2656000,0.0324,0.013523,0.002678,0.000431,0.033731
2657000,0.0324,0.013523,0.002678,0.000431,0.037844
2658000,0.0324,0.013523,0.002678,0.000431,0.048187
2659000,0.0324,0.013523,0.002678,0.000431,0.037727
2660000,0.0324,0.013523,0.002678,0.000431,0.055121
2661000,0.0324,0.013523,0.002678,0.000431,0.042545
2662000,0.0324,0.013523,0.002678,0.000431,0.037256
2663000,0.0324,0.013523,0.002678,0.000431,0.033025
2664000,0.0324,0.013523,0.002678,0.000431,0.040077
2665000,0.0324,0.013523,0.002678,0.000431,0.049714
2666000,0.0324,0.013523,0.002678,0.000431,0.041487
2667000,0.0324,0.013523,0.002678,0.000431,0.026209
2668000,0.0324,0.013523,0.002678,0.000431,0.043603
2669000,0.0324,0.013523,0.002678,0.000431,0.041958
2670000,0.0324,0.013523,0.002678,0.000431,0.045718
2671000,0.0324,0.013523,0.002678,0.000431,0.028559
2672000,0.0324,0.013523,0.002678,0.000431,0.045954
2673000,0.0324,0.013523,0.002678,0.000431,0.040430
2674000,0.0324,0.013523,0.002678,0.000431,0.030792
2675000,0.0324,0.013523,0.002678,0.000431,0.053710
2676000,0.0324,0.013523,0.002678,0.000431,0.044426
2677000,0.0324,0.013523,0.002678,0.000431,0.042545
2678000,0.0324,0.013523,0.002678,0.000431,0.043015
2679000,0.0324,0.013523,0.002678,0.000431,0.038432
2680000,0.0324,0.013523,0.002678,0.000431,0.045718
2681000,0.0324,0.013523,0.002678,0.000431,0.061702
2682000,0.0324,0.013523,0.002678,0.000431,0.054298
2683000,0.0324,0.013523,0.002678,0.000431,0.053945
2684000,0.0324,0.013523,0.002678,0.000431,0.056414
2685000,0.0324,0.013523,0.002678,0.000431,0.046894
2686000,0.0324,0.013523,0.002678,0.000431,0.039725
2687000,0.0324,0.013523,0.002678,0.000431,0.042428
2688000,0.0324,0.013523,0.002678,0.000431,0.028794
2689000,0.0324,0.013523,0.002678,0.000431,0.038549
2690000,0.0324,0.013523,0.002678,0.000431,0.035494
2691000,0.0324,0.013523,0.002678,0.000431,0.034201
2692000,0.0324,0.013523,0.002678,0.000431,0.025504
2693000,0.0324,0.013523,0.002678,0.000431,0.040195
2694000,0.0324,0.013523,0.002678,0.000431,0.033613
2695000,0.0324,0.013523,0.002678,0.000431,0.025974
2696000,0.0324,0.013523,0.002678,0.000431,0.027267
2697000,0.0324,0.013523,0.002678,0.000431,0.047716
2698000,0.0324,0.013523,0.002678,0.000431,0.034436
2699000,0.0324,0.013523,0.002678,0.000431,0.031145
2700000,0.0324,0.013523,0.002678,0.000431,0.040195
2701000,0.0324,0.013523,0.002678,0.000431,0.037491
2702000,0.0324,0.013523,0.002678,0.000431,0.030440
2703000,0.0324,0.013523,0.002678,0.000431,0.031145
2704000,0.0324,0.013523,0.002678,0.000431,0.034906
2705000,0.0324,0.013523,0.002678,0.000431,0.032555
2706000,0.0324,0.013523,0.002678,0.000431,0.023271
2707000,0.0324,0.013523,0.002678,0.000431,0.025504
2708000,0.0324,0.013523,0.002678,0.000431,0.033731
2709000,0.0324,0.013523,0.002678,0.000431,0.026209
2710000,0.0324,0.013523,0.002678,0.000431,0.028794
2711000,0.0324,0.013523,0.002678,0.000431,0.037256
2712000,0.0324,0.013523,0.002678,0.000431,0.030910
2713000,0.0324,0.013523,0.002678,0.000431,0.040782
2714000,0.0324,0.013523,0.002678,0.000431,0.043485
2715000,0.0324,0.013523,0.002678,0.000431,0.042075
2716000,0.0324,0.013523,0.002678,0.000431,0.036434
2717000,0.0324,0.013523,0.002678,0.000431,0.035964
2718000,0.0324,0.013523,0.002678,0.000431,0.033378
2719000,0.0324,0.013523,0.002678,0.000431,0.041017
2720000,0.0324,0.013523,0.002678,0.000431,0.027031
2721000,0.0324,0.013523,0.002678,0.000431,0.033731
2722000,0.0324,0.013523,0.002678,0.000431,0.040900
2723000,0.0324,0.013523,0.002678,0.000431,0.039254
2724000,0.0324,0.013523,0.002678,0.000431,0.030205
2725000,0.0324,0.013523,0.002678,0.000431,0.027502
2726000,0.0324,0.013523,0.002678,0.000431,0.029382
2727000,0.0324,0.013523,0.002678,0.000431,0.040077
2728000,0.0324,0.013523,0.002678,0.000431,0.036199
2729000,0.0324,0.013523,0.002678,0.000431,0.027854
2730000,0.0324,0.013523,0.002678,0.000431,0.034906
2731000,0.0324,0.013523,0.002678,0.000431,0.045131
2732000,0.0324,0.013523,0.002678,0.000431,0.033731
2733000,0.0324,0.013523,0.002678,0.000431,0.041840
2734000,0.0324,0.013523,0.002678,0.000431,0.026914
2735000,0.0324,0.013523,0.002678,0.000431,0.034083
2736000,0.0324,0.013523,0.002678,0.000431,0.043015
2737000,0.0324,0.013523,0.002678,0.000431,0.039960
2738000,0.0324,0.013523,0.002678,0.000431,0.029970
2739000,0.0324,0.013523,0.002678,0.000431,0.033613
2740000,0.0324,0.013523,0.002678,0.000431,0.033025
2741000,0.0324,0.013523,0.002678,0.000431,0.020920
2742000,0.0324,0.013523,0.002678,0.000431,0.017864
2743000,0.0324,0.013523,0.002678,0.000431,0.031262
2744000,0.0324,0.013523,0.002678,0.000431,0.021978
2745000,0.0324,0.013523,0.002678,0.000431,0.046894
2746000,0.0324,0.013523,0.002678,0.000431,0.044191
2747000,0.0324,0.013523,0.002678,0.000431,0.048657
2748000,0.0324,0.013523,0.002678,0.000431,0.033025
2749000,0.0324,0.013523,0.002678,0.000431,0.027737
2750000,0.0324,0.013523,0.002678,0.000431,0.039960
2751000,0.0324,0.013523,0.002678,0.000431,0.037491
2752000,0.0324,0.013523,0.002678,0.000431,0.040782
2753000,0.0324,0.013523,0.002678,0.000431,0.034788
2754000,0.0324,0.013523,0.002678,0.000431,0.026444
2755000,0.0324,0.013523,0.002678,0.000431,0.027267
2756000,0.0324,0.013523,0.002678,0.000431,0.029382
2757000,0.0324,0.013523,0.002678,0.000431,0.033025
2758000,0.0324,0.013523,0.002678,0.000431,0.021978
2759000,0.0324,0.013523,0.002678,0.000431,0.041370
2760000,0.0324,0.013523,0.002678,0.000431,0.044426
2761000,0.0324,0.013523,0.002678,0.000431,0.026561
2762000,0.0324,0.013523,0.002678,0.000431,0.021155
2763000,0.0324,0.013523,0.002678,0.000431,0.032673
2764000,0.0324,0.013523,0.002678,0.000431,0.022095
2765000,0.0324,0.013523,0.002678,0.000431,0.046541
2766000,0.0324,0.013523,0.002678,0.000431,0.041135
2767000,0.0324,0.013523,0.002678,0.000431,0.043368
2768000,0.0324,0.013523,0.002678,0.000431,0.037491
2769000,0.0324,0.013523,0.002678,0.000431,0.019862
2770000,0.0324,0.013523,0.002678,0.000431,0.025034
2771000,0.0324,0.013523,0.002678,0.000431,0.031380
2772000,0.0324,0.013523,0.002678,0.000431,0.026679
2773000,0.0324,0.013523,0.002678,0.000431,0.021625
2774000,0.0324,0.013523,0.002678,0.000431,0.032203
2775000,0.0324,0.013523,0.002678,0.000431,0.032203
2776000,0.0324,0.013523,0.002678,0.000431,0.029265
2777000,0.0324,0.013523,0.002678,0.000431,0.030557
2778000,0.0324,0.013523,0.002678,0.000431,0.030205
2779000,0.0324,0.013523,0.002678,0.000431,0.027737
2780000,0.0324,0.013523,0.002678,0.000431,0.026679
2781000,0.0324,0.013523,0.002678,0.000431,0.036434
2782000,0.0324,0.013523,0.002678,0.000431,0.023388
2783000,0.0324,0.013523,0.002678,0.000431,0.019157
2784000,0.0324,0.013523,0.002678,0.000431,0.027384
2785000,0.0324,0.013523,0.002678,0.000431,0.031850
2786000,0.0324,0.013523,0.002678,0.000431,0.024446
2787000,0.0324,0.013523,0.002678,0.000431,0.018334
2788000,0.0324,0.013523,0.002678,0.000431,0.026209
2789000,0.0324,0.013523,0.002678,0.000431,0.031027
2790000,0.0324,0.013523,0.002678,0.000431,0.026914
2791000,0.0324,0.013523,0.002678,0.000431,0.022213
2792000,0.0324,0.013523,0.002678,0.000431,0.017159
2793000,0.0324,0.013523,0.002678,0.000431,0.025739
2794000,0.0324,0.013523,0.002678,0.000431,0.024211
2795000,0.0324,0.013523,0.002678,0.000431,0.027972
2796000,0.0324,0.013523,0.002678,0.000431,0.035964
2797000,0.0324,0.013523,0.002678,0.000431,0.028677
2798000,0.0324,0.013523,0.002678,0.000431,0.022565
2799000,0.0324,0.013523,0.002678,0.000431,0.032555
2800000,0.0324,0.013523,0.002678,0.000431,0.023623
2801000,0.0324,0.013523,0.002678,0.000431,0.018922
2802000,0.0324,0.013523,0.002678,0.000431,0.023858
2803000,0.0324,0.013523,0.002678,0.000431,0.032438
2804000,0.0324,0.013523,0.002678,0.000431,0.028912
2805000,0.0324,0.013523,0.002678,0.000431,0.039725
2806000,0.0324,0.013523,0.002678,0.000431,0.023623
2807000,0.0324,0.013523,0.002678,0.000431,0.016101
2808000,0.0324,0.013523,0.002678,0.000431,0.034553
2809000,0.0324,0.013523,0.002678,0.000431,0.028794
2810000,0.0324,0.013523,0.002678,0.000431,0.033025
2811000,0.0324,0.013523,0.002678,0.000431,0.031027
2812000,0.0324,0.013523,0.002678,0.000431,0.029970
2813000,0.0324,0.013523,0.002678,0.000431,0.021743
2814000,0.0324,0.013523,0.002678,0.000431,0.022683
2815000,0.0324,0.013523,0.002678,0.000431,0.027149
2816000,0.0324,0.013523,0.002678,0.000431,0.035023
2817000,0.0324,0.013523,0.002678,0.000431,0.033496
2818000,0.0324,0.013523,0.002678,0.000431,0.025386
2819000,0.0324,0.013523,0.002678,0.000431,0.026444
2820000,0.0324,0.013523,0.002678,0.000431,0.033848
2821000,0.0324,0.013523,0.002678,0.000431,0.043250
2822000,0.0324,0.013523,0.002678,0.000431,0.028442
2823000,0.0324,0.013523,0.002678,0.000431,0.035023
2824000,0.0324,0.013523,0.002678,0.000431,0.033025
2825000,0.0324,0.013523,0.002678,0.000431,0.024211
2826000,0.0324,0.013523,0.002678,0.000431,0.017512
2827000,0.0324,0.013523,0.002678,0.000431,0.019745
2828000,0.0324,0.013523,0.002678,0.000431,0.022565
2829000,0.0324,0.013523,0.002678,0.000431,0.024681
2830000,0.0324,0.013523,0.002678,0.000431,0.028089
2831000,0.0324,0.013523,0.002678,0.000431,0.024328
2832000,0.0324,0.013523,0.002678,0.000431,0.029029
2833000,0.0324,0.013523,0.002678,0.000431,0.031027
2834000,0.0324,0.013523,0.002678,0.000431,0.023036
2835000,0.0324,0.013523,0.002678,0.000431,0.026914
2836000,0.0324,0.013523,0.002678,0.000431,0.026326
2837000,0.0324,0.013523,0.002678,0.000431,0.021508
2838000,0.0324,0.013523,0.002678,0.000431,0.024093
2839000,0.0324,0.013523,0.002678,0.000431,0.020685
2840000,0.0324,0.013523,0.002678,0.000431,0.021860
2841000,0.0324,0.013523,0.002678,0.000431,0.025856
2842000,0.0324,0.013523,0.002678,0.000431,0.027619
2843000,0.0324,0.013523,0.002678,0.000431,0.026326
2844000,0.0324,0.013523,0.002678,0.000431,0.016336
2845000,0.0324,0.013523,0.002678,0.000431,0.025974
2846000,0.0324,0.013523,0.002678,0.000431,0.017864
2847000,0.0324,0.013523,0.002678,0.000431,0.024446
2848000,0.0324,0.013523,0.002678,0.000431,0.022800
2849000,0.0324,0.013523,0.002678,0.000431,0.019862
2850000,0.0324,0.013523,0.002678,0.000431,0.011048
2851000,0.0324,0.013523,0.002678,0.000431,0.019392
2852000,0.0324,0.013523,0.002678,0.000431,0.027502
2853000,0.0324,0.013523,0.002678,0.000431,0.026091
2854000,0.0324,0.013523,0.002678,0.000431,0.030675
2855000,0.0324,0.013523,0.002678,0.000431,0.033731
2856000,0.0324,0.013523,0.002678,0.000431,0.026091
2857000,0.0324,0.013523,0.002678,0.000431,0.018099
2858000,0.0324,0.013523,0.002678,0.000431,0.019745
2859000,0.0324,0.013523,0.002678,0.000431,0.023388
2860000,0.0324,0.013523,0.002678,0.000431,0.012340
2861000,0.0324,0.013523,0.002678,0.000431,0.021273
2862000,0.0324,0.013523,0.002678,0.000431,0.026209
2863000,0.0324,0.013523,0.002678,0.000431,0.022918
2864000,0.0324,0.013523,0.002678,0.000431,0.020802
2865000,0.0324,0.013523,0.002678,0.000431,0.018805
2866000,0.0324,0.013523,0.002678,0.000431,0.012811
2867000,0.0324,0.013523,0.002678,0.000431,0.023976
2868000,0.0324,0.013523,0.002678,0.000431,0.026561
2869000,0.0324,0.013523,0.002678,0.000431,0.026679
2870000,0.0324,0.013523,0.002678,0.000431,0.025504
2871000,0.0324,0.013523,0.002678,0.000431,0.013633
2872000,0.0324,0.013523,0.002678,0.000431,0.013163
2873000,0.0324,0.013523,0.002678,0.000431,0.019157
2874000,0.0324,0.013523,0.002678,0.000431,0.019862
2875000,0.0324,0.013523,0.002678,0.000431,0.024798
2876000,0.0324,0.013523,0.002678,0.000431,0.030675
2877000,0.0324,0.013523,0.002678,0.000431,0.044073
2878000,0.0324,0.013523,0.002678,0.000431,0.025269
2879000,0.0324,0.013523,0.002678,0.000431,0.033966
2880000,0.0324,0.013523,0.002678,0.000431,0.012458
2881000,0.0324,0.013523,0.002678,0.000431,0.017277
2882000,0.0324,0.013523,0.002678,0.000431,0.010342
2883000,0.0324,0.013523,0.002678,0.000431,0.023623
2884000,0.0324,0.013523,0.002678,0.000431,0.017982
2885000,0.0324,0.013523,0.002678,0.000431,0.026796
2886000,0.0324,0.013523,0.002678,0.000431,0.027737
2887000,0.0324,0.013523,0.002678,0.000431,0.027972
2888000,0.0324,0.013523,0.002678,0.000431,0.018687
2889000,0.0324,0.013523,0.002678,0.000431,0.018099
2890000,0.0324,0.013523,0.002678,0.000431,0.015749
2891000,0.0324,0.013523,0.002678,0.000431,0.019862
2892000,0.0324,0.013523,0.002678,0.000431,0.013046
2893000,0.0324,0.013523,0.002678,0.000431,0.015044
2894000,0.0324,0.013523,0.002678,0.000431,0.010813
2895000,0.0324,0.013523,0.002678,0.000431,0.009990
2896000,0.0324,0.013523,0.002678,0.000431,0.018334
2897000,0.0324,0.013523,0.002678,0.000431,0.019157
2898000,0.0324,0.013523,0.002678,0.000431,0.028912
2899000,0.0324,0.013523,0.002678,0.000431,0.016689
2900000,0.0324,0.013523,0.002678,0.000431,0.013046
2901000,0.0324,0.013523,0.002678,0.000431,0.012576
2902000,0.0324,0.013523,0.002678,0.000431,0.019157
2903000,0.0324,0.013523,0.002678,0.000431,0.022213
2904000,0.0324,0.013523,0.002678,0.000431,0.014456
2905000,0.0324,0.013523,0.002678,0.000431,0.027149
2906000,0.0324,0.013523,0.002678,0.000431,0.011753
2907000,0.0324,0.013523,0.002678,0.000431,0.031380
2908000,0.0324,0.013523,0.002678,0.000431,0.010225
2909000,0.0324,0.013523,0.002678,0.000431,0.017042
2910000,0.0324,0.013523,0.002678,0.000431,0.009285
2911000,0.0324,0.013523,0.002678,0.000431,0.018099
2912000,0.0324,0.013523,0.002678,0.000431,0.019627
2913000,0.0324,0.013523,0.002678,0.000431,0.026209
2914000,0.0324,0.013523,0.002678,0.000431,0.017747
2915000,0.0324,0.013523,0.002678,0.000431,0.021273
2916000,0.0324,0.013523,0.002678,0.000431,0.028207
2917000,0.0324,0.013523,0.002678,0.000431,0.017982
2918000,0.0324,0.013523,0.002678,0.000431,0.016924
2919000,0.0324,0.013523,0.002678,0.000431,0.015161
2920000,0.0324,0.013523,0.002678,0.000431,0.011518
2921000,0.0324,0.013523,0.002678,0.000431,0.020920
2922000,0.0324,0.013523,0.002678,0.000431,0.017277
2923000,0.0324,0.013523,0.002678,0.000431,0.021978
2924000,0.0324,0.013523,0.002678,0.000431,0.021038
2925000,0.0324,0.013523,0.002678,0.000431,0.025856
2926000,0.0324,0.013523,0.002678,0.000431,0.024093
2927000,0.0324,0.013523,0.002678,0.000431,0.011988
2928000,0.0324,0.013523,0.002678,0.000431,0.010225
2929000,0.0324,0.013523,0.002678,0.000431,0.018099
2930000,0.0324,0.013523,0.002678,0.000431,0.012576
2931000,0.0324,0.013523,0.002678,0.000431,0.015044
2932000,0.0324,0.013523,0.002678,0.000431,0.013163
2933000,0.0324,0.013523,0.002678,0.000431,0.010695
2934000,0.0324,0.013523,0.002678,0.000431,0.011635
2935000,0.0324,0.013523,0.002678,0.000431,0.025504
2936000,0.0324,0.013523,0.002678,0.000431,0.028677
2937000,0.0324,0.013523,0.002678,0.000431,0.010578
2938000,0.0324,0.013523,0.002678,0.000431,0.015749
2939000,0.0324,0.013523,0.002678,0.000431,0.025151
2940000,0.0324,0.013523,0.002678,0.000431,0.018452
2941000,0.0324,0.013523,0.002678,0.000431,0.024563
2942000,0.0324,0.013523,0.002678,0.000431,0.019040
2943000,0.0324,0.013523,0.002678,0.000431,0.011753
2944000,0.0324,0.013523,0.002678,0.000431,0.019862
2945000,0.0324,0.013523,0.002678,0.000431,0.019745
2946000,0.0324,0.013523,0.002678,0.000431,0.034788
2947000,0.0324,0.013523,0.002678,0.000431,0.021390
2948000,0.0324,0.013523,0.002678,0.000431,0.025034
2949000,0.0324,0.013523,0.002678,0.000431,0.016454
2950000,0.0324,0.013523,0.002678,0.000431,0.014573
2951000,0.0324,0.013523,0.002678,0.000431,0.026679
2952000,0.0324,0.013523,0.002678,0.000431,0.012105
2953000,0.0324,0.013523,0.002678,0.000431,0.010578
2954000,0.0324,0.013523,0.002678,0.000431,0.014573
2955000,0.0324,0.013523,0.002678,0.000431,0.021038
2956000,0.0324,0.013523,0.002678,0.000431,0.011753
2957000,0.0324,0.013523,0.002678,0.000431,0.011753
2958000,0.0324,0.013523,0.002678,0.000431,0.020802
2959000,0.0324,0.013523,0.002678,0.000431,0.012811
2960000,0.0324,0.013523,0.002678,0.000431,0.007522
2961000,0.0324,0.013523,0.002678,0.000431,0.019040
2962000,0.0324,0.013523,0.002678,0.000431,0.013633
2963000,0.0324,0.013523,0.002678,0.000431,0.014338
2964000,0.0324,0.013523,0.002678,0.000431,0.017042
2965000,0.0324,0.013523,0.002678,0.000431,0.014103
2966000,0.0324,0.013523,0.002678,0.000431,0.008815
2967000,0.0324,0.013523,0.002678,0.000431,0.019392
2968000,0.0324,0.013523,0.002678,0.000431,0.009520
2969000,0.0324,0.013523,0.002678,0.000431,0.020450
2970000,0.0324,0.013523,0.002678,0.000431,0.012576
2971000,0.0324,0.013523,0.002678,0.000431,0.009402
2972000,0.0324,0.013523,0.002678,0.000431,0.012811
2973000,0.0324,0.013523,0.002678,0.000431,0.016336
2974000,0.0324,0.013523,0.002678,0.000431,0.011165
2975000,0.0324,0.013523,0.002678,0.000431,0.015161
2976000,0.0324,0.013523,0.002678,0.000431,0.013633
2977000,0.0324,0.013523,0.002678,0.000431,0.011988
2978000,0.0324,0.013523,0.002678,0.000431,0.017629
2979000,0.0324,0.013523,0.002678,0.000431,0.014809
2980000,0.0324,0.013523,0.002678,0.000431,0.012693
2981000,0.0324,0.013523,0.002678,0.000431,0.014103
2982000,0.0324,0.013523,0.002678,0.000431,0.015984
2983000,0.0324,0.013523,0.002678,0.000431,0.037374
2984000,0.0324,0.013523,0.002678,0.000431,0.007287
2985000,0.0324,0.013523,0.002678,0.000431,0.020097
2986000,0.0324,0.013523,0.002678,0.000431,0.009285
2987000,0.0324,0.013523,0.002678,0.000431,0.020450
2988000,0.0324,0.013523,0.002678,0.000431,0.013751
2989000,0.0324,0.013523,0.002678,0.000431,0.010695
2990000,0.0324,0.013523,0.002678,0.000431,0.018687
2991000,0.0324,0.013523,0.002678,0.000431,0.017864
2992000,0.0324,0.013523,0.002678,0.000431,0.015749
2993000,0.0324,0.013523,0.002678,0.000431,0.020802
2994000,0.0324,0.013523,0.002678,0.000431,0.008932
2995000,0.0324,0.013523,0.002678,0.000431,0.020097
2996000,0.0324,0.013523,0.002678,0.000431,0.012105
2997000,0.0324,0.013523,0.002678,0.000431,0.015749
2998000,0.0324,0.013523,0.002678,0.000431,0.013046
2999000,0.0324,0.013523,0.002678,0.000431,0.015514
