Cycle,Area(mm^2),PeakDynamic(W),SubthresholdLeakage(W),GateLeakage(W),RunTimeDynamic(W)
3000000,0.0324,0.013523,0.002678,0.000431,0.024093
3001000,0.0324,0.013523,0.002678,0.000431,0.016571
3002000,0.0324,0.013523,0.002678,0.000431,0.005171
3003000,0.0324,0.013523,0.002678,0.000431,0.016807
3004000,0.0324,0.013523,0.002678,0.000431,0.012340
3005000,0.0324,0.013523,0.002678,0.000431,0.020567
3006000,0.0324,0.013523,0.002678,0.000431,0.013046
3007000,0.0324,0.013523,0.002678,0.000431,0.005054
3008000,0.0324,0.013523,0.002678,0.000431,0.007874
3009000,0.0324,0.013523,0.002678,0.000431,0.011400
3010000,0.0324,0.013523,0.002678,0.000431,0.014573
3011000,0.0324,0.013523,0.002678,0.000431,0.010695
3012000,0.0324,0.013523,0.002678,0.000431,0.009285
3013000,0.0324,0.013523,0.002678,0.000431,0.018687
3014000,0.0324,0.013523,0.002678,0.000431,0.009167
3015000,0.0324,0.013523,0.002678,0.000431,0.007874
3016000,0.0324,0.013523,0.002678,0.000431,0.016454
3017000,0.0324,0.013523,0.002678,0.000431,0.013281
3018000,0.0324,0.013523,0.002678,0.000431,0.011048
3019000,0.0324,0.013523,0.002678,0.000431,0.014926
3020000,0.0324,0.013523,0.002678,0.000431,0.018217
3021000,0.0324,0.013523,0.002678,0.000431,0.015044
3022000,0.0324,0.013523,0.002678,0.000431,0.016454
3023000,0.0324,0.013523,0.002678,0.000431,0.012693
3024000,0.0324,0.013523,0.002678,0.000431,0.014338
3025000,0.0324,0.013523,0.002678,0.000431,0.017042
3026000,0.0324,0.013523,0.002678,0.000431,0.014221
3027000,0.0324,0.013523,0.002678,0.000431,0.020332
3028000,0.0324,0.013523,0.002678,0.000431,0.008815
3029000,0.0324,0.013523,0.002678,0.000431,0.014691
3030000,0.0324,0.013523,0.002678,0.000431,0.007287
3031000,0.0324,0.013523,0.002678,0.000431,0.008580
3032000,0.0324,0.013523,0.002678,0.000431,0.007992
3033000,0.0324,0.013523,0.002678,0.000431,0.014338
3034000,0.0324,0.013523,0.002678,0.000431,0.014809
3035000,0.0324,0.013523,0.002678,0.000431,0.011518
3036000,0.0324,0.013523,0.002678,0.000431,0.006699
3037000,0.0324,0.013523,0.002678,0.000431,0.015396
3038000,0.0324,0.013523,0.002678,0.000431,0.008227
3039000,0.0324,0.013523,0.002678,0.000431,0.010578
3040000,0.0324,0.013523,0.002678,0.000431,0.016689
3041000,0.0324,0.013523,0.002678,0.000431,0.009872
3042000,0.0324,0.013523,0.002678,0.000431,0.019980
3043000,0.0324,0.013523,0.002678,0.000431,0.012458
3044000,0.0324,0.013523,0.002678,0.000431,0.010225
3045000,0.0324,0.013523,0.002678,0.000431,0.013516
3046000,0.0324,0.013523,0.002678,0.000431,0.016336
3047000,0.0324,0.013523,0.002678,0.000431,0.010813
3048000,0.0324,0.013523,0.002678,0.000431,0.016101
3049000,0.0324,0.013523,0.002678,0.000431,0.007639
3050000,0.0324,0.013523,0.002678,0.000431,0.013046
3051000,0.0324,0.013523,0.002678,0.000431,0.025151
3052000,0.0324,0.013523,0.002678,0.000431,0.009990
3053000,0.0324,0.013523,0.002678,0.000431,0.011635
3054000,0.0324,0.013523,0.002678,0.000431,0.016807
3055000,0.0324,0.013523,0.002678,0.000431,0.015631
3056000,0.0324,0.013523,0.002678,0.000431,0.015749
3057000,0.0324,0.013523,0.002678,0.000431,0.015984
3058000,0.0324,0.013523,0.002678,0.000431,0.009990
3059000,0.0324,0.013523,0.002678,0.000431,0.007992
3060000,0.0324,0.013523,0.002678,0.000431,0.010578
3061000,0.0324,0.013523,0.002678,0.000431,0.012458
3062000,0.0324,0.013523,0.002678,0.000431,0.010695
3063000,0.0324,0.013523,0.002678,0.000431,0.016101
3064000,0.0324,0.013523,0.002678,0.000431,0.020802
3065000,0.0324,0.013523,0.002678,0.000431,0.007992
3066000,0.0324,0.013523,0.002678,0.000431,0.010695
3067000,0.0324,0.013523,0.002678,0.000431,0.007992
3068000,0.0324,0.013523,0.002678,0.000431,0.018687
3069000,0.0324,0.013523,0.002678,0.000431,0.010813
3070000,0.0324,0.013523,0.002678,0.000431,0.016689
3071000,0.0324,0.013523,0.002678,0.000431,0.015279
3072000,0.0324,0.013523,0.002678,0.000431,0.010225
3073000,0.0324,0.013523,0.002678,0.000431,0.014103
3074000,0.0324,0.013523,0.002678,0.000431,0.020567
3075000,0.0324,0.013523,0.002678,0.000431,0.011870
3076000,0.0324,0.013523,0.002678,0.000431,0.015514
3077000,0.0324,0.013523,0.002678,0.000431,0.013868
3078000,0.0324,0.013523,0.002678,0.000431,0.011283
3079000,0.0324,0.013523,0.002678,0.000431,0.008109
3080000,0.0324,0.013523,0.002678,0.000431,0.008580
3081000,0.0324,0.013523,0.002678,0.000431,0.006817
3082000,0.0324,0.013523,0.002678,0.000431,0.011283
3083000,0.0324,0.013523,0.002678,0.000431,0.009872
3084000,0.0324,0.013523,0.002678,0.000431,0.007757
3085000,0.0324,0.013523,0.002678,0.000431,0.009990
3086000,0.0324,0.013523,0.002678,0.000431,0.017512
3087000,0.0324,0.013523,0.002678,0.000431,0.013046
3088000,0.0324,0.013523,0.002678,0.000431,0.011988
3089000,0.0324,0.013523,0.002678,0.000431,0.012105
3090000,0.0324,0.013523,0.002678,0.000431,0.014221
3091000,0.0324,0.013523,0.002678,0.000431,0.011635
3092000,0.0324,0.013523,0.002678,0.000431,0.010225
3093000,0.0324,0.013523,0.002678,0.000431,0.010460
3094000,0.0324,0.013523,0.002678,0.000431,0.005406
3095000,0.0324,0.013523,0.002678,0.000431,0.009167
3096000,0.0324,0.013523,0.002678,0.000431,0.014456
3097000,0.0324,0.013523,0.002678,0.000431,0.019157
3098000,0.0324,0.013523,0.002678,0.000431,0.012105
3099000,0.0324,0.013523,0.002678,0.000431,0.009990
3100000,0.0324,0.013523,0.002678,0.000431,0.004584
3101000,0.0324,0.013523,0.002678,0.000431,0.009285
3102000,0.0324,0.013523,0.002678,0.000431,0.015396
3103000,0.0324,0.013523,0.002678,0.000431,0.006111
3104000,0.0324,0.013523,0.002678,0.000431,0.006111
3105000,0.0324,0.013523,0.002678,0.000431,0.014691
3106000,0.0324,0.013523,0.002678,0.000431,0.009637
3107000,0.0324,0.013523,0.002678,0.000431,0.009050
3108000,0.0324,0.013523,0.002678,0.000431,0.006464
3109000,0.0324,0.013523,0.002678,0.000431,0.013986
3110000,0.0324,0.013523,0.002678,0.000431,0.006229
3111000,0.0324,0.013523,0.002678,0.000431,0.007874
3112000,0.0324,0.013523,0.002678,0.000431,0.007639
3113000,0.0324,0.013523,0.002678,0.000431,0.009990
3114000,0.0324,0.013523,0.002678,0.000431,0.006111
3115000,0.0324,0.013523,0.002678,0.000431,0.015984
3116000,0.0324,0.013523,0.002678,0.000431,0.009520
3117000,0.0324,0.013523,0.002678,0.000431,0.014573
3118000,0.0324,0.013523,0.002678,0.000431,0.010225
3119000,0.0324,0.013523,0.002678,0.000431,0.005641
3120000,0.0324,0.013523,0.002678,0.000431,0.015984
3121000,0.0324,0.013523,0.002678,0.000431,0.012576
3122000,0.0324,0.013523,0.002678,0.000431,0.006347
3123000,0.0324,0.013523,0.002678,0.000431,0.009637
3124000,0.0324,0.013523,0.002678,0.000431,0.014691
3125000,0.0324,0.013523,0.002678,0.000431,0.006464
3126000,0.0324,0.013523,0.002678,0.000431,0.010695
3127000,0.0324,0.013523,0.002678,0.000431,0.006347
3128000,0.0324,0.013523,0.002678,0.000431,0.009167
3129000,0.0324,0.013523,0.002678,0.000431,0.004584
3130000,0.0324,0.013523,0.002678,0.000431,0.009637
3131000,0.0324,0.013523,0.002678,0.000431,0.006817
3132000,0.0324,0.013523,0.002678,0.000431,0.005289
3133000,0.0324,0.013523,0.002678,0.000431,0.008815
3134000,0.0324,0.013523,0.002678,0.000431,0.015044
3135000,0.0324,0.013523,0.002678,0.000431,0.007169
3136000,0.0324,0.013523,0.002678,0.000431,0.007874
3137000,0.0324,0.013523,0.002678,0.000431,0.005994
3138000,0.0324,0.013523,0.002678,0.000431,0.008932
3139000,0.0324,0.013523,0.002678,0.000431,0.008580
3140000,0.0324,0.013523,0.002678,0.000431,0.007287
3141000,0.0324,0.013523,0.002678,0.000431,0.012223
3142000,0.0324,0.013523,0.002678,0.000431,0.017864
3143000,0.0324,0.013523,0.002678,0.000431,0.009990
3144000,0.0324,0.013523,0.002678,0.000431,0.005054
3145000,0.0324,0.013523,0.002678,0.000431,0.008815
3146000,0.0324,0.013523,0.002678,0.000431,0.012105
3147000,0.0324,0.013523,0.002678,0.000431,0.008932
3148000,0.0324,0.013523,0.002678,0.000431,0.007052
3149000,0.0324,0.013523,0.002678,0.000431,0.005171
3150000,0.0324,0.013523,0.002678,0.000431,0.004819
3151000,0.0324,0.013523,0.002678,0.000431,0.006817
3152000,0.0324,0.013523,0.002678,0.000431,0.007757
3153000,0.0324,0.013523,0.002678,0.000431,0.005876
3154000,0.0324,0.013523,0.002678,0.000431,0.005054
3155000,0.0324,0.013523,0.002678,0.000431,0.004231
3156000,0.0324,0.013523,0.002678,0.000431,0.011635
3157000,0.0324,0.013523,0.002678,0.000431,0.009872
3158000,0.0324,0.013523,0.002678,0.000431,0.007757
3159000,0.0324,0.013523,0.002678,0.000431,0.004466
3160000,0.0324,0.013523,0.002678,0.000431,0.003526
3161000,0.0324,0.013523,0.002678,0.000431,0.006229
3162000,0.0324,0.013523,0.002678,0.000431,0.012340
3163000,0.0324,0.013523,0.002678,0.000431,0.005054
3164000,0.0324,0.013523,0.002678,0.000431,0.011165
3165000,0.0324,0.013523,0.002678,0.000431,0.004936
3166000,0.0324,0.013523,0.002678,0.000431,0.010460
3167000,0.0324,0.013523,0.002678,0.000431,0.005171
3168000,0.0324,0.013523,0.002678,0.000431,0.004113
3169000,0.0324,0.013523,0.002678,0.000431,0.005759
3170000,0.0324,0.013523,0.002678,0.000431,0.008462
3171000,0.0324,0.013523,0.002678,0.000431,0.004819
3172000,0.0324,0.013523,0.002678,0.000431,0.012576
3173000,0.0324,0.013523,0.002678,0.000431,0.005641
3174000,0.0324,0.013523,0.002678,0.000431,0.004466
3175000,0.0324,0.013523,0.002678,0.000431,0.005759
3176000,0.0324,0.013523,0.002678,0.000431,0.010578
3177000,0.0324,0.013523,0.002678,0.000431,0.007287
3178000,0.0324,0.013523,0.002678,0.000431,0.007639
3179000,0.0324,0.013523,0.002678,0.000431,0.008580
3180000,0.0324,0.013523,0.002678,0.000431,0.003408
3181000,0.0324,0.013523,0.002678,0.000431,0.005641
3182000,0.0324,0.013523,0.002678,0.000431,0.005289
3183000,0.0324,0.013523,0.002678,0.000431,0.007757
3184000,0.0324,0.013523,0.002678,0.000431,0.009050
3185000,0.0324,0.013523,0.002678,0.000431,0.003643
3186000,0.0324,0.013523,0.002678,0.000431,0.003173
3187000,0.0324,0.013523,0.002678,0.000431,0.004936
3188000,0.0324,0.013523,0.002678,0.000431,0.003291
3189000,0.0324,0.013523,0.002678,0.000431,0.006111
3190000,0.0324,0.013523,0.002678,0.000431,0.005524
3191000,0.0324,0.013523,0.002678,0.000431,0.006934
3192000,0.0324,0.013523,0.002678,0.000431,0.002938
3193000,0.0324,0.013523,0.002678,0.000431,0.003761
3194000,0.0324,0.013523,0.002678,0.000431,0.006111
3195000,0.0324,0.013523,0.002678,0.000431,0.005876
3196000,0.0324,0.013523,0.002678,0.000431,0.002938
3197000,0.0324,0.013523,0.002678,0.000431,0.003408
3198000,0.0324,0.013523,0.002678,0.000431,0.002468
3199000,0.0324,0.013523,0.002678,0.000431,0.007404
3200000,0.0324,0.013523,0.002678,0.000431,0.003056
3201000,0.0324,0.013523,0.002678,0.000431,0.003291
3202000,0.0324,0.013523,0.002678,0.000431,0.002703
3203000,0.0324,0.013523,0.002678,0.000431,0.003291
3204000,0.0324,0.013523,0.002678,0.000431,0.003526
3205000,0.0324,0.013523,0.002678,0.000431,0.003878
3206000,0.0324,0.013523,0.002678,0.000431,0.003056
3207000,0.0324,0.013523,0.002678,0.000431,0.002938
3208000,0.0324,0.013523,0.002678,0.000431,0.001880
3209000,0.0324,0.013523,0.002678,0.000431,0.003408
3210000,0.0324,0.013523,0.002678,0.000431,0.001998
3211000,0.0324,0.013523,0.002678,0.000431,0.002116
3212000,0.0324,0.013523,0.002678,0.000431,0.001645
3213000,0.0324,0.013523,0.002678,0.000431,0.002821
3214000,0.0324,0.013523,0.002678,0.000431,0.001880
3215000,0.0324,0.013523,0.002678,0.000431,0.004349
3216000,0.0324,0.013523,0.002678,0.000431,0.004466
3217000,0.0324,0.013523,0.002678,0.000431,0.003761
3218000,0.0324,0.013523,0.002678,0.000431,0.002938
3219000,0.0324,0.013523,0.002678,0.000431,0.002116
3220000,0.0324,0.013523,0.002678,0.000431,0.003056
3221000,0.0324,0.013523,0.002678,0.000431,0.003526
3222000,0.0324,0.013523,0.002678,0.000431,0.000823
3223000,0.0324,0.013523,0.002678,0.000431,0.000705
3224000,0.0324,0.013523,0.002678,0.000431,0.003408
3225000,0.0324,0.013523,0.002678,0.000431,0.001175
3226000,0.0324,0.013523,0.002678,0.000431,0.000940
3227000,0.0324,0.013523,0.002678,0.000431,0.001175
3228000,0.0324,0.013523,0.002678,0.000431,0.001058
3229000,0.0324,0.013523,0.002678,0.000431,0.003173
3230000,0.0324,0.013523,0.002678,0.000431,0.002938
3231000,0.0324,0.013523,0.002678,0.000431,0.001293
3232000,0.0324,0.013523,0.002678,0.000431,0.001293
3233000,0.0324,0.013523,0.002678,0.000431,0.001058
3234000,0.0324,0.013523,0.002678,0.000431,0.005994
3235000,0.0324,0.013523,0.002678,0.000431,0.001175
3236000,0.0324,0.013523,0.002678,0.000431,0.002233
3237000,0.0324,0.013523,0.002678,0.000431,0.004584
3238000,0.0324,0.013523,0.002678,0.000431,0.000823
3239000,0.0324,0.013523,0.002678,0.000431,0.001293
3240000,0.0324,0.013523,0.002678,0.000431,0.000940
3241000,0.0324,0.013523,0.002678,0.000431,0.002468
3242000,0.0324,0.013523,0.002678,0.000431,0.003291
3243000,0.0324,0.013523,0.002678,0.000431,0.001880
3244000,0.0324,0.013523,0.002678,0.000431,0.000940
3245000,0.0324,0.013523,0.002678,0.000431,0.001175
3246000,0.0324,0.013523,0.002678,0.000431,0.000823
3247000,0.0324,0.013523,0.002678,0.000431,0.000470
3248000,0.0324,0.013523,0.002678,0.000431,0.001998
3249000,0.0324,0.013523,0.002678,0.000431,0.001058
3250000,0.0324,0.013523,0.002678,0.000431,0.001175
3251000,0.0324,0.013523,0.002678,0.000431,0.001880
3252000,0.0324,0.013523,0.002678,0.000431,0.006464
3253000,0.0324,0.013523,0.002678,0.000431,0.002233
3254000,0.0324,0.013523,0.002678,0.000431,0.003291
3255000,0.0324,0.013523,0.002678,0.000431,0.001410
3256000,0.0324,0.013523,0.002678,0.000431,0.001058
3257000,0.0324,0.013523,0.002678,0.000431,0.003056
3258000,0.0324,0.013523,0.002678,0.000431,0.001998
3259000,0.0324,0.013523,0.002678,0.000431,0.001293
3260000,0.0324,0.013523,0.002678,0.000431,0.001880
3261000,0.0324,0.013523,0.002678,0.000431,0.002468
3262000,0.0324,0.013523,0.002678,0.000431,0.000823
3263000,0.0324,0.013523,0.002678,0.000431,0.000705
3264000,0.0324,0.013523,0.002678,0.000431,0.001998
3265000,0.0324,0.013523,0.002678,0.000431,0.001293
3266000,0.0324,0.013523,0.002678,0.000431,0.006582
3267000,0.0324,0.013523,0.002678,0.000431,0.001058
3268000,0.0324,0.013523,0.002678,0.000431,0.001998
3269000,0.0324,0.013523,0.002678,0.000431,0.003173
3270000,0.0324,0.013523,0.002678,0.000431,0.001058
3271000,0.0324,0.013523,0.002678,0.000431,0.001998
3272000,0.0324,0.013523,0.002678,0.000431,0.001293
3273000,0.0324,0.013523,0.002678,0.000431,0.001645
3274000,0.0324,0.013523,0.002678,0.000431,0.005759
3275000,0.0324,0.013523,0.002678,0.000431,0.002468
3276000,0.0324,0.013523,0.002678,0.000431,0.000940
3277000,0.0324,0.013523,0.002678,0.000431,0.004113
3278000,0.0324,0.013523,0.002678,0.000431,0.001293
3279000,0.0324,0.013523,0.002678,0.000431,0.001058
3280000,0.0324,0.013523,0.002678,0.000431,0.001528
3281000,0.0324,0.013523,0.002678,0.000431,0.001410
3282000,0.0324,0.013523,0.002678,0.000431,0.001058
3283000,0.0324,0.013523,0.002678,0.000431,0.000823
3284000,0.0324,0.013523,0.002678,0.000431,0.000705
3285000,0.0324,0.013523,0.002678,0.000431,0.001175
3286000,0.0324,0.013523,0.002678,0.000431,0.000705
3287000,0.0324,0.013523,0.002678,0.000431,0.003291
3288000,0.0324,0.013523,0.002678,0.000431,0.000705
3289000,0.0324,0.013523,0.002678,0.000431,0.000705
3290000,0.0324,0.013523,0.002678,0.000431,0.001410
3291000,0.0324,0.013523,0.002678,0.000431,0.005054
3292000,0.0324,0.013523,0.002678,0.000431,0.000705
3293000,0.0324,0.013523,0.002678,0.000431,0.003408
3294000,0.0324,0.013523,0.002678,0.000431,0.005054
3295000,0.0324,0.013523,0.002678,0.000431,0.001058
3296000,0.0324,0.013523,0.002678,0.000431,0.000588
3297000,0.0324,0.013523,0.002678,0.000431,0.003056
3298000,0.0324,0.013523,0.002678,0.000431,0.000823
3299000,0.0324,0.013523,0.002678,0.000431,0.000705
3300000,0.0324,0.013523,0.002678,0.000431,0.001293
3301000,0.0324,0.013523,0.002678,0.000431,0.000823
3302000,0.0324,0.013523,0.002678,0.000431,0.001528
3303000,0.0324,0.013523,0.002678,0.000431,0.001880
3304000,0.0324,0.013523,0.002678,0.000431,0.000705
3305000,0.0324,0.013523,0.002678,0.000431,0.002468
3306000,0.0324,0.013523,0.002678,0.000431,0.000823
3307000,0.0324,0.013523,0.002678,0.000431,0.001058
3308000,0.0324,0.013523,0.002678,0.000431,0.001175
3309000,0.0324,0.013523,0.002678,0.000431,0.001880
3310000,0.0324,0.013523,0.002678,0.000431,0.002938
3311000,0.0324,0.013523,0.002678,0.000431,0.000940
3312000,0.0324,0.013523,0.002678,0.000431,0.000823
3313000,0.0324,0.013523,0.002678,0.000431,0.003291
3314000,0.0324,0.013523,0.002678,0.000431,0.001528
3315000,0.0324,0.013523,0.002678,0.000431,0.001293
3316000,0.0324,0.013523,0.002678,0.000431,0.001175
3317000,0.0324,0.013523,0.002678,0.000431,0.002821
3318000,0.0324,0.013523,0.002678,0.000431,0.000823
3319000,0.0324,0.013523,0.002678,0.000431,0.002351
3320000,0.0324,0.013523,0.002678,0.000431,0.001880
3321000,0.0324,0.013523,0.002678,0.000431,0.001293
3322000,0.0324,0.013523,0.002678,0.000431,0.003996
3323000,0.0324,0.013523,0.002678,0.000431,0.001058
3324000,0.0324,0.013523,0.002678,0.000431,0.002586
3325000,0.0324,0.013523,0.002678,0.000431,0.001998
3326000,0.0324,0.013523,0.002678,0.000431,0.001058
3327000,0.0324,0.013523,0.002678,0.000431,0.002233
3328000,0.0324,0.013523,0.002678,0.000431,0.005054
3329000,0.0324,0.013523,0.002678,0.000431,0.007404
3330000,0.0324,0.013523,0.002678,0.000431,0.002468
3331000,0.0324,0.013523,0.002678,0.000431,0.003173
3332000,0.0324,0.013523,0.002678,0.000431,0.000940
3333000,0.0324,0.013523,0.002678,0.000431,0.001410
3334000,0.0324,0.013523,0.002678,0.000431,0.000940
3335000,0.0324,0.013523,0.002678,0.000431,0.000940
3336000,0.0324,0.013523,0.002678,0.000431,0.001175
3337000,0.0324,0.013523,0.002678,0.000431,0.001058
3338000,0.0324,0.013523,0.002678,0.000431,0.001528
3339000,0.0324,0.013523,0.002678,0.000431,0.001058
3340000,0.0324,0.013523,0.002678,0.000431,0.000940
3341000,0.0324,0.013523,0.002678,0.000431,0.001998
3342000,0.0324,0.013523,0.002678,0.000431,0.001410
3343000,0.0324,0.013523,0.002678,0.000431,0.000940
3344000,0.0324,0.013523,0.002678,0.000431,0.000823
3345000,0.0324,0.013523,0.002678,0.000431,0.000823
3346000,0.0324,0.013523,0.002678,0.000431,0.001645
3347000,0.0324,0.013523,0.002678,0.000431,0.001058
3348000,0.0324,0.013523,0.002678,0.000431,0.001763
3349000,0.0324,0.013523,0.002678,0.000431,0.001528
3350000,0.0324,0.013523,0.002678,0.000431,0.000823
3351000,0.0324,0.013523,0.002678,0.000431,0.001410
3352000,0.0324,0.013523,0.002678,0.000431,0.000588
