Cycle,Area(mm^2),PeakDynamic(W),SubthresholdLeakage(W),GateLeakage(W),RunTimeDynamic(W)
1000,0.0324,0.013523,0.002678,0.000431,0.000000
2000,0.0324,0.013523,0.002678,0.000431,0.000000
3000,0.0324,0.013523,0.002678,0.000431,0.000000
4000,0.0324,0.013523,0.002678,0.000431,0.000000
5000,0.0324,0.013523,0.002678,0.000431,0.000000
6000,0.0324,0.013523,0.002678,0.000431,1.731190
7000,0.0324,0.013523,0.002678,0.000431,1.312085
8000,0.0324,0.013523,0.002678,0.000431,2.235269
9000,0.0324,0.013523,0.002678,0.000431,1.262370
10000,0.0324,0.013523,0.002678,0.000431,1.048939
11000,0.0324,0.013523,0.002678,0.000431,0.992996
12000,0.0324,0.013523,0.002678,0.000431,0.703054
13000,0.0324,0.013523,0.002678,0.000431,0.683426
14000,0.0324,0.013523,0.002678,0.000431,0.582000
15000,0.0324,0.013523,0.002678,0.000431,0.571540
16000,0.0324,0.013523,0.002678,0.000431,0.588816
17000,0.0324,0.013523,0.002678,0.000431,0.534401
18000,0.0324,0.013523,0.002678,0.000431,0.455422
19000,0.0324,0.013523,0.002678,0.000431,0.434149
20000,0.0324,0.013523,0.002678,0.000431,0.423101
21000,0.0324,0.013523,0.002678,0.000431,0.518887
22000,0.0324,0.013523,0.002678,0.000431,0.446607
23000,0.0324,0.013523,0.002678,0.000431,0.399361
24000,0.0324,0.013523,0.002678,0.000431,0.434854
25000,0.0324,0.013523,0.002678,0.000431,0.358226
26000,0.0324,0.013523,0.002678,0.000431,0.288884
27000,0.0324,0.013523,0.002678,0.000431,0.340479
28000,0.0324,0.013523,0.002678,0.000431,0.359519
29000,0.0324,0.013523,0.002678,0.000431,0.395482
30000,0.0324,0.013523,0.002678,0.000431,0.360224
31000,0.0324,0.013523,0.002678,0.000431,0.352937
32000,0.0324,0.013523,0.002678,0.000431,0.378323
33000,0.0324,0.013523,0.002678,0.000431,0.316856
34000,0.0324,0.013523,0.002678,0.000431,0.451778
35000,0.0324,0.013523,0.002678,0.000431,0.431093
36000,0.0324,0.013523,0.002678,0.000431,0.379616
37000,0.0324,0.013523,0.002678,0.000431,0.410056
38000,0.0324,0.013523,0.002678,0.000431,0.382789
39000,0.0324,0.013523,0.002678,0.000431,0.426627
40000,0.0324,0.013523,0.002678,0.000431,0.340127
41000,0.0324,0.013523,0.002678,0.000431,0.356816
42000,0.0324,0.013523,0.002678,0.000431,0.439790
43000,0.0324,0.013523,0.002678,0.000431,0.382202
44000,0.0324,0.013523,0.002678,0.000431,0.322850
45000,0.0324,0.013523,0.002678,0.000431,0.310745
46000,0.0324,0.013523,0.002678,0.000431,0.327786
47000,0.0324,0.013523,0.002678,0.000431,0.344828
48000,0.0324,0.013523,0.002678,0.000431,0.347296
49000,0.0324,0.013523,0.002678,0.000431,0.386903
50000,0.0324,0.013523,0.002678,0.000431,0.428978
51000,0.0324,0.013523,0.002678,0.000431,0.414169
52000,0.0324,0.013523,0.002678,0.000431,0.300402
53000,0.0324,0.013523,0.002678,0.000431,0.320617
54000,0.0324,0.013523,0.002678,0.000431,0.370096
55000,0.0324,0.013523,0.002678,0.000431,0.421456
56000,0.0324,0.013523,0.002678,0.000431,0.370449
57000,0.0324,0.013523,0.002678,0.000431,0.410291
58000,0.0324,0.013523,0.002678,0.000431,0.319207
59000,0.0324,0.013523,0.002678,0.000431,0.294526
60000,0.0324,0.013523,0.002678,0.000431,0.285946
61000,0.0324,0.013523,0.002678,0.000431,0.294878
62000,0.0324,0.013523,0.002678,0.000431,0.538397
63000,0.0324,0.013523,0.002678,0.000431,0.574008
64000,0.0324,0.013523,0.002678,0.000431,0.551677
65000,0.0324,0.013523,0.002678,0.000431,0.523353
66000,0.0324,0.013523,0.002678,0.000431,0.504431
67000,0.0324,0.013523,0.002678,0.000431,0.541217
68000,0.0324,0.013523,0.002678,0.000431,0.504078
69000,0.0324,0.013523,0.002678,0.000431,0.443434
70000,0.0324,0.013523,0.002678,0.000431,0.448135
71000,0.0324,0.013523,0.002678,0.000431,0.450721
72000,0.0324,0.013523,0.002678,0.000431,0.616788
73000,0.0324,0.013523,0.002678,0.000431,0.650283
74000,0.0324,0.013523,0.002678,0.000431,0.501258
75000,0.0324,0.013523,0.002678,0.000431,0.588346
76000,0.0324,0.013523,0.002678,0.000431,0.682604
77000,0.0324,0.013523,0.002678,0.000431,0.668853
78000,0.0324,0.013523,0.002678,0.000431,0.638766
79000,0.0324,0.013523,0.002678,0.000431,0.652281
80000,0.0324,0.013523,0.002678,0.000431,0.773570
81000,0.0324,0.013523,0.002678,0.000431,0.817291
82000,0.0324,0.013523,0.002678,0.000431,0.764521
83000,0.0324,0.013523,0.002678,0.000431,0.821640
84000,0.0324,0.013523,0.002678,0.000431,0.883694
85000,0.0324,0.013523,0.002678,0.000431,0.924829
86000,0.0324,0.013523,0.002678,0.000431,0.998637
87000,0.0324,0.013523,0.002678,0.000431,1.031427
88000,0.0324,0.013523,0.002678,0.000431,0.916485
89000,0.0324,0.013523,0.002678,0.000431,1.045648
90000,0.0324,0.013523,0.002678,0.000431,0.954564
91000,0.0324,0.013523,0.002678,0.000431,1.058224
92000,0.0324,0.013523,0.002678,0.000431,1.014268
93000,0.0324,0.013523,0.002678,0.000431,1.087723
94000,0.0324,0.013523,0.002678,0.000431,1.091014
95000,0.0324,0.013523,0.002678,0.000431,1.179513
96000,0.0324,0.013523,0.002678,0.000431,1.128506
97000,0.0324,0.013523,0.002678,0.000431,1.090309
98000,0.0324,0.013523,0.002678,0.000431,1.180806
99000,0.0324,0.013523,0.002678,0.000431,1.040947
100000,0.0324,0.013523,0.002678,0.000431,1.301272
101000,0.0324,0.013523,0.002678,0.000431,1.157535
102000,0.0324,0.013523,0.002678,0.000431,1.127213
103000,0.0324,0.013523,0.002678,0.000431,1.325835
104000,0.0324,0.013523,0.002678,0.000431,1.146958
105000,0.0324,0.013523,0.002678,0.000431,1.417155
106000,0.0324,0.013523,0.002678,0.000431,1.140376
107000,0.0324,0.013523,0.002678,0.000431,1.449122
108000,0.0324,0.013523,0.002678,0.000431,1.194086
109000,0.0324,0.013523,0.002678,0.000431,1.431376
110000,0.0324,0.013523,0.002678,0.000431,1.209835
111000,0.0324,0.013523,0.002678,0.000431,1.456292
112000,0.0324,0.013523,0.002678,0.000431,1.236632
113000,0.0324,0.013523,0.002678,0.000431,1.408340
114000,0.0324,0.013523,0.002678,0.000431,1.266836
115000,0.0324,0.013523,0.002678,0.000431,1.493548
116000,0.0324,0.013523,0.002678,0.000431,1.308441
117000,0.0324,0.013523,0.002678,0.000431,1.559599
118000,0.0324,0.013523,0.002678,0.000431,0.852667
119000,0.0324,0.013523,0.002678,0.000431,0.068401
120000,0.0324,0.013523,0.002678,0.000431,0.020332
121000,0.0324,0.013523,0.002678,0.000431,0.017629
122000,0.0324,0.013523,0.002678,0.000431,0.018334
123000,0.0324,0.013523,0.002678,0.000431,0.019745
124000,0.0324,0.013523,0.002678,0.000431,0.017042
125000,0.0324,0.013523,0.002678,0.000431,0.016924
126000,0.0324,0.013523,0.002678,0.000431,0.018099
127000,0.0324,0.013523,0.002678,0.000431,0.015514
128000,0.0324,0.013523,0.002678,0.000431,0.015044
129000,0.0324,0.013523,0.002678,0.000431,0.014926
130000,0.0324,0.013523,0.002678,0.000431,0.015984
131000,0.0324,0.013523,0.002678,0.000431,0.012576
132000,0.0324,0.013523,0.002678,0.000431,0.013986
133000,0.0324,0.013523,0.002678,0.000431,0.013281
134000,0.0324,0.013523,0.002678,0.000431,0.011870
135000,0.0324,0.013523,0.002678,0.000431,0.012223
136000,0.0324,0.013523,0.002678,0.000431,0.013046
137000,0.0324,0.013523,0.002678,0.000431,0.011988
138000,0.0324,0.013523,0.002678,0.000431,0.012458
139000,0.0324,0.013523,0.002678,0.000431,0.011753
140000,0.0324,0.013523,0.002678,0.000431,0.012105
141000,0.0324,0.013523,0.002678,0.000431,0.011283
142000,0.0324,0.013523,0.002678,0.000431,0.012576
143000,0.0324,0.013523,0.002678,0.000431,0.012105
144000,0.0324,0.013523,0.002678,0.000431,0.011635
145000,0.0324,0.013523,0.002678,0.000431,0.011753
146000,0.0324,0.013523,0.002678,0.000431,0.012693
147000,0.0324,0.013523,0.002678,0.000431,0.011518
148000,0.0324,0.013523,0.002678,0.000431,0.010930
149000,0.0324,0.013523,0.002678,0.000431,0.011400
150000,0.0324,0.013523,0.002678,0.000431,0.012223
151000,0.0324,0.013523,0.002678,0.000431,0.010578
152000,0.0324,0.013523,0.002678,0.000431,0.011870
153000,0.0324,0.013523,0.002678,0.000431,0.012223
154000,0.0324,0.013523,0.002678,0.000431,0.011635
155000,0.0324,0.013523,0.002678,0.000431,0.011635
156000,0.0324,0.013523,0.002678,0.000431,0.012105
157000,0.0324,0.013523,0.002678,0.000431,0.011048
158000,0.0324,0.013523,0.002678,0.000431,0.010107
159000,0.0324,0.013523,0.002678,0.000431,0.009755
160000,0.0324,0.013523,0.002678,0.000431,0.010225
161000,0.0324,0.013523,0.002678,0.000431,0.008932
162000,0.0324,0.013523,0.002678,0.000431,0.010225
163000,0.0324,0.013523,0.002678,0.000431,0.009520
164000,0.0324,0.013523,0.002678,0.000431,0.010578
165000,0.0324,0.013523,0.002678,0.000431,0.007874
166000,0.0324,0.013523,0.002678,0.000431,0.008462
167000,0.0324,0.013523,0.002678,0.000431,0.009167
168000,0.0324,0.013523,0.002678,0.000431,0.007287
169000,0.0324,0.013523,0.002678,0.000431,0.007404
170000,0.0324,0.013523,0.002678,0.000431,0.007404
171000,0.0324,0.013523,0.002678,0.000431,0.007874
172000,0.0324,0.013523,0.002678,0.000431,0.006699
173000,0.0324,0.013523,0.002678,0.000431,0.007874
174000,0.0324,0.013523,0.002678,0.000431,0.007052
175000,0.0324,0.013523,0.002678,0.000431,0.006582
176000,0.0324,0.013523,0.002678,0.000431,0.006347
177000,0.0324,0.013523,0.002678,0.000431,0.006464
178000,0.0324,0.013523,0.002678,0.000431,0.005994
179000,0.0324,0.013523,0.002678,0.000431,0.005641
180000,0.0324,0.013523,0.002678,0.000431,0.006347
181000,0.0324,0.013523,0.002678,0.000431,0.006111
182000,0.0324,0.013523,0.002678,0.000431,0.005524
183000,0.0324,0.013523,0.002678,0.000431,0.005406
184000,0.0324,0.013523,0.002678,0.000431,0.005759
185000,0.0324,0.013523,0.002678,0.000431,0.005524
186000,0.0324,0.013523,0.002678,0.000431,0.004701
187000,0.0324,0.013523,0.002678,0.000431,0.005289
188000,0.0324,0.013523,0.002678,0.000431,0.004936
189000,0.0324,0.013523,0.002678,0.000431,0.005759
190000,0.0324,0.013523,0.002678,0.000431,0.004584
191000,0.0324,0.013523,0.002678,0.000431,0.005641
192000,0.0324,0.013523,0.002678,0.000431,0.004701
193000,0.0324,0.013523,0.002678,0.000431,0.004584
194000,0.0324,0.013523,0.002678,0.000431,0.005641
195000,0.0324,0.013523,0.002678,0.000431,0.004584
196000,0.0324,0.013523,0.002678,0.000431,0.004113
197000,0.0324,0.013523,0.002678,0.000431,0.004936
198000,0.0324,0.013523,0.002678,0.000431,0.004466
199000,0.0324,0.013523,0.002678,0.000431,0.004349
200000,0.0324,0.013523,0.002678,0.000431,0.004113
201000,0.0324,0.013523,0.002678,0.000431,0.005054
202000,0.0324,0.013523,0.002678,0.000431,0.004936
203000,0.0324,0.013523,0.002678,0.000431,0.004113
204000,0.0324,0.013523,0.002678,0.000431,0.003996
205000,0.0324,0.013523,0.002678,0.000431,0.004231
206000,0.0324,0.013523,0.002678,0.000431,0.003996
207000,0.0324,0.013523,0.002678,0.000431,0.004113
208000,0.0324,0.013523,0.002678,0.000431,0.004349
209000,0.0324,0.013523,0.002678,0.000431,0.004231
210000,0.0324,0.013523,0.002678,0.000431,0.003996
211000,0.0324,0.013523,0.002678,0.000431,0.004231
212000,0.0324,0.013523,0.002678,0.000431,0.003761
213000,0.0324,0.013523,0.002678,0.000431,0.004113
214000,0.0324,0.013523,0.002678,0.000431,0.003996
215000,0.0324,0.013523,0.002678,0.000431,0.004584
216000,0.0324,0.013523,0.002678,0.000431,0.004113
217000,0.0324,0.013523,0.002678,0.000431,0.003878
218000,0.0324,0.013523,0.002678,0.000431,0.004231
219000,0.0324,0.013523,0.002678,0.000431,0.004113
220000,0.0324,0.013523,0.002678,0.000431,0.003996
221000,0.0324,0.013523,0.002678,0.000431,0.003761
222000,0.0324,0.013523,0.002678,0.000431,0.004584
223000,0.0324,0.013523,0.002678,0.000431,0.004231
224000,0.0324,0.013523,0.002678,0.000431,0.003878
225000,0.0324,0.013523,0.002678,0.000431,0.004466
226000,0.0324,0.013523,0.002678,0.000431,0.004584
227000,0.0324,0.013523,0.002678,0.000431,0.003761
228000,0.0324,0.013523,0.002678,0.000431,0.004113
229000,0.0324,0.013523,0.002678,0.000431,0.004231
230000,0.0324,0.013523,0.002678,0.000431,0.003996
231000,0.0324,0.013523,0.002678,0.000431,0.003878
232000,0.0324,0.013523,0.002678,0.000431,0.004819
233000,0.0324,0.013523,0.002678,0.000431,0.003878
234000,0.0324,0.013523,0.002678,0.000431,0.003996
235000,0.0324,0.013523,0.002678,0.000431,0.003996
236000,0.0324,0.013523,0.002678,0.000431,0.004113
237000,0.0324,0.013523,0.002678,0.000431,0.004113
238000,0.0324,0.013523,0.002678,0.000431,0.004231
239000,0.0324,0.013523,0.002678,0.000431,0.003996
240000,0.0324,0.013523,0.002678,0.000431,0.004466
241000,0.0324,0.013523,0.002678,0.000431,0.003526
242000,0.0324,0.013523,0.002678,0.000431,0.004466
243000,0.0324,0.013523,0.002678,0.000431,0.004113
244000,0.0324,0.013523,0.002678,0.000431,0.004231
245000,0.0324,0.013523,0.002678,0.000431,0.004113
246000,0.0324,0.013523,0.002678,0.000431,0.003878
247000,0.0324,0.013523,0.002678,0.000431,0.004113
248000,0.0324,0.013523,0.002678,0.000431,0.003056
249000,0.0324,0.013523,0.002678,0.000431,0.003878
250000,0.0324,0.013523,0.002678,0.000431,0.004113
251000,0.0324,0.013523,0.002678,0.000431,0.003526
252000,0.0324,0.013523,0.002678,0.000431,0.002938
253000,0.0324,0.013523,0.002678,0.000431,0.004231
254000,0.0324,0.013523,0.002678,0.000431,0.003408
255000,0.0324,0.013523,0.002678,0.000431,0.003408
256000,0.0324,0.013523,0.002678,0.000431,0.003878
257000,0.0324,0.013523,0.002678,0.000431,0.004113
258000,0.0324,0.013523,0.002678,0.000431,0.004113
259000,0.0324,0.013523,0.002678,0.000431,0.002468
260000,0.0324,0.013523,0.002678,0.000431,0.003173
261000,0.0324,0.013523,0.002678,0.000431,0.003056
262000,0.0324,0.013523,0.002678,0.000431,0.002821
263000,0.0324,0.013523,0.002678,0.000431,0.003173
264000,0.0324,0.013523,0.002678,0.000431,0.003526
265000,0.0324,0.013523,0.002678,0.000431,0.002703
266000,0.0324,0.013523,0.002678,0.000431,0.002586
267000,0.0324,0.013523,0.002678,0.000431,0.003291
268000,0.0324,0.013523,0.002678,0.000431,0.003056
269000,0.0324,0.013523,0.002678,0.000431,0.002586
270000,0.0324,0.013523,0.002678,0.000431,0.003291
271000,0.0324,0.013523,0.002678,0.000431,0.003408
272000,0.0324,0.013523,0.002678,0.000431,0.002468
273000,0.0324,0.013523,0.002678,0.000431,0.002938
274000,0.0324,0.013523,0.002678,0.000431,0.003408
275000,0.0324,0.013523,0.002678,0.000431,0.002938
276000,0.0324,0.013523,0.002678,0.000431,0.002703
277000,0.0324,0.013523,0.002678,0.000431,0.003173
278000,0.0324,0.013523,0.002678,0.000431,0.003056
279000,0.0324,0.013523,0.002678,0.000431,0.002703
280000,0.0324,0.013523,0.002678,0.000431,0.002938
281000,0.0324,0.013523,0.002678,0.000431,0.003526
282000,0.0324,0.013523,0.002678,0.000431,0.003056
283000,0.0324,0.013523,0.002678,0.000431,0.002586
284000,0.0324,0.013523,0.002678,0.000431,0.002938
285000,0.0324,0.013523,0.002678,0.000431,0.003173
286000,0.0324,0.013523,0.002678,0.000431,0.002586
287000,0.0324,0.013523,0.002678,0.000431,0.003173
288000,0.0324,0.013523,0.002678,0.000431,0.003643
289000,0.0324,0.013523,0.002678,0.000431,0.002821
290000,0.0324,0.013523,0.002678,0.000431,0.002586
291000,0.0324,0.013523,0.002678,0.000431,0.003173
292000,0.0324,0.013523,0.002678,0.000431,0.003056
293000,0.0324,0.013523,0.002678,0.000431,0.002586
294000,0.0324,0.013523,0.002678,0.000431,0.003291
295000,0.0324,0.013523,0.002678,0.000431,0.003526
296000,0.0324,0.013523,0.002678,0.000431,0.002703
297000,0.0324,0.013523,0.002678,0.000431,0.003526
298000,0.0324,0.013523,0.002678,0.000431,0.002821
299000,0.0324,0.013523,0.002678,0.000431,0.003291
300000,0.0324,0.013523,0.002678,0.000431,0.002233
301000,0.0324,0.013523,0.002678,0.000431,0.003526
302000,0.0324,0.013523,0.002678,0.000431,0.001880
303000,0.0324,0.013523,0.002678,0.000431,0.001998
304000,0.0324,0.013523,0.002678,0.000431,0.001880
305000,0.0324,0.013523,0.002678,0.000431,0.002116
306000,0.0324,0.013523,0.002678,0.000431,0.001998
307000,0.0324,0.013523,0.002678,0.000431,0.001998
308000,0.0324,0.013523,0.002678,0.000431,0.002116
309000,0.0324,0.013523,0.002678,0.000431,0.001998
310000,0.0324,0.013523,0.002678,0.000431,0.001763
311000,0.0324,0.013523,0.002678,0.000431,0.001998
312000,0.0324,0.013523,0.002678,0.000431,0.002233
313000,0.0324,0.013523,0.002678,0.000431,0.001880
314000,0.0324,0.013523,0.002678,0.000431,0.002116
315000,0.0324,0.013523,0.002678,0.000431,0.001998
316000,0.0324,0.013523,0.002678,0.000431,0.002821
317000,0.0324,0.013523,0.002678,0.000431,0.001293
318000,0.0324,0.013523,0.002678,0.000431,0.001763
319000,0.0324,0.013523,0.002678,0.000431,0.001880
320000,0.0324,0.013523,0.002678,0.000431,0.001763
321000,0.0324,0.013523,0.002678,0.000431,0.001528
322000,0.0324,0.013523,0.002678,0.000431,0.001645
323000,0.0324,0.013523,0.002678,0.000431,0.001645
324000,0.0324,0.013523,0.002678,0.000431,0.001528
325000,0.0324,0.013523,0.002678,0.000431,0.001763
326000,0.0324,0.013523,0.002678,0.000431,0.001880
327000,0.0324,0.013523,0.002678,0.000431,0.001645
328000,0.0324,0.013523,0.002678,0.000431,0.001645
329000,0.0324,0.013523,0.002678,0.000431,0.001645
330000,0.0324,0.013523,0.002678,0.000431,0.001528
331000,0.0324,0.013523,0.002678,0.000431,0.001645
332000,0.0324,0.013523,0.002678,0.000431,0.002233
333000,0.0324,0.013523,0.002678,0.000431,0.001528
334000,0.0324,0.013523,0.002678,0.000431,0.001293
335000,0.0324,0.013523,0.002678,0.000431,0.001175
336000,0.0324,0.013523,0.002678,0.000431,0.001293
337000,0.0324,0.013523,0.002678,0.000431,0.001528
338000,0.0324,0.013523,0.002678,0.000431,0.001293
339000,0.0324,0.013523,0.002678,0.000431,0.001293
340000,0.0324,0.013523,0.002678,0.000431,0.001528
341000,0.0324,0.013523,0.002678,0.000431,0.001175
342000,0.0324,0.013523,0.002678,0.000431,0.001175
343000,0.0324,0.013523,0.002678,0.000431,0.001410
344000,0.0324,0.013523,0.002678,0.000431,0.001528
345000,0.0324,0.013523,0.002678,0.000431,0.001293
346000,0.0324,0.013523,0.002678,0.000431,0.001175
347000,0.0324,0.013523,0.002678,0.000431,0.001528
348000,0.0324,0.013523,0.002678,0.000431,0.001880
349000,0.0324,0.013523,0.002678,0.000431,0.000940
350000,0.0324,0.013523,0.002678,0.000431,0.001058
351000,0.0324,0.013523,0.002678,0.000431,0.001058
352000,0.0324,0.013523,0.002678,0.000431,0.000940
353000,0.0324,0.013523,0.002678,0.000431,0.001058
354000,0.0324,0.013523,0.002678,0.000431,0.001058
355000,0.0324,0.013523,0.002678,0.000431,0.000705
356000,0.0324,0.013523,0.002678,0.000431,0.001058
357000,0.0324,0.013523,0.002678,0.000431,0.001175
358000,0.0324,0.013523,0.002678,0.000431,0.000940
359000,0.0324,0.013523,0.002678,0.000431,0.000940
360000,0.0324,0.013523,0.002678,0.000431,0.001175
361000,0.0324,0.013523,0.002678,0.000431,0.000940
362000,0.0324,0.013523,0.002678,0.000431,0.000823
363000,0.0324,0.013523,0.002678,0.000431,0.001058
364000,0.0324,0.013523,0.002678,0.000431,0.001175
365000,0.0324,0.013523,0.002678,0.000431,0.000823
366000,0.0324,0.013523,0.002678,0.000431,0.001058
367000,0.0324,0.013523,0.002678,0.000431,0.001058
368000,0.0324,0.013523,0.002678,0.000431,0.001058
369000,0.0324,0.013523,0.002678,0.000431,0.000823
370000,0.0324,0.013523,0.002678,0.000431,0.001058
371000,0.0324,0.013523,0.002678,0.000431,0.001058
372000,0.0324,0.013523,0.002678,0.000431,0.000940
373000,0.0324,0.013523,0.002678,0.000431,0.000940
374000,0.0324,0.013523,0.002678,0.000431,0.001175
375000,0.0324,0.013523,0.002678,0.000431,0.000940
376000,0.0324,0.013523,0.002678,0.000431,0.000823
377000,0.0324,0.013523,0.002678,0.000431,0.001175
378000,0.0324,0.013523,0.002678,0.000431,0.001058
379000,0.0324,0.013523,0.002678,0.000431,0.000940
380000,0.0324,0.013523,0.002678,0.000431,0.000823
381000,0.0324,0.013523,0.002678,0.000431,0.001175
382000,0.0324,0.013523,0.002678,0.000431,0.000940
383000,0.0324,0.013523,0.002678,0.000431,0.000940
384000,0.0324,0.013523,0.002678,0.000431,0.001175
385000,0.0324,0.013523,0.002678,0.000431,0.001058
386000,0.0324,0.013523,0.002678,0.000431,0.000940
387000,0.0324,0.013523,0.002678,0.000431,0.000823
388000,0.0324,0.013523,0.002678,0.000431,0.001175
389000,0.0324,0.013523,0.002678,0.000431,0.000823
390000,0.0324,0.013523,0.002678,0.000431,0.001058
391000,0.0324,0.013523,0.002678,0.000431,0.001175
392000,0.0324,0.013523,0.002678,0.000431,0.001058
393000,0.0324,0.013523,0.002678,0.000431,0.000940
394000,0.0324,0.013523,0.002678,0.000431,0.000823
395000,0.0324,0.013523,0.002678,0.000431,0.001058
396000,0.0324,0.013523,0.002678,0.000431,0.000940
397000,0.0324,0.013523,0.002678,0.000431,0.001058
398000,0.0324,0.013523,0.002678,0.000431,0.001175
399000,0.0324,0.013523,0.002678,0.000431,0.001058
400000,0.0324,0.013523,0.002678,0.000431,0.000823
401000,0.0324,0.013523,0.002678,0.000431,0.000940
402000,0.0324,0.013523,0.002678,0.000431,0.001058
403000,0.0324,0.013523,0.002678,0.000431,0.000940
404000,0.0324,0.013523,0.002678,0.000431,0.001058
405000,0.0324,0.013523,0.002678,0.000431,0.001175
406000,0.0324,0.013523,0.002678,0.000431,0.001058
407000,0.0324,0.013523,0.002678,0.000431,0.000588
408000,0.0324,0.013523,0.002678,0.000431,0.001175
409000,0.0324,0.013523,0.002678,0.000431,0.001058
410000,0.0324,0.013523,0.002678,0.000431,0.000940
411000,0.0324,0.013523,0.002678,0.000431,0.001058
412000,0.0324,0.013523,0.002678,0.000431,0.001175
413000,0.0324,0.013523,0.002678,0.000431,0.000823
414000,0.0324,0.013523,0.002678,0.000431,0.000823
415000,0.0324,0.013523,0.002678,0.000431,0.001175
416000,0.0324,0.013523,0.002678,0.000431,0.001058
417000,0.0324,0.013523,0.002678,0.000431,0.000940
418000,0.0324,0.013523,0.002678,0.000431,0.001058
419000,0.0324,0.013523,0.002678,0.000431,0.001175
420000,0.0324,0.013523,0.002678,0.000431,0.000705
421000,0.0324,0.013523,0.002678,0.000431,0.000940
422000,0.0324,0.013523,0.002678,0.000431,0.001175
423000,0.0324,0.013523,0.002678,0.000431,0.001058
424000,0.0324,0.013523,0.002678,0.000431,0.000940
425000,0.0324,0.013523,0.002678,0.000431,0.001058
426000,0.0324,0.013523,0.002678,0.000431,0.001058
427000,0.0324,0.013523,0.002678,0.000431,0.000823
428000,0.0324,0.013523,0.002678,0.000431,0.000940
429000,0.0324,0.013523,0.002678,0.000431,0.001175
430000,0.0324,0.013523,0.002678,0.000431,0.001058
431000,0.0324,0.013523,0.002678,0.000431,0.000940
432000,0.0324,0.013523,0.002678,0.000431,0.001058
433000,0.0324,0.013523,0.002678,0.000431,0.000940
434000,0.0324,0.013523,0.002678,0.000431,0.000940
435000,0.0324,0.013523,0.002678,0.000431,0.000940
436000,0.0324,0.013523,0.002678,0.000431,0.001175
437000,0.0324,0.013523,0.002678,0.000431,0.001058
438000,0.0324,0.013523,0.002678,0.000431,0.000940
439000,0.0324,0.013523,0.002678,0.000431,0.000940
440000,0.0324,0.013523,0.002678,0.000431,0.001058
441000,0.0324,0.013523,0.002678,0.000431,0.000823
442000,0.0324,0.013523,0.002678,0.000431,0.001058
443000,0.0324,0.013523,0.002678,0.000431,0.001175
444000,0.0324,0.013523,0.002678,0.000431,0.001058
445000,0.0324,0.013523,0.002678,0.000431,0.000940
446000,0.0324,0.013523,0.002678,0.000431,0.000940
447000,0.0324,0.013523,0.002678,0.000431,0.001058
448000,0.0324,0.013523,0.002678,0.000431,0.000823
449000,0.0324,0.013523,0.002678,0.000431,0.001058
450000,0.0324,0.013523,0.002678,0.000431,0.001175
451000,0.0324,0.013523,0.002678,0.000431,0.001058
452000,0.0324,0.013523,0.002678,0.000431,0.000940
453000,0.0324,0.013523,0.002678,0.000431,0.000940
454000,0.0324,0.013523,0.002678,0.000431,0.000940
455000,0.0324,0.013523,0.002678,0.000431,0.000940
456000,0.0324,0.013523,0.002678,0.000431,0.001058
457000,0.0324,0.013523,0.002678,0.000431,0.001175
458000,0.0324,0.013523,0.002678,0.000431,0.001058
459000,0.0324,0.013523,0.002678,0.000431,0.000823
460000,0.0324,0.013523,0.002678,0.000431,0.001058
461000,0.0324,0.013523,0.002678,0.000431,0.000940
462000,0.0324,0.013523,0.002678,0.000431,0.000940
463000,0.0324,0.013523,0.002678,0.000431,0.001058
464000,0.0324,0.013523,0.002678,0.000431,0.001175
465000,0.0324,0.013523,0.002678,0.000431,0.001058
466000,0.0324,0.013523,0.002678,0.000431,0.000823
467000,0.0324,0.013523,0.002678,0.000431,0.000940
468000,0.0324,0.013523,0.002678,0.000431,0.001058
469000,0.0324,0.013523,0.002678,0.000431,0.000940
470000,0.0324,0.013523,0.002678,0.000431,0.001058
471000,0.0324,0.013523,0.002678,0.000431,0.001175
472000,0.0324,0.013523,0.002678,0.000431,0.001058
473000,0.0324,0.013523,0.002678,0.000431,0.000705
474000,0.0324,0.013523,0.002678,0.000431,0.001058
475000,0.0324,0.013523,0.002678,0.000431,0.001058
476000,0.0324,0.013523,0.002678,0.000431,0.000940
477000,0.0324,0.013523,0.002678,0.000431,0.001058
478000,0.0324,0.013523,0.002678,0.000431,0.001175
479000,0.0324,0.013523,0.002678,0.000431,0.000823
480000,0.0324,0.013523,0.002678,0.000431,0.000823
481000,0.0324,0.013523,0.002678,0.000431,0.001175
482000,0.0324,0.013523,0.002678,0.000431,0.001058
483000,0.0324,0.013523,0.002678,0.000431,0.000940
484000,0.0324,0.013523,0.002678,0.000431,0.001058
485000,0.0324,0.013523,0.002678,0.000431,0.001175
486000,0.0324,0.013523,0.002678,0.000431,0.000823
487000,0.0324,0.013523,0.002678,0.000431,0.000823
488000,0.0324,0.013523,0.002678,0.000431,0.001175
489000,0.0324,0.013523,0.002678,0.000431,0.001058
490000,0.0324,0.013523,0.002678,0.000431,0.000940
491000,0.0324,0.013523,0.002678,0.000431,0.001058
492000,0.0324,0.013523,0.002678,0.000431,0.001175
493000,0.0324,0.013523,0.002678,0.000431,0.001528
494000,0.0324,0.013523,0.002678,0.000431,0.000588
495000,0.0324,0.013523,0.002678,0.000431,0.000705
496000,0.0324,0.013523,0.002678,0.000431,0.000705
497000,0.0324,0.013523,0.002678,0.000431,0.000705
498000,0.0324,0.013523,0.002678,0.000431,0.000705
499000,0.0324,0.013523,0.002678,0.000431,0.000705
500000,0.0324,0.013523,0.002678,0.000431,0.000588
501000,0.0324,0.013523,0.002678,0.000431,0.000588
502000,0.0324,0.013523,0.002678,0.000431,0.000705
503000,0.0324,0.013523,0.002678,0.000431,0.000705
504000,0.0324,0.013523,0.002678,0.000431,0.000705
505000,0.0324,0.013523,0.002678,0.000431,0.000705
506000,0.0324,0.013523,0.002678,0.000431,0.000588
507000,0.0324,0.013523,0.002678,0.000431,0.000705
508000,0.0324,0.013523,0.002678,0.000431,0.000588
509000,0.0324,0.013523,0.002678,0.000431,0.000705
510000,0.0324,0.013523,0.002678,0.000431,0.000705
511000,0.0324,0.013523,0.002678,0.000431,0.000705
512000,0.0324,0.013523,0.002678,0.000431,0.000588
513000,0.0324,0.013523,0.002678,0.000431,0.000705
514000,0.0324,0.013523,0.002678,0.000431,0.000705
515000,0.0324,0.013523,0.002678,0.000431,0.000588
516000,0.0324,0.013523,0.002678,0.000431,0.000705
517000,0.0324,0.013523,0.002678,0.000431,0.000705
518000,0.0324,0.013523,0.002678,0.000431,0.000705
519000,0.0324,0.013523,0.002678,0.000431,0.000588
520000,0.0324,0.013523,0.002678,0.000431,0.000705
521000,0.0324,0.013523,0.002678,0.000431,0.000588
522000,0.0324,0.013523,0.002678,0.000431,0.000705
523000,0.0324,0.013523,0.002678,0.000431,0.000705
524000,0.0324,0.013523,0.002678,0.000431,0.000705
525000,0.0324,0.013523,0.002678,0.000431,0.000705
526000,0.0324,0.013523,0.002678,0.000431,0.000588
527000,0.0324,0.013523,0.002678,0.000431,0.000705
528000,0.0324,0.013523,0.002678,0.000431,0.000588
529000,0.0324,0.013523,0.002678,0.000431,0.000705
530000,0.0324,0.013523,0.002678,0.000431,0.000705
531000,0.0324,0.013523,0.002678,0.000431,0.000705
532000,0.0324,0.013523,0.002678,0.000431,0.000705
533000,0.0324,0.013523,0.002678,0.000431,0.000588
534000,0.0324,0.013523,0.002678,0.000431,0.000705
535000,0.0324,0.013523,0.002678,0.000431,0.000588
536000,0.0324,0.013523,0.002678,0.000431,0.000705
537000,0.0324,0.013523,0.002678,0.000431,0.000705
538000,0.0324,0.013523,0.002678,0.000431,0.000705
539000,0.0324,0.013523,0.002678,0.000431,0.000705
540000,0.0324,0.013523,0.002678,0.000431,0.000470
541000,0.0324,0.013523,0.002678,0.000431,0.000705
542000,0.0324,0.013523,0.002678,0.000431,0.000705
543000,0.0324,0.013523,0.002678,0.000431,0.000705
544000,0.0324,0.013523,0.002678,0.000431,0.000705
545000,0.0324,0.013523,0.002678,0.000431,0.000705
546000,0.0324,0.013523,0.002678,0.000431,0.000705
547000,0.0324,0.013523,0.002678,0.000431,0.000470
548000,0.0324,0.013523,0.002678,0.000431,0.000705
549000,0.0324,0.013523,0.002678,0.000431,0.000705
550000,0.0324,0.013523,0.002678,0.000431,0.000705
551000,0.0324,0.013523,0.002678,0.000431,0.000705
552000,0.0324,0.013523,0.002678,0.000431,0.000705
553000,0.0324,0.013523,0.002678,0.000431,0.000588
554000,0.0324,0.013523,0.002678,0.000431,0.000588
555000,0.0324,0.013523,0.002678,0.000431,0.000705
556000,0.0324,0.013523,0.002678,0.000431,0.000705
557000,0.0324,0.013523,0.002678,0.000431,0.000705
558000,0.0324,0.013523,0.002678,0.000431,0.000705
559000,0.0324,0.013523,0.002678,0.000431,0.000705
560000,0.0324,0.013523,0.002678,0.000431,0.000588
561000,0.0324,0.013523,0.002678,0.000431,0.000588
562000,0.0324,0.013523,0.002678,0.000431,0.000705
563000,0.0324,0.013523,0.002678,0.000431,0.000705
564000,0.0324,0.013523,0.002678,0.000431,0.000705
565000,0.0324,0.013523,0.002678,0.000431,0.000705
566000,0.0324,0.013523,0.002678,0.000431,0.000705
567000,0.0324,0.013523,0.002678,0.000431,0.000588
568000,0.0324,0.013523,0.002678,0.000431,0.000588
569000,0.0324,0.013523,0.002678,0.000431,0.000705
570000,0.0324,0.013523,0.002678,0.000431,0.000705
571000,0.0324,0.013523,0.002678,0.000431,0.000705
572000,0.0324,0.013523,0.002678,0.000431,0.000588
573000,0.0324,0.013523,0.002678,0.000431,0.000823
574000,0.0324,0.013523,0.002678,0.000431,0.000588
575000,0.0324,0.013523,0.002678,0.000431,0.000588
576000,0.0324,0.013523,0.002678,0.000431,0.000705
577000,0.0324,0.013523,0.002678,0.000431,0.000705
578000,0.0324,0.013523,0.002678,0.000431,0.000705
579000,0.0324,0.013523,0.002678,0.000431,0.000588
580000,0.0324,0.013523,0.002678,0.000431,0.000823
581000,0.0324,0.013523,0.002678,0.000431,0.000588
582000,0.0324,0.013523,0.002678,0.000431,0.000588
583000,0.0324,0.013523,0.002678,0.000431,0.000705
584000,0.0324,0.013523,0.002678,0.000431,0.000705
585000,0.0324,0.013523,0.002678,0.000431,0.000588
586000,0.0324,0.013523,0.002678,0.000431,0.000705
587000,0.0324,0.013523,0.002678,0.000431,0.000823
588000,0.0324,0.013523,0.002678,0.000431,0.000588
589000,0.0324,0.013523,0.002678,0.000431,0.000588
590000,0.0324,0.013523,0.002678,0.000431,0.000705
591000,0.0324,0.013523,0.002678,0.000431,0.000705
592000,0.0324,0.013523,0.002678,0.000431,0.000588
593000,0.0324,0.013523,0.002678,0.000431,0.000705
594000,0.0324,0.013523,0.002678,0.000431,0.000823
595000,0.0324,0.013523,0.002678,0.000431,0.000470
596000,0.0324,0.013523,0.002678,0.000431,0.000705
597000,0.0324,0.013523,0.002678,0.000431,0.000705
598000,0.0324,0.013523,0.002678,0.000431,0.000705
599000,0.0324,0.013523,0.002678,0.000431,0.000588
600000,0.0324,0.013523,0.002678,0.000431,0.000705
601000,0.0324,0.013523,0.002678,0.000431,0.000823
602000,0.0324,0.013523,0.002678,0.000431,0.000470
603000,0.0324,0.013523,0.002678,0.000431,0.000705
604000,0.0324,0.013523,0.002678,0.000431,0.000705
605000,0.0324,0.013523,0.002678,0.000431,0.000705
606000,0.0324,0.013523,0.002678,0.000431,0.000588
607000,0.0324,0.013523,0.002678,0.000431,0.000705
608000,0.0324,0.013523,0.002678,0.000431,0.000823
609000,0.0324,0.013523,0.002678,0.000431,0.000470
610000,0.0324,0.013523,0.002678,0.000431,0.000705
611000,0.0324,0.013523,0.002678,0.000431,0.000705
612000,0.0324,0.013523,0.002678,0.000431,0.000705
613000,0.0324,0.013523,0.002678,0.000431,0.000470
614000,0.0324,0.013523,0.002678,0.000431,0.000823
615000,0.0324,0.013523,0.002678,0.000431,0.000823
616000,0.0324,0.013523,0.002678,0.000431,0.000470
617000,0.0324,0.013523,0.002678,0.000431,0.000705
618000,0.0324,0.013523,0.002678,0.000431,0.000705
619000,0.0324,0.013523,0.002678,0.000431,0.000705
620000,0.0324,0.013523,0.002678,0.000431,0.000470
621000,0.0324,0.013523,0.002678,0.000431,0.000823
622000,0.0324,0.013523,0.002678,0.000431,0.000705
623000,0.0324,0.013523,0.002678,0.000431,0.000588
624000,0.0324,0.013523,0.002678,0.000431,0.000705
625000,0.0324,0.013523,0.002678,0.000431,0.000705
626000,0.0324,0.013523,0.002678,0.000431,0.000705
627000,0.0324,0.013523,0.002678,0.000431,0.000470
628000,0.0324,0.013523,0.002678,0.000431,0.000823
629000,0.0324,0.013523,0.002678,0.000431,0.000705
630000,0.0324,0.013523,0.002678,0.000431,0.000588
631000,0.0324,0.013523,0.002678,0.000431,0.000705
632000,0.0324,0.013523,0.002678,0.000431,0.000705
633000,0.0324,0.013523,0.002678,0.000431,0.000705
634000,0.0324,0.013523,0.002678,0.000431,0.000470
635000,0.0324,0.013523,0.002678,0.000431,0.000823
636000,0.0324,0.013523,0.002678,0.000431,0.000705
637000,0.0324,0.013523,0.002678,0.000431,0.000588
638000,0.0324,0.013523,0.002678,0.000431,0.000705
639000,0.0324,0.013523,0.002678,0.000431,0.000705
640000,0.0324,0.013523,0.002678,0.000431,0.000588
641000,0.0324,0.013523,0.002678,0.000431,0.000588
642000,0.0324,0.013523,0.002678,0.000431,0.000823
643000,0.0324,0.013523,0.002678,0.000431,0.000705
644000,0.0324,0.013523,0.002678,0.000431,0.000588
645000,0.0324,0.013523,0.002678,0.000431,0.000705
646000,0.0324,0.013523,0.002678,0.000431,0.000705
647000,0.0324,0.013523,0.002678,0.000431,0.000588
648000,0.0324,0.013523,0.002678,0.000431,0.000588
649000,0.0324,0.013523,0.002678,0.000431,0.000823
650000,0.0324,0.013523,0.002678,0.000431,0.000705
651000,0.0324,0.013523,0.002678,0.000431,0.000588
652000,0.0324,0.013523,0.002678,0.000431,0.000705
653000,0.0324,0.013523,0.002678,0.000431,0.000705
654000,0.0324,0.013523,0.002678,0.000431,0.000588
655000,0.0324,0.013523,0.002678,0.000431,0.000588
656000,0.0324,0.013523,0.002678,0.000431,0.000823
657000,0.0324,0.013523,0.002678,0.000431,0.000588
658000,0.0324,0.013523,0.002678,0.000431,0.000705
659000,0.0324,0.013523,0.002678,0.000431,0.000705
660000,0.0324,0.013523,0.002678,0.000431,0.000705
661000,0.0324,0.013523,0.002678,0.000431,0.000588
662000,0.0324,0.013523,0.002678,0.000431,0.000588
663000,0.0324,0.013523,0.002678,0.000431,0.000823
664000,0.0324,0.013523,0.002678,0.000431,0.000588
665000,0.0324,0.013523,0.002678,0.000431,0.000705
666000,0.0324,0.013523,0.002678,0.000431,0.000588
667000,0.0324,0.013523,0.002678,0.000431,0.000823
668000,0.0324,0.013523,0.002678,0.000431,0.000588
669000,0.0324,0.013523,0.002678,0.000431,0.000588
670000,0.0324,0.013523,0.002678,0.000431,0.000823
671000,0.0324,0.013523,0.002678,0.000431,0.000588
672000,0.0324,0.013523,0.002678,0.000431,0.000705
673000,0.0324,0.013523,0.002678,0.000431,0.000588
674000,0.0324,0.013523,0.002678,0.000431,0.000823
675000,0.0324,0.013523,0.002678,0.000431,0.000588
676000,0.0324,0.013523,0.002678,0.000431,0.000588
677000,0.0324,0.013523,0.002678,0.000431,0.000823
678000,0.0324,0.013523,0.002678,0.000431,0.000588
679000,0.0324,0.013523,0.002678,0.000431,0.000705
680000,0.0324,0.013523,0.002678,0.000431,0.000588
681000,0.0324,0.013523,0.002678,0.000431,0.000823
682000,0.0324,0.013523,0.002678,0.000431,0.000588
683000,0.0324,0.013523,0.002678,0.000431,0.000588
684000,0.0324,0.013523,0.002678,0.000431,0.000705
685000,0.0324,0.013523,0.002678,0.000431,0.000705
686000,0.0324,0.013523,0.002678,0.000431,0.000588
687000,0.0324,0.013523,0.002678,0.000431,0.000705
688000,0.0324,0.013523,0.002678,0.000431,0.000823
689000,0.0324,0.013523,0.002678,0.000431,0.000588
690000,0.0324,0.013523,0.002678,0.000431,0.000588
691000,0.0324,0.013523,0.002678,0.000431,0.000705
692000,0.0324,0.013523,0.002678,0.000431,0.000705
693000,0.0324,0.013523,0.002678,0.000431,0.000588
694000,0.0324,0.013523,0.002678,0.000431,0.000705
695000,0.0324,0.013523,0.002678,0.000431,0.000823
696000,0.0324,0.013523,0.002678,0.000431,0.000588
697000,0.0324,0.013523,0.002678,0.000431,0.000588
698000,0.0324,0.013523,0.002678,0.000431,0.000705
699000,0.0324,0.013523,0.002678,0.000431,0.000705
700000,0.0324,0.013523,0.002678,0.000431,0.000588
701000,0.0324,0.013523,0.002678,0.000431,0.000705
702000,0.0324,0.013523,0.002678,0.000431,0.000823
703000,0.0324,0.013523,0.002678,0.000431,0.000588
704000,0.0324,0.013523,0.002678,0.000431,0.000588
705000,0.0324,0.013523,0.002678,0.000431,0.000705
706000,0.0324,0.013523,0.002678,0.000431,0.000705
707000,0.0324,0.013523,0.002678,0.000431,0.000588
708000,0.0324,0.013523,0.002678,0.000431,0.000705
709000,0.0324,0.013523,0.002678,0.000431,0.000823
710000,0.0324,0.013523,0.002678,0.000431,0.000588
711000,0.0324,0.013523,0.002678,0.000431,0.000588
712000,0.0324,0.013523,0.002678,0.000431,0.000705
713000,0.0324,0.013523,0.002678,0.000431,0.000705
714000,0.0324,0.013523,0.002678,0.000431,0.000470
715000,0.0324,0.013523,0.002678,0.000431,0.000823
716000,0.0324,0.013523,0.002678,0.000431,0.000823
717000,0.0324,0.013523,0.002678,0.000431,0.000588
718000,0.0324,0.013523,0.002678,0.000431,0.000588
719000,0.0324,0.013523,0.002678,0.000431,0.000705
720000,0.0324,0.013523,0.002678,0.000431,0.000705
721000,0.0324,0.013523,0.002678,0.000431,0.000470
722000,0.0324,0.013523,0.002678,0.000431,0.000823
723000,0.0324,0.013523,0.002678,0.000431,0.000823
724000,0.0324,0.013523,0.002678,0.000431,0.000588
725000,0.0324,0.013523,0.002678,0.000431,0.000588
726000,0.0324,0.013523,0.002678,0.000431,0.000705
727000,0.0324,0.013523,0.002678,0.000431,0.000705
728000,0.0324,0.013523,0.002678,0.000431,0.000470
729000,0.0324,0.013523,0.002678,0.000431,0.000823
730000,0.0324,0.013523,0.002678,0.000431,0.000823
731000,0.0324,0.013523,0.002678,0.000431,0.000588
732000,0.0324,0.013523,0.002678,0.000431,0.000588
733000,0.0324,0.013523,0.002678,0.000431,0.001645
734000,0.0324,0.013523,0.002678,0.000431,0.000235
735000,0.0324,0.013523,0.002678,0.000431,0.000353
736000,0.0324,0.013523,0.002678,0.000431,0.000470
737000,0.0324,0.013523,0.002678,0.000431,0.000353
738000,0.0324,0.013523,0.002678,0.000431,0.000118
739000,0.0324,0.013523,0.002678,0.000431,0.000470
740000,0.0324,0.013523,0.002678,0.000431,0.000353
741000,0.0324,0.013523,0.002678,0.000431,0.000235
742000,0.0324,0.013523,0.002678,0.000431,0.000353
743000,0.0324,0.013523,0.002678,0.000431,0.000470
744000,0.0324,0.013523,0.002678,0.000431,0.000353
745000,0.0324,0.013523,0.002678,0.000431,0.000118
746000,0.0324,0.013523,0.002678,0.000431,0.000470
747000,0.0324,0.013523,0.002678,0.000431,0.000353
748000,0.0324,0.013523,0.002678,0.000431,0.000235
749000,0.0324,0.013523,0.002678,0.000431,0.000353
750000,0.0324,0.013523,0.002678,0.000431,0.000470
751000,0.0324,0.013523,0.002678,0.000431,0.000353
752000,0.0324,0.013523,0.002678,0.000431,0.000118
753000,0.0324,0.013523,0.002678,0.000431,0.000470
754000,0.0324,0.013523,0.002678,0.000431,0.000353
755000,0.0324,0.013523,0.002678,0.000431,0.000235
756000,0.0324,0.013523,0.002678,0.000431,0.000353
757000,0.0324,0.013523,0.002678,0.000431,0.000470
758000,0.0324,0.013523,0.002678,0.000431,0.000235
759000,0.0324,0.013523,0.002678,0.000431,0.000235
760000,0.0324,0.013523,0.002678,0.000431,0.000470
761000,0.0324,0.013523,0.002678,0.000431,0.000353
762000,0.0324,0.013523,0.002678,0.000431,0.000235
763000,0.0324,0.013523,0.002678,0.000431,0.000353
764000,0.0324,0.013523,0.002678,0.000431,0.000470
765000,0.0324,0.013523,0.002678,0.000431,0.000235
766000,0.0324,0.013523,0.002678,0.000431,0.000235
767000,0.0324,0.013523,0.002678,0.000431,0.000470
768000,0.0324,0.013523,0.002678,0.000431,0.000353
769000,0.0324,0.013523,0.002678,0.000431,0.000235
770000,0.0324,0.013523,0.002678,0.000431,0.000353
771000,0.0324,0.013523,0.002678,0.000431,0.000470
772000,0.0324,0.013523,0.002678,0.000431,0.000235
773000,0.0324,0.013523,0.002678,0.000431,0.000235
774000,0.0324,0.013523,0.002678,0.000431,0.000470
775000,0.0324,0.013523,0.002678,0.000431,0.000353
776000,0.0324,0.013523,0.002678,0.000431,0.000235
777000,0.0324,0.013523,0.002678,0.000431,0.000353
778000,0.0324,0.013523,0.002678,0.000431,0.000470
779000,0.0324,0.013523,0.002678,0.000431,0.000235
780000,0.0324,0.013523,0.002678,0.000431,0.000235
781000,0.0324,0.013523,0.002678,0.000431,0.000470
782000,0.0324,0.013523,0.002678,0.000431,0.000353
783000,0.0324,0.013523,0.002678,0.000431,0.000235
784000,0.0324,0.013523,0.002678,0.000431,0.000353
785000,0.0324,0.013523,0.002678,0.000431,0.000470
786000,0.0324,0.013523,0.002678,0.000431,0.000235
787000,0.0324,0.013523,0.002678,0.000431,0.000235
788000,0.0324,0.013523,0.002678,0.000431,0.000470
789000,0.0324,0.013523,0.002678,0.000431,0.000353
790000,0.0324,0.013523,0.002678,0.000431,0.000235
791000,0.0324,0.013523,0.002678,0.000431,0.000353
792000,0.0324,0.013523,0.002678,0.000431,0.000470
793000,0.0324,0.013523,0.002678,0.000431,0.000235
794000,0.0324,0.013523,0.002678,0.000431,0.000235
795000,0.0324,0.013523,0.002678,0.000431,0.000470
796000,0.0324,0.013523,0.002678,0.000431,0.000353
797000,0.0324,0.013523,0.002678,0.000431,0.000235
798000,0.0324,0.013523,0.002678,0.000431,0.000353
799000,0.0324,0.013523,0.002678,0.000431,0.000470
800000,0.0324,0.013523,0.002678,0.000431,0.000118
801000,0.0324,0.013523,0.002678,0.000431,0.000353
802000,0.0324,0.013523,0.002678,0.000431,0.000470
803000,0.0324,0.013523,0.002678,0.000431,0.000353
804000,0.0324,0.013523,0.002678,0.000431,0.000235
805000,0.0324,0.013523,0.002678,0.000431,0.000353
806000,0.0324,0.013523,0.002678,0.000431,0.000470
807000,0.0324,0.013523,0.002678,0.000431,0.000118
808000,0.0324,0.013523,0.002678,0.000431,0.000353
809000,0.0324,0.013523,0.002678,0.000431,0.000470
810000,0.0324,0.013523,0.002678,0.000431,0.000353
811000,0.0324,0.013523,0.002678,0.000431,0.000235
812000,0.0324,0.013523,0.002678,0.000431,0.000353
813000,0.0324,0.013523,0.002678,0.000431,0.000470
814000,0.0324,0.013523,0.002678,0.000431,0.000118
815000,0.0324,0.013523,0.002678,0.000431,0.000353
816000,0.0324,0.013523,0.002678,0.000431,0.000470
817000,0.0324,0.013523,0.002678,0.000431,0.000353
818000,0.0324,0.013523,0.002678,0.000431,0.000235
819000,0.0324,0.013523,0.002678,0.000431,0.000353
820000,0.0324,0.013523,0.002678,0.000431,0.000470
821000,0.0324,0.013523,0.002678,0.000431,0.000118
822000,0.0324,0.013523,0.002678,0.000431,0.000353
823000,0.0324,0.013523,0.002678,0.000431,0.000470
824000,0.0324,0.013523,0.002678,0.000431,0.000353
825000,0.0324,0.013523,0.002678,0.000431,0.000235
826000,0.0324,0.013523,0.002678,0.000431,0.000353
827000,0.0324,0.013523,0.002678,0.000431,0.000353
828000,0.0324,0.013523,0.002678,0.000431,0.000235
829000,0.0324,0.013523,0.002678,0.000431,0.000353
830000,0.0324,0.013523,0.002678,0.000431,0.000470
831000,0.0324,0.013523,0.002678,0.000431,0.000353
832000,0.0324,0.013523,0.002678,0.000431,0.000235
833000,0.0324,0.013523,0.002678,0.000431,0.000353
834000,0.0324,0.013523,0.002678,0.000431,0.000353
835000,0.0324,0.013523,0.002678,0.000431,0.000235
836000,0.0324,0.013523,0.002678,0.000431,0.000353
837000,0.0324,0.013523,0.002678,0.000431,0.000470
838000,0.0324,0.013523,0.002678,0.000431,0.000353
839000,0.0324,0.013523,0.002678,0.000431,0.000235
840000,0.0324,0.013523,0.002678,0.000431,0.000353
841000,0.0324,0.013523,0.002678,0.000431,0.000353
842000,0.0324,0.013523,0.002678,0.000431,0.000235
843000,0.0324,0.013523,0.002678,0.000431,0.000353
844000,0.0324,0.013523,0.002678,0.000431,0.000470
845000,0.0324,0.013523,0.002678,0.000431,0.000353
846000,0.0324,0.013523,0.002678,0.000431,0.000235
847000,0.0324,0.013523,0.002678,0.000431,0.000353
848000,0.0324,0.013523,0.002678,0.000431,0.000353
849000,0.0324,0.013523,0.002678,0.000431,0.000235
850000,0.0324,0.013523,0.002678,0.000431,0.000353
851000,0.0324,0.013523,0.002678,0.000431,0.000470
852000,0.0324,0.013523,0.002678,0.000431,0.000353
853000,0.0324,0.013523,0.002678,0.000431,0.000235
854000,0.0324,0.013523,0.002678,0.000431,0.000353
855000,0.0324,0.013523,0.002678,0.000431,0.000353
856000,0.0324,0.013523,0.002678,0.000431,0.000235
857000,0.0324,0.013523,0.002678,0.000431,0.000353
858000,0.0324,0.013523,0.002678,0.000431,0.000470
859000,0.0324,0.013523,0.002678,0.000431,0.000353
860000,0.0324,0.013523,0.002678,0.000431,0.000235
861000,0.0324,0.013523,0.002678,0.000431,0.000353
862000,0.0324,0.013523,0.002678,0.000431,0.000353
863000,0.0324,0.013523,0.002678,0.000431,0.000235
864000,0.0324,0.013523,0.002678,0.000431,0.000353
865000,0.0324,0.013523,0.002678,0.000431,0.000470
866000,0.0324,0.013523,0.002678,0.000431,0.000353
867000,0.0324,0.013523,0.002678,0.000431,0.000235
868000,0.0324,0.013523,0.002678,0.000431,0.000353
869000,0.0324,0.013523,0.002678,0.000431,0.000353
870000,0.0324,0.013523,0.002678,0.000431,0.000235
871000,0.0324,0.013523,0.002678,0.000431,0.000353
872000,0.0324,0.013523,0.002678,0.000431,0.000470
873000,0.0324,0.013523,0.002678,0.000431,0.000353
874000,0.0324,0.013523,0.002678,0.000431,0.000118
875000,0.0324,0.013523,0.002678,0.000431,0.000470
876000,0.0324,0.013523,0.002678,0.000431,0.000353
877000,0.0324,0.013523,0.002678,0.000431,0.000235
878000,0.0324,0.013523,0.002678,0.000431,0.000353
879000,0.0324,0.013523,0.002678,0.000431,0.000470
880000,0.0324,0.013523,0.002678,0.000431,0.000353
881000,0.0324,0.013523,0.002678,0.000431,0.000118
882000,0.0324,0.013523,0.002678,0.000431,0.000470
883000,0.0324,0.013523,0.002678,0.000431,0.000353
884000,0.0324,0.013523,0.002678,0.000431,0.000235
885000,0.0324,0.013523,0.002678,0.000431,0.000353
886000,0.0324,0.013523,0.002678,0.000431,0.000470
887000,0.0324,0.013523,0.002678,0.000431,0.000353
888000,0.0324,0.013523,0.002678,0.000431,0.000118
889000,0.0324,0.013523,0.002678,0.000431,0.000470
890000,0.0324,0.013523,0.002678,0.000431,0.000353
891000,0.0324,0.013523,0.002678,0.000431,0.000235
892000,0.0324,0.013523,0.002678,0.000431,0.000353
893000,0.0324,0.013523,0.002678,0.000431,0.000470
894000,0.0324,0.013523,0.002678,0.000431,0.000353
895000,0.0324,0.013523,0.002678,0.000431,0.000118
896000,0.0324,0.013523,0.002678,0.000431,0.000470
897000,0.0324,0.013523,0.002678,0.000431,0.000353
898000,0.0324,0.013523,0.002678,0.000431,0.000235
899000,0.0324,0.013523,0.002678,0.000431,0.000353
900000,0.0324,0.013523,0.002678,0.000431,0.000470
901000,0.0324,0.013523,0.002678,0.000431,0.000235
902000,0.0324,0.013523,0.002678,0.000431,0.000235
903000,0.0324,0.013523,0.002678,0.000431,0.000470
904000,0.0324,0.013523,0.002678,0.000431,0.000353
905000,0.0324,0.013523,0.002678,0.000431,0.000235
906000,0.0324,0.013523,0.002678,0.000431,0.000353
907000,0.0324,0.013523,0.002678,0.000431,0.000470
908000,0.0324,0.013523,0.002678,0.000431,0.000235
909000,0.0324,0.013523,0.002678,0.000431,0.000235
910000,0.0324,0.013523,0.002678,0.000431,0.000470
911000,0.0324,0.013523,0.002678,0.000431,0.000353
912000,0.0324,0.013523,0.002678,0.000431,0.000235
913000,0.0324,0.013523,0.002678,0.000431,0.000353
914000,0.0324,0.013523,0.002678,0.000431,0.000470
915000,0.0324,0.013523,0.002678,0.000431,0.000235
916000,0.0324,0.013523,0.002678,0.000431,0.000235
917000,0.0324,0.013523,0.002678,0.000431,0.000470
918000,0.0324,0.013523,0.002678,0.000431,0.000353
919000,0.0324,0.013523,0.002678,0.000431,0.000235
920000,0.0324,0.013523,0.002678,0.000431,0.000353
921000,0.0324,0.013523,0.002678,0.000431,0.000470
922000,0.0324,0.013523,0.002678,0.000431,0.000235
923000,0.0324,0.013523,0.002678,0.000431,0.000235
924000,0.0324,0.013523,0.002678,0.000431,0.000470
925000,0.0324,0.013523,0.002678,0.000431,0.000353
926000,0.0324,0.013523,0.002678,0.000431,0.000235
927000,0.0324,0.013523,0.002678,0.000431,0.000353
928000,0.0324,0.013523,0.002678,0.000431,0.000470
929000,0.0324,0.013523,0.002678,0.000431,0.000235
930000,0.0324,0.013523,0.002678,0.000431,0.000235
931000,0.0324,0.013523,0.002678,0.000431,0.000470
932000,0.0324,0.013523,0.002678,0.000431,0.000353
933000,0.0324,0.013523,0.002678,0.000431,0.000235
934000,0.0324,0.013523,0.002678,0.000431,0.000353
935000,0.0324,0.013523,0.002678,0.000431,0.000470
936000,0.0324,0.013523,0.002678,0.000431,0.000235
937000,0.0324,0.013523,0.002678,0.000431,0.000235
938000,0.0324,0.013523,0.002678,0.000431,0.000470
939000,0.0324,0.013523,0.002678,0.000431,0.000353
940000,0.0324,0.013523,0.002678,0.000431,0.000235
941000,0.0324,0.013523,0.002678,0.000431,0.000353
942000,0.0324,0.013523,0.002678,0.000431,0.000470
943000,0.0324,0.013523,0.002678,0.000431,0.000118
944000,0.0324,0.013523,0.002678,0.000431,0.000353
945000,0.0324,0.013523,0.002678,0.000431,0.000470
946000,0.0324,0.013523,0.002678,0.000431,0.000353
947000,0.0324,0.013523,0.002678,0.000431,0.000235
948000,0.0324,0.013523,0.002678,0.000431,0.000353
949000,0.0324,0.013523,0.002678,0.000431,0.000470
950000,0.0324,0.013523,0.002678,0.000431,0.000118
951000,0.0324,0.013523,0.002678,0.000431,0.000353
952000,0.0324,0.013523,0.002678,0.000431,0.000470
953000,0.0324,0.013523,0.002678,0.000431,0.000353
954000,0.0324,0.013523,0.002678,0.000431,0.000235
955000,0.0324,0.013523,0.002678,0.000431,0.000353
956000,0.0324,0.013523,0.002678,0.000431,0.000470
957000,0.0324,0.013523,0.002678,0.000431,0.000118
958000,0.0324,0.013523,0.002678,0.000431,0.000353
959000,0.0324,0.013523,0.002678,0.000431,0.000470
960000,0.0324,0.013523,0.002678,0.000431,0.000353
961000,0.0324,0.013523,0.002678,0.000431,0.000235
962000,0.0324,0.013523,0.002678,0.000431,0.000353
963000,0.0324,0.013523,0.002678,0.000431,0.000353
964000,0.0324,0.013523,0.002678,0.000431,0.000235
965000,0.0324,0.013523,0.002678,0.000431,0.000353
966000,0.0324,0.013523,0.002678,0.000431,0.000470
967000,0.0324,0.013523,0.002678,0.000431,0.000353
968000,0.0324,0.013523,0.002678,0.000431,0.000235
969000,0.0324,0.013523,0.002678,0.000431,0.000353
970000,0.0324,0.013523,0.002678,0.000431,0.000353
971000,0.0324,0.013523,0.002678,0.000431,0.000235
972000,0.0324,0.013523,0.002678,0.000431,0.000353
973000,0.0324,0.013523,0.002678,0.000431,0.000470
974000,0.0324,0.013523,0.002678,0.000431,0.000353
975000,0.0324,0.013523,0.002678,0.000431,0.000235
976000,0.0324,0.013523,0.002678,0.000431,0.000353
977000,0.0324,0.013523,0.002678,0.000431,0.000353
978000,0.0324,0.013523,0.002678,0.000431,0.000235
979000,0.0324,0.013523,0.002678,0.000431,0.000353
980000,0.0324,0.013523,0.002678,0.000431,0.000470
981000,0.0324,0.013523,0.002678,0.000431,0.000353
982000,0.0324,0.013523,0.002678,0.000431,0.000235
983000,0.0324,0.013523,0.002678,0.000431,0.000353
984000,0.0324,0.013523,0.002678,0.000431,0.000353
985000,0.0324,0.013523,0.002678,0.000431,0.000235
986000,0.0324,0.013523,0.002678,0.000431,0.000353
987000,0.0324,0.013523,0.002678,0.000431,0.000470
988000,0.0324,0.013523,0.002678,0.000431,0.000353
989000,0.0324,0.013523,0.002678,0.000431,0.000235
990000,0.0324,0.013523,0.002678,0.000431,0.000353
991000,0.0324,0.013523,0.002678,0.000431,0.000353
992000,0.0324,0.013523,0.002678,0.000431,0.000235
993000,0.0324,0.013523,0.002678,0.000431,0.000353
994000,0.0324,0.013523,0.002678,0.000431,0.000470
995000,0.0324,0.013523,0.002678,0.000431,0.000353
996000,0.0324,0.013523,0.002678,0.000431,0.000235
997000,0.0324,0.013523,0.002678,0.000431,0.000353
998000,0.0324,0.013523,0.002678,0.000431,0.000353
999000,0.0324,0.013523,0.002678,0.000431,0.000235
