Cycle,Area(mm^2),PeakDynamic(W),SubthresholdLeakage(W),GateLeakage(W),RunTimeDynamic(W)
7000000,0.0324,0.013523,0.002678,0.000431,0.025739
7001000,0.0324,0.013523,0.002678,0.000431,0.024446
7002000,0.0324,0.013523,0.002678,0.000431,0.024328
7003000,0.0324,0.013523,0.002678,0.000431,0.025034
7004000,0.0324,0.013523,0.002678,0.000431,0.023153
7005000,0.0324,0.013523,0.002678,0.000431,0.026091
7006000,0.0324,0.013523,0.002678,0.000431,0.024093
7007000,0.0324,0.013523,0.002678,0.000431,0.024681
7008000,0.0324,0.013523,0.002678,0.000431,0.024093
7009000,0.0324,0.013523,0.002678,0.000431,0.024916
7010000,0.0324,0.013523,0.002678,0.000431,0.022918
7011000,0.0324,0.013523,0.002678,0.000431,0.024798
7012000,0.0324,0.013523,0.002678,0.000431,0.024446
7013000,0.0324,0.013523,0.002678,0.000431,0.023388
7014000,0.0324,0.013523,0.002678,0.000431,0.024563
7015000,0.0324,0.013523,0.002678,0.000431,0.023858
7016000,0.0324,0.013523,0.002678,0.000431,0.025386
7017000,0.0324,0.013523,0.002678,0.000431,0.022918
7018000,0.0324,0.013523,0.002678,0.000431,0.024563
7019000,0.0324,0.013523,0.002678,0.000431,0.024563
7020000,0.0324,0.013523,0.002678,0.000431,0.024093
7021000,0.0324,0.013523,0.002678,0.000431,0.024798
7022000,0.0324,0.013523,0.002678,0.000431,0.025621
7023000,0.0324,0.013523,0.002678,0.000431,0.023153
7024000,0.0324,0.013523,0.002678,0.000431,0.024093
7025000,0.0324,0.013523,0.002678,0.000431,0.025151
7026000,0.0324,0.013523,0.002678,0.000431,0.024446
7027000,0.0324,0.013523,0.002678,0.000431,0.024211
7028000,0.0324,0.013523,0.002678,0.000431,0.023858
7029000,0.0324,0.013523,0.002678,0.000431,0.025034
7030000,0.0324,0.013523,0.002678,0.000431,0.024798
7031000,0.0324,0.013523,0.002678,0.000431,0.023976
7032000,0.0324,0.013523,0.002678,0.000431,0.023741
7033000,0.0324,0.013523,0.002678,0.000431,0.023858
7034000,0.0324,0.013523,0.002678,0.000431,0.024798
7035000,0.0324,0.013523,0.002678,0.000431,0.025504
7036000,0.0324,0.013523,0.002678,0.000431,0.023388
7037000,0.0324,0.013523,0.002678,0.000431,0.024211
7038000,0.0324,0.013523,0.002678,0.000431,0.025034
7039000,0.0324,0.013523,0.002678,0.000431,0.025151
7040000,0.0324,0.013523,0.002678,0.000431,0.024328
7041000,0.0324,0.013523,0.002678,0.000431,0.025856
7042000,0.0324,0.013523,0.002678,0.000431,0.023506
7043000,0.0324,0.013523,0.002678,0.000431,0.025269
7044000,0.0324,0.013523,0.002678,0.000431,0.023976
7045000,0.0324,0.013523,0.002678,0.000431,0.025034
7046000,0.0324,0.013523,0.002678,0.000431,0.024211
7047000,0.0324,0.013523,0.002678,0.000431,0.024563
7048000,0.0324,0.013523,0.002678,0.000431,0.024916
7049000,0.0324,0.013523,0.002678,0.000431,0.021978
7050000,0.0324,0.013523,0.002678,0.000431,0.023506
7051000,0.0324,0.013523,0.002678,0.000431,0.023153
7052000,0.0324,0.013523,0.002678,0.000431,0.024563
7053000,0.0324,0.013523,0.002678,0.000431,0.025621
7054000,0.0324,0.013523,0.002678,0.000431,0.024328
7055000,0.0324,0.013523,0.002678,0.000431,0.025621
7056000,0.0324,0.013523,0.002678,0.000431,0.024328
7057000,0.0324,0.013523,0.002678,0.000431,0.024798
7058000,0.0324,0.013523,0.002678,0.000431,0.023858
7059000,0.0324,0.013523,0.002678,0.000431,0.024211
7060000,0.0324,0.013523,0.002678,0.000431,0.025974
7061000,0.0324,0.013523,0.002678,0.000431,0.023858
7062000,0.0324,0.013523,0.002678,0.000431,0.023036
7063000,0.0324,0.013523,0.002678,0.000431,0.026091
7064000,0.0324,0.013523,0.002678,0.000431,0.024916
7065000,0.0324,0.013523,0.002678,0.000431,0.024328
7066000,0.0324,0.013523,0.002678,0.000431,0.024798
7067000,0.0324,0.013523,0.002678,0.000431,0.026209
7068000,0.0324,0.013523,0.002678,0.000431,0.023036
7069000,0.0324,0.013523,0.002678,0.000431,0.027149
7070000,0.0324,0.013523,0.002678,0.000431,0.022683
7071000,0.0324,0.013523,0.002678,0.000431,0.025151
7072000,0.0324,0.013523,0.002678,0.000431,0.023976
7073000,0.0324,0.013523,0.002678,0.000431,0.024446
7074000,0.0324,0.013523,0.002678,0.000431,0.024798
7075000,0.0324,0.013523,0.002678,0.000431,0.023623
7076000,0.0324,0.013523,0.002678,0.000431,0.024681
7077000,0.0324,0.013523,0.002678,0.000431,0.023271
7078000,0.0324,0.013523,0.002678,0.000431,0.024681
7079000,0.0324,0.013523,0.002678,0.000431,0.023271
7080000,0.0324,0.013523,0.002678,0.000431,0.024681
7081000,0.0324,0.013523,0.002678,0.000431,0.021273
7082000,0.0324,0.013523,0.002678,0.000431,0.024798
7083000,0.0324,0.013523,0.002678,0.000431,0.023858
7084000,0.0324,0.013523,0.002678,0.000431,0.023741
7085000,0.0324,0.013523,0.002678,0.000431,0.023506
7086000,0.0324,0.013523,0.002678,0.000431,0.023036
7087000,0.0324,0.013523,0.002678,0.000431,0.022448
7088000,0.0324,0.013523,0.002678,0.000431,0.023388
7089000,0.0324,0.013523,0.002678,0.000431,0.022213
7090000,0.0324,0.013523,0.002678,0.000431,0.021743
7091000,0.0324,0.013523,0.002678,0.000431,0.023036
7092000,0.0324,0.013523,0.002678,0.000431,0.021978
7093000,0.0324,0.013523,0.002678,0.000431,0.023976
7094000,0.0324,0.013523,0.002678,0.000431,0.024681
7095000,0.0324,0.013523,0.002678,0.000431,0.021625
7096000,0.0324,0.013523,0.002678,0.000431,0.021743
7097000,0.0324,0.013523,0.002678,0.000431,0.024211
7098000,0.0324,0.013523,0.002678,0.000431,0.022683
7099000,0.0324,0.013523,0.002678,0.000431,0.022213
7100000,0.0324,0.013523,0.002678,0.000431,0.023858
7101000,0.0324,0.013523,0.002678,0.000431,0.022918
7102000,0.0324,0.013523,0.002678,0.000431,0.021978
7103000,0.0324,0.013523,0.002678,0.000431,0.021978
7104000,0.0324,0.013523,0.002678,0.000431,0.022683
7105000,0.0324,0.013523,0.002678,0.000431,0.023858
7106000,0.0324,0.013523,0.002678,0.000431,0.023741
7107000,0.0324,0.013523,0.002678,0.000431,0.023388
7108000,0.0324,0.013523,0.002678,0.000431,0.023623
7109000,0.0324,0.013523,0.002678,0.000431,0.022448
7110000,0.0324,0.013523,0.002678,0.000431,0.021978
7111000,0.0324,0.013523,0.002678,0.000431,0.023271
7112000,0.0324,0.013523,0.002678,0.000431,0.023271
7113000,0.0324,0.013523,0.002678,0.000431,0.023976
7114000,0.0324,0.013523,0.002678,0.000431,0.023623
7115000,0.0324,0.013523,0.002678,0.000431,0.023153
7116000,0.0324,0.013523,0.002678,0.000431,0.022800
7117000,0.0324,0.013523,0.002678,0.000431,0.022330
7118000,0.0324,0.013523,0.002678,0.000431,0.022918
7119000,0.0324,0.013523,0.002678,0.000431,0.023858
7120000,0.0324,0.013523,0.002678,0.000431,0.022330
7121000,0.0324,0.013523,0.002678,0.000431,0.023271
7122000,0.0324,0.013523,0.002678,0.000431,0.022800
7123000,0.0324,0.013523,0.002678,0.000431,0.021743
7124000,0.0324,0.013523,0.002678,0.000431,0.022448
7125000,0.0324,0.013523,0.002678,0.000431,0.023741
7126000,0.0324,0.013523,0.002678,0.000431,0.021743
7127000,0.0324,0.013523,0.002678,0.000431,0.024916
7128000,0.0324,0.013523,0.002678,0.000431,0.022213
7129000,0.0324,0.013523,0.002678,0.000431,0.023623
7130000,0.0324,0.013523,0.002678,0.000431,0.024563
7131000,0.0324,0.013523,0.002678,0.000431,0.023388
7132000,0.0324,0.013523,0.002678,0.000431,0.023506
7133000,0.0324,0.013523,0.002678,0.000431,0.021508
7134000,0.0324,0.013523,0.002678,0.000431,0.022213
7135000,0.0324,0.013523,0.002678,0.000431,0.023036
7136000,0.0324,0.013523,0.002678,0.000431,0.022565
7137000,0.0324,0.013523,0.002678,0.000431,0.023036
7138000,0.0324,0.013523,0.002678,0.000431,0.022448
7139000,0.0324,0.013523,0.002678,0.000431,0.023036
7140000,0.0324,0.013523,0.002678,0.000431,0.023271
7141000,0.0324,0.013523,0.002678,0.000431,0.022330
7142000,0.0324,0.013523,0.002678,0.000431,0.021508
7143000,0.0324,0.013523,0.002678,0.000431,0.022800
7144000,0.0324,0.013523,0.002678,0.000431,0.021508
7145000,0.0324,0.013523,0.002678,0.000431,0.023153
7146000,0.0324,0.013523,0.002678,0.000431,0.022095
7147000,0.0324,0.013523,0.002678,0.000431,0.023388
7148000,0.0324,0.013523,0.002678,0.000431,0.022800
7149000,0.0324,0.013523,0.002678,0.000431,0.021860
7150000,0.0324,0.013523,0.002678,0.000431,0.021743
7151000,0.0324,0.013523,0.002678,0.000431,0.022213
7152000,0.0324,0.013523,0.002678,0.000431,0.023388
7153000,0.0324,0.013523,0.002678,0.000431,0.021038
7154000,0.0324,0.013523,0.002678,0.000431,0.022095
7155000,0.0324,0.013523,0.002678,0.000431,0.022683
7156000,0.0324,0.013523,0.002678,0.000431,0.023623
7157000,0.0324,0.013523,0.002678,0.000431,0.022800
7158000,0.0324,0.013523,0.002678,0.000431,0.023388
7159000,0.0324,0.013523,0.002678,0.000431,0.023623
7160000,0.0324,0.013523,0.002678,0.000431,0.023036
7161000,0.0324,0.013523,0.002678,0.000431,0.022565
7162000,0.0324,0.013523,0.002678,0.000431,0.023976
7163000,0.0324,0.013523,0.002678,0.000431,0.024093
7164000,0.0324,0.013523,0.002678,0.000431,0.023623
7165000,0.0324,0.013523,0.002678,0.000431,0.023153
7166000,0.0324,0.013523,0.002678,0.000431,0.021508
7167000,0.0324,0.013523,0.002678,0.000431,0.024211
7168000,0.0324,0.013523,0.002678,0.000431,0.024798
7169000,0.0324,0.013523,0.002678,0.000431,0.022565
7170000,0.0324,0.013523,0.002678,0.000431,0.022095
7171000,0.0324,0.013523,0.002678,0.000431,0.025386
7172000,0.0324,0.013523,0.002678,0.000431,0.022918
7173000,0.0324,0.013523,0.002678,0.000431,0.023741
7174000,0.0324,0.013523,0.002678,0.000431,0.023036
7175000,0.0324,0.013523,0.002678,0.000431,0.021273
7176000,0.0324,0.013523,0.002678,0.000431,0.022800
7177000,0.0324,0.013523,0.002678,0.000431,0.023036
7178000,0.0324,0.013523,0.002678,0.000431,0.023506
7179000,0.0324,0.013523,0.002678,0.000431,0.022800
7180000,0.0324,0.013523,0.002678,0.000431,0.021978
7181000,0.0324,0.013523,0.002678,0.000431,0.023623
7182000,0.0324,0.013523,0.002678,0.000431,0.022213
7183000,0.0324,0.013523,0.002678,0.000431,0.023388
7184000,0.0324,0.013523,0.002678,0.000431,0.022095
7185000,0.0324,0.013523,0.002678,0.000431,0.021625
7186000,0.0324,0.013523,0.002678,0.000431,0.023741
7187000,0.0324,0.013523,0.002678,0.000431,0.024446
7188000,0.0324,0.013523,0.002678,0.000431,0.023388
7189000,0.0324,0.013523,0.002678,0.000431,0.024093
7190000,0.0324,0.013523,0.002678,0.000431,0.021038
7191000,0.0324,0.013523,0.002678,0.000431,0.022213
7192000,0.0324,0.013523,0.002678,0.000431,0.023623
7193000,0.0324,0.013523,0.002678,0.000431,0.023623
7194000,0.0324,0.013523,0.002678,0.000431,0.023036
7195000,0.0324,0.013523,0.002678,0.000431,0.021978
7196000,0.0324,0.013523,0.002678,0.000431,0.023271
7197000,0.0324,0.013523,0.002678,0.000431,0.021625
7198000,0.0324,0.013523,0.002678,0.000431,0.023623
7199000,0.0324,0.013523,0.002678,0.000431,0.021860
7200000,0.0324,0.013523,0.002678,0.000431,0.023741
7201000,0.0324,0.013523,0.002678,0.000431,0.024211
7202000,0.0324,0.013523,0.002678,0.000431,0.023271
7203000,0.0324,0.013523,0.002678,0.000431,0.022095
7204000,0.0324,0.013523,0.002678,0.000431,0.022683
7205000,0.0324,0.013523,0.002678,0.000431,0.024681
7206000,0.0324,0.013523,0.002678,0.000431,0.022918
7207000,0.0324,0.013523,0.002678,0.000431,0.023976
7208000,0.0324,0.013523,0.002678,0.000431,0.022330
7209000,0.0324,0.013523,0.002678,0.000431,0.022448
7210000,0.0324,0.013523,0.002678,0.000431,0.023858
7211000,0.0324,0.013523,0.002678,0.000431,0.022565
7212000,0.0324,0.013523,0.002678,0.000431,0.023153
7213000,0.0324,0.013523,0.002678,0.000431,0.023036
7214000,0.0324,0.013523,0.002678,0.000431,0.023506
7215000,0.0324,0.013523,0.002678,0.000431,0.024211
7216000,0.0324,0.013523,0.002678,0.000431,0.022213
7217000,0.0324,0.013523,0.002678,0.000431,0.023271
7218000,0.0324,0.013523,0.002678,0.000431,0.022918
7219000,0.0324,0.013523,0.002678,0.000431,0.023506
7220000,0.0324,0.013523,0.002678,0.000431,0.023036
7221000,0.0324,0.013523,0.002678,0.000431,0.022800
7222000,0.0324,0.013523,0.002678,0.000431,0.022800
7223000,0.0324,0.013523,0.002678,0.000431,0.022918
7224000,0.0324,0.013523,0.002678,0.000431,0.022800
7225000,0.0324,0.013523,0.002678,0.000431,0.021743
7226000,0.0324,0.013523,0.002678,0.000431,0.024446
7227000,0.0324,0.013523,0.002678,0.000431,0.023506
7228000,0.0324,0.013523,0.002678,0.000431,0.020920
7229000,0.0324,0.013523,0.002678,0.000431,0.022683
7230000,0.0324,0.013523,0.002678,0.000431,0.023153
7231000,0.0324,0.013523,0.002678,0.000431,0.024211
7232000,0.0324,0.013523,0.002678,0.000431,0.023036
7233000,0.0324,0.013523,0.002678,0.000431,0.023858
7234000,0.0324,0.013523,0.002678,0.000431,0.025151
7235000,0.0324,0.013523,0.002678,0.000431,0.022095
7236000,0.0324,0.013523,0.002678,0.000431,0.022683
7237000,0.0324,0.013523,0.002678,0.000431,0.023036
7238000,0.0324,0.013523,0.002678,0.000431,0.023153
7239000,0.0324,0.013523,0.002678,0.000431,0.022683
7240000,0.0324,0.013523,0.002678,0.000431,0.022918
7241000,0.0324,0.013523,0.002678,0.000431,0.023036
7242000,0.0324,0.013523,0.002678,0.000431,0.022330
7243000,0.0324,0.013523,0.002678,0.000431,0.022683
7244000,0.0324,0.013523,0.002678,0.000431,0.023388
7245000,0.0324,0.013523,0.002678,0.000431,0.022448
7246000,0.0324,0.013523,0.002678,0.000431,0.023741
7247000,0.0324,0.013523,0.002678,0.000431,0.021625
7248000,0.0324,0.013523,0.002678,0.000431,0.022683
7249000,0.0324,0.013523,0.002678,0.000431,0.021743
7250000,0.0324,0.013523,0.002678,0.000431,0.022918
7251000,0.0324,0.013523,0.002678,0.000431,0.021508
7252000,0.0324,0.013523,0.002678,0.000431,0.022683
7253000,0.0324,0.013523,0.002678,0.000431,0.021038
7254000,0.0324,0.013523,0.002678,0.000431,0.023153
7255000,0.0324,0.013523,0.002678,0.000431,0.022683
7256000,0.0324,0.013523,0.002678,0.000431,0.020802
7257000,0.0324,0.013523,0.002678,0.000431,0.021508
7258000,0.0324,0.013523,0.002678,0.000431,0.021273
7259000,0.0324,0.013523,0.002678,0.000431,0.023036
7260000,0.0324,0.013523,0.002678,0.000431,0.022448
7261000,0.0324,0.013523,0.002678,0.000431,0.023506
7262000,0.0324,0.013523,0.002678,0.000431,0.021625
7263000,0.0324,0.013523,0.002678,0.000431,0.021625
7264000,0.0324,0.013523,0.002678,0.000431,0.023153
7265000,0.0324,0.013523,0.002678,0.000431,0.022095
7266000,0.0324,0.013523,0.002678,0.000431,0.020332
7267000,0.0324,0.013523,0.002678,0.000431,0.024446
7268000,0.0324,0.013523,0.002678,0.000431,0.021978
7269000,0.0324,0.013523,0.002678,0.000431,0.022800
7270000,0.0324,0.013523,0.002678,0.000431,0.021743
7271000,0.0324,0.013523,0.002678,0.000431,0.021978
7272000,0.0324,0.013523,0.002678,0.000431,0.023153
7273000,0.0324,0.013523,0.002678,0.000431,0.021860
7274000,0.0324,0.013523,0.002678,0.000431,0.022330
7275000,0.0324,0.013523,0.002678,0.000431,0.021625
7276000,0.0324,0.013523,0.002678,0.000431,0.023036
7277000,0.0324,0.013523,0.002678,0.000431,0.022683
7278000,0.0324,0.013523,0.002678,0.000431,0.024093
7279000,0.0324,0.013523,0.002678,0.000431,0.021860
7280000,0.0324,0.013523,0.002678,0.000431,0.022565
7281000,0.0324,0.013523,0.002678,0.000431,0.023036
7282000,0.0324,0.013523,0.002678,0.000431,0.023271
7283000,0.0324,0.013523,0.002678,0.000431,0.023623
7284000,0.0324,0.013523,0.002678,0.000431,0.023623
7285000,0.0324,0.013523,0.002678,0.000431,0.021978
7286000,0.0324,0.013523,0.002678,0.000431,0.021978
7287000,0.0324,0.013523,0.002678,0.000431,0.022448
7288000,0.0324,0.013523,0.002678,0.000431,0.021860
7289000,0.0324,0.013523,0.002678,0.000431,0.021860
7290000,0.0324,0.013523,0.002678,0.000431,0.020450
7291000,0.0324,0.013523,0.002678,0.000431,0.023741
7292000,0.0324,0.013523,0.002678,0.000431,0.023506
7293000,0.0324,0.013523,0.002678,0.000431,0.023036
7294000,0.0324,0.013523,0.002678,0.000431,0.023858
7295000,0.0324,0.013523,0.002678,0.000431,0.021390
7296000,0.0324,0.013523,0.002678,0.000431,0.021508
7297000,0.0324,0.013523,0.002678,0.000431,0.021743
7298000,0.0324,0.013523,0.002678,0.000431,0.023388
7299000,0.0324,0.013523,0.002678,0.000431,0.022330
7300000,0.0324,0.013523,0.002678,0.000431,0.021625
7301000,0.0324,0.013523,0.002678,0.000431,0.023388
7302000,0.0324,0.013523,0.002678,0.000431,0.020567
7303000,0.0324,0.013523,0.002678,0.000431,0.021625
7304000,0.0324,0.013523,0.002678,0.000431,0.020450
7305000,0.0324,0.013523,0.002678,0.000431,0.021155
7306000,0.0324,0.013523,0.002678,0.000431,0.022448
7307000,0.0324,0.013523,0.002678,0.000431,0.022448
7308000,0.0324,0.013523,0.002678,0.000431,0.021625
7309000,0.0324,0.013523,0.002678,0.000431,0.020332
7310000,0.0324,0.013523,0.002678,0.000431,0.021155
7311000,0.0324,0.013523,0.002678,0.000431,0.022213
7312000,0.0324,0.013523,0.002678,0.000431,0.022095
7313000,0.0324,0.013523,0.002678,0.000431,0.021273
7314000,0.0324,0.013523,0.002678,0.000431,0.021038
7315000,0.0324,0.013523,0.002678,0.000431,0.022565
7316000,0.0324,0.013523,0.002678,0.000431,0.021625
7317000,0.0324,0.013523,0.002678,0.000431,0.020567
7318000,0.0324,0.013523,0.002678,0.000431,0.023388
7319000,0.0324,0.013523,0.002678,0.000431,0.022448
7320000,0.0324,0.013523,0.002678,0.000431,0.020450
7321000,0.0324,0.013523,0.002678,0.000431,0.020332
7322000,0.0324,0.013523,0.002678,0.000431,0.022448
7323000,0.0324,0.013523,0.002678,0.000431,0.022448
7324000,0.0324,0.013523,0.002678,0.000431,0.020332
7325000,0.0324,0.013523,0.002678,0.000431,0.022330
7326000,0.0324,0.013523,0.002678,0.000431,0.022683
7327000,0.0324,0.013523,0.002678,0.000431,0.023153
7328000,0.0324,0.013523,0.002678,0.000431,0.021155
7329000,0.0324,0.013523,0.002678,0.000431,0.021155
7330000,0.0324,0.013523,0.002678,0.000431,0.023388
7331000,0.0324,0.013523,0.002678,0.000431,0.021625
7332000,0.0324,0.013523,0.002678,0.000431,0.020332
7333000,0.0324,0.013523,0.002678,0.000431,0.022213
7334000,0.0324,0.013523,0.002678,0.000431,0.022330
7335000,0.0324,0.013523,0.002678,0.000431,0.021155
7336000,0.0324,0.013523,0.002678,0.000431,0.021038
7337000,0.0324,0.013523,0.002678,0.000431,0.024093
7338000,0.0324,0.013523,0.002678,0.000431,0.021273
7339000,0.0324,0.013523,0.002678,0.000431,0.020802
7340000,0.0324,0.013523,0.002678,0.000431,0.021743
7341000,0.0324,0.013523,0.002678,0.000431,0.022683
7342000,0.0324,0.013523,0.002678,0.000431,0.022448
7343000,0.0324,0.013523,0.002678,0.000431,0.020567
7344000,0.0324,0.013523,0.002678,0.000431,0.020802
7345000,0.0324,0.013523,0.002678,0.000431,0.023858
7346000,0.0324,0.013523,0.002678,0.000431,0.023036
7347000,0.0324,0.013523,0.002678,0.000431,0.020685
7348000,0.0324,0.013523,0.002678,0.000431,0.020450
7349000,0.0324,0.013523,0.002678,0.000431,0.022918
7350000,0.0324,0.013523,0.002678,0.000431,0.021978
7351000,0.0324,0.013523,0.002678,0.000431,0.022095
7352000,0.0324,0.013523,0.002678,0.000431,0.021273
7353000,0.0324,0.013523,0.002678,0.000431,0.023623
7354000,0.0324,0.013523,0.002678,0.000431,0.021860
7355000,0.0324,0.013523,0.002678,0.000431,0.022213
7356000,0.0324,0.013523,0.002678,0.000431,0.021508
7357000,0.0324,0.013523,0.002678,0.000431,0.021860
7358000,0.0324,0.013523,0.002678,0.000431,0.021743
7359000,0.0324,0.013523,0.002678,0.000431,0.019275
7360000,0.0324,0.013523,0.002678,0.000431,0.023506
7361000,0.0324,0.013523,0.002678,0.000431,0.022565
7362000,0.0324,0.013523,0.002678,0.000431,0.022800
7363000,0.0324,0.013523,0.002678,0.000431,0.019275
7364000,0.0324,0.013523,0.002678,0.000431,0.023271
7365000,0.0324,0.013523,0.002678,0.000431,0.020567
7366000,0.0324,0.013523,0.002678,0.000431,0.019745
7367000,0.0324,0.013523,0.002678,0.000431,0.020920
7368000,0.0324,0.013523,0.002678,0.000431,0.022330
7369000,0.0324,0.013523,0.002678,0.000431,0.021390
7370000,0.0324,0.013523,0.002678,0.000431,0.022448
7371000,0.0324,0.013523,0.002678,0.000431,0.021860
7372000,0.0324,0.013523,0.002678,0.000431,0.022213
7373000,0.0324,0.013523,0.002678,0.000431,0.022683
7374000,0.0324,0.013523,0.002678,0.000431,0.020450
7375000,0.0324,0.013523,0.002678,0.000431,0.023506
7376000,0.0324,0.013523,0.002678,0.000431,0.022213
7377000,0.0324,0.013523,0.002678,0.000431,0.022095
7378000,0.0324,0.013523,0.002678,0.000431,0.021155
7379000,0.0324,0.013523,0.002678,0.000431,0.021508
7380000,0.0324,0.013523,0.002678,0.000431,0.020332
7381000,0.0324,0.013523,0.002678,0.000431,0.022213
7382000,0.0324,0.013523,0.002678,0.000431,0.022213
7383000,0.0324,0.013523,0.002678,0.000431,0.023271
7384000,0.0324,0.013523,0.002678,0.000431,0.023858
7385000,0.0324,0.013523,0.002678,0.000431,0.020802
7386000,0.0324,0.013523,0.002678,0.000431,0.020567
7387000,0.0324,0.013523,0.002678,0.000431,0.022330
7388000,0.0324,0.013523,0.002678,0.000431,0.021155
7389000,0.0324,0.013523,0.002678,0.000431,0.021508
7390000,0.0324,0.013523,0.002678,0.000431,0.021860
7391000,0.0324,0.013523,0.002678,0.000431,0.020920
7392000,0.0324,0.013523,0.002678,0.000431,0.021038
7393000,0.0324,0.013523,0.002678,0.000431,0.022095
7394000,0.0324,0.013523,0.002678,0.000431,0.021625
7395000,0.0324,0.013523,0.002678,0.000431,0.021390
7396000,0.0324,0.013523,0.002678,0.000431,0.021273
7397000,0.0324,0.013523,0.002678,0.000431,0.020802
7398000,0.0324,0.013523,0.002678,0.000431,0.022918
7399000,0.0324,0.013523,0.002678,0.000431,0.024093
7400000,0.0324,0.013523,0.002678,0.000431,0.021978
7401000,0.0324,0.013523,0.002678,0.000431,0.022800
7402000,0.0324,0.013523,0.002678,0.000431,0.023153
7403000,0.0324,0.013523,0.002678,0.000431,0.021978
7404000,0.0324,0.013523,0.002678,0.000431,0.020450
7405000,0.0324,0.013523,0.002678,0.000431,0.023153
7406000,0.0324,0.013523,0.002678,0.000431,0.021860
7407000,0.0324,0.013523,0.002678,0.000431,0.020215
7408000,0.0324,0.013523,0.002678,0.000431,0.023036
7409000,0.0324,0.013523,0.002678,0.000431,0.021390
7410000,0.0324,0.013523,0.002678,0.000431,0.020685
7411000,0.0324,0.013523,0.002678,0.000431,0.021155
7412000,0.0324,0.013523,0.002678,0.000431,0.023036
7413000,0.0324,0.013523,0.002678,0.000431,0.021625
7414000,0.0324,0.013523,0.002678,0.000431,0.021155
7415000,0.0324,0.013523,0.002678,0.000431,0.020215
7416000,0.0324,0.013523,0.002678,0.000431,0.021038
7417000,0.0324,0.013523,0.002678,0.000431,0.021155
7418000,0.0324,0.013523,0.002678,0.000431,0.021625
7419000,0.0324,0.013523,0.002678,0.000431,0.020567
7420000,0.0324,0.013523,0.002678,0.000431,0.021273
7421000,0.0324,0.013523,0.002678,0.000431,0.020450
7422000,0.0324,0.013523,0.002678,0.000431,0.022448
7423000,0.0324,0.013523,0.002678,0.000431,0.020567
7424000,0.0324,0.013523,0.002678,0.000431,0.021390
7425000,0.0324,0.013523,0.002678,0.000431,0.019862
7426000,0.0324,0.013523,0.002678,0.000431,0.020802
7427000,0.0324,0.013523,0.002678,0.000431,0.021978
7428000,0.0324,0.013523,0.002678,0.000431,0.023271
7429000,0.0324,0.013523,0.002678,0.000431,0.021390
7430000,0.0324,0.013523,0.002678,0.000431,0.020450
7431000,0.0324,0.013523,0.002678,0.000431,0.023036
7432000,0.0324,0.013523,0.002678,0.000431,0.021978
7433000,0.0324,0.013523,0.002678,0.000431,0.020215
7434000,0.0324,0.013523,0.002678,0.000431,0.020802
7435000,0.0324,0.013523,0.002678,0.000431,0.021155
7436000,0.0324,0.013523,0.002678,0.000431,0.021508
7437000,0.0324,0.013523,0.002678,0.000431,0.019627
7438000,0.0324,0.013523,0.002678,0.000431,0.022683
7439000,0.0324,0.013523,0.002678,0.000431,0.020450
7440000,0.0324,0.013523,0.002678,0.000431,0.022330
7441000,0.0324,0.013523,0.002678,0.000431,0.020920
7442000,0.0324,0.013523,0.002678,0.000431,0.022918
7443000,0.0324,0.013523,0.002678,0.000431,0.021038
7444000,0.0324,0.013523,0.002678,0.000431,0.020920
7445000,0.0324,0.013523,0.002678,0.000431,0.021978
7446000,0.0324,0.013523,0.002678,0.000431,0.021273
7447000,0.0324,0.013523,0.002678,0.000431,0.021860
7448000,0.0324,0.013523,0.002678,0.000431,0.020332
7449000,0.0324,0.013523,0.002678,0.000431,0.023506
7450000,0.0324,0.013523,0.002678,0.000431,0.020332
7451000,0.0324,0.013523,0.002678,0.000431,0.021155
7452000,0.0324,0.013523,0.002678,0.000431,0.022800
7453000,0.0324,0.013523,0.002678,0.000431,0.021155
7454000,0.0324,0.013523,0.002678,0.000431,0.021508
7455000,0.0324,0.013523,0.002678,0.000431,0.021273
7456000,0.0324,0.013523,0.002678,0.000431,0.023506
7457000,0.0324,0.013523,0.002678,0.000431,0.021038
7458000,0.0324,0.013523,0.002678,0.000431,0.019275
7459000,0.0324,0.013523,0.002678,0.000431,0.023858
7460000,0.0324,0.013523,0.002678,0.000431,0.021273
7461000,0.0324,0.013523,0.002678,0.000431,0.020450
7462000,0.0324,0.013523,0.002678,0.000431,0.022800
7463000,0.0324,0.013523,0.002678,0.000431,0.021860
7464000,0.0324,0.013523,0.002678,0.000431,0.020450
7465000,0.0324,0.013523,0.002678,0.000431,0.021508
7466000,0.0324,0.013523,0.002678,0.000431,0.021743
7467000,0.0324,0.013523,0.002678,0.000431,0.021743
7468000,0.0324,0.013523,0.002678,0.000431,0.020802
7469000,0.0324,0.013523,0.002678,0.000431,0.022800
7470000,0.0324,0.013523,0.002678,0.000431,0.022683
7471000,0.0324,0.013523,0.002678,0.000431,0.019862
7472000,0.0324,0.013523,0.002678,0.000431,0.020215
7473000,0.0324,0.013523,0.002678,0.000431,0.021860
7474000,0.0324,0.013523,0.002678,0.000431,0.023623
7475000,0.0324,0.013523,0.002678,0.000431,0.021508
7476000,0.0324,0.013523,0.002678,0.000431,0.021273
7477000,0.0324,0.013523,0.002678,0.000431,0.023271
7478000,0.0324,0.013523,0.002678,0.000431,0.020097
7479000,0.0324,0.013523,0.002678,0.000431,0.021155
7480000,0.0324,0.013523,0.002678,0.000431,0.022213
7481000,0.0324,0.013523,0.002678,0.000431,0.022213
7482000,0.0324,0.013523,0.002678,0.000431,0.022095
7483000,0.0324,0.013523,0.002678,0.000431,0.021978
7484000,0.0324,0.013523,0.002678,0.000431,0.022448
7485000,0.0324,0.013523,0.002678,0.000431,0.019980
7486000,0.0324,0.013523,0.002678,0.000431,0.021390
7487000,0.0324,0.013523,0.002678,0.000431,0.022330
7488000,0.0324,0.013523,0.002678,0.000431,0.022213
7489000,0.0324,0.013523,0.002678,0.000431,0.020097
7490000,0.0324,0.013523,0.002678,0.000431,0.022330
7491000,0.0324,0.013523,0.002678,0.000431,0.020567
7492000,0.0324,0.013523,0.002678,0.000431,0.020802
7493000,0.0324,0.013523,0.002678,0.000431,0.020802
7494000,0.0324,0.013523,0.002678,0.000431,0.023271
7495000,0.0324,0.013523,0.002678,0.000431,0.020920
7496000,0.0324,0.013523,0.002678,0.000431,0.019745
7497000,0.0324,0.013523,0.002678,0.000431,0.021273
7498000,0.0324,0.013523,0.002678,0.000431,0.022213
7499000,0.0324,0.013523,0.002678,0.000431,0.019510
7500000,0.0324,0.013523,0.002678,0.000431,0.021860
7501000,0.0324,0.013523,0.002678,0.000431,0.021625
7502000,0.0324,0.013523,0.002678,0.000431,0.020567
7503000,0.0324,0.013523,0.002678,0.000431,0.021155
7504000,0.0324,0.013523,0.002678,0.000431,0.021978
7505000,0.0324,0.013523,0.002678,0.000431,0.023153
7506000,0.0324,0.013523,0.002678,0.000431,0.020332
7507000,0.0324,0.013523,0.002678,0.000431,0.022213
7508000,0.0324,0.013523,0.002678,0.000431,0.021625
7509000,0.0324,0.013523,0.002678,0.000431,0.021978
7510000,0.0324,0.013523,0.002678,0.000431,0.021390
7511000,0.0324,0.013523,0.002678,0.000431,0.021860
7512000,0.0324,0.013523,0.002678,0.000431,0.020802
7513000,0.0324,0.013523,0.002678,0.000431,0.020097
7514000,0.0324,0.013523,0.002678,0.000431,0.022213
7515000,0.0324,0.013523,0.002678,0.000431,0.022918
7516000,0.0324,0.013523,0.002678,0.000431,0.020920
7517000,0.0324,0.013523,0.002678,0.000431,0.021155
7518000,0.0324,0.013523,0.002678,0.000431,0.022330
7519000,0.0324,0.013523,0.002678,0.000431,0.022095
7520000,0.0324,0.013523,0.002678,0.000431,0.020685
7521000,0.0324,0.013523,0.002678,0.000431,0.022213
7522000,0.0324,0.013523,0.002678,0.000431,0.021508
7523000,0.0324,0.013523,0.002678,0.000431,0.021390
7524000,0.0324,0.013523,0.002678,0.000431,0.020685
7525000,0.0324,0.013523,0.002678,0.000431,0.023388
7526000,0.0324,0.013523,0.002678,0.000431,0.022095
7527000,0.0324,0.013523,0.002678,0.000431,0.018805
7528000,0.0324,0.013523,0.002678,0.000431,0.021743
7529000,0.0324,0.013523,0.002678,0.000431,0.023271
7530000,0.0324,0.013523,0.002678,0.000431,0.020450
7531000,0.0324,0.013523,0.002678,0.000431,0.021273
7532000,0.0324,0.013523,0.002678,0.000431,0.022213
7533000,0.0324,0.013523,0.002678,0.000431,0.021390
7534000,0.0324,0.013523,0.002678,0.000431,0.020450
7535000,0.0324,0.013523,0.002678,0.000431,0.022213
7536000,0.0324,0.013523,0.002678,0.000431,0.023271
7537000,0.0324,0.013523,0.002678,0.000431,0.022800
7538000,0.0324,0.013523,0.002678,0.000431,0.020685
7539000,0.0324,0.013523,0.002678,0.000431,0.025034
7540000,0.0324,0.013523,0.002678,0.000431,0.019627
7541000,0.0324,0.013523,0.002678,0.000431,0.020450
7542000,0.0324,0.013523,0.002678,0.000431,0.021038
7543000,0.0324,0.013523,0.002678,0.000431,0.022800
7544000,0.0324,0.013523,0.002678,0.000431,0.022095
7545000,0.0324,0.013523,0.002678,0.000431,0.021273
7546000,0.0324,0.013523,0.002678,0.000431,0.022330
7547000,0.0324,0.013523,0.002678,0.000431,0.021508
7548000,0.0324,0.013523,0.002678,0.000431,0.019275
7549000,0.0324,0.013523,0.002678,0.000431,0.021860
7550000,0.0324,0.013523,0.002678,0.000431,0.021860
7551000,0.0324,0.013523,0.002678,0.000431,0.020097
7552000,0.0324,0.013523,0.002678,0.000431,0.020802
7553000,0.0324,0.013523,0.002678,0.000431,0.021978
7554000,0.0324,0.013523,0.002678,0.000431,0.022448
7555000,0.0324,0.013523,0.002678,0.000431,0.023623
7556000,0.0324,0.013523,0.002678,0.000431,0.020567
7557000,0.0324,0.013523,0.002678,0.000431,0.021978
7558000,0.0324,0.013523,0.002678,0.000431,0.020450
7559000,0.0324,0.013523,0.002678,0.000431,0.021743
7560000,0.0324,0.013523,0.002678,0.000431,0.022448
7561000,0.0324,0.013523,0.002678,0.000431,0.020685
7562000,0.0324,0.013523,0.002678,0.000431,0.022330
7563000,0.0324,0.013523,0.002678,0.000431,0.020097
7564000,0.0324,0.013523,0.002678,0.000431,0.021743
7565000,0.0324,0.013523,0.002678,0.000431,0.021155
7566000,0.0324,0.013523,0.002678,0.000431,0.022095
7567000,0.0324,0.013523,0.002678,0.000431,0.021860
7568000,0.0324,0.013523,0.002678,0.000431,0.020802
7569000,0.0324,0.013523,0.002678,0.000431,0.021508
7570000,0.0324,0.013523,0.002678,0.000431,0.021038
7571000,0.0324,0.013523,0.002678,0.000431,0.021743
7572000,0.0324,0.013523,0.002678,0.000431,0.020920
7573000,0.0324,0.013523,0.002678,0.000431,0.022330
7574000,0.0324,0.013523,0.002678,0.000431,0.022095
7575000,0.0324,0.013523,0.002678,0.000431,0.020802
7576000,0.0324,0.013523,0.002678,0.000431,0.022448
7577000,0.0324,0.013523,0.002678,0.000431,0.022800
7578000,0.0324,0.013523,0.002678,0.000431,0.023976
7579000,0.0324,0.013523,0.002678,0.000431,0.021625
7580000,0.0324,0.013523,0.002678,0.000431,0.021625
7581000,0.0324,0.013523,0.002678,0.000431,0.022213
7582000,0.0324,0.013523,0.002678,0.000431,0.022683
7583000,0.0324,0.013523,0.002678,0.000431,0.020802
7584000,0.0324,0.013523,0.002678,0.000431,0.022330
7585000,0.0324,0.013523,0.002678,0.000431,0.023388
7586000,0.0324,0.013523,0.002678,0.000431,0.020567
7587000,0.0324,0.013523,0.002678,0.000431,0.021625
7588000,0.0324,0.013523,0.002678,0.000431,0.022213
7589000,0.0324,0.013523,0.002678,0.000431,0.020332
7590000,0.0324,0.013523,0.002678,0.000431,0.020802
7591000,0.0324,0.013523,0.002678,0.000431,0.023506
7592000,0.0324,0.013523,0.002678,0.000431,0.020097
7593000,0.0324,0.013523,0.002678,0.000431,0.021273
7594000,0.0324,0.013523,0.002678,0.000431,0.021743
7595000,0.0324,0.013523,0.002678,0.000431,0.023036
7596000,0.0324,0.013523,0.002678,0.000431,0.020920
7597000,0.0324,0.013523,0.002678,0.000431,0.020920
7598000,0.0324,0.013523,0.002678,0.000431,0.021508
7599000,0.0324,0.013523,0.002678,0.000431,0.021508
7600000,0.0324,0.013523,0.002678,0.000431,0.020685
7601000,0.0324,0.013523,0.002678,0.000431,0.020802
7602000,0.0324,0.013523,0.002678,0.000431,0.021625
7603000,0.0324,0.013523,0.002678,0.000431,0.020332
7604000,0.0324,0.013523,0.002678,0.000431,0.020450
7605000,0.0324,0.013523,0.002678,0.000431,0.021625
7606000,0.0324,0.013523,0.002678,0.000431,0.021743
7607000,0.0324,0.013523,0.002678,0.000431,0.022095
7608000,0.0324,0.013523,0.002678,0.000431,0.021273
7609000,0.0324,0.013523,0.002678,0.000431,0.021978
7610000,0.0324,0.013523,0.002678,0.000431,0.021155
7611000,0.0324,0.013523,0.002678,0.000431,0.020802
7612000,0.0324,0.013523,0.002678,0.000431,0.021978
7613000,0.0324,0.013523,0.002678,0.000431,0.021625
7614000,0.0324,0.013523,0.002678,0.000431,0.020215
7615000,0.0324,0.013523,0.002678,0.000431,0.023388
7616000,0.0324,0.013523,0.002678,0.000431,0.022565
7617000,0.0324,0.013523,0.002678,0.000431,0.021273
7618000,0.0324,0.013523,0.002678,0.000431,0.021743
7619000,0.0324,0.013523,0.002678,0.000431,0.020332
7620000,0.0324,0.013523,0.002678,0.000431,0.021860
7621000,0.0324,0.013523,0.002678,0.000431,0.022330
7622000,0.0324,0.013523,0.002678,0.000431,0.021038
7623000,0.0324,0.013523,0.002678,0.000431,0.022565
7624000,0.0324,0.013523,0.002678,0.000431,0.020097
7625000,0.0324,0.013523,0.002678,0.000431,0.021625
7626000,0.0324,0.013523,0.002678,0.000431,0.019980
7627000,0.0324,0.013523,0.002678,0.000431,0.022095
7628000,0.0324,0.013523,0.002678,0.000431,0.021508
7629000,0.0324,0.013523,0.002678,0.000431,0.020332
7630000,0.0324,0.013523,0.002678,0.000431,0.022683
7631000,0.0324,0.013523,0.002678,0.000431,0.023153
7632000,0.0324,0.013523,0.002678,0.000431,0.022683
7633000,0.0324,0.013523,0.002678,0.000431,0.022330
7634000,0.0324,0.013523,0.002678,0.000431,0.022683
7635000,0.0324,0.013523,0.002678,0.000431,0.022565
7636000,0.0324,0.013523,0.002678,0.000431,0.021625
7637000,0.0324,0.013523,0.002678,0.000431,0.023976
7638000,0.0324,0.013523,0.002678,0.000431,0.021273
7639000,0.0324,0.013523,0.002678,0.000431,0.022095
7640000,0.0324,0.013523,0.002678,0.000431,0.023153
7641000,0.0324,0.013523,0.002678,0.000431,0.021390
7642000,0.0324,0.013523,0.002678,0.000431,0.019862
7643000,0.0324,0.013523,0.002678,0.000431,0.022565
7644000,0.0324,0.013523,0.002678,0.000431,0.021743
7645000,0.0324,0.013523,0.002678,0.000431,0.021508
7646000,0.0324,0.013523,0.002678,0.000431,0.021390
7647000,0.0324,0.013523,0.002678,0.000431,0.021625
7648000,0.0324,0.013523,0.002678,0.000431,0.023388
7649000,0.0324,0.013523,0.002678,0.000431,0.023153
7650000,0.0324,0.013523,0.002678,0.000431,0.021743
7651000,0.0324,0.013523,0.002678,0.000431,0.021390
7652000,0.0324,0.013523,0.002678,0.000431,0.021273
7653000,0.0324,0.013523,0.002678,0.000431,0.020450
7654000,0.0324,0.013523,0.002678,0.000431,0.022800
7655000,0.0324,0.013523,0.002678,0.000431,0.022330
7656000,0.0324,0.013523,0.002678,0.000431,0.021038
7657000,0.0324,0.013523,0.002678,0.000431,0.021978
7658000,0.0324,0.013523,0.002678,0.000431,0.023623
7659000,0.0324,0.013523,0.002678,0.000431,0.021038
7660000,0.0324,0.013523,0.002678,0.000431,0.019745
7661000,0.0324,0.013523,0.002678,0.000431,0.023388
7662000,0.0324,0.013523,0.002678,0.000431,0.023036
7663000,0.0324,0.013523,0.002678,0.000431,0.021625
7664000,0.0324,0.013523,0.002678,0.000431,0.023506
7665000,0.0324,0.013523,0.002678,0.000431,0.021978
7666000,0.0324,0.013523,0.002678,0.000431,0.020567
7667000,0.0324,0.013523,0.002678,0.000431,0.021273
7668000,0.0324,0.013523,0.002678,0.000431,0.022213
7669000,0.0324,0.013523,0.002678,0.000431,0.022330
7670000,0.0324,0.013523,0.002678,0.000431,0.020567
7671000,0.0324,0.013523,0.002678,0.000431,0.022918
7672000,0.0324,0.013523,0.002678,0.000431,0.022448
7673000,0.0324,0.013523,0.002678,0.000431,0.021625
7674000,0.0324,0.013523,0.002678,0.000431,0.021743
7675000,0.0324,0.013523,0.002678,0.000431,0.020685
7676000,0.0324,0.013523,0.002678,0.000431,0.021038
7677000,0.0324,0.013523,0.002678,0.000431,0.020215
7678000,0.0324,0.013523,0.002678,0.000431,0.021978
7679000,0.0324,0.013523,0.002678,0.000431,0.022213
7680000,0.0324,0.013523,0.002678,0.000431,0.021038
7681000,0.0324,0.013523,0.002678,0.000431,0.020685
7682000,0.0324,0.013523,0.002678,0.000431,0.023036
7683000,0.0324,0.013523,0.002678,0.000431,0.021625
7684000,0.0324,0.013523,0.002678,0.000431,0.021273
7685000,0.0324,0.013523,0.002678,0.000431,0.023271
7686000,0.0324,0.013523,0.002678,0.000431,0.020567
7687000,0.0324,0.013523,0.002678,0.000431,0.021508
7688000,0.0324,0.013523,0.002678,0.000431,0.020567
7689000,0.0324,0.013523,0.002678,0.000431,0.022095
7690000,0.0324,0.013523,0.002678,0.000431,0.021155
7691000,0.0324,0.013523,0.002678,0.000431,0.020920
7692000,0.0324,0.013523,0.002678,0.000431,0.022918
7693000,0.0324,0.013523,0.002678,0.000431,0.020685
7694000,0.0324,0.013523,0.002678,0.000431,0.022213
7695000,0.0324,0.013523,0.002678,0.000431,0.022095
7696000,0.0324,0.013523,0.002678,0.000431,0.021743
7697000,0.0324,0.013523,0.002678,0.000431,0.020332
7698000,0.0324,0.013523,0.002678,0.000431,0.023506
7699000,0.0324,0.013523,0.002678,0.000431,0.022095
7700000,0.0324,0.013523,0.002678,0.000431,0.022683
7701000,0.0324,0.013523,0.002678,0.000431,0.020567
7702000,0.0324,0.013523,0.002678,0.000431,0.022213
7703000,0.0324,0.013523,0.002678,0.000431,0.022095
7704000,0.0324,0.013523,0.002678,0.000431,0.020450
7705000,0.0324,0.013523,0.002678,0.000431,0.020920
7706000,0.0324,0.013523,0.002678,0.000431,0.022213
7707000,0.0324,0.013523,0.002678,0.000431,0.022565
7708000,0.0324,0.013523,0.002678,0.000431,0.020802
7709000,0.0324,0.013523,0.002678,0.000431,0.022448
7710000,0.0324,0.013523,0.002678,0.000431,0.023506
7711000,0.0324,0.013523,0.002678,0.000431,0.022095
7712000,0.0324,0.013523,0.002678,0.000431,0.019275
7713000,0.0324,0.013523,0.002678,0.000431,0.023623
7714000,0.0324,0.013523,0.002678,0.000431,0.021625
7715000,0.0324,0.013523,0.002678,0.000431,0.020097
7716000,0.0324,0.013523,0.002678,0.000431,0.023506
7717000,0.0324,0.013523,0.002678,0.000431,0.023153
7718000,0.0324,0.013523,0.002678,0.000431,0.020097
7719000,0.0324,0.013523,0.002678,0.000431,0.023506
7720000,0.0324,0.013523,0.002678,0.000431,0.024446
7721000,0.0324,0.013523,0.002678,0.000431,0.020685
7722000,0.0324,0.013523,0.002678,0.000431,0.020802
7723000,0.0324,0.013523,0.002678,0.000431,0.022448
7724000,0.0324,0.013523,0.002678,0.000431,0.021508
7725000,0.0324,0.013523,0.002678,0.000431,0.020802
7726000,0.0324,0.013523,0.002678,0.000431,0.021155
7727000,0.0324,0.013523,0.002678,0.000431,0.022683
7728000,0.0324,0.013523,0.002678,0.000431,0.022095
7729000,0.0324,0.013523,0.002678,0.000431,0.021978
7730000,0.0324,0.013523,0.002678,0.000431,0.022448
7731000,0.0324,0.013523,0.002678,0.000431,0.021390
7732000,0.0324,0.013523,0.002678,0.000431,0.022683
7733000,0.0324,0.013523,0.002678,0.000431,0.020685
7734000,0.0324,0.013523,0.002678,0.000431,0.021743
7735000,0.0324,0.013523,0.002678,0.000431,0.021743
7736000,0.0324,0.013523,0.002678,0.000431,0.019510
7737000,0.0324,0.013523,0.002678,0.000431,0.023036
7738000,0.0324,0.013523,0.002678,0.000431,0.020802
7739000,0.0324,0.013523,0.002678,0.000431,0.022330
7740000,0.0324,0.013523,0.002678,0.000431,0.022095
7741000,0.0324,0.013523,0.002678,0.000431,0.022448
7742000,0.0324,0.013523,0.002678,0.000431,0.020097
7743000,0.0324,0.013523,0.002678,0.000431,0.021155
7744000,0.0324,0.013523,0.002678,0.000431,0.023506
7745000,0.0324,0.013523,0.002678,0.000431,0.019980
7746000,0.0324,0.013523,0.002678,0.000431,0.020567
7747000,0.0324,0.013523,0.002678,0.000431,0.023153
7748000,0.0324,0.013523,0.002678,0.000431,0.021978
7749000,0.0324,0.013523,0.002678,0.000431,0.020920
7750000,0.0324,0.013523,0.002678,0.000431,0.021978
7751000,0.0324,0.013523,0.002678,0.000431,0.022800
7752000,0.0324,0.013523,0.002678,0.000431,0.020567
7753000,0.0324,0.013523,0.002678,0.000431,0.021743
7754000,0.0324,0.013523,0.002678,0.000431,0.022213
7755000,0.0324,0.013523,0.002678,0.000431,0.023271
7756000,0.0324,0.013523,0.002678,0.000431,0.021038
7757000,0.0324,0.013523,0.002678,0.000431,0.022213
7758000,0.0324,0.013523,0.002678,0.000431,0.023153
7759000,0.0324,0.013523,0.002678,0.000431,0.021625
7760000,0.0324,0.013523,0.002678,0.000431,0.021860
7761000,0.0324,0.013523,0.002678,0.000431,0.020920
7762000,0.0324,0.013523,0.002678,0.000431,0.021743
7763000,0.0324,0.013523,0.002678,0.000431,0.020332
7764000,0.0324,0.013523,0.002678,0.000431,0.021743
7765000,0.0324,0.013523,0.002678,0.000431,0.023271
7766000,0.0324,0.013523,0.002678,0.000431,0.021390
7767000,0.0324,0.013523,0.002678,0.000431,0.019745
7768000,0.0324,0.013523,0.002678,0.000431,0.022448
7769000,0.0324,0.013523,0.002678,0.000431,0.022095
7770000,0.0324,0.013523,0.002678,0.000431,0.019745
7771000,0.0324,0.013523,0.002678,0.000431,0.022565
7772000,0.0324,0.013523,0.002678,0.000431,0.022095
7773000,0.0324,0.013523,0.002678,0.000431,0.020097
7774000,0.0324,0.013523,0.002678,0.000431,0.021273
7775000,0.0324,0.013523,0.002678,0.000431,0.021743
7776000,0.0324,0.013523,0.002678,0.000431,0.022330
7777000,0.0324,0.013523,0.002678,0.000431,0.021273
7778000,0.0324,0.013523,0.002678,0.000431,0.022095
7779000,0.0324,0.013523,0.002678,0.000431,0.021390
7780000,0.0324,0.013523,0.002678,0.000431,0.021508
7781000,0.0324,0.013523,0.002678,0.000431,0.019980
7782000,0.0324,0.013523,0.002678,0.000431,0.023506
7783000,0.0324,0.013523,0.002678,0.000431,0.020802
7784000,0.0324,0.013523,0.002678,0.000431,0.020097
7785000,0.0324,0.013523,0.002678,0.000431,0.020567
7786000,0.0324,0.013523,0.002678,0.000431,0.020920
7787000,0.0324,0.013523,0.002678,0.000431,0.022213
7788000,0.0324,0.013523,0.002678,0.000431,0.019627
7789000,0.0324,0.013523,0.002678,0.000431,0.023623
7790000,0.0324,0.013523,0.002678,0.000431,0.020920
7791000,0.0324,0.013523,0.002678,0.000431,0.020685
7792000,0.0324,0.013523,0.002678,0.000431,0.021508
7793000,0.0324,0.013523,0.002678,0.000431,0.021508
7794000,0.0324,0.013523,0.002678,0.000431,0.022095
7795000,0.0324,0.013523,0.002678,0.000431,0.020802
7796000,0.0324,0.013523,0.002678,0.000431,0.022683
7797000,0.0324,0.013523,0.002678,0.000431,0.020802
7798000,0.0324,0.013523,0.002678,0.000431,0.021390
7799000,0.0324,0.013523,0.002678,0.000431,0.022330
7800000,0.0324,0.013523,0.002678,0.000431,0.022800
7801000,0.0324,0.013523,0.002678,0.000431,0.021038
7802000,0.0324,0.013523,0.002678,0.000431,0.023271
7803000,0.0324,0.013523,0.002678,0.000431,0.023153
7804000,0.0324,0.013523,0.002678,0.000431,0.020802
7805000,0.0324,0.013523,0.002678,0.000431,0.021625
7806000,0.0324,0.013523,0.002678,0.000431,0.021743
7807000,0.0324,0.013523,0.002678,0.000431,0.022683
7808000,0.0324,0.013523,0.002678,0.000431,0.019745
7809000,0.0324,0.013523,0.002678,0.000431,0.019745
7810000,0.0324,0.013523,0.002678,0.000431,0.020685
7811000,0.0324,0.013523,0.002678,0.000431,0.022918
7812000,0.0324,0.013523,0.002678,0.000431,0.019862
7813000,0.0324,0.013523,0.002678,0.000431,0.020332
7814000,0.0324,0.013523,0.002678,0.000431,0.021860
7815000,0.0324,0.013523,0.002678,0.000431,0.021743
7816000,0.0324,0.013523,0.002678,0.000431,0.020685
7817000,0.0324,0.013523,0.002678,0.000431,0.022095
7818000,0.0324,0.013523,0.002678,0.000431,0.021038
7819000,0.0324,0.013523,0.002678,0.000431,0.019392
7820000,0.0324,0.013523,0.002678,0.000431,0.021978
7821000,0.0324,0.013523,0.002678,0.000431,0.021155
7822000,0.0324,0.013523,0.002678,0.000431,0.020802
7823000,0.0324,0.013523,0.002678,0.000431,0.019862
7824000,0.0324,0.013523,0.002678,0.000431,0.022213
7825000,0.0324,0.013523,0.002678,0.000431,0.020685
7826000,0.0324,0.013523,0.002678,0.000431,0.020567
7827000,0.0324,0.013523,0.002678,0.000431,0.020097
7828000,0.0324,0.013523,0.002678,0.000431,0.022683
7829000,0.0324,0.013523,0.002678,0.000431,0.020097
7830000,0.0324,0.013523,0.002678,0.000431,0.021155
7831000,0.0324,0.013523,0.002678,0.000431,0.021155
7832000,0.0324,0.013523,0.002678,0.000431,0.019980
7833000,0.0324,0.013523,0.002678,0.000431,0.021038
7834000,0.0324,0.013523,0.002678,0.000431,0.021508
7835000,0.0324,0.013523,0.002678,0.000431,0.021625
7836000,0.0324,0.013523,0.002678,0.000431,0.019745
7837000,0.0324,0.013523,0.002678,0.000431,0.021625
7838000,0.0324,0.013523,0.002678,0.000431,0.022330
7839000,0.0324,0.013523,0.002678,0.000431,0.021625
7840000,0.0324,0.013523,0.002678,0.000431,0.018452
7841000,0.0324,0.013523,0.002678,0.000431,0.020450
7842000,0.0324,0.013523,0.002678,0.000431,0.021508
7843000,0.0324,0.013523,0.002678,0.000431,0.020567
7844000,0.0324,0.013523,0.002678,0.000431,0.021273
7845000,0.0324,0.013523,0.002678,0.000431,0.022213
7846000,0.0324,0.013523,0.002678,0.000431,0.019980
7847000,0.0324,0.013523,0.002678,0.000431,0.020802
7848000,0.0324,0.013523,0.002678,0.000431,0.022448
7849000,0.0324,0.013523,0.002678,0.000431,0.022683
7850000,0.0324,0.013523,0.002678,0.000431,0.018922
7851000,0.0324,0.013523,0.002678,0.000431,0.019745
7852000,0.0324,0.013523,0.002678,0.000431,0.019745
7853000,0.0324,0.013523,0.002678,0.000431,0.018452
7854000,0.0324,0.013523,0.002678,0.000431,0.019627
7855000,0.0324,0.013523,0.002678,0.000431,0.020097
7856000,0.0324,0.013523,0.002678,0.000431,0.020802
7857000,0.0324,0.013523,0.002678,0.000431,0.021038
7858000,0.0324,0.013523,0.002678,0.000431,0.021390
7859000,0.0324,0.013523,0.002678,0.000431,0.020567
7860000,0.0324,0.013523,0.002678,0.000431,0.019862
7861000,0.0324,0.013523,0.002678,0.000431,0.018569
7862000,0.0324,0.013523,0.002678,0.000431,0.020097
7863000,0.0324,0.013523,0.002678,0.000431,0.019510
7864000,0.0324,0.013523,0.002678,0.000431,0.018452
7865000,0.0324,0.013523,0.002678,0.000431,0.021978
7866000,0.0324,0.013523,0.002678,0.000431,0.021978
7867000,0.0324,0.013523,0.002678,0.000431,0.018569
7868000,0.0324,0.013523,0.002678,0.000431,0.019040
7869000,0.0324,0.013523,0.002678,0.000431,0.021038
7870000,0.0324,0.013523,0.002678,0.000431,0.020802
7871000,0.0324,0.013523,0.002678,0.000431,0.018922
7872000,0.0324,0.013523,0.002678,0.000431,0.020802
7873000,0.0324,0.013523,0.002678,0.000431,0.020450
7874000,0.0324,0.013523,0.002678,0.000431,0.019275
7875000,0.0324,0.013523,0.002678,0.000431,0.020215
7876000,0.0324,0.013523,0.002678,0.000431,0.019980
7877000,0.0324,0.013523,0.002678,0.000431,0.019745
7878000,0.0324,0.013523,0.002678,0.000431,0.018687
7879000,0.0324,0.013523,0.002678,0.000431,0.021155
7880000,0.0324,0.013523,0.002678,0.000431,0.019040
7881000,0.0324,0.013523,0.002678,0.000431,0.019510
7882000,0.0324,0.013523,0.002678,0.000431,0.020685
7883000,0.0324,0.013523,0.002678,0.000431,0.020097
7884000,0.0324,0.013523,0.002678,0.000431,0.022095
7885000,0.0324,0.013523,0.002678,0.000431,0.018217
7886000,0.0324,0.013523,0.002678,0.000431,0.020215
7887000,0.0324,0.013523,0.002678,0.000431,0.020332
7888000,0.0324,0.013523,0.002678,0.000431,0.018922
7889000,0.0324,0.013523,0.002678,0.000431,0.021625
7890000,0.0324,0.013523,0.002678,0.000431,0.020332
7891000,0.0324,0.013523,0.002678,0.000431,0.019510
7892000,0.0324,0.013523,0.002678,0.000431,0.018687
7893000,0.0324,0.013523,0.002678,0.000431,0.021038
7894000,0.0324,0.013523,0.002678,0.000431,0.021625
7895000,0.0324,0.013523,0.002678,0.000431,0.019745
7896000,0.0324,0.013523,0.002678,0.000431,0.018922
7897000,0.0324,0.013523,0.002678,0.000431,0.019157
7898000,0.0324,0.013523,0.002678,0.000431,0.019510
7899000,0.0324,0.013523,0.002678,0.000431,0.017982
7900000,0.0324,0.013523,0.002678,0.000431,0.020920
7901000,0.0324,0.013523,0.002678,0.000431,0.020450
7902000,0.0324,0.013523,0.002678,0.000431,0.019275
7903000,0.0324,0.013523,0.002678,0.000431,0.021743
7904000,0.0324,0.013523,0.002678,0.000431,0.018334
7905000,0.0324,0.013523,0.002678,0.000431,0.018922
7906000,0.0324,0.013523,0.002678,0.000431,0.019862
7907000,0.0324,0.013523,0.002678,0.000431,0.020920
7908000,0.0324,0.013523,0.002678,0.000431,0.019980
7909000,0.0324,0.013523,0.002678,0.000431,0.019510
7910000,0.0324,0.013523,0.002678,0.000431,0.019157
7911000,0.0324,0.013523,0.002678,0.000431,0.020450
7912000,0.0324,0.013523,0.002678,0.000431,0.019157
7913000,0.0324,0.013523,0.002678,0.000431,0.019980
7914000,0.0324,0.013523,0.002678,0.000431,0.022095
7915000,0.0324,0.013523,0.002678,0.000431,0.019157
7916000,0.0324,0.013523,0.002678,0.000431,0.019980
7917000,0.0324,0.013523,0.002678,0.000431,0.020802
7918000,0.0324,0.013523,0.002678,0.000431,0.020920
7919000,0.0324,0.013523,0.002678,0.000431,0.019627
7920000,0.0324,0.013523,0.002678,0.000431,0.018569
7921000,0.0324,0.013523,0.002678,0.000431,0.021038
7922000,0.0324,0.013523,0.002678,0.000431,0.019040
7923000,0.0324,0.013523,0.002678,0.000431,0.019510
7924000,0.0324,0.013523,0.002678,0.000431,0.020332
7925000,0.0324,0.013523,0.002678,0.000431,0.020802
7926000,0.0324,0.013523,0.002678,0.000431,0.018687
7927000,0.0324,0.013523,0.002678,0.000431,0.019157
7928000,0.0324,0.013523,0.002678,0.000431,0.019275
7929000,0.0324,0.013523,0.002678,0.000431,0.020567
7930000,0.0324,0.013523,0.002678,0.000431,0.019392
7931000,0.0324,0.013523,0.002678,0.000431,0.019275
7932000,0.0324,0.013523,0.002678,0.000431,0.019510
7933000,0.0324,0.013523,0.002678,0.000431,0.019275
7934000,0.0324,0.013523,0.002678,0.000431,0.019627
7935000,0.0324,0.013523,0.002678,0.000431,0.020097
7936000,0.0324,0.013523,0.002678,0.000431,0.019157
7937000,0.0324,0.013523,0.002678,0.000431,0.018922
7938000,0.0324,0.013523,0.002678,0.000431,0.021625
7939000,0.0324,0.013523,0.002678,0.000431,0.019040
7940000,0.0324,0.013523,0.002678,0.000431,0.019862
7941000,0.0324,0.013523,0.002678,0.000431,0.021625
7942000,0.0324,0.013523,0.002678,0.000431,0.021038
7943000,0.0324,0.013523,0.002678,0.000431,0.019627
7944000,0.0324,0.013523,0.002678,0.000431,0.019392
7945000,0.0324,0.013523,0.002678,0.000431,0.021155
7946000,0.0324,0.013523,0.002678,0.000431,0.020215
7947000,0.0324,0.013523,0.002678,0.000431,0.018687
7948000,0.0324,0.013523,0.002678,0.000431,0.019745
7949000,0.0324,0.013523,0.002678,0.000431,0.021508
7950000,0.0324,0.013523,0.002678,0.000431,0.018334
7951000,0.0324,0.013523,0.002678,0.000431,0.021390
7952000,0.0324,0.013523,0.002678,0.000431,0.020097
7953000,0.0324,0.013523,0.002678,0.000431,0.019157
7954000,0.0324,0.013523,0.002678,0.000431,0.018805
7955000,0.0324,0.013523,0.002678,0.000431,0.021860
7956000,0.0324,0.013523,0.002678,0.000431,0.021155
7957000,0.0324,0.013523,0.002678,0.000431,0.018805
7958000,0.0324,0.013523,0.002678,0.000431,0.018452
7959000,0.0324,0.013523,0.002678,0.000431,0.020215
7960000,0.0324,0.013523,0.002678,0.000431,0.020567
7961000,0.0324,0.013523,0.002678,0.000431,0.018334
7962000,0.0324,0.013523,0.002678,0.000431,0.021273
7963000,0.0324,0.013523,0.002678,0.000431,0.020802
7964000,0.0324,0.013523,0.002678,0.000431,0.019745
7965000,0.0324,0.013523,0.002678,0.000431,0.020450
7966000,0.0324,0.013523,0.002678,0.000431,0.021860
7967000,0.0324,0.013523,0.002678,0.000431,0.019275
7968000,0.0324,0.013523,0.002678,0.000431,0.018687
7969000,0.0324,0.013523,0.002678,0.000431,0.021860
7970000,0.0324,0.013523,0.002678,0.000431,0.020685
7971000,0.0324,0.013523,0.002678,0.000431,0.019627
7972000,0.0324,0.013523,0.002678,0.000431,0.018452
7973000,0.0324,0.013523,0.002678,0.000431,0.020450
7974000,0.0324,0.013523,0.002678,0.000431,0.019392
7975000,0.0324,0.013523,0.002678,0.000431,0.018334
7976000,0.0324,0.013523,0.002678,0.000431,0.021273
7977000,0.0324,0.013523,0.002678,0.000431,0.021273
7978000,0.0324,0.013523,0.002678,0.000431,0.019275
7979000,0.0324,0.013523,0.002678,0.000431,0.019745
7980000,0.0324,0.013523,0.002678,0.000431,0.019745
7981000,0.0324,0.013523,0.002678,0.000431,0.019510
7982000,0.0324,0.013523,0.002678,0.000431,0.020097
7983000,0.0324,0.013523,0.002678,0.000431,0.019862
7984000,0.0324,0.013523,0.002678,0.000431,0.018805
7985000,0.0324,0.013523,0.002678,0.000431,0.019745
7986000,0.0324,0.013523,0.002678,0.000431,0.020097
7987000,0.0324,0.013523,0.002678,0.000431,0.019275
7988000,0.0324,0.013523,0.002678,0.000431,0.019040
7989000,0.0324,0.013523,0.002678,0.000431,0.019275
7990000,0.0324,0.013523,0.002678,0.000431,0.018922
7991000,0.0324,0.013523,0.002678,0.000431,0.019980
7992000,0.0324,0.013523,0.002678,0.000431,0.019510
7993000,0.0324,0.013523,0.002678,0.000431,0.019275
7994000,0.0324,0.013523,0.002678,0.000431,0.021155
7995000,0.0324,0.013523,0.002678,0.000431,0.020450
7996000,0.0324,0.013523,0.002678,0.000431,0.019862
7997000,0.0324,0.013523,0.002678,0.000431,0.021155
7998000,0.0324,0.013523,0.002678,0.000431,0.018334
7999000,0.0324,0.013523,0.002678,0.000431,0.019980
