Cycle,Area(mm^2),PeakDynamic(W),SubthresholdLeakage(W),GateLeakage(W),RunTimeDynamic(W)
20000000,0.0324,0.013523,0.002678,0.000431,0.000823
20001000,0.0324,0.013523,0.002678,0.000431,0.000823
20002000,0.0324,0.013523,0.002678,0.000431,0.000588
20003000,0.0324,0.013523,0.002678,0.000431,0.000470
20004000,0.0324,0.013523,0.002678,0.000431,0.000588
20005000,0.0324,0.013523,0.002678,0.000431,0.000823
20006000,0.0324,0.013523,0.002678,0.000431,0.000705
20007000,0.0324,0.013523,0.002678,0.000431,0.000705
20008000,0.0324,0.013523,0.002678,0.000431,0.000588
20009000,0.0324,0.013523,0.002678,0.000431,0.000705
20010000,0.0324,0.013523,0.002678,0.000431,0.000823
20011000,0.0324,0.013523,0.002678,0.000431,0.000705
20012000,0.0324,0.013523,0.002678,0.000431,0.000588
20013000,0.0324,0.013523,0.002678,0.000431,0.000823
20014000,0.0324,0.013523,0.002678,0.000431,0.000705
20015000,0.0324,0.013523,0.002678,0.000431,0.000588
20016000,0.0324,0.013523,0.002678,0.000431,0.000705
20017000,0.0324,0.013523,0.002678,0.000431,0.000470
20018000,0.0324,0.013523,0.002678,0.000431,0.000705
20019000,0.0324,0.013523,0.002678,0.000431,0.000705
20020000,0.0324,0.013523,0.002678,0.000431,0.000705
20021000,0.0324,0.013523,0.002678,0.000431,0.000823
20022000,0.0324,0.013523,0.002678,0.000431,0.000823
20023000,0.0324,0.013523,0.002678,0.000431,0.000470
20024000,0.0324,0.013523,0.002678,0.000431,0.000705
20025000,0.0324,0.013523,0.002678,0.000431,0.000705
20026000,0.0324,0.013523,0.002678,0.000431,0.000705
20027000,0.0324,0.013523,0.002678,0.000431,0.000705
20028000,0.0324,0.013523,0.002678,0.000431,0.000705
20029000,0.0324,0.013523,0.002678,0.000431,0.000823
20030000,0.0324,0.013523,0.002678,0.000431,0.000823
20031000,0.0324,0.013523,0.002678,0.000431,0.000588
20032000,0.0324,0.013523,0.002678,0.000431,0.000705
20033000,0.0324,0.013523,0.002678,0.000431,0.000705
20034000,0.0324,0.013523,0.002678,0.000431,0.000705
20035000,0.0324,0.013523,0.002678,0.000431,0.000823
20036000,0.0324,0.013523,0.002678,0.000431,0.000705
20037000,0.0324,0.013523,0.002678,0.000431,0.000705
20038000,0.0324,0.013523,0.002678,0.000431,0.000588
20039000,0.0324,0.013523,0.002678,0.000431,0.000823
20040000,0.0324,0.013523,0.002678,0.000431,0.000705
20041000,0.0324,0.013523,0.002678,0.000431,0.000705
20042000,0.0324,0.013523,0.002678,0.000431,0.000588
20043000,0.0324,0.013523,0.002678,0.000431,0.000705
20044000,0.0324,0.013523,0.002678,0.000431,0.000705
20045000,0.0324,0.013523,0.002678,0.000431,0.000705
20046000,0.0324,0.013523,0.002678,0.000431,0.000588
20047000,0.0324,0.013523,0.002678,0.000431,0.000823
20048000,0.0324,0.013523,0.002678,0.000431,0.000588
20049000,0.0324,0.013523,0.002678,0.000431,0.000588
20050000,0.0324,0.013523,0.002678,0.000431,0.000705
20051000,0.0324,0.013523,0.002678,0.000431,0.000705
20052000,0.0324,0.013523,0.002678,0.000431,0.000705
20053000,0.0324,0.013523,0.002678,0.000431,0.000588
20054000,0.0324,0.013523,0.002678,0.000431,0.000705
20055000,0.0324,0.013523,0.002678,0.000431,0.000705
20056000,0.0324,0.013523,0.002678,0.000431,0.000705
20057000,0.0324,0.013523,0.002678,0.000431,0.000705
20058000,0.0324,0.013523,0.002678,0.000431,0.000940
20059000,0.0324,0.013523,0.002678,0.000431,0.000705
20060000,0.0324,0.013523,0.002678,0.000431,0.000705
20061000,0.0324,0.013523,0.002678,0.000431,0.000705
20062000,0.0324,0.013523,0.002678,0.000431,0.000705
20063000,0.0324,0.013523,0.002678,0.000431,0.000705
20064000,0.0324,0.013523,0.002678,0.000431,0.000705
20065000,0.0324,0.013523,0.002678,0.000431,0.000705
20066000,0.0324,0.013523,0.002678,0.000431,0.000823
20067000,0.0324,0.013523,0.002678,0.000431,0.000588
20068000,0.0324,0.013523,0.002678,0.000431,0.000823
20069000,0.0324,0.013523,0.002678,0.000431,0.000823
20070000,0.0324,0.013523,0.002678,0.000431,0.000588
20071000,0.0324,0.013523,0.002678,0.000431,0.000823
20072000,0.0324,0.013523,0.002678,0.000431,0.000705
20073000,0.0324,0.013523,0.002678,0.000431,0.000470
20074000,0.0324,0.013523,0.002678,0.000431,0.000705
20075000,0.0324,0.013523,0.002678,0.000431,0.000705
20076000,0.0324,0.013523,0.002678,0.000431,0.000705
20077000,0.0324,0.013523,0.002678,0.000431,0.000705
20078000,0.0324,0.013523,0.002678,0.000431,0.000705
20079000,0.0324,0.013523,0.002678,0.000431,0.000705
20080000,0.0324,0.013523,0.002678,0.000431,0.000588
20081000,0.0324,0.013523,0.002678,0.000431,0.000705
20082000,0.0324,0.013523,0.002678,0.000431,0.000705
20083000,0.0324,0.013523,0.002678,0.000431,0.000588
20084000,0.0324,0.013523,0.002678,0.000431,0.000823
20085000,0.0324,0.013523,0.002678,0.000431,0.000705
20086000,0.0324,0.013523,0.002678,0.000431,0.000705
20087000,0.0324,0.013523,0.002678,0.000431,0.000705
20088000,0.0324,0.013523,0.002678,0.000431,0.000705
20089000,0.0324,0.013523,0.002678,0.000431,0.000823
20090000,0.0324,0.013523,0.002678,0.000431,0.000588
20091000,0.0324,0.013523,0.002678,0.000431,0.000588
20092000,0.0324,0.013523,0.002678,0.000431,0.000705
20093000,0.0324,0.013523,0.002678,0.000431,0.000705
20094000,0.0324,0.013523,0.002678,0.000431,0.000588
20095000,0.0324,0.013523,0.002678,0.000431,0.000705
20096000,0.0324,0.013523,0.002678,0.000431,0.000705
20097000,0.0324,0.013523,0.002678,0.000431,0.000823
20098000,0.0324,0.013523,0.002678,0.000431,0.000705
20099000,0.0324,0.013523,0.002678,0.000431,0.000823
20100000,0.0324,0.013523,0.002678,0.000431,0.000705
20101000,0.0324,0.013523,0.002678,0.000431,0.000588
20102000,0.0324,0.013523,0.002678,0.000431,0.000823
20103000,0.0324,0.013523,0.002678,0.000431,0.000705
20104000,0.0324,0.013523,0.002678,0.000431,0.000588
20105000,0.0324,0.013523,0.002678,0.000431,0.000823
20106000,0.0324,0.013523,0.002678,0.000431,0.000705
20107000,0.0324,0.013523,0.002678,0.000431,0.000588
20108000,0.0324,0.013523,0.002678,0.000431,0.000823
20109000,0.0324,0.013523,0.002678,0.000431,0.000705
20110000,0.0324,0.013523,0.002678,0.000431,0.000705
20111000,0.0324,0.013523,0.002678,0.000431,0.000823
20112000,0.0324,0.013523,0.002678,0.000431,0.000705
20113000,0.0324,0.013523,0.002678,0.000431,0.000705
20114000,0.0324,0.013523,0.002678,0.000431,0.000705
20115000,0.0324,0.013523,0.002678,0.000431,0.000705
20116000,0.0324,0.013523,0.002678,0.000431,0.000705
20117000,0.0324,0.013523,0.002678,0.000431,0.000588
20118000,0.0324,0.013523,0.002678,0.000431,0.000705
20119000,0.0324,0.013523,0.002678,0.000431,0.000705
20120000,0.0324,0.013523,0.002678,0.000431,0.000705
20121000,0.0324,0.013523,0.002678,0.000431,0.000705
20122000,0.0324,0.013523,0.002678,0.000431,0.000588
20123000,0.0324,0.013523,0.002678,0.000431,0.000705
20124000,0.0324,0.013523,0.002678,0.000431,0.000705
20125000,0.0324,0.013523,0.002678,0.000431,0.000705
20126000,0.0324,0.013523,0.002678,0.000431,0.000705
20127000,0.0324,0.013523,0.002678,0.000431,0.000588
20128000,0.0324,0.013523,0.002678,0.000431,0.000823
20129000,0.0324,0.013523,0.002678,0.000431,0.000705
20130000,0.0324,0.013523,0.002678,0.000431,0.000705
20131000,0.0324,0.013523,0.002678,0.000431,0.000588
20132000,0.0324,0.013523,0.002678,0.000431,0.000588
20133000,0.0324,0.013523,0.002678,0.000431,0.000705
20134000,0.0324,0.013523,0.002678,0.000431,0.000705
20135000,0.0324,0.013523,0.002678,0.000431,0.000705
20136000,0.0324,0.013523,0.002678,0.000431,0.000705
20137000,0.0324,0.013523,0.002678,0.000431,0.000705
20138000,0.0324,0.013523,0.002678,0.000431,0.000705
20139000,0.0324,0.013523,0.002678,0.000431,0.000705
20140000,0.0324,0.013523,0.002678,0.000431,0.000588
20141000,0.0324,0.013523,0.002678,0.000431,0.000823
20142000,0.0324,0.013523,0.002678,0.000431,0.000705
20143000,0.0324,0.013523,0.002678,0.000431,0.000705
20144000,0.0324,0.013523,0.002678,0.000431,0.000823
20145000,0.0324,0.013523,0.002678,0.000431,0.000705
20146000,0.0324,0.013523,0.002678,0.000431,0.000705
20147000,0.0324,0.013523,0.002678,0.000431,0.000588
20148000,0.0324,0.013523,0.002678,0.000431,0.000940
20149000,0.0324,0.013523,0.002678,0.000431,0.000705
20150000,0.0324,0.013523,0.002678,0.000431,0.000705
20151000,0.0324,0.013523,0.002678,0.000431,0.000705
20152000,0.0324,0.013523,0.002678,0.000431,0.000705
20153000,0.0324,0.013523,0.002678,0.000431,0.000823
20154000,0.0324,0.013523,0.002678,0.000431,0.000588
20155000,0.0324,0.013523,0.002678,0.000431,0.000823
20156000,0.0324,0.013523,0.002678,0.000431,0.000705
20157000,0.0324,0.013523,0.002678,0.000431,0.000588
20158000,0.0324,0.013523,0.002678,0.000431,0.000940
20159000,0.0324,0.013523,0.002678,0.000431,0.000470
20160000,0.0324,0.013523,0.002678,0.000431,0.000823
20161000,0.0324,0.013523,0.002678,0.000431,0.000705
20162000,0.0324,0.013523,0.002678,0.000431,0.000588
20163000,0.0324,0.013523,0.002678,0.000431,0.000705
20164000,0.0324,0.013523,0.002678,0.000431,0.000705
20165000,0.0324,0.013523,0.002678,0.000431,0.000823
20166000,0.0324,0.013523,0.002678,0.000431,0.000705
20167000,0.0324,0.013523,0.002678,0.000431,0.000823
20168000,0.0324,0.013523,0.002678,0.000431,0.000588
20169000,0.0324,0.013523,0.002678,0.000431,0.000823
20170000,0.0324,0.013523,0.002678,0.000431,0.000470
20171000,0.0324,0.013523,0.002678,0.000431,0.000705
20172000,0.0324,0.013523,0.002678,0.000431,0.000705
20173000,0.0324,0.013523,0.002678,0.000431,0.000705
20174000,0.0324,0.013523,0.002678,0.000431,0.000705
20175000,0.0324,0.013523,0.002678,0.000431,0.000705
20176000,0.0324,0.013523,0.002678,0.000431,0.000705
20177000,0.0324,0.013523,0.002678,0.000431,0.000588
20178000,0.0324,0.013523,0.002678,0.000431,0.000588
20179000,0.0324,0.013523,0.002678,0.000431,0.000705
20180000,0.0324,0.013523,0.002678,0.000431,0.000705
20181000,0.0324,0.013523,0.002678,0.000431,0.000705
20182000,0.0324,0.013523,0.002678,0.000431,0.000705
20183000,0.0324,0.013523,0.002678,0.000431,0.000705
20184000,0.0324,0.013523,0.002678,0.000431,0.000588
20185000,0.0324,0.013523,0.002678,0.000431,0.000705
20186000,0.0324,0.013523,0.002678,0.000431,0.000705
20187000,0.0324,0.013523,0.002678,0.000431,0.000823
20188000,0.0324,0.013523,0.002678,0.000431,0.000705
20189000,0.0324,0.013523,0.002678,0.000431,0.000823
20190000,0.0324,0.013523,0.002678,0.000431,0.000705
20191000,0.0324,0.013523,0.002678,0.000431,0.000588
20192000,0.0324,0.013523,0.002678,0.000431,0.000940
20193000,0.0324,0.013523,0.002678,0.000431,0.000705
20194000,0.0324,0.013523,0.002678,0.000431,0.000705
20195000,0.0324,0.013523,0.002678,0.000431,0.000588
20196000,0.0324,0.013523,0.002678,0.000431,0.000588
20197000,0.0324,0.013523,0.002678,0.000431,0.000705
20198000,0.0324,0.013523,0.002678,0.000431,0.000705
20199000,0.0324,0.013523,0.002678,0.000431,0.000588
20200000,0.0324,0.013523,0.002678,0.000431,0.000705
20201000,0.0324,0.013523,0.002678,0.000431,0.000588
20202000,0.0324,0.013523,0.002678,0.000431,0.000823
20203000,0.0324,0.013523,0.002678,0.000431,0.000823
20204000,0.0324,0.013523,0.002678,0.000431,0.000588
20205000,0.0324,0.013523,0.002678,0.000431,0.000823
20206000,0.0324,0.013523,0.002678,0.000431,0.000705
20207000,0.0324,0.013523,0.002678,0.000431,0.000705
20208000,0.0324,0.013523,0.002678,0.000431,0.000823
20209000,0.0324,0.013523,0.002678,0.000431,0.000588
20210000,0.0324,0.013523,0.002678,0.000431,0.000705
20211000,0.0324,0.013523,0.002678,0.000431,0.000705
20212000,0.0324,0.013523,0.002678,0.000431,0.000705
20213000,0.0324,0.013523,0.002678,0.000431,0.000705
20214000,0.0324,0.013523,0.002678,0.000431,0.000588
20215000,0.0324,0.013523,0.002678,0.000431,0.000588
20216000,0.0324,0.013523,0.002678,0.000431,0.000705
20217000,0.0324,0.013523,0.002678,0.000431,0.000823
20218000,0.0324,0.013523,0.002678,0.000431,0.000588
20219000,0.0324,0.013523,0.002678,0.000431,0.000705
20220000,0.0324,0.013523,0.002678,0.000431,0.000823
20221000,0.0324,0.013523,0.002678,0.000431,0.000705
20222000,0.0324,0.013523,0.002678,0.000431,0.000588
20223000,0.0324,0.013523,0.002678,0.000431,0.000705
20224000,0.0324,0.013523,0.002678,0.000431,0.000705
20225000,0.0324,0.013523,0.002678,0.000431,0.000705
20226000,0.0324,0.013523,0.002678,0.000431,0.000705
20227000,0.0324,0.013523,0.002678,0.000431,0.000705
20228000,0.0324,0.013523,0.002678,0.000431,0.000588
20229000,0.0324,0.013523,0.002678,0.000431,0.000705
20230000,0.0324,0.013523,0.002678,0.000431,0.000588
20231000,0.0324,0.013523,0.002678,0.000431,0.000705
20232000,0.0324,0.013523,0.002678,0.000431,0.000823
20233000,0.0324,0.013523,0.002678,0.000431,0.000588
20234000,0.0324,0.013523,0.002678,0.000431,0.000705
20235000,0.0324,0.013523,0.002678,0.000431,0.000705
20236000,0.0324,0.013523,0.002678,0.000431,0.000705
20237000,0.0324,0.013523,0.002678,0.000431,0.000705
20238000,0.0324,0.013523,0.002678,0.000431,0.000705
20239000,0.0324,0.013523,0.002678,0.000431,0.000705
20240000,0.0324,0.013523,0.002678,0.000431,0.000705
20241000,0.0324,0.013523,0.002678,0.000431,0.000705
20242000,0.0324,0.013523,0.002678,0.000431,0.000705
20243000,0.0324,0.013523,0.002678,0.000431,0.000470
20244000,0.0324,0.013523,0.002678,0.000431,0.000823
20245000,0.0324,0.013523,0.002678,0.000431,0.000705
20246000,0.0324,0.013523,0.002678,0.000431,0.000823
20247000,0.0324,0.013523,0.002678,0.000431,0.000705
20248000,0.0324,0.013523,0.002678,0.000431,0.000705
20249000,0.0324,0.013523,0.002678,0.000431,0.000705
20250000,0.0324,0.013523,0.002678,0.000431,0.000705
20251000,0.0324,0.013523,0.002678,0.000431,0.000705
20252000,0.0324,0.013523,0.002678,0.000431,0.000705
20253000,0.0324,0.013523,0.002678,0.000431,0.000705
20254000,0.0324,0.013523,0.002678,0.000431,0.000823
20255000,0.0324,0.013523,0.002678,0.000431,0.000705
20256000,0.0324,0.013523,0.002678,0.000431,0.000705
20257000,0.0324,0.013523,0.002678,0.000431,0.000588
20258000,0.0324,0.013523,0.002678,0.000431,0.000705
20259000,0.0324,0.013523,0.002678,0.000431,0.000705
20260000,0.0324,0.013523,0.002678,0.000431,0.000940
20261000,0.0324,0.013523,0.002678,0.000431,0.000588
20262000,0.0324,0.013523,0.002678,0.000431,0.000588
20263000,0.0324,0.013523,0.002678,0.000431,0.000705
20264000,0.0324,0.013523,0.002678,0.000431,0.000705
20265000,0.0324,0.013523,0.002678,0.000431,0.000705
20266000,0.0324,0.013523,0.002678,0.000431,0.000823
20267000,0.0324,0.013523,0.002678,0.000431,0.000705
20268000,0.0324,0.013523,0.002678,0.000431,0.000823
20269000,0.0324,0.013523,0.002678,0.000431,0.000705
20270000,0.0324,0.013523,0.002678,0.000431,0.000588
20271000,0.0324,0.013523,0.002678,0.000431,0.000470
20272000,0.0324,0.013523,0.002678,0.000431,0.000705
20273000,0.0324,0.013523,0.002678,0.000431,0.000823
20274000,0.0324,0.013523,0.002678,0.000431,0.000705
20275000,0.0324,0.013523,0.002678,0.000431,0.000588
20276000,0.0324,0.013523,0.002678,0.000431,0.000705
20277000,0.0324,0.013523,0.002678,0.000431,0.000823
20278000,0.0324,0.013523,0.002678,0.000431,0.000705
20279000,0.0324,0.013523,0.002678,0.000431,0.000588
20280000,0.0324,0.013523,0.002678,0.000431,0.000705
20281000,0.0324,0.013523,0.002678,0.000431,0.000470
20282000,0.0324,0.013523,0.002678,0.000431,0.000705
20283000,0.0324,0.013523,0.002678,0.000431,0.000823
20284000,0.0324,0.013523,0.002678,0.000431,0.000705
20285000,0.0324,0.013523,0.002678,0.000431,0.000705
20286000,0.0324,0.013523,0.002678,0.000431,0.000705
20287000,0.0324,0.013523,0.002678,0.000431,0.000823
20288000,0.0324,0.013523,0.002678,0.000431,0.000705
20289000,0.0324,0.013523,0.002678,0.000431,0.000705
20290000,0.0324,0.013523,0.002678,0.000431,0.000705
20291000,0.0324,0.013523,0.002678,0.000431,0.000823
20292000,0.0324,0.013523,0.002678,0.000431,0.000705
20293000,0.0324,0.013523,0.002678,0.000431,0.000705
20294000,0.0324,0.013523,0.002678,0.000431,0.000705
20295000,0.0324,0.013523,0.002678,0.000431,0.000705
20296000,0.0324,0.013523,0.002678,0.000431,0.000705
20297000,0.0324,0.013523,0.002678,0.000431,0.000823
20298000,0.0324,0.013523,0.002678,0.000431,0.000705
20299000,0.0324,0.013523,0.002678,0.000431,0.000705
20300000,0.0324,0.013523,0.002678,0.000431,0.000705
20301000,0.0324,0.013523,0.002678,0.000431,0.000588
20302000,0.0324,0.013523,0.002678,0.000431,0.000705
20303000,0.0324,0.013523,0.002678,0.000431,0.000705
20304000,0.0324,0.013523,0.002678,0.000431,0.000705
20305000,0.0324,0.013523,0.002678,0.000431,0.000823
20306000,0.0324,0.013523,0.002678,0.000431,0.000823
20307000,0.0324,0.013523,0.002678,0.000431,0.000705
20308000,0.0324,0.013523,0.002678,0.000431,0.000705
20309000,0.0324,0.013523,0.002678,0.000431,0.000705
20310000,0.0324,0.013523,0.002678,0.000431,0.000823
20311000,0.0324,0.013523,0.002678,0.000431,0.000705
20312000,0.0324,0.013523,0.002678,0.000431,0.000588
20313000,0.0324,0.013523,0.002678,0.000431,0.000705
20314000,0.0324,0.013523,0.002678,0.000431,0.000705
20315000,0.0324,0.013523,0.002678,0.000431,0.000823
20316000,0.0324,0.013523,0.002678,0.000431,0.000705
20317000,0.0324,0.013523,0.002678,0.000431,0.000705
20318000,0.0324,0.013523,0.002678,0.000431,0.000588
20319000,0.0324,0.013523,0.002678,0.000431,0.000588
20320000,0.0324,0.013523,0.002678,0.000431,0.000823
20321000,0.0324,0.013523,0.002678,0.000431,0.000588
20322000,0.0324,0.013523,0.002678,0.000431,0.000588
20323000,0.0324,0.013523,0.002678,0.000431,0.000705
20324000,0.0324,0.013523,0.002678,0.000431,0.000705
20325000,0.0324,0.013523,0.002678,0.000431,0.000705
20326000,0.0324,0.013523,0.002678,0.000431,0.000705
20327000,0.0324,0.013523,0.002678,0.000431,0.000705
20328000,0.0324,0.013523,0.002678,0.000431,0.000705
20329000,0.0324,0.013523,0.002678,0.000431,0.000588
20330000,0.0324,0.013523,0.002678,0.000431,0.000705
20331000,0.0324,0.013523,0.002678,0.000431,0.000823
20332000,0.0324,0.013523,0.002678,0.000431,0.000705
20333000,0.0324,0.013523,0.002678,0.000431,0.000705
20334000,0.0324,0.013523,0.002678,0.000431,0.000705
20335000,0.0324,0.013523,0.002678,0.000431,0.000823
20336000,0.0324,0.013523,0.002678,0.000431,0.000823
20337000,0.0324,0.013523,0.002678,0.000431,0.000705
20338000,0.0324,0.013523,0.002678,0.000431,0.000823
20339000,0.0324,0.013523,0.002678,0.000431,0.000705
20340000,0.0324,0.013523,0.002678,0.000431,0.000705
20341000,0.0324,0.013523,0.002678,0.000431,0.000705
20342000,0.0324,0.013523,0.002678,0.000431,0.000705
20343000,0.0324,0.013523,0.002678,0.000431,0.000823
20344000,0.0324,0.013523,0.002678,0.000431,0.000705
20345000,0.0324,0.013523,0.002678,0.000431,0.000588
20346000,0.0324,0.013523,0.002678,0.000431,0.000705
20347000,0.0324,0.013523,0.002678,0.000431,0.000705
20348000,0.0324,0.013523,0.002678,0.000431,0.000705
20349000,0.0324,0.013523,0.002678,0.000431,0.000705
20350000,0.0324,0.013523,0.002678,0.000431,0.000823
20351000,0.0324,0.013523,0.002678,0.000431,0.000588
20352000,0.0324,0.013523,0.002678,0.000431,0.000705
20353000,0.0324,0.013523,0.002678,0.000431,0.000588
20354000,0.0324,0.013523,0.002678,0.000431,0.000823
20355000,0.0324,0.013523,0.002678,0.000431,0.000823
20356000,0.0324,0.013523,0.002678,0.000431,0.000705
20357000,0.0324,0.013523,0.002678,0.000431,0.000588
20358000,0.0324,0.013523,0.002678,0.000431,0.000705
20359000,0.0324,0.013523,0.002678,0.000431,0.000823
20360000,0.0324,0.013523,0.002678,0.000431,0.000588
20361000,0.0324,0.013523,0.002678,0.000431,0.000705
20362000,0.0324,0.013523,0.002678,0.000431,0.000823
20363000,0.0324,0.013523,0.002678,0.000431,0.000705
20364000,0.0324,0.013523,0.002678,0.000431,0.000705
20365000,0.0324,0.013523,0.002678,0.000431,0.000705
20366000,0.0324,0.013523,0.002678,0.000431,0.000705
20367000,0.0324,0.013523,0.002678,0.000431,0.000823
20368000,0.0324,0.013523,0.002678,0.000431,0.000705
20369000,0.0324,0.013523,0.002678,0.000431,0.000705
20370000,0.0324,0.013523,0.002678,0.000431,0.000470
20371000,0.0324,0.013523,0.002678,0.000431,0.000823
20372000,0.0324,0.013523,0.002678,0.000431,0.000705
20373000,0.0324,0.013523,0.002678,0.000431,0.000823
20374000,0.0324,0.013523,0.002678,0.000431,0.000588
20375000,0.0324,0.013523,0.002678,0.000431,0.000823
20376000,0.0324,0.013523,0.002678,0.000431,0.000823
20377000,0.0324,0.013523,0.002678,0.000431,0.000705
20378000,0.0324,0.013523,0.002678,0.000431,0.000705
20379000,0.0324,0.013523,0.002678,0.000431,0.000705
20380000,0.0324,0.013523,0.002678,0.000431,0.000705
20381000,0.0324,0.013523,0.002678,0.000431,0.000705
20382000,0.0324,0.013523,0.002678,0.000431,0.000823
20383000,0.0324,0.013523,0.002678,0.000431,0.000588
20384000,0.0324,0.013523,0.002678,0.000431,0.000705
20385000,0.0324,0.013523,0.002678,0.000431,0.000823
20386000,0.0324,0.013523,0.002678,0.000431,0.000588
20387000,0.0324,0.013523,0.002678,0.000431,0.000705
20388000,0.0324,0.013523,0.002678,0.000431,0.000940
20389000,0.0324,0.013523,0.002678,0.000431,0.000705
20390000,0.0324,0.013523,0.002678,0.000431,0.000705
20391000,0.0324,0.013523,0.002678,0.000431,0.000705
20392000,0.0324,0.013523,0.002678,0.000431,0.000705
20393000,0.0324,0.013523,0.002678,0.000431,0.000705
20394000,0.0324,0.013523,0.002678,0.000431,0.000705
20395000,0.0324,0.013523,0.002678,0.000431,0.000705
20396000,0.0324,0.013523,0.002678,0.000431,0.000705
20397000,0.0324,0.013523,0.002678,0.000431,0.000823
20398000,0.0324,0.013523,0.002678,0.000431,0.000705
20399000,0.0324,0.013523,0.002678,0.000431,0.000705
20400000,0.0324,0.013523,0.002678,0.000431,0.000705
20401000,0.0324,0.013523,0.002678,0.000431,0.000823
20402000,0.0324,0.013523,0.002678,0.000431,0.000705
20403000,0.0324,0.013523,0.002678,0.000431,0.000705
20404000,0.0324,0.013523,0.002678,0.000431,0.000705
20405000,0.0324,0.013523,0.002678,0.000431,0.000705
20406000,0.0324,0.013523,0.002678,0.000431,0.000705
20407000,0.0324,0.013523,0.002678,0.000431,0.000823
20408000,0.0324,0.013523,0.002678,0.000431,0.000588
20409000,0.0324,0.013523,0.002678,0.000431,0.000823
20410000,0.0324,0.013523,0.002678,0.000431,0.000823
20411000,0.0324,0.013523,0.002678,0.000431,0.000705
20412000,0.0324,0.013523,0.002678,0.000431,0.000705
20413000,0.0324,0.013523,0.002678,0.000431,0.000705
20414000,0.0324,0.013523,0.002678,0.000431,0.000705
20415000,0.0324,0.013523,0.002678,0.000431,0.000705
20416000,0.0324,0.013523,0.002678,0.000431,0.000705
20417000,0.0324,0.013523,0.002678,0.000431,0.000823
20418000,0.0324,0.013523,0.002678,0.000431,0.000705
20419000,0.0324,0.013523,0.002678,0.000431,0.000705
20420000,0.0324,0.013523,0.002678,0.000431,0.000705
20421000,0.0324,0.013523,0.002678,0.000431,0.000705
20422000,0.0324,0.013523,0.002678,0.000431,0.000705
20423000,0.0324,0.013523,0.002678,0.000431,0.000588
20424000,0.0324,0.013523,0.002678,0.000431,0.000705
20425000,0.0324,0.013523,0.002678,0.000431,0.000705
20426000,0.0324,0.013523,0.002678,0.000431,0.000705
20427000,0.0324,0.013523,0.002678,0.000431,0.000823
20428000,0.0324,0.013523,0.002678,0.000431,0.000588
20429000,0.0324,0.013523,0.002678,0.000431,0.000588
20430000,0.0324,0.013523,0.002678,0.000431,0.000705
20431000,0.0324,0.013523,0.002678,0.000431,0.000705
20432000,0.0324,0.013523,0.002678,0.000431,0.000705
20433000,0.0324,0.013523,0.002678,0.000431,0.000705
20434000,0.0324,0.013523,0.002678,0.000431,0.000823
20435000,0.0324,0.013523,0.002678,0.000431,0.000588
20436000,0.0324,0.013523,0.002678,0.000431,0.000705
20437000,0.0324,0.013523,0.002678,0.000431,0.000823
20438000,0.0324,0.013523,0.002678,0.000431,0.000588
20439000,0.0324,0.013523,0.002678,0.000431,0.000588
20440000,0.0324,0.013523,0.002678,0.000431,0.000705
20441000,0.0324,0.013523,0.002678,0.000431,0.000588
20442000,0.0324,0.013523,0.002678,0.000431,0.000823
20443000,0.0324,0.013523,0.002678,0.000431,0.000705
20444000,0.0324,0.013523,0.002678,0.000431,0.000823
20445000,0.0324,0.013523,0.002678,0.000431,0.000705
20446000,0.0324,0.013523,0.002678,0.000431,0.000705
20447000,0.0324,0.013523,0.002678,0.000431,0.000823
20448000,0.0324,0.013523,0.002678,0.000431,0.000705
20449000,0.0324,0.013523,0.002678,0.000431,0.000705
20450000,0.0324,0.013523,0.002678,0.000431,0.000588
20451000,0.0324,0.013523,0.002678,0.000431,0.000823
20452000,0.0324,0.013523,0.002678,0.000431,0.000705
20453000,0.0324,0.013523,0.002678,0.000431,0.000705
20454000,0.0324,0.013523,0.002678,0.000431,0.000588
20455000,0.0324,0.013523,0.002678,0.000431,0.000705
20456000,0.0324,0.013523,0.002678,0.000431,0.000705
20457000,0.0324,0.013523,0.002678,0.000431,0.000705
20458000,0.0324,0.013523,0.002678,0.000431,0.000588
20459000,0.0324,0.013523,0.002678,0.000431,0.000823
20460000,0.0324,0.013523,0.002678,0.000431,0.000705
20461000,0.0324,0.013523,0.002678,0.000431,0.000588
20462000,0.0324,0.013523,0.002678,0.000431,0.000823
20463000,0.0324,0.013523,0.002678,0.000431,0.000588
20464000,0.0324,0.013523,0.002678,0.000431,0.000705
20465000,0.0324,0.013523,0.002678,0.000431,0.000823
20466000,0.0324,0.013523,0.002678,0.000431,0.000705
20467000,0.0324,0.013523,0.002678,0.000431,0.000588
20468000,0.0324,0.013523,0.002678,0.000431,0.000705
20469000,0.0324,0.013523,0.002678,0.000431,0.000705
20470000,0.0324,0.013523,0.002678,0.000431,0.000705
20471000,0.0324,0.013523,0.002678,0.000431,0.000588
20472000,0.0324,0.013523,0.002678,0.000431,0.000705
20473000,0.0324,0.013523,0.002678,0.000431,0.000705
20474000,0.0324,0.013523,0.002678,0.000431,0.000705
20475000,0.0324,0.013523,0.002678,0.000431,0.000705
20476000,0.0324,0.013523,0.002678,0.000431,0.000588
20477000,0.0324,0.013523,0.002678,0.000431,0.000705
20478000,0.0324,0.013523,0.002678,0.000431,0.000705
20479000,0.0324,0.013523,0.002678,0.000431,0.000705
20480000,0.0324,0.013523,0.002678,0.000431,0.000823
20481000,0.0324,0.013523,0.002678,0.000431,0.000823
20482000,0.0324,0.013523,0.002678,0.000431,0.000705
20483000,0.0324,0.013523,0.002678,0.000431,0.000705
20484000,0.0324,0.013523,0.002678,0.000431,0.000588
20485000,0.0324,0.013523,0.002678,0.000431,0.000705
20486000,0.0324,0.013523,0.002678,0.000431,0.000823
20487000,0.0324,0.013523,0.002678,0.000431,0.000705
20488000,0.0324,0.013523,0.002678,0.000431,0.000705
20489000,0.0324,0.013523,0.002678,0.000431,0.000705
20490000,0.0324,0.013523,0.002678,0.000431,0.000705
20491000,0.0324,0.013523,0.002678,0.000431,0.000705
20492000,0.0324,0.013523,0.002678,0.000431,0.000705
20493000,0.0324,0.013523,0.002678,0.000431,0.000588
20494000,0.0324,0.013523,0.002678,0.000431,0.000823
20495000,0.0324,0.013523,0.002678,0.000431,0.000588
20496000,0.0324,0.013523,0.002678,0.000431,0.000705
20497000,0.0324,0.013523,0.002678,0.000431,0.000705
20498000,0.0324,0.013523,0.002678,0.000431,0.000705
20499000,0.0324,0.013523,0.002678,0.000431,0.000588
20500000,0.0324,0.013523,0.002678,0.000431,0.000705
20501000,0.0324,0.013523,0.002678,0.000431,0.000588
20502000,0.0324,0.013523,0.002678,0.000431,0.000705
20503000,0.0324,0.013523,0.002678,0.000431,0.000823
20504000,0.0324,0.013523,0.002678,0.000431,0.000588
20505000,0.0324,0.013523,0.002678,0.000431,0.000588
20506000,0.0324,0.013523,0.002678,0.000431,0.000705
20507000,0.0324,0.013523,0.002678,0.000431,0.000705
20508000,0.0324,0.013523,0.002678,0.000431,0.000705
20509000,0.0324,0.013523,0.002678,0.000431,0.000588
20510000,0.0324,0.013523,0.002678,0.000431,0.000705
20511000,0.0324,0.013523,0.002678,0.000431,0.000588
20512000,0.0324,0.013523,0.002678,0.000431,0.000705
20513000,0.0324,0.013523,0.002678,0.000431,0.000705
20514000,0.0324,0.013523,0.002678,0.000431,0.000823
20515000,0.0324,0.013523,0.002678,0.000431,0.000705
20516000,0.0324,0.013523,0.002678,0.000431,0.000705
20517000,0.0324,0.013523,0.002678,0.000431,0.000705
20518000,0.0324,0.013523,0.002678,0.000431,0.000705
20519000,0.0324,0.013523,0.002678,0.000431,0.000588
20520000,0.0324,0.013523,0.002678,0.000431,0.000705
20521000,0.0324,0.013523,0.002678,0.000431,0.000705
20522000,0.0324,0.013523,0.002678,0.000431,0.000705
20523000,0.0324,0.013523,0.002678,0.000431,0.000705
20524000,0.0324,0.013523,0.002678,0.000431,0.000588
20525000,0.0324,0.013523,0.002678,0.000431,0.000588
20526000,0.0324,0.013523,0.002678,0.000431,0.000705
20527000,0.0324,0.013523,0.002678,0.000431,0.000940
20528000,0.0324,0.013523,0.002678,0.000431,0.000705
20529000,0.0324,0.013523,0.002678,0.000431,0.000705
20530000,0.0324,0.013523,0.002678,0.000431,0.000705
20531000,0.0324,0.013523,0.002678,0.000431,0.000705
20532000,0.0324,0.013523,0.002678,0.000431,0.000823
20533000,0.0324,0.013523,0.002678,0.000431,0.000588
20534000,0.0324,0.013523,0.002678,0.000431,0.000705
20535000,0.0324,0.013523,0.002678,0.000431,0.000705
20536000,0.0324,0.013523,0.002678,0.000431,0.000705
20537000,0.0324,0.013523,0.002678,0.000431,0.000588
20538000,0.0324,0.013523,0.002678,0.000431,0.000705
20539000,0.0324,0.013523,0.002678,0.000431,0.000705
20540000,0.0324,0.013523,0.002678,0.000431,0.000705
20541000,0.0324,0.013523,0.002678,0.000431,0.000588
20542000,0.0324,0.013523,0.002678,0.000431,0.000705
20543000,0.0324,0.013523,0.002678,0.000431,0.000705
20544000,0.0324,0.013523,0.002678,0.000431,0.000705
20545000,0.0324,0.013523,0.002678,0.000431,0.000705
20546000,0.0324,0.013523,0.002678,0.000431,0.000705
20547000,0.0324,0.013523,0.002678,0.000431,0.000705
20548000,0.0324,0.013523,0.002678,0.000431,0.000705
20549000,0.0324,0.013523,0.002678,0.000431,0.000823
20550000,0.0324,0.013523,0.002678,0.000431,0.000705
20551000,0.0324,0.013523,0.002678,0.000431,0.000823
20552000,0.0324,0.013523,0.002678,0.000431,0.000705
20553000,0.0324,0.013523,0.002678,0.000431,0.000823
20554000,0.0324,0.013523,0.002678,0.000431,0.000588
20555000,0.0324,0.013523,0.002678,0.000431,0.000705
20556000,0.0324,0.013523,0.002678,0.000431,0.000705
20557000,0.0324,0.013523,0.002678,0.000431,0.000705
20558000,0.0324,0.013523,0.002678,0.000431,0.000588
20559000,0.0324,0.013523,0.002678,0.000431,0.000823
20560000,0.0324,0.013523,0.002678,0.000431,0.000705
20561000,0.0324,0.013523,0.002678,0.000431,0.000705
20562000,0.0324,0.013523,0.002678,0.000431,0.000705
20563000,0.0324,0.013523,0.002678,0.000431,0.000705
20564000,0.0324,0.013523,0.002678,0.000431,0.000705
20565000,0.0324,0.013523,0.002678,0.000431,0.000823
20566000,0.0324,0.013523,0.002678,0.000431,0.000705
20567000,0.0324,0.013523,0.002678,0.000431,0.000823
20568000,0.0324,0.013523,0.002678,0.000431,0.000470
20569000,0.0324,0.013523,0.002678,0.000431,0.000705
20570000,0.0324,0.013523,0.002678,0.000431,0.000705
20571000,0.0324,0.013523,0.002678,0.000431,0.000705
20572000,0.0324,0.013523,0.002678,0.000431,0.000705
20573000,0.0324,0.013523,0.002678,0.000431,0.000705
20574000,0.0324,0.013523,0.002678,0.000431,0.000705
20575000,0.0324,0.013523,0.002678,0.000431,0.000705
20576000,0.0324,0.013523,0.002678,0.000431,0.000705
20577000,0.0324,0.013523,0.002678,0.000431,0.000705
20578000,0.0324,0.013523,0.002678,0.000431,0.000705
20579000,0.0324,0.013523,0.002678,0.000431,0.000705
20580000,0.0324,0.013523,0.002678,0.000431,0.000705
20581000,0.0324,0.013523,0.002678,0.000431,0.000705
20582000,0.0324,0.013523,0.002678,0.000431,0.000705
20583000,0.0324,0.013523,0.002678,0.000431,0.000705
20584000,0.0324,0.013523,0.002678,0.000431,0.000705
20585000,0.0324,0.013523,0.002678,0.000431,0.000705
20586000,0.0324,0.013523,0.002678,0.000431,0.000705
20587000,0.0324,0.013523,0.002678,0.000431,0.000705
20588000,0.0324,0.013523,0.002678,0.000431,0.000705
20589000,0.0324,0.013523,0.002678,0.000431,0.000588
20590000,0.0324,0.013523,0.002678,0.000431,0.000823
20591000,0.0324,0.013523,0.002678,0.000431,0.000705
20592000,0.0324,0.013523,0.002678,0.000431,0.000705
20593000,0.0324,0.013523,0.002678,0.000431,0.000705
20594000,0.0324,0.013523,0.002678,0.000431,0.000705
20595000,0.0324,0.013523,0.002678,0.000431,0.000705
20596000,0.0324,0.013523,0.002678,0.000431,0.000705
20597000,0.0324,0.013523,0.002678,0.000431,0.000823
20598000,0.0324,0.013523,0.002678,0.000431,0.000823
20599000,0.0324,0.013523,0.002678,0.000431,0.000470
20600000,0.0324,0.013523,0.002678,0.000431,0.000470
20601000,0.0324,0.013523,0.002678,0.000431,0.000823
20602000,0.0324,0.013523,0.002678,0.000431,0.000588
20603000,0.0324,0.013523,0.002678,0.000431,0.000705
20604000,0.0324,0.013523,0.002678,0.000431,0.000705
20605000,0.0324,0.013523,0.002678,0.000431,0.000823
20606000,0.0324,0.013523,0.002678,0.000431,0.000588
20607000,0.0324,0.013523,0.002678,0.000431,0.000705
20608000,0.0324,0.013523,0.002678,0.000431,0.000470
20609000,0.0324,0.013523,0.002678,0.000431,0.000705
20610000,0.0324,0.013523,0.002678,0.000431,0.000823
20611000,0.0324,0.013523,0.002678,0.000431,0.000588
20612000,0.0324,0.013523,0.002678,0.000431,0.000823
20613000,0.0324,0.013523,0.002678,0.000431,0.000823
20614000,0.0324,0.013523,0.002678,0.000431,0.000705
20615000,0.0324,0.013523,0.002678,0.000431,0.000705
20616000,0.0324,0.013523,0.002678,0.000431,0.000705
20617000,0.0324,0.013523,0.002678,0.000431,0.000823
20618000,0.0324,0.013523,0.002678,0.000431,0.000823
20619000,0.0324,0.013523,0.002678,0.000431,0.000705
20620000,0.0324,0.013523,0.002678,0.000431,0.000588
20621000,0.0324,0.013523,0.002678,0.000431,0.000705
20622000,0.0324,0.013523,0.002678,0.000431,0.000823
20623000,0.0324,0.013523,0.002678,0.000431,0.000705
20624000,0.0324,0.013523,0.002678,0.000431,0.000823
20625000,0.0324,0.013523,0.002678,0.000431,0.000705
20626000,0.0324,0.013523,0.002678,0.000431,0.000588
20627000,0.0324,0.013523,0.002678,0.000431,0.000705
20628000,0.0324,0.013523,0.002678,0.000431,0.000705
20629000,0.0324,0.013523,0.002678,0.000431,0.000705
20630000,0.0324,0.013523,0.002678,0.000431,0.000705
20631000,0.0324,0.013523,0.002678,0.000431,0.000823
20632000,0.0324,0.013523,0.002678,0.000431,0.000705
20633000,0.0324,0.013523,0.002678,0.000431,0.000588
20634000,0.0324,0.013523,0.002678,0.000431,0.000705
20635000,0.0324,0.013523,0.002678,0.000431,0.000705
20636000,0.0324,0.013523,0.002678,0.000431,0.000940
20637000,0.0324,0.013523,0.002678,0.000431,0.000705
20638000,0.0324,0.013523,0.002678,0.000431,0.000588
20639000,0.0324,0.013523,0.002678,0.000431,0.000588
20640000,0.0324,0.013523,0.002678,0.000431,0.000823
20641000,0.0324,0.013523,0.002678,0.000431,0.000823
20642000,0.0324,0.013523,0.002678,0.000431,0.000705
20643000,0.0324,0.013523,0.002678,0.000431,0.000588
20644000,0.0324,0.013523,0.002678,0.000431,0.000823
20645000,0.0324,0.013523,0.002678,0.000431,0.000705
20646000,0.0324,0.013523,0.002678,0.000431,0.000705
20647000,0.0324,0.013523,0.002678,0.000431,0.000705
20648000,0.0324,0.013523,0.002678,0.000431,0.000705
20649000,0.0324,0.013523,0.002678,0.000431,0.000705
20650000,0.0324,0.013523,0.002678,0.000431,0.000705
20651000,0.0324,0.013523,0.002678,0.000431,0.000705
20652000,0.0324,0.013523,0.002678,0.000431,0.000823
20653000,0.0324,0.013523,0.002678,0.000431,0.000705
20654000,0.0324,0.013523,0.002678,0.000431,0.000823
20655000,0.0324,0.013523,0.002678,0.000431,0.000705
20656000,0.0324,0.013523,0.002678,0.000431,0.000705
20657000,0.0324,0.013523,0.002678,0.000431,0.000588
20658000,0.0324,0.013523,0.002678,0.000431,0.000823
20659000,0.0324,0.013523,0.002678,0.000431,0.000705
20660000,0.0324,0.013523,0.002678,0.000431,0.000705
20661000,0.0324,0.013523,0.002678,0.000431,0.000705
20662000,0.0324,0.013523,0.002678,0.000431,0.000705
20663000,0.0324,0.013523,0.002678,0.000431,0.000705
20664000,0.0324,0.013523,0.002678,0.000431,0.000705
20665000,0.0324,0.013523,0.002678,0.000431,0.000705
20666000,0.0324,0.013523,0.002678,0.000431,0.000705
20667000,0.0324,0.013523,0.002678,0.000431,0.000705
20668000,0.0324,0.013523,0.002678,0.000431,0.000940
20669000,0.0324,0.013523,0.002678,0.000431,0.000588
20670000,0.0324,0.013523,0.002678,0.000431,0.000588
20671000,0.0324,0.013523,0.002678,0.000431,0.000705
20672000,0.0324,0.013523,0.002678,0.000431,0.000588
20673000,0.0324,0.013523,0.002678,0.000431,0.000823
20674000,0.0324,0.013523,0.002678,0.000431,0.000705
20675000,0.0324,0.013523,0.002678,0.000431,0.000705
20676000,0.0324,0.013523,0.002678,0.000431,0.000705
20677000,0.0324,0.013523,0.002678,0.000431,0.000705
20678000,0.0324,0.013523,0.002678,0.000431,0.000823
20679000,0.0324,0.013523,0.002678,0.000431,0.000705
20680000,0.0324,0.013523,0.002678,0.000431,0.000823
20681000,0.0324,0.013523,0.002678,0.000431,0.000705
20682000,0.0324,0.013523,0.002678,0.000431,0.000705
20683000,0.0324,0.013523,0.002678,0.000431,0.000705
20684000,0.0324,0.013523,0.002678,0.000431,0.000705
20685000,0.0324,0.013523,0.002678,0.000431,0.000705
20686000,0.0324,0.013523,0.002678,0.000431,0.000705
20687000,0.0324,0.013523,0.002678,0.000431,0.000823
20688000,0.0324,0.013523,0.002678,0.000431,0.000823
20689000,0.0324,0.013523,0.002678,0.000431,0.000705
20690000,0.0324,0.013523,0.002678,0.000431,0.000705
20691000,0.0324,0.013523,0.002678,0.000431,0.000823
20692000,0.0324,0.013523,0.002678,0.000431,0.000823
20693000,0.0324,0.013523,0.002678,0.000431,0.000705
20694000,0.0324,0.013523,0.002678,0.000431,0.000470
20695000,0.0324,0.013523,0.002678,0.000431,0.000705
20696000,0.0324,0.013523,0.002678,0.000431,0.000705
20697000,0.0324,0.013523,0.002678,0.000431,0.000823
20698000,0.0324,0.013523,0.002678,0.000431,0.000588
20699000,0.0324,0.013523,0.002678,0.000431,0.000705
20700000,0.0324,0.013523,0.002678,0.000431,0.000705
20701000,0.0324,0.013523,0.002678,0.000431,0.000705
20702000,0.0324,0.013523,0.002678,0.000431,0.000705
20703000,0.0324,0.013523,0.002678,0.000431,0.000705
20704000,0.0324,0.013523,0.002678,0.000431,0.000588
20705000,0.0324,0.013523,0.002678,0.000431,0.000705
20706000,0.0324,0.013523,0.002678,0.000431,0.000705
20707000,0.0324,0.013523,0.002678,0.000431,0.000705
20708000,0.0324,0.013523,0.002678,0.000431,0.000588
20709000,0.0324,0.013523,0.002678,0.000431,0.000940
20710000,0.0324,0.013523,0.002678,0.000431,0.000705
20711000,0.0324,0.013523,0.002678,0.000431,0.000705
20712000,0.0324,0.013523,0.002678,0.000431,0.000705
20713000,0.0324,0.013523,0.002678,0.000431,0.000705
20714000,0.0324,0.013523,0.002678,0.000431,0.000823
20715000,0.0324,0.013523,0.002678,0.000431,0.000705
20716000,0.0324,0.013523,0.002678,0.000431,0.000823
20717000,0.0324,0.013523,0.002678,0.000431,0.000588
20718000,0.0324,0.013523,0.002678,0.000431,0.000823
20719000,0.0324,0.013523,0.002678,0.000431,0.000705
20720000,0.0324,0.013523,0.002678,0.000431,0.000705
20721000,0.0324,0.013523,0.002678,0.000431,0.000705
20722000,0.0324,0.013523,0.002678,0.000431,0.000705
20723000,0.0324,0.013523,0.002678,0.000431,0.000823
20724000,0.0324,0.013523,0.002678,0.000431,0.000823
20725000,0.0324,0.013523,0.002678,0.000431,0.000705
20726000,0.0324,0.013523,0.002678,0.000431,0.000705
20727000,0.0324,0.013523,0.002678,0.000431,0.000705
20728000,0.0324,0.013523,0.002678,0.000431,0.000705
20729000,0.0324,0.013523,0.002678,0.000431,0.000705
20730000,0.0324,0.013523,0.002678,0.000431,0.000823
20731000,0.0324,0.013523,0.002678,0.000431,0.000705
20732000,0.0324,0.013523,0.002678,0.000431,0.000588
20733000,0.0324,0.013523,0.002678,0.000431,0.000705
20734000,0.0324,0.013523,0.002678,0.000431,0.000705
20735000,0.0324,0.013523,0.002678,0.000431,0.000588
20736000,0.0324,0.013523,0.002678,0.000431,0.000823
20737000,0.0324,0.013523,0.002678,0.000431,0.000705
20738000,0.0324,0.013523,0.002678,0.000431,0.000823
20739000,0.0324,0.013523,0.002678,0.000431,0.000705
20740000,0.0324,0.013523,0.002678,0.000431,0.000823
20741000,0.0324,0.013523,0.002678,0.000431,0.000705
20742000,0.0324,0.013523,0.002678,0.000431,0.000705
20743000,0.0324,0.013523,0.002678,0.000431,0.000705
20744000,0.0324,0.013523,0.002678,0.000431,0.000705
20745000,0.0324,0.013523,0.002678,0.000431,0.000588
20746000,0.0324,0.013523,0.002678,0.000431,0.000705
20747000,0.0324,0.013523,0.002678,0.000431,0.000823
20748000,0.0324,0.013523,0.002678,0.000431,0.000705
20749000,0.0324,0.013523,0.002678,0.000431,0.000588
20750000,0.0324,0.013523,0.002678,0.000431,0.000705
20751000,0.0324,0.013523,0.002678,0.000431,0.000705
20752000,0.0324,0.013523,0.002678,0.000431,0.000705
20753000,0.0324,0.013523,0.002678,0.000431,0.000705
20754000,0.0324,0.013523,0.002678,0.000431,0.000705
20755000,0.0324,0.013523,0.002678,0.000431,0.000588
20756000,0.0324,0.013523,0.002678,0.000431,0.000705
20757000,0.0324,0.013523,0.002678,0.000431,0.000705
20758000,0.0324,0.013523,0.002678,0.000431,0.000705
20759000,0.0324,0.013523,0.002678,0.000431,0.000705
20760000,0.0324,0.013523,0.002678,0.000431,0.000705
20761000,0.0324,0.013523,0.002678,0.000431,0.000705
20762000,0.0324,0.013523,0.002678,0.000431,0.000705
20763000,0.0324,0.013523,0.002678,0.000431,0.000470
20764000,0.0324,0.013523,0.002678,0.000431,0.000588
20765000,0.0324,0.013523,0.002678,0.000431,0.000705
20766000,0.0324,0.013523,0.002678,0.000431,0.000588
20767000,0.0324,0.013523,0.002678,0.000431,0.000705
20768000,0.0324,0.013523,0.002678,0.000431,0.000705
20769000,0.0324,0.013523,0.002678,0.000431,0.000705
20770000,0.0324,0.013523,0.002678,0.000431,0.000823
20771000,0.0324,0.013523,0.002678,0.000431,0.000588
20772000,0.0324,0.013523,0.002678,0.000431,0.000823
20773000,0.0324,0.013523,0.002678,0.000431,0.000705
20774000,0.0324,0.013523,0.002678,0.000431,0.000588
20775000,0.0324,0.013523,0.002678,0.000431,0.000823
20776000,0.0324,0.013523,0.002678,0.000431,0.000705
20777000,0.0324,0.013523,0.002678,0.000431,0.000823
20778000,0.0324,0.013523,0.002678,0.000431,0.000588
20779000,0.0324,0.013523,0.002678,0.000431,0.000705
20780000,0.0324,0.013523,0.002678,0.000431,0.000705
20781000,0.0324,0.013523,0.002678,0.000431,0.000588
20782000,0.0324,0.013523,0.002678,0.000431,0.000705
20783000,0.0324,0.013523,0.002678,0.000431,0.000823
20784000,0.0324,0.013523,0.002678,0.000431,0.000588
20785000,0.0324,0.013523,0.002678,0.000431,0.000705
20786000,0.0324,0.013523,0.002678,0.000431,0.000705
20787000,0.0324,0.013523,0.002678,0.000431,0.000705
20788000,0.0324,0.013523,0.002678,0.000431,0.000823
20789000,0.0324,0.013523,0.002678,0.000431,0.000705
20790000,0.0324,0.013523,0.002678,0.000431,0.000823
20791000,0.0324,0.013523,0.002678,0.000431,0.000705
20792000,0.0324,0.013523,0.002678,0.000431,0.000823
20793000,0.0324,0.013523,0.002678,0.000431,0.000823
20794000,0.0324,0.013523,0.002678,0.000431,0.000705
20795000,0.0324,0.013523,0.002678,0.000431,0.000705
20796000,0.0324,0.013523,0.002678,0.000431,0.000470
20797000,0.0324,0.013523,0.002678,0.000431,0.000705
20798000,0.0324,0.013523,0.002678,0.000431,0.000470
20799000,0.0324,0.013523,0.002678,0.000431,0.000705
20800000,0.0324,0.013523,0.002678,0.000431,0.000940
20801000,0.0324,0.013523,0.002678,0.000431,0.000705
20802000,0.0324,0.013523,0.002678,0.000431,0.000705
20803000,0.0324,0.013523,0.002678,0.000431,0.000705
20804000,0.0324,0.013523,0.002678,0.000431,0.000705
20805000,0.0324,0.013523,0.002678,0.000431,0.000823
20806000,0.0324,0.013523,0.002678,0.000431,0.000705
20807000,0.0324,0.013523,0.002678,0.000431,0.000705
20808000,0.0324,0.013523,0.002678,0.000431,0.000705
20809000,0.0324,0.013523,0.002678,0.000431,0.000705
20810000,0.0324,0.013523,0.002678,0.000431,0.000705
20811000,0.0324,0.013523,0.002678,0.000431,0.000588
20812000,0.0324,0.013523,0.002678,0.000431,0.000705
20813000,0.0324,0.013523,0.002678,0.000431,0.000705
20814000,0.0324,0.013523,0.002678,0.000431,0.000705
20815000,0.0324,0.013523,0.002678,0.000431,0.000705
20816000,0.0324,0.013523,0.002678,0.000431,0.000705
20817000,0.0324,0.013523,0.002678,0.000431,0.000705
20818000,0.0324,0.013523,0.002678,0.000431,0.000823
20819000,0.0324,0.013523,0.002678,0.000431,0.000705
20820000,0.0324,0.013523,0.002678,0.000431,0.000823
20821000,0.0324,0.013523,0.002678,0.000431,0.000470
20822000,0.0324,0.013523,0.002678,0.000431,0.000705
20823000,0.0324,0.013523,0.002678,0.000431,0.000705
20824000,0.0324,0.013523,0.002678,0.000431,0.000705
20825000,0.0324,0.013523,0.002678,0.000431,0.000705
20826000,0.0324,0.013523,0.002678,0.000431,0.000705
20827000,0.0324,0.013523,0.002678,0.000431,0.000823
20828000,0.0324,0.013523,0.002678,0.000431,0.000705
20829000,0.0324,0.013523,0.002678,0.000431,0.000823
20830000,0.0324,0.013523,0.002678,0.000431,0.000705
20831000,0.0324,0.013523,0.002678,0.000431,0.000705
20832000,0.0324,0.013523,0.002678,0.000431,0.000940
20833000,0.0324,0.013523,0.002678,0.000431,0.000705
20834000,0.0324,0.013523,0.002678,0.000431,0.000705
20835000,0.0324,0.013523,0.002678,0.000431,0.000705
20836000,0.0324,0.013523,0.002678,0.000431,0.000705
20837000,0.0324,0.013523,0.002678,0.000431,0.000705
20838000,0.0324,0.013523,0.002678,0.000431,0.000705
20839000,0.0324,0.013523,0.002678,0.000431,0.000705
20840000,0.0324,0.013523,0.002678,0.000431,0.000705
20841000,0.0324,0.013523,0.002678,0.000431,0.000823
20842000,0.0324,0.013523,0.002678,0.000431,0.000823
20843000,0.0324,0.013523,0.002678,0.000431,0.000705
20844000,0.0324,0.013523,0.002678,0.000431,0.000705
20845000,0.0324,0.013523,0.002678,0.000431,0.000705
20846000,0.0324,0.013523,0.002678,0.000431,0.000705
20847000,0.0324,0.013523,0.002678,0.000431,0.000823
20848000,0.0324,0.013523,0.002678,0.000431,0.000705
20849000,0.0324,0.013523,0.002678,0.000431,0.000705
20850000,0.0324,0.013523,0.002678,0.000431,0.000823
20851000,0.0324,0.013523,0.002678,0.000431,0.000705
20852000,0.0324,0.013523,0.002678,0.000431,0.000823
20853000,0.0324,0.013523,0.002678,0.000431,0.000705
20854000,0.0324,0.013523,0.002678,0.000431,0.000705
20855000,0.0324,0.013523,0.002678,0.000431,0.000588
20856000,0.0324,0.013523,0.002678,0.000431,0.000823
20857000,0.0324,0.013523,0.002678,0.000431,0.000705
20858000,0.0324,0.013523,0.002678,0.000431,0.000588
20859000,0.0324,0.013523,0.002678,0.000431,0.000705
20860000,0.0324,0.013523,0.002678,0.000431,0.000588
20861000,0.0324,0.013523,0.002678,0.000431,0.000588
20862000,0.0324,0.013523,0.002678,0.000431,0.000823
20863000,0.0324,0.013523,0.002678,0.000431,0.000588
20864000,0.0324,0.013523,0.002678,0.000431,0.000940
20865000,0.0324,0.013523,0.002678,0.000431,0.000588
20866000,0.0324,0.013523,0.002678,0.000431,0.000823
20867000,0.0324,0.013523,0.002678,0.000431,0.000705
20868000,0.0324,0.013523,0.002678,0.000431,0.000705
20869000,0.0324,0.013523,0.002678,0.000431,0.000588
20870000,0.0324,0.013523,0.002678,0.000431,0.000705
20871000,0.0324,0.013523,0.002678,0.000431,0.000470
20872000,0.0324,0.013523,0.002678,0.000431,0.000823
20873000,0.0324,0.013523,0.002678,0.000431,0.000705
20874000,0.0324,0.013523,0.002678,0.000431,0.000705
20875000,0.0324,0.013523,0.002678,0.000431,0.000705
20876000,0.0324,0.013523,0.002678,0.000431,0.000705
20877000,0.0324,0.013523,0.002678,0.000431,0.000823
20878000,0.0324,0.013523,0.002678,0.000431,0.000705
20879000,0.0324,0.013523,0.002678,0.000431,0.000823
20880000,0.0324,0.013523,0.002678,0.000431,0.000705
20881000,0.0324,0.013523,0.002678,0.000431,0.000705
20882000,0.0324,0.013523,0.002678,0.000431,0.000823
20883000,0.0324,0.013523,0.002678,0.000431,0.000588
20884000,0.0324,0.013523,0.002678,0.000431,0.000705
20885000,0.0324,0.013523,0.002678,0.000431,0.000588
20886000,0.0324,0.013523,0.002678,0.000431,0.000823
20887000,0.0324,0.013523,0.002678,0.000431,0.000705
20888000,0.0324,0.013523,0.002678,0.000431,0.000705
20889000,0.0324,0.013523,0.002678,0.000431,0.000705
20890000,0.0324,0.013523,0.002678,0.000431,0.000705
20891000,0.0324,0.013523,0.002678,0.000431,0.000705
20892000,0.0324,0.013523,0.002678,0.000431,0.000823
20893000,0.0324,0.013523,0.002678,0.000431,0.000705
20894000,0.0324,0.013523,0.002678,0.000431,0.000588
20895000,0.0324,0.013523,0.002678,0.000431,0.000705
20896000,0.0324,0.013523,0.002678,0.000431,0.000705
20897000,0.0324,0.013523,0.002678,0.000431,0.000823
20898000,0.0324,0.013523,0.002678,0.000431,0.000823
20899000,0.0324,0.013523,0.002678,0.000431,0.000705
20900000,0.0324,0.013523,0.002678,0.000431,0.000705
20901000,0.0324,0.013523,0.002678,0.000431,0.000823
20902000,0.0324,0.013523,0.002678,0.000431,0.000823
20903000,0.0324,0.013523,0.002678,0.000431,0.000705
20904000,0.0324,0.013523,0.002678,0.000431,0.000588
20905000,0.0324,0.013523,0.002678,0.000431,0.000823
20906000,0.0324,0.013523,0.002678,0.000431,0.000705
20907000,0.0324,0.013523,0.002678,0.000431,0.000705
20908000,0.0324,0.013523,0.002678,0.000431,0.000705
20909000,0.0324,0.013523,0.002678,0.000431,0.000588
20910000,0.0324,0.013523,0.002678,0.000431,0.000823
20911000,0.0324,0.013523,0.002678,0.000431,0.000705
20912000,0.0324,0.013523,0.002678,0.000431,0.000705
20913000,0.0324,0.013523,0.002678,0.000431,0.000705
20914000,0.0324,0.013523,0.002678,0.000431,0.000705
20915000,0.0324,0.013523,0.002678,0.000431,0.000823
20916000,0.0324,0.013523,0.002678,0.000431,0.000588
20917000,0.0324,0.013523,0.002678,0.000431,0.000823
20918000,0.0324,0.013523,0.002678,0.000431,0.000588
20919000,0.0324,0.013523,0.002678,0.000431,0.000823
20920000,0.0324,0.013523,0.002678,0.000431,0.000353
20921000,0.0324,0.013523,0.002678,0.000431,0.000823
20922000,0.0324,0.013523,0.002678,0.000431,0.000588
20923000,0.0324,0.013523,0.002678,0.000431,0.000705
20924000,0.0324,0.013523,0.002678,0.000431,0.000705
20925000,0.0324,0.013523,0.002678,0.000431,0.000823
20926000,0.0324,0.013523,0.002678,0.000431,0.000705
20927000,0.0324,0.013523,0.002678,0.000431,0.000823
20928000,0.0324,0.013523,0.002678,0.000431,0.000705
20929000,0.0324,0.013523,0.002678,0.000431,0.000705
20930000,0.0324,0.013523,0.002678,0.000431,0.000705
20931000,0.0324,0.013523,0.002678,0.000431,0.000705
20932000,0.0324,0.013523,0.002678,0.000431,0.000705
20933000,0.0324,0.013523,0.002678,0.000431,0.000823
20934000,0.0324,0.013523,0.002678,0.000431,0.000705
20935000,0.0324,0.013523,0.002678,0.000431,0.000705
20936000,0.0324,0.013523,0.002678,0.000431,0.000705
20937000,0.0324,0.013523,0.002678,0.000431,0.000823
20938000,0.0324,0.013523,0.002678,0.000431,0.000705
20939000,0.0324,0.013523,0.002678,0.000431,0.000705
20940000,0.0324,0.013523,0.002678,0.000431,0.000588
20941000,0.0324,0.013523,0.002678,0.000431,0.000705
20942000,0.0324,0.013523,0.002678,0.000431,0.000823
20943000,0.0324,0.013523,0.002678,0.000431,0.000705
20944000,0.0324,0.013523,0.002678,0.000431,0.000470
20945000,0.0324,0.013523,0.002678,0.000431,0.000588
20946000,0.0324,0.013523,0.002678,0.000431,0.000823
20947000,0.0324,0.013523,0.002678,0.000431,0.000705
20948000,0.0324,0.013523,0.002678,0.000431,0.000705
20949000,0.0324,0.013523,0.002678,0.000431,0.000705
20950000,0.0324,0.013523,0.002678,0.000431,0.000705
20951000,0.0324,0.013523,0.002678,0.000431,0.000705
20952000,0.0324,0.013523,0.002678,0.000431,0.000705
20953000,0.0324,0.013523,0.002678,0.000431,0.000823
20954000,0.0324,0.013523,0.002678,0.000431,0.000705
20955000,0.0324,0.013523,0.002678,0.000431,0.000705
20956000,0.0324,0.013523,0.002678,0.000431,0.000823
20957000,0.0324,0.013523,0.002678,0.000431,0.000705
20958000,0.0324,0.013523,0.002678,0.000431,0.000823
20959000,0.0324,0.013523,0.002678,0.000431,0.000588
20960000,0.0324,0.013523,0.002678,0.000431,0.000823
20961000,0.0324,0.013523,0.002678,0.000431,0.000705
20962000,0.0324,0.013523,0.002678,0.000431,0.000823
20963000,0.0324,0.013523,0.002678,0.000431,0.000588
20964000,0.0324,0.013523,0.002678,0.000431,0.000823
20965000,0.0324,0.013523,0.002678,0.000431,0.000705
20966000,0.0324,0.013523,0.002678,0.000431,0.000705
20967000,0.0324,0.013523,0.002678,0.000431,0.000588
20968000,0.0324,0.013523,0.002678,0.000431,0.000705
20969000,0.0324,0.013523,0.002678,0.000431,0.000823
20970000,0.0324,0.013523,0.002678,0.000431,0.000705
20971000,0.0324,0.013523,0.002678,0.000431,0.000470
20972000,0.0324,0.013523,0.002678,0.000431,0.000588
20973000,0.0324,0.013523,0.002678,0.000431,0.000705
20974000,0.0324,0.013523,0.002678,0.000431,0.000823
20975000,0.0324,0.013523,0.002678,0.000431,0.000705
20976000,0.0324,0.013523,0.002678,0.000431,0.000823
20977000,0.0324,0.013523,0.002678,0.000431,0.000705
20978000,0.0324,0.013523,0.002678,0.000431,0.000823
20979000,0.0324,0.013523,0.002678,0.000431,0.000588
20980000,0.0324,0.013523,0.002678,0.000431,0.000705
20981000,0.0324,0.013523,0.002678,0.000431,0.000705
20982000,0.0324,0.013523,0.002678,0.000431,0.000705
20983000,0.0324,0.013523,0.002678,0.000431,0.000705
20984000,0.0324,0.013523,0.002678,0.000431,0.000823
20985000,0.0324,0.013523,0.002678,0.000431,0.000705
20986000,0.0324,0.013523,0.002678,0.000431,0.000705
20987000,0.0324,0.013523,0.002678,0.000431,0.000705
20988000,0.0324,0.013523,0.002678,0.000431,0.000705
20989000,0.0324,0.013523,0.002678,0.000431,0.000823
20990000,0.0324,0.013523,0.002678,0.000431,0.000705
20991000,0.0324,0.013523,0.002678,0.000431,0.000705
20992000,0.0324,0.013523,0.002678,0.000431,0.000823
20993000,0.0324,0.013523,0.002678,0.000431,0.000705
20994000,0.0324,0.013523,0.002678,0.000431,0.000705
20995000,0.0324,0.013523,0.002678,0.000431,0.000588
20996000,0.0324,0.013523,0.002678,0.000431,0.000823
20997000,0.0324,0.013523,0.002678,0.000431,0.000588
20998000,0.0324,0.013523,0.002678,0.000431,0.000823
20999000,0.0324,0.013523,0.002678,0.000431,0.000705
