Cycle,Area(mm^2),PeakDynamic(W),SubthresholdLeakage(W),GateLeakage(W),RunTimeDynamic(W)
8000000,0.0324,0.013523,0.002678,0.000431,0.020332
8001000,0.0324,0.013523,0.002678,0.000431,0.019862
8002000,0.0324,0.013523,0.002678,0.000431,0.019392
8003000,0.0324,0.013523,0.002678,0.000431,0.020332
8004000,0.0324,0.013523,0.002678,0.000431,0.019980
8005000,0.0324,0.013523,0.002678,0.000431,0.020215
8006000,0.0324,0.013523,0.002678,0.000431,0.019510
8007000,0.0324,0.013523,0.002678,0.000431,0.020215
8008000,0.0324,0.013523,0.002678,0.000431,0.019627
8009000,0.0324,0.013523,0.002678,0.000431,0.019275
8010000,0.0324,0.013523,0.002678,0.000431,0.019862
8011000,0.0324,0.013523,0.002678,0.000431,0.022330
8012000,0.0324,0.013523,0.002678,0.000431,0.019862
8013000,0.0324,0.013523,0.002678,0.000431,0.019745
8014000,0.0324,0.013523,0.002678,0.000431,0.020450
8015000,0.0324,0.013523,0.002678,0.000431,0.019745
8016000,0.0324,0.013523,0.002678,0.000431,0.019627
8017000,0.0324,0.013523,0.002678,0.000431,0.021155
8018000,0.0324,0.013523,0.002678,0.000431,0.020567
8019000,0.0324,0.013523,0.002678,0.000431,0.019275
8020000,0.0324,0.013523,0.002678,0.000431,0.020097
8021000,0.0324,0.013523,0.002678,0.000431,0.021038
8022000,0.0324,0.013523,0.002678,0.000431,0.020450
8023000,0.0324,0.013523,0.002678,0.000431,0.020215
8024000,0.0324,0.013523,0.002678,0.000431,0.020567
8025000,0.0324,0.013523,0.002678,0.000431,0.019040
8026000,0.0324,0.013523,0.002678,0.000431,0.019627
8027000,0.0324,0.013523,0.002678,0.000431,0.019745
8028000,0.0324,0.013523,0.002678,0.000431,0.019392
8029000,0.0324,0.013523,0.002678,0.000431,0.018217
8030000,0.0324,0.013523,0.002678,0.000431,0.019510
8031000,0.0324,0.013523,0.002678,0.000431,0.020802
8032000,0.0324,0.013523,0.002678,0.000431,0.019745
8033000,0.0324,0.013523,0.002678,0.000431,0.021155
8034000,0.0324,0.013523,0.002678,0.000431,0.018569
8035000,0.0324,0.013523,0.002678,0.000431,0.020097
8036000,0.0324,0.013523,0.002678,0.000431,0.019862
8037000,0.0324,0.013523,0.002678,0.000431,0.020802
8038000,0.0324,0.013523,0.002678,0.000431,0.019862
8039000,0.0324,0.013523,0.002678,0.000431,0.018687
8040000,0.0324,0.013523,0.002678,0.000431,0.020332
8041000,0.0324,0.013523,0.002678,0.000431,0.021038
8042000,0.0324,0.013523,0.002678,0.000431,0.018452
8043000,0.0324,0.013523,0.002678,0.000431,0.019392
8044000,0.0324,0.013523,0.002678,0.000431,0.018922
8045000,0.0324,0.013523,0.002678,0.000431,0.021978
8046000,0.0324,0.013523,0.002678,0.000431,0.020332
8047000,0.0324,0.013523,0.002678,0.000431,0.019392
8048000,0.0324,0.013523,0.002678,0.000431,0.019980
8049000,0.0324,0.013523,0.002678,0.000431,0.019745
8050000,0.0324,0.013523,0.002678,0.000431,0.018805
8051000,0.0324,0.013523,0.002678,0.000431,0.020802
8052000,0.0324,0.013523,0.002678,0.000431,0.019745
8053000,0.0324,0.013523,0.002678,0.000431,0.019510
8054000,0.0324,0.013523,0.002678,0.000431,0.019040
8055000,0.0324,0.013523,0.002678,0.000431,0.019510
8056000,0.0324,0.013523,0.002678,0.000431,0.019862
8057000,0.0324,0.013523,0.002678,0.000431,0.018687
8058000,0.0324,0.013523,0.002678,0.000431,0.020802
8059000,0.0324,0.013523,0.002678,0.000431,0.020215
8060000,0.0324,0.013523,0.002678,0.000431,0.019040
8061000,0.0324,0.013523,0.002678,0.000431,0.019980
8062000,0.0324,0.013523,0.002678,0.000431,0.020332
8063000,0.0324,0.013523,0.002678,0.000431,0.019157
8064000,0.0324,0.013523,0.002678,0.000431,0.019157
8065000,0.0324,0.013523,0.002678,0.000431,0.020332
8066000,0.0324,0.013523,0.002678,0.000431,0.019510
8067000,0.0324,0.013523,0.002678,0.000431,0.019510
8068000,0.0324,0.013523,0.002678,0.000431,0.018569
8069000,0.0324,0.013523,0.002678,0.000431,0.019275
8070000,0.0324,0.013523,0.002678,0.000431,0.018569
8071000,0.0324,0.013523,0.002678,0.000431,0.019275
8072000,0.0324,0.013523,0.002678,0.000431,0.020215
8073000,0.0324,0.013523,0.002678,0.000431,0.019275
8074000,0.0324,0.013523,0.002678,0.000431,0.020332
8075000,0.0324,0.013523,0.002678,0.000431,0.018569
8076000,0.0324,0.013523,0.002678,0.000431,0.020685
8077000,0.0324,0.013523,0.002678,0.000431,0.019980
8078000,0.0324,0.013523,0.002678,0.000431,0.019275
8079000,0.0324,0.013523,0.002678,0.000431,0.020685
8080000,0.0324,0.013523,0.002678,0.000431,0.019862
8081000,0.0324,0.013523,0.002678,0.000431,0.020567
8082000,0.0324,0.013523,0.002678,0.000431,0.022448
8083000,0.0324,0.013523,0.002678,0.000431,0.019392
8084000,0.0324,0.013523,0.002678,0.000431,0.018922
8085000,0.0324,0.013523,0.002678,0.000431,0.019040
8086000,0.0324,0.013523,0.002678,0.000431,0.019157
8087000,0.0324,0.013523,0.002678,0.000431,0.019510
8088000,0.0324,0.013523,0.002678,0.000431,0.020450
8089000,0.0324,0.013523,0.002678,0.000431,0.019040
8090000,0.0324,0.013523,0.002678,0.000431,0.019510
8091000,0.0324,0.013523,0.002678,0.000431,0.018569
8092000,0.0324,0.013523,0.002678,0.000431,0.018922
8093000,0.0324,0.013523,0.002678,0.000431,0.020215
8094000,0.0324,0.013523,0.002678,0.000431,0.020450
8095000,0.0324,0.013523,0.002678,0.000431,0.018099
8096000,0.0324,0.013523,0.002678,0.000431,0.021155
8097000,0.0324,0.013523,0.002678,0.000431,0.018334
8098000,0.0324,0.013523,0.002678,0.000431,0.018569
8099000,0.0324,0.013523,0.002678,0.000431,0.019392
8100000,0.0324,0.013523,0.002678,0.000431,0.020685
8101000,0.0324,0.013523,0.002678,0.000431,0.019510
8102000,0.0324,0.013523,0.002678,0.000431,0.019157
8103000,0.0324,0.013523,0.002678,0.000431,0.018099
8104000,0.0324,0.013523,0.002678,0.000431,0.021390
8105000,0.0324,0.013523,0.002678,0.000431,0.017747
8106000,0.0324,0.013523,0.002678,0.000431,0.019980
8107000,0.0324,0.013523,0.002678,0.000431,0.019392
8108000,0.0324,0.013523,0.002678,0.000431,0.019745
8109000,0.0324,0.013523,0.002678,0.000431,0.019040
8110000,0.0324,0.013523,0.002678,0.000431,0.019510
8111000,0.0324,0.013523,0.002678,0.000431,0.019862
8112000,0.0324,0.013523,0.002678,0.000431,0.019510
8113000,0.0324,0.013523,0.002678,0.000431,0.020097
8114000,0.0324,0.013523,0.002678,0.000431,0.018334
8115000,0.0324,0.013523,0.002678,0.000431,0.019745
8116000,0.0324,0.013523,0.002678,0.000431,0.019275
8117000,0.0324,0.013523,0.002678,0.000431,0.020097
8118000,0.0324,0.013523,0.002678,0.000431,0.019627
8119000,0.0324,0.013523,0.002678,0.000431,0.019392
8120000,0.0324,0.013523,0.002678,0.000431,0.019157
8121000,0.0324,0.013523,0.002678,0.000431,0.021390
8122000,0.0324,0.013523,0.002678,0.000431,0.018805
8123000,0.0324,0.013523,0.002678,0.000431,0.021038
8124000,0.0324,0.013523,0.002678,0.000431,0.020332
8125000,0.0324,0.013523,0.002678,0.000431,0.018217
8126000,0.0324,0.013523,0.002678,0.000431,0.017864
8127000,0.0324,0.013523,0.002678,0.000431,0.019510
8128000,0.0324,0.013523,0.002678,0.000431,0.018334
8129000,0.0324,0.013523,0.002678,0.000431,0.019040
8130000,0.0324,0.013523,0.002678,0.000431,0.019392
8131000,0.0324,0.013523,0.002678,0.000431,0.018805
8132000,0.0324,0.013523,0.002678,0.000431,0.017982
8133000,0.0324,0.013523,0.002678,0.000431,0.018217
8134000,0.0324,0.013523,0.002678,0.000431,0.017864
8135000,0.0324,0.013523,0.002678,0.000431,0.017864
8136000,0.0324,0.013523,0.002678,0.000431,0.017042
8137000,0.0324,0.013523,0.002678,0.000431,0.018334
8138000,0.0324,0.013523,0.002678,0.000431,0.017629
8139000,0.0324,0.013523,0.002678,0.000431,0.018805
8140000,0.0324,0.013523,0.002678,0.000431,0.018452
8141000,0.0324,0.013523,0.002678,0.000431,0.017042
8142000,0.0324,0.013523,0.002678,0.000431,0.018922
8143000,0.0324,0.013523,0.002678,0.000431,0.018334
8144000,0.0324,0.013523,0.002678,0.000431,0.017747
8145000,0.0324,0.013523,0.002678,0.000431,0.021155
8146000,0.0324,0.013523,0.002678,0.000431,0.017982
8147000,0.0324,0.013523,0.002678,0.000431,0.018922
8148000,0.0324,0.013523,0.002678,0.000431,0.017629
8149000,0.0324,0.013523,0.002678,0.000431,0.020685
8150000,0.0324,0.013523,0.002678,0.000431,0.018217
8151000,0.0324,0.013523,0.002678,0.000431,0.018452
8152000,0.0324,0.013523,0.002678,0.000431,0.019157
8153000,0.0324,0.013523,0.002678,0.000431,0.017747
8154000,0.0324,0.013523,0.002678,0.000431,0.017512
8155000,0.0324,0.013523,0.002678,0.000431,0.018217
8156000,0.0324,0.013523,0.002678,0.000431,0.019392
8157000,0.0324,0.013523,0.002678,0.000431,0.017629
8158000,0.0324,0.013523,0.002678,0.000431,0.016454
8159000,0.0324,0.013523,0.002678,0.000431,0.018334
8160000,0.0324,0.013523,0.002678,0.000431,0.018452
8161000,0.0324,0.013523,0.002678,0.000431,0.017629
8162000,0.0324,0.013523,0.002678,0.000431,0.017747
8163000,0.0324,0.013523,0.002678,0.000431,0.019392
8164000,0.0324,0.013523,0.002678,0.000431,0.018569
8165000,0.0324,0.013523,0.002678,0.000431,0.017277
8166000,0.0324,0.013523,0.002678,0.000431,0.019040
8167000,0.0324,0.013523,0.002678,0.000431,0.017629
8168000,0.0324,0.013523,0.002678,0.000431,0.016924
8169000,0.0324,0.013523,0.002678,0.000431,0.019627
8170000,0.0324,0.013523,0.002678,0.000431,0.017982
8171000,0.0324,0.013523,0.002678,0.000431,0.018805
8172000,0.0324,0.013523,0.002678,0.000431,0.017747
8173000,0.0324,0.013523,0.002678,0.000431,0.019275
8174000,0.0324,0.013523,0.002678,0.000431,0.018922
8175000,0.0324,0.013523,0.002678,0.000431,0.018099
8176000,0.0324,0.013523,0.002678,0.000431,0.017629
8177000,0.0324,0.013523,0.002678,0.000431,0.019392
8178000,0.0324,0.013523,0.002678,0.000431,0.017864
8179000,0.0324,0.013523,0.002678,0.000431,0.018099
8180000,0.0324,0.013523,0.002678,0.000431,0.017864
8181000,0.0324,0.013523,0.002678,0.000431,0.018687
8182000,0.0324,0.013523,0.002678,0.000431,0.018452
8183000,0.0324,0.013523,0.002678,0.000431,0.017277
8184000,0.0324,0.013523,0.002678,0.000431,0.018452
8185000,0.0324,0.013523,0.002678,0.000431,0.018687
8186000,0.0324,0.013523,0.002678,0.000431,0.017159
8187000,0.0324,0.013523,0.002678,0.000431,0.018217
8188000,0.0324,0.013523,0.002678,0.000431,0.017864
8189000,0.0324,0.013523,0.002678,0.000431,0.018334
8190000,0.0324,0.013523,0.002678,0.000431,0.017747
8191000,0.0324,0.013523,0.002678,0.000431,0.018452
8192000,0.0324,0.013523,0.002678,0.000431,0.017864
8193000,0.0324,0.013523,0.002678,0.000431,0.019392
8194000,0.0324,0.013523,0.002678,0.000431,0.019275
8195000,0.0324,0.013523,0.002678,0.000431,0.017629
8196000,0.0324,0.013523,0.002678,0.000431,0.018452
8197000,0.0324,0.013523,0.002678,0.000431,0.019157
8198000,0.0324,0.013523,0.002678,0.000431,0.017747
8199000,0.0324,0.013523,0.002678,0.000431,0.017629
8200000,0.0324,0.013523,0.002678,0.000431,0.017982
8201000,0.0324,0.013523,0.002678,0.000431,0.019980
8202000,0.0324,0.013523,0.002678,0.000431,0.016689
8203000,0.0324,0.013523,0.002678,0.000431,0.017629
8204000,0.0324,0.013523,0.002678,0.000431,0.019157
8205000,0.0324,0.013523,0.002678,0.000431,0.017747
8206000,0.0324,0.013523,0.002678,0.000431,0.016571
8207000,0.0324,0.013523,0.002678,0.000431,0.019040
8208000,0.0324,0.013523,0.002678,0.000431,0.017394
8209000,0.0324,0.013523,0.002678,0.000431,0.017394
8210000,0.0324,0.013523,0.002678,0.000431,0.017982
8211000,0.0324,0.013523,0.002678,0.000431,0.019392
8212000,0.0324,0.013523,0.002678,0.000431,0.018334
8213000,0.0324,0.013523,0.002678,0.000431,0.017629
8214000,0.0324,0.013523,0.002678,0.000431,0.018099
8215000,0.0324,0.013523,0.002678,0.000431,0.019275
8216000,0.0324,0.013523,0.002678,0.000431,0.018687
8217000,0.0324,0.013523,0.002678,0.000431,0.017277
8218000,0.0324,0.013523,0.002678,0.000431,0.018217
8219000,0.0324,0.013523,0.002678,0.000431,0.018687
8220000,0.0324,0.013523,0.002678,0.000431,0.018099
8221000,0.0324,0.013523,0.002678,0.000431,0.018569
8222000,0.0324,0.013523,0.002678,0.000431,0.017864
8223000,0.0324,0.013523,0.002678,0.000431,0.017629
8224000,0.0324,0.013523,0.002678,0.000431,0.017982
8225000,0.0324,0.013523,0.002678,0.000431,0.017982
8226000,0.0324,0.013523,0.002678,0.000431,0.017277
8227000,0.0324,0.013523,0.002678,0.000431,0.018334
8228000,0.0324,0.013523,0.002678,0.000431,0.018099
8229000,0.0324,0.013523,0.002678,0.000431,0.016336
8230000,0.0324,0.013523,0.002678,0.000431,0.017394
8231000,0.0324,0.013523,0.002678,0.000431,0.016336
8232000,0.0324,0.013523,0.002678,0.000431,0.019040
8233000,0.0324,0.013523,0.002678,0.000431,0.017159
8234000,0.0324,0.013523,0.002678,0.000431,0.018452
8235000,0.0324,0.013523,0.002678,0.000431,0.017159
8236000,0.0324,0.013523,0.002678,0.000431,0.018217
8237000,0.0324,0.013523,0.002678,0.000431,0.018099
8238000,0.0324,0.013523,0.002678,0.000431,0.017982
8239000,0.0324,0.013523,0.002678,0.000431,0.017982
8240000,0.0324,0.013523,0.002678,0.000431,0.018452
8241000,0.0324,0.013523,0.002678,0.000431,0.018217
8242000,0.0324,0.013523,0.002678,0.000431,0.016689
8243000,0.0324,0.013523,0.002678,0.000431,0.019862
8244000,0.0324,0.013523,0.002678,0.000431,0.016101
8245000,0.0324,0.013523,0.002678,0.000431,0.017982
8246000,0.0324,0.013523,0.002678,0.000431,0.016924
8247000,0.0324,0.013523,0.002678,0.000431,0.016689
8248000,0.0324,0.013523,0.002678,0.000431,0.016219
8249000,0.0324,0.013523,0.002678,0.000431,0.018099
8250000,0.0324,0.013523,0.002678,0.000431,0.016689
8251000,0.0324,0.013523,0.002678,0.000431,0.016336
8252000,0.0324,0.013523,0.002678,0.000431,0.017042
8253000,0.0324,0.013523,0.002678,0.000431,0.016689
8254000,0.0324,0.013523,0.002678,0.000431,0.017159
8255000,0.0324,0.013523,0.002678,0.000431,0.017747
8256000,0.0324,0.013523,0.002678,0.000431,0.017629
8257000,0.0324,0.013523,0.002678,0.000431,0.017747
8258000,0.0324,0.013523,0.002678,0.000431,0.017394
8259000,0.0324,0.013523,0.002678,0.000431,0.017394
8260000,0.0324,0.013523,0.002678,0.000431,0.018922
8261000,0.0324,0.013523,0.002678,0.000431,0.017982
8262000,0.0324,0.013523,0.002678,0.000431,0.015749
8263000,0.0324,0.013523,0.002678,0.000431,0.016807
8264000,0.0324,0.013523,0.002678,0.000431,0.017159
8265000,0.0324,0.013523,0.002678,0.000431,0.016336
8266000,0.0324,0.013523,0.002678,0.000431,0.018334
8267000,0.0324,0.013523,0.002678,0.000431,0.016807
8268000,0.0324,0.013523,0.002678,0.000431,0.016689
8269000,0.0324,0.013523,0.002678,0.000431,0.018334
8270000,0.0324,0.013523,0.002678,0.000431,0.015866
8271000,0.0324,0.013523,0.002678,0.000431,0.017747
8272000,0.0324,0.013523,0.002678,0.000431,0.015161
8273000,0.0324,0.013523,0.002678,0.000431,0.016101
8274000,0.0324,0.013523,0.002678,0.000431,0.016807
8275000,0.0324,0.013523,0.002678,0.000431,0.014691
8276000,0.0324,0.013523,0.002678,0.000431,0.016689
8277000,0.0324,0.013523,0.002678,0.000431,0.017629
8278000,0.0324,0.013523,0.002678,0.000431,0.016689
8279000,0.0324,0.013523,0.002678,0.000431,0.016454
8280000,0.0324,0.013523,0.002678,0.000431,0.015514
8281000,0.0324,0.013523,0.002678,0.000431,0.016336
8282000,0.0324,0.013523,0.002678,0.000431,0.017159
8283000,0.0324,0.013523,0.002678,0.000431,0.016336
8284000,0.0324,0.013523,0.002678,0.000431,0.016924
8285000,0.0324,0.013523,0.002678,0.000431,0.016807
8286000,0.0324,0.013523,0.002678,0.000431,0.014809
8287000,0.0324,0.013523,0.002678,0.000431,0.016689
8288000,0.0324,0.013523,0.002678,0.000431,0.017277
8289000,0.0324,0.013523,0.002678,0.000431,0.016454
8290000,0.0324,0.013523,0.002678,0.000431,0.017512
8291000,0.0324,0.013523,0.002678,0.000431,0.015866
8292000,0.0324,0.013523,0.002678,0.000431,0.016454
8293000,0.0324,0.013523,0.002678,0.000431,0.016571
8294000,0.0324,0.013523,0.002678,0.000431,0.015396
8295000,0.0324,0.013523,0.002678,0.000431,0.016807
8296000,0.0324,0.013523,0.002678,0.000431,0.016101
8297000,0.0324,0.013523,0.002678,0.000431,0.016571
8298000,0.0324,0.013523,0.002678,0.000431,0.016454
8299000,0.0324,0.013523,0.002678,0.000431,0.017629
8300000,0.0324,0.013523,0.002678,0.000431,0.016101
8301000,0.0324,0.013523,0.002678,0.000431,0.016219
8302000,0.0324,0.013523,0.002678,0.000431,0.017747
8303000,0.0324,0.013523,0.002678,0.000431,0.014926
8304000,0.0324,0.013523,0.002678,0.000431,0.017629
8305000,0.0324,0.013523,0.002678,0.000431,0.015866
8306000,0.0324,0.013523,0.002678,0.000431,0.015631
8307000,0.0324,0.013523,0.002678,0.000431,0.015749
8308000,0.0324,0.013523,0.002678,0.000431,0.016924
8309000,0.0324,0.013523,0.002678,0.000431,0.017747
8310000,0.0324,0.013523,0.002678,0.000431,0.015749
8311000,0.0324,0.013523,0.002678,0.000431,0.016336
8312000,0.0324,0.013523,0.002678,0.000431,0.016454
8313000,0.0324,0.013523,0.002678,0.000431,0.016336
8314000,0.0324,0.013523,0.002678,0.000431,0.016571
8315000,0.0324,0.013523,0.002678,0.000431,0.016689
8316000,0.0324,0.013523,0.002678,0.000431,0.015396
8317000,0.0324,0.013523,0.002678,0.000431,0.017159
8318000,0.0324,0.013523,0.002678,0.000431,0.017512
8319000,0.0324,0.013523,0.002678,0.000431,0.016571
8320000,0.0324,0.013523,0.002678,0.000431,0.016807
8321000,0.0324,0.013523,0.002678,0.000431,0.016924
8322000,0.0324,0.013523,0.002678,0.000431,0.016219
8323000,0.0324,0.013523,0.002678,0.000431,0.016336
8324000,0.0324,0.013523,0.002678,0.000431,0.015984
8325000,0.0324,0.013523,0.002678,0.000431,0.016336
8326000,0.0324,0.013523,0.002678,0.000431,0.015631
8327000,0.0324,0.013523,0.002678,0.000431,0.016924
8328000,0.0324,0.013523,0.002678,0.000431,0.016219
8329000,0.0324,0.013523,0.002678,0.000431,0.016924
8330000,0.0324,0.013523,0.002678,0.000431,0.017512
8331000,0.0324,0.013523,0.002678,0.000431,0.016689
8332000,0.0324,0.013523,0.002678,0.000431,0.016689
8333000,0.0324,0.013523,0.002678,0.000431,0.016219
8334000,0.0324,0.013523,0.002678,0.000431,0.015984
8335000,0.0324,0.013523,0.002678,0.000431,0.015514
8336000,0.0324,0.013523,0.002678,0.000431,0.016219
8337000,0.0324,0.013523,0.002678,0.000431,0.016336
8338000,0.0324,0.013523,0.002678,0.000431,0.015749
8339000,0.0324,0.013523,0.002678,0.000431,0.016689
8340000,0.0324,0.013523,0.002678,0.000431,0.017159
8341000,0.0324,0.013523,0.002678,0.000431,0.016689
8342000,0.0324,0.013523,0.002678,0.000431,0.016571
8343000,0.0324,0.013523,0.002678,0.000431,0.016924
8344000,0.0324,0.013523,0.002678,0.000431,0.016454
8345000,0.0324,0.013523,0.002678,0.000431,0.016924
8346000,0.0324,0.013523,0.002678,0.000431,0.016924
8347000,0.0324,0.013523,0.002678,0.000431,0.017042
8348000,0.0324,0.013523,0.002678,0.000431,0.016924
8349000,0.0324,0.013523,0.002678,0.000431,0.017042
8350000,0.0324,0.013523,0.002678,0.000431,0.015866
8351000,0.0324,0.013523,0.002678,0.000431,0.016336
8352000,0.0324,0.013523,0.002678,0.000431,0.016454
8353000,0.0324,0.013523,0.002678,0.000431,0.017277
8354000,0.0324,0.013523,0.002678,0.000431,0.017159
8355000,0.0324,0.013523,0.002678,0.000431,0.015279
8356000,0.0324,0.013523,0.002678,0.000431,0.017159
8357000,0.0324,0.013523,0.002678,0.000431,0.015866
8358000,0.0324,0.013523,0.002678,0.000431,0.015984
8359000,0.0324,0.013523,0.002678,0.000431,0.017042
8360000,0.0324,0.013523,0.002678,0.000431,0.016101
8361000,0.0324,0.013523,0.002678,0.000431,0.016689
8362000,0.0324,0.013523,0.002678,0.000431,0.015514
8363000,0.0324,0.013523,0.002678,0.000431,0.016924
8364000,0.0324,0.013523,0.002678,0.000431,0.015866
8365000,0.0324,0.013523,0.002678,0.000431,0.016336
8366000,0.0324,0.013523,0.002678,0.000431,0.016807
8367000,0.0324,0.013523,0.002678,0.000431,0.017394
8368000,0.0324,0.013523,0.002678,0.000431,0.015866
8369000,0.0324,0.013523,0.002678,0.000431,0.015631
8370000,0.0324,0.013523,0.002678,0.000431,0.017277
8371000,0.0324,0.013523,0.002678,0.000431,0.016689
8372000,0.0324,0.013523,0.002678,0.000431,0.016219
8373000,0.0324,0.013523,0.002678,0.000431,0.016807
8374000,0.0324,0.013523,0.002678,0.000431,0.017629
8375000,0.0324,0.013523,0.002678,0.000431,0.015161
8376000,0.0324,0.013523,0.002678,0.000431,0.016219
8377000,0.0324,0.013523,0.002678,0.000431,0.016689
8378000,0.0324,0.013523,0.002678,0.000431,0.015749
8379000,0.0324,0.013523,0.002678,0.000431,0.016219
8380000,0.0324,0.013523,0.002678,0.000431,0.017277
8381000,0.0324,0.013523,0.002678,0.000431,0.017512
8382000,0.0324,0.013523,0.002678,0.000431,0.017042
8383000,0.0324,0.013523,0.002678,0.000431,0.017277
8384000,0.0324,0.013523,0.002678,0.000431,0.016336
8385000,0.0324,0.013523,0.002678,0.000431,0.016571
8386000,0.0324,0.013523,0.002678,0.000431,0.017747
8387000,0.0324,0.013523,0.002678,0.000431,0.016924
8388000,0.0324,0.013523,0.002678,0.000431,0.016689
8389000,0.0324,0.013523,0.002678,0.000431,0.015984
8390000,0.0324,0.013523,0.002678,0.000431,0.015514
8391000,0.0324,0.013523,0.002678,0.000431,0.016101
8392000,0.0324,0.013523,0.002678,0.000431,0.015984
8393000,0.0324,0.013523,0.002678,0.000431,0.016336
8394000,0.0324,0.013523,0.002678,0.000431,0.016336
8395000,0.0324,0.013523,0.002678,0.000431,0.015984
8396000,0.0324,0.013523,0.002678,0.000431,0.016689
8397000,0.0324,0.013523,0.002678,0.000431,0.016924
8398000,0.0324,0.013523,0.002678,0.000431,0.015984
8399000,0.0324,0.013523,0.002678,0.000431,0.015984
8400000,0.0324,0.013523,0.002678,0.000431,0.015514
8401000,0.0324,0.013523,0.002678,0.000431,0.018217
8402000,0.0324,0.013523,0.002678,0.000431,0.013751
8403000,0.0324,0.013523,0.002678,0.000431,0.016454
8404000,0.0324,0.013523,0.002678,0.000431,0.016571
8405000,0.0324,0.013523,0.002678,0.000431,0.015044
8406000,0.0324,0.013523,0.002678,0.000431,0.015866
8407000,0.0324,0.013523,0.002678,0.000431,0.016101
8408000,0.0324,0.013523,0.002678,0.000431,0.015631
8409000,0.0324,0.013523,0.002678,0.000431,0.015396
8410000,0.0324,0.013523,0.002678,0.000431,0.016101
8411000,0.0324,0.013523,0.002678,0.000431,0.016219
8412000,0.0324,0.013523,0.002678,0.000431,0.017512
8413000,0.0324,0.013523,0.002678,0.000431,0.015984
8414000,0.0324,0.013523,0.002678,0.000431,0.016807
8415000,0.0324,0.013523,0.002678,0.000431,0.016807
8416000,0.0324,0.013523,0.002678,0.000431,0.016219
8417000,0.0324,0.013523,0.002678,0.000431,0.016336
8418000,0.0324,0.013523,0.002678,0.000431,0.014926
8419000,0.0324,0.013523,0.002678,0.000431,0.017159
8420000,0.0324,0.013523,0.002678,0.000431,0.017042
8421000,0.0324,0.013523,0.002678,0.000431,0.015866
8422000,0.0324,0.013523,0.002678,0.000431,0.016571
8423000,0.0324,0.013523,0.002678,0.000431,0.016571
8424000,0.0324,0.013523,0.002678,0.000431,0.015866
8425000,0.0324,0.013523,0.002678,0.000431,0.017394
8426000,0.0324,0.013523,0.002678,0.000431,0.015866
8427000,0.0324,0.013523,0.002678,0.000431,0.015514
8428000,0.0324,0.013523,0.002678,0.000431,0.016336
8429000,0.0324,0.013523,0.002678,0.000431,0.016101
8430000,0.0324,0.013523,0.002678,0.000431,0.016689
8431000,0.0324,0.013523,0.002678,0.000431,0.015866
8432000,0.0324,0.013523,0.002678,0.000431,0.015866
8433000,0.0324,0.013523,0.002678,0.000431,0.016454
8434000,0.0324,0.013523,0.002678,0.000431,0.016807
8435000,0.0324,0.013523,0.002678,0.000431,0.016807
8436000,0.0324,0.013523,0.002678,0.000431,0.016924
8437000,0.0324,0.013523,0.002678,0.000431,0.016689
8438000,0.0324,0.013523,0.002678,0.000431,0.017042
8439000,0.0324,0.013523,0.002678,0.000431,0.018217
8440000,0.0324,0.013523,0.002678,0.000431,0.016336
8441000,0.0324,0.013523,0.002678,0.000431,0.016336
8442000,0.0324,0.013523,0.002678,0.000431,0.017864
8443000,0.0324,0.013523,0.002678,0.000431,0.016807
8444000,0.0324,0.013523,0.002678,0.000431,0.017042
8445000,0.0324,0.013523,0.002678,0.000431,0.016689
8446000,0.0324,0.013523,0.002678,0.000431,0.017277
8447000,0.0324,0.013523,0.002678,0.000431,0.015044
8448000,0.0324,0.013523,0.002678,0.000431,0.017629
8449000,0.0324,0.013523,0.002678,0.000431,0.016571
8450000,0.0324,0.013523,0.002678,0.000431,0.015161
8451000,0.0324,0.013523,0.002678,0.000431,0.016454
8452000,0.0324,0.013523,0.002678,0.000431,0.017159
8453000,0.0324,0.013523,0.002678,0.000431,0.016454
8454000,0.0324,0.013523,0.002678,0.000431,0.015396
8455000,0.0324,0.013523,0.002678,0.000431,0.016807
8456000,0.0324,0.013523,0.002678,0.000431,0.015984
8457000,0.0324,0.013523,0.002678,0.000431,0.016924
8458000,0.0324,0.013523,0.002678,0.000431,0.017512
8459000,0.0324,0.013523,0.002678,0.000431,0.016336
8460000,0.0324,0.013523,0.002678,0.000431,0.016571
8461000,0.0324,0.013523,0.002678,0.000431,0.017042
8462000,0.0324,0.013523,0.002678,0.000431,0.017159
8463000,0.0324,0.013523,0.002678,0.000431,0.016101
8464000,0.0324,0.013523,0.002678,0.000431,0.016219
8465000,0.0324,0.013523,0.002678,0.000431,0.016454
8466000,0.0324,0.013523,0.002678,0.000431,0.017159
8467000,0.0324,0.013523,0.002678,0.000431,0.016219
8468000,0.0324,0.013523,0.002678,0.000431,0.017864
8469000,0.0324,0.013523,0.002678,0.000431,0.015984
8470000,0.0324,0.013523,0.002678,0.000431,0.016571
8471000,0.0324,0.013523,0.002678,0.000431,0.015044
8472000,0.0324,0.013523,0.002678,0.000431,0.015749
8473000,0.0324,0.013523,0.002678,0.000431,0.016924
8474000,0.0324,0.013523,0.002678,0.000431,0.015044
8475000,0.0324,0.013523,0.002678,0.000431,0.017277
8476000,0.0324,0.013523,0.002678,0.000431,0.017512
8477000,0.0324,0.013523,0.002678,0.000431,0.017394
8478000,0.0324,0.013523,0.002678,0.000431,0.016454
8479000,0.0324,0.013523,0.002678,0.000431,0.015984
8480000,0.0324,0.013523,0.002678,0.000431,0.016689
8481000,0.0324,0.013523,0.002678,0.000431,0.016219
8482000,0.0324,0.013523,0.002678,0.000431,0.018099
8483000,0.0324,0.013523,0.002678,0.000431,0.018099
8484000,0.0324,0.013523,0.002678,0.000431,0.016219
8485000,0.0324,0.013523,0.002678,0.000431,0.015279
8486000,0.0324,0.013523,0.002678,0.000431,0.017629
8487000,0.0324,0.013523,0.002678,0.000431,0.016219
8488000,0.0324,0.013523,0.002678,0.000431,0.016336
8489000,0.0324,0.013523,0.002678,0.000431,0.016689
8490000,0.0324,0.013523,0.002678,0.000431,0.016336
8491000,0.0324,0.013523,0.002678,0.000431,0.016807
8492000,0.0324,0.013523,0.002678,0.000431,0.018922
8493000,0.0324,0.013523,0.002678,0.000431,0.016689
8494000,0.0324,0.013523,0.002678,0.000431,0.017512
8495000,0.0324,0.013523,0.002678,0.000431,0.015866
8496000,0.0324,0.013523,0.002678,0.000431,0.016807
8497000,0.0324,0.013523,0.002678,0.000431,0.016571
8498000,0.0324,0.013523,0.002678,0.000431,0.016807
8499000,0.0324,0.013523,0.002678,0.000431,0.017042
8500000,0.0324,0.013523,0.002678,0.000431,0.015631
8501000,0.0324,0.013523,0.002678,0.000431,0.016571
8502000,0.0324,0.013523,0.002678,0.000431,0.016689
8503000,0.0324,0.013523,0.002678,0.000431,0.017042
8504000,0.0324,0.013523,0.002678,0.000431,0.017394
8505000,0.0324,0.013523,0.002678,0.000431,0.016454
8506000,0.0324,0.013523,0.002678,0.000431,0.015279
8507000,0.0324,0.013523,0.002678,0.000431,0.017747
8508000,0.0324,0.013523,0.002678,0.000431,0.016101
8509000,0.0324,0.013523,0.002678,0.000431,0.015984
8510000,0.0324,0.013523,0.002678,0.000431,0.016336
8511000,0.0324,0.013523,0.002678,0.000431,0.017159
8512000,0.0324,0.013523,0.002678,0.000431,0.017277
8513000,0.0324,0.013523,0.002678,0.000431,0.017042
8514000,0.0324,0.013523,0.002678,0.000431,0.016807
8515000,0.0324,0.013523,0.002678,0.000431,0.015984
8516000,0.0324,0.013523,0.002678,0.000431,0.017629
8517000,0.0324,0.013523,0.002678,0.000431,0.017277
8518000,0.0324,0.013523,0.002678,0.000431,0.015984
8519000,0.0324,0.013523,0.002678,0.000431,0.016454
8520000,0.0324,0.013523,0.002678,0.000431,0.016924
8521000,0.0324,0.013523,0.002678,0.000431,0.017042
8522000,0.0324,0.013523,0.002678,0.000431,0.015161
8523000,0.0324,0.013523,0.002678,0.000431,0.017159
8524000,0.0324,0.013523,0.002678,0.000431,0.015866
8525000,0.0324,0.013523,0.002678,0.000431,0.017042
8526000,0.0324,0.013523,0.002678,0.000431,0.015749
8527000,0.0324,0.013523,0.002678,0.000431,0.017277
8528000,0.0324,0.013523,0.002678,0.000431,0.016571
8529000,0.0324,0.013523,0.002678,0.000431,0.016219
8530000,0.0324,0.013523,0.002678,0.000431,0.016807
8531000,0.0324,0.013523,0.002678,0.000431,0.017042
8532000,0.0324,0.013523,0.002678,0.000431,0.016807
8533000,0.0324,0.013523,0.002678,0.000431,0.016571
8534000,0.0324,0.013523,0.002678,0.000431,0.016571
8535000,0.0324,0.013523,0.002678,0.000431,0.017277
8536000,0.0324,0.013523,0.002678,0.000431,0.015749
8537000,0.0324,0.013523,0.002678,0.000431,0.016101
8538000,0.0324,0.013523,0.002678,0.000431,0.017042
8539000,0.0324,0.013523,0.002678,0.000431,0.015161
8540000,0.0324,0.013523,0.002678,0.000431,0.017159
8541000,0.0324,0.013523,0.002678,0.000431,0.016689
8542000,0.0324,0.013523,0.002678,0.000431,0.018334
8543000,0.0324,0.013523,0.002678,0.000431,0.016807
8544000,0.0324,0.013523,0.002678,0.000431,0.016101
8545000,0.0324,0.013523,0.002678,0.000431,0.017042
8546000,0.0324,0.013523,0.002678,0.000431,0.016454
8547000,0.0324,0.013523,0.002678,0.000431,0.015161
8548000,0.0324,0.013523,0.002678,0.000431,0.016689
8549000,0.0324,0.013523,0.002678,0.000431,0.015749
8550000,0.0324,0.013523,0.002678,0.000431,0.017629
8551000,0.0324,0.013523,0.002678,0.000431,0.018334
8552000,0.0324,0.013523,0.002678,0.000431,0.015279
8553000,0.0324,0.013523,0.002678,0.000431,0.016689
8554000,0.0324,0.013523,0.002678,0.000431,0.018569
8555000,0.0324,0.013523,0.002678,0.000431,0.015866
8556000,0.0324,0.013523,0.002678,0.000431,0.017394
8557000,0.0324,0.013523,0.002678,0.000431,0.016689
8558000,0.0324,0.013523,0.002678,0.000431,0.015279
8559000,0.0324,0.013523,0.002678,0.000431,0.016101
8560000,0.0324,0.013523,0.002678,0.000431,0.015396
8561000,0.0324,0.013523,0.002678,0.000431,0.015749
8562000,0.0324,0.013523,0.002678,0.000431,0.015749
8563000,0.0324,0.013523,0.002678,0.000431,0.016454
8564000,0.0324,0.013523,0.002678,0.000431,0.016454
8565000,0.0324,0.013523,0.002678,0.000431,0.017982
8566000,0.0324,0.013523,0.002678,0.000431,0.015514
8567000,0.0324,0.013523,0.002678,0.000431,0.015749
8568000,0.0324,0.013523,0.002678,0.000431,0.018217
8569000,0.0324,0.013523,0.002678,0.000431,0.016336
8570000,0.0324,0.013523,0.002678,0.000431,0.016336
8571000,0.0324,0.013523,0.002678,0.000431,0.016219
8572000,0.0324,0.013523,0.002678,0.000431,0.015044
8573000,0.0324,0.013523,0.002678,0.000431,0.015279
8574000,0.0324,0.013523,0.002678,0.000431,0.016101
8575000,0.0324,0.013523,0.002678,0.000431,0.016571
8576000,0.0324,0.013523,0.002678,0.000431,0.016571
8577000,0.0324,0.013523,0.002678,0.000431,0.016689
8578000,0.0324,0.013523,0.002678,0.000431,0.016336
8579000,0.0324,0.013523,0.002678,0.000431,0.015631
8580000,0.0324,0.013523,0.002678,0.000431,0.016101
8581000,0.0324,0.013523,0.002678,0.000431,0.016454
8582000,0.0324,0.013523,0.002678,0.000431,0.017159
8583000,0.0324,0.013523,0.002678,0.000431,0.015631
8584000,0.0324,0.013523,0.002678,0.000431,0.016101
8585000,0.0324,0.013523,0.002678,0.000431,0.016924
8586000,0.0324,0.013523,0.002678,0.000431,0.015396
8587000,0.0324,0.013523,0.002678,0.000431,0.017042
8588000,0.0324,0.013523,0.002678,0.000431,0.016454
8589000,0.0324,0.013523,0.002678,0.000431,0.017159
8590000,0.0324,0.013523,0.002678,0.000431,0.015984
8591000,0.0324,0.013523,0.002678,0.000431,0.015866
8592000,0.0324,0.013523,0.002678,0.000431,0.015866
8593000,0.0324,0.013523,0.002678,0.000431,0.015161
8594000,0.0324,0.013523,0.002678,0.000431,0.016807
8595000,0.0324,0.013523,0.002678,0.000431,0.015396
8596000,0.0324,0.013523,0.002678,0.000431,0.017277
8597000,0.0324,0.013523,0.002678,0.000431,0.014573
8598000,0.0324,0.013523,0.002678,0.000431,0.017864
8599000,0.0324,0.013523,0.002678,0.000431,0.016454
8600000,0.0324,0.013523,0.002678,0.000431,0.015984
8601000,0.0324,0.013523,0.002678,0.000431,0.015749
8602000,0.0324,0.013523,0.002678,0.000431,0.016336
8603000,0.0324,0.013523,0.002678,0.000431,0.015984
8604000,0.0324,0.013523,0.002678,0.000431,0.016336
8605000,0.0324,0.013523,0.002678,0.000431,0.015866
8606000,0.0324,0.013523,0.002678,0.000431,0.016924
8607000,0.0324,0.013523,0.002678,0.000431,0.017277
8608000,0.0324,0.013523,0.002678,0.000431,0.016571
8609000,0.0324,0.013523,0.002678,0.000431,0.015279
8610000,0.0324,0.013523,0.002678,0.000431,0.017629
8611000,0.0324,0.013523,0.002678,0.000431,0.014809
8612000,0.0324,0.013523,0.002678,0.000431,0.015279
8613000,0.0324,0.013523,0.002678,0.000431,0.016924
8614000,0.0324,0.013523,0.002678,0.000431,0.016336
8615000,0.0324,0.013523,0.002678,0.000431,0.015866
8616000,0.0324,0.013523,0.002678,0.000431,0.016219
8617000,0.0324,0.013523,0.002678,0.000431,0.014809
8618000,0.0324,0.013523,0.002678,0.000431,0.015866
8619000,0.0324,0.013523,0.002678,0.000431,0.016336
8620000,0.0324,0.013523,0.002678,0.000431,0.014926
8621000,0.0324,0.013523,0.002678,0.000431,0.016336
8622000,0.0324,0.013523,0.002678,0.000431,0.017159
8623000,0.0324,0.013523,0.002678,0.000431,0.014456
8624000,0.0324,0.013523,0.002678,0.000431,0.015749
8625000,0.0324,0.013523,0.002678,0.000431,0.015631
8626000,0.0324,0.013523,0.002678,0.000431,0.016219
8627000,0.0324,0.013523,0.002678,0.000431,0.014221
8628000,0.0324,0.013523,0.002678,0.000431,0.015866
8629000,0.0324,0.013523,0.002678,0.000431,0.016101
8630000,0.0324,0.013523,0.002678,0.000431,0.016336
8631000,0.0324,0.013523,0.002678,0.000431,0.014809
8632000,0.0324,0.013523,0.002678,0.000431,0.015984
8633000,0.0324,0.013523,0.002678,0.000431,0.016924
8634000,0.0324,0.013523,0.002678,0.000431,0.015396
8635000,0.0324,0.013523,0.002678,0.000431,0.016689
8636000,0.0324,0.013523,0.002678,0.000431,0.014926
8637000,0.0324,0.013523,0.002678,0.000431,0.015396
8638000,0.0324,0.013523,0.002678,0.000431,0.014809
8639000,0.0324,0.013523,0.002678,0.000431,0.017042
8640000,0.0324,0.013523,0.002678,0.000431,0.015866
8641000,0.0324,0.013523,0.002678,0.000431,0.015749
8642000,0.0324,0.013523,0.002678,0.000431,0.015749
8643000,0.0324,0.013523,0.002678,0.000431,0.015514
8644000,0.0324,0.013523,0.002678,0.000431,0.015396
8645000,0.0324,0.013523,0.002678,0.000431,0.015514
8646000,0.0324,0.013523,0.002678,0.000431,0.016101
8647000,0.0324,0.013523,0.002678,0.000431,0.014456
8648000,0.0324,0.013523,0.002678,0.000431,0.015161
8649000,0.0324,0.013523,0.002678,0.000431,0.016219
8650000,0.0324,0.013523,0.002678,0.000431,0.015044
8651000,0.0324,0.013523,0.002678,0.000431,0.014926
8652000,0.0324,0.013523,0.002678,0.000431,0.017629
8653000,0.0324,0.013523,0.002678,0.000431,0.015396
8654000,0.0324,0.013523,0.002678,0.000431,0.016101
8655000,0.0324,0.013523,0.002678,0.000431,0.014809
8656000,0.0324,0.013523,0.002678,0.000431,0.016336
8657000,0.0324,0.013523,0.002678,0.000431,0.016807
8658000,0.0324,0.013523,0.002678,0.000431,0.014338
8659000,0.0324,0.013523,0.002678,0.000431,0.016807
8660000,0.0324,0.013523,0.002678,0.000431,0.016807
8661000,0.0324,0.013523,0.002678,0.000431,0.015866
8662000,0.0324,0.013523,0.002678,0.000431,0.014809
8663000,0.0324,0.013523,0.002678,0.000431,0.016571
8664000,0.0324,0.013523,0.002678,0.000431,0.015396
8665000,0.0324,0.013523,0.002678,0.000431,0.014573
8666000,0.0324,0.013523,0.002678,0.000431,0.015749
8667000,0.0324,0.013523,0.002678,0.000431,0.015044
8668000,0.0324,0.013523,0.002678,0.000431,0.015396
8669000,0.0324,0.013523,0.002678,0.000431,0.015984
8670000,0.0324,0.013523,0.002678,0.000431,0.015631
8671000,0.0324,0.013523,0.002678,0.000431,0.015631
8672000,0.0324,0.013523,0.002678,0.000431,0.016336
8673000,0.0324,0.013523,0.002678,0.000431,0.015396
8674000,0.0324,0.013523,0.002678,0.000431,0.016336
8675000,0.0324,0.013523,0.002678,0.000431,0.015044
8676000,0.0324,0.013523,0.002678,0.000431,0.016807
8677000,0.0324,0.013523,0.002678,0.000431,0.015749
8678000,0.0324,0.013523,0.002678,0.000431,0.015044
8679000,0.0324,0.013523,0.002678,0.000431,0.015514
8680000,0.0324,0.013523,0.002678,0.000431,0.015279
8681000,0.0324,0.013523,0.002678,0.000431,0.017394
8682000,0.0324,0.013523,0.002678,0.000431,0.014573
8683000,0.0324,0.013523,0.002678,0.000431,0.016101
8684000,0.0324,0.013523,0.002678,0.000431,0.015161
8685000,0.0324,0.013523,0.002678,0.000431,0.015631
8686000,0.0324,0.013523,0.002678,0.000431,0.015514
8687000,0.0324,0.013523,0.002678,0.000431,0.018217
8688000,0.0324,0.013523,0.002678,0.000431,0.014691
8689000,0.0324,0.013523,0.002678,0.000431,0.014221
8690000,0.0324,0.013523,0.002678,0.000431,0.015161
8691000,0.0324,0.013523,0.002678,0.000431,0.015514
8692000,0.0324,0.013523,0.002678,0.000431,0.013633
8693000,0.0324,0.013523,0.002678,0.000431,0.014926
8694000,0.0324,0.013523,0.002678,0.000431,0.015866
8695000,0.0324,0.013523,0.002678,0.000431,0.014103
8696000,0.0324,0.013523,0.002678,0.000431,0.015984
8697000,0.0324,0.013523,0.002678,0.000431,0.014691
8698000,0.0324,0.013523,0.002678,0.000431,0.014338
8699000,0.0324,0.013523,0.002678,0.000431,0.013986
8700000,0.0324,0.013523,0.002678,0.000431,0.014809
8701000,0.0324,0.013523,0.002678,0.000431,0.015044
8702000,0.0324,0.013523,0.002678,0.000431,0.015161
8703000,0.0324,0.013523,0.002678,0.000431,0.015044
8704000,0.0324,0.013523,0.002678,0.000431,0.014926
8705000,0.0324,0.013523,0.002678,0.000431,0.015631
8706000,0.0324,0.013523,0.002678,0.000431,0.015161
8707000,0.0324,0.013523,0.002678,0.000431,0.014809
8708000,0.0324,0.013523,0.002678,0.000431,0.014691
8709000,0.0324,0.013523,0.002678,0.000431,0.016219
8710000,0.0324,0.013523,0.002678,0.000431,0.014809
8711000,0.0324,0.013523,0.002678,0.000431,0.015631
8712000,0.0324,0.013523,0.002678,0.000431,0.014691
8713000,0.0324,0.013523,0.002678,0.000431,0.014103
8714000,0.0324,0.013523,0.002678,0.000431,0.015279
8715000,0.0324,0.013523,0.002678,0.000431,0.016101
8716000,0.0324,0.013523,0.002678,0.000431,0.015161
8717000,0.0324,0.013523,0.002678,0.000431,0.015161
8718000,0.0324,0.013523,0.002678,0.000431,0.015044
8719000,0.0324,0.013523,0.002678,0.000431,0.013398
8720000,0.0324,0.013523,0.002678,0.000431,0.015866
8721000,0.0324,0.013523,0.002678,0.000431,0.015514
8722000,0.0324,0.013523,0.002678,0.000431,0.015044
8723000,0.0324,0.013523,0.002678,0.000431,0.013516
8724000,0.0324,0.013523,0.002678,0.000431,0.015279
8725000,0.0324,0.013523,0.002678,0.000431,0.014809
8726000,0.0324,0.013523,0.002678,0.000431,0.014103
8727000,0.0324,0.013523,0.002678,0.000431,0.014809
8728000,0.0324,0.013523,0.002678,0.000431,0.015161
8729000,0.0324,0.013523,0.002678,0.000431,0.015396
8730000,0.0324,0.013523,0.002678,0.000431,0.014809
8731000,0.0324,0.013523,0.002678,0.000431,0.015631
8732000,0.0324,0.013523,0.002678,0.000431,0.013868
8733000,0.0324,0.013523,0.002678,0.000431,0.014926
8734000,0.0324,0.013523,0.002678,0.000431,0.014809
8735000,0.0324,0.013523,0.002678,0.000431,0.015396
8736000,0.0324,0.013523,0.002678,0.000431,0.014221
8737000,0.0324,0.013523,0.002678,0.000431,0.014926
8738000,0.0324,0.013523,0.002678,0.000431,0.014573
8739000,0.0324,0.013523,0.002678,0.000431,0.015984
8740000,0.0324,0.013523,0.002678,0.000431,0.014456
8741000,0.0324,0.013523,0.002678,0.000431,0.014926
8742000,0.0324,0.013523,0.002678,0.000431,0.015044
8743000,0.0324,0.013523,0.002678,0.000431,0.013868
8744000,0.0324,0.013523,0.002678,0.000431,0.014691
8745000,0.0324,0.013523,0.002678,0.000431,0.014926
8746000,0.0324,0.013523,0.002678,0.000431,0.016101
8747000,0.0324,0.013523,0.002678,0.000431,0.015161
8748000,0.0324,0.013523,0.002678,0.000431,0.015514
8749000,0.0324,0.013523,0.002678,0.000431,0.014691
8750000,0.0324,0.013523,0.002678,0.000431,0.016924
8751000,0.0324,0.013523,0.002678,0.000431,0.013163
8752000,0.0324,0.013523,0.002678,0.000431,0.014221
8753000,0.0324,0.013523,0.002678,0.000431,0.016219
8754000,0.0324,0.013523,0.002678,0.000431,0.015396
8755000,0.0324,0.013523,0.002678,0.000431,0.014926
8756000,0.0324,0.013523,0.002678,0.000431,0.014809
8757000,0.0324,0.013523,0.002678,0.000431,0.014221
8758000,0.0324,0.013523,0.002678,0.000431,0.014691
8759000,0.0324,0.013523,0.002678,0.000431,0.015044
8760000,0.0324,0.013523,0.002678,0.000431,0.014103
8761000,0.0324,0.013523,0.002678,0.000431,0.013281
8762000,0.0324,0.013523,0.002678,0.000431,0.014338
8763000,0.0324,0.013523,0.002678,0.000431,0.015514
8764000,0.0324,0.013523,0.002678,0.000431,0.013868
8765000,0.0324,0.013523,0.002678,0.000431,0.015161
8766000,0.0324,0.013523,0.002678,0.000431,0.014691
8767000,0.0324,0.013523,0.002678,0.000431,0.014809
8768000,0.0324,0.013523,0.002678,0.000431,0.015396
8769000,0.0324,0.013523,0.002678,0.000431,0.015984
8770000,0.0324,0.013523,0.002678,0.000431,0.014926
8771000,0.0324,0.013523,0.002678,0.000431,0.014221
8772000,0.0324,0.013523,0.002678,0.000431,0.014926
8773000,0.0324,0.013523,0.002678,0.000431,0.013986
8774000,0.0324,0.013523,0.002678,0.000431,0.014456
8775000,0.0324,0.013523,0.002678,0.000431,0.015514
8776000,0.0324,0.013523,0.002678,0.000431,0.014926
8777000,0.0324,0.013523,0.002678,0.000431,0.014573
8778000,0.0324,0.013523,0.002678,0.000431,0.013751
8779000,0.0324,0.013523,0.002678,0.000431,0.015749
8780000,0.0324,0.013523,0.002678,0.000431,0.015396
8781000,0.0324,0.013523,0.002678,0.000431,0.014221
8782000,0.0324,0.013523,0.002678,0.000431,0.015044
8783000,0.0324,0.013523,0.002678,0.000431,0.015749
8784000,0.0324,0.013523,0.002678,0.000431,0.014926
8785000,0.0324,0.013523,0.002678,0.000431,0.014221
8786000,0.0324,0.013523,0.002678,0.000431,0.014573
8787000,0.0324,0.013523,0.002678,0.000431,0.016807
8788000,0.0324,0.013523,0.002678,0.000431,0.013046
8789000,0.0324,0.013523,0.002678,0.000431,0.015396
8790000,0.0324,0.013523,0.002678,0.000431,0.016101
8791000,0.0324,0.013523,0.002678,0.000431,0.014456
8792000,0.0324,0.013523,0.002678,0.000431,0.014573
8793000,0.0324,0.013523,0.002678,0.000431,0.014926
8794000,0.0324,0.013523,0.002678,0.000431,0.015866
8795000,0.0324,0.013523,0.002678,0.000431,0.014103
8796000,0.0324,0.013523,0.002678,0.000431,0.014338
8797000,0.0324,0.013523,0.002678,0.000431,0.014926
8798000,0.0324,0.013523,0.002678,0.000431,0.015161
8799000,0.0324,0.013523,0.002678,0.000431,0.015044
8800000,0.0324,0.013523,0.002678,0.000431,0.015044
8801000,0.0324,0.013523,0.002678,0.000431,0.014926
8802000,0.0324,0.013523,0.002678,0.000431,0.014691
8803000,0.0324,0.013523,0.002678,0.000431,0.014926
8804000,0.0324,0.013523,0.002678,0.000431,0.015514
8805000,0.0324,0.013523,0.002678,0.000431,0.014573
8806000,0.0324,0.013523,0.002678,0.000431,0.014456
8807000,0.0324,0.013523,0.002678,0.000431,0.015044
8808000,0.0324,0.013523,0.002678,0.000431,0.013751
8809000,0.0324,0.013523,0.002678,0.000431,0.015279
8810000,0.0324,0.013523,0.002678,0.000431,0.014809
8811000,0.0324,0.013523,0.002678,0.000431,0.013986
8812000,0.0324,0.013523,0.002678,0.000431,0.013046
8813000,0.0324,0.013523,0.002678,0.000431,0.015866
8814000,0.0324,0.013523,0.002678,0.000431,0.014573
8815000,0.0324,0.013523,0.002678,0.000431,0.014926
8816000,0.0324,0.013523,0.002678,0.000431,0.013986
8817000,0.0324,0.013523,0.002678,0.000431,0.015749
8818000,0.0324,0.013523,0.002678,0.000431,0.014103
8819000,0.0324,0.013523,0.002678,0.000431,0.014691
8820000,0.0324,0.013523,0.002678,0.000431,0.012693
8821000,0.0324,0.013523,0.002678,0.000431,0.015396
8822000,0.0324,0.013523,0.002678,0.000431,0.014809
8823000,0.0324,0.013523,0.002678,0.000431,0.013516
8824000,0.0324,0.013523,0.002678,0.000431,0.015749
8825000,0.0324,0.013523,0.002678,0.000431,0.014926
8826000,0.0324,0.013523,0.002678,0.000431,0.013398
8827000,0.0324,0.013523,0.002678,0.000431,0.015396
8828000,0.0324,0.013523,0.002678,0.000431,0.014809
8829000,0.0324,0.013523,0.002678,0.000431,0.012928
8830000,0.0324,0.013523,0.002678,0.000431,0.014691
8831000,0.0324,0.013523,0.002678,0.000431,0.015514
8832000,0.0324,0.013523,0.002678,0.000431,0.014456
8833000,0.0324,0.013523,0.002678,0.000431,0.015044
8834000,0.0324,0.013523,0.002678,0.000431,0.015396
8835000,0.0324,0.013523,0.002678,0.000431,0.013516
8836000,0.0324,0.013523,0.002678,0.000431,0.015044
8837000,0.0324,0.013523,0.002678,0.000431,0.015044
8838000,0.0324,0.013523,0.002678,0.000431,0.015396
8839000,0.0324,0.013523,0.002678,0.000431,0.015396
8840000,0.0324,0.013523,0.002678,0.000431,0.015396
8841000,0.0324,0.013523,0.002678,0.000431,0.015514
8842000,0.0324,0.013523,0.002678,0.000431,0.013516
8843000,0.0324,0.013523,0.002678,0.000431,0.015984
8844000,0.0324,0.013523,0.002678,0.000431,0.013398
8845000,0.0324,0.013523,0.002678,0.000431,0.014691
8846000,0.0324,0.013523,0.002678,0.000431,0.015279
8847000,0.0324,0.013523,0.002678,0.000431,0.015161
8848000,0.0324,0.013523,0.002678,0.000431,0.013751
8849000,0.0324,0.013523,0.002678,0.000431,0.014691
8850000,0.0324,0.013523,0.002678,0.000431,0.015044
8851000,0.0324,0.013523,0.002678,0.000431,0.015396
8852000,0.0324,0.013523,0.002678,0.000431,0.013516
8853000,0.0324,0.013523,0.002678,0.000431,0.014338
8854000,0.0324,0.013523,0.002678,0.000431,0.015161
8855000,0.0324,0.013523,0.002678,0.000431,0.015396
8856000,0.0324,0.013523,0.002678,0.000431,0.013398
8857000,0.0324,0.013523,0.002678,0.000431,0.013751
8858000,0.0324,0.013523,0.002678,0.000431,0.016924
8859000,0.0324,0.013523,0.002678,0.000431,0.014221
8860000,0.0324,0.013523,0.002678,0.000431,0.015161
8861000,0.0324,0.013523,0.002678,0.000431,0.015396
8862000,0.0324,0.013523,0.002678,0.000431,0.015631
8863000,0.0324,0.013523,0.002678,0.000431,0.015279
8864000,0.0324,0.013523,0.002678,0.000431,0.015514
8865000,0.0324,0.013523,0.002678,0.000431,0.015044
8866000,0.0324,0.013523,0.002678,0.000431,0.014926
8867000,0.0324,0.013523,0.002678,0.000431,0.015749
8868000,0.0324,0.013523,0.002678,0.000431,0.015866
8869000,0.0324,0.013523,0.002678,0.000431,0.014573
8870000,0.0324,0.013523,0.002678,0.000431,0.014456
8871000,0.0324,0.013523,0.002678,0.000431,0.014456
8872000,0.0324,0.013523,0.002678,0.000431,0.014338
8873000,0.0324,0.013523,0.002678,0.000431,0.015161
8874000,0.0324,0.013523,0.002678,0.000431,0.014338
8875000,0.0324,0.013523,0.002678,0.000431,0.015044
8876000,0.0324,0.013523,0.002678,0.000431,0.014103
8877000,0.0324,0.013523,0.002678,0.000431,0.015044
8878000,0.0324,0.013523,0.002678,0.000431,0.014456
8879000,0.0324,0.013523,0.002678,0.000431,0.015161
8880000,0.0324,0.013523,0.002678,0.000431,0.015279
8881000,0.0324,0.013523,0.002678,0.000431,0.015279
8882000,0.0324,0.013523,0.002678,0.000431,0.015161
8883000,0.0324,0.013523,0.002678,0.000431,0.014338
8884000,0.0324,0.013523,0.002678,0.000431,0.015279
8885000,0.0324,0.013523,0.002678,0.000431,0.014338
8886000,0.0324,0.013523,0.002678,0.000431,0.016336
8887000,0.0324,0.013523,0.002678,0.000431,0.014103
8888000,0.0324,0.013523,0.002678,0.000431,0.015279
8889000,0.0324,0.013523,0.002678,0.000431,0.013398
8890000,0.0324,0.013523,0.002678,0.000431,0.015279
8891000,0.0324,0.013523,0.002678,0.000431,0.013751
8892000,0.0324,0.013523,0.002678,0.000431,0.015631
8893000,0.0324,0.013523,0.002678,0.000431,0.014456
8894000,0.0324,0.013523,0.002678,0.000431,0.014691
8895000,0.0324,0.013523,0.002678,0.000431,0.014926
8896000,0.0324,0.013523,0.002678,0.000431,0.015631
8897000,0.0324,0.013523,0.002678,0.000431,0.013751
8898000,0.0324,0.013523,0.002678,0.000431,0.014573
8899000,0.0324,0.013523,0.002678,0.000431,0.015984
8900000,0.0324,0.013523,0.002678,0.000431,0.015161
8901000,0.0324,0.013523,0.002678,0.000431,0.014926
8902000,0.0324,0.013523,0.002678,0.000431,0.014573
8903000,0.0324,0.013523,0.002678,0.000431,0.014456
8904000,0.0324,0.013523,0.002678,0.000431,0.013633
8905000,0.0324,0.013523,0.002678,0.000431,0.013751
8906000,0.0324,0.013523,0.002678,0.000431,0.015279
8907000,0.0324,0.013523,0.002678,0.000431,0.014691
8908000,0.0324,0.013523,0.002678,0.000431,0.014691
8909000,0.0324,0.013523,0.002678,0.000431,0.016101
8910000,0.0324,0.013523,0.002678,0.000431,0.014926
8911000,0.0324,0.013523,0.002678,0.000431,0.014809
8912000,0.0324,0.013523,0.002678,0.000431,0.015866
8913000,0.0324,0.013523,0.002678,0.000431,0.014691
8914000,0.0324,0.013523,0.002678,0.000431,0.014338
8915000,0.0324,0.013523,0.002678,0.000431,0.015396
8916000,0.0324,0.013523,0.002678,0.000431,0.015396
8917000,0.0324,0.013523,0.002678,0.000431,0.013046
8918000,0.0324,0.013523,0.002678,0.000431,0.016101
8919000,0.0324,0.013523,0.002678,0.000431,0.015044
8920000,0.0324,0.013523,0.002678,0.000431,0.015279
8921000,0.0324,0.013523,0.002678,0.000431,0.013986
8922000,0.0324,0.013523,0.002678,0.000431,0.016454
8923000,0.0324,0.013523,0.002678,0.000431,0.013046
8924000,0.0324,0.013523,0.002678,0.000431,0.014926
8925000,0.0324,0.013523,0.002678,0.000431,0.013516
8926000,0.0324,0.013523,0.002678,0.000431,0.015984
8927000,0.0324,0.013523,0.002678,0.000431,0.015161
8928000,0.0324,0.013523,0.002678,0.000431,0.014338
8929000,0.0324,0.013523,0.002678,0.000431,0.015514
8930000,0.0324,0.013523,0.002678,0.000431,0.014221
8931000,0.0324,0.013523,0.002678,0.000431,0.014809
8932000,0.0324,0.013523,0.002678,0.000431,0.013046
8933000,0.0324,0.013523,0.002678,0.000431,0.015161
8934000,0.0324,0.013523,0.002678,0.000431,0.015044
8935000,0.0324,0.013523,0.002678,0.000431,0.012928
8936000,0.0324,0.013523,0.002678,0.000431,0.014926
8937000,0.0324,0.013523,0.002678,0.000431,0.016924
8938000,0.0324,0.013523,0.002678,0.000431,0.013751
8939000,0.0324,0.013523,0.002678,0.000431,0.014926
8940000,0.0324,0.013523,0.002678,0.000431,0.015161
8941000,0.0324,0.013523,0.002678,0.000431,0.014338
8942000,0.0324,0.013523,0.002678,0.000431,0.015044
8943000,0.0324,0.013523,0.002678,0.000431,0.014926
8944000,0.0324,0.013523,0.002678,0.000431,0.013751
8945000,0.0324,0.013523,0.002678,0.000431,0.014573
8946000,0.0324,0.013523,0.002678,0.000431,0.014456
8947000,0.0324,0.013523,0.002678,0.000431,0.014926
8948000,0.0324,0.013523,0.002678,0.000431,0.015396
8949000,0.0324,0.013523,0.002678,0.000431,0.016219
8950000,0.0324,0.013523,0.002678,0.000431,0.014926
8951000,0.0324,0.013523,0.002678,0.000431,0.014338
8952000,0.0324,0.013523,0.002678,0.000431,0.014809
8953000,0.0324,0.013523,0.002678,0.000431,0.015396
8954000,0.0324,0.013523,0.002678,0.000431,0.015044
8955000,0.0324,0.013523,0.002678,0.000431,0.013516
8956000,0.0324,0.013523,0.002678,0.000431,0.015279
8957000,0.0324,0.013523,0.002678,0.000431,0.014926
8958000,0.0324,0.013523,0.002678,0.000431,0.014456
8959000,0.0324,0.013523,0.002678,0.000431,0.016454
8960000,0.0324,0.013523,0.002678,0.000431,0.014456
8961000,0.0324,0.013523,0.002678,0.000431,0.015866
8962000,0.0324,0.013523,0.002678,0.000431,0.014573
8963000,0.0324,0.013523,0.002678,0.000431,0.015161
8964000,0.0324,0.013523,0.002678,0.000431,0.015396
8965000,0.0324,0.013523,0.002678,0.000431,0.014809
8966000,0.0324,0.013523,0.002678,0.000431,0.014926
8967000,0.0324,0.013523,0.002678,0.000431,0.014926
8968000,0.0324,0.013523,0.002678,0.000431,0.014926
8969000,0.0324,0.013523,0.002678,0.000431,0.014221
8970000,0.0324,0.013523,0.002678,0.000431,0.015396
8971000,0.0324,0.013523,0.002678,0.000431,0.015161
8972000,0.0324,0.013523,0.002678,0.000431,0.014926
8973000,0.0324,0.013523,0.002678,0.000431,0.014691
8974000,0.0324,0.013523,0.002678,0.000431,0.015044
8975000,0.0324,0.013523,0.002678,0.000431,0.013868
8976000,0.0324,0.013523,0.002678,0.000431,0.015514
8977000,0.0324,0.013523,0.002678,0.000431,0.014456
8978000,0.0324,0.013523,0.002678,0.000431,0.015044
8979000,0.0324,0.013523,0.002678,0.000431,0.013046
8980000,0.0324,0.013523,0.002678,0.000431,0.015514
8981000,0.0324,0.013523,0.002678,0.000431,0.014691
8982000,0.0324,0.013523,0.002678,0.000431,0.013516
8983000,0.0324,0.013523,0.002678,0.000431,0.015514
8984000,0.0324,0.013523,0.002678,0.000431,0.015279
8985000,0.0324,0.013523,0.002678,0.000431,0.014573
8986000,0.0324,0.013523,0.002678,0.000431,0.013516
8987000,0.0324,0.013523,0.002678,0.000431,0.015279
8988000,0.0324,0.013523,0.002678,0.000431,0.015044
8989000,0.0324,0.013523,0.002678,0.000431,0.015749
8990000,0.0324,0.013523,0.002678,0.000431,0.013868
8991000,0.0324,0.013523,0.002678,0.000431,0.014809
8992000,0.0324,0.013523,0.002678,0.000431,0.015866
8993000,0.0324,0.013523,0.002678,0.000431,0.014573
8994000,0.0324,0.013523,0.002678,0.000431,0.014691
8995000,0.0324,0.013523,0.002678,0.000431,0.015514
8996000,0.0324,0.013523,0.002678,0.000431,0.014809
8997000,0.0324,0.013523,0.002678,0.000431,0.015631
8998000,0.0324,0.013523,0.002678,0.000431,0.015161
8999000,0.0324,0.013523,0.002678,0.000431,0.014926
