Cycle,Area(mm^2),PeakDynamic(W),SubthresholdLeakage(W),GateLeakage(W),RunTimeDynamic(W)
4000000,0.0324,0.013523,0.002678,0.000431,1.661966
4001000,0.0324,0.013523,0.002678,0.000431,1.649038
4002000,0.0324,0.013523,0.002678,0.000431,1.615425
4003000,0.0324,0.013523,0.002678,0.000431,1.577346
4004000,0.0324,0.013523,0.002678,0.000431,1.532097
4005000,0.0324,0.013523,0.002678,0.000431,1.490375
4006000,0.0324,0.013523,0.002678,0.000431,1.444656
4007000,0.0324,0.013523,0.002678,0.000431,1.424089
4008000,0.0324,0.013523,0.002678,0.000431,1.440308
4009000,0.0324,0.013523,0.002678,0.000431,1.421973
4010000,0.0324,0.013523,0.002678,0.000431,1.396000
4011000,0.0324,0.013523,0.002678,0.000431,1.329479
4012000,0.0324,0.013523,0.002678,0.000431,1.317256
4013000,0.0324,0.013523,0.002678,0.000431,1.259079
4014000,0.0324,0.013523,0.002678,0.000431,1.211833
4015000,0.0324,0.013523,0.002678,0.000431,1.202783
4016000,0.0324,0.013523,0.002678,0.000431,1.139201
4017000,0.0324,0.013523,0.002678,0.000431,1.126508
4018000,0.0324,0.013523,0.002678,0.000431,1.127565
4019000,0.0324,0.013523,0.002678,0.000431,1.024141
4020000,0.0324,0.013523,0.002678,0.000431,1.090662
4021000,0.0324,0.013523,0.002678,0.000431,1.043885
4022000,0.0324,0.013523,0.002678,0.000431,1.004396
4023000,0.0324,0.013523,0.002678,0.000431,1.027666
4024000,0.0324,0.013523,0.002678,0.000431,1.081494
4025000,0.0324,0.013523,0.002678,0.000431,1.115813
4026000,0.0324,0.013523,0.002678,0.000431,1.105117
4027000,0.0324,0.013523,0.002678,0.000431,1.111111
4028000,0.0324,0.013523,0.002678,0.000431,1.124040
4029000,0.0324,0.013523,0.002678,0.000431,1.138260
4030000,0.0324,0.013523,0.002678,0.000431,1.157065
4031000,0.0324,0.013523,0.002678,0.000431,1.194556
4032000,0.0324,0.013523,0.002678,0.000431,1.158358
4033000,0.0324,0.013523,0.002678,0.000431,1.137790
4034000,0.0324,0.013523,0.002678,0.000431,1.144842
4035000,0.0324,0.013523,0.002678,0.000431,1.124745
4036000,0.0324,0.013523,0.002678,0.000431,1.107468
4037000,0.0324,0.013523,0.002678,0.000431,1.066686
4038000,0.0324,0.013523,0.002678,0.000431,1.076441
4039000,0.0324,0.013523,0.002678,0.000431,1.037421
4040000,0.0324,0.013523,0.002678,0.000431,0.974074
4041000,0.0324,0.013523,0.002678,0.000431,1.013681
4042000,0.0324,0.013523,0.002678,0.000431,0.932469
4043000,0.0324,0.013523,0.002678,0.000431,0.930001
4044000,0.0324,0.013523,0.002678,0.000431,0.876525
4045000,0.0324,0.013523,0.002678,0.000431,0.817291
4046000,0.0324,0.013523,0.002678,0.000431,0.812355
4047000,0.0324,0.013523,0.002678,0.000431,0.849024
4048000,0.0324,0.013523,0.002678,0.000431,0.838093
4049000,0.0324,0.013523,0.002678,0.000431,0.810592
4050000,0.0324,0.013523,0.002678,0.000431,0.816233
4051000,0.0324,0.013523,0.002678,0.000431,0.818114
4052000,0.0324,0.013523,0.002678,0.000431,0.886280
4053000,0.0324,0.013523,0.002678,0.000431,0.916132
4054000,0.0324,0.013523,0.002678,0.000431,0.846438
4055000,0.0324,0.013523,0.002678,0.000431,0.917895
4056000,0.0324,0.013523,0.002678,0.000431,0.942576
4057000,0.0324,0.013523,0.002678,0.000431,0.915545
4058000,0.0324,0.013523,0.002678,0.000431,0.969137
4059000,0.0324,0.013523,0.002678,0.000431,1.034601
4060000,0.0324,0.013523,0.002678,0.000431,0.978305
4061000,0.0324,0.013523,0.002678,0.000431,1.042828
4062000,0.0324,0.013523,0.002678,0.000431,1.038832
4063000,0.0324,0.013523,0.002678,0.000431,1.089251
4064000,0.0324,0.013523,0.002678,0.000431,1.100181
4065000,0.0324,0.013523,0.002678,0.000431,1.223938
4066000,0.0324,0.013523,0.002678,0.000431,1.158710
4067000,0.0324,0.013523,0.002678,0.000431,1.297746
4068000,0.0324,0.013523,0.002678,0.000431,1.360036
4069000,0.0324,0.013523,0.002678,0.000431,1.393297
4070000,0.0324,0.013523,0.002678,0.000431,1.549844
4071000,0.0324,0.013523,0.002678,0.000431,1.585808
4072000,0.0324,0.013523,0.002678,0.000431,1.547729
4073000,0.0324,0.013523,0.002678,0.000431,1.608843
4074000,0.0324,0.013523,0.002678,0.000431,1.652094
4075000,0.0324,0.013523,0.002678,0.000431,1.629646
4076000,0.0324,0.013523,0.002678,0.000431,1.707567
4077000,0.0324,0.013523,0.002678,0.000431,1.744706
4078000,0.0324,0.013523,0.002678,0.000431,1.837083
4079000,0.0324,0.013523,0.002678,0.000431,1.825330
4080000,0.0324,0.013523,0.002678,0.000431,1.906542
4081000,0.0324,0.013523,0.002678,0.000431,1.930988
4082000,0.0324,0.013523,0.002678,0.000431,1.924759
4083000,0.0324,0.013523,0.002678,0.000431,2.029477
4084000,0.0324,0.013523,0.002678,0.000431,1.978352
4085000,0.0324,0.013523,0.002678,0.000431,1.956609
4086000,0.0324,0.013523,0.002678,0.000431,1.913241
4087000,0.0324,0.013523,0.002678,0.000431,2.005501
4088000,0.0324,0.013523,0.002678,0.000431,2.027596
4089000,0.0324,0.013523,0.002678,0.000431,1.956374
4090000,0.0324,0.013523,0.002678,0.000431,1.941095
4091000,0.0324,0.013523,0.002678,0.000431,1.912301
4092000,0.0324,0.013523,0.002678,0.000431,1.841784
4093000,0.0324,0.013523,0.002678,0.000431,1.799121
4094000,0.0324,0.013523,0.002678,0.000431,1.795831
4095000,0.0324,0.013523,0.002678,0.000431,1.774911
4096000,0.0324,0.013523,0.002678,0.000431,1.805468
4097000,0.0324,0.013523,0.002678,0.000431,1.735656
4098000,0.0324,0.013523,0.002678,0.000431,1.685589
4099000,0.0324,0.013523,0.002678,0.000431,1.755636
4100000,0.0324,0.013523,0.002678,0.000431,1.840961
4101000,0.0324,0.013523,0.002678,0.000431,1.696989
4102000,0.0324,0.013523,0.002678,0.000431,1.736126
4103000,0.0324,0.013523,0.002678,0.000431,1.747527
4104000,0.0324,0.013523,0.002678,0.000431,1.807466
4105000,0.0324,0.013523,0.002678,0.000431,1.743413
4106000,0.0324,0.013523,0.002678,0.000431,1.711445
4107000,0.0324,0.013523,0.002678,0.000431,1.780669
4108000,0.0324,0.013523,0.002678,0.000431,1.638931
4109000,0.0324,0.013523,0.002678,0.000431,1.655267
4110000,0.0324,0.013523,0.002678,0.000431,1.580519
4111000,0.0324,0.013523,0.002678,0.000431,1.507416
4112000,0.0324,0.013523,0.002678,0.000431,1.476742
4113000,0.0324,0.013523,0.002678,0.000431,1.390358
4114000,0.0324,0.013523,0.002678,0.000431,1.419035
4115000,0.0324,0.013523,0.002678,0.000431,1.317961
4116000,0.0324,0.013523,0.002678,0.000431,1.257199
4117000,0.0324,0.013523,0.002678,0.000431,1.258609
4118000,0.0324,0.013523,0.002678,0.000431,1.302800
4119000,0.0324,0.013523,0.002678,0.000431,1.135557
4120000,0.0324,0.013523,0.002678,0.000431,1.217709
4121000,0.0324,0.013523,0.002678,0.000431,1.165057
4122000,0.0324,0.013523,0.002678,0.000431,1.236984
4123000,0.0324,0.013523,0.002678,0.000431,1.120866
4124000,0.0324,0.013523,0.002678,0.000431,1.130739
4125000,0.0324,0.013523,0.002678,0.000431,1.098536
4126000,0.0324,0.013523,0.002678,0.000431,1.122042
4127000,0.0324,0.013523,0.002678,0.000431,1.091367
4128000,0.0324,0.013523,0.002678,0.000431,1.051642
4129000,0.0324,0.013523,0.002678,0.000431,1.093600
4130000,0.0324,0.013523,0.002678,0.000431,1.018617
4131000,0.0324,0.013523,0.002678,0.000431,0.986767
4132000,0.0324,0.013523,0.002678,0.000431,0.950098
4133000,0.0324,0.013523,0.002678,0.000431,0.913194
4134000,0.0324,0.013523,0.002678,0.000431,0.908023
4135000,0.0324,0.013523,0.002678,0.000431,0.968197
4136000,0.0324,0.013523,0.002678,0.000431,0.913664
4137000,0.0324,0.013523,0.002678,0.000431,0.926357
4138000,0.0324,0.013523,0.002678,0.000431,0.971958
4139000,0.0324,0.013523,0.002678,0.000431,0.941753
4140000,0.0324,0.013523,0.002678,0.000431,0.978187
4141000,0.0324,0.013523,0.002678,0.000431,0.994759
4142000,0.0324,0.013523,0.002678,0.000431,1.040359
4143000,0.0324,0.013523,0.002678,0.000431,1.040712
4144000,0.0324,0.013523,0.002678,0.000431,1.150483
4145000,0.0324,0.013523,0.002678,0.000431,1.170463
4146000,0.0324,0.013523,0.002678,0.000431,1.273653
4147000,0.0324,0.013523,0.002678,0.000431,1.256024
4148000,0.0324,0.013523,0.002678,0.000431,1.310439
4149000,0.0324,0.013523,0.002678,0.000431,1.354512
4150000,0.0324,0.013523,0.002678,0.000431,1.328421
4151000,0.0324,0.013523,0.002678,0.000431,1.419975
4152000,0.0324,0.013523,0.002678,0.000431,1.461933
4153000,0.0324,0.013523,0.002678,0.000431,1.370614
4154000,0.0324,0.013523,0.002678,0.000431,1.343700
4155000,0.0324,0.013523,0.002678,0.000431,1.282115
4156000,0.0324,0.013523,0.002678,0.000431,1.214419
4157000,0.0324,0.013523,0.002678,0.000431,1.263781
4158000,0.0324,0.013523,0.002678,0.000431,1.258962
4159000,0.0324,0.013523,0.002678,0.000431,1.338411
4160000,0.0324,0.013523,0.002678,0.000431,1.244153
4161000,0.0324,0.013523,0.002678,0.000431,1.313142
4162000,0.0324,0.013523,0.002678,0.000431,1.305621
4163000,0.0324,0.013523,0.002678,0.000431,1.271420
4164000,0.0324,0.013523,0.002678,0.000431,1.329126
4165000,0.0324,0.013523,0.002678,0.000431,1.374727
4166000,0.0324,0.013523,0.002678,0.000431,1.354395
4167000,0.0324,0.013523,0.002678,0.000431,1.312790
4168000,0.0324,0.013523,0.002678,0.000431,1.339234
4169000,0.0324,0.013523,0.002678,0.000431,1.384364
4170000,0.0324,0.013523,0.002678,0.000431,1.372377
4171000,0.0324,0.013523,0.002678,0.000431,1.449005
4172000,0.0324,0.013523,0.002678,0.000431,1.401876
4173000,0.0324,0.013523,0.002678,0.000431,1.362269
4174000,0.0324,0.013523,0.002678,0.000431,1.324190
4175000,0.0324,0.013523,0.002678,0.000431,1.364620
4176000,0.0324,0.013523,0.002678,0.000431,1.338646
4177000,0.0324,0.013523,0.002678,0.000431,1.248854
4178000,0.0324,0.013523,0.002678,0.000431,1.257434
4179000,0.0324,0.013523,0.002678,0.000431,1.322192
4180000,0.0324,0.013523,0.002678,0.000431,1.360389
4181000,0.0324,0.013523,0.002678,0.000431,1.299392
4182000,0.0324,0.013523,0.002678,0.000431,1.436547
4183000,0.0324,0.013523,0.002678,0.000431,1.471923
4184000,0.0324,0.013523,0.002678,0.000431,1.442306
4185000,0.0324,0.013523,0.002678,0.000431,1.381191
4186000,0.0324,0.013523,0.002678,0.000431,1.418213
4187000,0.0324,0.013523,0.002678,0.000431,1.479797
4188000,0.0324,0.013523,0.002678,0.000431,1.493078
4189000,0.0324,0.013523,0.002678,0.000431,1.625180
4190000,0.0324,0.013523,0.002678,0.000431,1.527044
4191000,0.0324,0.013523,0.002678,0.000431,1.535271
4192000,0.0324,0.013523,0.002678,0.000431,1.723551
4193000,0.0324,0.013523,0.002678,0.000431,1.550432
4194000,0.0324,0.013523,0.002678,0.000431,1.723551
4195000,0.0324,0.013523,0.002678,0.000431,1.821804
4196000,0.0324,0.013523,0.002678,0.000431,1.804175
4197000,0.0324,0.013523,0.002678,0.000431,1.772795
4198000,0.0324,0.013523,0.002678,0.000431,1.816751
4199000,0.0324,0.013523,0.002678,0.000431,1.854595
4200000,0.0324,0.013523,0.002678,0.000431,1.750817
4201000,0.0324,0.013523,0.002678,0.000431,1.618246
4202000,0.0324,0.013523,0.002678,0.000431,1.584985
4203000,0.0324,0.013523,0.002678,0.000431,1.636345
4204000,0.0324,0.013523,0.002678,0.000431,1.506946
4205000,0.0324,0.013523,0.002678,0.000431,1.603084
4206000,0.0324,0.013523,0.002678,0.000431,1.531980
4207000,0.0324,0.013523,0.002678,0.000431,1.495194
4208000,0.0324,0.013523,0.002678,0.000431,1.537034
4209000,0.0324,0.013523,0.002678,0.000431,1.498132
4210000,0.0324,0.013523,0.002678,0.000431,1.499895
4211000,0.0324,0.013523,0.002678,0.000431,1.465341
4212000,0.0324,0.013523,0.002678,0.000431,1.478387
4213000,0.0324,0.013523,0.002678,0.000431,1.452766
4214000,0.0324,0.013523,0.002678,0.000431,1.368146
4215000,0.0324,0.013523,0.002678,0.000431,1.331124
4216000,0.0324,0.013523,0.002678,0.000431,1.281410
4217000,0.0324,0.013523,0.002678,0.000431,1.354865
4218000,0.0324,0.013523,0.002678,0.000431,1.358978
4219000,0.0324,0.013523,0.002678,0.000431,1.325835
4220000,0.0324,0.013523,0.002678,0.000431,1.282820
4221000,0.0324,0.013523,0.002678,0.000431,1.283055
4222000,0.0324,0.013523,0.002678,0.000431,1.367088
4223000,0.0324,0.013523,0.002678,0.000431,1.332417
4224000,0.0324,0.013523,0.002678,0.000431,1.368733
4225000,0.0324,0.013523,0.002678,0.000431,1.310557
4226000,0.0324,0.013523,0.002678,0.000431,1.354277
4227000,0.0324,0.013523,0.002678,0.000431,1.305150
4228000,0.0324,0.013523,0.002678,0.000431,1.300567
4229000,0.0324,0.013523,0.002678,0.000431,1.324308
4230000,0.0324,0.013523,0.002678,0.000431,1.262723
4231000,0.0324,0.013523,0.002678,0.000431,1.208072
4232000,0.0324,0.013523,0.002678,0.000431,1.138613
4233000,0.0324,0.013523,0.002678,0.000431,1.112052
4234000,0.0324,0.013523,0.002678,0.000431,1.065628
4235000,0.0324,0.013523,0.002678,0.000431,1.093365
4236000,0.0324,0.013523,0.002678,0.000431,1.182921
4237000,0.0324,0.013523,0.002678,0.000431,1.153422
4238000,0.0324,0.013523,0.002678,0.000431,1.156242
4239000,0.0324,0.013523,0.002678,0.000431,1.199258
4240000,0.0324,0.013523,0.002678,0.000431,1.182216
4241000,0.0324,0.013523,0.002678,0.000431,1.226289
4242000,0.0324,0.013523,0.002678,0.000431,1.234869
4243000,0.0324,0.013523,0.002678,0.000431,1.185154
4244000,0.0324,0.013523,0.002678,0.000431,1.143197
4245000,0.0324,0.013523,0.002678,0.000431,1.136145
4246000,0.0324,0.013523,0.002678,0.000431,1.173284
4247000,0.0324,0.013523,0.002678,0.000431,1.270832
4248000,0.0324,0.013523,0.002678,0.000431,1.336648
4249000,0.0324,0.013523,0.002678,0.000431,1.318666
4250000,0.0324,0.013523,0.002678,0.000431,1.408105
4251000,0.0324,0.013523,0.002678,0.000431,1.340879
4252000,0.0324,0.013523,0.002678,0.000431,1.396822
4253000,0.0324,0.013523,0.002678,0.000431,1.265779
4254000,0.0324,0.013523,0.002678,0.000431,1.301390
4255000,0.0324,0.013523,0.002678,0.000431,1.275886
4256000,0.0324,0.013523,0.002678,0.000431,1.133559
4257000,0.0324,0.013523,0.002678,0.000431,1.110171
4258000,0.0324,0.013523,0.002678,0.000431,1.118046
4259000,0.0324,0.013523,0.002678,0.000431,1.120749
4260000,0.0324,0.013523,0.002678,0.000431,1.072915
4261000,0.0324,0.013523,0.002678,0.000431,1.098418
4262000,0.0324,0.013523,0.002678,0.000431,1.122629
4263000,0.0324,0.013523,0.002678,0.000431,1.110876
4264000,0.0324,0.013523,0.002678,0.000431,1.159533
4265000,0.0324,0.013523,0.002678,0.000431,1.056108
4266000,0.0324,0.013523,0.002678,0.000431,1.053523
4267000,0.0324,0.013523,0.002678,0.000431,0.981478
4268000,0.0324,0.013523,0.002678,0.000431,1.023318
4269000,0.0324,0.013523,0.002678,0.000431,1.038244
4270000,0.0324,0.013523,0.002678,0.000431,1.060457
4271000,0.0324,0.013523,0.002678,0.000431,0.941988
4272000,0.0324,0.013523,0.002678,0.000431,1.048704
4273000,0.0324,0.013523,0.002678,0.000431,1.103472
4274000,0.0324,0.013523,0.002678,0.000431,1.064335
4275000,0.0324,0.013523,0.002678,0.000431,1.184214
4276000,0.0324,0.013523,0.002678,0.000431,1.181746
4277000,0.0324,0.013523,0.002678,0.000431,1.187387
4278000,0.0324,0.013523,0.002678,0.000431,1.207132
4279000,0.0324,0.013523,0.002678,0.000431,1.270950
4280000,0.0324,0.013523,0.002678,0.000431,1.174342
4281000,0.0324,0.013523,0.002678,0.000431,1.200198
4282000,0.0324,0.013523,0.002678,0.000431,1.147780
4283000,0.0324,0.013523,0.002678,0.000431,1.164234
4284000,0.0324,0.013523,0.002678,0.000431,1.207367
4285000,0.0324,0.013523,0.002678,0.000431,1.189150
4286000,0.0324,0.013523,0.002678,0.000431,1.172931
4287000,0.0324,0.013523,0.002678,0.000431,1.159651
4288000,0.0324,0.013523,0.002678,0.000431,1.125920
4289000,0.0324,0.013523,0.002678,0.000431,1.114637
4290000,0.0324,0.013523,0.002678,0.000431,1.206309
4291000,0.0324,0.013523,0.002678,0.000431,1.096891
4292000,0.0324,0.013523,0.002678,0.000431,1.186800
4293000,0.0324,0.013523,0.002678,0.000431,1.190325
4294000,0.0324,0.013523,0.002678,0.000431,1.198200
4295000,0.0324,0.013523,0.002678,0.000431,1.139436
4296000,0.0324,0.013523,0.002678,0.000431,1.160356
4297000,0.0324,0.013523,0.002678,0.000431,1.231695
4298000,0.0324,0.013523,0.002678,0.000431,1.217827
4299000,0.0324,0.013523,0.002678,0.000431,1.320194
4300000,0.0324,0.013523,0.002678,0.000431,1.345345
4301000,0.0324,0.013523,0.002678,0.000431,1.364502
4302000,0.0324,0.013523,0.002678,0.000431,1.411749
4303000,0.0324,0.013523,0.002678,0.000431,1.396705
4304000,0.0324,0.013523,0.002678,0.000431,1.372847
4305000,0.0324,0.013523,0.002678,0.000431,1.339704
4306000,0.0324,0.013523,0.002678,0.000431,1.365560
4307000,0.0324,0.013523,0.002678,0.000431,1.295396
4308000,0.0324,0.013523,0.002678,0.000431,1.362504
4309000,0.0324,0.013523,0.002678,0.000431,1.403169
4310000,0.0324,0.013523,0.002678,0.000431,1.413276
4311000,0.0324,0.013523,0.002678,0.000431,1.387890
4312000,0.0324,0.013523,0.002678,0.000431,1.389066
4313000,0.0324,0.013523,0.002678,0.000431,1.319371
4314000,0.0324,0.013523,0.002678,0.000431,1.385187
4315000,0.0324,0.013523,0.002678,0.000431,1.328891
4316000,0.0324,0.013523,0.002678,0.000431,1.483323
4317000,0.0324,0.013523,0.002678,0.000431,1.371319
4318000,0.0324,0.013523,0.002678,0.000431,1.502715
4319000,0.0324,0.013523,0.002678,0.000431,1.441366
4320000,0.0324,0.013523,0.002678,0.000431,1.466987
4321000,0.0324,0.013523,0.002678,0.000431,1.406695
4322000,0.0324,0.013523,0.002678,0.000431,1.451120
4323000,0.0324,0.013523,0.002678,0.000431,1.336648
4324000,0.0324,0.013523,0.002678,0.000431,1.273653
4325000,0.0324,0.013523,0.002678,0.000431,1.397293
4326000,0.0324,0.013523,0.002678,0.000431,1.335355
4327000,0.0324,0.013523,0.002678,0.000431,1.242273
4328000,0.0324,0.013523,0.002678,0.000431,1.300214
4329000,0.0324,0.013523,0.002678,0.000431,1.293280
4330000,0.0324,0.013523,0.002678,0.000431,1.297159
4331000,0.0324,0.013523,0.002678,0.000431,1.247679
4332000,0.0324,0.013523,0.002678,0.000431,1.158945
4333000,0.0324,0.013523,0.002678,0.000431,1.126390
4334000,0.0324,0.013523,0.002678,0.000431,1.163764
4335000,0.0324,0.013523,0.002678,0.000431,1.201020
4336000,0.0324,0.013523,0.002678,0.000431,1.126155
4337000,0.0324,0.013523,0.002678,0.000431,1.074443
4338000,0.0324,0.013523,0.002678,0.000431,1.149426
4339000,0.0324,0.013523,0.002678,0.000431,1.183039
4340000,0.0324,0.013523,0.002678,0.000431,1.195614
4341000,0.0324,0.013523,0.002678,0.000431,1.166937
4342000,0.0324,0.013523,0.002678,0.000431,1.285876
4343000,0.0324,0.013523,0.002678,0.000431,1.318431
4344000,0.0324,0.013523,0.002678,0.000431,1.396587
4345000,0.0324,0.013523,0.002678,0.000431,1.466517
4346000,0.0324,0.013523,0.002678,0.000431,1.423384
4347000,0.0324,0.013523,0.002678,0.000431,1.486849
4348000,0.0324,0.013523,0.002678,0.000431,1.515996
4349000,0.0324,0.013523,0.002678,0.000431,1.593800
4350000,0.0324,0.013523,0.002678,0.000431,1.718144
4351000,0.0324,0.013523,0.002678,0.000431,1.572527
4352000,0.0324,0.013523,0.002678,0.000431,1.627413
4353000,0.0324,0.013523,0.002678,0.000431,1.498837
4354000,0.0324,0.013523,0.002678,0.000431,1.540089
4355000,0.0324,0.013523,0.002678,0.000431,1.575935
4356000,0.0324,0.013523,0.002678,0.000431,1.571822
4357000,0.0324,0.013523,0.002678,0.000431,1.471453
4358000,0.0324,0.013523,0.002678,0.000431,1.589921
4359000,0.0324,0.013523,0.002678,0.000431,1.548786
4360000,0.0324,0.013523,0.002678,0.000431,1.499072
4361000,0.0324,0.013523,0.002678,0.000431,1.454764
4362000,0.0324,0.013523,0.002678,0.000431,1.393649
4363000,0.0324,0.013523,0.002678,0.000431,1.399996
4364000,0.0324,0.013523,0.002678,0.000431,1.343700
4365000,0.0324,0.013523,0.002678,0.000431,1.284583
4366000,0.0324,0.013523,0.002678,0.000431,1.258492
4367000,0.0324,0.013523,0.002678,0.000431,1.261430
4368000,0.0324,0.013523,0.002678,0.000431,1.229110
4369000,0.0324,0.013523,0.002678,0.000431,1.241803
4370000,0.0324,0.013523,0.002678,0.000431,1.333357
4371000,0.0324,0.013523,0.002678,0.000431,1.319841
4372000,0.0324,0.013523,0.002678,0.000431,1.311262
4373000,0.0324,0.013523,0.002678,0.000431,1.236044
4374000,0.0324,0.013523,0.002678,0.000431,1.317726
4375000,0.0324,0.013523,0.002678,0.000431,1.240157
4376000,0.0324,0.013523,0.002678,0.000431,1.170698
4377000,0.0324,0.013523,0.002678,0.000431,1.217945
4378000,0.0324,0.013523,0.002678,0.000431,1.310557
4379000,0.0324,0.013523,0.002678,0.000431,1.256729
4380000,0.0324,0.013523,0.002678,0.000431,1.269069
4381000,0.0324,0.013523,0.002678,0.000431,1.417625
4382000,0.0324,0.013523,0.002678,0.000431,1.388713
4383000,0.0324,0.013523,0.002678,0.000431,1.312907
4384000,0.0324,0.013523,0.002678,0.000431,1.352162
4385000,0.0324,0.013523,0.002678,0.000431,1.357215
4386000,0.0324,0.013523,0.002678,0.000431,1.242861
4387000,0.0324,0.013523,0.002678,0.000431,1.195614
4388000,0.0324,0.013523,0.002678,0.000431,1.317021
4389000,0.0324,0.013523,0.002678,0.000431,1.246386
4390000,0.0324,0.013523,0.002678,0.000431,1.208660
4391000,0.0324,0.013523,0.002678,0.000431,1.299274
4392000,0.0324,0.013523,0.002678,0.000431,1.340997
4393000,0.0324,0.013523,0.002678,0.000431,1.441013
4394000,0.0324,0.013523,0.002678,0.000431,1.468750
4395000,0.0324,0.013523,0.002678,0.000431,1.583222
4396000,0.0324,0.013523,0.002678,0.000431,1.726019
4397000,0.0324,0.013523,0.002678,0.000431,1.641869
4398000,0.0324,0.013523,0.002678,0.000431,1.522578
4399000,0.0324,0.013523,0.002678,0.000431,1.564535
4400000,0.0324,0.013523,0.002678,0.000431,1.637520
4401000,0.0324,0.013523,0.002678,0.000431,1.589804
4402000,0.0324,0.013523,0.002678,0.000431,1.508944
4403000,0.0324,0.013523,0.002678,0.000431,1.530099
4404000,0.0324,0.013523,0.002678,0.000431,1.574408
4405000,0.0324,0.013523,0.002678,0.000431,1.540794
4406000,0.0324,0.013523,0.002678,0.000431,1.490610
4407000,0.0324,0.013523,0.002678,0.000431,1.462051
4408000,0.0324,0.013523,0.002678,0.000431,1.517994
4409000,0.0324,0.013523,0.002678,0.000431,1.490492
4410000,0.0324,0.013523,0.002678,0.000431,1.516231
4411000,0.0324,0.013523,0.002678,0.000431,1.462403
4412000,0.0324,0.013523,0.002678,0.000431,1.437840
4413000,0.0324,0.013523,0.002678,0.000431,1.438192
4414000,0.0324,0.013523,0.002678,0.000431,1.394002
4415000,0.0324,0.013523,0.002678,0.000431,1.342759
4416000,0.0324,0.013523,0.002678,0.000431,1.249325
4417000,0.0324,0.013523,0.002678,0.000431,1.223703
4418000,0.0324,0.013523,0.002678,0.000431,1.222881
4419000,0.0324,0.013523,0.002678,0.000431,1.309734
4420000,0.0324,0.013523,0.002678,0.000431,1.392944
4421000,0.0324,0.013523,0.002678,0.000431,1.273300
4422000,0.0324,0.013523,0.002678,0.000431,1.267659
4423000,0.0324,0.013523,0.002678,0.000431,1.316551
4424000,0.0324,0.013523,0.002678,0.000431,1.273418
4425000,0.0324,0.013523,0.002678,0.000431,1.193381
4426000,0.0324,0.013523,0.002678,0.000431,1.213243
4427000,0.0324,0.013523,0.002678,0.000431,1.200550
4428000,0.0324,0.013523,0.002678,0.000431,1.159063
4429000,0.0324,0.013523,0.002678,0.000431,1.045766
4430000,0.0324,0.013523,0.002678,0.000431,1.077851
4431000,0.0324,0.013523,0.002678,0.000431,1.072562
4432000,0.0324,0.013523,0.002678,0.000431,0.944809
4433000,0.0324,0.013523,0.002678,0.000431,1.020615
4434000,0.0324,0.013523,0.002678,0.000431,0.940343
4435000,0.0324,0.013523,0.002678,0.000431,0.883107
4436000,0.0324,0.013523,0.002678,0.000431,0.954094
4437000,0.0324,0.013523,0.002678,0.000431,1.027196
4438000,0.0324,0.013523,0.002678,0.000431,0.867240
4439000,0.0324,0.013523,0.002678,0.000431,0.948923
4440000,0.0324,0.013523,0.002678,0.000431,1.102884
4441000,0.0324,0.013523,0.002678,0.000431,1.083845
4442000,0.0324,0.013523,0.002678,0.000431,1.117928
4443000,0.0324,0.013523,0.002678,0.000431,1.157535
4444000,0.0324,0.013523,0.002678,0.000431,1.433139
4445000,0.0324,0.013523,0.002678,0.000431,1.583222
4446000,0.0324,0.013523,0.002678,0.000431,1.469220
4447000,0.0324,0.013523,0.002678,0.000431,1.612487
4448000,0.0324,0.013523,0.002678,0.000431,1.642456
4449000,0.0324,0.013523,0.002678,0.000431,1.767624
4450000,0.0324,0.013523,0.002678,0.000431,1.678890
4451000,0.0324,0.013523,0.002678,0.000431,1.694169
4452000,0.0324,0.013523,0.002678,0.000431,1.791600
4453000,0.0324,0.013523,0.002678,0.000431,1.751170
4454000,0.0324,0.013523,0.002678,0.000431,1.697695
4455000,0.0324,0.013523,0.002678,0.000431,1.569824
4456000,0.0324,0.013523,0.002678,0.000431,1.433139
4457000,0.0324,0.013523,0.002678,0.000431,1.435137
4458000,0.0324,0.013523,0.002678,0.000431,1.380721
4459000,0.0324,0.013523,0.002678,0.000431,1.286111
4460000,0.0324,0.013523,0.002678,0.000431,1.262018
4461000,0.0324,0.013523,0.002678,0.000431,1.286228
4462000,0.0324,0.013523,0.002678,0.000431,1.348988
4463000,0.0324,0.013523,0.002678,0.000431,1.295278
4464000,0.0324,0.013523,0.002678,0.000431,1.193264
4465000,0.0324,0.013523,0.002678,0.000431,1.109466
4466000,0.0324,0.013523,0.002678,0.000431,1.215006
4467000,0.0324,0.013523,0.002678,0.000431,1.051760
4468000,0.0324,0.013523,0.002678,0.000431,1.025081
4469000,0.0324,0.013523,0.002678,0.000431,1.030840
4470000,0.0324,0.013523,0.002678,0.000431,1.070094
4471000,0.0324,0.013523,0.002678,0.000431,0.997814
4472000,0.0324,0.013523,0.002678,0.000431,0.958090
4473000,0.0324,0.013523,0.002678,0.000431,1.027901
4474000,0.0324,0.013523,0.002678,0.000431,1.212303
4475000,0.0324,0.013523,0.002678,0.000431,1.117575
4476000,0.0324,0.013523,0.002678,0.000431,1.077263
4477000,0.0324,0.013523,0.002678,0.000431,1.215241
4478000,0.0324,0.013523,0.002678,0.000431,1.164939
4479000,0.0324,0.013523,0.002678,0.000431,1.177045
4480000,0.0324,0.013523,0.002678,0.000431,1.287874
4481000,0.0324,0.013523,0.002678,0.000431,1.329714
4482000,0.0324,0.013523,0.002678,0.000431,1.368616
4483000,0.0324,0.013523,0.002678,0.000431,1.400936
4484000,0.0324,0.013523,0.002678,0.000431,1.443716
4485000,0.0324,0.013523,0.002678,0.000431,1.469337
4486000,0.0324,0.013523,0.002678,0.000431,1.478622
4487000,0.0324,0.013523,0.002678,0.000431,1.538679
4488000,0.0324,0.013523,0.002678,0.000431,1.459700
4489000,0.0324,0.013523,0.002678,0.000431,1.512940
4490000,0.0324,0.013523,0.002678,0.000431,1.461580
4491000,0.0324,0.013523,0.002678,0.000431,1.373669
4492000,0.0324,0.013523,0.002678,0.000431,1.465694
4493000,0.0324,0.013523,0.002678,0.000431,1.295631
4494000,0.0324,0.013523,0.002678,0.000431,1.262605
4495000,0.0324,0.013523,0.002678,0.000431,1.212186
4496000,0.0324,0.013523,0.002678,0.000431,1.144019
4497000,0.0324,0.013523,0.002678,0.000431,1.073855
4498000,0.0324,0.013523,0.002678,0.000431,1.113932
4499000,0.0324,0.013523,0.002678,0.000431,1.071152
4500000,0.0324,0.013523,0.002678,0.000431,0.979597
4501000,0.0324,0.013523,0.002678,0.000431,1.105353
4502000,0.0324,0.013523,0.002678,0.000431,1.085608
4503000,0.0324,0.013523,0.002678,0.000431,1.175047
4504000,0.0324,0.013523,0.002678,0.000431,1.105235
4505000,0.0324,0.013523,0.002678,0.000431,1.203018
4506000,0.0324,0.013523,0.002678,0.000431,1.146135
4507000,0.0324,0.013523,0.002678,0.000431,1.132384
4508000,0.0324,0.013523,0.002678,0.000431,1.130151
4509000,0.0324,0.013523,0.002678,0.000431,1.094305
4510000,0.0324,0.013523,0.002678,0.000431,1.028489
4511000,0.0324,0.013523,0.002678,0.000431,1.028489
4512000,0.0324,0.013523,0.002678,0.000431,0.956914
4513000,0.0324,0.013523,0.002678,0.000431,0.998990
4514000,0.0324,0.013523,0.002678,0.000431,1.016149
4515000,0.0324,0.013523,0.002678,0.000431,0.965847
4516000,0.0324,0.013523,0.002678,0.000431,0.986061
4517000,0.0324,0.013523,0.002678,0.000431,1.088311
4518000,0.0324,0.013523,0.002678,0.000431,1.125802
4519000,0.0324,0.013523,0.002678,0.000431,1.251910
4520000,0.0324,0.013523,0.002678,0.000431,1.282703
4521000,0.0324,0.013523,0.002678,0.000431,1.227347
4522000,0.0324,0.013523,0.002678,0.000431,1.191031
4523000,0.0324,0.013523,0.002678,0.000431,1.114285
4524000,0.0324,0.013523,0.002678,0.000431,1.151424
4525000,0.0324,0.013523,0.002678,0.000431,1.114637
4526000,0.0324,0.013523,0.002678,0.000431,1.102297
4527000,0.0324,0.013523,0.002678,0.000431,1.199728
4528000,0.0324,0.013523,0.002678,0.000431,1.149308
4529000,0.0324,0.013523,0.002678,0.000431,1.130269
4530000,0.0324,0.013523,0.002678,0.000431,1.160826
4531000,0.0324,0.013523,0.002678,0.000431,1.111464
4532000,0.0324,0.013523,0.002678,0.000431,1.129563
4533000,0.0324,0.013523,0.002678,0.000431,1.139318
4534000,0.0324,0.013523,0.002678,0.000431,1.113109
4535000,0.0324,0.013523,0.002678,0.000431,1.360036
4536000,0.0324,0.013523,0.002678,0.000431,1.424912
4537000,0.0324,0.013523,0.002678,0.000431,1.361917
4538000,0.0324,0.013523,0.002678,0.000431,1.485556
4539000,0.0324,0.013523,0.002678,0.000431,1.537739
4540000,0.0324,0.013523,0.002678,0.000431,1.560774
4541000,0.0324,0.013523,0.002678,0.000431,1.503421
4542000,0.0324,0.013523,0.002678,0.000431,1.476742
4543000,0.0324,0.013523,0.002678,0.000431,1.446654
4544000,0.0324,0.013523,0.002678,0.000431,1.408693
4545000,0.0324,0.013523,0.002678,0.000431,1.434431
4546000,0.0324,0.013523,0.002678,0.000431,1.519404
4547000,0.0324,0.013523,0.002678,0.000431,1.424442
4548000,0.0324,0.013523,0.002678,0.000431,1.384952
4549000,0.0324,0.013523,0.002678,0.000431,1.361211
4550000,0.0324,0.013523,0.002678,0.000431,1.285876
4551000,0.0324,0.013523,0.002678,0.000431,1.187387
4552000,0.0324,0.013523,0.002678,0.000431,1.078556
4553000,0.0324,0.013523,0.002678,0.000431,1.035423
4554000,0.0324,0.013523,0.002678,0.000431,1.012035
4555000,0.0324,0.013523,0.002678,0.000431,1.131914
4556000,0.0324,0.013523,0.002678,0.000431,1.015091
4557000,0.0324,0.013523,0.002678,0.000431,1.008392
4558000,0.0324,0.013523,0.002678,0.000431,1.110641
4559000,0.0324,0.013523,0.002678,0.000431,1.057166
4560000,0.0324,0.013523,0.002678,0.000431,1.105117
4561000,0.0324,0.013523,0.002678,0.000431,1.181393
4562000,0.0324,0.013523,0.002678,0.000431,1.178338
4563000,0.0324,0.013523,0.002678,0.000431,1.132854
4564000,0.0324,0.013523,0.002678,0.000431,1.145195
4565000,0.0324,0.013523,0.002678,0.000431,1.312790
4566000,0.0324,0.013523,0.002678,0.000431,1.396940
4567000,0.0324,0.013523,0.002678,0.000431,1.189973
4568000,0.0324,0.013523,0.002678,0.000431,1.263663
4569000,0.0324,0.013523,0.002678,0.000431,1.290930
4570000,0.0324,0.013523,0.002678,0.000431,1.202548
4571000,0.0324,0.013523,0.002678,0.000431,1.066921
4572000,0.0324,0.013523,0.002678,0.000431,1.036716
4573000,0.0324,0.013523,0.002678,0.000431,0.923772
4574000,0.0324,0.013523,0.002678,0.000431,1.024258
4575000,0.0324,0.013523,0.002678,0.000431,0.969843
4576000,0.0324,0.013523,0.002678,0.000431,1.010155
4577000,0.0324,0.013523,0.002678,0.000431,1.101004
4578000,0.0324,0.013523,0.002678,0.000431,1.094775
4579000,0.0324,0.013523,0.002678,0.000431,1.047176
4580000,0.0324,0.013523,0.002678,0.000431,1.108761
4581000,0.0324,0.013523,0.002678,0.000431,1.267306
4582000,0.0324,0.013523,0.002678,0.000431,1.275416
4583000,0.0324,0.013523,0.002678,0.000431,1.252263
4584000,0.0324,0.013523,0.002678,0.000431,1.254848
4585000,0.0324,0.013523,0.002678,0.000431,1.286111
4586000,0.0324,0.013523,0.002678,0.000431,1.187622
4587000,0.0324,0.013523,0.002678,0.000431,1.219707
4588000,0.0324,0.013523,0.002678,0.000431,1.267894
4589000,0.0324,0.013523,0.002678,0.000431,1.343935
4590000,0.0324,0.013523,0.002678,0.000431,1.411513
4591000,0.0324,0.013523,0.002678,0.000431,1.370261
4592000,0.0324,0.013523,0.002678,0.000431,1.316081
4593000,0.0324,0.013523,0.002678,0.000431,1.338646
4594000,0.0324,0.013523,0.002678,0.000431,1.258022
4595000,0.0324,0.013523,0.002678,0.000431,1.119456
4596000,0.0324,0.013523,0.002678,0.000431,1.137673
4597000,0.0324,0.013523,0.002678,0.000431,1.173989
4598000,0.0324,0.013523,0.002678,0.000431,1.095128
4599000,0.0324,0.013523,0.002678,0.000431,1.053993
4600000,0.0324,0.013523,0.002678,0.000431,1.088899
4601000,0.0324,0.013523,0.002678,0.000431,0.988294
4602000,0.0324,0.013523,0.002678,0.000431,0.952331
4603000,0.0324,0.013523,0.002678,0.000431,0.918483
4604000,0.0324,0.013523,0.002678,0.000431,0.774746
4605000,0.0324,0.013523,0.002678,0.000431,0.711516
4606000,0.0324,0.013523,0.002678,0.000431,0.687305
4607000,0.0324,0.013523,0.002678,0.000431,0.789084
4608000,0.0324,0.013523,0.002678,0.000431,0.817996
4609000,0.0324,0.013523,0.002678,0.000431,0.912959
4610000,0.0324,0.013523,0.002678,0.000431,0.912724
4611000,0.0324,0.013523,0.002678,0.000431,0.935994
4612000,0.0324,0.013523,0.002678,0.000431,0.964319
4613000,0.0324,0.013523,0.002678,0.000431,0.992290
4614000,0.0324,0.013523,0.002678,0.000431,1.064570
4615000,0.0324,0.013523,0.002678,0.000431,1.283055
4616000,0.0324,0.013523,0.002678,0.000431,1.213126
4617000,0.0324,0.013523,0.002678,0.000431,1.075383
4618000,0.0324,0.013523,0.002678,0.000431,1.124862
4619000,0.0324,0.013523,0.002678,0.000431,1.138613
4620000,0.0324,0.013523,0.002678,0.000431,1.037421
4621000,0.0324,0.013523,0.002678,0.000431,1.023670
4622000,0.0324,0.013523,0.002678,0.000431,1.093365
4623000,0.0324,0.013523,0.002678,0.000431,1.009685
4624000,0.0324,0.013523,0.002678,0.000431,0.918248
4625000,0.0324,0.013523,0.002678,0.000431,0.950803
4626000,0.0324,0.013523,0.002678,0.000431,1.011448
4627000,0.0324,0.013523,0.002678,0.000431,1.085960
4628000,0.0324,0.013523,0.002678,0.000431,1.064570
4629000,0.0324,0.013523,0.002678,0.000431,1.077028
4630000,0.0324,0.013523,0.002678,0.000431,1.009215
4631000,0.0324,0.013523,0.002678,0.000431,1.051525
4632000,0.0324,0.013523,0.002678,0.000431,1.066098
4633000,0.0324,0.013523,0.002678,0.000431,0.934584
4634000,0.0324,0.013523,0.002678,0.000431,0.897563
4635000,0.0324,0.013523,0.002678,0.000431,0.916955
4636000,0.0324,0.013523,0.002678,0.000431,1.006511
4637000,0.0324,0.013523,0.002678,0.000431,0.942341
4638000,0.0324,0.013523,0.002678,0.000431,0.860541
4639000,0.0324,0.013523,0.002678,0.000431,0.849376
4640000,0.0324,0.013523,0.002678,0.000431,0.876173
4641000,0.0324,0.013523,0.002678,0.000431,0.824460
4642000,0.0324,0.013523,0.002678,0.000431,0.918600
4643000,0.0324,0.013523,0.002678,0.000431,0.995934
4644000,0.0324,0.013523,0.002678,0.000431,1.028842
4645000,0.0324,0.013523,0.002678,0.000431,1.099359
4646000,0.0324,0.013523,0.002678,0.000431,1.265779
4647000,0.0324,0.013523,0.002678,0.000431,1.262135
4648000,0.0324,0.013523,0.002678,0.000431,1.185977
4649000,0.0324,0.013523,0.002678,0.000431,1.033778
4650000,0.0324,0.013523,0.002678,0.000431,0.963026
4651000,0.0324,0.013523,0.002678,0.000431,0.877583
4652000,0.0324,0.013523,0.002678,0.000431,0.911196
4653000,0.0324,0.013523,0.002678,0.000431,0.924124
4654000,0.0324,0.013523,0.002678,0.000431,0.924359
4655000,0.0324,0.013523,0.002678,0.000431,0.853020
4656000,0.0324,0.013523,0.002678,0.000431,0.741368
4657000,0.0324,0.013523,0.002678,0.000431,0.698705
4658000,0.0324,0.013523,0.002678,0.000431,0.700233
4659000,0.0324,0.013523,0.002678,0.000431,0.929295
4660000,0.0324,0.013523,0.002678,0.000431,0.824108
4661000,0.0324,0.013523,0.002678,0.000431,0.839034
4662000,0.0324,0.013523,0.002678,0.000431,1.075618
4663000,0.0324,0.013523,0.002678,0.000431,0.908728
4664000,0.0324,0.013523,0.002678,0.000431,0.903322
4665000,0.0324,0.013523,0.002678,0.000431,0.843147
4666000,0.0324,0.013523,0.002678,0.000431,0.662036
4667000,0.0324,0.013523,0.002678,0.000431,0.579179
4668000,0.0324,0.013523,0.002678,0.000431,0.468232
4669000,0.0324,0.013523,0.002678,0.000431,0.374797
4670000,0.0324,0.013523,0.002678,0.000431,0.313918
4671000,0.0324,0.013523,0.002678,0.000431,0.257622
4672000,0.0324,0.013523,0.002678,0.000431,0.214959
4673000,0.0324,0.013523,0.002678,0.000431,0.184519
4674000,0.0324,0.013523,0.002678,0.000431,0.153022
4675000,0.0324,0.013523,0.002678,0.000431,0.140564
4676000,0.0324,0.013523,0.002678,0.000431,0.130574
4677000,0.0324,0.013523,0.002678,0.000431,0.111769
4678000,0.0324,0.013523,0.002678,0.000431,0.099076
4679000,0.0324,0.013523,0.002678,0.000431,0.088264
4680000,0.0324,0.013523,0.002678,0.000431,0.086853
4681000,0.0324,0.013523,0.002678,0.000431,0.082035
4682000,0.0324,0.013523,0.002678,0.000431,0.076276
4683000,0.0324,0.013523,0.002678,0.000431,0.070282
4684000,0.0324,0.013523,0.002678,0.000431,0.067814
4685000,0.0324,0.013523,0.002678,0.000431,0.067579
4686000,0.0324,0.013523,0.002678,0.000431,0.065816
4687000,0.0324,0.013523,0.002678,0.000431,0.061585
4688000,0.0324,0.013523,0.002678,0.000431,0.060997
4689000,0.0324,0.013523,0.002678,0.000431,0.058529
4690000,0.0324,0.013523,0.002678,0.000431,0.057471
4691000,0.0324,0.013523,0.002678,0.000431,0.055238
4692000,0.0324,0.013523,0.002678,0.000431,0.053240
4693000,0.0324,0.013523,0.002678,0.000431,0.052770
4694000,0.0324,0.013523,0.002678,0.000431,0.053005
4695000,0.0324,0.013523,0.002678,0.000431,0.053475
4696000,0.0324,0.013523,0.002678,0.000431,0.051125
4697000,0.0324,0.013523,0.002678,0.000431,0.048657
4698000,0.0324,0.013523,0.002678,0.000431,0.052535
4699000,0.0324,0.013523,0.002678,0.000431,0.050185
4700000,0.0324,0.013523,0.002678,0.000431,0.049362
4701000,0.0324,0.013523,0.002678,0.000431,0.049244
4702000,0.0324,0.013523,0.002678,0.000431,0.049832
4703000,0.0324,0.013523,0.002678,0.000431,0.048657
4704000,0.0324,0.013523,0.002678,0.000431,0.048774
4705000,0.0324,0.013523,0.002678,0.000431,0.048069
4706000,0.0324,0.013523,0.002678,0.000431,0.049832
4707000,0.0324,0.013523,0.002678,0.000431,0.046424
4708000,0.0324,0.013523,0.002678,0.000431,0.048304
4709000,0.0324,0.013523,0.002678,0.000431,0.046659
4710000,0.0324,0.013523,0.002678,0.000431,0.047599
4711000,0.0324,0.013523,0.002678,0.000431,0.047481
4712000,0.0324,0.013523,0.002678,0.000431,0.047011
4713000,0.0324,0.013523,0.002678,0.000431,0.050890
4714000,0.0324,0.013523,0.002678,0.000431,0.047129
4715000,0.0324,0.013523,0.002678,0.000431,0.047951
4716000,0.0324,0.013523,0.002678,0.000431,0.044308
4717000,0.0324,0.013523,0.002678,0.000431,0.049714
4718000,0.0324,0.013523,0.002678,0.000431,0.046776
4719000,0.0324,0.013523,0.002678,0.000431,0.047246
4720000,0.0324,0.013523,0.002678,0.000431,0.047716
4721000,0.0324,0.013523,0.002678,0.000431,0.047246
4722000,0.0324,0.013523,0.002678,0.000431,0.045013
4723000,0.0324,0.013523,0.002678,0.000431,0.046189
4724000,0.0324,0.013523,0.002678,0.000431,0.045836
4725000,0.0324,0.013523,0.002678,0.000431,0.046894
4726000,0.0324,0.013523,0.002678,0.000431,0.048187
4727000,0.0324,0.013523,0.002678,0.000431,0.050890
4728000,0.0324,0.013523,0.002678,0.000431,0.044661
4729000,0.0324,0.013523,0.002678,0.000431,0.046306
4730000,0.0324,0.013523,0.002678,0.000431,0.046189
4731000,0.0324,0.013523,0.002678,0.000431,0.046659
4732000,0.0324,0.013523,0.002678,0.000431,0.047129
4733000,0.0324,0.013523,0.002678,0.000431,0.046424
4734000,0.0324,0.013523,0.002678,0.000431,0.048422
4735000,0.0324,0.013523,0.002678,0.000431,0.046306
4736000,0.0324,0.013523,0.002678,0.000431,0.048539
4737000,0.0324,0.013523,0.002678,0.000431,0.045483
4738000,0.0324,0.013523,0.002678,0.000431,0.047599
4739000,0.0324,0.013523,0.002678,0.000431,0.047246
4740000,0.0324,0.013523,0.002678,0.000431,0.047481
4741000,0.0324,0.013523,0.002678,0.000431,0.044543
4742000,0.0324,0.013523,0.002678,0.000431,0.048304
4743000,0.0324,0.013523,0.002678,0.000431,0.048304
4744000,0.0324,0.013523,0.002678,0.000431,0.048422
4745000,0.0324,0.013523,0.002678,0.000431,0.047716
4746000,0.0324,0.013523,0.002678,0.000431,0.044778
4747000,0.0324,0.013523,0.002678,0.000431,0.046306
4748000,0.0324,0.013523,0.002678,0.000431,0.047481
4749000,0.0324,0.013523,0.002678,0.000431,0.044778
4750000,0.0324,0.013523,0.002678,0.000431,0.047246
4751000,0.0324,0.013523,0.002678,0.000431,0.046189
4752000,0.0324,0.013523,0.002678,0.000431,0.048422
4753000,0.0324,0.013523,0.002678,0.000431,0.046306
4754000,0.0324,0.013523,0.002678,0.000431,0.048539
4755000,0.0324,0.013523,0.002678,0.000431,0.046071
4756000,0.0324,0.013523,0.002678,0.000431,0.045954
4757000,0.0324,0.013523,0.002678,0.000431,0.044191
4758000,0.0324,0.013523,0.002678,0.000431,0.047834
4759000,0.0324,0.013523,0.002678,0.000431,0.047364
4760000,0.0324,0.013523,0.002678,0.000431,0.045601
4761000,0.0324,0.013523,0.002678,0.000431,0.049479
4762000,0.0324,0.013523,0.002678,0.000431,0.047481
4763000,0.0324,0.013523,0.002678,0.000431,0.046541
4764000,0.0324,0.013523,0.002678,0.000431,0.049009
4765000,0.0324,0.013523,0.002678,0.000431,0.047599
4766000,0.0324,0.013523,0.002678,0.000431,0.046776
4767000,0.0324,0.013523,0.002678,0.000431,0.047951
4768000,0.0324,0.013523,0.002678,0.000431,0.048304
4769000,0.0324,0.013523,0.002678,0.000431,0.048187
4770000,0.0324,0.013523,0.002678,0.000431,0.048187
4771000,0.0324,0.013523,0.002678,0.000431,0.048657
4772000,0.0324,0.013523,0.002678,0.000431,0.047951
4773000,0.0324,0.013523,0.002678,0.000431,0.047011
4774000,0.0324,0.013523,0.002678,0.000431,0.048422
4775000,0.0324,0.013523,0.002678,0.000431,0.045718
4776000,0.0324,0.013523,0.002678,0.000431,0.048539
4777000,0.0324,0.013523,0.002678,0.000431,0.047599
4778000,0.0324,0.013523,0.002678,0.000431,0.047834
4779000,0.0324,0.013523,0.002678,0.000431,0.048187
4780000,0.0324,0.013523,0.002678,0.000431,0.048304
4781000,0.0324,0.013523,0.002678,0.000431,0.049009
4782000,0.0324,0.013523,0.002678,0.000431,0.048422
4783000,0.0324,0.013523,0.002678,0.000431,0.048539
4784000,0.0324,0.013523,0.002678,0.000431,0.047246
4785000,0.0324,0.013523,0.002678,0.000431,0.047716
4786000,0.0324,0.013523,0.002678,0.000431,0.048304
4787000,0.0324,0.013523,0.002678,0.000431,0.046541
4788000,0.0324,0.013523,0.002678,0.000431,0.048069
4789000,0.0324,0.013523,0.002678,0.000431,0.047246
4790000,0.0324,0.013523,0.002678,0.000431,0.051007
4791000,0.0324,0.013523,0.002678,0.000431,0.048422
4792000,0.0324,0.013523,0.002678,0.000431,0.048304
4793000,0.0324,0.013523,0.002678,0.000431,0.047716
4794000,0.0324,0.013523,0.002678,0.000431,0.050772
4795000,0.0324,0.013523,0.002678,0.000431,0.046306
4796000,0.0324,0.013523,0.002678,0.000431,0.045483
4797000,0.0324,0.013523,0.002678,0.000431,0.049479
4798000,0.0324,0.013523,0.002678,0.000431,0.045836
4799000,0.0324,0.013523,0.002678,0.000431,0.046424
4800000,0.0324,0.013523,0.002678,0.000431,0.047834
4801000,0.0324,0.013523,0.002678,0.000431,0.046306
4802000,0.0324,0.013523,0.002678,0.000431,0.048304
4803000,0.0324,0.013523,0.002678,0.000431,0.048539
4804000,0.0324,0.013523,0.002678,0.000431,0.045366
4805000,0.0324,0.013523,0.002678,0.000431,0.044308
4806000,0.0324,0.013523,0.002678,0.000431,0.047951
4807000,0.0324,0.013523,0.002678,0.000431,0.046189
4808000,0.0324,0.013523,0.002678,0.000431,0.047716
4809000,0.0324,0.013523,0.002678,0.000431,0.046894
4810000,0.0324,0.013523,0.002678,0.000431,0.045366
4811000,0.0324,0.013523,0.002678,0.000431,0.046894
4812000,0.0324,0.013523,0.002678,0.000431,0.050772
4813000,0.0324,0.013523,0.002678,0.000431,0.049479
4814000,0.0324,0.013523,0.002678,0.000431,0.042545
4815000,0.0324,0.013523,0.002678,0.000431,0.049597
4816000,0.0324,0.013523,0.002678,0.000431,0.048304
4817000,0.0324,0.013523,0.002678,0.000431,0.042428
4818000,0.0324,0.013523,0.002678,0.000431,0.045131
4819000,0.0324,0.013523,0.002678,0.000431,0.045483
4820000,0.0324,0.013523,0.002678,0.000431,0.045718
4821000,0.0324,0.013523,0.002678,0.000431,0.045366
4822000,0.0324,0.013523,0.002678,0.000431,0.046189
4823000,0.0324,0.013523,0.002678,0.000431,0.045013
4824000,0.0324,0.013523,0.002678,0.000431,0.047129
4825000,0.0324,0.013523,0.002678,0.000431,0.043485
4826000,0.0324,0.013523,0.002678,0.000431,0.045954
4827000,0.0324,0.013523,0.002678,0.000431,0.045836
4828000,0.0324,0.013523,0.002678,0.000431,0.048774
4829000,0.0324,0.013523,0.002678,0.000431,0.045366
4830000,0.0324,0.013523,0.002678,0.000431,0.046659
4831000,0.0324,0.013523,0.002678,0.000431,0.043720
4832000,0.0324,0.013523,0.002678,0.000431,0.042545
4833000,0.0324,0.013523,0.002678,0.000431,0.046541
4834000,0.0324,0.013523,0.002678,0.000431,0.041487
4835000,0.0324,0.013523,0.002678,0.000431,0.047129
4836000,0.0324,0.013523,0.002678,0.000431,0.044426
4837000,0.0324,0.013523,0.002678,0.000431,0.045483
4838000,0.0324,0.013523,0.002678,0.000431,0.046071
4839000,0.0324,0.013523,0.002678,0.000431,0.044308
4840000,0.0324,0.013523,0.002678,0.000431,0.048304
4841000,0.0324,0.013523,0.002678,0.000431,0.045483
4842000,0.0324,0.013523,0.002678,0.000431,0.046071
4843000,0.0324,0.013523,0.002678,0.000431,0.044896
4844000,0.0324,0.013523,0.002678,0.000431,0.042663
4845000,0.0324,0.013523,0.002678,0.000431,0.048774
4846000,0.0324,0.013523,0.002678,0.000431,0.045366
4847000,0.0324,0.013523,0.002678,0.000431,0.045366
4848000,0.0324,0.013523,0.002678,0.000431,0.048539
4849000,0.0324,0.013523,0.002678,0.000431,0.043956
4850000,0.0324,0.013523,0.002678,0.000431,0.045718
4851000,0.0324,0.013523,0.002678,0.000431,0.046541
4852000,0.0324,0.013523,0.002678,0.000431,0.045601
4853000,0.0324,0.013523,0.002678,0.000431,0.045013
4854000,0.0324,0.013523,0.002678,0.000431,0.045601
4855000,0.0324,0.013523,0.002678,0.000431,0.048304
4856000,0.0324,0.013523,0.002678,0.000431,0.047716
4857000,0.0324,0.013523,0.002678,0.000431,0.045601
4858000,0.0324,0.013523,0.002678,0.000431,0.046189
4859000,0.0324,0.013523,0.002678,0.000431,0.047834
4860000,0.0324,0.013523,0.002678,0.000431,0.047481
4861000,0.0324,0.013523,0.002678,0.000431,0.045601
4862000,0.0324,0.013523,0.002678,0.000431,0.045131
4863000,0.0324,0.013523,0.002678,0.000431,0.045131
4864000,0.0324,0.013523,0.002678,0.000431,0.045718
4865000,0.0324,0.013523,0.002678,0.000431,0.048539
4866000,0.0324,0.013523,0.002678,0.000431,0.047599
4867000,0.0324,0.013523,0.002678,0.000431,0.041840
4868000,0.0324,0.013523,0.002678,0.000431,0.048069
4869000,0.0324,0.013523,0.002678,0.000431,0.046659
4870000,0.0324,0.013523,0.002678,0.000431,0.045601
4871000,0.0324,0.013523,0.002678,0.000431,0.043838
4872000,0.0324,0.013523,0.002678,0.000431,0.043838
4873000,0.0324,0.013523,0.002678,0.000431,0.047481
4874000,0.0324,0.013523,0.002678,0.000431,0.045366
4875000,0.0324,0.013523,0.002678,0.000431,0.047129
4876000,0.0324,0.013523,0.002678,0.000431,0.047011
4877000,0.0324,0.013523,0.002678,0.000431,0.044191
4878000,0.0324,0.013523,0.002678,0.000431,0.048304
4879000,0.0324,0.013523,0.002678,0.000431,0.041958
4880000,0.0324,0.013523,0.002678,0.000431,0.048069
4881000,0.0324,0.013523,0.002678,0.000431,0.044778
4882000,0.0324,0.013523,0.002678,0.000431,0.046424
4883000,0.0324,0.013523,0.002678,0.000431,0.044426
4884000,0.0324,0.013523,0.002678,0.000431,0.046659
4885000,0.0324,0.013523,0.002678,0.000431,0.045718
4886000,0.0324,0.013523,0.002678,0.000431,0.045131
4887000,0.0324,0.013523,0.002678,0.000431,0.047011
4888000,0.0324,0.013523,0.002678,0.000431,0.044308
4889000,0.0324,0.013523,0.002678,0.000431,0.045366
4890000,0.0324,0.013523,0.002678,0.000431,0.047364
4891000,0.0324,0.013523,0.002678,0.000431,0.045601
4892000,0.0324,0.013523,0.002678,0.000431,0.043603
4893000,0.0324,0.013523,0.002678,0.000431,0.047481
4894000,0.0324,0.013523,0.002678,0.000431,0.044308
4895000,0.0324,0.013523,0.002678,0.000431,0.046189
4896000,0.0324,0.013523,0.002678,0.000431,0.046776
4897000,0.0324,0.013523,0.002678,0.000431,0.046424
4898000,0.0324,0.013523,0.002678,0.000431,0.047246
4899000,0.0324,0.013523,0.002678,0.000431,0.046189
4900000,0.0324,0.013523,0.002678,0.000431,0.047834
4901000,0.0324,0.013523,0.002678,0.000431,0.044308
4902000,0.0324,0.013523,0.002678,0.000431,0.046541
4903000,0.0324,0.013523,0.002678,0.000431,0.042898
4904000,0.0324,0.013523,0.002678,0.000431,0.044073
4905000,0.0324,0.013523,0.002678,0.000431,0.047129
4906000,0.0324,0.013523,0.002678,0.000431,0.049244
4907000,0.0324,0.013523,0.002678,0.000431,0.041487
4908000,0.0324,0.013523,0.002678,0.000431,0.047129
4909000,0.0324,0.013523,0.002678,0.000431,0.045013
4910000,0.0324,0.013523,0.002678,0.000431,0.046776
4911000,0.0324,0.013523,0.002678,0.000431,0.044308
4912000,0.0324,0.013523,0.002678,0.000431,0.042780
4913000,0.0324,0.013523,0.002678,0.000431,0.047129
4914000,0.0324,0.013523,0.002678,0.000431,0.046894
4915000,0.0324,0.013523,0.002678,0.000431,0.046894
4916000,0.0324,0.013523,0.002678,0.000431,0.042663
4917000,0.0324,0.013523,0.002678,0.000431,0.045483
4918000,0.0324,0.013523,0.002678,0.000431,0.048774
4919000,0.0324,0.013523,0.002678,0.000431,0.042310
4920000,0.0324,0.013523,0.002678,0.000431,0.044191
4921000,0.0324,0.013523,0.002678,0.000431,0.047364
4922000,0.0324,0.013523,0.002678,0.000431,0.046306
4923000,0.0324,0.013523,0.002678,0.000431,0.043838
4924000,0.0324,0.013523,0.002678,0.000431,0.046071
4925000,0.0324,0.013523,0.002678,0.000431,0.043485
4926000,0.0324,0.013523,0.002678,0.000431,0.044426
4927000,0.0324,0.013523,0.002678,0.000431,0.050655
4928000,0.0324,0.013523,0.002678,0.000431,0.045954
4929000,0.0324,0.013523,0.002678,0.000431,0.044661
4930000,0.0324,0.013523,0.002678,0.000431,0.044896
4931000,0.0324,0.013523,0.002678,0.000431,0.042193
4932000,0.0324,0.013523,0.002678,0.000431,0.045248
4933000,0.0324,0.013523,0.002678,0.000431,0.049244
4934000,0.0324,0.013523,0.002678,0.000431,0.045483
4935000,0.0324,0.013523,0.002678,0.000431,0.046541
4936000,0.0324,0.013523,0.002678,0.000431,0.045013
4937000,0.0324,0.013523,0.002678,0.000431,0.045013
4938000,0.0324,0.013523,0.002678,0.000431,0.045366
4939000,0.0324,0.013523,0.002678,0.000431,0.043368
4940000,0.0324,0.013523,0.002678,0.000431,0.043720
4941000,0.0324,0.013523,0.002678,0.000431,0.043720
4942000,0.0324,0.013523,0.002678,0.000431,0.047599
4943000,0.0324,0.013523,0.002678,0.000431,0.046071
4944000,0.0324,0.013523,0.002678,0.000431,0.043133
4945000,0.0324,0.013523,0.002678,0.000431,0.049714
4946000,0.0324,0.013523,0.002678,0.000431,0.047011
4947000,0.0324,0.013523,0.002678,0.000431,0.042545
4948000,0.0324,0.013523,0.002678,0.000431,0.045248
4949000,0.0324,0.013523,0.002678,0.000431,0.045366
4950000,0.0324,0.013523,0.002678,0.000431,0.046894
4951000,0.0324,0.013523,0.002678,0.000431,0.043720
4952000,0.0324,0.013523,0.002678,0.000431,0.044426
4953000,0.0324,0.013523,0.002678,0.000431,0.046776
4954000,0.0324,0.013523,0.002678,0.000431,0.044073
4955000,0.0324,0.013523,0.002678,0.000431,0.047599
4956000,0.0324,0.013523,0.002678,0.000431,0.043956
4957000,0.0324,0.013523,0.002678,0.000431,0.046776
4958000,0.0324,0.013523,0.002678,0.000431,0.044661
4959000,0.0324,0.013523,0.002678,0.000431,0.045366
4960000,0.0324,0.013523,0.002678,0.000431,0.046776
4961000,0.0324,0.013523,0.002678,0.000431,0.047246
4962000,0.0324,0.013523,0.002678,0.000431,0.046541
4963000,0.0324,0.013523,0.002678,0.000431,0.047129
4964000,0.0324,0.013523,0.002678,0.000431,0.044896
4965000,0.0324,0.013523,0.002678,0.000431,0.047364
4966000,0.0324,0.013523,0.002678,0.000431,0.044896
4967000,0.0324,0.013523,0.002678,0.000431,0.046541
4968000,0.0324,0.013523,0.002678,0.000431,0.047246
4969000,0.0324,0.013523,0.002678,0.000431,0.049127
4970000,0.0324,0.013523,0.002678,0.000431,0.044191
4971000,0.0324,0.013523,0.002678,0.000431,0.045718
4972000,0.0324,0.013523,0.002678,0.000431,0.045954
4973000,0.0324,0.013523,0.002678,0.000431,0.043603
4974000,0.0324,0.013523,0.002678,0.000431,0.046541
4975000,0.0324,0.013523,0.002678,0.000431,0.044073
4976000,0.0324,0.013523,0.002678,0.000431,0.045836
4977000,0.0324,0.013523,0.002678,0.000431,0.047011
4978000,0.0324,0.013523,0.002678,0.000431,0.043133
4979000,0.0324,0.013523,0.002678,0.000431,0.042193
4980000,0.0324,0.013523,0.002678,0.000431,0.047246
4981000,0.0324,0.013523,0.002678,0.000431,0.046306
4982000,0.0324,0.013523,0.002678,0.000431,0.044191
4983000,0.0324,0.013523,0.002678,0.000431,0.045718
4984000,0.0324,0.013523,0.002678,0.000431,0.046659
4985000,0.0324,0.013523,0.002678,0.000431,0.044543
4986000,0.0324,0.013523,0.002678,0.000431,0.047011
4987000,0.0324,0.013523,0.002678,0.000431,0.041487
4988000,0.0324,0.013523,0.002678,0.000431,0.047129
4989000,0.0324,0.013523,0.002678,0.000431,0.046659
4990000,0.0324,0.013523,0.002678,0.000431,0.047364
4991000,0.0324,0.013523,0.002678,0.000431,0.047246
4992000,0.0324,0.013523,0.002678,0.000431,0.046424
4993000,0.0324,0.013523,0.002678,0.000431,0.045718
4994000,0.0324,0.013523,0.002678,0.000431,0.045013
4995000,0.0324,0.013523,0.002678,0.000431,0.047834
4996000,0.0324,0.013523,0.002678,0.000431,0.043485
4997000,0.0324,0.013523,0.002678,0.000431,0.045131
4998000,0.0324,0.013523,0.002678,0.000431,0.043603
4999000,0.0324,0.013523,0.002678,0.000431,0.046776
