Cycle,Area(mm^2),PeakDynamic(W),SubthresholdLeakage(W),GateLeakage(W),RunTimeDynamic(W)
13000000,0.0324,0.013523,0.002678,0.000431,0.008932
13001000,0.0324,0.013523,0.002678,0.000431,0.008345
13002000,0.0324,0.013523,0.002678,0.000431,0.008697
13003000,0.0324,0.013523,0.002678,0.000431,0.008580
13004000,0.0324,0.013523,0.002678,0.000431,0.009167
13005000,0.0324,0.013523,0.002678,0.000431,0.009050
13006000,0.0324,0.013523,0.002678,0.000431,0.008815
13007000,0.0324,0.013523,0.002678,0.000431,0.008697
13008000,0.0324,0.013523,0.002678,0.000431,0.009285
13009000,0.0324,0.013523,0.002678,0.000431,0.008580
13010000,0.0324,0.013523,0.002678,0.000431,0.009520
13011000,0.0324,0.013523,0.002678,0.000431,0.008697
13012000,0.0324,0.013523,0.002678,0.000431,0.008345
13013000,0.0324,0.013523,0.002678,0.000431,0.008932
13014000,0.0324,0.013523,0.002678,0.000431,0.008227
13015000,0.0324,0.013523,0.002678,0.000431,0.008580
13016000,0.0324,0.013523,0.002678,0.000431,0.007874
13017000,0.0324,0.013523,0.002678,0.000431,0.009167
13018000,0.0324,0.013523,0.002678,0.000431,0.008815
13019000,0.0324,0.013523,0.002678,0.000431,0.009285
13020000,0.0324,0.013523,0.002678,0.000431,0.008462
13021000,0.0324,0.013523,0.002678,0.000431,0.010225
13022000,0.0324,0.013523,0.002678,0.000431,0.008462
13023000,0.0324,0.013523,0.002678,0.000431,0.008462
13024000,0.0324,0.013523,0.002678,0.000431,0.009520
13025000,0.0324,0.013523,0.002678,0.000431,0.008345
13026000,0.0324,0.013523,0.002678,0.000431,0.008227
13027000,0.0324,0.013523,0.002678,0.000431,0.009285
13028000,0.0324,0.013523,0.002678,0.000431,0.009285
13029000,0.0324,0.013523,0.002678,0.000431,0.008580
13030000,0.0324,0.013523,0.002678,0.000431,0.008815
13031000,0.0324,0.013523,0.002678,0.000431,0.007874
13032000,0.0324,0.013523,0.002678,0.000431,0.009402
13033000,0.0324,0.013523,0.002678,0.000431,0.008697
13034000,0.0324,0.013523,0.002678,0.000431,0.009285
13035000,0.0324,0.013523,0.002678,0.000431,0.008345
13036000,0.0324,0.013523,0.002678,0.000431,0.010225
13037000,0.0324,0.013523,0.002678,0.000431,0.008815
13038000,0.0324,0.013523,0.002678,0.000431,0.008697
13039000,0.0324,0.013523,0.002678,0.000431,0.009050
13040000,0.0324,0.013523,0.002678,0.000431,0.008932
13041000,0.0324,0.013523,0.002678,0.000431,0.009520
13042000,0.0324,0.013523,0.002678,0.000431,0.007404
13043000,0.0324,0.013523,0.002678,0.000431,0.008227
13044000,0.0324,0.013523,0.002678,0.000431,0.008932
13045000,0.0324,0.013523,0.002678,0.000431,0.009285
13046000,0.0324,0.013523,0.002678,0.000431,0.008345
13047000,0.0324,0.013523,0.002678,0.000431,0.009167
13048000,0.0324,0.013523,0.002678,0.000431,0.008815
13049000,0.0324,0.013523,0.002678,0.000431,0.008462
13050000,0.0324,0.013523,0.002678,0.000431,0.008580
13051000,0.0324,0.013523,0.002678,0.000431,0.010107
13052000,0.0324,0.013523,0.002678,0.000431,0.007522
13053000,0.0324,0.013523,0.002678,0.000431,0.008815
13054000,0.0324,0.013523,0.002678,0.000431,0.008815
13055000,0.0324,0.013523,0.002678,0.000431,0.009520
13056000,0.0324,0.013523,0.002678,0.000431,0.009167
13057000,0.0324,0.013523,0.002678,0.000431,0.008580
13058000,0.0324,0.013523,0.002678,0.000431,0.009637
13059000,0.0324,0.013523,0.002678,0.000431,0.008109
13060000,0.0324,0.013523,0.002678,0.000431,0.008580
13061000,0.0324,0.013523,0.002678,0.000431,0.008345
13062000,0.0324,0.013523,0.002678,0.000431,0.009050
13063000,0.0324,0.013523,0.002678,0.000431,0.009285
13064000,0.0324,0.013523,0.002678,0.000431,0.007404
13065000,0.0324,0.013523,0.002678,0.000431,0.009520
13066000,0.0324,0.013523,0.002678,0.000431,0.009285
13067000,0.0324,0.013523,0.002678,0.000431,0.009050
13068000,0.0324,0.013523,0.002678,0.000431,0.009167
13069000,0.0324,0.013523,0.002678,0.000431,0.009050
13070000,0.0324,0.013523,0.002678,0.000431,0.008345
13071000,0.0324,0.013523,0.002678,0.000431,0.009050
13072000,0.0324,0.013523,0.002678,0.000431,0.009050
13073000,0.0324,0.013523,0.002678,0.000431,0.007992
13074000,0.0324,0.013523,0.002678,0.000431,0.008462
13075000,0.0324,0.013523,0.002678,0.000431,0.008697
13076000,0.0324,0.013523,0.002678,0.000431,0.007639
13077000,0.0324,0.013523,0.002678,0.000431,0.010107
13078000,0.0324,0.013523,0.002678,0.000431,0.007639
13079000,0.0324,0.013523,0.002678,0.000431,0.009637
13080000,0.0324,0.013523,0.002678,0.000431,0.008227
13081000,0.0324,0.013523,0.002678,0.000431,0.008932
13082000,0.0324,0.013523,0.002678,0.000431,0.009167
13083000,0.0324,0.013523,0.002678,0.000431,0.007992
13084000,0.0324,0.013523,0.002678,0.000431,0.009402
13085000,0.0324,0.013523,0.002678,0.000431,0.008697
13086000,0.0324,0.013523,0.002678,0.000431,0.009167
13087000,0.0324,0.013523,0.002678,0.000431,0.008345
13088000,0.0324,0.013523,0.002678,0.000431,0.008815
13089000,0.0324,0.013523,0.002678,0.000431,0.008345
13090000,0.0324,0.013523,0.002678,0.000431,0.008345
13091000,0.0324,0.013523,0.002678,0.000431,0.007874
13092000,0.0324,0.013523,0.002678,0.000431,0.009520
13093000,0.0324,0.013523,0.002678,0.000431,0.006934
13094000,0.0324,0.013523,0.002678,0.000431,0.009050
13095000,0.0324,0.013523,0.002678,0.000431,0.008462
13096000,0.0324,0.013523,0.002678,0.000431,0.008697
13097000,0.0324,0.013523,0.002678,0.000431,0.008697
13098000,0.0324,0.013523,0.002678,0.000431,0.008932
13099000,0.0324,0.013523,0.002678,0.000431,0.009520
13100000,0.0324,0.013523,0.002678,0.000431,0.008109
13101000,0.0324,0.013523,0.002678,0.000431,0.008932
13102000,0.0324,0.013523,0.002678,0.000431,0.008109
13103000,0.0324,0.013523,0.002678,0.000431,0.008932
13104000,0.0324,0.013523,0.002678,0.000431,0.008109
13105000,0.0324,0.013523,0.002678,0.000431,0.008815
13106000,0.0324,0.013523,0.002678,0.000431,0.009050
13107000,0.0324,0.013523,0.002678,0.000431,0.009285
13108000,0.0324,0.013523,0.002678,0.000431,0.008932
13109000,0.0324,0.013523,0.002678,0.000431,0.009285
13110000,0.0324,0.013523,0.002678,0.000431,0.008697
13111000,0.0324,0.013523,0.002678,0.000431,0.008345
13112000,0.0324,0.013523,0.002678,0.000431,0.008580
13113000,0.0324,0.013523,0.002678,0.000431,0.008697
13114000,0.0324,0.013523,0.002678,0.000431,0.008462
13115000,0.0324,0.013523,0.002678,0.000431,0.008697
13116000,0.0324,0.013523,0.002678,0.000431,0.009520
13117000,0.0324,0.013523,0.002678,0.000431,0.007992
13118000,0.0324,0.013523,0.002678,0.000431,0.009872
13119000,0.0324,0.013523,0.002678,0.000431,0.008345
13120000,0.0324,0.013523,0.002678,0.000431,0.008815
13121000,0.0324,0.013523,0.002678,0.000431,0.009402
13122000,0.0324,0.013523,0.002678,0.000431,0.009050
13123000,0.0324,0.013523,0.002678,0.000431,0.008109
13124000,0.0324,0.013523,0.002678,0.000431,0.007992
13125000,0.0324,0.013523,0.002678,0.000431,0.008932
13126000,0.0324,0.013523,0.002678,0.000431,0.009872
13127000,0.0324,0.013523,0.002678,0.000431,0.008227
13128000,0.0324,0.013523,0.002678,0.000431,0.008697
13129000,0.0324,0.013523,0.002678,0.000431,0.009755
13130000,0.0324,0.013523,0.002678,0.000431,0.008345
13131000,0.0324,0.013523,0.002678,0.000431,0.009050
13132000,0.0324,0.013523,0.002678,0.000431,0.009167
13133000,0.0324,0.013523,0.002678,0.000431,0.009167
13134000,0.0324,0.013523,0.002678,0.000431,0.007874
13135000,0.0324,0.013523,0.002678,0.000431,0.008815
13136000,0.0324,0.013523,0.002678,0.000431,0.009402
13137000,0.0324,0.013523,0.002678,0.000431,0.008580
13138000,0.0324,0.013523,0.002678,0.000431,0.008109
13139000,0.0324,0.013523,0.002678,0.000431,0.008815
13140000,0.0324,0.013523,0.002678,0.000431,0.008932
13141000,0.0324,0.013523,0.002678,0.000431,0.007639
13142000,0.0324,0.013523,0.002678,0.000431,0.008345
13143000,0.0324,0.013523,0.002678,0.000431,0.008227
13144000,0.0324,0.013523,0.002678,0.000431,0.009402
13145000,0.0324,0.013523,0.002678,0.000431,0.009402
13146000,0.0324,0.013523,0.002678,0.000431,0.008227
13147000,0.0324,0.013523,0.002678,0.000431,0.008697
13148000,0.0324,0.013523,0.002678,0.000431,0.009050
13149000,0.0324,0.013523,0.002678,0.000431,0.008227
13150000,0.0324,0.013523,0.002678,0.000431,0.009285
13151000,0.0324,0.013523,0.002678,0.000431,0.009050
13152000,0.0324,0.013523,0.002678,0.000431,0.008462
13153000,0.0324,0.013523,0.002678,0.000431,0.008345
13154000,0.0324,0.013523,0.002678,0.000431,0.009402
13155000,0.0324,0.013523,0.002678,0.000431,0.008109
13156000,0.0324,0.013523,0.002678,0.000431,0.008345
13157000,0.0324,0.013523,0.002678,0.000431,0.009167
13158000,0.0324,0.013523,0.002678,0.000431,0.008227
13159000,0.0324,0.013523,0.002678,0.000431,0.009520
13160000,0.0324,0.013523,0.002678,0.000431,0.008580
13161000,0.0324,0.013523,0.002678,0.000431,0.008580
13162000,0.0324,0.013523,0.002678,0.000431,0.008227
13163000,0.0324,0.013523,0.002678,0.000431,0.009637
13164000,0.0324,0.013523,0.002678,0.000431,0.008227
13165000,0.0324,0.013523,0.002678,0.000431,0.008462
13166000,0.0324,0.013523,0.002678,0.000431,0.008345
13167000,0.0324,0.013523,0.002678,0.000431,0.009520
13168000,0.0324,0.013523,0.002678,0.000431,0.008462
13169000,0.0324,0.013523,0.002678,0.000431,0.008345
13170000,0.0324,0.013523,0.002678,0.000431,0.009050
13171000,0.0324,0.013523,0.002678,0.000431,0.008227
13172000,0.0324,0.013523,0.002678,0.000431,0.008462
13173000,0.0324,0.013523,0.002678,0.000431,0.008345
13174000,0.0324,0.013523,0.002678,0.000431,0.008580
13175000,0.0324,0.013523,0.002678,0.000431,0.008227
13176000,0.0324,0.013523,0.002678,0.000431,0.008580
13177000,0.0324,0.013523,0.002678,0.000431,0.009050
13178000,0.0324,0.013523,0.002678,0.000431,0.008227
13179000,0.0324,0.013523,0.002678,0.000431,0.008462
13180000,0.0324,0.013523,0.002678,0.000431,0.007522
13181000,0.0324,0.013523,0.002678,0.000431,0.007992
13182000,0.0324,0.013523,0.002678,0.000431,0.008580
13183000,0.0324,0.013523,0.002678,0.000431,0.007874
13184000,0.0324,0.013523,0.002678,0.000431,0.008697
13185000,0.0324,0.013523,0.002678,0.000431,0.008227
13186000,0.0324,0.013523,0.002678,0.000431,0.008580
13187000,0.0324,0.013523,0.002678,0.000431,0.007757
13188000,0.0324,0.013523,0.002678,0.000431,0.008227
13189000,0.0324,0.013523,0.002678,0.000431,0.007639
13190000,0.0324,0.013523,0.002678,0.000431,0.007992
13191000,0.0324,0.013523,0.002678,0.000431,0.008815
13192000,0.0324,0.013523,0.002678,0.000431,0.007404
13193000,0.0324,0.013523,0.002678,0.000431,0.008815
13194000,0.0324,0.013523,0.002678,0.000431,0.008580
13195000,0.0324,0.013523,0.002678,0.000431,0.008345
13196000,0.0324,0.013523,0.002678,0.000431,0.008462
13197000,0.0324,0.013523,0.002678,0.000431,0.008345
13198000,0.0324,0.013523,0.002678,0.000431,0.008109
13199000,0.0324,0.013523,0.002678,0.000431,0.008227
13200000,0.0324,0.013523,0.002678,0.000431,0.008697
13201000,0.0324,0.013523,0.002678,0.000431,0.008462
13202000,0.0324,0.013523,0.002678,0.000431,0.008227
13203000,0.0324,0.013523,0.002678,0.000431,0.008345
13204000,0.0324,0.013523,0.002678,0.000431,0.008697
13205000,0.0324,0.013523,0.002678,0.000431,0.008932
13206000,0.0324,0.013523,0.002678,0.000431,0.007874
13207000,0.0324,0.013523,0.002678,0.000431,0.008697
13208000,0.0324,0.013523,0.002678,0.000431,0.009050
13209000,0.0324,0.013523,0.002678,0.000431,0.008227
13210000,0.0324,0.013523,0.002678,0.000431,0.008227
13211000,0.0324,0.013523,0.002678,0.000431,0.007639
13212000,0.0324,0.013523,0.002678,0.000431,0.008932
13213000,0.0324,0.013523,0.002678,0.000431,0.008227
13214000,0.0324,0.013523,0.002678,0.000431,0.009520
13215000,0.0324,0.013523,0.002678,0.000431,0.008109
13216000,0.0324,0.013523,0.002678,0.000431,0.008227
13217000,0.0324,0.013523,0.002678,0.000431,0.009285
13218000,0.0324,0.013523,0.002678,0.000431,0.008462
13219000,0.0324,0.013523,0.002678,0.000431,0.008580
13220000,0.0324,0.013523,0.002678,0.000431,0.008462
13221000,0.0324,0.013523,0.002678,0.000431,0.009285
13222000,0.0324,0.013523,0.002678,0.000431,0.008580
13223000,0.0324,0.013523,0.002678,0.000431,0.008462
13224000,0.0324,0.013523,0.002678,0.000431,0.008815
13225000,0.0324,0.013523,0.002678,0.000431,0.007169
13226000,0.0324,0.013523,0.002678,0.000431,0.008932
13227000,0.0324,0.013523,0.002678,0.000431,0.009285
13228000,0.0324,0.013523,0.002678,0.000431,0.007757
13229000,0.0324,0.013523,0.002678,0.000431,0.008697
13230000,0.0324,0.013523,0.002678,0.000431,0.008227
13231000,0.0324,0.013523,0.002678,0.000431,0.008580
13232000,0.0324,0.013523,0.002678,0.000431,0.007992
13233000,0.0324,0.013523,0.002678,0.000431,0.009167
13234000,0.0324,0.013523,0.002678,0.000431,0.008109
13235000,0.0324,0.013523,0.002678,0.000431,0.008815
13236000,0.0324,0.013523,0.002678,0.000431,0.009167
13237000,0.0324,0.013523,0.002678,0.000431,0.008815
13238000,0.0324,0.013523,0.002678,0.000431,0.008580
13239000,0.0324,0.013523,0.002678,0.000431,0.008580
13240000,0.0324,0.013523,0.002678,0.000431,0.007522
13241000,0.0324,0.013523,0.002678,0.000431,0.009167
13242000,0.0324,0.013523,0.002678,0.000431,0.007874
13243000,0.0324,0.013523,0.002678,0.000431,0.008227
13244000,0.0324,0.013523,0.002678,0.000431,0.007639
13245000,0.0324,0.013523,0.002678,0.000431,0.008345
13246000,0.0324,0.013523,0.002678,0.000431,0.009402
13247000,0.0324,0.013523,0.002678,0.000431,0.007757
13248000,0.0324,0.013523,0.002678,0.000431,0.009285
13249000,0.0324,0.013523,0.002678,0.000431,0.007757
13250000,0.0324,0.013523,0.002678,0.000431,0.007404
13251000,0.0324,0.013523,0.002678,0.000431,0.008697
13252000,0.0324,0.013523,0.002678,0.000431,0.007639
13253000,0.0324,0.013523,0.002678,0.000431,0.007992
13254000,0.0324,0.013523,0.002678,0.000431,0.007992
13255000,0.0324,0.013523,0.002678,0.000431,0.007757
13256000,0.0324,0.013523,0.002678,0.000431,0.007757
13257000,0.0324,0.013523,0.002678,0.000431,0.007874
13258000,0.0324,0.013523,0.002678,0.000431,0.009285
13259000,0.0324,0.013523,0.002678,0.000431,0.008109
13260000,0.0324,0.013523,0.002678,0.000431,0.007992
13261000,0.0324,0.013523,0.002678,0.000431,0.008462
13262000,0.0324,0.013523,0.002678,0.000431,0.007639
13263000,0.0324,0.013523,0.002678,0.000431,0.008109
13264000,0.0324,0.013523,0.002678,0.000431,0.008697
13265000,0.0324,0.013523,0.002678,0.000431,0.008580
13266000,0.0324,0.013523,0.002678,0.000431,0.008580
13267000,0.0324,0.013523,0.002678,0.000431,0.008109
13268000,0.0324,0.013523,0.002678,0.000431,0.007522
13269000,0.0324,0.013523,0.002678,0.000431,0.008462
13270000,0.0324,0.013523,0.002678,0.000431,0.008227
13271000,0.0324,0.013523,0.002678,0.000431,0.007169
13272000,0.0324,0.013523,0.002678,0.000431,0.008227
13273000,0.0324,0.013523,0.002678,0.000431,0.007992
13274000,0.0324,0.013523,0.002678,0.000431,0.007169
13275000,0.0324,0.013523,0.002678,0.000431,0.008345
13276000,0.0324,0.013523,0.002678,0.000431,0.007992
13277000,0.0324,0.013523,0.002678,0.000431,0.008580
13278000,0.0324,0.013523,0.002678,0.000431,0.008227
13279000,0.0324,0.013523,0.002678,0.000431,0.008227
13280000,0.0324,0.013523,0.002678,0.000431,0.008462
13281000,0.0324,0.013523,0.002678,0.000431,0.008580
13282000,0.0324,0.013523,0.002678,0.000431,0.008227
13283000,0.0324,0.013523,0.002678,0.000431,0.009402
13284000,0.0324,0.013523,0.002678,0.000431,0.008227
13285000,0.0324,0.013523,0.002678,0.000431,0.009050
13286000,0.0324,0.013523,0.002678,0.000431,0.008345
13287000,0.0324,0.013523,0.002678,0.000431,0.008580
13288000,0.0324,0.013523,0.002678,0.000431,0.009285
13289000,0.0324,0.013523,0.002678,0.000431,0.007169
13290000,0.0324,0.013523,0.002678,0.000431,0.008697
13291000,0.0324,0.013523,0.002678,0.000431,0.008227
13292000,0.0324,0.013523,0.002678,0.000431,0.007757
13293000,0.0324,0.013523,0.002678,0.000431,0.009167
13294000,0.0324,0.013523,0.002678,0.000431,0.007757
13295000,0.0324,0.013523,0.002678,0.000431,0.009050
13296000,0.0324,0.013523,0.002678,0.000431,0.007992
13297000,0.0324,0.013523,0.002678,0.000431,0.008815
13298000,0.0324,0.013523,0.002678,0.000431,0.008109
13299000,0.0324,0.013523,0.002678,0.000431,0.008462
13300000,0.0324,0.013523,0.002678,0.000431,0.007992
13301000,0.0324,0.013523,0.002678,0.000431,0.007757
13302000,0.0324,0.013523,0.002678,0.000431,0.008815
13303000,0.0324,0.013523,0.002678,0.000431,0.008462
13304000,0.0324,0.013523,0.002678,0.000431,0.007874
13305000,0.0324,0.013523,0.002678,0.000431,0.008109
13306000,0.0324,0.013523,0.002678,0.000431,0.008697
13307000,0.0324,0.013523,0.002678,0.000431,0.007874
13308000,0.0324,0.013523,0.002678,0.000431,0.008462
13309000,0.0324,0.013523,0.002678,0.000431,0.008109
13310000,0.0324,0.013523,0.002678,0.000431,0.007992
13311000,0.0324,0.013523,0.002678,0.000431,0.007874
13312000,0.0324,0.013523,0.002678,0.000431,0.009520
13313000,0.0324,0.013523,0.002678,0.000431,0.006934
13314000,0.0324,0.013523,0.002678,0.000431,0.007992
13315000,0.0324,0.013523,0.002678,0.000431,0.007757
13316000,0.0324,0.013523,0.002678,0.000431,0.008580
13317000,0.0324,0.013523,0.002678,0.000431,0.008345
13318000,0.0324,0.013523,0.002678,0.000431,0.007992
13319000,0.0324,0.013523,0.002678,0.000431,0.007874
13320000,0.0324,0.013523,0.002678,0.000431,0.007992
13321000,0.0324,0.013523,0.002678,0.000431,0.008580
13322000,0.0324,0.013523,0.002678,0.000431,0.007992
13323000,0.0324,0.013523,0.002678,0.000431,0.007757
13324000,0.0324,0.013523,0.002678,0.000431,0.008227
13325000,0.0324,0.013523,0.002678,0.000431,0.007992
13326000,0.0324,0.013523,0.002678,0.000431,0.008345
13327000,0.0324,0.013523,0.002678,0.000431,0.008227
13328000,0.0324,0.013523,0.002678,0.000431,0.007404
13329000,0.0324,0.013523,0.002678,0.000431,0.008815
13330000,0.0324,0.013523,0.002678,0.000431,0.008345
13331000,0.0324,0.013523,0.002678,0.000431,0.008462
13332000,0.0324,0.013523,0.002678,0.000431,0.007992
13333000,0.0324,0.013523,0.002678,0.000431,0.008345
13334000,0.0324,0.013523,0.002678,0.000431,0.008815
13335000,0.0324,0.013523,0.002678,0.000431,0.008462
13336000,0.0324,0.013523,0.002678,0.000431,0.007992
13337000,0.0324,0.013523,0.002678,0.000431,0.008580
13338000,0.0324,0.013523,0.002678,0.000431,0.007639
13339000,0.0324,0.013523,0.002678,0.000431,0.008109
13340000,0.0324,0.013523,0.002678,0.000431,0.008815
13341000,0.0324,0.013523,0.002678,0.000431,0.008580
13342000,0.0324,0.013523,0.002678,0.000431,0.006934
13343000,0.0324,0.013523,0.002678,0.000431,0.007874
13344000,0.0324,0.013523,0.002678,0.000431,0.008697
13345000,0.0324,0.013523,0.002678,0.000431,0.007992
13346000,0.0324,0.013523,0.002678,0.000431,0.008227
13347000,0.0324,0.013523,0.002678,0.000431,0.008109
13348000,0.0324,0.013523,0.002678,0.000431,0.008345
13349000,0.0324,0.013523,0.002678,0.000431,0.008227
13350000,0.0324,0.013523,0.002678,0.000431,0.009167
13351000,0.0324,0.013523,0.002678,0.000431,0.008462
13352000,0.0324,0.013523,0.002678,0.000431,0.008580
13353000,0.0324,0.013523,0.002678,0.000431,0.007639
13354000,0.0324,0.013523,0.002678,0.000431,0.008580
13355000,0.0324,0.013523,0.002678,0.000431,0.007287
13356000,0.0324,0.013523,0.002678,0.000431,0.009402
13357000,0.0324,0.013523,0.002678,0.000431,0.008345
13358000,0.0324,0.013523,0.002678,0.000431,0.008109
13359000,0.0324,0.013523,0.002678,0.000431,0.008932
13360000,0.0324,0.013523,0.002678,0.000431,0.008580
13361000,0.0324,0.013523,0.002678,0.000431,0.008227
13362000,0.0324,0.013523,0.002678,0.000431,0.008345
13363000,0.0324,0.013523,0.002678,0.000431,0.008697
13364000,0.0324,0.013523,0.002678,0.000431,0.008227
13365000,0.0324,0.013523,0.002678,0.000431,0.008345
13366000,0.0324,0.013523,0.002678,0.000431,0.008580
13367000,0.0324,0.013523,0.002678,0.000431,0.007404
13368000,0.0324,0.013523,0.002678,0.000431,0.007992
13369000,0.0324,0.013523,0.002678,0.000431,0.008697
13370000,0.0324,0.013523,0.002678,0.000431,0.007874
13371000,0.0324,0.013523,0.002678,0.000431,0.009167
13372000,0.0324,0.013523,0.002678,0.000431,0.008345
13373000,0.0324,0.013523,0.002678,0.000431,0.008462
13374000,0.0324,0.013523,0.002678,0.000431,0.008227
13375000,0.0324,0.013523,0.002678,0.000431,0.008345
13376000,0.0324,0.013523,0.002678,0.000431,0.009285
13377000,0.0324,0.013523,0.002678,0.000431,0.007757
13378000,0.0324,0.013523,0.002678,0.000431,0.008932
13379000,0.0324,0.013523,0.002678,0.000431,0.008345
13380000,0.0324,0.013523,0.002678,0.000431,0.008462
13381000,0.0324,0.013523,0.002678,0.000431,0.009167
13382000,0.0324,0.013523,0.002678,0.000431,0.008580
13383000,0.0324,0.013523,0.002678,0.000431,0.008462
13384000,0.0324,0.013523,0.002678,0.000431,0.007874
13385000,0.0324,0.013523,0.002678,0.000431,0.008932
13386000,0.0324,0.013523,0.002678,0.000431,0.008697
13387000,0.0324,0.013523,0.002678,0.000431,0.007992
13388000,0.0324,0.013523,0.002678,0.000431,0.009520
13389000,0.0324,0.013523,0.002678,0.000431,0.008345
13390000,0.0324,0.013523,0.002678,0.000431,0.009167
13391000,0.0324,0.013523,0.002678,0.000431,0.008815
13392000,0.0324,0.013523,0.002678,0.000431,0.008109
13393000,0.0324,0.013523,0.002678,0.000431,0.009050
13394000,0.0324,0.013523,0.002678,0.000431,0.008109
13395000,0.0324,0.013523,0.002678,0.000431,0.007522
13396000,0.0324,0.013523,0.002678,0.000431,0.008697
13397000,0.0324,0.013523,0.002678,0.000431,0.008227
13398000,0.0324,0.013523,0.002678,0.000431,0.008697
13399000,0.0324,0.013523,0.002678,0.000431,0.007757
13400000,0.0324,0.013523,0.002678,0.000431,0.009520
13401000,0.0324,0.013523,0.002678,0.000431,0.007992
13402000,0.0324,0.013523,0.002678,0.000431,0.008580
13403000,0.0324,0.013523,0.002678,0.000431,0.007757
13404000,0.0324,0.013523,0.002678,0.000431,0.008345
13405000,0.0324,0.013523,0.002678,0.000431,0.008932
13406000,0.0324,0.013523,0.002678,0.000431,0.008345
13407000,0.0324,0.013523,0.002678,0.000431,0.008932
13408000,0.0324,0.013523,0.002678,0.000431,0.007639
13409000,0.0324,0.013523,0.002678,0.000431,0.008227
13410000,0.0324,0.013523,0.002678,0.000431,0.008345
13411000,0.0324,0.013523,0.002678,0.000431,0.007874
13412000,0.0324,0.013523,0.002678,0.000431,0.007639
13413000,0.0324,0.013523,0.002678,0.000431,0.008227
13414000,0.0324,0.013523,0.002678,0.000431,0.007052
13415000,0.0324,0.013523,0.002678,0.000431,0.009520
13416000,0.0324,0.013523,0.002678,0.000431,0.008345
13417000,0.0324,0.013523,0.002678,0.000431,0.008580
13418000,0.0324,0.013523,0.002678,0.000431,0.008109
13419000,0.0324,0.013523,0.002678,0.000431,0.007404
13420000,0.0324,0.013523,0.002678,0.000431,0.007874
13421000,0.0324,0.013523,0.002678,0.000431,0.007992
13422000,0.0324,0.013523,0.002678,0.000431,0.008932
13423000,0.0324,0.013523,0.002678,0.000431,0.008227
13424000,0.0324,0.013523,0.002678,0.000431,0.008580
13425000,0.0324,0.013523,0.002678,0.000431,0.008109
13426000,0.0324,0.013523,0.002678,0.000431,0.008345
13427000,0.0324,0.013523,0.002678,0.000431,0.007639
13428000,0.0324,0.013523,0.002678,0.000431,0.008227
13429000,0.0324,0.013523,0.002678,0.000431,0.009167
13430000,0.0324,0.013523,0.002678,0.000431,0.008345
13431000,0.0324,0.013523,0.002678,0.000431,0.008815
13432000,0.0324,0.013523,0.002678,0.000431,0.008462
13433000,0.0324,0.013523,0.002678,0.000431,0.008815
13434000,0.0324,0.013523,0.002678,0.000431,0.008697
13435000,0.0324,0.013523,0.002678,0.000431,0.009167
13436000,0.0324,0.013523,0.002678,0.000431,0.008227
13437000,0.0324,0.013523,0.002678,0.000431,0.007874
13438000,0.0324,0.013523,0.002678,0.000431,0.008580
13439000,0.0324,0.013523,0.002678,0.000431,0.008932
13440000,0.0324,0.013523,0.002678,0.000431,0.008580
13441000,0.0324,0.013523,0.002678,0.000431,0.008580
13442000,0.0324,0.013523,0.002678,0.000431,0.008109
13443000,0.0324,0.013523,0.002678,0.000431,0.007757
13444000,0.0324,0.013523,0.002678,0.000431,0.007757
13445000,0.0324,0.013523,0.002678,0.000431,0.007874
13446000,0.0324,0.013523,0.002678,0.000431,0.007757
13447000,0.0324,0.013523,0.002678,0.000431,0.008227
13448000,0.0324,0.013523,0.002678,0.000431,0.008462
13449000,0.0324,0.013523,0.002678,0.000431,0.009050
13450000,0.0324,0.013523,0.002678,0.000431,0.008345
13451000,0.0324,0.013523,0.002678,0.000431,0.008815
13452000,0.0324,0.013523,0.002678,0.000431,0.008815
13453000,0.0324,0.013523,0.002678,0.000431,0.008932
13454000,0.0324,0.013523,0.002678,0.000431,0.008109
13455000,0.0324,0.013523,0.002678,0.000431,0.007874
13456000,0.0324,0.013523,0.002678,0.000431,0.008109
13457000,0.0324,0.013523,0.002678,0.000431,0.008580
13458000,0.0324,0.013523,0.002678,0.000431,0.007639
13459000,0.0324,0.013523,0.002678,0.000431,0.008109
13460000,0.0324,0.013523,0.002678,0.000431,0.008697
13461000,0.0324,0.013523,0.002678,0.000431,0.007757
13462000,0.0324,0.013523,0.002678,0.000431,0.008227
13463000,0.0324,0.013523,0.002678,0.000431,0.008109
13464000,0.0324,0.013523,0.002678,0.000431,0.008109
13465000,0.0324,0.013523,0.002678,0.000431,0.007522
13466000,0.0324,0.013523,0.002678,0.000431,0.008580
13467000,0.0324,0.013523,0.002678,0.000431,0.007169
13468000,0.0324,0.013523,0.002678,0.000431,0.007757
13469000,0.0324,0.013523,0.002678,0.000431,0.007639
13470000,0.0324,0.013523,0.002678,0.000431,0.007874
13471000,0.0324,0.013523,0.002678,0.000431,0.007287
13472000,0.0324,0.013523,0.002678,0.000431,0.008580
13473000,0.0324,0.013523,0.002678,0.000431,0.008580
13474000,0.0324,0.013523,0.002678,0.000431,0.007639
13475000,0.0324,0.013523,0.002678,0.000431,0.007287
13476000,0.0324,0.013523,0.002678,0.000431,0.008345
13477000,0.0324,0.013523,0.002678,0.000431,0.007639
13478000,0.0324,0.013523,0.002678,0.000431,0.009285
13479000,0.0324,0.013523,0.002678,0.000431,0.008462
13480000,0.0324,0.013523,0.002678,0.000431,0.007757
13481000,0.0324,0.013523,0.002678,0.000431,0.008109
13482000,0.0324,0.013523,0.002678,0.000431,0.008227
13483000,0.0324,0.013523,0.002678,0.000431,0.009050
13484000,0.0324,0.013523,0.002678,0.000431,0.008227
13485000,0.0324,0.013523,0.002678,0.000431,0.007874
13486000,0.0324,0.013523,0.002678,0.000431,0.007992
13487000,0.0324,0.013523,0.002678,0.000431,0.009637
13488000,0.0324,0.013523,0.002678,0.000431,0.008462
13489000,0.0324,0.013523,0.002678,0.000431,0.008697
13490000,0.0324,0.013523,0.002678,0.000431,0.009050
13491000,0.0324,0.013523,0.002678,0.000431,0.008109
13492000,0.0324,0.013523,0.002678,0.000431,0.008697
13493000,0.0324,0.013523,0.002678,0.000431,0.009050
13494000,0.0324,0.013523,0.002678,0.000431,0.009637
13495000,0.0324,0.013523,0.002678,0.000431,0.008109
13496000,0.0324,0.013523,0.002678,0.000431,0.007992
13497000,0.0324,0.013523,0.002678,0.000431,0.007992
13498000,0.0324,0.013523,0.002678,0.000431,0.008697
13499000,0.0324,0.013523,0.002678,0.000431,0.008462
13500000,0.0324,0.013523,0.002678,0.000431,0.008580
13501000,0.0324,0.013523,0.002678,0.000431,0.007992
13502000,0.0324,0.013523,0.002678,0.000431,0.008580
13503000,0.0324,0.013523,0.002678,0.000431,0.008697
13504000,0.0324,0.013523,0.002678,0.000431,0.008580
13505000,0.0324,0.013523,0.002678,0.000431,0.008227
13506000,0.0324,0.013523,0.002678,0.000431,0.007522
13507000,0.0324,0.013523,0.002678,0.000431,0.009167
13508000,0.0324,0.013523,0.002678,0.000431,0.008109
13509000,0.0324,0.013523,0.002678,0.000431,0.008227
13510000,0.0324,0.013523,0.002678,0.000431,0.008697
13511000,0.0324,0.013523,0.002678,0.000431,0.008932
13512000,0.0324,0.013523,0.002678,0.000431,0.008932
13513000,0.0324,0.013523,0.002678,0.000431,0.008580
13514000,0.0324,0.013523,0.002678,0.000431,0.008815
13515000,0.0324,0.013523,0.002678,0.000431,0.007404
13516000,0.0324,0.013523,0.002678,0.000431,0.008580
13517000,0.0324,0.013523,0.002678,0.000431,0.010107
13518000,0.0324,0.013523,0.002678,0.000431,0.008462
13519000,0.0324,0.013523,0.002678,0.000431,0.008345
13520000,0.0324,0.013523,0.002678,0.000431,0.008345
13521000,0.0324,0.013523,0.002678,0.000431,0.008932
13522000,0.0324,0.013523,0.002678,0.000431,0.009050
13523000,0.0324,0.013523,0.002678,0.000431,0.008462
13524000,0.0324,0.013523,0.002678,0.000431,0.008580
13525000,0.0324,0.013523,0.002678,0.000431,0.007757
13526000,0.0324,0.013523,0.002678,0.000431,0.008815
13527000,0.0324,0.013523,0.002678,0.000431,0.008345
13528000,0.0324,0.013523,0.002678,0.000431,0.008462
13529000,0.0324,0.013523,0.002678,0.000431,0.007874
13530000,0.0324,0.013523,0.002678,0.000431,0.008932
13531000,0.0324,0.013523,0.002678,0.000431,0.008227
13532000,0.0324,0.013523,0.002678,0.000431,0.007639
13533000,0.0324,0.013523,0.002678,0.000431,0.008345
13534000,0.0324,0.013523,0.002678,0.000431,0.008932
13535000,0.0324,0.013523,0.002678,0.000431,0.007404
13536000,0.0324,0.013523,0.002678,0.000431,0.008345
13537000,0.0324,0.013523,0.002678,0.000431,0.008109
13538000,0.0324,0.013523,0.002678,0.000431,0.007992
13539000,0.0324,0.013523,0.002678,0.000431,0.008345
13540000,0.0324,0.013523,0.002678,0.000431,0.008932
13541000,0.0324,0.013523,0.002678,0.000431,0.008345
13542000,0.0324,0.013523,0.002678,0.000431,0.007287
13543000,0.0324,0.013523,0.002678,0.000431,0.009167
13544000,0.0324,0.013523,0.002678,0.000431,0.008227
13545000,0.0324,0.013523,0.002678,0.000431,0.007404
13546000,0.0324,0.013523,0.002678,0.000431,0.007874
13547000,0.0324,0.013523,0.002678,0.000431,0.009402
13548000,0.0324,0.013523,0.002678,0.000431,0.008462
13549000,0.0324,0.013523,0.002678,0.000431,0.007404
13550000,0.0324,0.013523,0.002678,0.000431,0.008815
13551000,0.0324,0.013523,0.002678,0.000431,0.008227
13552000,0.0324,0.013523,0.002678,0.000431,0.008227
13553000,0.0324,0.013523,0.002678,0.000431,0.008697
13554000,0.0324,0.013523,0.002678,0.000431,0.009050
13555000,0.0324,0.013523,0.002678,0.000431,0.007404
13556000,0.0324,0.013523,0.002678,0.000431,0.007169
13557000,0.0324,0.013523,0.002678,0.000431,0.007874
13558000,0.0324,0.013523,0.002678,0.000431,0.008227
13559000,0.0324,0.013523,0.002678,0.000431,0.007992
13560000,0.0324,0.013523,0.002678,0.000431,0.008462
13561000,0.0324,0.013523,0.002678,0.000431,0.008109
13562000,0.0324,0.013523,0.002678,0.000431,0.007992
13563000,0.0324,0.013523,0.002678,0.000431,0.008109
13564000,0.0324,0.013523,0.002678,0.000431,0.009402
13565000,0.0324,0.013523,0.002678,0.000431,0.008345
13566000,0.0324,0.013523,0.002678,0.000431,0.008227
13567000,0.0324,0.013523,0.002678,0.000431,0.009285
13568000,0.0324,0.013523,0.002678,0.000431,0.008932
13569000,0.0324,0.013523,0.002678,0.000431,0.008227
13570000,0.0324,0.013523,0.002678,0.000431,0.007874
13571000,0.0324,0.013523,0.002678,0.000431,0.008697
13572000,0.0324,0.013523,0.002678,0.000431,0.009285
13573000,0.0324,0.013523,0.002678,0.000431,0.008345
13574000,0.0324,0.013523,0.002678,0.000431,0.008227
13575000,0.0324,0.013523,0.002678,0.000431,0.008109
13576000,0.0324,0.013523,0.002678,0.000431,0.008815
13577000,0.0324,0.013523,0.002678,0.000431,0.007874
13578000,0.0324,0.013523,0.002678,0.000431,0.008109
13579000,0.0324,0.013523,0.002678,0.000431,0.008227
13580000,0.0324,0.013523,0.002678,0.000431,0.008697
13581000,0.0324,0.013523,0.002678,0.000431,0.008697
13582000,0.0324,0.013523,0.002678,0.000431,0.008462
13583000,0.0324,0.013523,0.002678,0.000431,0.007874
13584000,0.0324,0.013523,0.002678,0.000431,0.009285
13585000,0.0324,0.013523,0.002678,0.000431,0.008462
13586000,0.0324,0.013523,0.002678,0.000431,0.008345
13587000,0.0324,0.013523,0.002678,0.000431,0.008109
13588000,0.0324,0.013523,0.002678,0.000431,0.008815
13589000,0.0324,0.013523,0.002678,0.000431,0.008932
13590000,0.0324,0.013523,0.002678,0.000431,0.007169
13591000,0.0324,0.013523,0.002678,0.000431,0.008697
13592000,0.0324,0.013523,0.002678,0.000431,0.008580
13593000,0.0324,0.013523,0.002678,0.000431,0.007169
13594000,0.0324,0.013523,0.002678,0.000431,0.008697
13595000,0.0324,0.013523,0.002678,0.000431,0.008697
13596000,0.0324,0.013523,0.002678,0.000431,0.008345
13597000,0.0324,0.013523,0.002678,0.000431,0.008345
13598000,0.0324,0.013523,0.002678,0.000431,0.008109
13599000,0.0324,0.013523,0.002678,0.000431,0.008815
13600000,0.0324,0.013523,0.002678,0.000431,0.008697
13601000,0.0324,0.013523,0.002678,0.000431,0.009402
13602000,0.0324,0.013523,0.002678,0.000431,0.007757
13603000,0.0324,0.013523,0.002678,0.000431,0.007874
13604000,0.0324,0.013523,0.002678,0.000431,0.009167
13605000,0.0324,0.013523,0.002678,0.000431,0.008345
13606000,0.0324,0.013523,0.002678,0.000431,0.007874
13607000,0.0324,0.013523,0.002678,0.000431,0.008227
13608000,0.0324,0.013523,0.002678,0.000431,0.009167
13609000,0.0324,0.013523,0.002678,0.000431,0.008580
13610000,0.0324,0.013523,0.002678,0.000431,0.008345
13611000,0.0324,0.013523,0.002678,0.000431,0.009285
13612000,0.0324,0.013523,0.002678,0.000431,0.008345
13613000,0.0324,0.013523,0.002678,0.000431,0.009167
13614000,0.0324,0.013523,0.002678,0.000431,0.008109
13615000,0.0324,0.013523,0.002678,0.000431,0.009167
13616000,0.0324,0.013523,0.002678,0.000431,0.009520
13617000,0.0324,0.013523,0.002678,0.000431,0.007992
13618000,0.0324,0.013523,0.002678,0.000431,0.008227
13619000,0.0324,0.013523,0.002678,0.000431,0.007992
13620000,0.0324,0.013523,0.002678,0.000431,0.008932
13621000,0.0324,0.013523,0.002678,0.000431,0.008345
13622000,0.0324,0.013523,0.002678,0.000431,0.009285
13623000,0.0324,0.013523,0.002678,0.000431,0.009637
13624000,0.0324,0.013523,0.002678,0.000431,0.007992
13625000,0.0324,0.013523,0.002678,0.000431,0.008932
13626000,0.0324,0.013523,0.002678,0.000431,0.008697
13627000,0.0324,0.013523,0.002678,0.000431,0.008580
13628000,0.0324,0.013523,0.002678,0.000431,0.008227
13629000,0.0324,0.013523,0.002678,0.000431,0.008697
13630000,0.0324,0.013523,0.002678,0.000431,0.008109
13631000,0.0324,0.013523,0.002678,0.000431,0.008345
13632000,0.0324,0.013523,0.002678,0.000431,0.009167
13633000,0.0324,0.013523,0.002678,0.000431,0.009285
13634000,0.0324,0.013523,0.002678,0.000431,0.007522
13635000,0.0324,0.013523,0.002678,0.000431,0.008109
13636000,0.0324,0.013523,0.002678,0.000431,0.008462
13637000,0.0324,0.013523,0.002678,0.000431,0.008227
13638000,0.0324,0.013523,0.002678,0.000431,0.008462
13639000,0.0324,0.013523,0.002678,0.000431,0.008697
13640000,0.0324,0.013523,0.002678,0.000431,0.008462
13641000,0.0324,0.013523,0.002678,0.000431,0.007757
13642000,0.0324,0.013523,0.002678,0.000431,0.007992
13643000,0.0324,0.013523,0.002678,0.000431,0.008462
13644000,0.0324,0.013523,0.002678,0.000431,0.008462
13645000,0.0324,0.013523,0.002678,0.000431,0.008815
13646000,0.0324,0.013523,0.002678,0.000431,0.008227
13647000,0.0324,0.013523,0.002678,0.000431,0.008932
13648000,0.0324,0.013523,0.002678,0.000431,0.007757
13649000,0.0324,0.013523,0.002678,0.000431,0.009050
13650000,0.0324,0.013523,0.002678,0.000431,0.009050
13651000,0.0324,0.013523,0.002678,0.000431,0.007874
13652000,0.0324,0.013523,0.002678,0.000431,0.009402
13653000,0.0324,0.013523,0.002678,0.000431,0.008109
13654000,0.0324,0.013523,0.002678,0.000431,0.009167
13655000,0.0324,0.013523,0.002678,0.000431,0.008580
13656000,0.0324,0.013523,0.002678,0.000431,0.008227
13657000,0.0324,0.013523,0.002678,0.000431,0.007992
13658000,0.0324,0.013523,0.002678,0.000431,0.008109
13659000,0.0324,0.013523,0.002678,0.000431,0.008697
13660000,0.0324,0.013523,0.002678,0.000431,0.007522
13661000,0.0324,0.013523,0.002678,0.000431,0.007992
13662000,0.0324,0.013523,0.002678,0.000431,0.008462
13663000,0.0324,0.013523,0.002678,0.000431,0.008227
13664000,0.0324,0.013523,0.002678,0.000431,0.009285
13665000,0.0324,0.013523,0.002678,0.000431,0.008580
13666000,0.0324,0.013523,0.002678,0.000431,0.008580
13667000,0.0324,0.013523,0.002678,0.000431,0.007639
13668000,0.0324,0.013523,0.002678,0.000431,0.008462
13669000,0.0324,0.013523,0.002678,0.000431,0.008227
13670000,0.0324,0.013523,0.002678,0.000431,0.008815
13671000,0.0324,0.013523,0.002678,0.000431,0.008697
13672000,0.0324,0.013523,0.002678,0.000431,0.007992
13673000,0.0324,0.013523,0.002678,0.000431,0.008227
13674000,0.0324,0.013523,0.002678,0.000431,0.008697
13675000,0.0324,0.013523,0.002678,0.000431,0.008932
13676000,0.0324,0.013523,0.002678,0.000431,0.007992
13677000,0.0324,0.013523,0.002678,0.000431,0.007522
13678000,0.0324,0.013523,0.002678,0.000431,0.007992
13679000,0.0324,0.013523,0.002678,0.000431,0.008580
13680000,0.0324,0.013523,0.002678,0.000431,0.008227
13681000,0.0324,0.013523,0.002678,0.000431,0.008815
13682000,0.0324,0.013523,0.002678,0.000431,0.009050
13683000,0.0324,0.013523,0.002678,0.000431,0.009402
13684000,0.0324,0.013523,0.002678,0.000431,0.008227
13685000,0.0324,0.013523,0.002678,0.000431,0.008580
13686000,0.0324,0.013523,0.002678,0.000431,0.007992
13687000,0.0324,0.013523,0.002678,0.000431,0.007992
13688000,0.0324,0.013523,0.002678,0.000431,0.008697
13689000,0.0324,0.013523,0.002678,0.000431,0.007639
13690000,0.0324,0.013523,0.002678,0.000431,0.009050
13691000,0.0324,0.013523,0.002678,0.000431,0.009050
13692000,0.0324,0.013523,0.002678,0.000431,0.008227
13693000,0.0324,0.013523,0.002678,0.000431,0.008109
13694000,0.0324,0.013523,0.002678,0.000431,0.008345
13695000,0.0324,0.013523,0.002678,0.000431,0.009050
13696000,0.0324,0.013523,0.002678,0.000431,0.008462
13697000,0.0324,0.013523,0.002678,0.000431,0.007992
13698000,0.0324,0.013523,0.002678,0.000431,0.008580
13699000,0.0324,0.013523,0.002678,0.000431,0.009285
13700000,0.0324,0.013523,0.002678,0.000431,0.008697
13701000,0.0324,0.013523,0.002678,0.000431,0.008580
13702000,0.0324,0.013523,0.002678,0.000431,0.008815
13703000,0.0324,0.013523,0.002678,0.000431,0.008462
13704000,0.0324,0.013523,0.002678,0.000431,0.009402
13705000,0.0324,0.013523,0.002678,0.000431,0.008580
13706000,0.0324,0.013523,0.002678,0.000431,0.008580
13707000,0.0324,0.013523,0.002678,0.000431,0.008697
13708000,0.0324,0.013523,0.002678,0.000431,0.008580
13709000,0.0324,0.013523,0.002678,0.000431,0.008462
13710000,0.0324,0.013523,0.002678,0.000431,0.008345
13711000,0.0324,0.013523,0.002678,0.000431,0.007757
13712000,0.0324,0.013523,0.002678,0.000431,0.008697
13713000,0.0324,0.013523,0.002678,0.000431,0.007757
13714000,0.0324,0.013523,0.002678,0.000431,0.007639
13715000,0.0324,0.013523,0.002678,0.000431,0.009402
13716000,0.0324,0.013523,0.002678,0.000431,0.008345
13717000,0.0324,0.013523,0.002678,0.000431,0.008580
13718000,0.0324,0.013523,0.002678,0.000431,0.007874
13719000,0.0324,0.013523,0.002678,0.000431,0.009402
13720000,0.0324,0.013523,0.002678,0.000431,0.007992
13721000,0.0324,0.013523,0.002678,0.000431,0.008227
13722000,0.0324,0.013523,0.002678,0.000431,0.008462
13723000,0.0324,0.013523,0.002678,0.000431,0.008697
13724000,0.0324,0.013523,0.002678,0.000431,0.008697
13725000,0.0324,0.013523,0.002678,0.000431,0.008462
13726000,0.0324,0.013523,0.002678,0.000431,0.009050
13727000,0.0324,0.013523,0.002678,0.000431,0.007287
13728000,0.0324,0.013523,0.002678,0.000431,0.008462
13729000,0.0324,0.013523,0.002678,0.000431,0.009637
13730000,0.0324,0.013523,0.002678,0.000431,0.008109
13731000,0.0324,0.013523,0.002678,0.000431,0.009402
13732000,0.0324,0.013523,0.002678,0.000431,0.008580
13733000,0.0324,0.013523,0.002678,0.000431,0.009285
13734000,0.0324,0.013523,0.002678,0.000431,0.008815
13735000,0.0324,0.013523,0.002678,0.000431,0.008345
13736000,0.0324,0.013523,0.002678,0.000431,0.008697
13737000,0.0324,0.013523,0.002678,0.000431,0.008227
13738000,0.0324,0.013523,0.002678,0.000431,0.009520
13739000,0.0324,0.013523,0.002678,0.000431,0.008697
13740000,0.0324,0.013523,0.002678,0.000431,0.008109
13741000,0.0324,0.013523,0.002678,0.000431,0.007874
13742000,0.0324,0.013523,0.002678,0.000431,0.008815
13743000,0.0324,0.013523,0.002678,0.000431,0.009167
13744000,0.0324,0.013523,0.002678,0.000431,0.008227
13745000,0.0324,0.013523,0.002678,0.000431,0.009285
13746000,0.0324,0.013523,0.002678,0.000431,0.008345
13747000,0.0324,0.013523,0.002678,0.000431,0.007992
13748000,0.0324,0.013523,0.002678,0.000431,0.007992
13749000,0.0324,0.013523,0.002678,0.000431,0.008697
13750000,0.0324,0.013523,0.002678,0.000431,0.009520
13751000,0.0324,0.013523,0.002678,0.000431,0.007874
13752000,0.0324,0.013523,0.002678,0.000431,0.008462
13753000,0.0324,0.013523,0.002678,0.000431,0.008932
13754000,0.0324,0.013523,0.002678,0.000431,0.008815
13755000,0.0324,0.013523,0.002678,0.000431,0.008462
13756000,0.0324,0.013523,0.002678,0.000431,0.008815
13757000,0.0324,0.013523,0.002678,0.000431,0.007992
13758000,0.0324,0.013523,0.002678,0.000431,0.009167
13759000,0.0324,0.013523,0.002678,0.000431,0.008697
13760000,0.0324,0.013523,0.002678,0.000431,0.009050
13761000,0.0324,0.013523,0.002678,0.000431,0.008109
13762000,0.0324,0.013523,0.002678,0.000431,0.007522
13763000,0.0324,0.013523,0.002678,0.000431,0.007404
13764000,0.0324,0.013523,0.002678,0.000431,0.007874
13765000,0.0324,0.013523,0.002678,0.000431,0.006934
13766000,0.0324,0.013523,0.002678,0.000431,0.006699
13767000,0.0324,0.013523,0.002678,0.000431,0.005876
13768000,0.0324,0.013523,0.002678,0.000431,0.006817
13769000,0.0324,0.013523,0.002678,0.000431,0.006934
13770000,0.0324,0.013523,0.002678,0.000431,0.007052
13771000,0.0324,0.013523,0.002678,0.000431,0.006699
13772000,0.0324,0.013523,0.002678,0.000431,0.006111
13773000,0.0324,0.013523,0.002678,0.000431,0.007522
13774000,0.0324,0.013523,0.002678,0.000431,0.006934
13775000,0.0324,0.013523,0.002678,0.000431,0.007639
13776000,0.0324,0.013523,0.002678,0.000431,0.006817
13777000,0.0324,0.013523,0.002678,0.000431,0.006817
13778000,0.0324,0.013523,0.002678,0.000431,0.005876
13779000,0.0324,0.013523,0.002678,0.000431,0.007522
13780000,0.0324,0.013523,0.002678,0.000431,0.007522
13781000,0.0324,0.013523,0.002678,0.000431,0.006229
13782000,0.0324,0.013523,0.002678,0.000431,0.007522
13783000,0.0324,0.013523,0.002678,0.000431,0.006699
13784000,0.0324,0.013523,0.002678,0.000431,0.006934
13785000,0.0324,0.013523,0.002678,0.000431,0.006582
13786000,0.0324,0.013523,0.002678,0.000431,0.006582
13787000,0.0324,0.013523,0.002678,0.000431,0.007639
13788000,0.0324,0.013523,0.002678,0.000431,0.007169
13789000,0.0324,0.013523,0.002678,0.000431,0.006229
13790000,0.0324,0.013523,0.002678,0.000431,0.007404
13791000,0.0324,0.013523,0.002678,0.000431,0.006934
13792000,0.0324,0.013523,0.002678,0.000431,0.006229
13793000,0.0324,0.013523,0.002678,0.000431,0.006817
13794000,0.0324,0.013523,0.002678,0.000431,0.006464
13795000,0.0324,0.013523,0.002678,0.000431,0.006699
13796000,0.0324,0.013523,0.002678,0.000431,0.006464
13797000,0.0324,0.013523,0.002678,0.000431,0.007052
13798000,0.0324,0.013523,0.002678,0.000431,0.005876
13799000,0.0324,0.013523,0.002678,0.000431,0.006934
13800000,0.0324,0.013523,0.002678,0.000431,0.006464
13801000,0.0324,0.013523,0.002678,0.000431,0.005524
13802000,0.0324,0.013523,0.002678,0.000431,0.007287
13803000,0.0324,0.013523,0.002678,0.000431,0.006464
13804000,0.0324,0.013523,0.002678,0.000431,0.007287
13805000,0.0324,0.013523,0.002678,0.000431,0.005994
13806000,0.0324,0.013523,0.002678,0.000431,0.006229
13807000,0.0324,0.013523,0.002678,0.000431,0.006111
13808000,0.0324,0.013523,0.002678,0.000431,0.005759
13809000,0.0324,0.013523,0.002678,0.000431,0.005524
13810000,0.0324,0.013523,0.002678,0.000431,0.005406
13811000,0.0324,0.013523,0.002678,0.000431,0.005289
13812000,0.0324,0.013523,0.002678,0.000431,0.006111
13813000,0.0324,0.013523,0.002678,0.000431,0.005759
13814000,0.0324,0.013523,0.002678,0.000431,0.006229
13815000,0.0324,0.013523,0.002678,0.000431,0.005524
13816000,0.0324,0.013523,0.002678,0.000431,0.005406
13817000,0.0324,0.013523,0.002678,0.000431,0.006699
13818000,0.0324,0.013523,0.002678,0.000431,0.005289
13819000,0.0324,0.013523,0.002678,0.000431,0.005171
13820000,0.0324,0.013523,0.002678,0.000431,0.005994
13821000,0.0324,0.013523,0.002678,0.000431,0.006464
13822000,0.0324,0.013523,0.002678,0.000431,0.004701
13823000,0.0324,0.013523,0.002678,0.000431,0.005524
13824000,0.0324,0.013523,0.002678,0.000431,0.005406
13825000,0.0324,0.013523,0.002678,0.000431,0.006229
13826000,0.0324,0.013523,0.002678,0.000431,0.005994
13827000,0.0324,0.013523,0.002678,0.000431,0.005876
13828000,0.0324,0.013523,0.002678,0.000431,0.005759
13829000,0.0324,0.013523,0.002678,0.000431,0.005641
13830000,0.0324,0.013523,0.002678,0.000431,0.006111
13831000,0.0324,0.013523,0.002678,0.000431,0.006111
13832000,0.0324,0.013523,0.002678,0.000431,0.005406
13833000,0.0324,0.013523,0.002678,0.000431,0.005524
13834000,0.0324,0.013523,0.002678,0.000431,0.005171
13835000,0.0324,0.013523,0.002678,0.000431,0.006464
13836000,0.0324,0.013523,0.002678,0.000431,0.005406
13837000,0.0324,0.013523,0.002678,0.000431,0.005406
13838000,0.0324,0.013523,0.002678,0.000431,0.006464
13839000,0.0324,0.013523,0.002678,0.000431,0.005641
13840000,0.0324,0.013523,0.002678,0.000431,0.005641
13841000,0.0324,0.013523,0.002678,0.000431,0.005524
13842000,0.0324,0.013523,0.002678,0.000431,0.005759
13843000,0.0324,0.013523,0.002678,0.000431,0.006817
13844000,0.0324,0.013523,0.002678,0.000431,0.005524
13845000,0.0324,0.013523,0.002678,0.000431,0.005641
13846000,0.0324,0.013523,0.002678,0.000431,0.005406
13847000,0.0324,0.013523,0.002678,0.000431,0.006464
13848000,0.0324,0.013523,0.002678,0.000431,0.006111
13849000,0.0324,0.013523,0.002678,0.000431,0.005171
13850000,0.0324,0.013523,0.002678,0.000431,0.006229
13851000,0.0324,0.013523,0.002678,0.000431,0.006111
13852000,0.0324,0.013523,0.002678,0.000431,0.005524
13853000,0.0324,0.013523,0.002678,0.000431,0.005054
13854000,0.0324,0.013523,0.002678,0.000431,0.006582
13855000,0.0324,0.013523,0.002678,0.000431,0.005054
13856000,0.0324,0.013523,0.002678,0.000431,0.005876
13857000,0.0324,0.013523,0.002678,0.000431,0.006229
13858000,0.0324,0.013523,0.002678,0.000431,0.006699
13859000,0.0324,0.013523,0.002678,0.000431,0.005171
13860000,0.0324,0.013523,0.002678,0.000431,0.005759
13861000,0.0324,0.013523,0.002678,0.000431,0.005759
13862000,0.0324,0.013523,0.002678,0.000431,0.005524
13863000,0.0324,0.013523,0.002678,0.000431,0.006347
13864000,0.0324,0.013523,0.002678,0.000431,0.005759
13865000,0.0324,0.013523,0.002678,0.000431,0.006464
13866000,0.0324,0.013523,0.002678,0.000431,0.005876
13867000,0.0324,0.013523,0.002678,0.000431,0.005876
13868000,0.0324,0.013523,0.002678,0.000431,0.006111
13869000,0.0324,0.013523,0.002678,0.000431,0.005406
13870000,0.0324,0.013523,0.002678,0.000431,0.005876
13871000,0.0324,0.013523,0.002678,0.000431,0.005876
13872000,0.0324,0.013523,0.002678,0.000431,0.005759
13873000,0.0324,0.013523,0.002678,0.000431,0.006111
13874000,0.0324,0.013523,0.002678,0.000431,0.005171
13875000,0.0324,0.013523,0.002678,0.000431,0.005876
13876000,0.0324,0.013523,0.002678,0.000431,0.005289
13877000,0.0324,0.013523,0.002678,0.000431,0.005994
13878000,0.0324,0.013523,0.002678,0.000431,0.006464
13879000,0.0324,0.013523,0.002678,0.000431,0.005876
13880000,0.0324,0.013523,0.002678,0.000431,0.005171
13881000,0.0324,0.013523,0.002678,0.000431,0.005759
13882000,0.0324,0.013523,0.002678,0.000431,0.005641
13883000,0.0324,0.013523,0.002678,0.000431,0.005406
13884000,0.0324,0.013523,0.002678,0.000431,0.005641
13885000,0.0324,0.013523,0.002678,0.000431,0.004936
13886000,0.0324,0.013523,0.002678,0.000431,0.005759
13887000,0.0324,0.013523,0.002678,0.000431,0.006111
13888000,0.0324,0.013523,0.002678,0.000431,0.005759
13889000,0.0324,0.013523,0.002678,0.000431,0.005171
13890000,0.0324,0.013523,0.002678,0.000431,0.005524
13891000,0.0324,0.013523,0.002678,0.000431,0.005289
13892000,0.0324,0.013523,0.002678,0.000431,0.005406
13893000,0.0324,0.013523,0.002678,0.000431,0.005524
13894000,0.0324,0.013523,0.002678,0.000431,0.005289
13895000,0.0324,0.013523,0.002678,0.000431,0.005289
13896000,0.0324,0.013523,0.002678,0.000431,0.005524
13897000,0.0324,0.013523,0.002678,0.000431,0.006817
13898000,0.0324,0.013523,0.002678,0.000431,0.005524
13899000,0.0324,0.013523,0.002678,0.000431,0.005171
13900000,0.0324,0.013523,0.002678,0.000431,0.005759
13901000,0.0324,0.013523,0.002678,0.000431,0.006347
13902000,0.0324,0.013523,0.002678,0.000431,0.005406
13903000,0.0324,0.013523,0.002678,0.000431,0.005876
13904000,0.0324,0.013523,0.002678,0.000431,0.005876
13905000,0.0324,0.013523,0.002678,0.000431,0.006111
13906000,0.0324,0.013523,0.002678,0.000431,0.005876
13907000,0.0324,0.013523,0.002678,0.000431,0.006111
13908000,0.0324,0.013523,0.002678,0.000431,0.006229
13909000,0.0324,0.013523,0.002678,0.000431,0.005524
13910000,0.0324,0.013523,0.002678,0.000431,0.005994
13911000,0.0324,0.013523,0.002678,0.000431,0.006229
13912000,0.0324,0.013523,0.002678,0.000431,0.005876
13913000,0.0324,0.013523,0.002678,0.000431,0.005876
13914000,0.0324,0.013523,0.002678,0.000431,0.005876
13915000,0.0324,0.013523,0.002678,0.000431,0.006347
13916000,0.0324,0.013523,0.002678,0.000431,0.005406
13917000,0.0324,0.013523,0.002678,0.000431,0.005876
13918000,0.0324,0.013523,0.002678,0.000431,0.005641
13919000,0.0324,0.013523,0.002678,0.000431,0.005641
13920000,0.0324,0.013523,0.002678,0.000431,0.005759
13921000,0.0324,0.013523,0.002678,0.000431,0.005994
13922000,0.0324,0.013523,0.002678,0.000431,0.006229
13923000,0.0324,0.013523,0.002678,0.000431,0.006111
13924000,0.0324,0.013523,0.002678,0.000431,0.005524
13925000,0.0324,0.013523,0.002678,0.000431,0.006111
13926000,0.0324,0.013523,0.002678,0.000431,0.005641
13927000,0.0324,0.013523,0.002678,0.000431,0.005406
13928000,0.0324,0.013523,0.002678,0.000431,0.006347
13929000,0.0324,0.013523,0.002678,0.000431,0.005759
13930000,0.0324,0.013523,0.002678,0.000431,0.005994
13931000,0.0324,0.013523,0.002678,0.000431,0.005524
13932000,0.0324,0.013523,0.002678,0.000431,0.005759
13933000,0.0324,0.013523,0.002678,0.000431,0.006464
13934000,0.0324,0.013523,0.002678,0.000431,0.006699
13935000,0.0324,0.013523,0.002678,0.000431,0.005759
13936000,0.0324,0.013523,0.002678,0.000431,0.005876
13937000,0.0324,0.013523,0.002678,0.000431,0.005876
13938000,0.0324,0.013523,0.002678,0.000431,0.005759
13939000,0.0324,0.013523,0.002678,0.000431,0.005406
13940000,0.0324,0.013523,0.002678,0.000431,0.006229
13941000,0.0324,0.013523,0.002678,0.000431,0.005994
13942000,0.0324,0.013523,0.002678,0.000431,0.005876
13943000,0.0324,0.013523,0.002678,0.000431,0.005641
13944000,0.0324,0.013523,0.002678,0.000431,0.005406
13945000,0.0324,0.013523,0.002678,0.000431,0.005641
13946000,0.0324,0.013523,0.002678,0.000431,0.006229
13947000,0.0324,0.013523,0.002678,0.000431,0.004936
13948000,0.0324,0.013523,0.002678,0.000431,0.006111
13949000,0.0324,0.013523,0.002678,0.000431,0.005641
13950000,0.0324,0.013523,0.002678,0.000431,0.006111
13951000,0.0324,0.013523,0.002678,0.000431,0.005994
13952000,0.0324,0.013523,0.002678,0.000431,0.005759
13953000,0.0324,0.013523,0.002678,0.000431,0.005994
13954000,0.0324,0.013523,0.002678,0.000431,0.005406
13955000,0.0324,0.013523,0.002678,0.000431,0.007052
13956000,0.0324,0.013523,0.002678,0.000431,0.005054
13957000,0.0324,0.013523,0.002678,0.000431,0.005994
13958000,0.0324,0.013523,0.002678,0.000431,0.005994
13959000,0.0324,0.013523,0.002678,0.000431,0.005524
13960000,0.0324,0.013523,0.002678,0.000431,0.006229
13961000,0.0324,0.013523,0.002678,0.000431,0.006111
13962000,0.0324,0.013523,0.002678,0.000431,0.005994
13963000,0.0324,0.013523,0.002678,0.000431,0.005406
13964000,0.0324,0.013523,0.002678,0.000431,0.006699
13965000,0.0324,0.013523,0.002678,0.000431,0.006582
13966000,0.0324,0.013523,0.002678,0.000431,0.005994
13967000,0.0324,0.013523,0.002678,0.000431,0.005994
13968000,0.0324,0.013523,0.002678,0.000431,0.006582
13969000,0.0324,0.013523,0.002678,0.000431,0.005876
13970000,0.0324,0.013523,0.002678,0.000431,0.005876
13971000,0.0324,0.013523,0.002678,0.000431,0.005289
13972000,0.0324,0.013523,0.002678,0.000431,0.005054
13973000,0.0324,0.013523,0.002678,0.000431,0.005406
13974000,0.0324,0.013523,0.002678,0.000431,0.005524
13975000,0.0324,0.013523,0.002678,0.000431,0.006229
13976000,0.0324,0.013523,0.002678,0.000431,0.005289
13977000,0.0324,0.013523,0.002678,0.000431,0.005641
13978000,0.0324,0.013523,0.002678,0.000431,0.006582
13979000,0.0324,0.013523,0.002678,0.000431,0.006347
13980000,0.0324,0.013523,0.002678,0.000431,0.005406
13981000,0.0324,0.013523,0.002678,0.000431,0.005054
13982000,0.0324,0.013523,0.002678,0.000431,0.006347
13983000,0.0324,0.013523,0.002678,0.000431,0.005994
13984000,0.0324,0.013523,0.002678,0.000431,0.005289
13985000,0.0324,0.013523,0.002678,0.000431,0.005759
13986000,0.0324,0.013523,0.002678,0.000431,0.005994
13987000,0.0324,0.013523,0.002678,0.000431,0.005289
13988000,0.0324,0.013523,0.002678,0.000431,0.005876
13989000,0.0324,0.013523,0.002678,0.000431,0.007052
13990000,0.0324,0.013523,0.002678,0.000431,0.006229
13991000,0.0324,0.013523,0.002678,0.000431,0.005641
13992000,0.0324,0.013523,0.002678,0.000431,0.006464
13993000,0.0324,0.013523,0.002678,0.000431,0.005289
13994000,0.0324,0.013523,0.002678,0.000431,0.005994
13995000,0.0324,0.013523,0.002678,0.000431,0.006229
13996000,0.0324,0.013523,0.002678,0.000431,0.005171
13997000,0.0324,0.013523,0.002678,0.000431,0.005759
13998000,0.0324,0.013523,0.002678,0.000431,0.005406
13999000,0.0324,0.013523,0.002678,0.000431,0.005994
