Cycle,Area(mm^2),PeakDynamic(W),SubthresholdLeakage(W),GateLeakage(W),RunTimeDynamic(W)
6000000,0.0324,0.013523,0.002678,0.000431,0.036316
6001000,0.0324,0.013523,0.002678,0.000431,0.033143
6002000,0.0324,0.013523,0.002678,0.000431,0.035494
6003000,0.0324,0.013523,0.002678,0.000431,0.034788
6004000,0.0324,0.013523,0.002678,0.000431,0.035376
6005000,0.0324,0.013523,0.002678,0.000431,0.036551
6006000,0.0324,0.013523,0.002678,0.000431,0.034671
6007000,0.0324,0.013523,0.002678,0.000431,0.035611
6008000,0.0324,0.013523,0.002678,0.000431,0.034083
6009000,0.0324,0.013523,0.002678,0.000431,0.037021
6010000,0.0324,0.013523,0.002678,0.000431,0.033848
6011000,0.0324,0.013523,0.002678,0.000431,0.034553
6012000,0.0324,0.013523,0.002678,0.000431,0.037727
6013000,0.0324,0.013523,0.002678,0.000431,0.034671
6014000,0.0324,0.013523,0.002678,0.000431,0.031733
6015000,0.0324,0.013523,0.002678,0.000431,0.036786
6016000,0.0324,0.013523,0.002678,0.000431,0.034436
6017000,0.0324,0.013523,0.002678,0.000431,0.033260
6018000,0.0324,0.013523,0.002678,0.000431,0.036551
6019000,0.0324,0.013523,0.002678,0.000431,0.036551
6020000,0.0324,0.013523,0.002678,0.000431,0.033966
6021000,0.0324,0.013523,0.002678,0.000431,0.033143
6022000,0.0324,0.013523,0.002678,0.000431,0.032673
6023000,0.0324,0.013523,0.002678,0.000431,0.035846
6024000,0.0324,0.013523,0.002678,0.000431,0.035964
6025000,0.0324,0.013523,0.002678,0.000431,0.035376
6026000,0.0324,0.013523,0.002678,0.000431,0.033613
6027000,0.0324,0.013523,0.002678,0.000431,0.035729
6028000,0.0324,0.013523,0.002678,0.000431,0.031615
6029000,0.0324,0.013523,0.002678,0.000431,0.031733
6030000,0.0324,0.013523,0.002678,0.000431,0.034201
6031000,0.0324,0.013523,0.002678,0.000431,0.032908
6032000,0.0324,0.013523,0.002678,0.000431,0.031850
6033000,0.0324,0.013523,0.002678,0.000431,0.033613
6034000,0.0324,0.013523,0.002678,0.000431,0.034906
6035000,0.0324,0.013523,0.002678,0.000431,0.034671
6036000,0.0324,0.013523,0.002678,0.000431,0.033378
6037000,0.0324,0.013523,0.002678,0.000431,0.036434
6038000,0.0324,0.013523,0.002678,0.000431,0.032320
6039000,0.0324,0.013523,0.002678,0.000431,0.033143
6040000,0.0324,0.013523,0.002678,0.000431,0.033260
6041000,0.0324,0.013523,0.002678,0.000431,0.035141
6042000,0.0324,0.013523,0.002678,0.000431,0.035258
6043000,0.0324,0.013523,0.002678,0.000431,0.033966
6044000,0.0324,0.013523,0.002678,0.000431,0.035964
6045000,0.0324,0.013523,0.002678,0.000431,0.032438
6046000,0.0324,0.013523,0.002678,0.000431,0.035494
6047000,0.0324,0.013523,0.002678,0.000431,0.033848
6048000,0.0324,0.013523,0.002678,0.000431,0.032438
6049000,0.0324,0.013523,0.002678,0.000431,0.035023
6050000,0.0324,0.013523,0.002678,0.000431,0.035611
6051000,0.0324,0.013523,0.002678,0.000431,0.033731
6052000,0.0324,0.013523,0.002678,0.000431,0.033731
6053000,0.0324,0.013523,0.002678,0.000431,0.032908
6054000,0.0324,0.013523,0.002678,0.000431,0.033025
6055000,0.0324,0.013523,0.002678,0.000431,0.035964
6056000,0.0324,0.013523,0.002678,0.000431,0.034436
6057000,0.0324,0.013523,0.002678,0.000431,0.033025
6058000,0.0324,0.013523,0.002678,0.000431,0.033731
6059000,0.0324,0.013523,0.002678,0.000431,0.031027
6060000,0.0324,0.013523,0.002678,0.000431,0.032203
6061000,0.0324,0.013523,0.002678,0.000431,0.033731
6062000,0.0324,0.013523,0.002678,0.000431,0.031027
6063000,0.0324,0.013523,0.002678,0.000431,0.032555
6064000,0.0324,0.013523,0.002678,0.000431,0.032438
6065000,0.0324,0.013523,0.002678,0.000431,0.033966
6066000,0.0324,0.013523,0.002678,0.000431,0.033378
6067000,0.0324,0.013523,0.002678,0.000431,0.031145
6068000,0.0324,0.013523,0.002678,0.000431,0.033966
6069000,0.0324,0.013523,0.002678,0.000431,0.032438
6070000,0.0324,0.013523,0.002678,0.000431,0.035023
6071000,0.0324,0.013523,0.002678,0.000431,0.030910
6072000,0.0324,0.013523,0.002678,0.000431,0.036904
6073000,0.0324,0.013523,0.002678,0.000431,0.031615
6074000,0.0324,0.013523,0.002678,0.000431,0.030792
6075000,0.0324,0.013523,0.002678,0.000431,0.032790
6076000,0.0324,0.013523,0.002678,0.000431,0.032555
6077000,0.0324,0.013523,0.002678,0.000431,0.033260
6078000,0.0324,0.013523,0.002678,0.000431,0.030440
6079000,0.0324,0.013523,0.002678,0.000431,0.031733
6080000,0.0324,0.013523,0.002678,0.000431,0.031968
6081000,0.0324,0.013523,0.002678,0.000431,0.032085
6082000,0.0324,0.013523,0.002678,0.000431,0.035729
6083000,0.0324,0.013523,0.002678,0.000431,0.032790
6084000,0.0324,0.013523,0.002678,0.000431,0.031380
6085000,0.0324,0.013523,0.002678,0.000431,0.033025
6086000,0.0324,0.013523,0.002678,0.000431,0.033378
6087000,0.0324,0.013523,0.002678,0.000431,0.033143
6088000,0.0324,0.013523,0.002678,0.000431,0.032320
6089000,0.0324,0.013523,0.002678,0.000431,0.032908
6090000,0.0324,0.013523,0.002678,0.000431,0.032203
6091000,0.0324,0.013523,0.002678,0.000431,0.033496
6092000,0.0324,0.013523,0.002678,0.000431,0.035023
6093000,0.0324,0.013523,0.002678,0.000431,0.034553
6094000,0.0324,0.013523,0.002678,0.000431,0.034553
6095000,0.0324,0.013523,0.002678,0.000431,0.031733
6096000,0.0324,0.013523,0.002678,0.000431,0.032790
6097000,0.0324,0.013523,0.002678,0.000431,0.031733
6098000,0.0324,0.013523,0.002678,0.000431,0.031733
6099000,0.0324,0.013523,0.002678,0.000431,0.035376
6100000,0.0324,0.013523,0.002678,0.000431,0.032320
6101000,0.0324,0.013523,0.002678,0.000431,0.033848
6102000,0.0324,0.013523,0.002678,0.000431,0.033025
6103000,0.0324,0.013523,0.002678,0.000431,0.036551
6104000,0.0324,0.013523,0.002678,0.000431,0.030440
6105000,0.0324,0.013523,0.002678,0.000431,0.032790
6106000,0.0324,0.013523,0.002678,0.000431,0.032203
6107000,0.0324,0.013523,0.002678,0.000431,0.033025
6108000,0.0324,0.013523,0.002678,0.000431,0.033496
6109000,0.0324,0.013523,0.002678,0.000431,0.032438
6110000,0.0324,0.013523,0.002678,0.000431,0.034318
6111000,0.0324,0.013523,0.002678,0.000431,0.032203
6112000,0.0324,0.013523,0.002678,0.000431,0.034083
6113000,0.0324,0.013523,0.002678,0.000431,0.031145
6114000,0.0324,0.013523,0.002678,0.000431,0.034436
6115000,0.0324,0.013523,0.002678,0.000431,0.033260
6116000,0.0324,0.013523,0.002678,0.000431,0.032320
6117000,0.0324,0.013523,0.002678,0.000431,0.031850
6118000,0.0324,0.013523,0.002678,0.000431,0.035611
6119000,0.0324,0.013523,0.002678,0.000431,0.032203
6120000,0.0324,0.013523,0.002678,0.000431,0.031498
6121000,0.0324,0.013523,0.002678,0.000431,0.031145
6122000,0.0324,0.013523,0.002678,0.000431,0.034201
6123000,0.0324,0.013523,0.002678,0.000431,0.032085
6124000,0.0324,0.013523,0.002678,0.000431,0.032790
6125000,0.0324,0.013523,0.002678,0.000431,0.035611
6126000,0.0324,0.013523,0.002678,0.000431,0.031850
6127000,0.0324,0.013523,0.002678,0.000431,0.034788
6128000,0.0324,0.013523,0.002678,0.000431,0.033025
6129000,0.0324,0.013523,0.002678,0.000431,0.033260
6130000,0.0324,0.013523,0.002678,0.000431,0.033966
6131000,0.0324,0.013523,0.002678,0.000431,0.034083
6132000,0.0324,0.013523,0.002678,0.000431,0.032085
6133000,0.0324,0.013523,0.002678,0.000431,0.033966
6134000,0.0324,0.013523,0.002678,0.000431,0.035023
6135000,0.0324,0.013523,0.002678,0.000431,0.031850
6136000,0.0324,0.013523,0.002678,0.000431,0.032908
6137000,0.0324,0.013523,0.002678,0.000431,0.034671
6138000,0.0324,0.013523,0.002678,0.000431,0.031498
6139000,0.0324,0.013523,0.002678,0.000431,0.033025
6140000,0.0324,0.013523,0.002678,0.000431,0.034083
6141000,0.0324,0.013523,0.002678,0.000431,0.033966
6142000,0.0324,0.013523,0.002678,0.000431,0.032790
6143000,0.0324,0.013523,0.002678,0.000431,0.033143
6144000,0.0324,0.013523,0.002678,0.000431,0.034553
6145000,0.0324,0.013523,0.002678,0.000431,0.036316
6146000,0.0324,0.013523,0.002678,0.000431,0.031027
6147000,0.0324,0.013523,0.002678,0.000431,0.034201
6148000,0.0324,0.013523,0.002678,0.000431,0.033496
6149000,0.0324,0.013523,0.002678,0.000431,0.031968
6150000,0.0324,0.013523,0.002678,0.000431,0.030557
6151000,0.0324,0.013523,0.002678,0.000431,0.033496
6152000,0.0324,0.013523,0.002678,0.000431,0.032320
6153000,0.0324,0.013523,0.002678,0.000431,0.033260
6154000,0.0324,0.013523,0.002678,0.000431,0.032790
6155000,0.0324,0.013523,0.002678,0.000431,0.032203
6156000,0.0324,0.013523,0.002678,0.000431,0.033496
6157000,0.0324,0.013523,0.002678,0.000431,0.033378
6158000,0.0324,0.013523,0.002678,0.000431,0.032438
6159000,0.0324,0.013523,0.002678,0.000431,0.032438
6160000,0.0324,0.013523,0.002678,0.000431,0.034436
6161000,0.0324,0.013523,0.002678,0.000431,0.032908
6162000,0.0324,0.013523,0.002678,0.000431,0.034318
6163000,0.0324,0.013523,0.002678,0.000431,0.033025
6164000,0.0324,0.013523,0.002678,0.000431,0.032790
6165000,0.0324,0.013523,0.002678,0.000431,0.032908
6166000,0.0324,0.013523,0.002678,0.000431,0.033378
6167000,0.0324,0.013523,0.002678,0.000431,0.034436
6168000,0.0324,0.013523,0.002678,0.000431,0.030440
6169000,0.0324,0.013523,0.002678,0.000431,0.032438
6170000,0.0324,0.013523,0.002678,0.000431,0.033378
6171000,0.0324,0.013523,0.002678,0.000431,0.031498
6172000,0.0324,0.013523,0.002678,0.000431,0.034436
6173000,0.0324,0.013523,0.002678,0.000431,0.032438
6174000,0.0324,0.013523,0.002678,0.000431,0.034083
6175000,0.0324,0.013523,0.002678,0.000431,0.032085
6176000,0.0324,0.013523,0.002678,0.000431,0.032320
6177000,0.0324,0.013523,0.002678,0.000431,0.032085
6178000,0.0324,0.013523,0.002678,0.000431,0.034318
6179000,0.0324,0.013523,0.002678,0.000431,0.030675
6180000,0.0324,0.013523,0.002678,0.000431,0.032085
6181000,0.0324,0.013523,0.002678,0.000431,0.035023
6182000,0.0324,0.013523,0.002678,0.000431,0.031027
6183000,0.0324,0.013523,0.002678,0.000431,0.032908
6184000,0.0324,0.013523,0.002678,0.000431,0.033496
6185000,0.0324,0.013523,0.002678,0.000431,0.035141
6186000,0.0324,0.013523,0.002678,0.000431,0.031498
6187000,0.0324,0.013523,0.002678,0.000431,0.031850
6188000,0.0324,0.013523,0.002678,0.000431,0.033848
6189000,0.0324,0.013523,0.002678,0.000431,0.030087
6190000,0.0324,0.013523,0.002678,0.000431,0.033025
6191000,0.0324,0.013523,0.002678,0.000431,0.032203
6192000,0.0324,0.013523,0.002678,0.000431,0.033496
6193000,0.0324,0.013523,0.002678,0.000431,0.033025
6194000,0.0324,0.013523,0.002678,0.000431,0.033260
6195000,0.0324,0.013523,0.002678,0.000431,0.032555
6196000,0.0324,0.013523,0.002678,0.000431,0.033260
6197000,0.0324,0.013523,0.002678,0.000431,0.032790
6198000,0.0324,0.013523,0.002678,0.000431,0.033731
6199000,0.0324,0.013523,0.002678,0.000431,0.031615
6200000,0.0324,0.013523,0.002678,0.000431,0.034788
6201000,0.0324,0.013523,0.002678,0.000431,0.031850
6202000,0.0324,0.013523,0.002678,0.000431,0.031733
6203000,0.0324,0.013523,0.002678,0.000431,0.031027
6204000,0.0324,0.013523,0.002678,0.000431,0.032555
6205000,0.0324,0.013523,0.002678,0.000431,0.030440
6206000,0.0324,0.013523,0.002678,0.000431,0.031615
6207000,0.0324,0.013523,0.002678,0.000431,0.034788
6208000,0.0324,0.013523,0.002678,0.000431,0.033143
6209000,0.0324,0.013523,0.002678,0.000431,0.031262
6210000,0.0324,0.013523,0.002678,0.000431,0.033613
6211000,0.0324,0.013523,0.002678,0.000431,0.030910
6212000,0.0324,0.013523,0.002678,0.000431,0.034553
6213000,0.0324,0.013523,0.002678,0.000431,0.030205
6214000,0.0324,0.013523,0.002678,0.000431,0.030792
6215000,0.0324,0.013523,0.002678,0.000431,0.033378
6216000,0.0324,0.013523,0.002678,0.000431,0.033378
6217000,0.0324,0.013523,0.002678,0.000431,0.030322
6218000,0.0324,0.013523,0.002678,0.000431,0.031850
6219000,0.0324,0.013523,0.002678,0.000431,0.034788
6220000,0.0324,0.013523,0.002678,0.000431,0.033260
6221000,0.0324,0.013523,0.002678,0.000431,0.030322
6222000,0.0324,0.013523,0.002678,0.000431,0.031615
6223000,0.0324,0.013523,0.002678,0.000431,0.033966
6224000,0.0324,0.013523,0.002678,0.000431,0.031733
6225000,0.0324,0.013523,0.002678,0.000431,0.033260
6226000,0.0324,0.013523,0.002678,0.000431,0.033025
6227000,0.0324,0.013523,0.002678,0.000431,0.031615
6228000,0.0324,0.013523,0.002678,0.000431,0.031498
6229000,0.0324,0.013523,0.002678,0.000431,0.032790
6230000,0.0324,0.013523,0.002678,0.000431,0.035023
6231000,0.0324,0.013523,0.002678,0.000431,0.031850
6232000,0.0324,0.013523,0.002678,0.000431,0.032085
6233000,0.0324,0.013523,0.002678,0.000431,0.030087
6234000,0.0324,0.013523,0.002678,0.000431,0.033848
6235000,0.0324,0.013523,0.002678,0.000431,0.032438
6236000,0.0324,0.013523,0.002678,0.000431,0.032203
6237000,0.0324,0.013523,0.002678,0.000431,0.031498
6238000,0.0324,0.013523,0.002678,0.000431,0.033378
6239000,0.0324,0.013523,0.002678,0.000431,0.031615
6240000,0.0324,0.013523,0.002678,0.000431,0.031615
6241000,0.0324,0.013523,0.002678,0.000431,0.033378
6242000,0.0324,0.013523,0.002678,0.000431,0.033613
6243000,0.0324,0.013523,0.002678,0.000431,0.032673
6244000,0.0324,0.013523,0.002678,0.000431,0.034788
6245000,0.0324,0.013523,0.002678,0.000431,0.031968
6246000,0.0324,0.013523,0.002678,0.000431,0.030322
6247000,0.0324,0.013523,0.002678,0.000431,0.031262
6248000,0.0324,0.013523,0.002678,0.000431,0.032085
6249000,0.0324,0.013523,0.002678,0.000431,0.034083
6250000,0.0324,0.013523,0.002678,0.000431,0.032673
6251000,0.0324,0.013523,0.002678,0.000431,0.030440
6252000,0.0324,0.013523,0.002678,0.000431,0.030440
6253000,0.0324,0.013523,0.002678,0.000431,0.032085
6254000,0.0324,0.013523,0.002678,0.000431,0.033496
6255000,0.0324,0.013523,0.002678,0.000431,0.030087
6256000,0.0324,0.013523,0.002678,0.000431,0.032908
6257000,0.0324,0.013523,0.002678,0.000431,0.033731
6258000,0.0324,0.013523,0.002678,0.000431,0.030557
6259000,0.0324,0.013523,0.002678,0.000431,0.033378
6260000,0.0324,0.013523,0.002678,0.000431,0.032438
6261000,0.0324,0.013523,0.002678,0.000431,0.032908
6262000,0.0324,0.013523,0.002678,0.000431,0.030205
6263000,0.0324,0.013523,0.002678,0.000431,0.035258
6264000,0.0324,0.013523,0.002678,0.000431,0.032203
6265000,0.0324,0.013523,0.002678,0.000431,0.033260
6266000,0.0324,0.013523,0.002678,0.000431,0.031498
6267000,0.0324,0.013523,0.002678,0.000431,0.031733
6268000,0.0324,0.013523,0.002678,0.000431,0.032673
6269000,0.0324,0.013523,0.002678,0.000431,0.033143
6270000,0.0324,0.013523,0.002678,0.000431,0.030557
6271000,0.0324,0.013523,0.002678,0.000431,0.030440
6272000,0.0324,0.013523,0.002678,0.000431,0.035023
6273000,0.0324,0.013523,0.002678,0.000431,0.031850
6274000,0.0324,0.013523,0.002678,0.000431,0.031850
6275000,0.0324,0.013523,0.002678,0.000431,0.033613
6276000,0.0324,0.013523,0.002678,0.000431,0.032790
6277000,0.0324,0.013523,0.002678,0.000431,0.033966
6278000,0.0324,0.013523,0.002678,0.000431,0.031968
6279000,0.0324,0.013523,0.002678,0.000431,0.031380
6280000,0.0324,0.013523,0.002678,0.000431,0.031615
6281000,0.0324,0.013523,0.002678,0.000431,0.031262
6282000,0.0324,0.013523,0.002678,0.000431,0.032320
6283000,0.0324,0.013523,0.002678,0.000431,0.031262
6284000,0.0324,0.013523,0.002678,0.000431,0.032908
6285000,0.0324,0.013523,0.002678,0.000431,0.031968
6286000,0.0324,0.013523,0.002678,0.000431,0.030205
6287000,0.0324,0.013523,0.002678,0.000431,0.034083
6288000,0.0324,0.013523,0.002678,0.000431,0.031850
6289000,0.0324,0.013523,0.002678,0.000431,0.031380
6290000,0.0324,0.013523,0.002678,0.000431,0.034083
6291000,0.0324,0.013523,0.002678,0.000431,0.031380
6292000,0.0324,0.013523,0.002678,0.000431,0.034083
6293000,0.0324,0.013523,0.002678,0.000431,0.033496
6294000,0.0324,0.013523,0.002678,0.000431,0.033496
6295000,0.0324,0.013523,0.002678,0.000431,0.031262
6296000,0.0324,0.013523,0.002678,0.000431,0.030675
6297000,0.0324,0.013523,0.002678,0.000431,0.033966
6298000,0.0324,0.013523,0.002678,0.000431,0.031850
6299000,0.0324,0.013523,0.002678,0.000431,0.033143
6300000,0.0324,0.013523,0.002678,0.000431,0.031145
6301000,0.0324,0.013523,0.002678,0.000431,0.034201
6302000,0.0324,0.013523,0.002678,0.000431,0.032555
6303000,0.0324,0.013523,0.002678,0.000431,0.031733
6304000,0.0324,0.013523,0.002678,0.000431,0.030557
6305000,0.0324,0.013523,0.002678,0.000431,0.030440
6306000,0.0324,0.013523,0.002678,0.000431,0.033613
6307000,0.0324,0.013523,0.002678,0.000431,0.031850
6308000,0.0324,0.013523,0.002678,0.000431,0.031498
6309000,0.0324,0.013523,0.002678,0.000431,0.029970
6310000,0.0324,0.013523,0.002678,0.000431,0.034201
6311000,0.0324,0.013523,0.002678,0.000431,0.030792
6312000,0.0324,0.013523,0.002678,0.000431,0.032790
6313000,0.0324,0.013523,0.002678,0.000431,0.032438
6314000,0.0324,0.013523,0.002678,0.000431,0.035258
6315000,0.0324,0.013523,0.002678,0.000431,0.030440
6316000,0.0324,0.013523,0.002678,0.000431,0.031968
6317000,0.0324,0.013523,0.002678,0.000431,0.029147
6318000,0.0324,0.013523,0.002678,0.000431,0.034671
6319000,0.0324,0.013523,0.002678,0.000431,0.033260
6320000,0.0324,0.013523,0.002678,0.000431,0.030792
6321000,0.0324,0.013523,0.002678,0.000431,0.033496
6322000,0.0324,0.013523,0.002678,0.000431,0.031027
6323000,0.0324,0.013523,0.002678,0.000431,0.032673
6324000,0.0324,0.013523,0.002678,0.000431,0.030205
6325000,0.0324,0.013523,0.002678,0.000431,0.032908
6326000,0.0324,0.013523,0.002678,0.000431,0.031968
6327000,0.0324,0.013523,0.002678,0.000431,0.032320
6328000,0.0324,0.013523,0.002678,0.000431,0.031498
6329000,0.0324,0.013523,0.002678,0.000431,0.035023
6330000,0.0324,0.013523,0.002678,0.000431,0.031380
6331000,0.0324,0.013523,0.002678,0.000431,0.034906
6332000,0.0324,0.013523,0.002678,0.000431,0.033260
6333000,0.0324,0.013523,0.002678,0.000431,0.031615
6334000,0.0324,0.013523,0.002678,0.000431,0.032085
6335000,0.0324,0.013523,0.002678,0.000431,0.031615
6336000,0.0324,0.013523,0.002678,0.000431,0.032320
6337000,0.0324,0.013523,0.002678,0.000431,0.032320
6338000,0.0324,0.013523,0.002678,0.000431,0.030322
6339000,0.0324,0.013523,0.002678,0.000431,0.033731
6340000,0.0324,0.013523,0.002678,0.000431,0.032908
6341000,0.0324,0.013523,0.002678,0.000431,0.030675
6342000,0.0324,0.013523,0.002678,0.000431,0.030792
6343000,0.0324,0.013523,0.002678,0.000431,0.032085
6344000,0.0324,0.013523,0.002678,0.000431,0.033848
6345000,0.0324,0.013523,0.002678,0.000431,0.029147
6346000,0.0324,0.013523,0.002678,0.000431,0.031615
6347000,0.0324,0.013523,0.002678,0.000431,0.033143
6348000,0.0324,0.013523,0.002678,0.000431,0.031498
6349000,0.0324,0.013523,0.002678,0.000431,0.032203
6350000,0.0324,0.013523,0.002678,0.000431,0.031615
6351000,0.0324,0.013523,0.002678,0.000431,0.031615
6352000,0.0324,0.013523,0.002678,0.000431,0.032555
6353000,0.0324,0.013523,0.002678,0.000431,0.031027
6354000,0.0324,0.013523,0.002678,0.000431,0.034318
6355000,0.0324,0.013523,0.002678,0.000431,0.030087
6356000,0.0324,0.013523,0.002678,0.000431,0.032203
6357000,0.0324,0.013523,0.002678,0.000431,0.031380
6358000,0.0324,0.013523,0.002678,0.000431,0.030322
6359000,0.0324,0.013523,0.002678,0.000431,0.031145
6360000,0.0324,0.013523,0.002678,0.000431,0.031498
6361000,0.0324,0.013523,0.002678,0.000431,0.030910
6362000,0.0324,0.013523,0.002678,0.000431,0.029735
6363000,0.0324,0.013523,0.002678,0.000431,0.032203
6364000,0.0324,0.013523,0.002678,0.000431,0.029617
6365000,0.0324,0.013523,0.002678,0.000431,0.032438
6366000,0.0324,0.013523,0.002678,0.000431,0.031968
6367000,0.0324,0.013523,0.002678,0.000431,0.033848
6368000,0.0324,0.013523,0.002678,0.000431,0.031380
6369000,0.0324,0.013523,0.002678,0.000431,0.031850
6370000,0.0324,0.013523,0.002678,0.000431,0.030792
6371000,0.0324,0.013523,0.002678,0.000431,0.030322
6372000,0.0324,0.013523,0.002678,0.000431,0.031850
6373000,0.0324,0.013523,0.002678,0.000431,0.031262
6374000,0.0324,0.013523,0.002678,0.000431,0.032790
6375000,0.0324,0.013523,0.002678,0.000431,0.029382
6376000,0.0324,0.013523,0.002678,0.000431,0.031615
6377000,0.0324,0.013523,0.002678,0.000431,0.030910
6378000,0.0324,0.013523,0.002678,0.000431,0.031850
6379000,0.0324,0.013523,0.002678,0.000431,0.030557
6380000,0.0324,0.013523,0.002678,0.000431,0.031027
6381000,0.0324,0.013523,0.002678,0.000431,0.032908
6382000,0.0324,0.013523,0.002678,0.000431,0.031262
6383000,0.0324,0.013523,0.002678,0.000431,0.031850
6384000,0.0324,0.013523,0.002678,0.000431,0.029852
6385000,0.0324,0.013523,0.002678,0.000431,0.033143
6386000,0.0324,0.013523,0.002678,0.000431,0.031262
6387000,0.0324,0.013523,0.002678,0.000431,0.032790
6388000,0.0324,0.013523,0.002678,0.000431,0.030087
6389000,0.0324,0.013523,0.002678,0.000431,0.030792
6390000,0.0324,0.013523,0.002678,0.000431,0.030792
6391000,0.0324,0.013523,0.002678,0.000431,0.030792
6392000,0.0324,0.013523,0.002678,0.000431,0.031380
6393000,0.0324,0.013523,0.002678,0.000431,0.030910
6394000,0.0324,0.013523,0.002678,0.000431,0.031968
6395000,0.0324,0.013523,0.002678,0.000431,0.028559
6396000,0.0324,0.013523,0.002678,0.000431,0.030675
6397000,0.0324,0.013523,0.002678,0.000431,0.029382
6398000,0.0324,0.013523,0.002678,0.000431,0.032555
6399000,0.0324,0.013523,0.002678,0.000431,0.028677
6400000,0.0324,0.013523,0.002678,0.000431,0.032438
6401000,0.0324,0.013523,0.002678,0.000431,0.031380
6402000,0.0324,0.013523,0.002678,0.000431,0.029970
6403000,0.0324,0.013523,0.002678,0.000431,0.031615
6404000,0.0324,0.013523,0.002678,0.000431,0.032438
6405000,0.0324,0.013523,0.002678,0.000431,0.033613
6406000,0.0324,0.013523,0.002678,0.000431,0.031145
6407000,0.0324,0.013523,0.002678,0.000431,0.031968
6408000,0.0324,0.013523,0.002678,0.000431,0.030675
6409000,0.0324,0.013523,0.002678,0.000431,0.029852
6410000,0.0324,0.013523,0.002678,0.000431,0.030675
6411000,0.0324,0.013523,0.002678,0.000431,0.029852
6412000,0.0324,0.013523,0.002678,0.000431,0.033143
6413000,0.0324,0.013523,0.002678,0.000431,0.029852
6414000,0.0324,0.013523,0.002678,0.000431,0.028324
6415000,0.0324,0.013523,0.002678,0.000431,0.030910
6416000,0.0324,0.013523,0.002678,0.000431,0.028677
6417000,0.0324,0.013523,0.002678,0.000431,0.028912
6418000,0.0324,0.013523,0.002678,0.000431,0.029382
6419000,0.0324,0.013523,0.002678,0.000431,0.030087
6420000,0.0324,0.013523,0.002678,0.000431,0.028442
6421000,0.0324,0.013523,0.002678,0.000431,0.030557
6422000,0.0324,0.013523,0.002678,0.000431,0.032673
6423000,0.0324,0.013523,0.002678,0.000431,0.034318
6424000,0.0324,0.013523,0.002678,0.000431,0.029382
6425000,0.0324,0.013523,0.002678,0.000431,0.030792
6426000,0.0324,0.013523,0.002678,0.000431,0.031615
6427000,0.0324,0.013523,0.002678,0.000431,0.028912
6428000,0.0324,0.013523,0.002678,0.000431,0.030792
6429000,0.0324,0.013523,0.002678,0.000431,0.030440
6430000,0.0324,0.013523,0.002678,0.000431,0.031615
6431000,0.0324,0.013523,0.002678,0.000431,0.029970
6432000,0.0324,0.013523,0.002678,0.000431,0.028677
6433000,0.0324,0.013523,0.002678,0.000431,0.033025
6434000,0.0324,0.013523,0.002678,0.000431,0.029852
6435000,0.0324,0.013523,0.002678,0.000431,0.031615
6436000,0.0324,0.013523,0.002678,0.000431,0.031498
6437000,0.0324,0.013523,0.002678,0.000431,0.029735
6438000,0.0324,0.013523,0.002678,0.000431,0.032085
6439000,0.0324,0.013523,0.002678,0.000431,0.028794
6440000,0.0324,0.013523,0.002678,0.000431,0.030205
6441000,0.0324,0.013523,0.002678,0.000431,0.032438
6442000,0.0324,0.013523,0.002678,0.000431,0.031498
6443000,0.0324,0.013523,0.002678,0.000431,0.030792
6444000,0.0324,0.013523,0.002678,0.000431,0.030087
6445000,0.0324,0.013523,0.002678,0.000431,0.027854
6446000,0.0324,0.013523,0.002678,0.000431,0.032555
6447000,0.0324,0.013523,0.002678,0.000431,0.029147
6448000,0.0324,0.013523,0.002678,0.000431,0.028089
6449000,0.0324,0.013523,0.002678,0.000431,0.033496
6450000,0.0324,0.013523,0.002678,0.000431,0.030792
6451000,0.0324,0.013523,0.002678,0.000431,0.029265
6452000,0.0324,0.013523,0.002678,0.000431,0.030205
6453000,0.0324,0.013523,0.002678,0.000431,0.031262
6454000,0.0324,0.013523,0.002678,0.000431,0.030792
6455000,0.0324,0.013523,0.002678,0.000431,0.033143
6456000,0.0324,0.013523,0.002678,0.000431,0.030792
6457000,0.0324,0.013523,0.002678,0.000431,0.030792
6458000,0.0324,0.013523,0.002678,0.000431,0.029029
6459000,0.0324,0.013523,0.002678,0.000431,0.030322
6460000,0.0324,0.013523,0.002678,0.000431,0.030792
6461000,0.0324,0.013523,0.002678,0.000431,0.032085
6462000,0.0324,0.013523,0.002678,0.000431,0.029617
6463000,0.0324,0.013523,0.002678,0.000431,0.031145
6464000,0.0324,0.013523,0.002678,0.000431,0.030675
6465000,0.0324,0.013523,0.002678,0.000431,0.030792
6466000,0.0324,0.013523,0.002678,0.000431,0.029852
6467000,0.0324,0.013523,0.002678,0.000431,0.029147
6468000,0.0324,0.013523,0.002678,0.000431,0.029382
6469000,0.0324,0.013523,0.002678,0.000431,0.027854
6470000,0.0324,0.013523,0.002678,0.000431,0.029500
6471000,0.0324,0.013523,0.002678,0.000431,0.028207
6472000,0.0324,0.013523,0.002678,0.000431,0.029265
6473000,0.0324,0.013523,0.002678,0.000431,0.031027
6474000,0.0324,0.013523,0.002678,0.000431,0.029970
6475000,0.0324,0.013523,0.002678,0.000431,0.027854
6476000,0.0324,0.013523,0.002678,0.000431,0.027972
6477000,0.0324,0.013523,0.002678,0.000431,0.030087
6478000,0.0324,0.013523,0.002678,0.000431,0.030087
6479000,0.0324,0.013523,0.002678,0.000431,0.031262
6480000,0.0324,0.013523,0.002678,0.000431,0.029029
6481000,0.0324,0.013523,0.002678,0.000431,0.028794
6482000,0.0324,0.013523,0.002678,0.000431,0.028207
6483000,0.0324,0.013523,0.002678,0.000431,0.029265
6484000,0.0324,0.013523,0.002678,0.000431,0.031262
6485000,0.0324,0.013523,0.002678,0.000431,0.027267
6486000,0.0324,0.013523,0.002678,0.000431,0.030675
6487000,0.0324,0.013523,0.002678,0.000431,0.031850
6488000,0.0324,0.013523,0.002678,0.000431,0.028089
6489000,0.0324,0.013523,0.002678,0.000431,0.027737
6490000,0.0324,0.013523,0.002678,0.000431,0.030910
6491000,0.0324,0.013523,0.002678,0.000431,0.028442
6492000,0.0324,0.013523,0.002678,0.000431,0.026561
6493000,0.0324,0.013523,0.002678,0.000431,0.030557
6494000,0.0324,0.013523,0.002678,0.000431,0.030792
6495000,0.0324,0.013523,0.002678,0.000431,0.029265
6496000,0.0324,0.013523,0.002678,0.000431,0.029735
6497000,0.0324,0.013523,0.002678,0.000431,0.030322
6498000,0.0324,0.013523,0.002678,0.000431,0.031733
6499000,0.0324,0.013523,0.002678,0.000431,0.030087
6500000,0.0324,0.013523,0.002678,0.000431,0.029852
6501000,0.0324,0.013523,0.002678,0.000431,0.029500
6502000,0.0324,0.013523,0.002678,0.000431,0.028912
6503000,0.0324,0.013523,0.002678,0.000431,0.029852
6504000,0.0324,0.013523,0.002678,0.000431,0.030087
6505000,0.0324,0.013523,0.002678,0.000431,0.030675
6506000,0.0324,0.013523,0.002678,0.000431,0.027737
6507000,0.0324,0.013523,0.002678,0.000431,0.029617
6508000,0.0324,0.013523,0.002678,0.000431,0.029147
6509000,0.0324,0.013523,0.002678,0.000431,0.029029
6510000,0.0324,0.013523,0.002678,0.000431,0.029265
6511000,0.0324,0.013523,0.002678,0.000431,0.030675
6512000,0.0324,0.013523,0.002678,0.000431,0.030205
6513000,0.0324,0.013523,0.002678,0.000431,0.028794
6514000,0.0324,0.013523,0.002678,0.000431,0.028442
6515000,0.0324,0.013523,0.002678,0.000431,0.028912
6516000,0.0324,0.013523,0.002678,0.000431,0.030087
6517000,0.0324,0.013523,0.002678,0.000431,0.028559
6518000,0.0324,0.013523,0.002678,0.000431,0.030910
6519000,0.0324,0.013523,0.002678,0.000431,0.028559
6520000,0.0324,0.013523,0.002678,0.000431,0.028912
6521000,0.0324,0.013523,0.002678,0.000431,0.031615
6522000,0.0324,0.013523,0.002678,0.000431,0.029029
6523000,0.0324,0.013523,0.002678,0.000431,0.027972
6524000,0.0324,0.013523,0.002678,0.000431,0.030675
6525000,0.0324,0.013523,0.002678,0.000431,0.029617
6526000,0.0324,0.013523,0.002678,0.000431,0.029382
6527000,0.0324,0.013523,0.002678,0.000431,0.029147
6528000,0.0324,0.013523,0.002678,0.000431,0.029617
6529000,0.0324,0.013523,0.002678,0.000431,0.030205
6530000,0.0324,0.013523,0.002678,0.000431,0.029265
6531000,0.0324,0.013523,0.002678,0.000431,0.028207
6532000,0.0324,0.013523,0.002678,0.000431,0.030557
6533000,0.0324,0.013523,0.002678,0.000431,0.028207
6534000,0.0324,0.013523,0.002678,0.000431,0.031380
6535000,0.0324,0.013523,0.002678,0.000431,0.030322
6536000,0.0324,0.013523,0.002678,0.000431,0.029265
6537000,0.0324,0.013523,0.002678,0.000431,0.028794
6538000,0.0324,0.013523,0.002678,0.000431,0.029265
6539000,0.0324,0.013523,0.002678,0.000431,0.030322
6540000,0.0324,0.013523,0.002678,0.000431,0.028559
6541000,0.0324,0.013523,0.002678,0.000431,0.028794
6542000,0.0324,0.013523,0.002678,0.000431,0.028324
6543000,0.0324,0.013523,0.002678,0.000431,0.031262
6544000,0.0324,0.013523,0.002678,0.000431,0.030205
6545000,0.0324,0.013523,0.002678,0.000431,0.028207
6546000,0.0324,0.013523,0.002678,0.000431,0.027149
6547000,0.0324,0.013523,0.002678,0.000431,0.027384
6548000,0.0324,0.013523,0.002678,0.000431,0.030675
6549000,0.0324,0.013523,0.002678,0.000431,0.028442
6550000,0.0324,0.013523,0.002678,0.000431,0.028324
6551000,0.0324,0.013523,0.002678,0.000431,0.028089
6552000,0.0324,0.013523,0.002678,0.000431,0.027619
6553000,0.0324,0.013523,0.002678,0.000431,0.030322
6554000,0.0324,0.013523,0.002678,0.000431,0.028442
6555000,0.0324,0.013523,0.002678,0.000431,0.029500
6556000,0.0324,0.013523,0.002678,0.000431,0.028324
6557000,0.0324,0.013523,0.002678,0.000431,0.028559
6558000,0.0324,0.013523,0.002678,0.000431,0.031145
6559000,0.0324,0.013523,0.002678,0.000431,0.028324
6560000,0.0324,0.013523,0.002678,0.000431,0.027619
6561000,0.0324,0.013523,0.002678,0.000431,0.028089
6562000,0.0324,0.013523,0.002678,0.000431,0.028207
6563000,0.0324,0.013523,0.002678,0.000431,0.028442
6564000,0.0324,0.013523,0.002678,0.000431,0.027149
6565000,0.0324,0.013523,0.002678,0.000431,0.029735
6566000,0.0324,0.013523,0.002678,0.000431,0.027972
6567000,0.0324,0.013523,0.002678,0.000431,0.030440
6568000,0.0324,0.013523,0.002678,0.000431,0.029029
6569000,0.0324,0.013523,0.002678,0.000431,0.028207
6570000,0.0324,0.013523,0.002678,0.000431,0.030675
6571000,0.0324,0.013523,0.002678,0.000431,0.028912
6572000,0.0324,0.013523,0.002678,0.000431,0.026326
6573000,0.0324,0.013523,0.002678,0.000431,0.026679
6574000,0.0324,0.013523,0.002678,0.000431,0.029265
6575000,0.0324,0.013523,0.002678,0.000431,0.027737
6576000,0.0324,0.013523,0.002678,0.000431,0.028794
6577000,0.0324,0.013523,0.002678,0.000431,0.028442
6578000,0.0324,0.013523,0.002678,0.000431,0.029265
6579000,0.0324,0.013523,0.002678,0.000431,0.028324
6580000,0.0324,0.013523,0.002678,0.000431,0.027619
6581000,0.0324,0.013523,0.002678,0.000431,0.029617
6582000,0.0324,0.013523,0.002678,0.000431,0.029382
6583000,0.0324,0.013523,0.002678,0.000431,0.030205
6584000,0.0324,0.013523,0.002678,0.000431,0.029617
6585000,0.0324,0.013523,0.002678,0.000431,0.026561
6586000,0.0324,0.013523,0.002678,0.000431,0.028089
6587000,0.0324,0.013523,0.002678,0.000431,0.028324
6588000,0.0324,0.013523,0.002678,0.000431,0.028912
6589000,0.0324,0.013523,0.002678,0.000431,0.028794
6590000,0.0324,0.013523,0.002678,0.000431,0.028794
6591000,0.0324,0.013523,0.002678,0.000431,0.028912
6592000,0.0324,0.013523,0.002678,0.000431,0.029500
6593000,0.0324,0.013523,0.002678,0.000431,0.027972
6594000,0.0324,0.013523,0.002678,0.000431,0.029147
6595000,0.0324,0.013523,0.002678,0.000431,0.027854
6596000,0.0324,0.013523,0.002678,0.000431,0.029029
6597000,0.0324,0.013523,0.002678,0.000431,0.028912
6598000,0.0324,0.013523,0.002678,0.000431,0.027149
6599000,0.0324,0.013523,0.002678,0.000431,0.028324
6600000,0.0324,0.013523,0.002678,0.000431,0.030205
6601000,0.0324,0.013523,0.002678,0.000431,0.029029
6602000,0.0324,0.013523,0.002678,0.000431,0.028207
6603000,0.0324,0.013523,0.002678,0.000431,0.028559
6604000,0.0324,0.013523,0.002678,0.000431,0.028559
6605000,0.0324,0.013523,0.002678,0.000431,0.028677
6606000,0.0324,0.013523,0.002678,0.000431,0.028912
6607000,0.0324,0.013523,0.002678,0.000431,0.028207
6608000,0.0324,0.013523,0.002678,0.000431,0.028794
6609000,0.0324,0.013523,0.002678,0.000431,0.026209
6610000,0.0324,0.013523,0.002678,0.000431,0.029852
6611000,0.0324,0.013523,0.002678,0.000431,0.028442
6612000,0.0324,0.013523,0.002678,0.000431,0.026914
6613000,0.0324,0.013523,0.002678,0.000431,0.027619
6614000,0.0324,0.013523,0.002678,0.000431,0.027502
6615000,0.0324,0.013523,0.002678,0.000431,0.027149
6616000,0.0324,0.013523,0.002678,0.000431,0.029500
6617000,0.0324,0.013523,0.002678,0.000431,0.028207
6618000,0.0324,0.013523,0.002678,0.000431,0.024798
6619000,0.0324,0.013523,0.002678,0.000431,0.026914
6620000,0.0324,0.013523,0.002678,0.000431,0.028559
6621000,0.0324,0.013523,0.002678,0.000431,0.027384
6622000,0.0324,0.013523,0.002678,0.000431,0.029265
6623000,0.0324,0.013523,0.002678,0.000431,0.026796
6624000,0.0324,0.013523,0.002678,0.000431,0.027972
6625000,0.0324,0.013523,0.002678,0.000431,0.026914
6626000,0.0324,0.013523,0.002678,0.000431,0.027031
6627000,0.0324,0.013523,0.002678,0.000431,0.029265
6628000,0.0324,0.013523,0.002678,0.000431,0.027149
6629000,0.0324,0.013523,0.002678,0.000431,0.027972
6630000,0.0324,0.013523,0.002678,0.000431,0.028677
6631000,0.0324,0.013523,0.002678,0.000431,0.027502
6632000,0.0324,0.013523,0.002678,0.000431,0.025974
6633000,0.0324,0.013523,0.002678,0.000431,0.027737
6634000,0.0324,0.013523,0.002678,0.000431,0.027149
6635000,0.0324,0.013523,0.002678,0.000431,0.028324
6636000,0.0324,0.013523,0.002678,0.000431,0.027737
6637000,0.0324,0.013523,0.002678,0.000431,0.025621
6638000,0.0324,0.013523,0.002678,0.000431,0.028559
6639000,0.0324,0.013523,0.002678,0.000431,0.030087
6640000,0.0324,0.013523,0.002678,0.000431,0.026326
6641000,0.0324,0.013523,0.002678,0.000431,0.028912
6642000,0.0324,0.013523,0.002678,0.000431,0.028794
6643000,0.0324,0.013523,0.002678,0.000431,0.029265
6644000,0.0324,0.013523,0.002678,0.000431,0.026561
6645000,0.0324,0.013523,0.002678,0.000431,0.028207
6646000,0.0324,0.013523,0.002678,0.000431,0.028559
6647000,0.0324,0.013523,0.002678,0.000431,0.027619
6648000,0.0324,0.013523,0.002678,0.000431,0.029265
6649000,0.0324,0.013523,0.002678,0.000431,0.026326
6650000,0.0324,0.013523,0.002678,0.000431,0.029617
6651000,0.0324,0.013523,0.002678,0.000431,0.028089
6652000,0.0324,0.013523,0.002678,0.000431,0.025034
6653000,0.0324,0.013523,0.002678,0.000431,0.029970
6654000,0.0324,0.013523,0.002678,0.000431,0.029029
6655000,0.0324,0.013523,0.002678,0.000431,0.027031
6656000,0.0324,0.013523,0.002678,0.000431,0.026209
6657000,0.0324,0.013523,0.002678,0.000431,0.028207
6658000,0.0324,0.013523,0.002678,0.000431,0.026326
6659000,0.0324,0.013523,0.002678,0.000431,0.025856
6660000,0.0324,0.013523,0.002678,0.000431,0.028442
6661000,0.0324,0.013523,0.002678,0.000431,0.025856
6662000,0.0324,0.013523,0.002678,0.000431,0.027854
6663000,0.0324,0.013523,0.002678,0.000431,0.026796
6664000,0.0324,0.013523,0.002678,0.000431,0.025504
6665000,0.0324,0.013523,0.002678,0.000431,0.026209
6666000,0.0324,0.013523,0.002678,0.000431,0.026326
6667000,0.0324,0.013523,0.002678,0.000431,0.028677
6668000,0.0324,0.013523,0.002678,0.000431,0.026091
6669000,0.0324,0.013523,0.002678,0.000431,0.026561
6670000,0.0324,0.013523,0.002678,0.000431,0.025739
6671000,0.0324,0.013523,0.002678,0.000431,0.025739
6672000,0.0324,0.013523,0.002678,0.000431,0.027972
6673000,0.0324,0.013523,0.002678,0.000431,0.025739
6674000,0.0324,0.013523,0.002678,0.000431,0.024916
6675000,0.0324,0.013523,0.002678,0.000431,0.027031
6676000,0.0324,0.013523,0.002678,0.000431,0.027619
6677000,0.0324,0.013523,0.002678,0.000431,0.024446
6678000,0.0324,0.013523,0.002678,0.000431,0.029382
6679000,0.0324,0.013523,0.002678,0.000431,0.028912
6680000,0.0324,0.013523,0.002678,0.000431,0.025386
6681000,0.0324,0.013523,0.002678,0.000431,0.027031
6682000,0.0324,0.013523,0.002678,0.000431,0.026914
6683000,0.0324,0.013523,0.002678,0.000431,0.023271
6684000,0.0324,0.013523,0.002678,0.000431,0.026091
6685000,0.0324,0.013523,0.002678,0.000431,0.024798
6686000,0.0324,0.013523,0.002678,0.000431,0.025856
6687000,0.0324,0.013523,0.002678,0.000431,0.026444
6688000,0.0324,0.013523,0.002678,0.000431,0.025739
6689000,0.0324,0.013523,0.002678,0.000431,0.026091
6690000,0.0324,0.013523,0.002678,0.000431,0.024563
6691000,0.0324,0.013523,0.002678,0.000431,0.027737
6692000,0.0324,0.013523,0.002678,0.000431,0.025504
6693000,0.0324,0.013523,0.002678,0.000431,0.025621
6694000,0.0324,0.013523,0.002678,0.000431,0.024798
6695000,0.0324,0.013523,0.002678,0.000431,0.025621
6696000,0.0324,0.013523,0.002678,0.000431,0.026326
6697000,0.0324,0.013523,0.002678,0.000431,0.025974
6698000,0.0324,0.013523,0.002678,0.000431,0.025974
6699000,0.0324,0.013523,0.002678,0.000431,0.027619
6700000,0.0324,0.013523,0.002678,0.000431,0.027384
6701000,0.0324,0.013523,0.002678,0.000431,0.027384
6702000,0.0324,0.013523,0.002678,0.000431,0.023271
6703000,0.0324,0.013523,0.002678,0.000431,0.026914
6704000,0.0324,0.013523,0.002678,0.000431,0.027149
6705000,0.0324,0.013523,0.002678,0.000431,0.024681
6706000,0.0324,0.013523,0.002678,0.000431,0.026209
6707000,0.0324,0.013523,0.002678,0.000431,0.025739
6708000,0.0324,0.013523,0.002678,0.000431,0.025621
6709000,0.0324,0.013523,0.002678,0.000431,0.025974
6710000,0.0324,0.013523,0.002678,0.000431,0.026091
6711000,0.0324,0.013523,0.002678,0.000431,0.026679
6712000,0.0324,0.013523,0.002678,0.000431,0.026914
6713000,0.0324,0.013523,0.002678,0.000431,0.029147
6714000,0.0324,0.013523,0.002678,0.000431,0.024211
6715000,0.0324,0.013523,0.002678,0.000431,0.027502
6716000,0.0324,0.013523,0.002678,0.000431,0.027384
6717000,0.0324,0.013523,0.002678,0.000431,0.026679
6718000,0.0324,0.013523,0.002678,0.000431,0.025269
6719000,0.0324,0.013523,0.002678,0.000431,0.025269
6720000,0.0324,0.013523,0.002678,0.000431,0.026796
6721000,0.0324,0.013523,0.002678,0.000431,0.026914
6722000,0.0324,0.013523,0.002678,0.000431,0.025034
6723000,0.0324,0.013523,0.002678,0.000431,0.025504
6724000,0.0324,0.013523,0.002678,0.000431,0.024446
6725000,0.0324,0.013523,0.002678,0.000431,0.026209
6726000,0.0324,0.013523,0.002678,0.000431,0.024916
6727000,0.0324,0.013523,0.002678,0.000431,0.024916
6728000,0.0324,0.013523,0.002678,0.000431,0.026679
6729000,0.0324,0.013523,0.002678,0.000431,0.025739
6730000,0.0324,0.013523,0.002678,0.000431,0.025504
6731000,0.0324,0.013523,0.002678,0.000431,0.024446
6732000,0.0324,0.013523,0.002678,0.000431,0.026561
6733000,0.0324,0.013523,0.002678,0.000431,0.026444
6734000,0.0324,0.013523,0.002678,0.000431,0.026326
6735000,0.0324,0.013523,0.002678,0.000431,0.023506
6736000,0.0324,0.013523,0.002678,0.000431,0.024446
6737000,0.0324,0.013523,0.002678,0.000431,0.025621
6738000,0.0324,0.013523,0.002678,0.000431,0.026444
6739000,0.0324,0.013523,0.002678,0.000431,0.026209
6740000,0.0324,0.013523,0.002678,0.000431,0.026326
6741000,0.0324,0.013523,0.002678,0.000431,0.025974
6742000,0.0324,0.013523,0.002678,0.000431,0.026444
6743000,0.0324,0.013523,0.002678,0.000431,0.024563
6744000,0.0324,0.013523,0.002678,0.000431,0.025974
6745000,0.0324,0.013523,0.002678,0.000431,0.026679
6746000,0.0324,0.013523,0.002678,0.000431,0.026444
6747000,0.0324,0.013523,0.002678,0.000431,0.025386
6748000,0.0324,0.013523,0.002678,0.000431,0.027502
6749000,0.0324,0.013523,0.002678,0.000431,0.023858
6750000,0.0324,0.013523,0.002678,0.000431,0.027031
6751000,0.0324,0.013523,0.002678,0.000431,0.024916
6752000,0.0324,0.013523,0.002678,0.000431,0.023858
6753000,0.0324,0.013523,0.002678,0.000431,0.026326
6754000,0.0324,0.013523,0.002678,0.000431,0.025151
6755000,0.0324,0.013523,0.002678,0.000431,0.022448
6756000,0.0324,0.013523,0.002678,0.000431,0.028089
6757000,0.0324,0.013523,0.002678,0.000431,0.025739
6758000,0.0324,0.013523,0.002678,0.000431,0.024328
6759000,0.0324,0.013523,0.002678,0.000431,0.025621
6760000,0.0324,0.013523,0.002678,0.000431,0.024681
6761000,0.0324,0.013523,0.002678,0.000431,0.024798
6762000,0.0324,0.013523,0.002678,0.000431,0.028089
6763000,0.0324,0.013523,0.002678,0.000431,0.026091
6764000,0.0324,0.013523,0.002678,0.000431,0.026091
6765000,0.0324,0.013523,0.002678,0.000431,0.024798
6766000,0.0324,0.013523,0.002678,0.000431,0.026444
6767000,0.0324,0.013523,0.002678,0.000431,0.024093
6768000,0.0324,0.013523,0.002678,0.000431,0.025621
6769000,0.0324,0.013523,0.002678,0.000431,0.026444
6770000,0.0324,0.013523,0.002678,0.000431,0.026796
6771000,0.0324,0.013523,0.002678,0.000431,0.025504
6772000,0.0324,0.013523,0.002678,0.000431,0.025974
6773000,0.0324,0.013523,0.002678,0.000431,0.028324
6774000,0.0324,0.013523,0.002678,0.000431,0.024798
6775000,0.0324,0.013523,0.002678,0.000431,0.026561
6776000,0.0324,0.013523,0.002678,0.000431,0.023506
6777000,0.0324,0.013523,0.002678,0.000431,0.026209
6778000,0.0324,0.013523,0.002678,0.000431,0.025269
6779000,0.0324,0.013523,0.002678,0.000431,0.025974
6780000,0.0324,0.013523,0.002678,0.000431,0.023858
6781000,0.0324,0.013523,0.002678,0.000431,0.026796
6782000,0.0324,0.013523,0.002678,0.000431,0.024916
6783000,0.0324,0.013523,0.002678,0.000431,0.026091
6784000,0.0324,0.013523,0.002678,0.000431,0.025034
6785000,0.0324,0.013523,0.002678,0.000431,0.024328
6786000,0.0324,0.013523,0.002678,0.000431,0.025386
6787000,0.0324,0.013523,0.002678,0.000431,0.026679
6788000,0.0324,0.013523,0.002678,0.000431,0.026091
6789000,0.0324,0.013523,0.002678,0.000431,0.023976
6790000,0.0324,0.013523,0.002678,0.000431,0.028207
6791000,0.0324,0.013523,0.002678,0.000431,0.027149
6792000,0.0324,0.013523,0.002678,0.000431,0.024211
6793000,0.0324,0.013523,0.002678,0.000431,0.024798
6794000,0.0324,0.013523,0.002678,0.000431,0.025386
6795000,0.0324,0.013523,0.002678,0.000431,0.026091
6796000,0.0324,0.013523,0.002678,0.000431,0.025739
6797000,0.0324,0.013523,0.002678,0.000431,0.024798
6798000,0.0324,0.013523,0.002678,0.000431,0.026679
6799000,0.0324,0.013523,0.002678,0.000431,0.024798
6800000,0.0324,0.013523,0.002678,0.000431,0.025856
6801000,0.0324,0.013523,0.002678,0.000431,0.025386
6802000,0.0324,0.013523,0.002678,0.000431,0.023976
6803000,0.0324,0.013523,0.002678,0.000431,0.026914
6804000,0.0324,0.013523,0.002678,0.000431,0.026209
6805000,0.0324,0.013523,0.002678,0.000431,0.024446
6806000,0.0324,0.013523,0.002678,0.000431,0.023976
6807000,0.0324,0.013523,0.002678,0.000431,0.025269
6808000,0.0324,0.013523,0.002678,0.000431,0.025386
6809000,0.0324,0.013523,0.002678,0.000431,0.025739
6810000,0.0324,0.013523,0.002678,0.000431,0.025386
6811000,0.0324,0.013523,0.002678,0.000431,0.025034
6812000,0.0324,0.013523,0.002678,0.000431,0.024916
6813000,0.0324,0.013523,0.002678,0.000431,0.025621
6814000,0.0324,0.013523,0.002678,0.000431,0.023976
6815000,0.0324,0.013523,0.002678,0.000431,0.027149
6816000,0.0324,0.013523,0.002678,0.000431,0.025269
6817000,0.0324,0.013523,0.002678,0.000431,0.027267
6818000,0.0324,0.013523,0.002678,0.000431,0.025034
6819000,0.0324,0.013523,0.002678,0.000431,0.024211
6820000,0.0324,0.013523,0.002678,0.000431,0.025856
6821000,0.0324,0.013523,0.002678,0.000431,0.024563
6822000,0.0324,0.013523,0.002678,0.000431,0.024798
6823000,0.0324,0.013523,0.002678,0.000431,0.023976
6824000,0.0324,0.013523,0.002678,0.000431,0.024563
6825000,0.0324,0.013523,0.002678,0.000431,0.025974
6826000,0.0324,0.013523,0.002678,0.000431,0.024563
6827000,0.0324,0.013523,0.002678,0.000431,0.026209
6828000,0.0324,0.013523,0.002678,0.000431,0.024328
6829000,0.0324,0.013523,0.002678,0.000431,0.025974
6830000,0.0324,0.013523,0.002678,0.000431,0.024328
6831000,0.0324,0.013523,0.002678,0.000431,0.026914
6832000,0.0324,0.013523,0.002678,0.000431,0.025974
6833000,0.0324,0.013523,0.002678,0.000431,0.024093
6834000,0.0324,0.013523,0.002678,0.000431,0.024916
6835000,0.0324,0.013523,0.002678,0.000431,0.026091
6836000,0.0324,0.013523,0.002678,0.000431,0.026209
6837000,0.0324,0.013523,0.002678,0.000431,0.025974
6838000,0.0324,0.013523,0.002678,0.000431,0.025739
6839000,0.0324,0.013523,0.002678,0.000431,0.023388
6840000,0.0324,0.013523,0.002678,0.000431,0.024211
6841000,0.0324,0.013523,0.002678,0.000431,0.026679
6842000,0.0324,0.013523,0.002678,0.000431,0.026679
6843000,0.0324,0.013523,0.002678,0.000431,0.024093
6844000,0.0324,0.013523,0.002678,0.000431,0.026679
6845000,0.0324,0.013523,0.002678,0.000431,0.025269
6846000,0.0324,0.013523,0.002678,0.000431,0.027972
6847000,0.0324,0.013523,0.002678,0.000431,0.022918
6848000,0.0324,0.013523,0.002678,0.000431,0.026209
6849000,0.0324,0.013523,0.002678,0.000431,0.025621
6850000,0.0324,0.013523,0.002678,0.000431,0.026209
6851000,0.0324,0.013523,0.002678,0.000431,0.025974
6852000,0.0324,0.013523,0.002678,0.000431,0.027031
6853000,0.0324,0.013523,0.002678,0.000431,0.024446
6854000,0.0324,0.013523,0.002678,0.000431,0.024211
6855000,0.0324,0.013523,0.002678,0.000431,0.027854
6856000,0.0324,0.013523,0.002678,0.000431,0.026209
6857000,0.0324,0.013523,0.002678,0.000431,0.025621
6858000,0.0324,0.013523,0.002678,0.000431,0.025974
6859000,0.0324,0.013523,0.002678,0.000431,0.025856
6860000,0.0324,0.013523,0.002678,0.000431,0.024563
6861000,0.0324,0.013523,0.002678,0.000431,0.025034
6862000,0.0324,0.013523,0.002678,0.000431,0.026796
6863000,0.0324,0.013523,0.002678,0.000431,0.025269
6864000,0.0324,0.013523,0.002678,0.000431,0.024916
6865000,0.0324,0.013523,0.002678,0.000431,0.025386
6866000,0.0324,0.013523,0.002678,0.000431,0.026561
6867000,0.0324,0.013523,0.002678,0.000431,0.025621
6868000,0.0324,0.013523,0.002678,0.000431,0.023976
6869000,0.0324,0.013523,0.002678,0.000431,0.026914
6870000,0.0324,0.013523,0.002678,0.000431,0.025739
6871000,0.0324,0.013523,0.002678,0.000431,0.025386
6872000,0.0324,0.013523,0.002678,0.000431,0.026914
6873000,0.0324,0.013523,0.002678,0.000431,0.027267
6874000,0.0324,0.013523,0.002678,0.000431,0.026326
6875000,0.0324,0.013523,0.002678,0.000431,0.024563
6876000,0.0324,0.013523,0.002678,0.000431,0.024211
6877000,0.0324,0.013523,0.002678,0.000431,0.026326
6878000,0.0324,0.013523,0.002678,0.000431,0.026209
6879000,0.0324,0.013523,0.002678,0.000431,0.024681
6880000,0.0324,0.013523,0.002678,0.000431,0.025739
6881000,0.0324,0.013523,0.002678,0.000431,0.024446
6882000,0.0324,0.013523,0.002678,0.000431,0.025151
6883000,0.0324,0.013523,0.002678,0.000431,0.026091
6884000,0.0324,0.013523,0.002678,0.000431,0.025739
6885000,0.0324,0.013523,0.002678,0.000431,0.026914
6886000,0.0324,0.013523,0.002678,0.000431,0.026326
6887000,0.0324,0.013523,0.002678,0.000431,0.026209
6888000,0.0324,0.013523,0.002678,0.000431,0.023858
6889000,0.0324,0.013523,0.002678,0.000431,0.027619
6890000,0.0324,0.013523,0.002678,0.000431,0.025034
6891000,0.0324,0.013523,0.002678,0.000431,0.025034
6892000,0.0324,0.013523,0.002678,0.000431,0.024916
6893000,0.0324,0.013523,0.002678,0.000431,0.024916
6894000,0.0324,0.013523,0.002678,0.000431,0.027854
6895000,0.0324,0.013523,0.002678,0.000431,0.024798
6896000,0.0324,0.013523,0.002678,0.000431,0.023271
6897000,0.0324,0.013523,0.002678,0.000431,0.023271
6898000,0.0324,0.013523,0.002678,0.000431,0.023976
6899000,0.0324,0.013523,0.002678,0.000431,0.025856
6900000,0.0324,0.013523,0.002678,0.000431,0.027384
6901000,0.0324,0.013523,0.002678,0.000431,0.023858
6902000,0.0324,0.013523,0.002678,0.000431,0.025269
6903000,0.0324,0.013523,0.002678,0.000431,0.024798
6904000,0.0324,0.013523,0.002678,0.000431,0.025151
6905000,0.0324,0.013523,0.002678,0.000431,0.023388
6906000,0.0324,0.013523,0.002678,0.000431,0.023858
6907000,0.0324,0.013523,0.002678,0.000431,0.026914
6908000,0.0324,0.013523,0.002678,0.000431,0.025034
6909000,0.0324,0.013523,0.002678,0.000431,0.023388
6910000,0.0324,0.013523,0.002678,0.000431,0.024681
6911000,0.0324,0.013523,0.002678,0.000431,0.024563
6912000,0.0324,0.013523,0.002678,0.000431,0.024681
6913000,0.0324,0.013523,0.002678,0.000431,0.025621
6914000,0.0324,0.013523,0.002678,0.000431,0.026679
6915000,0.0324,0.013523,0.002678,0.000431,0.025269
6916000,0.0324,0.013523,0.002678,0.000431,0.025856
6917000,0.0324,0.013523,0.002678,0.000431,0.024916
6918000,0.0324,0.013523,0.002678,0.000431,0.024916
6919000,0.0324,0.013523,0.002678,0.000431,0.023976
6920000,0.0324,0.013523,0.002678,0.000431,0.025621
6921000,0.0324,0.013523,0.002678,0.000431,0.026444
6922000,0.0324,0.013523,0.002678,0.000431,0.026326
6923000,0.0324,0.013523,0.002678,0.000431,0.025151
6924000,0.0324,0.013523,0.002678,0.000431,0.026796
6925000,0.0324,0.013523,0.002678,0.000431,0.022800
6926000,0.0324,0.013523,0.002678,0.000431,0.025974
6927000,0.0324,0.013523,0.002678,0.000431,0.022800
6928000,0.0324,0.013523,0.002678,0.000431,0.025974
6929000,0.0324,0.013523,0.002678,0.000431,0.024563
6930000,0.0324,0.013523,0.002678,0.000431,0.024093
6931000,0.0324,0.013523,0.002678,0.000431,0.026209
6932000,0.0324,0.013523,0.002678,0.000431,0.025151
6933000,0.0324,0.013523,0.002678,0.000431,0.026679
6934000,0.0324,0.013523,0.002678,0.000431,0.025386
6935000,0.0324,0.013523,0.002678,0.000431,0.024328
6936000,0.0324,0.013523,0.002678,0.000431,0.023623
6937000,0.0324,0.013523,0.002678,0.000431,0.024798
6938000,0.0324,0.013523,0.002678,0.000431,0.024798
6939000,0.0324,0.013523,0.002678,0.000431,0.025621
6940000,0.0324,0.013523,0.002678,0.000431,0.024798
6941000,0.0324,0.013523,0.002678,0.000431,0.026914
6942000,0.0324,0.013523,0.002678,0.000431,0.024328
6943000,0.0324,0.013523,0.002678,0.000431,0.024446
6944000,0.0324,0.013523,0.002678,0.000431,0.026209
6945000,0.0324,0.013523,0.002678,0.000431,0.025856
6946000,0.0324,0.013523,0.002678,0.000431,0.025151
6947000,0.0324,0.013523,0.002678,0.000431,0.027737
6948000,0.0324,0.013523,0.002678,0.000431,0.024916
6949000,0.0324,0.013523,0.002678,0.000431,0.025386
6950000,0.0324,0.013523,0.002678,0.000431,0.023741
6951000,0.0324,0.013523,0.002678,0.000431,0.025856
6952000,0.0324,0.013523,0.002678,0.000431,0.024446
6953000,0.0324,0.013523,0.002678,0.000431,0.024916
6954000,0.0324,0.013523,0.002678,0.000431,0.023623
6955000,0.0324,0.013523,0.002678,0.000431,0.024798
6956000,0.0324,0.013523,0.002678,0.000431,0.023858
6957000,0.0324,0.013523,0.002678,0.000431,0.025621
6958000,0.0324,0.013523,0.002678,0.000431,0.025504
6959000,0.0324,0.013523,0.002678,0.000431,0.024446
6960000,0.0324,0.013523,0.002678,0.000431,0.022800
6961000,0.0324,0.013523,0.002678,0.000431,0.026444
6962000,0.0324,0.013523,0.002678,0.000431,0.025269
6963000,0.0324,0.013523,0.002678,0.000431,0.023741
6964000,0.0324,0.013523,0.002678,0.000431,0.024093
6965000,0.0324,0.013523,0.002678,0.000431,0.025386
6966000,0.0324,0.013523,0.002678,0.000431,0.022800
6967000,0.0324,0.013523,0.002678,0.000431,0.025269
6968000,0.0324,0.013523,0.002678,0.000431,0.023623
6969000,0.0324,0.013523,0.002678,0.000431,0.023506
6970000,0.0324,0.013523,0.002678,0.000431,0.024916
6971000,0.0324,0.013523,0.002678,0.000431,0.025974
6972000,0.0324,0.013523,0.002678,0.000431,0.025386
6973000,0.0324,0.013523,0.002678,0.000431,0.025269
6974000,0.0324,0.013523,0.002678,0.000431,0.024681
6975000,0.0324,0.013523,0.002678,0.000431,0.025504
6976000,0.0324,0.013523,0.002678,0.000431,0.022918
6977000,0.0324,0.013523,0.002678,0.000431,0.023506
6978000,0.0324,0.013523,0.002678,0.000431,0.025621
6979000,0.0324,0.013523,0.002678,0.000431,0.023036
6980000,0.0324,0.013523,0.002678,0.000431,0.025504
6981000,0.0324,0.013523,0.002678,0.000431,0.025739
6982000,0.0324,0.013523,0.002678,0.000431,0.025739
6983000,0.0324,0.013523,0.002678,0.000431,0.023741
6984000,0.0324,0.013523,0.002678,0.000431,0.023506
6985000,0.0324,0.013523,0.002678,0.000431,0.024916
6986000,0.0324,0.013523,0.002678,0.000431,0.024093
6987000,0.0324,0.013523,0.002678,0.000431,0.023623
6988000,0.0324,0.013523,0.002678,0.000431,0.024916
6989000,0.0324,0.013523,0.002678,0.000431,0.025386
6990000,0.0324,0.013523,0.002678,0.000431,0.021743
6991000,0.0324,0.013523,0.002678,0.000431,0.025621
6992000,0.0324,0.013523,0.002678,0.000431,0.025269
6993000,0.0324,0.013523,0.002678,0.000431,0.025386
6994000,0.0324,0.013523,0.002678,0.000431,0.023271
6995000,0.0324,0.013523,0.002678,0.000431,0.022918
6996000,0.0324,0.013523,0.002678,0.000431,0.024916
6997000,0.0324,0.013523,0.002678,0.000431,0.025151
6998000,0.0324,0.013523,0.002678,0.000431,0.023976
6999000,0.0324,0.013523,0.002678,0.000431,0.024211
