Cycle,Area(mm^2),PeakDynamic(W),SubthresholdLeakage(W),GateLeakage(W),RunTimeDynamic(W)
11000000,0.0324,0.013523,0.002678,0.000431,0.008697
11001000,0.0324,0.013523,0.002678,0.000431,0.011283
11002000,0.0324,0.013523,0.002678,0.000431,0.009285
11003000,0.0324,0.013523,0.002678,0.000431,0.009285
11004000,0.0324,0.013523,0.002678,0.000431,0.010460
11005000,0.0324,0.013523,0.002678,0.000431,0.009990
11006000,0.0324,0.013523,0.002678,0.000431,0.009990
11007000,0.0324,0.013523,0.002678,0.000431,0.009872
11008000,0.0324,0.013523,0.002678,0.000431,0.010578
11009000,0.0324,0.013523,0.002678,0.000431,0.008932
11010000,0.0324,0.013523,0.002678,0.000431,0.010930
11011000,0.0324,0.013523,0.002678,0.000431,0.009050
11012000,0.0324,0.013523,0.002678,0.000431,0.010695
11013000,0.0324,0.013523,0.002678,0.000431,0.009402
11014000,0.0324,0.013523,0.002678,0.000431,0.010225
11015000,0.0324,0.013523,0.002678,0.000431,0.010107
11016000,0.0324,0.013523,0.002678,0.000431,0.010460
11017000,0.0324,0.013523,0.002678,0.000431,0.010225
11018000,0.0324,0.013523,0.002678,0.000431,0.009990
11019000,0.0324,0.013523,0.002678,0.000431,0.010225
11020000,0.0324,0.013523,0.002678,0.000431,0.009755
11021000,0.0324,0.013523,0.002678,0.000431,0.009167
11022000,0.0324,0.013523,0.002678,0.000431,0.010578
11023000,0.0324,0.013523,0.002678,0.000431,0.009637
11024000,0.0324,0.013523,0.002678,0.000431,0.010342
11025000,0.0324,0.013523,0.002678,0.000431,0.010695
11026000,0.0324,0.013523,0.002678,0.000431,0.009285
11027000,0.0324,0.013523,0.002678,0.000431,0.009402
11028000,0.0324,0.013523,0.002678,0.000431,0.010107
11029000,0.0324,0.013523,0.002678,0.000431,0.010225
11030000,0.0324,0.013523,0.002678,0.000431,0.009990
11031000,0.0324,0.013523,0.002678,0.000431,0.011048
11032000,0.0324,0.013523,0.002678,0.000431,0.009167
11033000,0.0324,0.013523,0.002678,0.000431,0.010107
11034000,0.0324,0.013523,0.002678,0.000431,0.010578
11035000,0.0324,0.013523,0.002678,0.000431,0.010342
11036000,0.0324,0.013523,0.002678,0.000431,0.010813
11037000,0.0324,0.013523,0.002678,0.000431,0.009755
11038000,0.0324,0.013523,0.002678,0.000431,0.010225
11039000,0.0324,0.013523,0.002678,0.000431,0.010578
11040000,0.0324,0.013523,0.002678,0.000431,0.009755
11041000,0.0324,0.013523,0.002678,0.000431,0.009520
11042000,0.0324,0.013523,0.002678,0.000431,0.011048
11043000,0.0324,0.013523,0.002678,0.000431,0.009637
11044000,0.0324,0.013523,0.002678,0.000431,0.009872
11045000,0.0324,0.013523,0.002678,0.000431,0.010460
11046000,0.0324,0.013523,0.002678,0.000431,0.010107
11047000,0.0324,0.013523,0.002678,0.000431,0.009520
11048000,0.0324,0.013523,0.002678,0.000431,0.011753
11049000,0.0324,0.013523,0.002678,0.000431,0.009050
11050000,0.0324,0.013523,0.002678,0.000431,0.010107
11051000,0.0324,0.013523,0.002678,0.000431,0.009990
11052000,0.0324,0.013523,0.002678,0.000431,0.009520
11053000,0.0324,0.013523,0.002678,0.000431,0.011635
11054000,0.0324,0.013523,0.002678,0.000431,0.009520
11055000,0.0324,0.013523,0.002678,0.000431,0.010107
11056000,0.0324,0.013523,0.002678,0.000431,0.009520
11057000,0.0324,0.013523,0.002678,0.000431,0.010695
11058000,0.0324,0.013523,0.002678,0.000431,0.009990
11059000,0.0324,0.013523,0.002678,0.000431,0.009872
11060000,0.0324,0.013523,0.002678,0.000431,0.011165
11061000,0.0324,0.013523,0.002678,0.000431,0.010695
11062000,0.0324,0.013523,0.002678,0.000431,0.009167
11063000,0.0324,0.013523,0.002678,0.000431,0.011048
11064000,0.0324,0.013523,0.002678,0.000431,0.009167
11065000,0.0324,0.013523,0.002678,0.000431,0.010813
11066000,0.0324,0.013523,0.002678,0.000431,0.010695
11067000,0.0324,0.013523,0.002678,0.000431,0.010107
11068000,0.0324,0.013523,0.002678,0.000431,0.010695
11069000,0.0324,0.013523,0.002678,0.000431,0.010342
11070000,0.0324,0.013523,0.002678,0.000431,0.010342
11071000,0.0324,0.013523,0.002678,0.000431,0.008580
11072000,0.0324,0.013523,0.002678,0.000431,0.011283
11073000,0.0324,0.013523,0.002678,0.000431,0.009637
11074000,0.0324,0.013523,0.002678,0.000431,0.009872
11075000,0.0324,0.013523,0.002678,0.000431,0.011283
11076000,0.0324,0.013523,0.002678,0.000431,0.010695
11077000,0.0324,0.013523,0.002678,0.000431,0.010342
11078000,0.0324,0.013523,0.002678,0.000431,0.009990
11079000,0.0324,0.013523,0.002678,0.000431,0.010578
11080000,0.0324,0.013523,0.002678,0.000431,0.009990
11081000,0.0324,0.013523,0.002678,0.000431,0.010460
11082000,0.0324,0.013523,0.002678,0.000431,0.009755
11083000,0.0324,0.013523,0.002678,0.000431,0.009872
11084000,0.0324,0.013523,0.002678,0.000431,0.009637
11085000,0.0324,0.013523,0.002678,0.000431,0.009990
11086000,0.0324,0.013523,0.002678,0.000431,0.009990
11087000,0.0324,0.013523,0.002678,0.000431,0.011988
11088000,0.0324,0.013523,0.002678,0.000431,0.010342
11089000,0.0324,0.013523,0.002678,0.000431,0.010578
11090000,0.0324,0.013523,0.002678,0.000431,0.009050
11091000,0.0324,0.013523,0.002678,0.000431,0.009872
11092000,0.0324,0.013523,0.002678,0.000431,0.010225
11093000,0.0324,0.013523,0.002678,0.000431,0.010813
11094000,0.0324,0.013523,0.002678,0.000431,0.009872
11095000,0.0324,0.013523,0.002678,0.000431,0.009872
11096000,0.0324,0.013523,0.002678,0.000431,0.010695
11097000,0.0324,0.013523,0.002678,0.000431,0.009872
11098000,0.0324,0.013523,0.002678,0.000431,0.010695
11099000,0.0324,0.013523,0.002678,0.000431,0.009990
11100000,0.0324,0.013523,0.002678,0.000431,0.009990
11101000,0.0324,0.013523,0.002678,0.000431,0.009755
11102000,0.0324,0.013523,0.002678,0.000431,0.010813
11103000,0.0324,0.013523,0.002678,0.000431,0.009520
11104000,0.0324,0.013523,0.002678,0.000431,0.010225
11105000,0.0324,0.013523,0.002678,0.000431,0.009755
11106000,0.0324,0.013523,0.002678,0.000431,0.010460
11107000,0.0324,0.013523,0.002678,0.000431,0.009755
11108000,0.0324,0.013523,0.002678,0.000431,0.009402
11109000,0.0324,0.013523,0.002678,0.000431,0.009520
11110000,0.0324,0.013523,0.002678,0.000431,0.010225
11111000,0.0324,0.013523,0.002678,0.000431,0.011165
11112000,0.0324,0.013523,0.002678,0.000431,0.008815
11113000,0.0324,0.013523,0.002678,0.000431,0.009990
11114000,0.0324,0.013523,0.002678,0.000431,0.011165
11115000,0.0324,0.013523,0.002678,0.000431,0.009872
11116000,0.0324,0.013523,0.002678,0.000431,0.011165
11117000,0.0324,0.013523,0.002678,0.000431,0.009990
11118000,0.0324,0.013523,0.002678,0.000431,0.010342
11119000,0.0324,0.013523,0.002678,0.000431,0.010107
11120000,0.0324,0.013523,0.002678,0.000431,0.009050
11121000,0.0324,0.013523,0.002678,0.000431,0.011635
11122000,0.0324,0.013523,0.002678,0.000431,0.010107
11123000,0.0324,0.013523,0.002678,0.000431,0.009520
11124000,0.0324,0.013523,0.002678,0.000431,0.010460
11125000,0.0324,0.013523,0.002678,0.000431,0.010225
11126000,0.0324,0.013523,0.002678,0.000431,0.009872
11127000,0.0324,0.013523,0.002678,0.000431,0.009637
11128000,0.0324,0.013523,0.002678,0.000431,0.011518
11129000,0.0324,0.013523,0.002678,0.000431,0.009402
11130000,0.0324,0.013523,0.002678,0.000431,0.009872
11131000,0.0324,0.013523,0.002678,0.000431,0.009755
11132000,0.0324,0.013523,0.002678,0.000431,0.009990
11133000,0.0324,0.013523,0.002678,0.000431,0.010813
11134000,0.0324,0.013523,0.002678,0.000431,0.010813
11135000,0.0324,0.013523,0.002678,0.000431,0.009402
11136000,0.0324,0.013523,0.002678,0.000431,0.010107
11137000,0.0324,0.013523,0.002678,0.000431,0.011635
11138000,0.0324,0.013523,0.002678,0.000431,0.009050
11139000,0.0324,0.013523,0.002678,0.000431,0.010107
11140000,0.0324,0.013523,0.002678,0.000431,0.009990
11141000,0.0324,0.013523,0.002678,0.000431,0.009990
11142000,0.0324,0.013523,0.002678,0.000431,0.009167
11143000,0.0324,0.013523,0.002678,0.000431,0.011048
11144000,0.0324,0.013523,0.002678,0.000431,0.009285
11145000,0.0324,0.013523,0.002678,0.000431,0.010107
11146000,0.0324,0.013523,0.002678,0.000431,0.010342
11147000,0.0324,0.013523,0.002678,0.000431,0.010342
11148000,0.0324,0.013523,0.002678,0.000431,0.010930
11149000,0.0324,0.013523,0.002678,0.000431,0.009637
11150000,0.0324,0.013523,0.002678,0.000431,0.010342
11151000,0.0324,0.013523,0.002678,0.000431,0.010225
11152000,0.0324,0.013523,0.002678,0.000431,0.010225
11153000,0.0324,0.013523,0.002678,0.000431,0.009167
11154000,0.0324,0.013523,0.002678,0.000431,0.010930
11155000,0.0324,0.013523,0.002678,0.000431,0.010342
11156000,0.0324,0.013523,0.002678,0.000431,0.009285
11157000,0.0324,0.013523,0.002678,0.000431,0.010578
11158000,0.0324,0.013523,0.002678,0.000431,0.010225
11159000,0.0324,0.013523,0.002678,0.000431,0.009050
11160000,0.0324,0.013523,0.002678,0.000431,0.009520
11161000,0.0324,0.013523,0.002678,0.000431,0.011048
11162000,0.0324,0.013523,0.002678,0.000431,0.009990
11163000,0.0324,0.013523,0.002678,0.000431,0.009637
11164000,0.0324,0.013523,0.002678,0.000431,0.009402
11165000,0.0324,0.013523,0.002678,0.000431,0.010225
11166000,0.0324,0.013523,0.002678,0.000431,0.009402
11167000,0.0324,0.013523,0.002678,0.000431,0.010578
11168000,0.0324,0.013523,0.002678,0.000431,0.008697
11169000,0.0324,0.013523,0.002678,0.000431,0.010107
11170000,0.0324,0.013523,0.002678,0.000431,0.009285
11171000,0.0324,0.013523,0.002678,0.000431,0.010578
11172000,0.0324,0.013523,0.002678,0.000431,0.010342
11173000,0.0324,0.013523,0.002678,0.000431,0.010107
11174000,0.0324,0.013523,0.002678,0.000431,0.009167
11175000,0.0324,0.013523,0.002678,0.000431,0.010695
11176000,0.0324,0.013523,0.002678,0.000431,0.011048
11177000,0.0324,0.013523,0.002678,0.000431,0.009520
11178000,0.0324,0.013523,0.002678,0.000431,0.010342
11179000,0.0324,0.013523,0.002678,0.000431,0.010930
11180000,0.0324,0.013523,0.002678,0.000431,0.009990
11181000,0.0324,0.013523,0.002678,0.000431,0.010225
11182000,0.0324,0.013523,0.002678,0.000431,0.010225
11183000,0.0324,0.013523,0.002678,0.000431,0.009050
11184000,0.0324,0.013523,0.002678,0.000431,0.010930
11185000,0.0324,0.013523,0.002678,0.000431,0.009285
11186000,0.0324,0.013523,0.002678,0.000431,0.010107
11187000,0.0324,0.013523,0.002678,0.000431,0.009050
11188000,0.0324,0.013523,0.002678,0.000431,0.010107
11189000,0.0324,0.013523,0.002678,0.000431,0.010460
11190000,0.0324,0.013523,0.002678,0.000431,0.009755
11191000,0.0324,0.013523,0.002678,0.000431,0.009402
11192000,0.0324,0.013523,0.002678,0.000431,0.010578
11193000,0.0324,0.013523,0.002678,0.000431,0.010225
11194000,0.0324,0.013523,0.002678,0.000431,0.008697
11195000,0.0324,0.013523,0.002678,0.000431,0.010225
11196000,0.0324,0.013523,0.002678,0.000431,0.009990
11197000,0.0324,0.013523,0.002678,0.000431,0.009402
11198000,0.0324,0.013523,0.002678,0.000431,0.008580
11199000,0.0324,0.013523,0.002678,0.000431,0.009755
11200000,0.0324,0.013523,0.002678,0.000431,0.009755
11201000,0.0324,0.013523,0.002678,0.000431,0.009167
11202000,0.0324,0.013523,0.002678,0.000431,0.011048
11203000,0.0324,0.013523,0.002678,0.000431,0.009520
11204000,0.0324,0.013523,0.002678,0.000431,0.011400
11205000,0.0324,0.013523,0.002678,0.000431,0.009520
11206000,0.0324,0.013523,0.002678,0.000431,0.010342
11207000,0.0324,0.013523,0.002678,0.000431,0.008932
11208000,0.0324,0.013523,0.002678,0.000431,0.010460
11209000,0.0324,0.013523,0.002678,0.000431,0.010695
11210000,0.0324,0.013523,0.002678,0.000431,0.010342
11211000,0.0324,0.013523,0.002678,0.000431,0.010225
11212000,0.0324,0.013523,0.002678,0.000431,0.010225
11213000,0.0324,0.013523,0.002678,0.000431,0.009872
11214000,0.0324,0.013523,0.002678,0.000431,0.009402
11215000,0.0324,0.013523,0.002678,0.000431,0.009872
11216000,0.0324,0.013523,0.002678,0.000431,0.009167
11217000,0.0324,0.013523,0.002678,0.000431,0.010107
11218000,0.0324,0.013523,0.002678,0.000431,0.009990
11219000,0.0324,0.013523,0.002678,0.000431,0.009520
11220000,0.0324,0.013523,0.002678,0.000431,0.009872
11221000,0.0324,0.013523,0.002678,0.000431,0.009755
11222000,0.0324,0.013523,0.002678,0.000431,0.009872
11223000,0.0324,0.013523,0.002678,0.000431,0.011988
11224000,0.0324,0.013523,0.002678,0.000431,0.010460
11225000,0.0324,0.013523,0.002678,0.000431,0.010813
11226000,0.0324,0.013523,0.002678,0.000431,0.010342
11227000,0.0324,0.013523,0.002678,0.000431,0.009285
11228000,0.0324,0.013523,0.002678,0.000431,0.009990
11229000,0.0324,0.013523,0.002678,0.000431,0.009990
11230000,0.0324,0.013523,0.002678,0.000431,0.009050
11231000,0.0324,0.013523,0.002678,0.000431,0.010342
11232000,0.0324,0.013523,0.002678,0.000431,0.010695
11233000,0.0324,0.013523,0.002678,0.000431,0.010225
11234000,0.0324,0.013523,0.002678,0.000431,0.009990
11235000,0.0324,0.013523,0.002678,0.000431,0.009755
11236000,0.0324,0.013523,0.002678,0.000431,0.010460
11237000,0.0324,0.013523,0.002678,0.000431,0.009755
11238000,0.0324,0.013523,0.002678,0.000431,0.008932
11239000,0.0324,0.013523,0.002678,0.000431,0.010107
11240000,0.0324,0.013523,0.002678,0.000431,0.009637
11241000,0.0324,0.013523,0.002678,0.000431,0.009402
11242000,0.0324,0.013523,0.002678,0.000431,0.010342
11243000,0.0324,0.013523,0.002678,0.000431,0.009990
11244000,0.0324,0.013523,0.002678,0.000431,0.009637
11245000,0.0324,0.013523,0.002678,0.000431,0.009990
11246000,0.0324,0.013523,0.002678,0.000431,0.009050
11247000,0.0324,0.013523,0.002678,0.000431,0.009755
11248000,0.0324,0.013523,0.002678,0.000431,0.009755
11249000,0.0324,0.013523,0.002678,0.000431,0.009755
11250000,0.0324,0.013523,0.002678,0.000431,0.009755
11251000,0.0324,0.013523,0.002678,0.000431,0.010460
11252000,0.0324,0.013523,0.002678,0.000431,0.009872
11253000,0.0324,0.013523,0.002678,0.000431,0.010225
11254000,0.0324,0.013523,0.002678,0.000431,0.008815
11255000,0.0324,0.013523,0.002678,0.000431,0.009285
11256000,0.0324,0.013523,0.002678,0.000431,0.010460
11257000,0.0324,0.013523,0.002678,0.000431,0.009990
11258000,0.0324,0.013523,0.002678,0.000431,0.009285
11259000,0.0324,0.013523,0.002678,0.000431,0.009990
11260000,0.0324,0.013523,0.002678,0.000431,0.009050
11261000,0.0324,0.013523,0.002678,0.000431,0.009990
11262000,0.0324,0.013523,0.002678,0.000431,0.010107
11263000,0.0324,0.013523,0.002678,0.000431,0.009755
11264000,0.0324,0.013523,0.002678,0.000431,0.009872
11265000,0.0324,0.013523,0.002678,0.000431,0.011165
11266000,0.0324,0.013523,0.002678,0.000431,0.009755
11267000,0.0324,0.013523,0.002678,0.000431,0.009637
11268000,0.0324,0.013523,0.002678,0.000431,0.010460
11269000,0.0324,0.013523,0.002678,0.000431,0.009990
11270000,0.0324,0.013523,0.002678,0.000431,0.009990
11271000,0.0324,0.013523,0.002678,0.000431,0.010107
11272000,0.0324,0.013523,0.002678,0.000431,0.009402
11273000,0.0324,0.013523,0.002678,0.000431,0.010107
11274000,0.0324,0.013523,0.002678,0.000431,0.010460
11275000,0.0324,0.013523,0.002678,0.000431,0.009990
11276000,0.0324,0.013523,0.002678,0.000431,0.009402
11277000,0.0324,0.013523,0.002678,0.000431,0.010930
11278000,0.0324,0.013523,0.002678,0.000431,0.009755
11279000,0.0324,0.013523,0.002678,0.000431,0.010813
11280000,0.0324,0.013523,0.002678,0.000431,0.010107
11281000,0.0324,0.013523,0.002678,0.000431,0.009755
11282000,0.0324,0.013523,0.002678,0.000431,0.010107
11283000,0.0324,0.013523,0.002678,0.000431,0.010695
11284000,0.0324,0.013523,0.002678,0.000431,0.009285
11285000,0.0324,0.013523,0.002678,0.000431,0.009755
11286000,0.0324,0.013523,0.002678,0.000431,0.010813
11287000,0.0324,0.013523,0.002678,0.000431,0.008932
11288000,0.0324,0.013523,0.002678,0.000431,0.010107
11289000,0.0324,0.013523,0.002678,0.000431,0.009402
11290000,0.0324,0.013523,0.002678,0.000431,0.009637
11291000,0.0324,0.013523,0.002678,0.000431,0.009990
11292000,0.0324,0.013523,0.002678,0.000431,0.011048
11293000,0.0324,0.013523,0.002678,0.000431,0.009520
11294000,0.0324,0.013523,0.002678,0.000431,0.009637
11295000,0.0324,0.013523,0.002678,0.000431,0.009520
11296000,0.0324,0.013523,0.002678,0.000431,0.009050
11297000,0.0324,0.013523,0.002678,0.000431,0.010930
11298000,0.0324,0.013523,0.002678,0.000431,0.009755
11299000,0.0324,0.013523,0.002678,0.000431,0.010342
11300000,0.0324,0.013523,0.002678,0.000431,0.010107
11301000,0.0324,0.013523,0.002678,0.000431,0.009990
11302000,0.0324,0.013523,0.002678,0.000431,0.009637
11303000,0.0324,0.013523,0.002678,0.000431,0.010578
11304000,0.0324,0.013523,0.002678,0.000431,0.009167
11305000,0.0324,0.013523,0.002678,0.000431,0.009990
11306000,0.0324,0.013523,0.002678,0.000431,0.011165
11307000,0.0324,0.013523,0.002678,0.000431,0.009167
11308000,0.0324,0.013523,0.002678,0.000431,0.009167
11309000,0.0324,0.013523,0.002678,0.000431,0.010107
11310000,0.0324,0.013523,0.002678,0.000431,0.011048
11311000,0.0324,0.013523,0.002678,0.000431,0.009167
11312000,0.0324,0.013523,0.002678,0.000431,0.009990
11313000,0.0324,0.013523,0.002678,0.000431,0.010342
11314000,0.0324,0.013523,0.002678,0.000431,0.010342
11315000,0.0324,0.013523,0.002678,0.000431,0.009990
11316000,0.0324,0.013523,0.002678,0.000431,0.009755
11317000,0.0324,0.013523,0.002678,0.000431,0.009520
11318000,0.0324,0.013523,0.002678,0.000431,0.009990
11319000,0.0324,0.013523,0.002678,0.000431,0.009990
11320000,0.0324,0.013523,0.002678,0.000431,0.009872
11321000,0.0324,0.013523,0.002678,0.000431,0.009755
11322000,0.0324,0.013523,0.002678,0.000431,0.011165
11323000,0.0324,0.013523,0.002678,0.000431,0.009520
11324000,0.0324,0.013523,0.002678,0.000431,0.010225
11325000,0.0324,0.013523,0.002678,0.000431,0.010930
11326000,0.0324,0.013523,0.002678,0.000431,0.009637
11327000,0.0324,0.013523,0.002678,0.000431,0.010695
11328000,0.0324,0.013523,0.002678,0.000431,0.009872
11329000,0.0324,0.013523,0.002678,0.000431,0.010460
11330000,0.0324,0.013523,0.002678,0.000431,0.009520
11331000,0.0324,0.013523,0.002678,0.000431,0.009990
11332000,0.0324,0.013523,0.002678,0.000431,0.009990
11333000,0.0324,0.013523,0.002678,0.000431,0.009872
11334000,0.0324,0.013523,0.002678,0.000431,0.010107
11335000,0.0324,0.013523,0.002678,0.000431,0.009285
11336000,0.0324,0.013523,0.002678,0.000431,0.009990
11337000,0.0324,0.013523,0.002678,0.000431,0.009990
11338000,0.0324,0.013523,0.002678,0.000431,0.009872
11339000,0.0324,0.013523,0.002678,0.000431,0.009050
11340000,0.0324,0.013523,0.002678,0.000431,0.011283
11341000,0.0324,0.013523,0.002678,0.000431,0.009402
11342000,0.0324,0.013523,0.002678,0.000431,0.009402
11343000,0.0324,0.013523,0.002678,0.000431,0.010460
11344000,0.0324,0.013523,0.002678,0.000431,0.010107
11345000,0.0324,0.013523,0.002678,0.000431,0.009637
11346000,0.0324,0.013523,0.002678,0.000431,0.010342
11347000,0.0324,0.013523,0.002678,0.000431,0.009990
11348000,0.0324,0.013523,0.002678,0.000431,0.009637
11349000,0.0324,0.013523,0.002678,0.000431,0.010342
11350000,0.0324,0.013523,0.002678,0.000431,0.010107
11351000,0.0324,0.013523,0.002678,0.000431,0.010225
11352000,0.0324,0.013523,0.002678,0.000431,0.010695
11353000,0.0324,0.013523,0.002678,0.000431,0.008932
11354000,0.0324,0.013523,0.002678,0.000431,0.009285
11355000,0.0324,0.013523,0.002678,0.000431,0.010342
11356000,0.0324,0.013523,0.002678,0.000431,0.009285
11357000,0.0324,0.013523,0.002678,0.000431,0.010460
11358000,0.0324,0.013523,0.002678,0.000431,0.008815
11359000,0.0324,0.013523,0.002678,0.000431,0.011165
11360000,0.0324,0.013523,0.002678,0.000431,0.009755
11361000,0.0324,0.013523,0.002678,0.000431,0.009872
11362000,0.0324,0.013523,0.002678,0.000431,0.010225
11363000,0.0324,0.013523,0.002678,0.000431,0.010578
11364000,0.0324,0.013523,0.002678,0.000431,0.009520
11365000,0.0324,0.013523,0.002678,0.000431,0.009402
11366000,0.0324,0.013523,0.002678,0.000431,0.010930
11367000,0.0324,0.013523,0.002678,0.000431,0.010107
11368000,0.0324,0.013523,0.002678,0.000431,0.009167
11369000,0.0324,0.013523,0.002678,0.000431,0.009285
11370000,0.0324,0.013523,0.002678,0.000431,0.010225
11371000,0.0324,0.013523,0.002678,0.000431,0.008697
11372000,0.0324,0.013523,0.002678,0.000431,0.010460
11373000,0.0324,0.013523,0.002678,0.000431,0.010930
11374000,0.0324,0.013523,0.002678,0.000431,0.010578
11375000,0.0324,0.013523,0.002678,0.000431,0.009167
11376000,0.0324,0.013523,0.002678,0.000431,0.009637
11377000,0.0324,0.013523,0.002678,0.000431,0.009872
11378000,0.0324,0.013523,0.002678,0.000431,0.010342
11379000,0.0324,0.013523,0.002678,0.000431,0.009755
11380000,0.0324,0.013523,0.002678,0.000431,0.009285
11381000,0.0324,0.013523,0.002678,0.000431,0.011048
11382000,0.0324,0.013523,0.002678,0.000431,0.009637
11383000,0.0324,0.013523,0.002678,0.000431,0.010225
11384000,0.0324,0.013523,0.002678,0.000431,0.009872
11385000,0.0324,0.013523,0.002678,0.000431,0.009990
11386000,0.0324,0.013523,0.002678,0.000431,0.010107
11387000,0.0324,0.013523,0.002678,0.000431,0.009637
11388000,0.0324,0.013523,0.002678,0.000431,0.010578
11389000,0.0324,0.013523,0.002678,0.000431,0.009872
11390000,0.0324,0.013523,0.002678,0.000431,0.010460
11391000,0.0324,0.013523,0.002678,0.000431,0.009285
11392000,0.0324,0.013523,0.002678,0.000431,0.009755
11393000,0.0324,0.013523,0.002678,0.000431,0.010460
11394000,0.0324,0.013523,0.002678,0.000431,0.009520
11395000,0.0324,0.013523,0.002678,0.000431,0.009402
11396000,0.0324,0.013523,0.002678,0.000431,0.011283
11397000,0.0324,0.013523,0.002678,0.000431,0.009990
11398000,0.0324,0.013523,0.002678,0.000431,0.009050
11399000,0.0324,0.013523,0.002678,0.000431,0.010225
11400000,0.0324,0.013523,0.002678,0.000431,0.012223
11401000,0.0324,0.013523,0.002678,0.000431,0.009990
11402000,0.0324,0.013523,0.002678,0.000431,0.010813
11403000,0.0324,0.013523,0.002678,0.000431,0.009520
11404000,0.0324,0.013523,0.002678,0.000431,0.010342
11405000,0.0324,0.013523,0.002678,0.000431,0.010578
11406000,0.0324,0.013523,0.002678,0.000431,0.009990
11407000,0.0324,0.013523,0.002678,0.000431,0.010460
11408000,0.0324,0.013523,0.002678,0.000431,0.010225
11409000,0.0324,0.013523,0.002678,0.000431,0.011165
11410000,0.0324,0.013523,0.002678,0.000431,0.009402
11411000,0.0324,0.013523,0.002678,0.000431,0.010930
11412000,0.0324,0.013523,0.002678,0.000431,0.009402
11413000,0.0324,0.013523,0.002678,0.000431,0.009990
11414000,0.0324,0.013523,0.002678,0.000431,0.011518
11415000,0.0324,0.013523,0.002678,0.000431,0.010930
11416000,0.0324,0.013523,0.002678,0.000431,0.009167
11417000,0.0324,0.013523,0.002678,0.000431,0.010107
11418000,0.0324,0.013523,0.002678,0.000431,0.010460
11419000,0.0324,0.013523,0.002678,0.000431,0.010342
11420000,0.0324,0.013523,0.002678,0.000431,0.010342
11421000,0.0324,0.013523,0.002678,0.000431,0.010460
11422000,0.0324,0.013523,0.002678,0.000431,0.011165
11423000,0.0324,0.013523,0.002678,0.000431,0.010578
11424000,0.0324,0.013523,0.002678,0.000431,0.010695
11425000,0.0324,0.013523,0.002678,0.000431,0.008932
11426000,0.0324,0.013523,0.002678,0.000431,0.010930
11427000,0.0324,0.013523,0.002678,0.000431,0.010107
11428000,0.0324,0.013523,0.002678,0.000431,0.010342
11429000,0.0324,0.013523,0.002678,0.000431,0.010225
11430000,0.0324,0.013523,0.002678,0.000431,0.009755
11431000,0.0324,0.013523,0.002678,0.000431,0.010225
11432000,0.0324,0.013523,0.002678,0.000431,0.010225
11433000,0.0324,0.013523,0.002678,0.000431,0.009167
11434000,0.0324,0.013523,0.002678,0.000431,0.008932
11435000,0.0324,0.013523,0.002678,0.000431,0.010342
11436000,0.0324,0.013523,0.002678,0.000431,0.010225
11437000,0.0324,0.013523,0.002678,0.000431,0.010107
11438000,0.0324,0.013523,0.002678,0.000431,0.010342
11439000,0.0324,0.013523,0.002678,0.000431,0.009402
11440000,0.0324,0.013523,0.002678,0.000431,0.011048
11441000,0.0324,0.013523,0.002678,0.000431,0.010460
11442000,0.0324,0.013523,0.002678,0.000431,0.009402
11443000,0.0324,0.013523,0.002678,0.000431,0.009755
11444000,0.0324,0.013523,0.002678,0.000431,0.010107
11445000,0.0324,0.013523,0.002678,0.000431,0.010342
11446000,0.0324,0.013523,0.002678,0.000431,0.010225
11447000,0.0324,0.013523,0.002678,0.000431,0.009755
11448000,0.0324,0.013523,0.002678,0.000431,0.010342
11449000,0.0324,0.013523,0.002678,0.000431,0.010342
11450000,0.0324,0.013523,0.002678,0.000431,0.009990
11451000,0.0324,0.013523,0.002678,0.000431,0.010342
11452000,0.0324,0.013523,0.002678,0.000431,0.010460
11453000,0.0324,0.013523,0.002678,0.000431,0.010225
11454000,0.0324,0.013523,0.002678,0.000431,0.009402
11455000,0.0324,0.013523,0.002678,0.000431,0.010107
11456000,0.0324,0.013523,0.002678,0.000431,0.010578
11457000,0.0324,0.013523,0.002678,0.000431,0.009990
11458000,0.0324,0.013523,0.002678,0.000431,0.009872
11459000,0.0324,0.013523,0.002678,0.000431,0.011400
11460000,0.0324,0.013523,0.002678,0.000431,0.010342
11461000,0.0324,0.013523,0.002678,0.000431,0.010107
11462000,0.0324,0.013523,0.002678,0.000431,0.009637
11463000,0.0324,0.013523,0.002678,0.000431,0.009990
11464000,0.0324,0.013523,0.002678,0.000431,0.009050
11465000,0.0324,0.013523,0.002678,0.000431,0.010107
11466000,0.0324,0.013523,0.002678,0.000431,0.009167
11467000,0.0324,0.013523,0.002678,0.000431,0.009050
11468000,0.0324,0.013523,0.002678,0.000431,0.010342
11469000,0.0324,0.013523,0.002678,0.000431,0.009637
11470000,0.0324,0.013523,0.002678,0.000431,0.010460
11471000,0.0324,0.013523,0.002678,0.000431,0.009285
11472000,0.0324,0.013523,0.002678,0.000431,0.009872
11473000,0.0324,0.013523,0.002678,0.000431,0.009050
11474000,0.0324,0.013523,0.002678,0.000431,0.009872
11475000,0.0324,0.013523,0.002678,0.000431,0.009637
11476000,0.0324,0.013523,0.002678,0.000431,0.009520
11477000,0.0324,0.013523,0.002678,0.000431,0.009167
11478000,0.0324,0.013523,0.002678,0.000431,0.010342
11479000,0.0324,0.013523,0.002678,0.000431,0.009755
11480000,0.0324,0.013523,0.002678,0.000431,0.010107
11481000,0.0324,0.013523,0.002678,0.000431,0.009520
11482000,0.0324,0.013523,0.002678,0.000431,0.011400
11483000,0.0324,0.013523,0.002678,0.000431,0.009990
11484000,0.0324,0.013523,0.002678,0.000431,0.010225
11485000,0.0324,0.013523,0.002678,0.000431,0.010107
11486000,0.0324,0.013523,0.002678,0.000431,0.010695
11487000,0.0324,0.013523,0.002678,0.000431,0.009990
11488000,0.0324,0.013523,0.002678,0.000431,0.009167
11489000,0.0324,0.013523,0.002678,0.000431,0.010813
11490000,0.0324,0.013523,0.002678,0.000431,0.010342
11491000,0.0324,0.013523,0.002678,0.000431,0.009402
11492000,0.0324,0.013523,0.002678,0.000431,0.009520
11493000,0.0324,0.013523,0.002678,0.000431,0.010578
11494000,0.0324,0.013523,0.002678,0.000431,0.010107
11495000,0.0324,0.013523,0.002678,0.000431,0.009050
11496000,0.0324,0.013523,0.002678,0.000431,0.009637
11497000,0.0324,0.013523,0.002678,0.000431,0.010695
11498000,0.0324,0.013523,0.002678,0.000431,0.009637
11499000,0.0324,0.013523,0.002678,0.000431,0.009520
11500000,0.0324,0.013523,0.002678,0.000431,0.010342
11501000,0.0324,0.013523,0.002678,0.000431,0.009402
11502000,0.0324,0.013523,0.002678,0.000431,0.009755
11503000,0.0324,0.013523,0.002678,0.000431,0.010225
11504000,0.0324,0.013523,0.002678,0.000431,0.011283
11505000,0.0324,0.013523,0.002678,0.000431,0.009520
11506000,0.0324,0.013523,0.002678,0.000431,0.010225
11507000,0.0324,0.013523,0.002678,0.000431,0.010342
11508000,0.0324,0.013523,0.002678,0.000431,0.011753
11509000,0.0324,0.013523,0.002678,0.000431,0.009990
11510000,0.0324,0.013523,0.002678,0.000431,0.009755
11511000,0.0324,0.013523,0.002678,0.000431,0.010107
11512000,0.0324,0.013523,0.002678,0.000431,0.009285
11513000,0.0324,0.013523,0.002678,0.000431,0.010342
11514000,0.0324,0.013523,0.002678,0.000431,0.010225
11515000,0.0324,0.013523,0.002678,0.000431,0.009990
11516000,0.0324,0.013523,0.002678,0.000431,0.010813
11517000,0.0324,0.013523,0.002678,0.000431,0.009402
11518000,0.0324,0.013523,0.002678,0.000431,0.009050
11519000,0.0324,0.013523,0.002678,0.000431,0.009872
11520000,0.0324,0.013523,0.002678,0.000431,0.009990
11521000,0.0324,0.013523,0.002678,0.000431,0.010107
11522000,0.0324,0.013523,0.002678,0.000431,0.009872
11523000,0.0324,0.013523,0.002678,0.000431,0.009990
11524000,0.0324,0.013523,0.002678,0.000431,0.009872
11525000,0.0324,0.013523,0.002678,0.000431,0.009520
11526000,0.0324,0.013523,0.002678,0.000431,0.010578
11527000,0.0324,0.013523,0.002678,0.000431,0.010225
11528000,0.0324,0.013523,0.002678,0.000431,0.009520
11529000,0.0324,0.013523,0.002678,0.000431,0.010342
11530000,0.0324,0.013523,0.002678,0.000431,0.010813
11531000,0.0324,0.013523,0.002678,0.000431,0.009637
11532000,0.0324,0.013523,0.002678,0.000431,0.009755
11533000,0.0324,0.013523,0.002678,0.000431,0.010225
11534000,0.0324,0.013523,0.002678,0.000431,0.010578
11535000,0.0324,0.013523,0.002678,0.000431,0.009050
11536000,0.0324,0.013523,0.002678,0.000431,0.009402
11537000,0.0324,0.013523,0.002678,0.000431,0.009637
11538000,0.0324,0.013523,0.002678,0.000431,0.010225
11539000,0.0324,0.013523,0.002678,0.000431,0.009637
11540000,0.0324,0.013523,0.002678,0.000431,0.010107
11541000,0.0324,0.013523,0.002678,0.000431,0.009990
11542000,0.0324,0.013523,0.002678,0.000431,0.009285
11543000,0.0324,0.013523,0.002678,0.000431,0.009872
11544000,0.0324,0.013523,0.002678,0.000431,0.008580
11545000,0.0324,0.013523,0.002678,0.000431,0.010225
11546000,0.0324,0.013523,0.002678,0.000431,0.009990
11547000,0.0324,0.013523,0.002678,0.000431,0.009872
11548000,0.0324,0.013523,0.002678,0.000431,0.009872
11549000,0.0324,0.013523,0.002678,0.000431,0.010695
11550000,0.0324,0.013523,0.002678,0.000431,0.009872
11551000,0.0324,0.013523,0.002678,0.000431,0.008932
11552000,0.0324,0.013523,0.002678,0.000431,0.010342
11553000,0.0324,0.013523,0.002678,0.000431,0.009990
11554000,0.0324,0.013523,0.002678,0.000431,0.009755
11555000,0.0324,0.013523,0.002678,0.000431,0.010342
11556000,0.0324,0.013523,0.002678,0.000431,0.010460
11557000,0.0324,0.013523,0.002678,0.000431,0.009050
11558000,0.0324,0.013523,0.002678,0.000431,0.010342
11559000,0.0324,0.013523,0.002678,0.000431,0.009050
11560000,0.0324,0.013523,0.002678,0.000431,0.010930
11561000,0.0324,0.013523,0.002678,0.000431,0.009167
11562000,0.0324,0.013523,0.002678,0.000431,0.009637
11563000,0.0324,0.013523,0.002678,0.000431,0.009990
11564000,0.0324,0.013523,0.002678,0.000431,0.009050
11565000,0.0324,0.013523,0.002678,0.000431,0.010930
11566000,0.0324,0.013523,0.002678,0.000431,0.008580
11567000,0.0324,0.013523,0.002678,0.000431,0.010930
11568000,0.0324,0.013523,0.002678,0.000431,0.009637
11569000,0.0324,0.013523,0.002678,0.000431,0.010342
11570000,0.0324,0.013523,0.002678,0.000431,0.008697
11571000,0.0324,0.013523,0.002678,0.000431,0.010930
11572000,0.0324,0.013523,0.002678,0.000431,0.009285
11573000,0.0324,0.013523,0.002678,0.000431,0.009637
11574000,0.0324,0.013523,0.002678,0.000431,0.009285
11575000,0.0324,0.013523,0.002678,0.000431,0.009520
11576000,0.0324,0.013523,0.002678,0.000431,0.009990
11577000,0.0324,0.013523,0.002678,0.000431,0.009755
11578000,0.0324,0.013523,0.002678,0.000431,0.009520
11579000,0.0324,0.013523,0.002678,0.000431,0.010107
11580000,0.0324,0.013523,0.002678,0.000431,0.009402
11581000,0.0324,0.013523,0.002678,0.000431,0.009520
11582000,0.0324,0.013523,0.002678,0.000431,0.010813
11583000,0.0324,0.013523,0.002678,0.000431,0.009872
11584000,0.0324,0.013523,0.002678,0.000431,0.009872
11585000,0.0324,0.013523,0.002678,0.000431,0.008932
11586000,0.0324,0.013523,0.002678,0.000431,0.009872
11587000,0.0324,0.013523,0.002678,0.000431,0.009402
11588000,0.0324,0.013523,0.002678,0.000431,0.010460
11589000,0.0324,0.013523,0.002678,0.000431,0.010578
11590000,0.0324,0.013523,0.002678,0.000431,0.009520
11591000,0.0324,0.013523,0.002678,0.000431,0.009637
11592000,0.0324,0.013523,0.002678,0.000431,0.008815
11593000,0.0324,0.013523,0.002678,0.000431,0.009520
11594000,0.0324,0.013523,0.002678,0.000431,0.009520
11595000,0.0324,0.013523,0.002678,0.000431,0.009167
11596000,0.0324,0.013523,0.002678,0.000431,0.009167
11597000,0.0324,0.013523,0.002678,0.000431,0.009872
11598000,0.0324,0.013523,0.002678,0.000431,0.009872
11599000,0.0324,0.013523,0.002678,0.000431,0.010342
11600000,0.0324,0.013523,0.002678,0.000431,0.008815
11601000,0.0324,0.013523,0.002678,0.000431,0.010107
11602000,0.0324,0.013523,0.002678,0.000431,0.009050
11603000,0.0324,0.013523,0.002678,0.000431,0.010342
11604000,0.0324,0.013523,0.002678,0.000431,0.009402
11605000,0.0324,0.013523,0.002678,0.000431,0.009872
11606000,0.0324,0.013523,0.002678,0.000431,0.010813
11607000,0.0324,0.013523,0.002678,0.000431,0.008932
11608000,0.0324,0.013523,0.002678,0.000431,0.009637
11609000,0.0324,0.013523,0.002678,0.000431,0.009050
11610000,0.0324,0.013523,0.002678,0.000431,0.009990
11611000,0.0324,0.013523,0.002678,0.000431,0.009520
11612000,0.0324,0.013523,0.002678,0.000431,0.009402
11613000,0.0324,0.013523,0.002678,0.000431,0.009755
11614000,0.0324,0.013523,0.002678,0.000431,0.009050
11615000,0.0324,0.013523,0.002678,0.000431,0.008580
11616000,0.0324,0.013523,0.002678,0.000431,0.009520
11617000,0.0324,0.013523,0.002678,0.000431,0.009402
11618000,0.0324,0.013523,0.002678,0.000431,0.010107
11619000,0.0324,0.013523,0.002678,0.000431,0.009520
11620000,0.0324,0.013523,0.002678,0.000431,0.008580
11621000,0.0324,0.013523,0.002678,0.000431,0.009402
11622000,0.0324,0.013523,0.002678,0.000431,0.008932
11623000,0.0324,0.013523,0.002678,0.000431,0.010225
11624000,0.0324,0.013523,0.002678,0.000431,0.008815
11625000,0.0324,0.013523,0.002678,0.000431,0.009402
11626000,0.0324,0.013523,0.002678,0.000431,0.008697
11627000,0.0324,0.013523,0.002678,0.000431,0.008932
11628000,0.0324,0.013523,0.002678,0.000431,0.008697
11629000,0.0324,0.013523,0.002678,0.000431,0.009167
11630000,0.0324,0.013523,0.002678,0.000431,0.009637
11631000,0.0324,0.013523,0.002678,0.000431,0.008932
11632000,0.0324,0.013523,0.002678,0.000431,0.009285
11633000,0.0324,0.013523,0.002678,0.000431,0.009520
11634000,0.0324,0.013523,0.002678,0.000431,0.008932
11635000,0.0324,0.013523,0.002678,0.000431,0.010342
11636000,0.0324,0.013523,0.002678,0.000431,0.009872
11637000,0.0324,0.013523,0.002678,0.000431,0.009050
11638000,0.0324,0.013523,0.002678,0.000431,0.008109
11639000,0.0324,0.013523,0.002678,0.000431,0.008697
11640000,0.0324,0.013523,0.002678,0.000431,0.009285
11641000,0.0324,0.013523,0.002678,0.000431,0.008697
11642000,0.0324,0.013523,0.002678,0.000431,0.009050
11643000,0.0324,0.013523,0.002678,0.000431,0.008815
11644000,0.0324,0.013523,0.002678,0.000431,0.009050
11645000,0.0324,0.013523,0.002678,0.000431,0.008345
11646000,0.0324,0.013523,0.002678,0.000431,0.009285
11647000,0.0324,0.013523,0.002678,0.000431,0.009990
11648000,0.0324,0.013523,0.002678,0.000431,0.009402
11649000,0.0324,0.013523,0.002678,0.000431,0.009167
11650000,0.0324,0.013523,0.002678,0.000431,0.009167
11651000,0.0324,0.013523,0.002678,0.000431,0.009637
11652000,0.0324,0.013523,0.002678,0.000431,0.009402
11653000,0.0324,0.013523,0.002678,0.000431,0.008345
11654000,0.0324,0.013523,0.002678,0.000431,0.009520
11655000,0.0324,0.013523,0.002678,0.000431,0.008932
11656000,0.0324,0.013523,0.002678,0.000431,0.009402
11657000,0.0324,0.013523,0.002678,0.000431,0.009520
11658000,0.0324,0.013523,0.002678,0.000431,0.008227
11659000,0.0324,0.013523,0.002678,0.000431,0.009167
11660000,0.0324,0.013523,0.002678,0.000431,0.009520
11661000,0.0324,0.013523,0.002678,0.000431,0.009167
11662000,0.0324,0.013523,0.002678,0.000431,0.008815
11663000,0.0324,0.013523,0.002678,0.000431,0.008462
11664000,0.0324,0.013523,0.002678,0.000431,0.010225
11665000,0.0324,0.013523,0.002678,0.000431,0.008109
11666000,0.0324,0.013523,0.002678,0.000431,0.010107
11667000,0.0324,0.013523,0.002678,0.000431,0.010107
11668000,0.0324,0.013523,0.002678,0.000431,0.008462
11669000,0.0324,0.013523,0.002678,0.000431,0.009637
11670000,0.0324,0.013523,0.002678,0.000431,0.009285
11671000,0.0324,0.013523,0.002678,0.000431,0.009402
11672000,0.0324,0.013523,0.002678,0.000431,0.008345
11673000,0.0324,0.013523,0.002678,0.000431,0.009637
11674000,0.0324,0.013523,0.002678,0.000431,0.008932
11675000,0.0324,0.013523,0.002678,0.000431,0.009990
11676000,0.0324,0.013523,0.002678,0.000431,0.008227
11677000,0.0324,0.013523,0.002678,0.000431,0.009637
11678000,0.0324,0.013523,0.002678,0.000431,0.009402
11679000,0.0324,0.013523,0.002678,0.000431,0.009167
11680000,0.0324,0.013523,0.002678,0.000431,0.009520
11681000,0.0324,0.013523,0.002678,0.000431,0.010460
11682000,0.0324,0.013523,0.002678,0.000431,0.009637
11683000,0.0324,0.013523,0.002678,0.000431,0.009637
11684000,0.0324,0.013523,0.002678,0.000431,0.009755
11685000,0.0324,0.013523,0.002678,0.000431,0.009167
11686000,0.0324,0.013523,0.002678,0.000431,0.009990
11687000,0.0324,0.013523,0.002678,0.000431,0.008580
11688000,0.0324,0.013523,0.002678,0.000431,0.010225
11689000,0.0324,0.013523,0.002678,0.000431,0.009285
11690000,0.0324,0.013523,0.002678,0.000431,0.010225
11691000,0.0324,0.013523,0.002678,0.000431,0.009637
11692000,0.0324,0.013523,0.002678,0.000431,0.009050
11693000,0.0324,0.013523,0.002678,0.000431,0.009050
11694000,0.0324,0.013523,0.002678,0.000431,0.009872
11695000,0.0324,0.013523,0.002678,0.000431,0.009990
11696000,0.0324,0.013523,0.002678,0.000431,0.008697
11697000,0.0324,0.013523,0.002678,0.000431,0.010460
11698000,0.0324,0.013523,0.002678,0.000431,0.010578
11699000,0.0324,0.013523,0.002678,0.000431,0.009520
11700000,0.0324,0.013523,0.002678,0.000431,0.008580
11701000,0.0324,0.013523,0.002678,0.000431,0.009167
11702000,0.0324,0.013523,0.002678,0.000431,0.009637
11703000,0.0324,0.013523,0.002678,0.000431,0.008815
11704000,0.0324,0.013523,0.002678,0.000431,0.009167
11705000,0.0324,0.013523,0.002678,0.000431,0.009402
11706000,0.0324,0.013523,0.002678,0.000431,0.009167
11707000,0.0324,0.013523,0.002678,0.000431,0.009402
11708000,0.0324,0.013523,0.002678,0.000431,0.009285
11709000,0.0324,0.013523,0.002678,0.000431,0.008697
11710000,0.0324,0.013523,0.002678,0.000431,0.009167
11711000,0.0324,0.013523,0.002678,0.000431,0.009755
11712000,0.0324,0.013523,0.002678,0.000431,0.009872
11713000,0.0324,0.013523,0.002678,0.000431,0.008462
11714000,0.0324,0.013523,0.002678,0.000431,0.008462
11715000,0.0324,0.013523,0.002678,0.000431,0.009050
11716000,0.0324,0.013523,0.002678,0.000431,0.010107
11717000,0.0324,0.013523,0.002678,0.000431,0.009402
11718000,0.0324,0.013523,0.002678,0.000431,0.010342
11719000,0.0324,0.013523,0.002678,0.000431,0.009990
11720000,0.0324,0.013523,0.002678,0.000431,0.009167
11721000,0.0324,0.013523,0.002678,0.000431,0.009285
11722000,0.0324,0.013523,0.002678,0.000431,0.010342
11723000,0.0324,0.013523,0.002678,0.000431,0.009402
11724000,0.0324,0.013523,0.002678,0.000431,0.009167
11725000,0.0324,0.013523,0.002678,0.000431,0.008697
11726000,0.0324,0.013523,0.002678,0.000431,0.008932
11727000,0.0324,0.013523,0.002678,0.000431,0.008932
11728000,0.0324,0.013523,0.002678,0.000431,0.007992
11729000,0.0324,0.013523,0.002678,0.000431,0.010578
11730000,0.0324,0.013523,0.002678,0.000431,0.008815
11731000,0.0324,0.013523,0.002678,0.000431,0.010460
11732000,0.0324,0.013523,0.002678,0.000431,0.009050
11733000,0.0324,0.013523,0.002678,0.000431,0.009990
11734000,0.0324,0.013523,0.002678,0.000431,0.008815
11735000,0.0324,0.013523,0.002678,0.000431,0.008932
11736000,0.0324,0.013523,0.002678,0.000431,0.009637
11737000,0.0324,0.013523,0.002678,0.000431,0.009755
11738000,0.0324,0.013523,0.002678,0.000431,0.009402
11739000,0.0324,0.013523,0.002678,0.000431,0.009520
11740000,0.0324,0.013523,0.002678,0.000431,0.008815
11741000,0.0324,0.013523,0.002678,0.000431,0.008815
11742000,0.0324,0.013523,0.002678,0.000431,0.010342
11743000,0.0324,0.013523,0.002678,0.000431,0.008932
11744000,0.0324,0.013523,0.002678,0.000431,0.009402
11745000,0.0324,0.013523,0.002678,0.000431,0.009402
11746000,0.0324,0.013523,0.002678,0.000431,0.011165
11747000,0.0324,0.013523,0.002678,0.000431,0.008462
11748000,0.0324,0.013523,0.002678,0.000431,0.009755
11749000,0.0324,0.013523,0.002678,0.000431,0.008815
11750000,0.0324,0.013523,0.002678,0.000431,0.009637
11751000,0.0324,0.013523,0.002678,0.000431,0.008580
11752000,0.0324,0.013523,0.002678,0.000431,0.009872
11753000,0.0324,0.013523,0.002678,0.000431,0.009050
11754000,0.0324,0.013523,0.002678,0.000431,0.009990
11755000,0.0324,0.013523,0.002678,0.000431,0.009050
11756000,0.0324,0.013523,0.002678,0.000431,0.009520
11757000,0.0324,0.013523,0.002678,0.000431,0.008462
11758000,0.0324,0.013523,0.002678,0.000431,0.009755
11759000,0.0324,0.013523,0.002678,0.000431,0.009520
11760000,0.0324,0.013523,0.002678,0.000431,0.009872
11761000,0.0324,0.013523,0.002678,0.000431,0.010578
11762000,0.0324,0.013523,0.002678,0.000431,0.008345
11763000,0.0324,0.013523,0.002678,0.000431,0.008697
11764000,0.0324,0.013523,0.002678,0.000431,0.009402
11765000,0.0324,0.013523,0.002678,0.000431,0.009637
11766000,0.0324,0.013523,0.002678,0.000431,0.010460
11767000,0.0324,0.013523,0.002678,0.000431,0.008697
11768000,0.0324,0.013523,0.002678,0.000431,0.009872
11769000,0.0324,0.013523,0.002678,0.000431,0.009402
11770000,0.0324,0.013523,0.002678,0.000431,0.008580
11771000,0.0324,0.013523,0.002678,0.000431,0.009167
11772000,0.0324,0.013523,0.002678,0.000431,0.010225
11773000,0.0324,0.013523,0.002678,0.000431,0.009167
11774000,0.0324,0.013523,0.002678,0.000431,0.009520
11775000,0.0324,0.013523,0.002678,0.000431,0.009872
11776000,0.0324,0.013523,0.002678,0.000431,0.009755
11777000,0.0324,0.013523,0.002678,0.000431,0.008932
11778000,0.0324,0.013523,0.002678,0.000431,0.010107
11779000,0.0324,0.013523,0.002678,0.000431,0.009755
11780000,0.0324,0.013523,0.002678,0.000431,0.009755
11781000,0.0324,0.013523,0.002678,0.000431,0.009167
11782000,0.0324,0.013523,0.002678,0.000431,0.009520
11783000,0.0324,0.013523,0.002678,0.000431,0.010578
11784000,0.0324,0.013523,0.002678,0.000431,0.009755
11785000,0.0324,0.013523,0.002678,0.000431,0.009872
11786000,0.0324,0.013523,0.002678,0.000431,0.009872
11787000,0.0324,0.013523,0.002678,0.000431,0.009520
11788000,0.0324,0.013523,0.002678,0.000431,0.009050
11789000,0.0324,0.013523,0.002678,0.000431,0.009285
11790000,0.0324,0.013523,0.002678,0.000431,0.009167
11791000,0.0324,0.013523,0.002678,0.000431,0.009520
11792000,0.0324,0.013523,0.002678,0.000431,0.009167
11793000,0.0324,0.013523,0.002678,0.000431,0.009167
11794000,0.0324,0.013523,0.002678,0.000431,0.010225
11795000,0.0324,0.013523,0.002678,0.000431,0.009520
11796000,0.0324,0.013523,0.002678,0.000431,0.009990
11797000,0.0324,0.013523,0.002678,0.000431,0.009755
11798000,0.0324,0.013523,0.002678,0.000431,0.009755
11799000,0.0324,0.013523,0.002678,0.000431,0.009520
11800000,0.0324,0.013523,0.002678,0.000431,0.009872
11801000,0.0324,0.013523,0.002678,0.000431,0.009402
11802000,0.0324,0.013523,0.002678,0.000431,0.010107
11803000,0.0324,0.013523,0.002678,0.000431,0.009050
11804000,0.0324,0.013523,0.002678,0.000431,0.009285
11805000,0.0324,0.013523,0.002678,0.000431,0.009872
11806000,0.0324,0.013523,0.002678,0.000431,0.009050
11807000,0.0324,0.013523,0.002678,0.000431,0.010813
11808000,0.0324,0.013523,0.002678,0.000431,0.009285
11809000,0.0324,0.013523,0.002678,0.000431,0.010460
11810000,0.0324,0.013523,0.002678,0.000431,0.009285
11811000,0.0324,0.013523,0.002678,0.000431,0.009167
11812000,0.0324,0.013523,0.002678,0.000431,0.008932
11813000,0.0324,0.013523,0.002678,0.000431,0.010107
11814000,0.0324,0.013523,0.002678,0.000431,0.009520
11815000,0.0324,0.013523,0.002678,0.000431,0.009050
11816000,0.0324,0.013523,0.002678,0.000431,0.010225
11817000,0.0324,0.013523,0.002678,0.000431,0.009285
11818000,0.0324,0.013523,0.002678,0.000431,0.009402
11819000,0.0324,0.013523,0.002678,0.000431,0.009402
11820000,0.0324,0.013523,0.002678,0.000431,0.010107
11821000,0.0324,0.013523,0.002678,0.000431,0.009050
11822000,0.0324,0.013523,0.002678,0.000431,0.008815
11823000,0.0324,0.013523,0.002678,0.000431,0.009637
11824000,0.0324,0.013523,0.002678,0.000431,0.010342
11825000,0.0324,0.013523,0.002678,0.000431,0.008462
11826000,0.0324,0.013523,0.002678,0.000431,0.011048
11827000,0.0324,0.013523,0.002678,0.000431,0.009520
11828000,0.0324,0.013523,0.002678,0.000431,0.009755
11829000,0.0324,0.013523,0.002678,0.000431,0.009285
11830000,0.0324,0.013523,0.002678,0.000431,0.009637
11831000,0.0324,0.013523,0.002678,0.000431,0.009990
11832000,0.0324,0.013523,0.002678,0.000431,0.008697
11833000,0.0324,0.013523,0.002678,0.000431,0.009755
11834000,0.0324,0.013523,0.002678,0.000431,0.008462
11835000,0.0324,0.013523,0.002678,0.000431,0.010930
11836000,0.0324,0.013523,0.002678,0.000431,0.009872
11837000,0.0324,0.013523,0.002678,0.000431,0.008697
11838000,0.0324,0.013523,0.002678,0.000431,0.008815
11839000,0.0324,0.013523,0.002678,0.000431,0.008815
11840000,0.0324,0.013523,0.002678,0.000431,0.008815
11841000,0.0324,0.013523,0.002678,0.000431,0.010225
11842000,0.0324,0.013523,0.002678,0.000431,0.008697
11843000,0.0324,0.013523,0.002678,0.000431,0.009050
11844000,0.0324,0.013523,0.002678,0.000431,0.009285
11845000,0.0324,0.013523,0.002678,0.000431,0.009167
11846000,0.0324,0.013523,0.002678,0.000431,0.009050
11847000,0.0324,0.013523,0.002678,0.000431,0.009167
11848000,0.0324,0.013523,0.002678,0.000431,0.009637
11849000,0.0324,0.013523,0.002678,0.000431,0.009167
11850000,0.0324,0.013523,0.002678,0.000431,0.010813
11851000,0.0324,0.013523,0.002678,0.000431,0.009050
11852000,0.0324,0.013523,0.002678,0.000431,0.009872
11853000,0.0324,0.013523,0.002678,0.000431,0.009872
11854000,0.0324,0.013523,0.002678,0.000431,0.009990
11855000,0.0324,0.013523,0.002678,0.000431,0.008580
11856000,0.0324,0.013523,0.002678,0.000431,0.009872
11857000,0.0324,0.013523,0.002678,0.000431,0.009050
11858000,0.0324,0.013523,0.002678,0.000431,0.011048
11859000,0.0324,0.013523,0.002678,0.000431,0.009755
11860000,0.0324,0.013523,0.002678,0.000431,0.009872
11861000,0.0324,0.013523,0.002678,0.000431,0.010342
11862000,0.0324,0.013523,0.002678,0.000431,0.009285
11863000,0.0324,0.013523,0.002678,0.000431,0.008697
11864000,0.0324,0.013523,0.002678,0.000431,0.008932
11865000,0.0324,0.013523,0.002678,0.000431,0.010107
11866000,0.0324,0.013523,0.002678,0.000431,0.010107
11867000,0.0324,0.013523,0.002678,0.000431,0.009167
11868000,0.0324,0.013523,0.002678,0.000431,0.009167
11869000,0.0324,0.013523,0.002678,0.000431,0.010460
11870000,0.0324,0.013523,0.002678,0.000431,0.008815
11871000,0.0324,0.013523,0.002678,0.000431,0.008580
11872000,0.0324,0.013523,0.002678,0.000431,0.009872
11873000,0.0324,0.013523,0.002678,0.000431,0.009637
11874000,0.0324,0.013523,0.002678,0.000431,0.009637
11875000,0.0324,0.013523,0.002678,0.000431,0.009167
11876000,0.0324,0.013523,0.002678,0.000431,0.008932
11877000,0.0324,0.013523,0.002678,0.000431,0.010460
11878000,0.0324,0.013523,0.002678,0.000431,0.010107
11879000,0.0324,0.013523,0.002678,0.000431,0.008580
11880000,0.0324,0.013523,0.002678,0.000431,0.010930
11881000,0.0324,0.013523,0.002678,0.000431,0.008932
11882000,0.0324,0.013523,0.002678,0.000431,0.010225
11883000,0.0324,0.013523,0.002678,0.000431,0.009285
11884000,0.0324,0.013523,0.002678,0.000431,0.010460
11885000,0.0324,0.013523,0.002678,0.000431,0.008697
11886000,0.0324,0.013523,0.002678,0.000431,0.008815
11887000,0.0324,0.013523,0.002678,0.000431,0.009285
11888000,0.0324,0.013523,0.002678,0.000431,0.010460
11889000,0.0324,0.013523,0.002678,0.000431,0.009755
11890000,0.0324,0.013523,0.002678,0.000431,0.008815
11891000,0.0324,0.013523,0.002678,0.000431,0.010460
11892000,0.0324,0.013523,0.002678,0.000431,0.008815
11893000,0.0324,0.013523,0.002678,0.000431,0.009285
11894000,0.0324,0.013523,0.002678,0.000431,0.009167
11895000,0.0324,0.013523,0.002678,0.000431,0.011048
11896000,0.0324,0.013523,0.002678,0.000431,0.008932
11897000,0.0324,0.013523,0.002678,0.000431,0.009402
11898000,0.0324,0.013523,0.002678,0.000431,0.010225
11899000,0.0324,0.013523,0.002678,0.000431,0.010342
11900000,0.0324,0.013523,0.002678,0.000431,0.009167
11901000,0.0324,0.013523,0.002678,0.000431,0.008815
11902000,0.0324,0.013523,0.002678,0.000431,0.010813
11903000,0.0324,0.013523,0.002678,0.000431,0.009167
11904000,0.0324,0.013523,0.002678,0.000431,0.009755
11905000,0.0324,0.013523,0.002678,0.000431,0.008580
11906000,0.0324,0.013523,0.002678,0.000431,0.009402
11907000,0.0324,0.013523,0.002678,0.000431,0.010225
11908000,0.0324,0.013523,0.002678,0.000431,0.009520
11909000,0.0324,0.013523,0.002678,0.000431,0.009990
11910000,0.0324,0.013523,0.002678,0.000431,0.009755
11911000,0.0324,0.013523,0.002678,0.000431,0.009872
11912000,0.0324,0.013523,0.002678,0.000431,0.010342
11913000,0.0324,0.013523,0.002678,0.000431,0.009520
11914000,0.0324,0.013523,0.002678,0.000431,0.010225
11915000,0.0324,0.013523,0.002678,0.000431,0.009402
11916000,0.0324,0.013523,0.002678,0.000431,0.010225
11917000,0.0324,0.013523,0.002678,0.000431,0.009872
11918000,0.0324,0.013523,0.002678,0.000431,0.009755
11919000,0.0324,0.013523,0.002678,0.000431,0.009285
11920000,0.0324,0.013523,0.002678,0.000431,0.009402
11921000,0.0324,0.013523,0.002678,0.000431,0.010107
11922000,0.0324,0.013523,0.002678,0.000431,0.010930
11923000,0.0324,0.013523,0.002678,0.000431,0.009167
11924000,0.0324,0.013523,0.002678,0.000431,0.008697
11925000,0.0324,0.013523,0.002678,0.000431,0.009285
11926000,0.0324,0.013523,0.002678,0.000431,0.009167
11927000,0.0324,0.013523,0.002678,0.000431,0.009402
11928000,0.0324,0.013523,0.002678,0.000431,0.011048
11929000,0.0324,0.013523,0.002678,0.000431,0.009167
11930000,0.0324,0.013523,0.002678,0.000431,0.010695
11931000,0.0324,0.013523,0.002678,0.000431,0.010460
11932000,0.0324,0.013523,0.002678,0.000431,0.008580
11933000,0.0324,0.013523,0.002678,0.000431,0.010578
11934000,0.0324,0.013523,0.002678,0.000431,0.009637
11935000,0.0324,0.013523,0.002678,0.000431,0.008932
11936000,0.0324,0.013523,0.002678,0.000431,0.010107
11937000,0.0324,0.013523,0.002678,0.000431,0.009990
11938000,0.0324,0.013523,0.002678,0.000431,0.009402
11939000,0.0324,0.013523,0.002678,0.000431,0.009050
11940000,0.0324,0.013523,0.002678,0.000431,0.011400
11941000,0.0324,0.013523,0.002678,0.000431,0.008109
11942000,0.0324,0.013523,0.002678,0.000431,0.008932
11943000,0.0324,0.013523,0.002678,0.000431,0.009872
11944000,0.0324,0.013523,0.002678,0.000431,0.009990
11945000,0.0324,0.013523,0.002678,0.000431,0.010225
11946000,0.0324,0.013523,0.002678,0.000431,0.008932
11947000,0.0324,0.013523,0.002678,0.000431,0.010225
11948000,0.0324,0.013523,0.002678,0.000431,0.009637
11949000,0.0324,0.013523,0.002678,0.000431,0.009520
11950000,0.0324,0.013523,0.002678,0.000431,0.008815
11951000,0.0324,0.013523,0.002678,0.000431,0.010460
11952000,0.0324,0.013523,0.002678,0.000431,0.009637
11953000,0.0324,0.013523,0.002678,0.000431,0.008932
11954000,0.0324,0.013523,0.002678,0.000431,0.009637
11955000,0.0324,0.013523,0.002678,0.000431,0.009402
11956000,0.0324,0.013523,0.002678,0.000431,0.008462
11957000,0.0324,0.013523,0.002678,0.000431,0.009402
11958000,0.0324,0.013523,0.002678,0.000431,0.009050
11959000,0.0324,0.013523,0.002678,0.000431,0.010342
11960000,0.0324,0.013523,0.002678,0.000431,0.009285
11961000,0.0324,0.013523,0.002678,0.000431,0.008697
11962000,0.0324,0.013523,0.002678,0.000431,0.009755
11963000,0.0324,0.013523,0.002678,0.000431,0.009402
11964000,0.0324,0.013523,0.002678,0.000431,0.010107
11965000,0.0324,0.013523,0.002678,0.000431,0.009755
11966000,0.0324,0.013523,0.002678,0.000431,0.009050
11967000,0.0324,0.013523,0.002678,0.000431,0.009990
11968000,0.0324,0.013523,0.002678,0.000431,0.010460
11969000,0.0324,0.013523,0.002678,0.000431,0.010930
11970000,0.0324,0.013523,0.002678,0.000431,0.009520
11971000,0.0324,0.013523,0.002678,0.000431,0.008697
11972000,0.0324,0.013523,0.002678,0.000431,0.009755
11973000,0.0324,0.013523,0.002678,0.000431,0.009755
11974000,0.0324,0.013523,0.002678,0.000431,0.010225
11975000,0.0324,0.013523,0.002678,0.000431,0.008932
11976000,0.0324,0.013523,0.002678,0.000431,0.007639
11977000,0.0324,0.013523,0.002678,0.000431,0.009755
11978000,0.0324,0.013523,0.002678,0.000431,0.008697
11979000,0.0324,0.013523,0.002678,0.000431,0.008109
11980000,0.0324,0.013523,0.002678,0.000431,0.007992
11981000,0.0324,0.013523,0.002678,0.000431,0.007992
11982000,0.0324,0.013523,0.002678,0.000431,0.008345
11983000,0.0324,0.013523,0.002678,0.000431,0.008462
11984000,0.0324,0.013523,0.002678,0.000431,0.008345
11985000,0.0324,0.013523,0.002678,0.000431,0.008109
11986000,0.0324,0.013523,0.002678,0.000431,0.007522
11987000,0.0324,0.013523,0.002678,0.000431,0.008345
11988000,0.0324,0.013523,0.002678,0.000431,0.008580
11989000,0.0324,0.013523,0.002678,0.000431,0.007874
11990000,0.0324,0.013523,0.002678,0.000431,0.008109
11991000,0.0324,0.013523,0.002678,0.000431,0.007992
11992000,0.0324,0.013523,0.002678,0.000431,0.008932
11993000,0.0324,0.013523,0.002678,0.000431,0.009402
11994000,0.0324,0.013523,0.002678,0.000431,0.007757
11995000,0.0324,0.013523,0.002678,0.000431,0.007992
11996000,0.0324,0.013523,0.002678,0.000431,0.008109
11997000,0.0324,0.013523,0.002678,0.000431,0.008109
11998000,0.0324,0.013523,0.002678,0.000431,0.008580
11999000,0.0324,0.013523,0.002678,0.000431,0.007992
