Cycle,Area(mm^2),PeakDynamic(W),SubthresholdLeakage(W),GateLeakage(W),RunTimeDynamic(W)
19000000,0.0324,0.013523,0.002678,0.000431,0.000705
19001000,0.0324,0.013523,0.002678,0.000431,0.000823
19002000,0.0324,0.013523,0.002678,0.000431,0.000705
19003000,0.0324,0.013523,0.002678,0.000431,0.000705
19004000,0.0324,0.013523,0.002678,0.000431,0.000705
19005000,0.0324,0.013523,0.002678,0.000431,0.000705
19006000,0.0324,0.013523,0.002678,0.000431,0.000823
19007000,0.0324,0.013523,0.002678,0.000431,0.000588
19008000,0.0324,0.013523,0.002678,0.000431,0.000823
19009000,0.0324,0.013523,0.002678,0.000431,0.000588
19010000,0.0324,0.013523,0.002678,0.000431,0.000823
19011000,0.0324,0.013523,0.002678,0.000431,0.000705
19012000,0.0324,0.013523,0.002678,0.000431,0.000588
19013000,0.0324,0.013523,0.002678,0.000431,0.000705
19014000,0.0324,0.013523,0.002678,0.000431,0.000705
19015000,0.0324,0.013523,0.002678,0.000431,0.000588
19016000,0.0324,0.013523,0.002678,0.000431,0.000823
19017000,0.0324,0.013523,0.002678,0.000431,0.000705
19018000,0.0324,0.013523,0.002678,0.000431,0.000705
19019000,0.0324,0.013523,0.002678,0.000431,0.000940
19020000,0.0324,0.013523,0.002678,0.000431,0.000588
19021000,0.0324,0.013523,0.002678,0.000431,0.000588
19022000,0.0324,0.013523,0.002678,0.000431,0.000588
19023000,0.0324,0.013523,0.002678,0.000431,0.000705
19024000,0.0324,0.013523,0.002678,0.000431,0.000823
19025000,0.0324,0.013523,0.002678,0.000431,0.000705
19026000,0.0324,0.013523,0.002678,0.000431,0.000823
19027000,0.0324,0.013523,0.002678,0.000431,0.000705
19028000,0.0324,0.013523,0.002678,0.000431,0.000705
19029000,0.0324,0.013523,0.002678,0.000431,0.000705
19030000,0.0324,0.013523,0.002678,0.000431,0.000823
19031000,0.0324,0.013523,0.002678,0.000431,0.000705
19032000,0.0324,0.013523,0.002678,0.000431,0.000588
19033000,0.0324,0.013523,0.002678,0.000431,0.000823
19034000,0.0324,0.013523,0.002678,0.000431,0.000705
19035000,0.0324,0.013523,0.002678,0.000431,0.000705
19036000,0.0324,0.013523,0.002678,0.000431,0.000588
19037000,0.0324,0.013523,0.002678,0.000431,0.000823
19038000,0.0324,0.013523,0.002678,0.000431,0.000705
19039000,0.0324,0.013523,0.002678,0.000431,0.000705
19040000,0.0324,0.013523,0.002678,0.000431,0.000588
19041000,0.0324,0.013523,0.002678,0.000431,0.000823
19042000,0.0324,0.013523,0.002678,0.000431,0.000588
19043000,0.0324,0.013523,0.002678,0.000431,0.000705
19044000,0.0324,0.013523,0.002678,0.000431,0.000705
19045000,0.0324,0.013523,0.002678,0.000431,0.000705
19046000,0.0324,0.013523,0.002678,0.000431,0.000705
19047000,0.0324,0.013523,0.002678,0.000431,0.000823
19048000,0.0324,0.013523,0.002678,0.000431,0.000705
19049000,0.0324,0.013523,0.002678,0.000431,0.000705
19050000,0.0324,0.013523,0.002678,0.000431,0.000705
19051000,0.0324,0.013523,0.002678,0.000431,0.000705
19052000,0.0324,0.013523,0.002678,0.000431,0.000588
19053000,0.0324,0.013523,0.002678,0.000431,0.000705
19054000,0.0324,0.013523,0.002678,0.000431,0.000588
19055000,0.0324,0.013523,0.002678,0.000431,0.000705
19056000,0.0324,0.013523,0.002678,0.000431,0.000705
19057000,0.0324,0.013523,0.002678,0.000431,0.000823
19058000,0.0324,0.013523,0.002678,0.000431,0.000705
19059000,0.0324,0.013523,0.002678,0.000431,0.000588
19060000,0.0324,0.013523,0.002678,0.000431,0.000705
19061000,0.0324,0.013523,0.002678,0.000431,0.000588
19062000,0.0324,0.013523,0.002678,0.000431,0.000588
19063000,0.0324,0.013523,0.002678,0.000431,0.000823
19064000,0.0324,0.013523,0.002678,0.000431,0.000823
19065000,0.0324,0.013523,0.002678,0.000431,0.000588
19066000,0.0324,0.013523,0.002678,0.000431,0.000705
19067000,0.0324,0.013523,0.002678,0.000431,0.000705
19068000,0.0324,0.013523,0.002678,0.000431,0.000823
19069000,0.0324,0.013523,0.002678,0.000431,0.000470
19070000,0.0324,0.013523,0.002678,0.000431,0.000823
19071000,0.0324,0.013523,0.002678,0.000431,0.000588
19072000,0.0324,0.013523,0.002678,0.000431,0.000705
19073000,0.0324,0.013523,0.002678,0.000431,0.000705
19074000,0.0324,0.013523,0.002678,0.000431,0.000823
19075000,0.0324,0.013523,0.002678,0.000431,0.000588
19076000,0.0324,0.013523,0.002678,0.000431,0.000705
19077000,0.0324,0.013523,0.002678,0.000431,0.000705
19078000,0.0324,0.013523,0.002678,0.000431,0.000470
19079000,0.0324,0.013523,0.002678,0.000431,0.000940
19080000,0.0324,0.013523,0.002678,0.000431,0.000705
19081000,0.0324,0.013523,0.002678,0.000431,0.000705
19082000,0.0324,0.013523,0.002678,0.000431,0.000705
19083000,0.0324,0.013523,0.002678,0.000431,0.000705
19084000,0.0324,0.013523,0.002678,0.000431,0.000353
19085000,0.0324,0.013523,0.002678,0.000431,0.000705
19086000,0.0324,0.013523,0.002678,0.000431,0.000823
19087000,0.0324,0.013523,0.002678,0.000431,0.000470
19088000,0.0324,0.013523,0.002678,0.000431,0.000940
19089000,0.0324,0.013523,0.002678,0.000431,0.000588
19090000,0.0324,0.013523,0.002678,0.000431,0.000823
19091000,0.0324,0.013523,0.002678,0.000431,0.000705
19092000,0.0324,0.013523,0.002678,0.000431,0.000705
19093000,0.0324,0.013523,0.002678,0.000431,0.000823
19094000,0.0324,0.013523,0.002678,0.000431,0.000588
19095000,0.0324,0.013523,0.002678,0.000431,0.000705
19096000,0.0324,0.013523,0.002678,0.000431,0.000705
19097000,0.0324,0.013523,0.002678,0.000431,0.000705
19098000,0.0324,0.013523,0.002678,0.000431,0.000705
19099000,0.0324,0.013523,0.002678,0.000431,0.000705
19100000,0.0324,0.013523,0.002678,0.000431,0.000823
19101000,0.0324,0.013523,0.002678,0.000431,0.000705
19102000,0.0324,0.013523,0.002678,0.000431,0.000823
19103000,0.0324,0.013523,0.002678,0.000431,0.000588
19104000,0.0324,0.013523,0.002678,0.000431,0.000823
19105000,0.0324,0.013523,0.002678,0.000431,0.000705
19106000,0.0324,0.013523,0.002678,0.000431,0.000705
19107000,0.0324,0.013523,0.002678,0.000431,0.000705
19108000,0.0324,0.013523,0.002678,0.000431,0.000588
19109000,0.0324,0.013523,0.002678,0.000431,0.000823
19110000,0.0324,0.013523,0.002678,0.000431,0.000705
19111000,0.0324,0.013523,0.002678,0.000431,0.000823
19112000,0.0324,0.013523,0.002678,0.000431,0.000705
19113000,0.0324,0.013523,0.002678,0.000431,0.000705
19114000,0.0324,0.013523,0.002678,0.000431,0.000588
19115000,0.0324,0.013523,0.002678,0.000431,0.000823
19116000,0.0324,0.013523,0.002678,0.000431,0.000588
19117000,0.0324,0.013523,0.002678,0.000431,0.000705
19118000,0.0324,0.013523,0.002678,0.000431,0.000705
19119000,0.0324,0.013523,0.002678,0.000431,0.000705
19120000,0.0324,0.013523,0.002678,0.000431,0.000705
19121000,0.0324,0.013523,0.002678,0.000431,0.000705
19122000,0.0324,0.013523,0.002678,0.000431,0.000588
19123000,0.0324,0.013523,0.002678,0.000431,0.000823
19124000,0.0324,0.013523,0.002678,0.000431,0.000588
19125000,0.0324,0.013523,0.002678,0.000431,0.000705
19126000,0.0324,0.013523,0.002678,0.000431,0.000823
19127000,0.0324,0.013523,0.002678,0.000431,0.000705
19128000,0.0324,0.013523,0.002678,0.000431,0.000705
19129000,0.0324,0.013523,0.002678,0.000431,0.000705
19130000,0.0324,0.013523,0.002678,0.000431,0.000823
19131000,0.0324,0.013523,0.002678,0.000431,0.000705
19132000,0.0324,0.013523,0.002678,0.000431,0.000823
19133000,0.0324,0.013523,0.002678,0.000431,0.000588
19134000,0.0324,0.013523,0.002678,0.000431,0.000705
19135000,0.0324,0.013523,0.002678,0.000431,0.000588
19136000,0.0324,0.013523,0.002678,0.000431,0.000705
19137000,0.0324,0.013523,0.002678,0.000431,0.000588
19138000,0.0324,0.013523,0.002678,0.000431,0.000705
19139000,0.0324,0.013523,0.002678,0.000431,0.000705
19140000,0.0324,0.013523,0.002678,0.000431,0.000470
19141000,0.0324,0.013523,0.002678,0.000431,0.000823
19142000,0.0324,0.013523,0.002678,0.000431,0.000705
19143000,0.0324,0.013523,0.002678,0.000431,0.000588
19144000,0.0324,0.013523,0.002678,0.000431,0.000823
19145000,0.0324,0.013523,0.002678,0.000431,0.000588
19146000,0.0324,0.013523,0.002678,0.000431,0.000705
19147000,0.0324,0.013523,0.002678,0.000431,0.000823
19148000,0.0324,0.013523,0.002678,0.000431,0.000588
19149000,0.0324,0.013523,0.002678,0.000431,0.000705
19150000,0.0324,0.013523,0.002678,0.000431,0.000823
19151000,0.0324,0.013523,0.002678,0.000431,0.000705
19152000,0.0324,0.013523,0.002678,0.000431,0.000705
19153000,0.0324,0.013523,0.002678,0.000431,0.000588
19154000,0.0324,0.013523,0.002678,0.000431,0.000823
19155000,0.0324,0.013523,0.002678,0.000431,0.000705
19156000,0.0324,0.013523,0.002678,0.000431,0.000705
19157000,0.0324,0.013523,0.002678,0.000431,0.000705
19158000,0.0324,0.013523,0.002678,0.000431,0.000705
19159000,0.0324,0.013523,0.002678,0.000431,0.000705
19160000,0.0324,0.013523,0.002678,0.000431,0.000705
19161000,0.0324,0.013523,0.002678,0.000431,0.000823
19162000,0.0324,0.013523,0.002678,0.000431,0.000705
19163000,0.0324,0.013523,0.002678,0.000431,0.000588
19164000,0.0324,0.013523,0.002678,0.000431,0.000588
19165000,0.0324,0.013523,0.002678,0.000431,0.000705
19166000,0.0324,0.013523,0.002678,0.000431,0.000705
19167000,0.0324,0.013523,0.002678,0.000431,0.000588
19168000,0.0324,0.013523,0.002678,0.000431,0.000705
19169000,0.0324,0.013523,0.002678,0.000431,0.000588
19170000,0.0324,0.013523,0.002678,0.000431,0.000823
19171000,0.0324,0.013523,0.002678,0.000431,0.000588
19172000,0.0324,0.013523,0.002678,0.000431,0.000588
19173000,0.0324,0.013523,0.002678,0.000431,0.000823
19174000,0.0324,0.013523,0.002678,0.000431,0.000705
19175000,0.0324,0.013523,0.002678,0.000431,0.000705
19176000,0.0324,0.013523,0.002678,0.000431,0.000823
19177000,0.0324,0.013523,0.002678,0.000431,0.000705
19178000,0.0324,0.013523,0.002678,0.000431,0.000823
19179000,0.0324,0.013523,0.002678,0.000431,0.000705
19180000,0.0324,0.013523,0.002678,0.000431,0.000588
19181000,0.0324,0.013523,0.002678,0.000431,0.000823
19182000,0.0324,0.013523,0.002678,0.000431,0.000588
19183000,0.0324,0.013523,0.002678,0.000431,0.000705
19184000,0.0324,0.013523,0.002678,0.000431,0.000705
19185000,0.0324,0.013523,0.002678,0.000431,0.000588
19186000,0.0324,0.013523,0.002678,0.000431,0.000705
19187000,0.0324,0.013523,0.002678,0.000431,0.000705
19188000,0.0324,0.013523,0.002678,0.000431,0.000588
19189000,0.0324,0.013523,0.002678,0.000431,0.000705
19190000,0.0324,0.013523,0.002678,0.000431,0.000705
19191000,0.0324,0.013523,0.002678,0.000431,0.000705
19192000,0.0324,0.013523,0.002678,0.000431,0.000705
19193000,0.0324,0.013523,0.002678,0.000431,0.000705
19194000,0.0324,0.013523,0.002678,0.000431,0.000705
19195000,0.0324,0.013523,0.002678,0.000431,0.000588
19196000,0.0324,0.013523,0.002678,0.000431,0.000705
19197000,0.0324,0.013523,0.002678,0.000431,0.000823
19198000,0.0324,0.013523,0.002678,0.000431,0.000588
19199000,0.0324,0.013523,0.002678,0.000431,0.000705
19200000,0.0324,0.013523,0.002678,0.000431,0.000823
19201000,0.0324,0.013523,0.002678,0.000431,0.000705
19202000,0.0324,0.013523,0.002678,0.000431,0.000588
19203000,0.0324,0.013523,0.002678,0.000431,0.000705
19204000,0.0324,0.013523,0.002678,0.000431,0.000588
19205000,0.0324,0.013523,0.002678,0.000431,0.000705
19206000,0.0324,0.013523,0.002678,0.000431,0.000705
19207000,0.0324,0.013523,0.002678,0.000431,0.000588
19208000,0.0324,0.013523,0.002678,0.000431,0.000705
19209000,0.0324,0.013523,0.002678,0.000431,0.000823
19210000,0.0324,0.013523,0.002678,0.000431,0.000705
19211000,0.0324,0.013523,0.002678,0.000431,0.000588
19212000,0.0324,0.013523,0.002678,0.000431,0.000823
19213000,0.0324,0.013523,0.002678,0.000431,0.000705
19214000,0.0324,0.013523,0.002678,0.000431,0.000705
19215000,0.0324,0.013523,0.002678,0.000431,0.000588
19216000,0.0324,0.013523,0.002678,0.000431,0.000588
19217000,0.0324,0.013523,0.002678,0.000431,0.000705
19218000,0.0324,0.013523,0.002678,0.000431,0.000823
19219000,0.0324,0.013523,0.002678,0.000431,0.000588
19220000,0.0324,0.013523,0.002678,0.000431,0.000705
19221000,0.0324,0.013523,0.002678,0.000431,0.000705
19222000,0.0324,0.013523,0.002678,0.000431,0.000823
19223000,0.0324,0.013523,0.002678,0.000431,0.000823
19224000,0.0324,0.013523,0.002678,0.000431,0.000705
19225000,0.0324,0.013523,0.002678,0.000431,0.000588
19226000,0.0324,0.013523,0.002678,0.000431,0.000705
19227000,0.0324,0.013523,0.002678,0.000431,0.000705
19228000,0.0324,0.013523,0.002678,0.000431,0.000705
19229000,0.0324,0.013523,0.002678,0.000431,0.000588
19230000,0.0324,0.013523,0.002678,0.000431,0.000823
19231000,0.0324,0.013523,0.002678,0.000431,0.000588
19232000,0.0324,0.013523,0.002678,0.000431,0.000705
19233000,0.0324,0.013523,0.002678,0.000431,0.000705
19234000,0.0324,0.013523,0.002678,0.000431,0.000705
19235000,0.0324,0.013523,0.002678,0.000431,0.000705
19236000,0.0324,0.013523,0.002678,0.000431,0.000705
19237000,0.0324,0.013523,0.002678,0.000431,0.000705
19238000,0.0324,0.013523,0.002678,0.000431,0.000705
19239000,0.0324,0.013523,0.002678,0.000431,0.000705
19240000,0.0324,0.013523,0.002678,0.000431,0.000705
19241000,0.0324,0.013523,0.002678,0.000431,0.000823
19242000,0.0324,0.013523,0.002678,0.000431,0.000823
19243000,0.0324,0.013523,0.002678,0.000431,0.000705
19244000,0.0324,0.013523,0.002678,0.000431,0.000588
19245000,0.0324,0.013523,0.002678,0.000431,0.000588
19246000,0.0324,0.013523,0.002678,0.000431,0.000940
19247000,0.0324,0.013523,0.002678,0.000431,0.000588
19248000,0.0324,0.013523,0.002678,0.000431,0.000705
19249000,0.0324,0.013523,0.002678,0.000431,0.000705
19250000,0.0324,0.013523,0.002678,0.000431,0.000705
19251000,0.0324,0.013523,0.002678,0.000431,0.000823
19252000,0.0324,0.013523,0.002678,0.000431,0.000705
19253000,0.0324,0.013523,0.002678,0.000431,0.000705
19254000,0.0324,0.013523,0.002678,0.000431,0.000588
19255000,0.0324,0.013523,0.002678,0.000431,0.000823
19256000,0.0324,0.013523,0.002678,0.000431,0.000705
19257000,0.0324,0.013523,0.002678,0.000431,0.000705
19258000,0.0324,0.013523,0.002678,0.000431,0.000705
19259000,0.0324,0.013523,0.002678,0.000431,0.000705
19260000,0.0324,0.013523,0.002678,0.000431,0.000705
19261000,0.0324,0.013523,0.002678,0.000431,0.000705
19262000,0.0324,0.013523,0.002678,0.000431,0.000705
19263000,0.0324,0.013523,0.002678,0.000431,0.000705
19264000,0.0324,0.013523,0.002678,0.000431,0.000705
19265000,0.0324,0.013523,0.002678,0.000431,0.000588
19266000,0.0324,0.013523,0.002678,0.000431,0.000705
19267000,0.0324,0.013523,0.002678,0.000431,0.000705
19268000,0.0324,0.013523,0.002678,0.000431,0.000705
19269000,0.0324,0.013523,0.002678,0.000431,0.000823
19270000,0.0324,0.013523,0.002678,0.000431,0.000588
19271000,0.0324,0.013523,0.002678,0.000431,0.000823
19272000,0.0324,0.013523,0.002678,0.000431,0.000470
19273000,0.0324,0.013523,0.002678,0.000431,0.000705
19274000,0.0324,0.013523,0.002678,0.000431,0.000588
19275000,0.0324,0.013523,0.002678,0.000431,0.000823
19276000,0.0324,0.013523,0.002678,0.000431,0.000705
19277000,0.0324,0.013523,0.002678,0.000431,0.000705
19278000,0.0324,0.013523,0.002678,0.000431,0.000823
19279000,0.0324,0.013523,0.002678,0.000431,0.000705
19280000,0.0324,0.013523,0.002678,0.000431,0.000705
19281000,0.0324,0.013523,0.002678,0.000431,0.000705
19282000,0.0324,0.013523,0.002678,0.000431,0.000705
19283000,0.0324,0.013523,0.002678,0.000431,0.000588
19284000,0.0324,0.013523,0.002678,0.000431,0.000823
19285000,0.0324,0.013523,0.002678,0.000431,0.000705
19286000,0.0324,0.013523,0.002678,0.000431,0.000705
19287000,0.0324,0.013523,0.002678,0.000431,0.000823
19288000,0.0324,0.013523,0.002678,0.000431,0.000588
19289000,0.0324,0.013523,0.002678,0.000431,0.000588
19290000,0.0324,0.013523,0.002678,0.000431,0.000940
19291000,0.0324,0.013523,0.002678,0.000431,0.000705
19292000,0.0324,0.013523,0.002678,0.000431,0.000705
19293000,0.0324,0.013523,0.002678,0.000431,0.000588
19294000,0.0324,0.013523,0.002678,0.000431,0.000705
19295000,0.0324,0.013523,0.002678,0.000431,0.000823
19296000,0.0324,0.013523,0.002678,0.000431,0.000705
19297000,0.0324,0.013523,0.002678,0.000431,0.000588
19298000,0.0324,0.013523,0.002678,0.000431,0.000823
19299000,0.0324,0.013523,0.002678,0.000431,0.000705
19300000,0.0324,0.013523,0.002678,0.000431,0.000705
19301000,0.0324,0.013523,0.002678,0.000431,0.000588
19302000,0.0324,0.013523,0.002678,0.000431,0.000588
19303000,0.0324,0.013523,0.002678,0.000431,0.000823
19304000,0.0324,0.013523,0.002678,0.000431,0.000705
19305000,0.0324,0.013523,0.002678,0.000431,0.000588
19306000,0.0324,0.013523,0.002678,0.000431,0.000705
19307000,0.0324,0.013523,0.002678,0.000431,0.000705
19308000,0.0324,0.013523,0.002678,0.000431,0.000823
19309000,0.0324,0.013523,0.002678,0.000431,0.000705
19310000,0.0324,0.013523,0.002678,0.000431,0.000705
19311000,0.0324,0.013523,0.002678,0.000431,0.000588
19312000,0.0324,0.013523,0.002678,0.000431,0.000705
19313000,0.0324,0.013523,0.002678,0.000431,0.000705
19314000,0.0324,0.013523,0.002678,0.000431,0.000705
19315000,0.0324,0.013523,0.002678,0.000431,0.000705
19316000,0.0324,0.013523,0.002678,0.000431,0.000705
19317000,0.0324,0.013523,0.002678,0.000431,0.000823
19318000,0.0324,0.013523,0.002678,0.000431,0.000705
19319000,0.0324,0.013523,0.002678,0.000431,0.000588
19320000,0.0324,0.013523,0.002678,0.000431,0.000588
19321000,0.0324,0.013523,0.002678,0.000431,0.000823
19322000,0.0324,0.013523,0.002678,0.000431,0.000705
19323000,0.0324,0.013523,0.002678,0.000431,0.000705
19324000,0.0324,0.013523,0.002678,0.000431,0.000705
19325000,0.0324,0.013523,0.002678,0.000431,0.000705
19326000,0.0324,0.013523,0.002678,0.000431,0.000705
19327000,0.0324,0.013523,0.002678,0.000431,0.000823
19328000,0.0324,0.013523,0.002678,0.000431,0.000823
19329000,0.0324,0.013523,0.002678,0.000431,0.000588
19330000,0.0324,0.013523,0.002678,0.000431,0.000823
19331000,0.0324,0.013523,0.002678,0.000431,0.000705
19332000,0.0324,0.013523,0.002678,0.000431,0.000823
19333000,0.0324,0.013523,0.002678,0.000431,0.000705
19334000,0.0324,0.013523,0.002678,0.000431,0.000588
19335000,0.0324,0.013523,0.002678,0.000431,0.000705
19336000,0.0324,0.013523,0.002678,0.000431,0.000705
19337000,0.0324,0.013523,0.002678,0.000431,0.000823
19338000,0.0324,0.013523,0.002678,0.000431,0.000705
19339000,0.0324,0.013523,0.002678,0.000431,0.000823
19340000,0.0324,0.013523,0.002678,0.000431,0.000705
19341000,0.0324,0.013523,0.002678,0.000431,0.000705
19342000,0.0324,0.013523,0.002678,0.000431,0.000705
19343000,0.0324,0.013523,0.002678,0.000431,0.000705
19344000,0.0324,0.013523,0.002678,0.000431,0.000588
19345000,0.0324,0.013523,0.002678,0.000431,0.000823
19346000,0.0324,0.013523,0.002678,0.000431,0.000705
19347000,0.0324,0.013523,0.002678,0.000431,0.000705
19348000,0.0324,0.013523,0.002678,0.000431,0.000705
19349000,0.0324,0.013523,0.002678,0.000431,0.000588
19350000,0.0324,0.013523,0.002678,0.000431,0.000705
19351000,0.0324,0.013523,0.002678,0.000431,0.000823
19352000,0.0324,0.013523,0.002678,0.000431,0.000705
19353000,0.0324,0.013523,0.002678,0.000431,0.000705
19354000,0.0324,0.013523,0.002678,0.000431,0.000705
19355000,0.0324,0.013523,0.002678,0.000431,0.000823
19356000,0.0324,0.013523,0.002678,0.000431,0.000705
19357000,0.0324,0.013523,0.002678,0.000431,0.000470
19358000,0.0324,0.013523,0.002678,0.000431,0.000823
19359000,0.0324,0.013523,0.002678,0.000431,0.000470
19360000,0.0324,0.013523,0.002678,0.000431,0.000823
19361000,0.0324,0.013523,0.002678,0.000431,0.000705
19362000,0.0324,0.013523,0.002678,0.000431,0.000823
19363000,0.0324,0.013523,0.002678,0.000431,0.000705
19364000,0.0324,0.013523,0.002678,0.000431,0.000705
19365000,0.0324,0.013523,0.002678,0.000431,0.000705
19366000,0.0324,0.013523,0.002678,0.000431,0.000823
19367000,0.0324,0.013523,0.002678,0.000431,0.000588
19368000,0.0324,0.013523,0.002678,0.000431,0.000823
19369000,0.0324,0.013523,0.002678,0.000431,0.000588
19370000,0.0324,0.013523,0.002678,0.000431,0.000823
19371000,0.0324,0.013523,0.002678,0.000431,0.000705
19372000,0.0324,0.013523,0.002678,0.000431,0.000588
19373000,0.0324,0.013523,0.002678,0.000431,0.000705
19374000,0.0324,0.013523,0.002678,0.000431,0.000705
19375000,0.0324,0.013523,0.002678,0.000431,0.000705
19376000,0.0324,0.013523,0.002678,0.000431,0.000705
19377000,0.0324,0.013523,0.002678,0.000431,0.000705
19378000,0.0324,0.013523,0.002678,0.000431,0.000588
19379000,0.0324,0.013523,0.002678,0.000431,0.000588
19380000,0.0324,0.013523,0.002678,0.000431,0.000705
19381000,0.0324,0.013523,0.002678,0.000431,0.000940
19382000,0.0324,0.013523,0.002678,0.000431,0.000588
19383000,0.0324,0.013523,0.002678,0.000431,0.000705
19384000,0.0324,0.013523,0.002678,0.000431,0.000705
19385000,0.0324,0.013523,0.002678,0.000431,0.000823
19386000,0.0324,0.013523,0.002678,0.000431,0.000705
19387000,0.0324,0.013523,0.002678,0.000431,0.000705
19388000,0.0324,0.013523,0.002678,0.000431,0.000588
19389000,0.0324,0.013523,0.002678,0.000431,0.000823
19390000,0.0324,0.013523,0.002678,0.000431,0.000705
19391000,0.0324,0.013523,0.002678,0.000431,0.000705
19392000,0.0324,0.013523,0.002678,0.000431,0.000823
19393000,0.0324,0.013523,0.002678,0.000431,0.000705
19394000,0.0324,0.013523,0.002678,0.000431,0.000823
19395000,0.0324,0.013523,0.002678,0.000431,0.000705
19396000,0.0324,0.013523,0.002678,0.000431,0.000705
19397000,0.0324,0.013523,0.002678,0.000431,0.000705
19398000,0.0324,0.013523,0.002678,0.000431,0.000705
19399000,0.0324,0.013523,0.002678,0.000431,0.000470
19400000,0.0324,0.013523,0.002678,0.000431,0.000705
19401000,0.0324,0.013523,0.002678,0.000431,0.000705
19402000,0.0324,0.013523,0.002678,0.000431,0.000588
19403000,0.0324,0.013523,0.002678,0.000431,0.000705
19404000,0.0324,0.013523,0.002678,0.000431,0.000588
19405000,0.0324,0.013523,0.002678,0.000431,0.000705
19406000,0.0324,0.013523,0.002678,0.000431,0.000705
19407000,0.0324,0.013523,0.002678,0.000431,0.000705
19408000,0.0324,0.013523,0.002678,0.000431,0.000823
19409000,0.0324,0.013523,0.002678,0.000431,0.000823
19410000,0.0324,0.013523,0.002678,0.000431,0.000705
19411000,0.0324,0.013523,0.002678,0.000431,0.000705
19412000,0.0324,0.013523,0.002678,0.000431,0.000705
19413000,0.0324,0.013523,0.002678,0.000431,0.000705
19414000,0.0324,0.013523,0.002678,0.000431,0.000823
19415000,0.0324,0.013523,0.002678,0.000431,0.000823
19416000,0.0324,0.013523,0.002678,0.000431,0.000588
19417000,0.0324,0.013523,0.002678,0.000431,0.000705
19418000,0.0324,0.013523,0.002678,0.000431,0.000705
19419000,0.0324,0.013523,0.002678,0.000431,0.000705
19420000,0.0324,0.013523,0.002678,0.000431,0.000705
19421000,0.0324,0.013523,0.002678,0.000431,0.000705
19422000,0.0324,0.013523,0.002678,0.000431,0.000823
19423000,0.0324,0.013523,0.002678,0.000431,0.000705
19424000,0.0324,0.013523,0.002678,0.000431,0.000823
19425000,0.0324,0.013523,0.002678,0.000431,0.000823
19426000,0.0324,0.013523,0.002678,0.000431,0.000588
19427000,0.0324,0.013523,0.002678,0.000431,0.000588
19428000,0.0324,0.013523,0.002678,0.000431,0.000470
19429000,0.0324,0.013523,0.002678,0.000431,0.000588
19430000,0.0324,0.013523,0.002678,0.000431,0.000588
19431000,0.0324,0.013523,0.002678,0.000431,0.000940
19432000,0.0324,0.013523,0.002678,0.000431,0.000705
19433000,0.0324,0.013523,0.002678,0.000431,0.000705
19434000,0.0324,0.013523,0.002678,0.000431,0.000705
19435000,0.0324,0.013523,0.002678,0.000431,0.000705
19436000,0.0324,0.013523,0.002678,0.000431,0.000470
19437000,0.0324,0.013523,0.002678,0.000431,0.000823
19438000,0.0324,0.013523,0.002678,0.000431,0.000705
19439000,0.0324,0.013523,0.002678,0.000431,0.000588
19440000,0.0324,0.013523,0.002678,0.000431,0.000705
19441000,0.0324,0.013523,0.002678,0.000431,0.000705
19442000,0.0324,0.013523,0.002678,0.000431,0.000588
19443000,0.0324,0.013523,0.002678,0.000431,0.000588
19444000,0.0324,0.013523,0.002678,0.000431,0.000823
19445000,0.0324,0.013523,0.002678,0.000431,0.000823
19446000,0.0324,0.013523,0.002678,0.000431,0.000705
19447000,0.0324,0.013523,0.002678,0.000431,0.000705
19448000,0.0324,0.013523,0.002678,0.000431,0.000705
19449000,0.0324,0.013523,0.002678,0.000431,0.000705
19450000,0.0324,0.013523,0.002678,0.000431,0.000823
19451000,0.0324,0.013523,0.002678,0.000431,0.000823
19452000,0.0324,0.013523,0.002678,0.000431,0.000705
19453000,0.0324,0.013523,0.002678,0.000431,0.000705
19454000,0.0324,0.013523,0.002678,0.000431,0.000823
19455000,0.0324,0.013523,0.002678,0.000431,0.000588
19456000,0.0324,0.013523,0.002678,0.000431,0.000823
19457000,0.0324,0.013523,0.002678,0.000431,0.000705
19458000,0.0324,0.013523,0.002678,0.000431,0.000705
19459000,0.0324,0.013523,0.002678,0.000431,0.000588
19460000,0.0324,0.013523,0.002678,0.000431,0.000823
19461000,0.0324,0.013523,0.002678,0.000431,0.000705
19462000,0.0324,0.013523,0.002678,0.000431,0.000705
19463000,0.0324,0.013523,0.002678,0.000431,0.000705
19464000,0.0324,0.013523,0.002678,0.000431,0.000823
19465000,0.0324,0.013523,0.002678,0.000431,0.000705
19466000,0.0324,0.013523,0.002678,0.000431,0.000470
19467000,0.0324,0.013523,0.002678,0.000431,0.000588
19468000,0.0324,0.013523,0.002678,0.000431,0.000588
19469000,0.0324,0.013523,0.002678,0.000431,0.000705
19470000,0.0324,0.013523,0.002678,0.000431,0.000705
19471000,0.0324,0.013523,0.002678,0.000431,0.000705
19472000,0.0324,0.013523,0.002678,0.000431,0.000823
19473000,0.0324,0.013523,0.002678,0.000431,0.000823
19474000,0.0324,0.013523,0.002678,0.000431,0.000705
19475000,0.0324,0.013523,0.002678,0.000431,0.000588
19476000,0.0324,0.013523,0.002678,0.000431,0.000823
19477000,0.0324,0.013523,0.002678,0.000431,0.000705
19478000,0.0324,0.013523,0.002678,0.000431,0.000470
19479000,0.0324,0.013523,0.002678,0.000431,0.000705
19480000,0.0324,0.013523,0.002678,0.000431,0.000705
19481000,0.0324,0.013523,0.002678,0.000431,0.000705
19482000,0.0324,0.013523,0.002678,0.000431,0.000353
19483000,0.0324,0.013523,0.002678,0.000431,0.000588
19484000,0.0324,0.013523,0.002678,0.000431,0.000705
19485000,0.0324,0.013523,0.002678,0.000431,0.000588
19486000,0.0324,0.013523,0.002678,0.000431,0.000705
19487000,0.0324,0.013523,0.002678,0.000431,0.000705
19488000,0.0324,0.013523,0.002678,0.000431,0.000588
19489000,0.0324,0.013523,0.002678,0.000431,0.000705
19490000,0.0324,0.013523,0.002678,0.000431,0.000705
19491000,0.0324,0.013523,0.002678,0.000431,0.000470
19492000,0.0324,0.013523,0.002678,0.000431,0.000705
19493000,0.0324,0.013523,0.002678,0.000431,0.000705
19494000,0.0324,0.013523,0.002678,0.000431,0.000823
19495000,0.0324,0.013523,0.002678,0.000431,0.000705
19496000,0.0324,0.013523,0.002678,0.000431,0.000705
19497000,0.0324,0.013523,0.002678,0.000431,0.000705
19498000,0.0324,0.013523,0.002678,0.000431,0.000823
19499000,0.0324,0.013523,0.002678,0.000431,0.000470
19500000,0.0324,0.013523,0.002678,0.000431,0.000705
19501000,0.0324,0.013523,0.002678,0.000431,0.000588
19502000,0.0324,0.013523,0.002678,0.000431,0.000823
19503000,0.0324,0.013523,0.002678,0.000431,0.000705
19504000,0.0324,0.013523,0.002678,0.000431,0.000705
19505000,0.0324,0.013523,0.002678,0.000431,0.000588
19506000,0.0324,0.013523,0.002678,0.000431,0.000705
19507000,0.0324,0.013523,0.002678,0.000431,0.000823
19508000,0.0324,0.013523,0.002678,0.000431,0.000705
19509000,0.0324,0.013523,0.002678,0.000431,0.000823
19510000,0.0324,0.013523,0.002678,0.000431,0.000588
19511000,0.0324,0.013523,0.002678,0.000431,0.000705
19512000,0.0324,0.013523,0.002678,0.000431,0.000705
19513000,0.0324,0.013523,0.002678,0.000431,0.000705
19514000,0.0324,0.013523,0.002678,0.000431,0.000705
19515000,0.0324,0.013523,0.002678,0.000431,0.000705
19516000,0.0324,0.013523,0.002678,0.000431,0.000705
19517000,0.0324,0.013523,0.002678,0.000431,0.000705
19518000,0.0324,0.013523,0.002678,0.000431,0.000823
19519000,0.0324,0.013523,0.002678,0.000431,0.000588
19520000,0.0324,0.013523,0.002678,0.000431,0.000705
19521000,0.0324,0.013523,0.002678,0.000431,0.000588
19522000,0.0324,0.013523,0.002678,0.000431,0.000705
19523000,0.0324,0.013523,0.002678,0.000431,0.000588
19524000,0.0324,0.013523,0.002678,0.000431,0.000705
19525000,0.0324,0.013523,0.002678,0.000431,0.000705
19526000,0.0324,0.013523,0.002678,0.000431,0.000823
19527000,0.0324,0.013523,0.002678,0.000431,0.000823
19528000,0.0324,0.013523,0.002678,0.000431,0.000588
19529000,0.0324,0.013523,0.002678,0.000431,0.000588
19530000,0.0324,0.013523,0.002678,0.000431,0.000705
19531000,0.0324,0.013523,0.002678,0.000431,0.000705
19532000,0.0324,0.013523,0.002678,0.000431,0.000705
19533000,0.0324,0.013523,0.002678,0.000431,0.000588
19534000,0.0324,0.013523,0.002678,0.000431,0.000588
19535000,0.0324,0.013523,0.002678,0.000431,0.000705
19536000,0.0324,0.013523,0.002678,0.000431,0.000705
19537000,0.0324,0.013523,0.002678,0.000431,0.000705
19538000,0.0324,0.013523,0.002678,0.000431,0.000588
19539000,0.0324,0.013523,0.002678,0.000431,0.000705
19540000,0.0324,0.013523,0.002678,0.000431,0.000823
19541000,0.0324,0.013523,0.002678,0.000431,0.000705
19542000,0.0324,0.013523,0.002678,0.000431,0.000588
19543000,0.0324,0.013523,0.002678,0.000431,0.000705
19544000,0.0324,0.013523,0.002678,0.000431,0.000823
19545000,0.0324,0.013523,0.002678,0.000431,0.000588
19546000,0.0324,0.013523,0.002678,0.000431,0.000705
19547000,0.0324,0.013523,0.002678,0.000431,0.000705
19548000,0.0324,0.013523,0.002678,0.000431,0.000823
19549000,0.0324,0.013523,0.002678,0.000431,0.000705
19550000,0.0324,0.013523,0.002678,0.000431,0.000705
19551000,0.0324,0.013523,0.002678,0.000431,0.000705
19552000,0.0324,0.013523,0.002678,0.000431,0.000823
19553000,0.0324,0.013523,0.002678,0.000431,0.000705
19554000,0.0324,0.013523,0.002678,0.000431,0.000705
19555000,0.0324,0.013523,0.002678,0.000431,0.000588
19556000,0.0324,0.013523,0.002678,0.000431,0.000823
19557000,0.0324,0.013523,0.002678,0.000431,0.000823
19558000,0.0324,0.013523,0.002678,0.000431,0.000705
19559000,0.0324,0.013523,0.002678,0.000431,0.000705
19560000,0.0324,0.013523,0.002678,0.000431,0.000823
19561000,0.0324,0.013523,0.002678,0.000431,0.000588
19562000,0.0324,0.013523,0.002678,0.000431,0.000705
19563000,0.0324,0.013523,0.002678,0.000431,0.000588
19564000,0.0324,0.013523,0.002678,0.000431,0.000705
19565000,0.0324,0.013523,0.002678,0.000431,0.000705
19566000,0.0324,0.013523,0.002678,0.000431,0.000823
19567000,0.0324,0.013523,0.002678,0.000431,0.000588
19568000,0.0324,0.013523,0.002678,0.000431,0.000705
19569000,0.0324,0.013523,0.002678,0.000431,0.000588
19570000,0.0324,0.013523,0.002678,0.000431,0.000588
19571000,0.0324,0.013523,0.002678,0.000431,0.000823
19572000,0.0324,0.013523,0.002678,0.000431,0.000705
19573000,0.0324,0.013523,0.002678,0.000431,0.000588
19574000,0.0324,0.013523,0.002678,0.000431,0.000588
19575000,0.0324,0.013523,0.002678,0.000431,0.000705
19576000,0.0324,0.013523,0.002678,0.000431,0.000705
19577000,0.0324,0.013523,0.002678,0.000431,0.000705
19578000,0.0324,0.013523,0.002678,0.000431,0.000705
19579000,0.0324,0.013523,0.002678,0.000431,0.000705
19580000,0.0324,0.013523,0.002678,0.000431,0.000705
19581000,0.0324,0.013523,0.002678,0.000431,0.000823
19582000,0.0324,0.013523,0.002678,0.000431,0.000705
19583000,0.0324,0.013523,0.002678,0.000431,0.000823
19584000,0.0324,0.013523,0.002678,0.000431,0.000705
19585000,0.0324,0.013523,0.002678,0.000431,0.000705
19586000,0.0324,0.013523,0.002678,0.000431,0.000705
19587000,0.0324,0.013523,0.002678,0.000431,0.000705
19588000,0.0324,0.013523,0.002678,0.000431,0.000705
19589000,0.0324,0.013523,0.002678,0.000431,0.000705
19590000,0.0324,0.013523,0.002678,0.000431,0.000705
19591000,0.0324,0.013523,0.002678,0.000431,0.000705
19592000,0.0324,0.013523,0.002678,0.000431,0.000705
19593000,0.0324,0.013523,0.002678,0.000431,0.000705
19594000,0.0324,0.013523,0.002678,0.000431,0.000705
19595000,0.0324,0.013523,0.002678,0.000431,0.000705
19596000,0.0324,0.013523,0.002678,0.000431,0.000823
19597000,0.0324,0.013523,0.002678,0.000431,0.000588
19598000,0.0324,0.013523,0.002678,0.000431,0.000705
19599000,0.0324,0.013523,0.002678,0.000431,0.000705
19600000,0.0324,0.013523,0.002678,0.000431,0.000705
19601000,0.0324,0.013523,0.002678,0.000431,0.000705
19602000,0.0324,0.013523,0.002678,0.000431,0.000705
19603000,0.0324,0.013523,0.002678,0.000431,0.000823
19604000,0.0324,0.013523,0.002678,0.000431,0.000823
19605000,0.0324,0.013523,0.002678,0.000431,0.000588
19606000,0.0324,0.013523,0.002678,0.000431,0.000588
19607000,0.0324,0.013523,0.002678,0.000431,0.000823
19608000,0.0324,0.013523,0.002678,0.000431,0.000823
19609000,0.0324,0.013523,0.002678,0.000431,0.000705
19610000,0.0324,0.013523,0.002678,0.000431,0.000588
19611000,0.0324,0.013523,0.002678,0.000431,0.000588
19612000,0.0324,0.013523,0.002678,0.000431,0.000705
19613000,0.0324,0.013523,0.002678,0.000431,0.000705
19614000,0.0324,0.013523,0.002678,0.000431,0.000823
19615000,0.0324,0.013523,0.002678,0.000431,0.000588
19616000,0.0324,0.013523,0.002678,0.000431,0.000705
19617000,0.0324,0.013523,0.002678,0.000431,0.000705
19618000,0.0324,0.013523,0.002678,0.000431,0.000470
19619000,0.0324,0.013523,0.002678,0.000431,0.000823
19620000,0.0324,0.013523,0.002678,0.000431,0.000823
19621000,0.0324,0.013523,0.002678,0.000431,0.000705
19622000,0.0324,0.013523,0.002678,0.000431,0.000705
19623000,0.0324,0.013523,0.002678,0.000431,0.000705
19624000,0.0324,0.013523,0.002678,0.000431,0.000470
19625000,0.0324,0.013523,0.002678,0.000431,0.000940
19626000,0.0324,0.013523,0.002678,0.000431,0.000705
19627000,0.0324,0.013523,0.002678,0.000431,0.000588
19628000,0.0324,0.013523,0.002678,0.000431,0.000588
19629000,0.0324,0.013523,0.002678,0.000431,0.000705
19630000,0.0324,0.013523,0.002678,0.000431,0.000705
19631000,0.0324,0.013523,0.002678,0.000431,0.000705
19632000,0.0324,0.013523,0.002678,0.000431,0.000823
19633000,0.0324,0.013523,0.002678,0.000431,0.000705
19634000,0.0324,0.013523,0.002678,0.000431,0.000823
19635000,0.0324,0.013523,0.002678,0.000431,0.000705
19636000,0.0324,0.013523,0.002678,0.000431,0.000823
19637000,0.0324,0.013523,0.002678,0.000431,0.000705
19638000,0.0324,0.013523,0.002678,0.000431,0.000705
19639000,0.0324,0.013523,0.002678,0.000431,0.000588
19640000,0.0324,0.013523,0.002678,0.000431,0.000588
19641000,0.0324,0.013523,0.002678,0.000431,0.000705
19642000,0.0324,0.013523,0.002678,0.000431,0.000588
19643000,0.0324,0.013523,0.002678,0.000431,0.000705
19644000,0.0324,0.013523,0.002678,0.000431,0.000823
19645000,0.0324,0.013523,0.002678,0.000431,0.000705
19646000,0.0324,0.013523,0.002678,0.000431,0.000588
19647000,0.0324,0.013523,0.002678,0.000431,0.000588
19648000,0.0324,0.013523,0.002678,0.000431,0.000588
19649000,0.0324,0.013523,0.002678,0.000431,0.000823
19650000,0.0324,0.013523,0.002678,0.000431,0.000823
19651000,0.0324,0.013523,0.002678,0.000431,0.000588
19652000,0.0324,0.013523,0.002678,0.000431,0.000705
19653000,0.0324,0.013523,0.002678,0.000431,0.000823
19654000,0.0324,0.013523,0.002678,0.000431,0.000705
19655000,0.0324,0.013523,0.002678,0.000431,0.000588
19656000,0.0324,0.013523,0.002678,0.000431,0.000705
19657000,0.0324,0.013523,0.002678,0.000431,0.000705
19658000,0.0324,0.013523,0.002678,0.000431,0.000823
19659000,0.0324,0.013523,0.002678,0.000431,0.000588
19660000,0.0324,0.013523,0.002678,0.000431,0.000823
19661000,0.0324,0.013523,0.002678,0.000431,0.000588
19662000,0.0324,0.013523,0.002678,0.000431,0.000705
19663000,0.0324,0.013523,0.002678,0.000431,0.000823
19664000,0.0324,0.013523,0.002678,0.000431,0.000588
19665000,0.0324,0.013523,0.002678,0.000431,0.000588
19666000,0.0324,0.013523,0.002678,0.000431,0.000823
19667000,0.0324,0.013523,0.002678,0.000431,0.000823
19668000,0.0324,0.013523,0.002678,0.000431,0.000705
19669000,0.0324,0.013523,0.002678,0.000431,0.000588
19670000,0.0324,0.013523,0.002678,0.000431,0.000823
19671000,0.0324,0.013523,0.002678,0.000431,0.000705
19672000,0.0324,0.013523,0.002678,0.000431,0.000705
19673000,0.0324,0.013523,0.002678,0.000431,0.000588
19674000,0.0324,0.013523,0.002678,0.000431,0.000705
19675000,0.0324,0.013523,0.002678,0.000431,0.000705
19676000,0.0324,0.013523,0.002678,0.000431,0.000705
19677000,0.0324,0.013523,0.002678,0.000431,0.000823
19678000,0.0324,0.013523,0.002678,0.000431,0.000588
19679000,0.0324,0.013523,0.002678,0.000431,0.000823
19680000,0.0324,0.013523,0.002678,0.000431,0.000705
19681000,0.0324,0.013523,0.002678,0.000431,0.000823
19682000,0.0324,0.013523,0.002678,0.000431,0.000705
19683000,0.0324,0.013523,0.002678,0.000431,0.000823
19684000,0.0324,0.013523,0.002678,0.000431,0.000705
19685000,0.0324,0.013523,0.002678,0.000431,0.000705
19686000,0.0324,0.013523,0.002678,0.000431,0.000588
19687000,0.0324,0.013523,0.002678,0.000431,0.000588
19688000,0.0324,0.013523,0.002678,0.000431,0.000823
19689000,0.0324,0.013523,0.002678,0.000431,0.000705
19690000,0.0324,0.013523,0.002678,0.000431,0.000705
19691000,0.0324,0.013523,0.002678,0.000431,0.000705
19692000,0.0324,0.013523,0.002678,0.000431,0.000588
19693000,0.0324,0.013523,0.002678,0.000431,0.000705
19694000,0.0324,0.013523,0.002678,0.000431,0.000705
19695000,0.0324,0.013523,0.002678,0.000431,0.000705
19696000,0.0324,0.013523,0.002678,0.000431,0.000705
19697000,0.0324,0.013523,0.002678,0.000431,0.000588
19698000,0.0324,0.013523,0.002678,0.000431,0.000705
19699000,0.0324,0.013523,0.002678,0.000431,0.000705
19700000,0.0324,0.013523,0.002678,0.000431,0.000470
19701000,0.0324,0.013523,0.002678,0.000431,0.000588
19702000,0.0324,0.013523,0.002678,0.000431,0.000705
19703000,0.0324,0.013523,0.002678,0.000431,0.000823
19704000,0.0324,0.013523,0.002678,0.000431,0.000823
19705000,0.0324,0.013523,0.002678,0.000431,0.000705
19706000,0.0324,0.013523,0.002678,0.000431,0.000705
19707000,0.0324,0.013523,0.002678,0.000431,0.000705
19708000,0.0324,0.013523,0.002678,0.000431,0.000705
19709000,0.0324,0.013523,0.002678,0.000431,0.000705
19710000,0.0324,0.013523,0.002678,0.000431,0.000705
19711000,0.0324,0.013523,0.002678,0.000431,0.000705
19712000,0.0324,0.013523,0.002678,0.000431,0.000705
19713000,0.0324,0.013523,0.002678,0.000431,0.000705
19714000,0.0324,0.013523,0.002678,0.000431,0.000705
19715000,0.0324,0.013523,0.002678,0.000431,0.000940
19716000,0.0324,0.013523,0.002678,0.000431,0.000588
19717000,0.0324,0.013523,0.002678,0.000431,0.000705
19718000,0.0324,0.013523,0.002678,0.000431,0.000823
19719000,0.0324,0.013523,0.002678,0.000431,0.000588
19720000,0.0324,0.013523,0.002678,0.000431,0.000588
19721000,0.0324,0.013523,0.002678,0.000431,0.000705
19722000,0.0324,0.013523,0.002678,0.000431,0.000705
19723000,0.0324,0.013523,0.002678,0.000431,0.000705
19724000,0.0324,0.013523,0.002678,0.000431,0.000705
19725000,0.0324,0.013523,0.002678,0.000431,0.000705
19726000,0.0324,0.013523,0.002678,0.000431,0.000705
19727000,0.0324,0.013523,0.002678,0.000431,0.000705
19728000,0.0324,0.013523,0.002678,0.000431,0.000705
19729000,0.0324,0.013523,0.002678,0.000431,0.000705
19730000,0.0324,0.013523,0.002678,0.000431,0.000705
19731000,0.0324,0.013523,0.002678,0.000431,0.000588
19732000,0.0324,0.013523,0.002678,0.000431,0.000588
19733000,0.0324,0.013523,0.002678,0.000431,0.000705
19734000,0.0324,0.013523,0.002678,0.000431,0.000705
19735000,0.0324,0.013523,0.002678,0.000431,0.000705
19736000,0.0324,0.013523,0.002678,0.000431,0.000705
19737000,0.0324,0.013523,0.002678,0.000431,0.000588
19738000,0.0324,0.013523,0.002678,0.000431,0.000705
19739000,0.0324,0.013523,0.002678,0.000431,0.000705
19740000,0.0324,0.013523,0.002678,0.000431,0.000705
19741000,0.0324,0.013523,0.002678,0.000431,0.000588
19742000,0.0324,0.013523,0.002678,0.000431,0.000823
19743000,0.0324,0.013523,0.002678,0.000431,0.000705
19744000,0.0324,0.013523,0.002678,0.000431,0.000588
19745000,0.0324,0.013523,0.002678,0.000431,0.000705
19746000,0.0324,0.013523,0.002678,0.000431,0.000705
19747000,0.0324,0.013523,0.002678,0.000431,0.000823
19748000,0.0324,0.013523,0.002678,0.000431,0.000705
19749000,0.0324,0.013523,0.002678,0.000431,0.000588
19750000,0.0324,0.013523,0.002678,0.000431,0.000705
19751000,0.0324,0.013523,0.002678,0.000431,0.000705
19752000,0.0324,0.013523,0.002678,0.000431,0.000705
19753000,0.0324,0.013523,0.002678,0.000431,0.000705
19754000,0.0324,0.013523,0.002678,0.000431,0.000705
19755000,0.0324,0.013523,0.002678,0.000431,0.000705
19756000,0.0324,0.013523,0.002678,0.000431,0.000705
19757000,0.0324,0.013523,0.002678,0.000431,0.000705
19758000,0.0324,0.013523,0.002678,0.000431,0.000823
19759000,0.0324,0.013523,0.002678,0.000431,0.000588
19760000,0.0324,0.013523,0.002678,0.000431,0.000823
19761000,0.0324,0.013523,0.002678,0.000431,0.000705
19762000,0.0324,0.013523,0.002678,0.000431,0.000705
19763000,0.0324,0.013523,0.002678,0.000431,0.000823
19764000,0.0324,0.013523,0.002678,0.000431,0.000705
19765000,0.0324,0.013523,0.002678,0.000431,0.000353
19766000,0.0324,0.013523,0.002678,0.000431,0.000588
19767000,0.0324,0.013523,0.002678,0.000431,0.000823
19768000,0.0324,0.013523,0.002678,0.000431,0.000588
19769000,0.0324,0.013523,0.002678,0.000431,0.000705
19770000,0.0324,0.013523,0.002678,0.000431,0.000705
19771000,0.0324,0.013523,0.002678,0.000431,0.000823
19772000,0.0324,0.013523,0.002678,0.000431,0.000823
19773000,0.0324,0.013523,0.002678,0.000431,0.000705
19774000,0.0324,0.013523,0.002678,0.000431,0.000588
19775000,0.0324,0.013523,0.002678,0.000431,0.000705
19776000,0.0324,0.013523,0.002678,0.000431,0.000705
19777000,0.0324,0.013523,0.002678,0.000431,0.000588
19778000,0.0324,0.013523,0.002678,0.000431,0.000705
19779000,0.0324,0.013523,0.002678,0.000431,0.000705
19780000,0.0324,0.013523,0.002678,0.000431,0.000705
19781000,0.0324,0.013523,0.002678,0.000431,0.000705
19782000,0.0324,0.013523,0.002678,0.000431,0.000705
19783000,0.0324,0.013523,0.002678,0.000431,0.000705
19784000,0.0324,0.013523,0.002678,0.000431,0.000705
19785000,0.0324,0.013523,0.002678,0.000431,0.000705
19786000,0.0324,0.013523,0.002678,0.000431,0.000705
19787000,0.0324,0.013523,0.002678,0.000431,0.000823
19788000,0.0324,0.013523,0.002678,0.000431,0.000705
19789000,0.0324,0.013523,0.002678,0.000431,0.000823
19790000,0.0324,0.013523,0.002678,0.000431,0.000705
19791000,0.0324,0.013523,0.002678,0.000431,0.000588
19792000,0.0324,0.013523,0.002678,0.000431,0.000823
19793000,0.0324,0.013523,0.002678,0.000431,0.000588
19794000,0.0324,0.013523,0.002678,0.000431,0.000823
19795000,0.0324,0.013523,0.002678,0.000431,0.000705
19796000,0.0324,0.013523,0.002678,0.000431,0.000705
19797000,0.0324,0.013523,0.002678,0.000431,0.000588
19798000,0.0324,0.013523,0.002678,0.000431,0.000705
19799000,0.0324,0.013523,0.002678,0.000431,0.000705
19800000,0.0324,0.013523,0.002678,0.000431,0.000705
19801000,0.0324,0.013523,0.002678,0.000431,0.000705
19802000,0.0324,0.013523,0.002678,0.000431,0.000823
19803000,0.0324,0.013523,0.002678,0.000431,0.000705
19804000,0.0324,0.013523,0.002678,0.000431,0.000470
19805000,0.0324,0.013523,0.002678,0.000431,0.000823
19806000,0.0324,0.013523,0.002678,0.000431,0.000705
19807000,0.0324,0.013523,0.002678,0.000431,0.000705
19808000,0.0324,0.013523,0.002678,0.000431,0.000705
19809000,0.0324,0.013523,0.002678,0.000431,0.000705
19810000,0.0324,0.013523,0.002678,0.000431,0.000705
19811000,0.0324,0.013523,0.002678,0.000431,0.000705
19812000,0.0324,0.013523,0.002678,0.000431,0.000705
19813000,0.0324,0.013523,0.002678,0.000431,0.000705
19814000,0.0324,0.013523,0.002678,0.000431,0.000823
19815000,0.0324,0.013523,0.002678,0.000431,0.000705
19816000,0.0324,0.013523,0.002678,0.000431,0.000823
19817000,0.0324,0.013523,0.002678,0.000431,0.000705
19818000,0.0324,0.013523,0.002678,0.000431,0.000705
19819000,0.0324,0.013523,0.002678,0.000431,0.000823
19820000,0.0324,0.013523,0.002678,0.000431,0.000588
19821000,0.0324,0.013523,0.002678,0.000431,0.000705
19822000,0.0324,0.013523,0.002678,0.000431,0.000588
19823000,0.0324,0.013523,0.002678,0.000431,0.000823
19824000,0.0324,0.013523,0.002678,0.000431,0.000705
19825000,0.0324,0.013523,0.002678,0.000431,0.000705
19826000,0.0324,0.013523,0.002678,0.000431,0.000588
19827000,0.0324,0.013523,0.002678,0.000431,0.000823
19828000,0.0324,0.013523,0.002678,0.000431,0.000588
19829000,0.0324,0.013523,0.002678,0.000431,0.000705
19830000,0.0324,0.013523,0.002678,0.000431,0.000823
19831000,0.0324,0.013523,0.002678,0.000431,0.000705
19832000,0.0324,0.013523,0.002678,0.000431,0.000588
19833000,0.0324,0.013523,0.002678,0.000431,0.000705
19834000,0.0324,0.013523,0.002678,0.000431,0.000588
19835000,0.0324,0.013523,0.002678,0.000431,0.000588
19836000,0.0324,0.013523,0.002678,0.000431,0.000823
19837000,0.0324,0.013523,0.002678,0.000431,0.000705
19838000,0.0324,0.013523,0.002678,0.000431,0.000705
19839000,0.0324,0.013523,0.002678,0.000431,0.000705
19840000,0.0324,0.013523,0.002678,0.000431,0.000823
19841000,0.0324,0.013523,0.002678,0.000431,0.000588
19842000,0.0324,0.013523,0.002678,0.000431,0.000823
19843000,0.0324,0.013523,0.002678,0.000431,0.000588
19844000,0.0324,0.013523,0.002678,0.000431,0.000705
19845000,0.0324,0.013523,0.002678,0.000431,0.000705
19846000,0.0324,0.013523,0.002678,0.000431,0.000588
19847000,0.0324,0.013523,0.002678,0.000431,0.000823
19848000,0.0324,0.013523,0.002678,0.000431,0.000823
19849000,0.0324,0.013523,0.002678,0.000431,0.000705
19850000,0.0324,0.013523,0.002678,0.000431,0.000588
19851000,0.0324,0.013523,0.002678,0.000431,0.000588
19852000,0.0324,0.013523,0.002678,0.000431,0.000823
19853000,0.0324,0.013523,0.002678,0.000431,0.000588
19854000,0.0324,0.013523,0.002678,0.000431,0.000705
19855000,0.0324,0.013523,0.002678,0.000431,0.000705
19856000,0.0324,0.013523,0.002678,0.000431,0.000705
19857000,0.0324,0.013523,0.002678,0.000431,0.000705
19858000,0.0324,0.013523,0.002678,0.000431,0.000823
19859000,0.0324,0.013523,0.002678,0.000431,0.000705
19860000,0.0324,0.013523,0.002678,0.000431,0.000705
19861000,0.0324,0.013523,0.002678,0.000431,0.000588
19862000,0.0324,0.013523,0.002678,0.000431,0.000705
19863000,0.0324,0.013523,0.002678,0.000431,0.000705
19864000,0.0324,0.013523,0.002678,0.000431,0.000705
19865000,0.0324,0.013523,0.002678,0.000431,0.000705
19866000,0.0324,0.013523,0.002678,0.000431,0.000705
19867000,0.0324,0.013523,0.002678,0.000431,0.000705
19868000,0.0324,0.013523,0.002678,0.000431,0.000705
19869000,0.0324,0.013523,0.002678,0.000431,0.000705
19870000,0.0324,0.013523,0.002678,0.000431,0.000588
19871000,0.0324,0.013523,0.002678,0.000431,0.000823
19872000,0.0324,0.013523,0.002678,0.000431,0.000588
19873000,0.0324,0.013523,0.002678,0.000431,0.000705
19874000,0.0324,0.013523,0.002678,0.000431,0.000823
19875000,0.0324,0.013523,0.002678,0.000431,0.000705
19876000,0.0324,0.013523,0.002678,0.000431,0.000705
19877000,0.0324,0.013523,0.002678,0.000431,0.000588
19878000,0.0324,0.013523,0.002678,0.000431,0.000823
19879000,0.0324,0.013523,0.002678,0.000431,0.000705
19880000,0.0324,0.013523,0.002678,0.000431,0.000588
19881000,0.0324,0.013523,0.002678,0.000431,0.000705
19882000,0.0324,0.013523,0.002678,0.000431,0.000823
19883000,0.0324,0.013523,0.002678,0.000431,0.000588
19884000,0.0324,0.013523,0.002678,0.000431,0.000588
19885000,0.0324,0.013523,0.002678,0.000431,0.000823
19886000,0.0324,0.013523,0.002678,0.000431,0.000705
19887000,0.0324,0.013523,0.002678,0.000431,0.000823
19888000,0.0324,0.013523,0.002678,0.000431,0.000705
19889000,0.0324,0.013523,0.002678,0.000431,0.000705
19890000,0.0324,0.013523,0.002678,0.000431,0.000588
19891000,0.0324,0.013523,0.002678,0.000431,0.000823
19892000,0.0324,0.013523,0.002678,0.000431,0.000705
19893000,0.0324,0.013523,0.002678,0.000431,0.000705
19894000,0.0324,0.013523,0.002678,0.000431,0.000705
19895000,0.0324,0.013523,0.002678,0.000431,0.000705
19896000,0.0324,0.013523,0.002678,0.000431,0.000705
19897000,0.0324,0.013523,0.002678,0.000431,0.000823
19898000,0.0324,0.013523,0.002678,0.000431,0.000823
19899000,0.0324,0.013523,0.002678,0.000431,0.000705
19900000,0.0324,0.013523,0.002678,0.000431,0.000705
19901000,0.0324,0.013523,0.002678,0.000431,0.000705
19902000,0.0324,0.013523,0.002678,0.000431,0.000823
19903000,0.0324,0.013523,0.002678,0.000431,0.000588
19904000,0.0324,0.013523,0.002678,0.000431,0.000705
19905000,0.0324,0.013523,0.002678,0.000431,0.000823
19906000,0.0324,0.013523,0.002678,0.000431,0.000823
19907000,0.0324,0.013523,0.002678,0.000431,0.000705
19908000,0.0324,0.013523,0.002678,0.000431,0.000705
19909000,0.0324,0.013523,0.002678,0.000431,0.000823
19910000,0.0324,0.013523,0.002678,0.000431,0.000588
19911000,0.0324,0.013523,0.002678,0.000431,0.000705
19912000,0.0324,0.013523,0.002678,0.000431,0.000705
19913000,0.0324,0.013523,0.002678,0.000431,0.000705
19914000,0.0324,0.013523,0.002678,0.000431,0.000705
19915000,0.0324,0.013523,0.002678,0.000431,0.000823
19916000,0.0324,0.013523,0.002678,0.000431,0.000823
19917000,0.0324,0.013523,0.002678,0.000431,0.000470
19918000,0.0324,0.013523,0.002678,0.000431,0.000588
19919000,0.0324,0.013523,0.002678,0.000431,0.000705
19920000,0.0324,0.013523,0.002678,0.000431,0.000588
19921000,0.0324,0.013523,0.002678,0.000431,0.000705
19922000,0.0324,0.013523,0.002678,0.000431,0.000705
19923000,0.0324,0.013523,0.002678,0.000431,0.000705
19924000,0.0324,0.013523,0.002678,0.000431,0.000588
19925000,0.0324,0.013523,0.002678,0.000431,0.000823
19926000,0.0324,0.013523,0.002678,0.000431,0.000705
19927000,0.0324,0.013523,0.002678,0.000431,0.000705
19928000,0.0324,0.013523,0.002678,0.000431,0.000705
19929000,0.0324,0.013523,0.002678,0.000431,0.000705
19930000,0.0324,0.013523,0.002678,0.000431,0.000588
19931000,0.0324,0.013523,0.002678,0.000431,0.000705
19932000,0.0324,0.013523,0.002678,0.000431,0.000705
19933000,0.0324,0.013523,0.002678,0.000431,0.000705
19934000,0.0324,0.013523,0.002678,0.000431,0.000823
19935000,0.0324,0.013523,0.002678,0.000431,0.000705
19936000,0.0324,0.013523,0.002678,0.000431,0.000588
19937000,0.0324,0.013523,0.002678,0.000431,0.000705
19938000,0.0324,0.013523,0.002678,0.000431,0.000705
19939000,0.0324,0.013523,0.002678,0.000431,0.000588
19940000,0.0324,0.013523,0.002678,0.000431,0.000823
19941000,0.0324,0.013523,0.002678,0.000431,0.000705
19942000,0.0324,0.013523,0.002678,0.000431,0.000823
19943000,0.0324,0.013523,0.002678,0.000431,0.000588
19944000,0.0324,0.013523,0.002678,0.000431,0.000705
19945000,0.0324,0.013523,0.002678,0.000431,0.000705
19946000,0.0324,0.013523,0.002678,0.000431,0.000705
19947000,0.0324,0.013523,0.002678,0.000431,0.000588
19948000,0.0324,0.013523,0.002678,0.000431,0.000705
19949000,0.0324,0.013523,0.002678,0.000431,0.000588
19950000,0.0324,0.013523,0.002678,0.000431,0.000705
19951000,0.0324,0.013523,0.002678,0.000431,0.000823
19952000,0.0324,0.013523,0.002678,0.000431,0.000705
19953000,0.0324,0.013523,0.002678,0.000431,0.000823
19954000,0.0324,0.013523,0.002678,0.000431,0.000823
19955000,0.0324,0.013523,0.002678,0.000431,0.000705
19956000,0.0324,0.013523,0.002678,0.000431,0.000705
19957000,0.0324,0.013523,0.002678,0.000431,0.000705
19958000,0.0324,0.013523,0.002678,0.000431,0.000940
19959000,0.0324,0.013523,0.002678,0.000431,0.000705
19960000,0.0324,0.013523,0.002678,0.000431,0.000705
19961000,0.0324,0.013523,0.002678,0.000431,0.000705
19962000,0.0324,0.013523,0.002678,0.000431,0.000823
19963000,0.0324,0.013523,0.002678,0.000431,0.000705
19964000,0.0324,0.013523,0.002678,0.000431,0.000823
19965000,0.0324,0.013523,0.002678,0.000431,0.000705
19966000,0.0324,0.013523,0.002678,0.000431,0.000823
19967000,0.0324,0.013523,0.002678,0.000431,0.000823
19968000,0.0324,0.013523,0.002678,0.000431,0.000705
19969000,0.0324,0.013523,0.002678,0.000431,0.000705
19970000,0.0324,0.013523,0.002678,0.000431,0.000705
19971000,0.0324,0.013523,0.002678,0.000431,0.000588
19972000,0.0324,0.013523,0.002678,0.000431,0.000588
19973000,0.0324,0.013523,0.002678,0.000431,0.000705
19974000,0.0324,0.013523,0.002678,0.000431,0.000705
19975000,0.0324,0.013523,0.002678,0.000431,0.000823
19976000,0.0324,0.013523,0.002678,0.000431,0.000705
19977000,0.0324,0.013523,0.002678,0.000431,0.000823
19978000,0.0324,0.013523,0.002678,0.000431,0.000705
19979000,0.0324,0.013523,0.002678,0.000431,0.000705
19980000,0.0324,0.013523,0.002678,0.000431,0.000705
19981000,0.0324,0.013523,0.002678,0.000431,0.000705
19982000,0.0324,0.013523,0.002678,0.000431,0.000705
19983000,0.0324,0.013523,0.002678,0.000431,0.000588
19984000,0.0324,0.013523,0.002678,0.000431,0.000823
19985000,0.0324,0.013523,0.002678,0.000431,0.000705
19986000,0.0324,0.013523,0.002678,0.000431,0.000823
19987000,0.0324,0.013523,0.002678,0.000431,0.000588
19988000,0.0324,0.013523,0.002678,0.000431,0.000705
19989000,0.0324,0.013523,0.002678,0.000431,0.000823
19990000,0.0324,0.013523,0.002678,0.000431,0.000588
19991000,0.0324,0.013523,0.002678,0.000431,0.000823
19992000,0.0324,0.013523,0.002678,0.000431,0.000705
19993000,0.0324,0.013523,0.002678,0.000431,0.000705
19994000,0.0324,0.013523,0.002678,0.000431,0.000705
19995000,0.0324,0.013523,0.002678,0.000431,0.000705
19996000,0.0324,0.013523,0.002678,0.000431,0.000588
19997000,0.0324,0.013523,0.002678,0.000431,0.000823
19998000,0.0324,0.013523,0.002678,0.000431,0.000705
19999000,0.0324,0.013523,0.002678,0.000431,0.000588
