Cycle,Area(mm^2),PeakDynamic(W),SubthresholdLeakage(W),GateLeakage(W),RunTimeDynamic(W)
5000000,0.0324,0.013523,0.002678,0.000431,0.046071
5001000,0.0324,0.013523,0.002678,0.000431,0.044778
5002000,0.0324,0.013523,0.002678,0.000431,0.044191
5003000,0.0324,0.013523,0.002678,0.000431,0.041487
5004000,0.0324,0.013523,0.002678,0.000431,0.048304
5005000,0.0324,0.013523,0.002678,0.000431,0.043956
5006000,0.0324,0.013523,0.002678,0.000431,0.043838
5007000,0.0324,0.013523,0.002678,0.000431,0.043838
5008000,0.0324,0.013523,0.002678,0.000431,0.046189
5009000,0.0324,0.013523,0.002678,0.000431,0.045718
5010000,0.0324,0.013523,0.002678,0.000431,0.047011
5011000,0.0324,0.013523,0.002678,0.000431,0.044896
5012000,0.0324,0.013523,0.002678,0.000431,0.044661
5013000,0.0324,0.013523,0.002678,0.000431,0.046776
5014000,0.0324,0.013523,0.002678,0.000431,0.042663
5015000,0.0324,0.013523,0.002678,0.000431,0.045601
5016000,0.0324,0.013523,0.002678,0.000431,0.044073
5017000,0.0324,0.013523,0.002678,0.000431,0.042780
5018000,0.0324,0.013523,0.002678,0.000431,0.044778
5019000,0.0324,0.013523,0.002678,0.000431,0.044661
5020000,0.0324,0.013523,0.002678,0.000431,0.044426
5021000,0.0324,0.013523,0.002678,0.000431,0.044896
5022000,0.0324,0.013523,0.002678,0.000431,0.043603
5023000,0.0324,0.013523,0.002678,0.000431,0.045718
5024000,0.0324,0.013523,0.002678,0.000431,0.044073
5025000,0.0324,0.013523,0.002678,0.000431,0.043485
5026000,0.0324,0.013523,0.002678,0.000431,0.043368
5027000,0.0324,0.013523,0.002678,0.000431,0.047716
5028000,0.0324,0.013523,0.002678,0.000431,0.043838
5029000,0.0324,0.013523,0.002678,0.000431,0.041135
5030000,0.0324,0.013523,0.002678,0.000431,0.045248
5031000,0.0324,0.013523,0.002678,0.000431,0.044543
5032000,0.0324,0.013523,0.002678,0.000431,0.043368
5033000,0.0324,0.013523,0.002678,0.000431,0.046071
5034000,0.0324,0.013523,0.002678,0.000431,0.040430
5035000,0.0324,0.013523,0.002678,0.000431,0.045954
5036000,0.0324,0.013523,0.002678,0.000431,0.042428
5037000,0.0324,0.013523,0.002678,0.000431,0.045131
5038000,0.0324,0.013523,0.002678,0.000431,0.040900
5039000,0.0324,0.013523,0.002678,0.000431,0.043015
5040000,0.0324,0.013523,0.002678,0.000431,0.046424
5041000,0.0324,0.013523,0.002678,0.000431,0.047246
5042000,0.0324,0.013523,0.002678,0.000431,0.042898
5043000,0.0324,0.013523,0.002678,0.000431,0.041605
5044000,0.0324,0.013523,0.002678,0.000431,0.045131
5045000,0.0324,0.013523,0.002678,0.000431,0.043838
5046000,0.0324,0.013523,0.002678,0.000431,0.045483
5047000,0.0324,0.013523,0.002678,0.000431,0.043133
5048000,0.0324,0.013523,0.002678,0.000431,0.042898
5049000,0.0324,0.013523,0.002678,0.000431,0.047481
5050000,0.0324,0.013523,0.002678,0.000431,0.043838
5051000,0.0324,0.013523,0.002678,0.000431,0.042428
5052000,0.0324,0.013523,0.002678,0.000431,0.043603
5053000,0.0324,0.013523,0.002678,0.000431,0.041840
5054000,0.0324,0.013523,0.002678,0.000431,0.044073
5055000,0.0324,0.013523,0.002678,0.000431,0.041487
5056000,0.0324,0.013523,0.002678,0.000431,0.041605
5057000,0.0324,0.013523,0.002678,0.000431,0.042663
5058000,0.0324,0.013523,0.002678,0.000431,0.043250
5059000,0.0324,0.013523,0.002678,0.000431,0.042545
5060000,0.0324,0.013523,0.002678,0.000431,0.043250
5061000,0.0324,0.013523,0.002678,0.000431,0.042193
5062000,0.0324,0.013523,0.002678,0.000431,0.042545
5063000,0.0324,0.013523,0.002678,0.000431,0.042193
5064000,0.0324,0.013523,0.002678,0.000431,0.043485
5065000,0.0324,0.013523,0.002678,0.000431,0.045248
5066000,0.0324,0.013523,0.002678,0.000431,0.039372
5067000,0.0324,0.013523,0.002678,0.000431,0.044073
5068000,0.0324,0.013523,0.002678,0.000431,0.041605
5069000,0.0324,0.013523,0.002678,0.000431,0.042075
5070000,0.0324,0.013523,0.002678,0.000431,0.044661
5071000,0.0324,0.013523,0.002678,0.000431,0.043720
5072000,0.0324,0.013523,0.002678,0.000431,0.044543
5073000,0.0324,0.013523,0.002678,0.000431,0.042780
5074000,0.0324,0.013523,0.002678,0.000431,0.041252
5075000,0.0324,0.013523,0.002678,0.000431,0.044308
5076000,0.0324,0.013523,0.002678,0.000431,0.042663
5077000,0.0324,0.013523,0.002678,0.000431,0.041605
5078000,0.0324,0.013523,0.002678,0.000431,0.044896
5079000,0.0324,0.013523,0.002678,0.000431,0.043956
5080000,0.0324,0.013523,0.002678,0.000431,0.043956
5081000,0.0324,0.013523,0.002678,0.000431,0.045954
5082000,0.0324,0.013523,0.002678,0.000431,0.042663
5083000,0.0324,0.013523,0.002678,0.000431,0.041017
5084000,0.0324,0.013523,0.002678,0.000431,0.043956
5085000,0.0324,0.013523,0.002678,0.000431,0.043956
5086000,0.0324,0.013523,0.002678,0.000431,0.042075
5087000,0.0324,0.013523,0.002678,0.000431,0.042310
5088000,0.0324,0.013523,0.002678,0.000431,0.045483
5089000,0.0324,0.013523,0.002678,0.000431,0.041252
5090000,0.0324,0.013523,0.002678,0.000431,0.046424
5091000,0.0324,0.013523,0.002678,0.000431,0.039489
5092000,0.0324,0.013523,0.002678,0.000431,0.046541
5093000,0.0324,0.013523,0.002678,0.000431,0.043133
5094000,0.0324,0.013523,0.002678,0.000431,0.046189
5095000,0.0324,0.013523,0.002678,0.000431,0.044191
5096000,0.0324,0.013523,0.002678,0.000431,0.041252
5097000,0.0324,0.013523,0.002678,0.000431,0.045131
5098000,0.0324,0.013523,0.002678,0.000431,0.044661
5099000,0.0324,0.013523,0.002678,0.000431,0.044778
5100000,0.0324,0.013523,0.002678,0.000431,0.041958
5101000,0.0324,0.013523,0.002678,0.000431,0.043603
5102000,0.0324,0.013523,0.002678,0.000431,0.042663
5103000,0.0324,0.013523,0.002678,0.000431,0.042075
5104000,0.0324,0.013523,0.002678,0.000431,0.042075
5105000,0.0324,0.013523,0.002678,0.000431,0.044073
5106000,0.0324,0.013523,0.002678,0.000431,0.040782
5107000,0.0324,0.013523,0.002678,0.000431,0.044191
5108000,0.0324,0.013523,0.002678,0.000431,0.044191
5109000,0.0324,0.013523,0.002678,0.000431,0.043956
5110000,0.0324,0.013523,0.002678,0.000431,0.043838
5111000,0.0324,0.013523,0.002678,0.000431,0.044308
5112000,0.0324,0.013523,0.002678,0.000431,0.039725
5113000,0.0324,0.013523,0.002678,0.000431,0.041958
5114000,0.0324,0.013523,0.002678,0.000431,0.042663
5115000,0.0324,0.013523,0.002678,0.000431,0.041135
5116000,0.0324,0.013523,0.002678,0.000431,0.041487
5117000,0.0324,0.013523,0.002678,0.000431,0.045013
5118000,0.0324,0.013523,0.002678,0.000431,0.042663
5119000,0.0324,0.013523,0.002678,0.000431,0.045131
5120000,0.0324,0.013523,0.002678,0.000431,0.044308
5121000,0.0324,0.013523,0.002678,0.000431,0.043720
5122000,0.0324,0.013523,0.002678,0.000431,0.040665
5123000,0.0324,0.013523,0.002678,0.000431,0.044191
5124000,0.0324,0.013523,0.002678,0.000431,0.044896
5125000,0.0324,0.013523,0.002678,0.000431,0.043250
5126000,0.0324,0.013523,0.002678,0.000431,0.042193
5127000,0.0324,0.013523,0.002678,0.000431,0.043133
5128000,0.0324,0.013523,0.002678,0.000431,0.045248
5129000,0.0324,0.013523,0.002678,0.000431,0.043368
5130000,0.0324,0.013523,0.002678,0.000431,0.042310
5131000,0.0324,0.013523,0.002678,0.000431,0.039725
5132000,0.0324,0.013523,0.002678,0.000431,0.042663
5133000,0.0324,0.013523,0.002678,0.000431,0.041487
5134000,0.0324,0.013523,0.002678,0.000431,0.045013
5135000,0.0324,0.013523,0.002678,0.000431,0.044896
5136000,0.0324,0.013523,0.002678,0.000431,0.041252
5137000,0.0324,0.013523,0.002678,0.000431,0.042780
5138000,0.0324,0.013523,0.002678,0.000431,0.040665
5139000,0.0324,0.013523,0.002678,0.000431,0.041723
5140000,0.0324,0.013523,0.002678,0.000431,0.042663
5141000,0.0324,0.013523,0.002678,0.000431,0.043485
5142000,0.0324,0.013523,0.002678,0.000431,0.043603
5143000,0.0324,0.013523,0.002678,0.000431,0.041723
5144000,0.0324,0.013523,0.002678,0.000431,0.040900
5145000,0.0324,0.013523,0.002678,0.000431,0.044543
5146000,0.0324,0.013523,0.002678,0.000431,0.045131
5147000,0.0324,0.013523,0.002678,0.000431,0.041017
5148000,0.0324,0.013523,0.002678,0.000431,0.040900
5149000,0.0324,0.013523,0.002678,0.000431,0.044073
5150000,0.0324,0.013523,0.002678,0.000431,0.041135
5151000,0.0324,0.013523,0.002678,0.000431,0.043368
5152000,0.0324,0.013523,0.002678,0.000431,0.039607
5153000,0.0324,0.013523,0.002678,0.000431,0.041135
5154000,0.0324,0.013523,0.002678,0.000431,0.041958
5155000,0.0324,0.013523,0.002678,0.000431,0.041370
5156000,0.0324,0.013523,0.002678,0.000431,0.042310
5157000,0.0324,0.013523,0.002678,0.000431,0.041605
5158000,0.0324,0.013523,0.002678,0.000431,0.039960
5159000,0.0324,0.013523,0.002678,0.000431,0.041723
5160000,0.0324,0.013523,0.002678,0.000431,0.043485
5161000,0.0324,0.013523,0.002678,0.000431,0.040195
5162000,0.0324,0.013523,0.002678,0.000431,0.041487
5163000,0.0324,0.013523,0.002678,0.000431,0.043250
5164000,0.0324,0.013523,0.002678,0.000431,0.042075
5165000,0.0324,0.013523,0.002678,0.000431,0.040782
5166000,0.0324,0.013523,0.002678,0.000431,0.037844
5167000,0.0324,0.013523,0.002678,0.000431,0.041958
5168000,0.0324,0.013523,0.002678,0.000431,0.040782
5169000,0.0324,0.013523,0.002678,0.000431,0.041135
5170000,0.0324,0.013523,0.002678,0.000431,0.041487
5171000,0.0324,0.013523,0.002678,0.000431,0.037609
5172000,0.0324,0.013523,0.002678,0.000431,0.039372
5173000,0.0324,0.013523,0.002678,0.000431,0.042310
5174000,0.0324,0.013523,0.002678,0.000431,0.040547
5175000,0.0324,0.013523,0.002678,0.000431,0.042428
5176000,0.0324,0.013523,0.002678,0.000431,0.040430
5177000,0.0324,0.013523,0.002678,0.000431,0.042193
5178000,0.0324,0.013523,0.002678,0.000431,0.041605
5179000,0.0324,0.013523,0.002678,0.000431,0.043250
5180000,0.0324,0.013523,0.002678,0.000431,0.039254
5181000,0.0324,0.013523,0.002678,0.000431,0.041252
5182000,0.0324,0.013523,0.002678,0.000431,0.041017
5183000,0.0324,0.013523,0.002678,0.000431,0.041487
5184000,0.0324,0.013523,0.002678,0.000431,0.039254
5185000,0.0324,0.013523,0.002678,0.000431,0.043133
5186000,0.0324,0.013523,0.002678,0.000431,0.039607
5187000,0.0324,0.013523,0.002678,0.000431,0.038432
5188000,0.0324,0.013523,0.002678,0.000431,0.040430
5189000,0.0324,0.013523,0.002678,0.000431,0.040900
5190000,0.0324,0.013523,0.002678,0.000431,0.040782
5191000,0.0324,0.013523,0.002678,0.000431,0.039372
5192000,0.0324,0.013523,0.002678,0.000431,0.041370
5193000,0.0324,0.013523,0.002678,0.000431,0.040547
5194000,0.0324,0.013523,0.002678,0.000431,0.041487
5195000,0.0324,0.013523,0.002678,0.000431,0.042075
5196000,0.0324,0.013523,0.002678,0.000431,0.040077
5197000,0.0324,0.013523,0.002678,0.000431,0.036316
5198000,0.0324,0.013523,0.002678,0.000431,0.040430
5199000,0.0324,0.013523,0.002678,0.000431,0.042545
5200000,0.0324,0.013523,0.002678,0.000431,0.040195
5201000,0.0324,0.013523,0.002678,0.000431,0.039489
5202000,0.0324,0.013523,0.002678,0.000431,0.042545
5203000,0.0324,0.013523,0.002678,0.000431,0.039960
5204000,0.0324,0.013523,0.002678,0.000431,0.039372
5205000,0.0324,0.013523,0.002678,0.000431,0.040430
5206000,0.0324,0.013523,0.002678,0.000431,0.039607
5207000,0.0324,0.013523,0.002678,0.000431,0.040782
5208000,0.0324,0.013523,0.002678,0.000431,0.039489
5209000,0.0324,0.013523,0.002678,0.000431,0.040195
5210000,0.0324,0.013523,0.002678,0.000431,0.039842
5211000,0.0324,0.013523,0.002678,0.000431,0.041017
5212000,0.0324,0.013523,0.002678,0.000431,0.039725
5213000,0.0324,0.013523,0.002678,0.000431,0.038667
5214000,0.0324,0.013523,0.002678,0.000431,0.040547
5215000,0.0324,0.013523,0.002678,0.000431,0.038667
5216000,0.0324,0.013523,0.002678,0.000431,0.040547
5217000,0.0324,0.013523,0.002678,0.000431,0.040195
5218000,0.0324,0.013523,0.002678,0.000431,0.038314
5219000,0.0324,0.013523,0.002678,0.000431,0.038902
5220000,0.0324,0.013523,0.002678,0.000431,0.037256
5221000,0.0324,0.013523,0.002678,0.000431,0.039960
5222000,0.0324,0.013523,0.002678,0.000431,0.036786
5223000,0.0324,0.013523,0.002678,0.000431,0.039607
5224000,0.0324,0.013523,0.002678,0.000431,0.042428
5225000,0.0324,0.013523,0.002678,0.000431,0.039372
5226000,0.0324,0.013523,0.002678,0.000431,0.036434
5227000,0.0324,0.013523,0.002678,0.000431,0.040077
5228000,0.0324,0.013523,0.002678,0.000431,0.040900
5229000,0.0324,0.013523,0.002678,0.000431,0.037962
5230000,0.0324,0.013523,0.002678,0.000431,0.041017
5231000,0.0324,0.013523,0.002678,0.000431,0.042310
5232000,0.0324,0.013523,0.002678,0.000431,0.038784
5233000,0.0324,0.013523,0.002678,0.000431,0.040547
5234000,0.0324,0.013523,0.002678,0.000431,0.037962
5235000,0.0324,0.013523,0.002678,0.000431,0.039254
5236000,0.0324,0.013523,0.002678,0.000431,0.037962
5237000,0.0324,0.013523,0.002678,0.000431,0.040312
5238000,0.0324,0.013523,0.002678,0.000431,0.040665
5239000,0.0324,0.013523,0.002678,0.000431,0.038197
5240000,0.0324,0.013523,0.002678,0.000431,0.038197
5241000,0.0324,0.013523,0.002678,0.000431,0.041017
5242000,0.0324,0.013523,0.002678,0.000431,0.039607
5243000,0.0324,0.013523,0.002678,0.000431,0.040312
5244000,0.0324,0.013523,0.002678,0.000431,0.037374
5245000,0.0324,0.013523,0.002678,0.000431,0.037021
5246000,0.0324,0.013523,0.002678,0.000431,0.039019
5247000,0.0324,0.013523,0.002678,0.000431,0.040195
5248000,0.0324,0.013523,0.002678,0.000431,0.039489
5249000,0.0324,0.013523,0.002678,0.000431,0.037609
5250000,0.0324,0.013523,0.002678,0.000431,0.041252
5251000,0.0324,0.013523,0.002678,0.000431,0.039842
5252000,0.0324,0.013523,0.002678,0.000431,0.038197
5253000,0.0324,0.013523,0.002678,0.000431,0.037021
5254000,0.0324,0.013523,0.002678,0.000431,0.040782
5255000,0.0324,0.013523,0.002678,0.000431,0.040077
5256000,0.0324,0.013523,0.002678,0.000431,0.038902
5257000,0.0324,0.013523,0.002678,0.000431,0.037256
5258000,0.0324,0.013523,0.002678,0.000431,0.037844
5259000,0.0324,0.013523,0.002678,0.000431,0.036081
5260000,0.0324,0.013523,0.002678,0.000431,0.036316
5261000,0.0324,0.013523,0.002678,0.000431,0.036669
5262000,0.0324,0.013523,0.002678,0.000431,0.038549
5263000,0.0324,0.013523,0.002678,0.000431,0.037374
5264000,0.0324,0.013523,0.002678,0.000431,0.040077
5265000,0.0324,0.013523,0.002678,0.000431,0.038549
5266000,0.0324,0.013523,0.002678,0.000431,0.040077
5267000,0.0324,0.013523,0.002678,0.000431,0.039372
5268000,0.0324,0.013523,0.002678,0.000431,0.039019
5269000,0.0324,0.013523,0.002678,0.000431,0.038314
5270000,0.0324,0.013523,0.002678,0.000431,0.038549
5271000,0.0324,0.013523,0.002678,0.000431,0.038549
5272000,0.0324,0.013523,0.002678,0.000431,0.040077
5273000,0.0324,0.013523,0.002678,0.000431,0.037844
5274000,0.0324,0.013523,0.002678,0.000431,0.037609
5275000,0.0324,0.013523,0.002678,0.000431,0.038784
5276000,0.0324,0.013523,0.002678,0.000431,0.038902
5277000,0.0324,0.013523,0.002678,0.000431,0.037491
5278000,0.0324,0.013523,0.002678,0.000431,0.037491
5279000,0.0324,0.013523,0.002678,0.000431,0.041958
5280000,0.0324,0.013523,0.002678,0.000431,0.039725
5281000,0.0324,0.013523,0.002678,0.000431,0.040547
5282000,0.0324,0.013523,0.002678,0.000431,0.038784
5283000,0.0324,0.013523,0.002678,0.000431,0.035258
5284000,0.0324,0.013523,0.002678,0.000431,0.039607
5285000,0.0324,0.013523,0.002678,0.000431,0.036551
5286000,0.0324,0.013523,0.002678,0.000431,0.038667
5287000,0.0324,0.013523,0.002678,0.000431,0.039607
5288000,0.0324,0.013523,0.002678,0.000431,0.037962
5289000,0.0324,0.013523,0.002678,0.000431,0.040782
5290000,0.0324,0.013523,0.002678,0.000431,0.039489
5291000,0.0324,0.013523,0.002678,0.000431,0.037256
5292000,0.0324,0.013523,0.002678,0.000431,0.036434
5293000,0.0324,0.013523,0.002678,0.000431,0.039960
5294000,0.0324,0.013523,0.002678,0.000431,0.039372
5295000,0.0324,0.013523,0.002678,0.000431,0.039960
5296000,0.0324,0.013523,0.002678,0.000431,0.042428
5297000,0.0324,0.013523,0.002678,0.000431,0.039489
5298000,0.0324,0.013523,0.002678,0.000431,0.039019
5299000,0.0324,0.013523,0.002678,0.000431,0.038667
5300000,0.0324,0.013523,0.002678,0.000431,0.037374
5301000,0.0324,0.013523,0.002678,0.000431,0.038549
5302000,0.0324,0.013523,0.002678,0.000431,0.039019
5303000,0.0324,0.013523,0.002678,0.000431,0.035846
5304000,0.0324,0.013523,0.002678,0.000431,0.038667
5305000,0.0324,0.013523,0.002678,0.000431,0.037021
5306000,0.0324,0.013523,0.002678,0.000431,0.035611
5307000,0.0324,0.013523,0.002678,0.000431,0.040430
5308000,0.0324,0.013523,0.002678,0.000431,0.037374
5309000,0.0324,0.013523,0.002678,0.000431,0.038197
5310000,0.0324,0.013523,0.002678,0.000431,0.041487
5311000,0.0324,0.013523,0.002678,0.000431,0.037727
5312000,0.0324,0.013523,0.002678,0.000431,0.036786
5313000,0.0324,0.013523,0.002678,0.000431,0.039254
5314000,0.0324,0.013523,0.002678,0.000431,0.040312
5315000,0.0324,0.013523,0.002678,0.000431,0.039019
5316000,0.0324,0.013523,0.002678,0.000431,0.039137
5317000,0.0324,0.013523,0.002678,0.000431,0.036786
5318000,0.0324,0.013523,0.002678,0.000431,0.037609
5319000,0.0324,0.013523,0.002678,0.000431,0.039372
5320000,0.0324,0.013523,0.002678,0.000431,0.037491
5321000,0.0324,0.013523,0.002678,0.000431,0.037374
5322000,0.0324,0.013523,0.002678,0.000431,0.041252
5323000,0.0324,0.013523,0.002678,0.000431,0.038432
5324000,0.0324,0.013523,0.002678,0.000431,0.037727
5325000,0.0324,0.013523,0.002678,0.000431,0.040430
5326000,0.0324,0.013523,0.002678,0.000431,0.036551
5327000,0.0324,0.013523,0.002678,0.000431,0.039137
5328000,0.0324,0.013523,0.002678,0.000431,0.038667
5329000,0.0324,0.013523,0.002678,0.000431,0.038197
5330000,0.0324,0.013523,0.002678,0.000431,0.039254
5331000,0.0324,0.013523,0.002678,0.000431,0.036434
5332000,0.0324,0.013523,0.002678,0.000431,0.039960
5333000,0.0324,0.013523,0.002678,0.000431,0.037374
5334000,0.0324,0.013523,0.002678,0.000431,0.036904
5335000,0.0324,0.013523,0.002678,0.000431,0.040195
5336000,0.0324,0.013523,0.002678,0.000431,0.039607
5337000,0.0324,0.013523,0.002678,0.000431,0.038667
5338000,0.0324,0.013523,0.002678,0.000431,0.036904
5339000,0.0324,0.013523,0.002678,0.000431,0.039489
5340000,0.0324,0.013523,0.002678,0.000431,0.040312
5341000,0.0324,0.013523,0.002678,0.000431,0.038902
5342000,0.0324,0.013523,0.002678,0.000431,0.037256
5343000,0.0324,0.013523,0.002678,0.000431,0.037021
5344000,0.0324,0.013523,0.002678,0.000431,0.041958
5345000,0.0324,0.013523,0.002678,0.000431,0.039254
5346000,0.0324,0.013523,0.002678,0.000431,0.035964
5347000,0.0324,0.013523,0.002678,0.000431,0.037609
5348000,0.0324,0.013523,0.002678,0.000431,0.037727
5349000,0.0324,0.013523,0.002678,0.000431,0.038549
5350000,0.0324,0.013523,0.002678,0.000431,0.041723
5351000,0.0324,0.013523,0.002678,0.000431,0.037491
5352000,0.0324,0.013523,0.002678,0.000431,0.038667
5353000,0.0324,0.013523,0.002678,0.000431,0.038197
5354000,0.0324,0.013523,0.002678,0.000431,0.039960
5355000,0.0324,0.013523,0.002678,0.000431,0.039019
5356000,0.0324,0.013523,0.002678,0.000431,0.040430
5357000,0.0324,0.013523,0.002678,0.000431,0.039254
5358000,0.0324,0.013523,0.002678,0.000431,0.039725
5359000,0.0324,0.013523,0.002678,0.000431,0.039607
5360000,0.0324,0.013523,0.002678,0.000431,0.040665
5361000,0.0324,0.013523,0.002678,0.000431,0.039019
5362000,0.0324,0.013523,0.002678,0.000431,0.037609
5363000,0.0324,0.013523,0.002678,0.000431,0.038314
5364000,0.0324,0.013523,0.002678,0.000431,0.036434
5365000,0.0324,0.013523,0.002678,0.000431,0.036904
5366000,0.0324,0.013523,0.002678,0.000431,0.036786
5367000,0.0324,0.013523,0.002678,0.000431,0.039137
5368000,0.0324,0.013523,0.002678,0.000431,0.038432
5369000,0.0324,0.013523,0.002678,0.000431,0.036904
5370000,0.0324,0.013523,0.002678,0.000431,0.038667
5371000,0.0324,0.013523,0.002678,0.000431,0.039842
5372000,0.0324,0.013523,0.002678,0.000431,0.040665
5373000,0.0324,0.013523,0.002678,0.000431,0.039372
5374000,0.0324,0.013523,0.002678,0.000431,0.037021
5375000,0.0324,0.013523,0.002678,0.000431,0.039137
5376000,0.0324,0.013523,0.002678,0.000431,0.040077
5377000,0.0324,0.013523,0.002678,0.000431,0.039960
5378000,0.0324,0.013523,0.002678,0.000431,0.039372
5379000,0.0324,0.013523,0.002678,0.000431,0.040312
5380000,0.0324,0.013523,0.002678,0.000431,0.042075
5381000,0.0324,0.013523,0.002678,0.000431,0.037021
5382000,0.0324,0.013523,0.002678,0.000431,0.041017
5383000,0.0324,0.013523,0.002678,0.000431,0.039607
5384000,0.0324,0.013523,0.002678,0.000431,0.039372
5385000,0.0324,0.013523,0.002678,0.000431,0.041370
5386000,0.0324,0.013523,0.002678,0.000431,0.037021
5387000,0.0324,0.013523,0.002678,0.000431,0.039137
5388000,0.0324,0.013523,0.002678,0.000431,0.037021
5389000,0.0324,0.013523,0.002678,0.000431,0.038197
5390000,0.0324,0.013523,0.002678,0.000431,0.038314
5391000,0.0324,0.013523,0.002678,0.000431,0.043368
5392000,0.0324,0.013523,0.002678,0.000431,0.039019
5393000,0.0324,0.013523,0.002678,0.000431,0.040547
5394000,0.0324,0.013523,0.002678,0.000431,0.041370
5395000,0.0324,0.013523,0.002678,0.000431,0.039254
5396000,0.0324,0.013523,0.002678,0.000431,0.039725
5397000,0.0324,0.013523,0.002678,0.000431,0.035846
5398000,0.0324,0.013523,0.002678,0.000431,0.038314
5399000,0.0324,0.013523,0.002678,0.000431,0.038902
5400000,0.0324,0.013523,0.002678,0.000431,0.042545
5401000,0.0324,0.013523,0.002678,0.000431,0.038314
5402000,0.0324,0.013523,0.002678,0.000431,0.035964
5403000,0.0324,0.013523,0.002678,0.000431,0.039254
5404000,0.0324,0.013523,0.002678,0.000431,0.035964
5405000,0.0324,0.013523,0.002678,0.000431,0.037727
5406000,0.0324,0.013523,0.002678,0.000431,0.038784
5407000,0.0324,0.013523,0.002678,0.000431,0.039254
5408000,0.0324,0.013523,0.002678,0.000431,0.037609
5409000,0.0324,0.013523,0.002678,0.000431,0.038902
5410000,0.0324,0.013523,0.002678,0.000431,0.038667
5411000,0.0324,0.013523,0.002678,0.000431,0.040077
5412000,0.0324,0.013523,0.002678,0.000431,0.036904
5413000,0.0324,0.013523,0.002678,0.000431,0.039137
5414000,0.0324,0.013523,0.002678,0.000431,0.039607
5415000,0.0324,0.013523,0.002678,0.000431,0.037374
5416000,0.0324,0.013523,0.002678,0.000431,0.039019
5417000,0.0324,0.013523,0.002678,0.000431,0.037609
5418000,0.0324,0.013523,0.002678,0.000431,0.039607
5419000,0.0324,0.013523,0.002678,0.000431,0.039372
5420000,0.0324,0.013523,0.002678,0.000431,0.035494
5421000,0.0324,0.013523,0.002678,0.000431,0.040312
5422000,0.0324,0.013523,0.002678,0.000431,0.038902
5423000,0.0324,0.013523,0.002678,0.000431,0.038902
5424000,0.0324,0.013523,0.002678,0.000431,0.039372
5425000,0.0324,0.013523,0.002678,0.000431,0.038667
5426000,0.0324,0.013523,0.002678,0.000431,0.038314
5427000,0.0324,0.013523,0.002678,0.000431,0.038314
5428000,0.0324,0.013523,0.002678,0.000431,0.037609
5429000,0.0324,0.013523,0.002678,0.000431,0.037139
5430000,0.0324,0.013523,0.002678,0.000431,0.041135
5431000,0.0324,0.013523,0.002678,0.000431,0.041017
5432000,0.0324,0.013523,0.002678,0.000431,0.039254
5433000,0.0324,0.013523,0.002678,0.000431,0.036434
5434000,0.0324,0.013523,0.002678,0.000431,0.037374
5435000,0.0324,0.013523,0.002678,0.000431,0.038197
5436000,0.0324,0.013523,0.002678,0.000431,0.038549
5437000,0.0324,0.013523,0.002678,0.000431,0.036904
5438000,0.0324,0.013523,0.002678,0.000431,0.039137
5439000,0.0324,0.013523,0.002678,0.000431,0.038197
5440000,0.0324,0.013523,0.002678,0.000431,0.038667
5441000,0.0324,0.013523,0.002678,0.000431,0.037844
5442000,0.0324,0.013523,0.002678,0.000431,0.037727
5443000,0.0324,0.013523,0.002678,0.000431,0.038197
5444000,0.0324,0.013523,0.002678,0.000431,0.038079
5445000,0.0324,0.013523,0.002678,0.000431,0.037609
5446000,0.0324,0.013523,0.002678,0.000431,0.036081
5447000,0.0324,0.013523,0.002678,0.000431,0.038784
5448000,0.0324,0.013523,0.002678,0.000431,0.037256
5449000,0.0324,0.013523,0.002678,0.000431,0.039372
5450000,0.0324,0.013523,0.002678,0.000431,0.038314
5451000,0.0324,0.013523,0.002678,0.000431,0.036669
5452000,0.0324,0.013523,0.002678,0.000431,0.038549
5453000,0.0324,0.013523,0.002678,0.000431,0.040782
5454000,0.0324,0.013523,0.002678,0.000431,0.034553
5455000,0.0324,0.013523,0.002678,0.000431,0.037609
5456000,0.0324,0.013523,0.002678,0.000431,0.039960
5457000,0.0324,0.013523,0.002678,0.000431,0.038784
5458000,0.0324,0.013523,0.002678,0.000431,0.036316
5459000,0.0324,0.013523,0.002678,0.000431,0.039960
5460000,0.0324,0.013523,0.002678,0.000431,0.040077
5461000,0.0324,0.013523,0.002678,0.000431,0.039372
5462000,0.0324,0.013523,0.002678,0.000431,0.037962
5463000,0.0324,0.013523,0.002678,0.000431,0.037609
5464000,0.0324,0.013523,0.002678,0.000431,0.041017
5465000,0.0324,0.013523,0.002678,0.000431,0.038079
5466000,0.0324,0.013523,0.002678,0.000431,0.039137
5467000,0.0324,0.013523,0.002678,0.000431,0.036434
5468000,0.0324,0.013523,0.002678,0.000431,0.039489
5469000,0.0324,0.013523,0.002678,0.000431,0.038902
5470000,0.0324,0.013523,0.002678,0.000431,0.040782
5471000,0.0324,0.013523,0.002678,0.000431,0.036081
5472000,0.0324,0.013523,0.002678,0.000431,0.039137
5473000,0.0324,0.013523,0.002678,0.000431,0.040547
5474000,0.0324,0.013523,0.002678,0.000431,0.037727
5475000,0.0324,0.013523,0.002678,0.000431,0.038549
5476000,0.0324,0.013523,0.002678,0.000431,0.038667
5477000,0.0324,0.013523,0.002678,0.000431,0.042075
5478000,0.0324,0.013523,0.002678,0.000431,0.039372
5479000,0.0324,0.013523,0.002678,0.000431,0.038784
5480000,0.0324,0.013523,0.002678,0.000431,0.038079
5481000,0.0324,0.013523,0.002678,0.000431,0.040900
5482000,0.0324,0.013523,0.002678,0.000431,0.039372
5483000,0.0324,0.013523,0.002678,0.000431,0.037139
5484000,0.0324,0.013523,0.002678,0.000431,0.037374
5485000,0.0324,0.013523,0.002678,0.000431,0.040665
5486000,0.0324,0.013523,0.002678,0.000431,0.038079
5487000,0.0324,0.013523,0.002678,0.000431,0.040900
5488000,0.0324,0.013523,0.002678,0.000431,0.039137
5489000,0.0324,0.013523,0.002678,0.000431,0.039489
5490000,0.0324,0.013523,0.002678,0.000431,0.037491
5491000,0.0324,0.013523,0.002678,0.000431,0.039489
5492000,0.0324,0.013523,0.002678,0.000431,0.040195
5493000,0.0324,0.013523,0.002678,0.000431,0.037609
5494000,0.0324,0.013523,0.002678,0.000431,0.039372
5495000,0.0324,0.013523,0.002678,0.000431,0.040430
5496000,0.0324,0.013523,0.002678,0.000431,0.038784
5497000,0.0324,0.013523,0.002678,0.000431,0.038784
5498000,0.0324,0.013523,0.002678,0.000431,0.040195
5499000,0.0324,0.013523,0.002678,0.000431,0.039489
5500000,0.0324,0.013523,0.002678,0.000431,0.038549
5501000,0.0324,0.013523,0.002678,0.000431,0.038432
5502000,0.0324,0.013523,0.002678,0.000431,0.039960
5503000,0.0324,0.013523,0.002678,0.000431,0.040430
5504000,0.0324,0.013523,0.002678,0.000431,0.039137
5505000,0.0324,0.013523,0.002678,0.000431,0.036904
5506000,0.0324,0.013523,0.002678,0.000431,0.039019
5507000,0.0324,0.013523,0.002678,0.000431,0.041252
5508000,0.0324,0.013523,0.002678,0.000431,0.038079
5509000,0.0324,0.013523,0.002678,0.000431,0.040430
5510000,0.0324,0.013523,0.002678,0.000431,0.037727
5511000,0.0324,0.013523,0.002678,0.000431,0.040900
5512000,0.0324,0.013523,0.002678,0.000431,0.039019
5513000,0.0324,0.013523,0.002678,0.000431,0.036904
5514000,0.0324,0.013523,0.002678,0.000431,0.038197
5515000,0.0324,0.013523,0.002678,0.000431,0.039842
5516000,0.0324,0.013523,0.002678,0.000431,0.038079
5517000,0.0324,0.013523,0.002678,0.000431,0.035729
5518000,0.0324,0.013523,0.002678,0.000431,0.039607
5519000,0.0324,0.013523,0.002678,0.000431,0.036669
5520000,0.0324,0.013523,0.002678,0.000431,0.039842
5521000,0.0324,0.013523,0.002678,0.000431,0.038902
5522000,0.0324,0.013523,0.002678,0.000431,0.036904
5523000,0.0324,0.013523,0.002678,0.000431,0.040782
5524000,0.0324,0.013523,0.002678,0.000431,0.041135
5525000,0.0324,0.013523,0.002678,0.000431,0.039842
5526000,0.0324,0.013523,0.002678,0.000431,0.039254
5527000,0.0324,0.013523,0.002678,0.000431,0.039489
5528000,0.0324,0.013523,0.002678,0.000431,0.037374
5529000,0.0324,0.013523,0.002678,0.000431,0.037844
5530000,0.0324,0.013523,0.002678,0.000431,0.039137
5531000,0.0324,0.013523,0.002678,0.000431,0.039960
5532000,0.0324,0.013523,0.002678,0.000431,0.039607
5533000,0.0324,0.013523,0.002678,0.000431,0.039019
5534000,0.0324,0.013523,0.002678,0.000431,0.038667
5535000,0.0324,0.013523,0.002678,0.000431,0.039254
5536000,0.0324,0.013523,0.002678,0.000431,0.038197
5537000,0.0324,0.013523,0.002678,0.000431,0.039842
5538000,0.0324,0.013523,0.002678,0.000431,0.041135
5539000,0.0324,0.013523,0.002678,0.000431,0.039372
5540000,0.0324,0.013523,0.002678,0.000431,0.040195
5541000,0.0324,0.013523,0.002678,0.000431,0.040195
5542000,0.0324,0.013523,0.002678,0.000431,0.038314
5543000,0.0324,0.013523,0.002678,0.000431,0.039960
5544000,0.0324,0.013523,0.002678,0.000431,0.038667
5545000,0.0324,0.013523,0.002678,0.000431,0.040782
5546000,0.0324,0.013523,0.002678,0.000431,0.039842
5547000,0.0324,0.013523,0.002678,0.000431,0.040077
5548000,0.0324,0.013523,0.002678,0.000431,0.038432
5549000,0.0324,0.013523,0.002678,0.000431,0.039960
5550000,0.0324,0.013523,0.002678,0.000431,0.038902
5551000,0.0324,0.013523,0.002678,0.000431,0.037021
5552000,0.0324,0.013523,0.002678,0.000431,0.038079
5553000,0.0324,0.013523,0.002678,0.000431,0.037962
5554000,0.0324,0.013523,0.002678,0.000431,0.042310
5555000,0.0324,0.013523,0.002678,0.000431,0.038902
5556000,0.0324,0.013523,0.002678,0.000431,0.040665
5557000,0.0324,0.013523,0.002678,0.000431,0.037962
5558000,0.0324,0.013523,0.002678,0.000431,0.038784
5559000,0.0324,0.013523,0.002678,0.000431,0.039607
5560000,0.0324,0.013523,0.002678,0.000431,0.040312
5561000,0.0324,0.013523,0.002678,0.000431,0.037491
5562000,0.0324,0.013523,0.002678,0.000431,0.041017
5563000,0.0324,0.013523,0.002678,0.000431,0.036199
5564000,0.0324,0.013523,0.002678,0.000431,0.040782
5565000,0.0324,0.013523,0.002678,0.000431,0.040782
5566000,0.0324,0.013523,0.002678,0.000431,0.038667
5567000,0.0324,0.013523,0.002678,0.000431,0.039254
5568000,0.0324,0.013523,0.002678,0.000431,0.039607
5569000,0.0324,0.013523,0.002678,0.000431,0.037021
5570000,0.0324,0.013523,0.002678,0.000431,0.038667
5571000,0.0324,0.013523,0.002678,0.000431,0.041370
5572000,0.0324,0.013523,0.002678,0.000431,0.038432
5573000,0.0324,0.013523,0.002678,0.000431,0.039019
5574000,0.0324,0.013523,0.002678,0.000431,0.039372
5575000,0.0324,0.013523,0.002678,0.000431,0.040312
5576000,0.0324,0.013523,0.002678,0.000431,0.037021
5577000,0.0324,0.013523,0.002678,0.000431,0.039960
5578000,0.0324,0.013523,0.002678,0.000431,0.039607
5579000,0.0324,0.013523,0.002678,0.000431,0.036669
5580000,0.0324,0.013523,0.002678,0.000431,0.037491
5581000,0.0324,0.013523,0.002678,0.000431,0.041605
5582000,0.0324,0.013523,0.002678,0.000431,0.037962
5583000,0.0324,0.013523,0.002678,0.000431,0.036316
5584000,0.0324,0.013523,0.002678,0.000431,0.038314
5585000,0.0324,0.013523,0.002678,0.000431,0.040430
5586000,0.0324,0.013523,0.002678,0.000431,0.036316
5587000,0.0324,0.013523,0.002678,0.000431,0.040195
5588000,0.0324,0.013523,0.002678,0.000431,0.040195
5589000,0.0324,0.013523,0.002678,0.000431,0.038432
5590000,0.0324,0.013523,0.002678,0.000431,0.039842
5591000,0.0324,0.013523,0.002678,0.000431,0.038079
5592000,0.0324,0.013523,0.002678,0.000431,0.039019
5593000,0.0324,0.013523,0.002678,0.000431,0.039725
5594000,0.0324,0.013523,0.002678,0.000431,0.037139
5595000,0.0324,0.013523,0.002678,0.000431,0.036904
5596000,0.0324,0.013523,0.002678,0.000431,0.038314
5597000,0.0324,0.013523,0.002678,0.000431,0.040077
5598000,0.0324,0.013523,0.002678,0.000431,0.038197
5599000,0.0324,0.013523,0.002678,0.000431,0.040665
5600000,0.0324,0.013523,0.002678,0.000431,0.038784
5601000,0.0324,0.013523,0.002678,0.000431,0.037374
5602000,0.0324,0.013523,0.002678,0.000431,0.038432
5603000,0.0324,0.013523,0.002678,0.000431,0.036316
5604000,0.0324,0.013523,0.002678,0.000431,0.039725
5605000,0.0324,0.013523,0.002678,0.000431,0.041370
5606000,0.0324,0.013523,0.002678,0.000431,0.037962
5607000,0.0324,0.013523,0.002678,0.000431,0.036199
5608000,0.0324,0.013523,0.002678,0.000431,0.037844
5609000,0.0324,0.013523,0.002678,0.000431,0.040900
5610000,0.0324,0.013523,0.002678,0.000431,0.038549
5611000,0.0324,0.013523,0.002678,0.000431,0.038784
5612000,0.0324,0.013523,0.002678,0.000431,0.037139
5613000,0.0324,0.013523,0.002678,0.000431,0.035964
5614000,0.0324,0.013523,0.002678,0.000431,0.040430
5615000,0.0324,0.013523,0.002678,0.000431,0.040430
5616000,0.0324,0.013523,0.002678,0.000431,0.037962
5617000,0.0324,0.013523,0.002678,0.000431,0.037256
5618000,0.0324,0.013523,0.002678,0.000431,0.040312
5619000,0.0324,0.013523,0.002678,0.000431,0.036904
5620000,0.0324,0.013523,0.002678,0.000431,0.039842
5621000,0.0324,0.013523,0.002678,0.000431,0.039842
5622000,0.0324,0.013523,0.002678,0.000431,0.037609
5623000,0.0324,0.013523,0.002678,0.000431,0.041017
5624000,0.0324,0.013523,0.002678,0.000431,0.040547
5625000,0.0324,0.013523,0.002678,0.000431,0.039607
5626000,0.0324,0.013523,0.002678,0.000431,0.034436
5627000,0.0324,0.013523,0.002678,0.000431,0.044191
5628000,0.0324,0.013523,0.002678,0.000431,0.038667
5629000,0.0324,0.013523,0.002678,0.000431,0.036904
5630000,0.0324,0.013523,0.002678,0.000431,0.039489
5631000,0.0324,0.013523,0.002678,0.000431,0.041370
5632000,0.0324,0.013523,0.002678,0.000431,0.039019
5633000,0.0324,0.013523,0.002678,0.000431,0.040782
5634000,0.0324,0.013523,0.002678,0.000431,0.037374
5635000,0.0324,0.013523,0.002678,0.000431,0.038314
5636000,0.0324,0.013523,0.002678,0.000431,0.039960
5637000,0.0324,0.013523,0.002678,0.000431,0.038667
5638000,0.0324,0.013523,0.002678,0.000431,0.038902
5639000,0.0324,0.013523,0.002678,0.000431,0.038314
5640000,0.0324,0.013523,0.002678,0.000431,0.037727
5641000,0.0324,0.013523,0.002678,0.000431,0.040195
5642000,0.0324,0.013523,0.002678,0.000431,0.038314
5643000,0.0324,0.013523,0.002678,0.000431,0.040430
5644000,0.0324,0.013523,0.002678,0.000431,0.038079
5645000,0.0324,0.013523,0.002678,0.000431,0.038549
5646000,0.0324,0.013523,0.002678,0.000431,0.035023
5647000,0.0324,0.013523,0.002678,0.000431,0.041370
5648000,0.0324,0.013523,0.002678,0.000431,0.039137
5649000,0.0324,0.013523,0.002678,0.000431,0.037256
5650000,0.0324,0.013523,0.002678,0.000431,0.039489
5651000,0.0324,0.013523,0.002678,0.000431,0.039607
5652000,0.0324,0.013523,0.002678,0.000431,0.040195
5653000,0.0324,0.013523,0.002678,0.000431,0.040195
5654000,0.0324,0.013523,0.002678,0.000431,0.038432
5655000,0.0324,0.013523,0.002678,0.000431,0.039137
5656000,0.0324,0.013523,0.002678,0.000431,0.036786
5657000,0.0324,0.013523,0.002678,0.000431,0.038784
5658000,0.0324,0.013523,0.002678,0.000431,0.038902
5659000,0.0324,0.013523,0.002678,0.000431,0.037727
5660000,0.0324,0.013523,0.002678,0.000431,0.039137
5661000,0.0324,0.013523,0.002678,0.000431,0.039489
5662000,0.0324,0.013523,0.002678,0.000431,0.043485
5663000,0.0324,0.013523,0.002678,0.000431,0.037844
5664000,0.0324,0.013523,0.002678,0.000431,0.041840
5665000,0.0324,0.013523,0.002678,0.000431,0.037491
5666000,0.0324,0.013523,0.002678,0.000431,0.037256
5667000,0.0324,0.013523,0.002678,0.000431,0.037256
5668000,0.0324,0.013523,0.002678,0.000431,0.041840
5669000,0.0324,0.013523,0.002678,0.000431,0.037962
5670000,0.0324,0.013523,0.002678,0.000431,0.039019
5671000,0.0324,0.013523,0.002678,0.000431,0.038197
5672000,0.0324,0.013523,0.002678,0.000431,0.038667
5673000,0.0324,0.013523,0.002678,0.000431,0.038432
5674000,0.0324,0.013523,0.002678,0.000431,0.040547
5675000,0.0324,0.013523,0.002678,0.000431,0.039372
5676000,0.0324,0.013523,0.002678,0.000431,0.037491
5677000,0.0324,0.013523,0.002678,0.000431,0.039960
5678000,0.0324,0.013523,0.002678,0.000431,0.043015
5679000,0.0324,0.013523,0.002678,0.000431,0.039489
5680000,0.0324,0.013523,0.002678,0.000431,0.038784
5681000,0.0324,0.013523,0.002678,0.000431,0.039019
5682000,0.0324,0.013523,0.002678,0.000431,0.040430
5683000,0.0324,0.013523,0.002678,0.000431,0.039019
5684000,0.0324,0.013523,0.002678,0.000431,0.039137
5685000,0.0324,0.013523,0.002678,0.000431,0.041958
5686000,0.0324,0.013523,0.002678,0.000431,0.041135
5687000,0.0324,0.013523,0.002678,0.000431,0.039137
5688000,0.0324,0.013523,0.002678,0.000431,0.037727
5689000,0.0324,0.013523,0.002678,0.000431,0.041605
5690000,0.0324,0.013523,0.002678,0.000431,0.041017
5691000,0.0324,0.013523,0.002678,0.000431,0.040312
5692000,0.0324,0.013523,0.002678,0.000431,0.039019
5693000,0.0324,0.013523,0.002678,0.000431,0.040547
5694000,0.0324,0.013523,0.002678,0.000431,0.040195
5695000,0.0324,0.013523,0.002678,0.000431,0.041135
5696000,0.0324,0.013523,0.002678,0.000431,0.036081
5697000,0.0324,0.013523,0.002678,0.000431,0.038667
5698000,0.0324,0.013523,0.002678,0.000431,0.039842
5699000,0.0324,0.013523,0.002678,0.000431,0.036904
5700000,0.0324,0.013523,0.002678,0.000431,0.038902
5701000,0.0324,0.013523,0.002678,0.000431,0.040900
5702000,0.0324,0.013523,0.002678,0.000431,0.042663
5703000,0.0324,0.013523,0.002678,0.000431,0.038784
5704000,0.0324,0.013523,0.002678,0.000431,0.038197
5705000,0.0324,0.013523,0.002678,0.000431,0.040782
5706000,0.0324,0.013523,0.002678,0.000431,0.040077
5707000,0.0324,0.013523,0.002678,0.000431,0.039607
5708000,0.0324,0.013523,0.002678,0.000431,0.036551
5709000,0.0324,0.013523,0.002678,0.000431,0.038432
5710000,0.0324,0.013523,0.002678,0.000431,0.040077
5711000,0.0324,0.013523,0.002678,0.000431,0.036786
5712000,0.0324,0.013523,0.002678,0.000431,0.038549
5713000,0.0324,0.013523,0.002678,0.000431,0.041605
5714000,0.0324,0.013523,0.002678,0.000431,0.038079
5715000,0.0324,0.013523,0.002678,0.000431,0.040900
5716000,0.0324,0.013523,0.002678,0.000431,0.040077
5717000,0.0324,0.013523,0.002678,0.000431,0.037962
5718000,0.0324,0.013523,0.002678,0.000431,0.036199
5719000,0.0324,0.013523,0.002678,0.000431,0.040077
5720000,0.0324,0.013523,0.002678,0.000431,0.039137
5721000,0.0324,0.013523,0.002678,0.000431,0.038902
5722000,0.0324,0.013523,0.002678,0.000431,0.038667
5723000,0.0324,0.013523,0.002678,0.000431,0.039019
5724000,0.0324,0.013523,0.002678,0.000431,0.041487
5725000,0.0324,0.013523,0.002678,0.000431,0.038667
5726000,0.0324,0.013523,0.002678,0.000431,0.038784
5727000,0.0324,0.013523,0.002678,0.000431,0.039725
5728000,0.0324,0.013523,0.002678,0.000431,0.039489
5729000,0.0324,0.013523,0.002678,0.000431,0.037021
5730000,0.0324,0.013523,0.002678,0.000431,0.038314
5731000,0.0324,0.013523,0.002678,0.000431,0.039372
5732000,0.0324,0.013523,0.002678,0.000431,0.037491
5733000,0.0324,0.013523,0.002678,0.000431,0.038902
5734000,0.0324,0.013523,0.002678,0.000431,0.036669
5735000,0.0324,0.013523,0.002678,0.000431,0.038079
5736000,0.0324,0.013523,0.002678,0.000431,0.037139
5737000,0.0324,0.013523,0.002678,0.000431,0.042075
5738000,0.0324,0.013523,0.002678,0.000431,0.037491
5739000,0.0324,0.013523,0.002678,0.000431,0.037727
5740000,0.0324,0.013523,0.002678,0.000431,0.040077
5741000,0.0324,0.013523,0.002678,0.000431,0.039842
5742000,0.0324,0.013523,0.002678,0.000431,0.037374
5743000,0.0324,0.013523,0.002678,0.000431,0.039019
5744000,0.0324,0.013523,0.002678,0.000431,0.041958
5745000,0.0324,0.013523,0.002678,0.000431,0.038667
5746000,0.0324,0.013523,0.002678,0.000431,0.037962
5747000,0.0324,0.013523,0.002678,0.000431,0.039019
5748000,0.0324,0.013523,0.002678,0.000431,0.043133
5749000,0.0324,0.013523,0.002678,0.000431,0.038314
5750000,0.0324,0.013523,0.002678,0.000431,0.038314
5751000,0.0324,0.013523,0.002678,0.000431,0.041252
5752000,0.0324,0.013523,0.002678,0.000431,0.039254
5753000,0.0324,0.013523,0.002678,0.000431,0.038667
5754000,0.0324,0.013523,0.002678,0.000431,0.037256
5755000,0.0324,0.013523,0.002678,0.000431,0.039960
5756000,0.0324,0.013523,0.002678,0.000431,0.038197
5757000,0.0324,0.013523,0.002678,0.000431,0.040312
5758000,0.0324,0.013523,0.002678,0.000431,0.041017
5759000,0.0324,0.013523,0.002678,0.000431,0.036786
5760000,0.0324,0.013523,0.002678,0.000431,0.039254
5761000,0.0324,0.013523,0.002678,0.000431,0.038549
5762000,0.0324,0.013523,0.002678,0.000431,0.039489
5763000,0.0324,0.013523,0.002678,0.000431,0.039842
5764000,0.0324,0.013523,0.002678,0.000431,0.038549
5765000,0.0324,0.013523,0.002678,0.000431,0.039019
5766000,0.0324,0.013523,0.002678,0.000431,0.038667
5767000,0.0324,0.013523,0.002678,0.000431,0.040900
5768000,0.0324,0.013523,0.002678,0.000431,0.037139
5769000,0.0324,0.013523,0.002678,0.000431,0.040782
5770000,0.0324,0.013523,0.002678,0.000431,0.039607
5771000,0.0324,0.013523,0.002678,0.000431,0.038784
5772000,0.0324,0.013523,0.002678,0.000431,0.039489
5773000,0.0324,0.013523,0.002678,0.000431,0.038549
5774000,0.0324,0.013523,0.002678,0.000431,0.040547
5775000,0.0324,0.013523,0.002678,0.000431,0.041958
5776000,0.0324,0.013523,0.002678,0.000431,0.037727
5777000,0.0324,0.013523,0.002678,0.000431,0.040077
5778000,0.0324,0.013523,0.002678,0.000431,0.038432
5779000,0.0324,0.013523,0.002678,0.000431,0.036669
5780000,0.0324,0.013523,0.002678,0.000431,0.038079
5781000,0.0324,0.013523,0.002678,0.000431,0.041252
5782000,0.0324,0.013523,0.002678,0.000431,0.039254
5783000,0.0324,0.013523,0.002678,0.000431,0.036199
5784000,0.0324,0.013523,0.002678,0.000431,0.038549
5785000,0.0324,0.013523,0.002678,0.000431,0.040430
5786000,0.0324,0.013523,0.002678,0.000431,0.038784
5787000,0.0324,0.013523,0.002678,0.000431,0.037139
5788000,0.0324,0.013523,0.002678,0.000431,0.042193
5789000,0.0324,0.013523,0.002678,0.000431,0.038079
5790000,0.0324,0.013523,0.002678,0.000431,0.038197
5791000,0.0324,0.013523,0.002678,0.000431,0.036904
5792000,0.0324,0.013523,0.002678,0.000431,0.036551
5793000,0.0324,0.013523,0.002678,0.000431,0.038314
5794000,0.0324,0.013523,0.002678,0.000431,0.037962
5795000,0.0324,0.013523,0.002678,0.000431,0.036786
5796000,0.0324,0.013523,0.002678,0.000431,0.038902
5797000,0.0324,0.013523,0.002678,0.000431,0.039254
5798000,0.0324,0.013523,0.002678,0.000431,0.037727
5799000,0.0324,0.013523,0.002678,0.000431,0.037727
5800000,0.0324,0.013523,0.002678,0.000431,0.039254
5801000,0.0324,0.013523,0.002678,0.000431,0.038314
5802000,0.0324,0.013523,0.002678,0.000431,0.037374
5803000,0.0324,0.013523,0.002678,0.000431,0.038784
5804000,0.0324,0.013523,0.002678,0.000431,0.038784
5805000,0.0324,0.013523,0.002678,0.000431,0.038314
5806000,0.0324,0.013523,0.002678,0.000431,0.039372
5807000,0.0324,0.013523,0.002678,0.000431,0.040547
5808000,0.0324,0.013523,0.002678,0.000431,0.038314
5809000,0.0324,0.013523,0.002678,0.000431,0.038314
5810000,0.0324,0.013523,0.002678,0.000431,0.037021
5811000,0.0324,0.013523,0.002678,0.000431,0.041958
5812000,0.0324,0.013523,0.002678,0.000431,0.038902
5813000,0.0324,0.013523,0.002678,0.000431,0.036669
5814000,0.0324,0.013523,0.002678,0.000431,0.037609
5815000,0.0324,0.013523,0.002678,0.000431,0.038549
5816000,0.0324,0.013523,0.002678,0.000431,0.038314
5817000,0.0324,0.013523,0.002678,0.000431,0.036551
5818000,0.0324,0.013523,0.002678,0.000431,0.038432
5819000,0.0324,0.013523,0.002678,0.000431,0.038197
5820000,0.0324,0.013523,0.002678,0.000431,0.037139
5821000,0.0324,0.013523,0.002678,0.000431,0.037139
5822000,0.0324,0.013523,0.002678,0.000431,0.033848
5823000,0.0324,0.013523,0.002678,0.000431,0.036786
5824000,0.0324,0.013523,0.002678,0.000431,0.036434
5825000,0.0324,0.013523,0.002678,0.000431,0.036786
5826000,0.0324,0.013523,0.002678,0.000431,0.035846
5827000,0.0324,0.013523,0.002678,0.000431,0.037844
5828000,0.0324,0.013523,0.002678,0.000431,0.037727
5829000,0.0324,0.013523,0.002678,0.000431,0.035611
5830000,0.0324,0.013523,0.002678,0.000431,0.033613
5831000,0.0324,0.013523,0.002678,0.000431,0.038902
5832000,0.0324,0.013523,0.002678,0.000431,0.037256
5833000,0.0324,0.013523,0.002678,0.000431,0.037139
5834000,0.0324,0.013523,0.002678,0.000431,0.035964
5835000,0.0324,0.013523,0.002678,0.000431,0.037256
5836000,0.0324,0.013523,0.002678,0.000431,0.039254
5837000,0.0324,0.013523,0.002678,0.000431,0.037844
5838000,0.0324,0.013523,0.002678,0.000431,0.035258
5839000,0.0324,0.013523,0.002678,0.000431,0.036551
5840000,0.0324,0.013523,0.002678,0.000431,0.036316
5841000,0.0324,0.013523,0.002678,0.000431,0.037256
5842000,0.0324,0.013523,0.002678,0.000431,0.036316
5843000,0.0324,0.013523,0.002678,0.000431,0.035611
5844000,0.0324,0.013523,0.002678,0.000431,0.035964
5845000,0.0324,0.013523,0.002678,0.000431,0.037139
5846000,0.0324,0.013523,0.002678,0.000431,0.036551
5847000,0.0324,0.013523,0.002678,0.000431,0.036316
5848000,0.0324,0.013523,0.002678,0.000431,0.037844
5849000,0.0324,0.013523,0.002678,0.000431,0.035141
5850000,0.0324,0.013523,0.002678,0.000431,0.039254
5851000,0.0324,0.013523,0.002678,0.000431,0.035846
5852000,0.0324,0.013523,0.002678,0.000431,0.035023
5853000,0.0324,0.013523,0.002678,0.000431,0.036551
5854000,0.0324,0.013523,0.002678,0.000431,0.039725
5855000,0.0324,0.013523,0.002678,0.000431,0.036199
5856000,0.0324,0.013523,0.002678,0.000431,0.037491
5857000,0.0324,0.013523,0.002678,0.000431,0.037256
5858000,0.0324,0.013523,0.002678,0.000431,0.035729
5859000,0.0324,0.013523,0.002678,0.000431,0.034788
5860000,0.0324,0.013523,0.002678,0.000431,0.034083
5861000,0.0324,0.013523,0.002678,0.000431,0.037374
5862000,0.0324,0.013523,0.002678,0.000431,0.037962
5863000,0.0324,0.013523,0.002678,0.000431,0.037021
5864000,0.0324,0.013523,0.002678,0.000431,0.034671
5865000,0.0324,0.013523,0.002678,0.000431,0.038549
5866000,0.0324,0.013523,0.002678,0.000431,0.039019
5867000,0.0324,0.013523,0.002678,0.000431,0.033966
5868000,0.0324,0.013523,0.002678,0.000431,0.036904
5869000,0.0324,0.013523,0.002678,0.000431,0.034083
5870000,0.0324,0.013523,0.002678,0.000431,0.036081
5871000,0.0324,0.013523,0.002678,0.000431,0.035023
5872000,0.0324,0.013523,0.002678,0.000431,0.034083
5873000,0.0324,0.013523,0.002678,0.000431,0.034553
5874000,0.0324,0.013523,0.002678,0.000431,0.035258
5875000,0.0324,0.013523,0.002678,0.000431,0.035964
5876000,0.0324,0.013523,0.002678,0.000431,0.032790
5877000,0.0324,0.013523,0.002678,0.000431,0.036081
5878000,0.0324,0.013523,0.002678,0.000431,0.035846
5879000,0.0324,0.013523,0.002678,0.000431,0.034201
5880000,0.0324,0.013523,0.002678,0.000431,0.035376
5881000,0.0324,0.013523,0.002678,0.000431,0.037139
5882000,0.0324,0.013523,0.002678,0.000431,0.035023
5883000,0.0324,0.013523,0.002678,0.000431,0.033378
5884000,0.0324,0.013523,0.002678,0.000431,0.035611
5885000,0.0324,0.013523,0.002678,0.000431,0.033848
5886000,0.0324,0.013523,0.002678,0.000431,0.036669
5887000,0.0324,0.013523,0.002678,0.000431,0.034788
5888000,0.0324,0.013523,0.002678,0.000431,0.033025
5889000,0.0324,0.013523,0.002678,0.000431,0.036434
5890000,0.0324,0.013523,0.002678,0.000431,0.033025
5891000,0.0324,0.013523,0.002678,0.000431,0.034553
5892000,0.0324,0.013523,0.002678,0.000431,0.034788
5893000,0.0324,0.013523,0.002678,0.000431,0.036199
5894000,0.0324,0.013523,0.002678,0.000431,0.036669
5895000,0.0324,0.013523,0.002678,0.000431,0.033848
5896000,0.0324,0.013523,0.002678,0.000431,0.033143
5897000,0.0324,0.013523,0.002678,0.000431,0.035964
5898000,0.0324,0.013523,0.002678,0.000431,0.036434
5899000,0.0324,0.013523,0.002678,0.000431,0.035964
5900000,0.0324,0.013523,0.002678,0.000431,0.034671
5901000,0.0324,0.013523,0.002678,0.000431,0.035494
5902000,0.0324,0.013523,0.002678,0.000431,0.032908
5903000,0.0324,0.013523,0.002678,0.000431,0.036904
5904000,0.0324,0.013523,0.002678,0.000431,0.036551
5905000,0.0324,0.013523,0.002678,0.000431,0.035258
5906000,0.0324,0.013523,0.002678,0.000431,0.033613
5907000,0.0324,0.013523,0.002678,0.000431,0.035964
5908000,0.0324,0.013523,0.002678,0.000431,0.036081
5909000,0.0324,0.013523,0.002678,0.000431,0.033613
5910000,0.0324,0.013523,0.002678,0.000431,0.033378
5911000,0.0324,0.013523,0.002678,0.000431,0.034553
5912000,0.0324,0.013523,0.002678,0.000431,0.035729
5913000,0.0324,0.013523,0.002678,0.000431,0.037609
5914000,0.0324,0.013523,0.002678,0.000431,0.033025
5915000,0.0324,0.013523,0.002678,0.000431,0.035258
5916000,0.0324,0.013523,0.002678,0.000431,0.034436
5917000,0.0324,0.013523,0.002678,0.000431,0.036199
5918000,0.0324,0.013523,0.002678,0.000431,0.032673
5919000,0.0324,0.013523,0.002678,0.000431,0.036904
5920000,0.0324,0.013523,0.002678,0.000431,0.036316
5921000,0.0324,0.013523,0.002678,0.000431,0.032908
5922000,0.0324,0.013523,0.002678,0.000431,0.035846
5923000,0.0324,0.013523,0.002678,0.000431,0.035258
5924000,0.0324,0.013523,0.002678,0.000431,0.034553
5925000,0.0324,0.013523,0.002678,0.000431,0.031498
5926000,0.0324,0.013523,0.002678,0.000431,0.036434
5927000,0.0324,0.013523,0.002678,0.000431,0.033378
5928000,0.0324,0.013523,0.002678,0.000431,0.033496
5929000,0.0324,0.013523,0.002678,0.000431,0.037491
5930000,0.0324,0.013523,0.002678,0.000431,0.034553
5931000,0.0324,0.013523,0.002678,0.000431,0.035611
5932000,0.0324,0.013523,0.002678,0.000431,0.033848
5933000,0.0324,0.013523,0.002678,0.000431,0.036199
5934000,0.0324,0.013523,0.002678,0.000431,0.033143
5935000,0.0324,0.013523,0.002678,0.000431,0.035023
5936000,0.0324,0.013523,0.002678,0.000431,0.034318
5937000,0.0324,0.013523,0.002678,0.000431,0.032908
5938000,0.0324,0.013523,0.002678,0.000431,0.036081
5939000,0.0324,0.013523,0.002678,0.000431,0.034671
5940000,0.0324,0.013523,0.002678,0.000431,0.034788
5941000,0.0324,0.013523,0.002678,0.000431,0.035258
5942000,0.0324,0.013523,0.002678,0.000431,0.033613
5943000,0.0324,0.013523,0.002678,0.000431,0.036904
5944000,0.0324,0.013523,0.002678,0.000431,0.034318
5945000,0.0324,0.013523,0.002678,0.000431,0.035611
5946000,0.0324,0.013523,0.002678,0.000431,0.033260
5947000,0.0324,0.013523,0.002678,0.000431,0.037491
5948000,0.0324,0.013523,0.002678,0.000431,0.034436
5949000,0.0324,0.013523,0.002678,0.000431,0.033613
5950000,0.0324,0.013523,0.002678,0.000431,0.034318
5951000,0.0324,0.013523,0.002678,0.000431,0.034671
5952000,0.0324,0.013523,0.002678,0.000431,0.035023
5953000,0.0324,0.013523,0.002678,0.000431,0.034906
5954000,0.0324,0.013523,0.002678,0.000431,0.037727
5955000,0.0324,0.013523,0.002678,0.000431,0.033966
5956000,0.0324,0.013523,0.002678,0.000431,0.033143
5957000,0.0324,0.013523,0.002678,0.000431,0.036434
5958000,0.0324,0.013523,0.002678,0.000431,0.037139
5959000,0.0324,0.013523,0.002678,0.000431,0.032790
5960000,0.0324,0.013523,0.002678,0.000431,0.035023
5961000,0.0324,0.013523,0.002678,0.000431,0.036669
5962000,0.0324,0.013523,0.002678,0.000431,0.036199
5963000,0.0324,0.013523,0.002678,0.000431,0.034436
5964000,0.0324,0.013523,0.002678,0.000431,0.035023
5965000,0.0324,0.013523,0.002678,0.000431,0.037491
5966000,0.0324,0.013523,0.002678,0.000431,0.034083
5967000,0.0324,0.013523,0.002678,0.000431,0.033025
5968000,0.0324,0.013523,0.002678,0.000431,0.034906
5969000,0.0324,0.013523,0.002678,0.000431,0.037727
5970000,0.0324,0.013523,0.002678,0.000431,0.034318
5971000,0.0324,0.013523,0.002678,0.000431,0.034553
5972000,0.0324,0.013523,0.002678,0.000431,0.035141
5973000,0.0324,0.013523,0.002678,0.000431,0.032320
5974000,0.0324,0.013523,0.002678,0.000431,0.035376
5975000,0.0324,0.013523,0.002678,0.000431,0.036551
5976000,0.0324,0.013523,0.002678,0.000431,0.032908
5977000,0.0324,0.013523,0.002678,0.000431,0.033378
5978000,0.0324,0.013523,0.002678,0.000431,0.037139
5979000,0.0324,0.013523,0.002678,0.000431,0.034201
5980000,0.0324,0.013523,0.002678,0.000431,0.033025
5981000,0.0324,0.013523,0.002678,0.000431,0.036081
5982000,0.0324,0.013523,0.002678,0.000431,0.033966
5983000,0.0324,0.013523,0.002678,0.000431,0.033496
5984000,0.0324,0.013523,0.002678,0.000431,0.035141
5985000,0.0324,0.013523,0.002678,0.000431,0.035494
5986000,0.0324,0.013523,0.002678,0.000431,0.032790
5987000,0.0324,0.013523,0.002678,0.000431,0.036199
5988000,0.0324,0.013523,0.002678,0.000431,0.032320
5989000,0.0324,0.013523,0.002678,0.000431,0.033966
5990000,0.0324,0.013523,0.002678,0.000431,0.035258
5991000,0.0324,0.013523,0.002678,0.000431,0.032203
5992000,0.0324,0.013523,0.002678,0.000431,0.037844
5993000,0.0324,0.013523,0.002678,0.000431,0.034788
5994000,0.0324,0.013523,0.002678,0.000431,0.032673
5995000,0.0324,0.013523,0.002678,0.000431,0.032908
5996000,0.0324,0.013523,0.002678,0.000431,0.039254
5997000,0.0324,0.013523,0.002678,0.000431,0.033260
5998000,0.0324,0.013523,0.002678,0.000431,0.034318
5999000,0.0324,0.013523,0.002678,0.000431,0.034553
