Cycle,Area(mm^2),PeakDynamic(W),SubthresholdLeakage(W),GateLeakage(W),RunTimeDynamic(W)
10000000,0.0324,0.013523,0.002678,0.000431,0.012105
10001000,0.0324,0.013523,0.002678,0.000431,0.013046
10002000,0.0324,0.013523,0.002678,0.000431,0.012105
10003000,0.0324,0.013523,0.002678,0.000431,0.012693
10004000,0.0324,0.013523,0.002678,0.000431,0.012693
10005000,0.0324,0.013523,0.002678,0.000431,0.011635
10006000,0.0324,0.013523,0.002678,0.000431,0.012105
10007000,0.0324,0.013523,0.002678,0.000431,0.011635
10008000,0.0324,0.013523,0.002678,0.000431,0.013046
10009000,0.0324,0.013523,0.002678,0.000431,0.011635
10010000,0.0324,0.013523,0.002678,0.000431,0.011400
10011000,0.0324,0.013523,0.002678,0.000431,0.012458
10012000,0.0324,0.013523,0.002678,0.000431,0.011165
10013000,0.0324,0.013523,0.002678,0.000431,0.010695
10014000,0.0324,0.013523,0.002678,0.000431,0.011635
10015000,0.0324,0.013523,0.002678,0.000431,0.012340
10016000,0.0324,0.013523,0.002678,0.000431,0.011635
10017000,0.0324,0.013523,0.002678,0.000431,0.012223
10018000,0.0324,0.013523,0.002678,0.000431,0.012223
10019000,0.0324,0.013523,0.002678,0.000431,0.012223
10020000,0.0324,0.013523,0.002678,0.000431,0.012928
10021000,0.0324,0.013523,0.002678,0.000431,0.011988
10022000,0.0324,0.013523,0.002678,0.000431,0.011753
10023000,0.0324,0.013523,0.002678,0.000431,0.012811
10024000,0.0324,0.013523,0.002678,0.000431,0.012105
10025000,0.0324,0.013523,0.002678,0.000431,0.011048
10026000,0.0324,0.013523,0.002678,0.000431,0.011988
10027000,0.0324,0.013523,0.002678,0.000431,0.013633
10028000,0.0324,0.013523,0.002678,0.000431,0.011635
10029000,0.0324,0.013523,0.002678,0.000431,0.011988
10030000,0.0324,0.013523,0.002678,0.000431,0.011635
10031000,0.0324,0.013523,0.002678,0.000431,0.011753
10032000,0.0324,0.013523,0.002678,0.000431,0.011870
10033000,0.0324,0.013523,0.002678,0.000431,0.012223
10034000,0.0324,0.013523,0.002678,0.000431,0.012223
10035000,0.0324,0.013523,0.002678,0.000431,0.012576
10036000,0.0324,0.013523,0.002678,0.000431,0.012576
10037000,0.0324,0.013523,0.002678,0.000431,0.012576
10038000,0.0324,0.013523,0.002678,0.000431,0.011635
10039000,0.0324,0.013523,0.002678,0.000431,0.012458
10040000,0.0324,0.013523,0.002678,0.000431,0.011988
10041000,0.0324,0.013523,0.002678,0.000431,0.012458
10042000,0.0324,0.013523,0.002678,0.000431,0.011165
10043000,0.0324,0.013523,0.002678,0.000431,0.012105
10044000,0.0324,0.013523,0.002678,0.000431,0.012576
10045000,0.0324,0.013523,0.002678,0.000431,0.013046
10046000,0.0324,0.013523,0.002678,0.000431,0.011753
10047000,0.0324,0.013523,0.002678,0.000431,0.012811
10048000,0.0324,0.013523,0.002678,0.000431,0.012105
10049000,0.0324,0.013523,0.002678,0.000431,0.012928
10050000,0.0324,0.013523,0.002678,0.000431,0.011400
10051000,0.0324,0.013523,0.002678,0.000431,0.011870
10052000,0.0324,0.013523,0.002678,0.000431,0.012576
10053000,0.0324,0.013523,0.002678,0.000431,0.011635
10054000,0.0324,0.013523,0.002678,0.000431,0.012693
10055000,0.0324,0.013523,0.002678,0.000431,0.011988
10056000,0.0324,0.013523,0.002678,0.000431,0.012576
10057000,0.0324,0.013523,0.002678,0.000431,0.011400
10058000,0.0324,0.013523,0.002678,0.000431,0.011635
10059000,0.0324,0.013523,0.002678,0.000431,0.013281
10060000,0.0324,0.013523,0.002678,0.000431,0.011048
10061000,0.0324,0.013523,0.002678,0.000431,0.012693
10062000,0.0324,0.013523,0.002678,0.000431,0.011753
10063000,0.0324,0.013523,0.002678,0.000431,0.013281
10064000,0.0324,0.013523,0.002678,0.000431,0.012576
10065000,0.0324,0.013523,0.002678,0.000431,0.011518
10066000,0.0324,0.013523,0.002678,0.000431,0.011400
10067000,0.0324,0.013523,0.002678,0.000431,0.011870
10068000,0.0324,0.013523,0.002678,0.000431,0.012928
10069000,0.0324,0.013523,0.002678,0.000431,0.011988
10070000,0.0324,0.013523,0.002678,0.000431,0.011870
10071000,0.0324,0.013523,0.002678,0.000431,0.011753
10072000,0.0324,0.013523,0.002678,0.000431,0.011635
10073000,0.0324,0.013523,0.002678,0.000431,0.011753
10074000,0.0324,0.013523,0.002678,0.000431,0.012340
10075000,0.0324,0.013523,0.002678,0.000431,0.011518
10076000,0.0324,0.013523,0.002678,0.000431,0.012223
10077000,0.0324,0.013523,0.002678,0.000431,0.011048
10078000,0.0324,0.013523,0.002678,0.000431,0.012576
10079000,0.0324,0.013523,0.002678,0.000431,0.011870
10080000,0.0324,0.013523,0.002678,0.000431,0.012458
10081000,0.0324,0.013523,0.002678,0.000431,0.011988
10082000,0.0324,0.013523,0.002678,0.000431,0.012458
10083000,0.0324,0.013523,0.002678,0.000431,0.012223
10084000,0.0324,0.013523,0.002678,0.000431,0.011400
10085000,0.0324,0.013523,0.002678,0.000431,0.012223
10086000,0.0324,0.013523,0.002678,0.000431,0.012105
10087000,0.0324,0.013523,0.002678,0.000431,0.012576
10088000,0.0324,0.013523,0.002678,0.000431,0.011753
10089000,0.0324,0.013523,0.002678,0.000431,0.011400
10090000,0.0324,0.013523,0.002678,0.000431,0.012105
10091000,0.0324,0.013523,0.002678,0.000431,0.011518
10092000,0.0324,0.013523,0.002678,0.000431,0.010578
10093000,0.0324,0.013523,0.002678,0.000431,0.011870
10094000,0.0324,0.013523,0.002678,0.000431,0.011988
10095000,0.0324,0.013523,0.002678,0.000431,0.012693
10096000,0.0324,0.013523,0.002678,0.000431,0.011400
10097000,0.0324,0.013523,0.002678,0.000431,0.012811
10098000,0.0324,0.013523,0.002678,0.000431,0.011283
10099000,0.0324,0.013523,0.002678,0.000431,0.012340
10100000,0.0324,0.013523,0.002678,0.000431,0.012693
10101000,0.0324,0.013523,0.002678,0.000431,0.011518
10102000,0.0324,0.013523,0.002678,0.000431,0.012105
10103000,0.0324,0.013523,0.002678,0.000431,0.010342
10104000,0.0324,0.013523,0.002678,0.000431,0.013281
10105000,0.0324,0.013523,0.002678,0.000431,0.011048
10106000,0.0324,0.013523,0.002678,0.000431,0.012928
10107000,0.0324,0.013523,0.002678,0.000431,0.012576
10108000,0.0324,0.013523,0.002678,0.000431,0.012811
10109000,0.0324,0.013523,0.002678,0.000431,0.011635
10110000,0.0324,0.013523,0.002678,0.000431,0.011518
10111000,0.0324,0.013523,0.002678,0.000431,0.011518
10112000,0.0324,0.013523,0.002678,0.000431,0.013751
10113000,0.0324,0.013523,0.002678,0.000431,0.011870
10114000,0.0324,0.013523,0.002678,0.000431,0.011988
10115000,0.0324,0.013523,0.002678,0.000431,0.012458
10116000,0.0324,0.013523,0.002678,0.000431,0.011753
10117000,0.0324,0.013523,0.002678,0.000431,0.011988
10118000,0.0324,0.013523,0.002678,0.000431,0.011518
10119000,0.0324,0.013523,0.002678,0.000431,0.012576
10120000,0.0324,0.013523,0.002678,0.000431,0.011988
10121000,0.0324,0.013523,0.002678,0.000431,0.012105
10122000,0.0324,0.013523,0.002678,0.000431,0.011048
10123000,0.0324,0.013523,0.002678,0.000431,0.010695
10124000,0.0324,0.013523,0.002678,0.000431,0.011988
10125000,0.0324,0.013523,0.002678,0.000431,0.012928
10126000,0.0324,0.013523,0.002678,0.000431,0.011753
10127000,0.0324,0.013523,0.002678,0.000431,0.011870
10128000,0.0324,0.013523,0.002678,0.000431,0.011283
10129000,0.0324,0.013523,0.002678,0.000431,0.012458
10130000,0.0324,0.013523,0.002678,0.000431,0.011165
10131000,0.0324,0.013523,0.002678,0.000431,0.011518
10132000,0.0324,0.013523,0.002678,0.000431,0.012576
10133000,0.0324,0.013523,0.002678,0.000431,0.012340
10134000,0.0324,0.013523,0.002678,0.000431,0.012576
10135000,0.0324,0.013523,0.002678,0.000431,0.011165
10136000,0.0324,0.013523,0.002678,0.000431,0.010578
10137000,0.0324,0.013523,0.002678,0.000431,0.011870
10138000,0.0324,0.013523,0.002678,0.000431,0.012458
10139000,0.0324,0.013523,0.002678,0.000431,0.012223
10140000,0.0324,0.013523,0.002678,0.000431,0.011988
10141000,0.0324,0.013523,0.002678,0.000431,0.012340
10142000,0.0324,0.013523,0.002678,0.000431,0.013398
10143000,0.0324,0.013523,0.002678,0.000431,0.011870
10144000,0.0324,0.013523,0.002678,0.000431,0.013046
10145000,0.0324,0.013523,0.002678,0.000431,0.011400
10146000,0.0324,0.013523,0.002678,0.000431,0.011635
10147000,0.0324,0.013523,0.002678,0.000431,0.012105
10148000,0.0324,0.013523,0.002678,0.000431,0.011400
10149000,0.0324,0.013523,0.002678,0.000431,0.012105
10150000,0.0324,0.013523,0.002678,0.000431,0.011988
10151000,0.0324,0.013523,0.002678,0.000431,0.011518
10152000,0.0324,0.013523,0.002678,0.000431,0.011165
10153000,0.0324,0.013523,0.002678,0.000431,0.013516
10154000,0.0324,0.013523,0.002678,0.000431,0.011400
10155000,0.0324,0.013523,0.002678,0.000431,0.011988
10156000,0.0324,0.013523,0.002678,0.000431,0.012811
10157000,0.0324,0.013523,0.002678,0.000431,0.011870
10158000,0.0324,0.013523,0.002678,0.000431,0.011870
10159000,0.0324,0.013523,0.002678,0.000431,0.011400
10160000,0.0324,0.013523,0.002678,0.000431,0.012340
10161000,0.0324,0.013523,0.002678,0.000431,0.011635
10162000,0.0324,0.013523,0.002678,0.000431,0.011753
10163000,0.0324,0.013523,0.002678,0.000431,0.012340
10164000,0.0324,0.013523,0.002678,0.000431,0.010813
10165000,0.0324,0.013523,0.002678,0.000431,0.011870
10166000,0.0324,0.013523,0.002678,0.000431,0.010578
10167000,0.0324,0.013523,0.002678,0.000431,0.011518
10168000,0.0324,0.013523,0.002678,0.000431,0.012811
10169000,0.0324,0.013523,0.002678,0.000431,0.011283
10170000,0.0324,0.013523,0.002678,0.000431,0.013046
10171000,0.0324,0.013523,0.002678,0.000431,0.011283
10172000,0.0324,0.013523,0.002678,0.000431,0.011518
10173000,0.0324,0.013523,0.002678,0.000431,0.012105
10174000,0.0324,0.013523,0.002678,0.000431,0.012105
10175000,0.0324,0.013523,0.002678,0.000431,0.012105
10176000,0.0324,0.013523,0.002678,0.000431,0.011988
10177000,0.0324,0.013523,0.002678,0.000431,0.011870
10178000,0.0324,0.013523,0.002678,0.000431,0.013633
10179000,0.0324,0.013523,0.002678,0.000431,0.012105
10180000,0.0324,0.013523,0.002678,0.000431,0.011518
10181000,0.0324,0.013523,0.002678,0.000431,0.011165
10182000,0.0324,0.013523,0.002678,0.000431,0.012105
10183000,0.0324,0.013523,0.002678,0.000431,0.011283
10184000,0.0324,0.013523,0.002678,0.000431,0.011283
10185000,0.0324,0.013523,0.002678,0.000431,0.012340
10186000,0.0324,0.013523,0.002678,0.000431,0.012223
10187000,0.0324,0.013523,0.002678,0.000431,0.011870
10188000,0.0324,0.013523,0.002678,0.000431,0.011283
10189000,0.0324,0.013523,0.002678,0.000431,0.012811
10190000,0.0324,0.013523,0.002678,0.000431,0.011400
10191000,0.0324,0.013523,0.002678,0.000431,0.011400
10192000,0.0324,0.013523,0.002678,0.000431,0.011518
10193000,0.0324,0.013523,0.002678,0.000431,0.012693
10194000,0.0324,0.013523,0.002678,0.000431,0.012928
10195000,0.0324,0.013523,0.002678,0.000431,0.011753
10196000,0.0324,0.013523,0.002678,0.000431,0.011518
10197000,0.0324,0.013523,0.002678,0.000431,0.012340
10198000,0.0324,0.013523,0.002678,0.000431,0.012340
10199000,0.0324,0.013523,0.002678,0.000431,0.011283
10200000,0.0324,0.013523,0.002678,0.000431,0.012340
10201000,0.0324,0.013523,0.002678,0.000431,0.012811
10202000,0.0324,0.013523,0.002678,0.000431,0.012458
10203000,0.0324,0.013523,0.002678,0.000431,0.010578
10204000,0.0324,0.013523,0.002678,0.000431,0.012105
10205000,0.0324,0.013523,0.002678,0.000431,0.012811
10206000,0.0324,0.013523,0.002678,0.000431,0.012576
10207000,0.0324,0.013523,0.002678,0.000431,0.011518
10208000,0.0324,0.013523,0.002678,0.000431,0.013281
10209000,0.0324,0.013523,0.002678,0.000431,0.011518
10210000,0.0324,0.013523,0.002678,0.000431,0.012223
10211000,0.0324,0.013523,0.002678,0.000431,0.013398
10212000,0.0324,0.013523,0.002678,0.000431,0.013868
10213000,0.0324,0.013523,0.002678,0.000431,0.011518
10214000,0.0324,0.013523,0.002678,0.000431,0.012928
10215000,0.0324,0.013523,0.002678,0.000431,0.012223
10216000,0.0324,0.013523,0.002678,0.000431,0.011048
10217000,0.0324,0.013523,0.002678,0.000431,0.012223
10218000,0.0324,0.013523,0.002678,0.000431,0.011753
10219000,0.0324,0.013523,0.002678,0.000431,0.011988
10220000,0.0324,0.013523,0.002678,0.000431,0.011988
10221000,0.0324,0.013523,0.002678,0.000431,0.011635
10222000,0.0324,0.013523,0.002678,0.000431,0.011870
10223000,0.0324,0.013523,0.002678,0.000431,0.013281
10224000,0.0324,0.013523,0.002678,0.000431,0.011048
10225000,0.0324,0.013523,0.002678,0.000431,0.012693
10226000,0.0324,0.013523,0.002678,0.000431,0.011400
10227000,0.0324,0.013523,0.002678,0.000431,0.012458
10228000,0.0324,0.013523,0.002678,0.000431,0.012105
10229000,0.0324,0.013523,0.002678,0.000431,0.012105
10230000,0.0324,0.013523,0.002678,0.000431,0.011400
10231000,0.0324,0.013523,0.002678,0.000431,0.011635
10232000,0.0324,0.013523,0.002678,0.000431,0.012928
10233000,0.0324,0.013523,0.002678,0.000431,0.011283
10234000,0.0324,0.013523,0.002678,0.000431,0.012340
10235000,0.0324,0.013523,0.002678,0.000431,0.011400
10236000,0.0324,0.013523,0.002678,0.000431,0.011518
10237000,0.0324,0.013523,0.002678,0.000431,0.011283
10238000,0.0324,0.013523,0.002678,0.000431,0.011988
10239000,0.0324,0.013523,0.002678,0.000431,0.011400
10240000,0.0324,0.013523,0.002678,0.000431,0.011283
10241000,0.0324,0.013523,0.002678,0.000431,0.012223
10242000,0.0324,0.013523,0.002678,0.000431,0.012105
10243000,0.0324,0.013523,0.002678,0.000431,0.012458
10244000,0.0324,0.013523,0.002678,0.000431,0.012693
10245000,0.0324,0.013523,0.002678,0.000431,0.012458
10246000,0.0324,0.013523,0.002678,0.000431,0.012576
10247000,0.0324,0.013523,0.002678,0.000431,0.012340
10248000,0.0324,0.013523,0.002678,0.000431,0.011518
10249000,0.0324,0.013523,0.002678,0.000431,0.012811
10250000,0.0324,0.013523,0.002678,0.000431,0.011988
10251000,0.0324,0.013523,0.002678,0.000431,0.013163
10252000,0.0324,0.013523,0.002678,0.000431,0.011753
10253000,0.0324,0.013523,0.002678,0.000431,0.011753
10254000,0.0324,0.013523,0.002678,0.000431,0.012458
10255000,0.0324,0.013523,0.002678,0.000431,0.012223
10256000,0.0324,0.013523,0.002678,0.000431,0.011400
10257000,0.0324,0.013523,0.002678,0.000431,0.012693
10258000,0.0324,0.013523,0.002678,0.000431,0.011400
10259000,0.0324,0.013523,0.002678,0.000431,0.011048
10260000,0.0324,0.013523,0.002678,0.000431,0.012928
10261000,0.0324,0.013523,0.002678,0.000431,0.012340
10262000,0.0324,0.013523,0.002678,0.000431,0.011988
10263000,0.0324,0.013523,0.002678,0.000431,0.011400
10264000,0.0324,0.013523,0.002678,0.000431,0.012576
10265000,0.0324,0.013523,0.002678,0.000431,0.012223
10266000,0.0324,0.013523,0.002678,0.000431,0.012105
10267000,0.0324,0.013523,0.002678,0.000431,0.011870
10268000,0.0324,0.013523,0.002678,0.000431,0.013281
10269000,0.0324,0.013523,0.002678,0.000431,0.011988
10270000,0.0324,0.013523,0.002678,0.000431,0.011165
10271000,0.0324,0.013523,0.002678,0.000431,0.012458
10272000,0.0324,0.013523,0.002678,0.000431,0.011753
10273000,0.0324,0.013523,0.002678,0.000431,0.011988
10274000,0.0324,0.013523,0.002678,0.000431,0.011283
10275000,0.0324,0.013523,0.002678,0.000431,0.013751
10276000,0.0324,0.013523,0.002678,0.000431,0.012576
10277000,0.0324,0.013523,0.002678,0.000431,0.011400
10278000,0.0324,0.013523,0.002678,0.000431,0.012105
10279000,0.0324,0.013523,0.002678,0.000431,0.011988
10280000,0.0324,0.013523,0.002678,0.000431,0.011753
10281000,0.0324,0.013523,0.002678,0.000431,0.011283
10282000,0.0324,0.013523,0.002678,0.000431,0.011165
10283000,0.0324,0.013523,0.002678,0.000431,0.011283
10284000,0.0324,0.013523,0.002678,0.000431,0.013046
10285000,0.0324,0.013523,0.002678,0.000431,0.010578
10286000,0.0324,0.013523,0.002678,0.000431,0.012223
10287000,0.0324,0.013523,0.002678,0.000431,0.012693
10288000,0.0324,0.013523,0.002678,0.000431,0.012340
10289000,0.0324,0.013523,0.002678,0.000431,0.011518
10290000,0.0324,0.013523,0.002678,0.000431,0.013163
10291000,0.0324,0.013523,0.002678,0.000431,0.010813
10292000,0.0324,0.013523,0.002678,0.000431,0.011635
10293000,0.0324,0.013523,0.002678,0.000431,0.012458
10294000,0.0324,0.013523,0.002678,0.000431,0.012693
10295000,0.0324,0.013523,0.002678,0.000431,0.010578
10296000,0.0324,0.013523,0.002678,0.000431,0.011870
10297000,0.0324,0.013523,0.002678,0.000431,0.012340
10298000,0.0324,0.013523,0.002678,0.000431,0.012105
10299000,0.0324,0.013523,0.002678,0.000431,0.013046
10300000,0.0324,0.013523,0.002678,0.000431,0.011753
10301000,0.0324,0.013523,0.002678,0.000431,0.013163
10302000,0.0324,0.013523,0.002678,0.000431,0.011753
10303000,0.0324,0.013523,0.002678,0.000431,0.012223
10304000,0.0324,0.013523,0.002678,0.000431,0.012223
10305000,0.0324,0.013523,0.002678,0.000431,0.013281
10306000,0.0324,0.013523,0.002678,0.000431,0.011400
10307000,0.0324,0.013523,0.002678,0.000431,0.012105
10308000,0.0324,0.013523,0.002678,0.000431,0.011753
10309000,0.0324,0.013523,0.002678,0.000431,0.012340
10310000,0.0324,0.013523,0.002678,0.000431,0.011518
10311000,0.0324,0.013523,0.002678,0.000431,0.011753
10312000,0.0324,0.013523,0.002678,0.000431,0.011753
10313000,0.0324,0.013523,0.002678,0.000431,0.011518
10314000,0.0324,0.013523,0.002678,0.000431,0.011400
10315000,0.0324,0.013523,0.002678,0.000431,0.010225
10316000,0.0324,0.013523,0.002678,0.000431,0.012223
10317000,0.0324,0.013523,0.002678,0.000431,0.011048
10318000,0.0324,0.013523,0.002678,0.000431,0.011518
10319000,0.0324,0.013523,0.002678,0.000431,0.012693
10320000,0.0324,0.013523,0.002678,0.000431,0.011165
10321000,0.0324,0.013523,0.002678,0.000431,0.011283
10322000,0.0324,0.013523,0.002678,0.000431,0.012576
10323000,0.0324,0.013523,0.002678,0.000431,0.011283
10324000,0.0324,0.013523,0.002678,0.000431,0.011870
10325000,0.0324,0.013523,0.002678,0.000431,0.011283
10326000,0.0324,0.013523,0.002678,0.000431,0.010342
10327000,0.0324,0.013523,0.002678,0.000431,0.012458
10328000,0.0324,0.013523,0.002678,0.000431,0.011165
10329000,0.0324,0.013523,0.002678,0.000431,0.011283
10330000,0.0324,0.013523,0.002678,0.000431,0.011165
10331000,0.0324,0.013523,0.002678,0.000431,0.011283
10332000,0.0324,0.013523,0.002678,0.000431,0.011048
10333000,0.0324,0.013523,0.002678,0.000431,0.011165
10334000,0.0324,0.013523,0.002678,0.000431,0.011518
10335000,0.0324,0.013523,0.002678,0.000431,0.010930
10336000,0.0324,0.013523,0.002678,0.000431,0.011400
10337000,0.0324,0.013523,0.002678,0.000431,0.011518
10338000,0.0324,0.013523,0.002678,0.000431,0.011518
10339000,0.0324,0.013523,0.002678,0.000431,0.012693
10340000,0.0324,0.013523,0.002678,0.000431,0.011400
10341000,0.0324,0.013523,0.002678,0.000431,0.011518
10342000,0.0324,0.013523,0.002678,0.000431,0.010930
10343000,0.0324,0.013523,0.002678,0.000431,0.011518
10344000,0.0324,0.013523,0.002678,0.000431,0.012105
10345000,0.0324,0.013523,0.002678,0.000431,0.011283
10346000,0.0324,0.013523,0.002678,0.000431,0.011400
10347000,0.0324,0.013523,0.002678,0.000431,0.011283
10348000,0.0324,0.013523,0.002678,0.000431,0.011518
10349000,0.0324,0.013523,0.002678,0.000431,0.011988
10350000,0.0324,0.013523,0.002678,0.000431,0.010930
10351000,0.0324,0.013523,0.002678,0.000431,0.011753
10352000,0.0324,0.013523,0.002678,0.000431,0.010578
10353000,0.0324,0.013523,0.002678,0.000431,0.011165
10354000,0.0324,0.013523,0.002678,0.000431,0.011400
10355000,0.0324,0.013523,0.002678,0.000431,0.010813
10356000,0.0324,0.013523,0.002678,0.000431,0.010460
10357000,0.0324,0.013523,0.002678,0.000431,0.012105
10358000,0.0324,0.013523,0.002678,0.000431,0.010813
10359000,0.0324,0.013523,0.002678,0.000431,0.011048
10360000,0.0324,0.013523,0.002678,0.000431,0.010460
10361000,0.0324,0.013523,0.002678,0.000431,0.011400
10362000,0.0324,0.013523,0.002678,0.000431,0.009872
10363000,0.0324,0.013523,0.002678,0.000431,0.010930
10364000,0.0324,0.013523,0.002678,0.000431,0.013163
10365000,0.0324,0.013523,0.002678,0.000431,0.010342
10366000,0.0324,0.013523,0.002678,0.000431,0.010578
10367000,0.0324,0.013523,0.002678,0.000431,0.011635
10368000,0.0324,0.013523,0.002678,0.000431,0.011870
10369000,0.0324,0.013523,0.002678,0.000431,0.010578
10370000,0.0324,0.013523,0.002678,0.000431,0.010930
10371000,0.0324,0.013523,0.002678,0.000431,0.012340
10372000,0.0324,0.013523,0.002678,0.000431,0.010342
10373000,0.0324,0.013523,0.002678,0.000431,0.011048
10374000,0.0324,0.013523,0.002678,0.000431,0.010460
10375000,0.0324,0.013523,0.002678,0.000431,0.012223
10376000,0.0324,0.013523,0.002678,0.000431,0.011283
10377000,0.0324,0.013523,0.002678,0.000431,0.011635
10378000,0.0324,0.013523,0.002678,0.000431,0.011635
10379000,0.0324,0.013523,0.002678,0.000431,0.011400
10380000,0.0324,0.013523,0.002678,0.000431,0.011283
10381000,0.0324,0.013523,0.002678,0.000431,0.011635
10382000,0.0324,0.013523,0.002678,0.000431,0.011635
10383000,0.0324,0.013523,0.002678,0.000431,0.011518
10384000,0.0324,0.013523,0.002678,0.000431,0.011753
10385000,0.0324,0.013523,0.002678,0.000431,0.011753
10386000,0.0324,0.013523,0.002678,0.000431,0.011988
10387000,0.0324,0.013523,0.002678,0.000431,0.012458
10388000,0.0324,0.013523,0.002678,0.000431,0.011165
10389000,0.0324,0.013523,0.002678,0.000431,0.012105
10390000,0.0324,0.013523,0.002678,0.000431,0.011988
10391000,0.0324,0.013523,0.002678,0.000431,0.011635
10392000,0.0324,0.013523,0.002678,0.000431,0.010930
10393000,0.0324,0.013523,0.002678,0.000431,0.011048
10394000,0.0324,0.013523,0.002678,0.000431,0.011283
10395000,0.0324,0.013523,0.002678,0.000431,0.012928
10396000,0.0324,0.013523,0.002678,0.000431,0.010813
10397000,0.0324,0.013523,0.002678,0.000431,0.012576
10398000,0.0324,0.013523,0.002678,0.000431,0.011988
10399000,0.0324,0.013523,0.002678,0.000431,0.011400
10400000,0.0324,0.013523,0.002678,0.000431,0.010695
10401000,0.0324,0.013523,0.002678,0.000431,0.011753
10402000,0.0324,0.013523,0.002678,0.000431,0.011753
10403000,0.0324,0.013523,0.002678,0.000431,0.009990
10404000,0.0324,0.013523,0.002678,0.000431,0.011518
10405000,0.0324,0.013523,0.002678,0.000431,0.011635
10406000,0.0324,0.013523,0.002678,0.000431,0.010460
10407000,0.0324,0.013523,0.002678,0.000431,0.012223
10408000,0.0324,0.013523,0.002678,0.000431,0.011753
10409000,0.0324,0.013523,0.002678,0.000431,0.012105
10410000,0.0324,0.013523,0.002678,0.000431,0.011988
10411000,0.0324,0.013523,0.002678,0.000431,0.010695
10412000,0.0324,0.013523,0.002678,0.000431,0.011753
10413000,0.0324,0.013523,0.002678,0.000431,0.011870
10414000,0.0324,0.013523,0.002678,0.000431,0.011165
10415000,0.0324,0.013523,0.002678,0.000431,0.010813
10416000,0.0324,0.013523,0.002678,0.000431,0.011165
10417000,0.0324,0.013523,0.002678,0.000431,0.010695
10418000,0.0324,0.013523,0.002678,0.000431,0.011048
10419000,0.0324,0.013523,0.002678,0.000431,0.012576
10420000,0.0324,0.013523,0.002678,0.000431,0.011400
10421000,0.0324,0.013523,0.002678,0.000431,0.011988
10422000,0.0324,0.013523,0.002678,0.000431,0.011400
10423000,0.0324,0.013523,0.002678,0.000431,0.011283
10424000,0.0324,0.013523,0.002678,0.000431,0.011518
10425000,0.0324,0.013523,0.002678,0.000431,0.011165
10426000,0.0324,0.013523,0.002678,0.000431,0.011753
10427000,0.0324,0.013523,0.002678,0.000431,0.011870
10428000,0.0324,0.013523,0.002678,0.000431,0.011400
10429000,0.0324,0.013523,0.002678,0.000431,0.010695
10430000,0.0324,0.013523,0.002678,0.000431,0.010930
10431000,0.0324,0.013523,0.002678,0.000431,0.011400
10432000,0.0324,0.013523,0.002678,0.000431,0.009872
10433000,0.0324,0.013523,0.002678,0.000431,0.012458
10434000,0.0324,0.013523,0.002678,0.000431,0.012105
10435000,0.0324,0.013523,0.002678,0.000431,0.012223
10436000,0.0324,0.013523,0.002678,0.000431,0.011870
10437000,0.0324,0.013523,0.002678,0.000431,0.011400
10438000,0.0324,0.013523,0.002678,0.000431,0.010578
10439000,0.0324,0.013523,0.002678,0.000431,0.011165
10440000,0.0324,0.013523,0.002678,0.000431,0.011518
10441000,0.0324,0.013523,0.002678,0.000431,0.010695
10442000,0.0324,0.013523,0.002678,0.000431,0.012576
10443000,0.0324,0.013523,0.002678,0.000431,0.011988
10444000,0.0324,0.013523,0.002678,0.000431,0.012105
10445000,0.0324,0.013523,0.002678,0.000431,0.011400
10446000,0.0324,0.013523,0.002678,0.000431,0.011753
10447000,0.0324,0.013523,0.002678,0.000431,0.011518
10448000,0.0324,0.013523,0.002678,0.000431,0.012576
10449000,0.0324,0.013523,0.002678,0.000431,0.011518
10450000,0.0324,0.013523,0.002678,0.000431,0.010813
10451000,0.0324,0.013523,0.002678,0.000431,0.011283
10452000,0.0324,0.013523,0.002678,0.000431,0.010695
10453000,0.0324,0.013523,0.002678,0.000431,0.013633
10454000,0.0324,0.013523,0.002678,0.000431,0.010813
10455000,0.0324,0.013523,0.002678,0.000431,0.011165
10456000,0.0324,0.013523,0.002678,0.000431,0.011400
10457000,0.0324,0.013523,0.002678,0.000431,0.011635
10458000,0.0324,0.013523,0.002678,0.000431,0.010813
10459000,0.0324,0.013523,0.002678,0.000431,0.011165
10460000,0.0324,0.013523,0.002678,0.000431,0.011165
10461000,0.0324,0.013523,0.002678,0.000431,0.011165
10462000,0.0324,0.013523,0.002678,0.000431,0.010695
10463000,0.0324,0.013523,0.002678,0.000431,0.011988
10464000,0.0324,0.013523,0.002678,0.000431,0.011048
10465000,0.0324,0.013523,0.002678,0.000431,0.011283
10466000,0.0324,0.013523,0.002678,0.000431,0.011048
10467000,0.0324,0.013523,0.002678,0.000431,0.011048
10468000,0.0324,0.013523,0.002678,0.000431,0.011635
10469000,0.0324,0.013523,0.002678,0.000431,0.010695
10470000,0.0324,0.013523,0.002678,0.000431,0.011165
10471000,0.0324,0.013523,0.002678,0.000431,0.011283
10472000,0.0324,0.013523,0.002678,0.000431,0.012693
10473000,0.0324,0.013523,0.002678,0.000431,0.011870
10474000,0.0324,0.013523,0.002678,0.000431,0.012340
10475000,0.0324,0.013523,0.002678,0.000431,0.011400
10476000,0.0324,0.013523,0.002678,0.000431,0.011988
10477000,0.0324,0.013523,0.002678,0.000431,0.010695
10478000,0.0324,0.013523,0.002678,0.000431,0.012105
10479000,0.0324,0.013523,0.002678,0.000431,0.012458
10480000,0.0324,0.013523,0.002678,0.000431,0.011048
10481000,0.0324,0.013523,0.002678,0.000431,0.011518
10482000,0.0324,0.013523,0.002678,0.000431,0.011753
10483000,0.0324,0.013523,0.002678,0.000431,0.011988
10484000,0.0324,0.013523,0.002678,0.000431,0.010342
10485000,0.0324,0.013523,0.002678,0.000431,0.011635
10486000,0.0324,0.013523,0.002678,0.000431,0.011048
10487000,0.0324,0.013523,0.002678,0.000431,0.012223
10488000,0.0324,0.013523,0.002678,0.000431,0.010460
10489000,0.0324,0.013523,0.002678,0.000431,0.011400
10490000,0.0324,0.013523,0.002678,0.000431,0.012105
10491000,0.0324,0.013523,0.002678,0.000431,0.011988
10492000,0.0324,0.013523,0.002678,0.000431,0.011048
10493000,0.0324,0.013523,0.002678,0.000431,0.009990
10494000,0.0324,0.013523,0.002678,0.000431,0.011283
10495000,0.0324,0.013523,0.002678,0.000431,0.011165
10496000,0.0324,0.013523,0.002678,0.000431,0.011518
10497000,0.0324,0.013523,0.002678,0.000431,0.011165
10498000,0.0324,0.013523,0.002678,0.000431,0.011518
10499000,0.0324,0.013523,0.002678,0.000431,0.010930
10500000,0.0324,0.013523,0.002678,0.000431,0.011283
10501000,0.0324,0.013523,0.002678,0.000431,0.011988
10502000,0.0324,0.013523,0.002678,0.000431,0.011518
10503000,0.0324,0.013523,0.002678,0.000431,0.010578
10504000,0.0324,0.013523,0.002678,0.000431,0.009872
10505000,0.0324,0.013523,0.002678,0.000431,0.010578
10506000,0.0324,0.013523,0.002678,0.000431,0.011165
10507000,0.0324,0.013523,0.002678,0.000431,0.011518
10508000,0.0324,0.013523,0.002678,0.000431,0.009990
10509000,0.0324,0.013523,0.002678,0.000431,0.011048
10510000,0.0324,0.013523,0.002678,0.000431,0.010813
10511000,0.0324,0.013523,0.002678,0.000431,0.010930
10512000,0.0324,0.013523,0.002678,0.000431,0.010578
10513000,0.0324,0.013523,0.002678,0.000431,0.010930
10514000,0.0324,0.013523,0.002678,0.000431,0.011400
10515000,0.0324,0.013523,0.002678,0.000431,0.010578
10516000,0.0324,0.013523,0.002678,0.000431,0.011048
10517000,0.0324,0.013523,0.002678,0.000431,0.010930
10518000,0.0324,0.013523,0.002678,0.000431,0.010460
10519000,0.0324,0.013523,0.002678,0.000431,0.011048
10520000,0.0324,0.013523,0.002678,0.000431,0.010813
10521000,0.0324,0.013523,0.002678,0.000431,0.010578
10522000,0.0324,0.013523,0.002678,0.000431,0.009872
10523000,0.0324,0.013523,0.002678,0.000431,0.010342
10524000,0.0324,0.013523,0.002678,0.000431,0.011753
10525000,0.0324,0.013523,0.002678,0.000431,0.010107
10526000,0.0324,0.013523,0.002678,0.000431,0.009637
10527000,0.0324,0.013523,0.002678,0.000431,0.009990
10528000,0.0324,0.013523,0.002678,0.000431,0.010225
10529000,0.0324,0.013523,0.002678,0.000431,0.010342
10530000,0.0324,0.013523,0.002678,0.000431,0.010225
10531000,0.0324,0.013523,0.002678,0.000431,0.011283
10532000,0.0324,0.013523,0.002678,0.000431,0.011165
10533000,0.0324,0.013523,0.002678,0.000431,0.011048
10534000,0.0324,0.013523,0.002678,0.000431,0.010578
10535000,0.0324,0.013523,0.002678,0.000431,0.011988
10536000,0.0324,0.013523,0.002678,0.000431,0.011283
10537000,0.0324,0.013523,0.002678,0.000431,0.010225
10538000,0.0324,0.013523,0.002678,0.000431,0.010578
10539000,0.0324,0.013523,0.002678,0.000431,0.011048
10540000,0.0324,0.013523,0.002678,0.000431,0.010578
10541000,0.0324,0.013523,0.002678,0.000431,0.011518
10542000,0.0324,0.013523,0.002678,0.000431,0.010930
10543000,0.0324,0.013523,0.002678,0.000431,0.010813
10544000,0.0324,0.013523,0.002678,0.000431,0.010930
10545000,0.0324,0.013523,0.002678,0.000431,0.010695
10546000,0.0324,0.013523,0.002678,0.000431,0.011165
10547000,0.0324,0.013523,0.002678,0.000431,0.010107
10548000,0.0324,0.013523,0.002678,0.000431,0.011283
10549000,0.0324,0.013523,0.002678,0.000431,0.010107
10550000,0.0324,0.013523,0.002678,0.000431,0.011048
10551000,0.0324,0.013523,0.002678,0.000431,0.011048
10552000,0.0324,0.013523,0.002678,0.000431,0.010107
10553000,0.0324,0.013523,0.002678,0.000431,0.010578
10554000,0.0324,0.013523,0.002678,0.000431,0.011165
10555000,0.0324,0.013523,0.002678,0.000431,0.010460
10556000,0.0324,0.013523,0.002678,0.000431,0.009990
10557000,0.0324,0.013523,0.002678,0.000431,0.010460
10558000,0.0324,0.013523,0.002678,0.000431,0.010578
10559000,0.0324,0.013523,0.002678,0.000431,0.009637
10560000,0.0324,0.013523,0.002678,0.000431,0.010695
10561000,0.0324,0.013523,0.002678,0.000431,0.011988
10562000,0.0324,0.013523,0.002678,0.000431,0.010342
10563000,0.0324,0.013523,0.002678,0.000431,0.009755
10564000,0.0324,0.013523,0.002678,0.000431,0.011635
10565000,0.0324,0.013523,0.002678,0.000431,0.011283
10566000,0.0324,0.013523,0.002678,0.000431,0.010460
10567000,0.0324,0.013523,0.002678,0.000431,0.010460
10568000,0.0324,0.013523,0.002678,0.000431,0.009637
10569000,0.0324,0.013523,0.002678,0.000431,0.011518
10570000,0.0324,0.013523,0.002678,0.000431,0.011165
10571000,0.0324,0.013523,0.002678,0.000431,0.010342
10572000,0.0324,0.013523,0.002678,0.000431,0.010813
10573000,0.0324,0.013523,0.002678,0.000431,0.009872
10574000,0.0324,0.013523,0.002678,0.000431,0.011753
10575000,0.0324,0.013523,0.002678,0.000431,0.011048
10576000,0.0324,0.013523,0.002678,0.000431,0.011165
10577000,0.0324,0.013523,0.002678,0.000431,0.010225
10578000,0.0324,0.013523,0.002678,0.000431,0.010695
10579000,0.0324,0.013523,0.002678,0.000431,0.010813
10580000,0.0324,0.013523,0.002678,0.000431,0.010342
10581000,0.0324,0.013523,0.002678,0.000431,0.010813
10582000,0.0324,0.013523,0.002678,0.000431,0.011165
10583000,0.0324,0.013523,0.002678,0.000431,0.011048
10584000,0.0324,0.013523,0.002678,0.000431,0.010930
10585000,0.0324,0.013523,0.002678,0.000431,0.010813
10586000,0.0324,0.013523,0.002678,0.000431,0.011048
10587000,0.0324,0.013523,0.002678,0.000431,0.010695
10588000,0.0324,0.013523,0.002678,0.000431,0.011048
10589000,0.0324,0.013523,0.002678,0.000431,0.010342
10590000,0.0324,0.013523,0.002678,0.000431,0.010578
10591000,0.0324,0.013523,0.002678,0.000431,0.010578
10592000,0.0324,0.013523,0.002678,0.000431,0.010342
10593000,0.0324,0.013523,0.002678,0.000431,0.010695
10594000,0.0324,0.013523,0.002678,0.000431,0.010578
10595000,0.0324,0.013523,0.002678,0.000431,0.011283
10596000,0.0324,0.013523,0.002678,0.000431,0.011518
10597000,0.0324,0.013523,0.002678,0.000431,0.011165
10598000,0.0324,0.013523,0.002678,0.000431,0.010930
10599000,0.0324,0.013523,0.002678,0.000431,0.009990
10600000,0.0324,0.013523,0.002678,0.000431,0.010342
10601000,0.0324,0.013523,0.002678,0.000431,0.010225
10602000,0.0324,0.013523,0.002678,0.000431,0.010578
10603000,0.0324,0.013523,0.002678,0.000431,0.011635
10604000,0.0324,0.013523,0.002678,0.000431,0.010107
10605000,0.0324,0.013523,0.002678,0.000431,0.010460
10606000,0.0324,0.013523,0.002678,0.000431,0.011635
10607000,0.0324,0.013523,0.002678,0.000431,0.010342
10608000,0.0324,0.013523,0.002678,0.000431,0.011048
10609000,0.0324,0.013523,0.002678,0.000431,0.010107
10610000,0.0324,0.013523,0.002678,0.000431,0.010460
10611000,0.0324,0.013523,0.002678,0.000431,0.009990
10612000,0.0324,0.013523,0.002678,0.000431,0.009872
10613000,0.0324,0.013523,0.002678,0.000431,0.011283
10614000,0.0324,0.013523,0.002678,0.000431,0.010930
10615000,0.0324,0.013523,0.002678,0.000431,0.010930
10616000,0.0324,0.013523,0.002678,0.000431,0.009520
10617000,0.0324,0.013523,0.002678,0.000431,0.012340
10618000,0.0324,0.013523,0.002678,0.000431,0.010813
10619000,0.0324,0.013523,0.002678,0.000431,0.010342
10620000,0.0324,0.013523,0.002678,0.000431,0.010460
10621000,0.0324,0.013523,0.002678,0.000431,0.010225
10622000,0.0324,0.013523,0.002678,0.000431,0.010930
10623000,0.0324,0.013523,0.002678,0.000431,0.011048
10624000,0.0324,0.013523,0.002678,0.000431,0.011165
10625000,0.0324,0.013523,0.002678,0.000431,0.011400
10626000,0.0324,0.013523,0.002678,0.000431,0.009990
10627000,0.0324,0.013523,0.002678,0.000431,0.011870
10628000,0.0324,0.013523,0.002678,0.000431,0.010695
10629000,0.0324,0.013523,0.002678,0.000431,0.011518
10630000,0.0324,0.013523,0.002678,0.000431,0.010930
10631000,0.0324,0.013523,0.002678,0.000431,0.011048
10632000,0.0324,0.013523,0.002678,0.000431,0.010813
10633000,0.0324,0.013523,0.002678,0.000431,0.011048
10634000,0.0324,0.013523,0.002678,0.000431,0.010342
10635000,0.0324,0.013523,0.002678,0.000431,0.011165
10636000,0.0324,0.013523,0.002678,0.000431,0.011048
10637000,0.0324,0.013523,0.002678,0.000431,0.010460
10638000,0.0324,0.013523,0.002678,0.000431,0.011165
10639000,0.0324,0.013523,0.002678,0.000431,0.010460
10640000,0.0324,0.013523,0.002678,0.000431,0.010695
10641000,0.0324,0.013523,0.002678,0.000431,0.010695
10642000,0.0324,0.013523,0.002678,0.000431,0.010578
10643000,0.0324,0.013523,0.002678,0.000431,0.010930
10644000,0.0324,0.013523,0.002678,0.000431,0.011635
10645000,0.0324,0.013523,0.002678,0.000431,0.009402
10646000,0.0324,0.013523,0.002678,0.000431,0.011048
10647000,0.0324,0.013523,0.002678,0.000431,0.009285
10648000,0.0324,0.013523,0.002678,0.000431,0.010460
10649000,0.0324,0.013523,0.002678,0.000431,0.011048
10650000,0.0324,0.013523,0.002678,0.000431,0.010813
10651000,0.0324,0.013523,0.002678,0.000431,0.010813
10652000,0.0324,0.013523,0.002678,0.000431,0.010578
10653000,0.0324,0.013523,0.002678,0.000431,0.011870
10654000,0.0324,0.013523,0.002678,0.000431,0.009637
10655000,0.0324,0.013523,0.002678,0.000431,0.010813
10656000,0.0324,0.013523,0.002678,0.000431,0.010107
10657000,0.0324,0.013523,0.002678,0.000431,0.010460
10658000,0.0324,0.013523,0.002678,0.000431,0.011518
10659000,0.0324,0.013523,0.002678,0.000431,0.010578
10660000,0.0324,0.013523,0.002678,0.000431,0.010813
10661000,0.0324,0.013523,0.002678,0.000431,0.011048
10662000,0.0324,0.013523,0.002678,0.000431,0.010578
10663000,0.0324,0.013523,0.002678,0.000431,0.010930
10664000,0.0324,0.013523,0.002678,0.000431,0.010695
10665000,0.0324,0.013523,0.002678,0.000431,0.009402
10666000,0.0324,0.013523,0.002678,0.000431,0.011165
10667000,0.0324,0.013523,0.002678,0.000431,0.009637
10668000,0.0324,0.013523,0.002678,0.000431,0.011753
10669000,0.0324,0.013523,0.002678,0.000431,0.010695
10670000,0.0324,0.013523,0.002678,0.000431,0.011518
10671000,0.0324,0.013523,0.002678,0.000431,0.010578
10672000,0.0324,0.013523,0.002678,0.000431,0.010225
10673000,0.0324,0.013523,0.002678,0.000431,0.011165
10674000,0.0324,0.013523,0.002678,0.000431,0.009755
10675000,0.0324,0.013523,0.002678,0.000431,0.010225
10676000,0.0324,0.013523,0.002678,0.000431,0.011635
10677000,0.0324,0.013523,0.002678,0.000431,0.011048
10678000,0.0324,0.013523,0.002678,0.000431,0.010225
10679000,0.0324,0.013523,0.002678,0.000431,0.009872
10680000,0.0324,0.013523,0.002678,0.000431,0.010225
10681000,0.0324,0.013523,0.002678,0.000431,0.010460
10682000,0.0324,0.013523,0.002678,0.000431,0.010695
10683000,0.0324,0.013523,0.002678,0.000431,0.010342
10684000,0.0324,0.013523,0.002678,0.000431,0.010930
10685000,0.0324,0.013523,0.002678,0.000431,0.012105
10686000,0.0324,0.013523,0.002678,0.000431,0.011400
10687000,0.0324,0.013523,0.002678,0.000431,0.010107
10688000,0.0324,0.013523,0.002678,0.000431,0.010813
10689000,0.0324,0.013523,0.002678,0.000431,0.010695
10690000,0.0324,0.013523,0.002678,0.000431,0.011283
10691000,0.0324,0.013523,0.002678,0.000431,0.010813
10692000,0.0324,0.013523,0.002678,0.000431,0.010695
10693000,0.0324,0.013523,0.002678,0.000431,0.011283
10694000,0.0324,0.013523,0.002678,0.000431,0.011283
10695000,0.0324,0.013523,0.002678,0.000431,0.012105
10696000,0.0324,0.013523,0.002678,0.000431,0.010695
10697000,0.0324,0.013523,0.002678,0.000431,0.011870
10698000,0.0324,0.013523,0.002678,0.000431,0.010107
10699000,0.0324,0.013523,0.002678,0.000431,0.011518
10700000,0.0324,0.013523,0.002678,0.000431,0.010107
10701000,0.0324,0.013523,0.002678,0.000431,0.010460
10702000,0.0324,0.013523,0.002678,0.000431,0.010578
10703000,0.0324,0.013523,0.002678,0.000431,0.011048
10704000,0.0324,0.013523,0.002678,0.000431,0.010578
10705000,0.0324,0.013523,0.002678,0.000431,0.011048
10706000,0.0324,0.013523,0.002678,0.000431,0.009755
10707000,0.0324,0.013523,0.002678,0.000431,0.011048
10708000,0.0324,0.013523,0.002678,0.000431,0.010695
10709000,0.0324,0.013523,0.002678,0.000431,0.010813
10710000,0.0324,0.013523,0.002678,0.000431,0.010813
10711000,0.0324,0.013523,0.002678,0.000431,0.010578
10712000,0.0324,0.013523,0.002678,0.000431,0.010460
10713000,0.0324,0.013523,0.002678,0.000431,0.010813
10714000,0.0324,0.013523,0.002678,0.000431,0.011400
10715000,0.0324,0.013523,0.002678,0.000431,0.009990
10716000,0.0324,0.013523,0.002678,0.000431,0.012223
10717000,0.0324,0.013523,0.002678,0.000431,0.011753
10718000,0.0324,0.013523,0.002678,0.000431,0.011048
10719000,0.0324,0.013523,0.002678,0.000431,0.010460
10720000,0.0324,0.013523,0.002678,0.000431,0.009285
10721000,0.0324,0.013523,0.002678,0.000431,0.010813
10722000,0.0324,0.013523,0.002678,0.000431,0.011165
10723000,0.0324,0.013523,0.002678,0.000431,0.010930
10724000,0.0324,0.013523,0.002678,0.000431,0.009402
10725000,0.0324,0.013523,0.002678,0.000431,0.011870
10726000,0.0324,0.013523,0.002678,0.000431,0.011283
10727000,0.0324,0.013523,0.002678,0.000431,0.010460
10728000,0.0324,0.013523,0.002678,0.000431,0.010342
10729000,0.0324,0.013523,0.002678,0.000431,0.010695
10730000,0.0324,0.013523,0.002678,0.000431,0.010107
10731000,0.0324,0.013523,0.002678,0.000431,0.011400
10732000,0.0324,0.013523,0.002678,0.000431,0.010813
10733000,0.0324,0.013523,0.002678,0.000431,0.010578
10734000,0.0324,0.013523,0.002678,0.000431,0.010813
10735000,0.0324,0.013523,0.002678,0.000431,0.010813
10736000,0.0324,0.013523,0.002678,0.000431,0.010107
10737000,0.0324,0.013523,0.002678,0.000431,0.010813
10738000,0.0324,0.013523,0.002678,0.000431,0.010930
10739000,0.0324,0.013523,0.002678,0.000431,0.010342
10740000,0.0324,0.013523,0.002678,0.000431,0.011870
10741000,0.0324,0.013523,0.002678,0.000431,0.011283
10742000,0.0324,0.013523,0.002678,0.000431,0.010107
10743000,0.0324,0.013523,0.002678,0.000431,0.011283
10744000,0.0324,0.013523,0.002678,0.000431,0.010695
10745000,0.0324,0.013523,0.002678,0.000431,0.011635
10746000,0.0324,0.013523,0.002678,0.000431,0.010930
10747000,0.0324,0.013523,0.002678,0.000431,0.010225
10748000,0.0324,0.013523,0.002678,0.000431,0.010578
10749000,0.0324,0.013523,0.002678,0.000431,0.011635
10750000,0.0324,0.013523,0.002678,0.000431,0.010578
10751000,0.0324,0.013523,0.002678,0.000431,0.010813
10752000,0.0324,0.013523,0.002678,0.000431,0.011870
10753000,0.0324,0.013523,0.002678,0.000431,0.011048
10754000,0.0324,0.013523,0.002678,0.000431,0.011165
10755000,0.0324,0.013523,0.002678,0.000431,0.011400
10756000,0.0324,0.013523,0.002678,0.000431,0.010578
10757000,0.0324,0.013523,0.002678,0.000431,0.011635
10758000,0.0324,0.013523,0.002678,0.000431,0.010578
10759000,0.0324,0.013523,0.002678,0.000431,0.011048
10760000,0.0324,0.013523,0.002678,0.000431,0.010695
10761000,0.0324,0.013523,0.002678,0.000431,0.011283
10762000,0.0324,0.013523,0.002678,0.000431,0.010695
10763000,0.0324,0.013523,0.002678,0.000431,0.010225
10764000,0.0324,0.013523,0.002678,0.000431,0.011165
10765000,0.0324,0.013523,0.002678,0.000431,0.009990
10766000,0.0324,0.013523,0.002678,0.000431,0.011988
10767000,0.0324,0.013523,0.002678,0.000431,0.011400
10768000,0.0324,0.013523,0.002678,0.000431,0.009755
10769000,0.0324,0.013523,0.002678,0.000431,0.010813
10770000,0.0324,0.013523,0.002678,0.000431,0.011048
10771000,0.0324,0.013523,0.002678,0.000431,0.010930
10772000,0.0324,0.013523,0.002678,0.000431,0.011283
10773000,0.0324,0.013523,0.002678,0.000431,0.011283
10774000,0.0324,0.013523,0.002678,0.000431,0.010342
10775000,0.0324,0.013523,0.002678,0.000431,0.010225
10776000,0.0324,0.013523,0.002678,0.000431,0.011518
10777000,0.0324,0.013523,0.002678,0.000431,0.010460
10778000,0.0324,0.013523,0.002678,0.000431,0.011283
10779000,0.0324,0.013523,0.002678,0.000431,0.010225
10780000,0.0324,0.013523,0.002678,0.000431,0.011165
10781000,0.0324,0.013523,0.002678,0.000431,0.011400
10782000,0.0324,0.013523,0.002678,0.000431,0.010342
10783000,0.0324,0.013523,0.002678,0.000431,0.010578
10784000,0.0324,0.013523,0.002678,0.000431,0.011988
10785000,0.0324,0.013523,0.002678,0.000431,0.010930
10786000,0.0324,0.013523,0.002678,0.000431,0.011048
10787000,0.0324,0.013523,0.002678,0.000431,0.010813
10788000,0.0324,0.013523,0.002678,0.000431,0.010460
10789000,0.0324,0.013523,0.002678,0.000431,0.011283
10790000,0.0324,0.013523,0.002678,0.000431,0.011048
10791000,0.0324,0.013523,0.002678,0.000431,0.010342
10792000,0.0324,0.013523,0.002678,0.000431,0.010578
10793000,0.0324,0.013523,0.002678,0.000431,0.010578
10794000,0.0324,0.013523,0.002678,0.000431,0.011165
10795000,0.0324,0.013523,0.002678,0.000431,0.010813
10796000,0.0324,0.013523,0.002678,0.000431,0.010695
10797000,0.0324,0.013523,0.002678,0.000431,0.010460
10798000,0.0324,0.013523,0.002678,0.000431,0.010930
10799000,0.0324,0.013523,0.002678,0.000431,0.011400
10800000,0.0324,0.013523,0.002678,0.000431,0.010695
10801000,0.0324,0.013523,0.002678,0.000431,0.011165
10802000,0.0324,0.013523,0.002678,0.000431,0.010578
10803000,0.0324,0.013523,0.002678,0.000431,0.011635
10804000,0.0324,0.013523,0.002678,0.000431,0.011400
10805000,0.0324,0.013523,0.002678,0.000431,0.010460
10806000,0.0324,0.013523,0.002678,0.000431,0.009402
10807000,0.0324,0.013523,0.002678,0.000431,0.011635
10808000,0.0324,0.013523,0.002678,0.000431,0.009990
10809000,0.0324,0.013523,0.002678,0.000431,0.011048
10810000,0.0324,0.013523,0.002678,0.000431,0.011518
10811000,0.0324,0.013523,0.002678,0.000431,0.011518
10812000,0.0324,0.013523,0.002678,0.000431,0.010342
10813000,0.0324,0.013523,0.002678,0.000431,0.010460
10814000,0.0324,0.013523,0.002678,0.000431,0.011518
10815000,0.0324,0.013523,0.002678,0.000431,0.010107
10816000,0.0324,0.013523,0.002678,0.000431,0.011283
10817000,0.0324,0.013523,0.002678,0.000431,0.011048
10818000,0.0324,0.013523,0.002678,0.000431,0.012693
10819000,0.0324,0.013523,0.002678,0.000431,0.009990
10820000,0.0324,0.013523,0.002678,0.000431,0.010225
10821000,0.0324,0.013523,0.002678,0.000431,0.010460
10822000,0.0324,0.013523,0.002678,0.000431,0.011753
10823000,0.0324,0.013523,0.002678,0.000431,0.010930
10824000,0.0324,0.013523,0.002678,0.000431,0.010107
10825000,0.0324,0.013523,0.002678,0.000431,0.011518
10826000,0.0324,0.013523,0.002678,0.000431,0.010578
10827000,0.0324,0.013523,0.002678,0.000431,0.011048
10828000,0.0324,0.013523,0.002678,0.000431,0.010578
10829000,0.0324,0.013523,0.002678,0.000431,0.010460
10830000,0.0324,0.013523,0.002678,0.000431,0.010813
10831000,0.0324,0.013523,0.002678,0.000431,0.011870
10832000,0.0324,0.013523,0.002678,0.000431,0.010225
10833000,0.0324,0.013523,0.002678,0.000431,0.010930
10834000,0.0324,0.013523,0.002678,0.000431,0.010930
10835000,0.0324,0.013523,0.002678,0.000431,0.010813
10836000,0.0324,0.013523,0.002678,0.000431,0.010342
10837000,0.0324,0.013523,0.002678,0.000431,0.010813
10838000,0.0324,0.013523,0.002678,0.000431,0.011283
10839000,0.0324,0.013523,0.002678,0.000431,0.011165
10840000,0.0324,0.013523,0.002678,0.000431,0.010813
10841000,0.0324,0.013523,0.002678,0.000431,0.011753
10842000,0.0324,0.013523,0.002678,0.000431,0.010813
10843000,0.0324,0.013523,0.002678,0.000431,0.010460
10844000,0.0324,0.013523,0.002678,0.000431,0.012223
10845000,0.0324,0.013523,0.002678,0.000431,0.010695
10846000,0.0324,0.013523,0.002678,0.000431,0.011165
10847000,0.0324,0.013523,0.002678,0.000431,0.009755
10848000,0.0324,0.013523,0.002678,0.000431,0.010578
10849000,0.0324,0.013523,0.002678,0.000431,0.010342
10850000,0.0324,0.013523,0.002678,0.000431,0.010578
10851000,0.0324,0.013523,0.002678,0.000431,0.011518
10852000,0.0324,0.013523,0.002678,0.000431,0.011283
10853000,0.0324,0.013523,0.002678,0.000431,0.009520
10854000,0.0324,0.013523,0.002678,0.000431,0.011635
10855000,0.0324,0.013523,0.002678,0.000431,0.010225
10856000,0.0324,0.013523,0.002678,0.000431,0.010107
10857000,0.0324,0.013523,0.002678,0.000431,0.011400
10858000,0.0324,0.013523,0.002678,0.000431,0.010460
10859000,0.0324,0.013523,0.002678,0.000431,0.012223
10860000,0.0324,0.013523,0.002678,0.000431,0.010813
10861000,0.0324,0.013523,0.002678,0.000431,0.010695
10862000,0.0324,0.013523,0.002678,0.000431,0.011048
10863000,0.0324,0.013523,0.002678,0.000431,0.010695
10864000,0.0324,0.013523,0.002678,0.000431,0.009990
10865000,0.0324,0.013523,0.002678,0.000431,0.010342
10866000,0.0324,0.013523,0.002678,0.000431,0.011635
10867000,0.0324,0.013523,0.002678,0.000431,0.009755
10868000,0.0324,0.013523,0.002678,0.000431,0.011400
10869000,0.0324,0.013523,0.002678,0.000431,0.011283
10870000,0.0324,0.013523,0.002678,0.000431,0.010695
10871000,0.0324,0.013523,0.002678,0.000431,0.011283
10872000,0.0324,0.013523,0.002678,0.000431,0.010813
10873000,0.0324,0.013523,0.002678,0.000431,0.011283
10874000,0.0324,0.013523,0.002678,0.000431,0.010460
10875000,0.0324,0.013523,0.002678,0.000431,0.010930
10876000,0.0324,0.013523,0.002678,0.000431,0.011635
10877000,0.0324,0.013523,0.002678,0.000431,0.011048
10878000,0.0324,0.013523,0.002678,0.000431,0.011400
10879000,0.0324,0.013523,0.002678,0.000431,0.009990
10880000,0.0324,0.013523,0.002678,0.000431,0.011400
10881000,0.0324,0.013523,0.002678,0.000431,0.011753
10882000,0.0324,0.013523,0.002678,0.000431,0.010342
10883000,0.0324,0.013523,0.002678,0.000431,0.010460
10884000,0.0324,0.013523,0.002678,0.000431,0.009990
10885000,0.0324,0.013523,0.002678,0.000431,0.011870
10886000,0.0324,0.013523,0.002678,0.000431,0.011518
10887000,0.0324,0.013523,0.002678,0.000431,0.009637
10888000,0.0324,0.013523,0.002678,0.000431,0.011048
10889000,0.0324,0.013523,0.002678,0.000431,0.011165
10890000,0.0324,0.013523,0.002678,0.000431,0.010578
10891000,0.0324,0.013523,0.002678,0.000431,0.010578
10892000,0.0324,0.013523,0.002678,0.000431,0.010578
10893000,0.0324,0.013523,0.002678,0.000431,0.010695
10894000,0.0324,0.013523,0.002678,0.000431,0.010930
10895000,0.0324,0.013523,0.002678,0.000431,0.010460
10896000,0.0324,0.013523,0.002678,0.000431,0.011518
10897000,0.0324,0.013523,0.002678,0.000431,0.011283
10898000,0.0324,0.013523,0.002678,0.000431,0.010460
10899000,0.0324,0.013523,0.002678,0.000431,0.009990
10900000,0.0324,0.013523,0.002678,0.000431,0.011165
10901000,0.0324,0.013523,0.002678,0.000431,0.009755
10902000,0.0324,0.013523,0.002678,0.000431,0.010813
10903000,0.0324,0.013523,0.002678,0.000431,0.010342
10904000,0.0324,0.013523,0.002678,0.000431,0.010225
10905000,0.0324,0.013523,0.002678,0.000431,0.010225
10906000,0.0324,0.013523,0.002678,0.000431,0.010342
10907000,0.0324,0.013523,0.002678,0.000431,0.010813
10908000,0.0324,0.013523,0.002678,0.000431,0.010813
10909000,0.0324,0.013523,0.002678,0.000431,0.011048
10910000,0.0324,0.013523,0.002678,0.000431,0.010695
10911000,0.0324,0.013523,0.002678,0.000431,0.011165
10912000,0.0324,0.013523,0.002678,0.000431,0.012223
10913000,0.0324,0.013523,0.002678,0.000431,0.010578
10914000,0.0324,0.013523,0.002678,0.000431,0.009990
10915000,0.0324,0.013523,0.002678,0.000431,0.011518
10916000,0.0324,0.013523,0.002678,0.000431,0.009872
10917000,0.0324,0.013523,0.002678,0.000431,0.010107
10918000,0.0324,0.013523,0.002678,0.000431,0.010813
10919000,0.0324,0.013523,0.002678,0.000431,0.010930
10920000,0.0324,0.013523,0.002678,0.000431,0.011518
10921000,0.0324,0.013523,0.002678,0.000431,0.010225
10922000,0.0324,0.013523,0.002678,0.000431,0.010695
10923000,0.0324,0.013523,0.002678,0.000431,0.010930
10924000,0.0324,0.013523,0.002678,0.000431,0.010578
10925000,0.0324,0.013523,0.002678,0.000431,0.010225
10926000,0.0324,0.013523,0.002678,0.000431,0.011988
10927000,0.0324,0.013523,0.002678,0.000431,0.010813
10928000,0.0324,0.013523,0.002678,0.000431,0.011753
10929000,0.0324,0.013523,0.002678,0.000431,0.009520
10930000,0.0324,0.013523,0.002678,0.000431,0.010578
10931000,0.0324,0.013523,0.002678,0.000431,0.009050
10932000,0.0324,0.013523,0.002678,0.000431,0.010460
10933000,0.0324,0.013523,0.002678,0.000431,0.010460
10934000,0.0324,0.013523,0.002678,0.000431,0.009637
10935000,0.0324,0.013523,0.002678,0.000431,0.009872
10936000,0.0324,0.013523,0.002678,0.000431,0.009637
10937000,0.0324,0.013523,0.002678,0.000431,0.009637
10938000,0.0324,0.013523,0.002678,0.000431,0.010695
10939000,0.0324,0.013523,0.002678,0.000431,0.009637
10940000,0.0324,0.013523,0.002678,0.000431,0.010342
10941000,0.0324,0.013523,0.002678,0.000431,0.009637
10942000,0.0324,0.013523,0.002678,0.000431,0.009637
10943000,0.0324,0.013523,0.002678,0.000431,0.009637
10944000,0.0324,0.013523,0.002678,0.000431,0.010460
10945000,0.0324,0.013523,0.002678,0.000431,0.010225
10946000,0.0324,0.013523,0.002678,0.000431,0.010225
10947000,0.0324,0.013523,0.002678,0.000431,0.011048
10948000,0.0324,0.013523,0.002678,0.000431,0.010107
10949000,0.0324,0.013523,0.002678,0.000431,0.009872
10950000,0.0324,0.013523,0.002678,0.000431,0.010342
10951000,0.0324,0.013523,0.002678,0.000431,0.009285
10952000,0.0324,0.013523,0.002678,0.000431,0.010225
10953000,0.0324,0.013523,0.002678,0.000431,0.010578
10954000,0.0324,0.013523,0.002678,0.000431,0.010578
10955000,0.0324,0.013523,0.002678,0.000431,0.009872
10956000,0.0324,0.013523,0.002678,0.000431,0.009990
10957000,0.0324,0.013523,0.002678,0.000431,0.009755
10958000,0.0324,0.013523,0.002678,0.000431,0.009402
10959000,0.0324,0.013523,0.002678,0.000431,0.011165
10960000,0.0324,0.013523,0.002678,0.000431,0.010930
10961000,0.0324,0.013523,0.002678,0.000431,0.009637
10962000,0.0324,0.013523,0.002678,0.000431,0.010578
10963000,0.0324,0.013523,0.002678,0.000431,0.010460
10964000,0.0324,0.013523,0.002678,0.000431,0.010342
10965000,0.0324,0.013523,0.002678,0.000431,0.010225
10966000,0.0324,0.013523,0.002678,0.000431,0.009872
10967000,0.0324,0.013523,0.002678,0.000431,0.011400
10968000,0.0324,0.013523,0.002678,0.000431,0.009050
10969000,0.0324,0.013523,0.002678,0.000431,0.011165
10970000,0.0324,0.013523,0.002678,0.000431,0.010225
10971000,0.0324,0.013523,0.002678,0.000431,0.009990
10972000,0.0324,0.013523,0.002678,0.000431,0.010225
10973000,0.0324,0.013523,0.002678,0.000431,0.010695
10974000,0.0324,0.013523,0.002678,0.000431,0.011518
10975000,0.0324,0.013523,0.002678,0.000431,0.009285
10976000,0.0324,0.013523,0.002678,0.000431,0.009755
10977000,0.0324,0.013523,0.002678,0.000431,0.010813
10978000,0.0324,0.013523,0.002678,0.000431,0.011165
10979000,0.0324,0.013523,0.002678,0.000431,0.010342
10980000,0.0324,0.013523,0.002678,0.000431,0.010107
10981000,0.0324,0.013523,0.002678,0.000431,0.010225
10982000,0.0324,0.013523,0.002678,0.000431,0.010813
10983000,0.0324,0.013523,0.002678,0.000431,0.010107
10984000,0.0324,0.013523,0.002678,0.000431,0.010930
10985000,0.0324,0.013523,0.002678,0.000431,0.009872
10986000,0.0324,0.013523,0.002678,0.000431,0.010813
10987000,0.0324,0.013523,0.002678,0.000431,0.009755
10988000,0.0324,0.013523,0.002678,0.000431,0.010578
10989000,0.0324,0.013523,0.002678,0.000431,0.009755
10990000,0.0324,0.013523,0.002678,0.000431,0.010107
10991000,0.0324,0.013523,0.002678,0.000431,0.010225
10992000,0.0324,0.013523,0.002678,0.000431,0.010460
10993000,0.0324,0.013523,0.002678,0.000431,0.010813
10994000,0.0324,0.013523,0.002678,0.000431,0.010107
10995000,0.0324,0.013523,0.002678,0.000431,0.009755
10996000,0.0324,0.013523,0.002678,0.000431,0.009637
10997000,0.0324,0.013523,0.002678,0.000431,0.011048
10998000,0.0324,0.013523,0.002678,0.000431,0.009755
10999000,0.0324,0.013523,0.002678,0.000431,0.009755
