Cycle,Area(mm^2),PeakDynamic(W),SubthresholdLeakage(W),GateLeakage(W),RunTimeDynamic(W)
17000000,0.0324,0.013523,0.002678,0.000431,0.001058
17001000,0.0324,0.013523,0.002678,0.000431,0.001175
17002000,0.0324,0.013523,0.002678,0.000431,0.000705
17003000,0.0324,0.013523,0.002678,0.000431,0.001058
17004000,0.0324,0.013523,0.002678,0.000431,0.001410
17005000,0.0324,0.013523,0.002678,0.000431,0.001175
17006000,0.0324,0.013523,0.002678,0.000431,0.001175
17007000,0.0324,0.013523,0.002678,0.000431,0.001058
17008000,0.0324,0.013523,0.002678,0.000431,0.001293
17009000,0.0324,0.013523,0.002678,0.000431,0.001175
17010000,0.0324,0.013523,0.002678,0.000431,0.001293
17011000,0.0324,0.013523,0.002678,0.000431,0.000823
17012000,0.0324,0.013523,0.002678,0.000431,0.001175
17013000,0.0324,0.013523,0.002678,0.000431,0.000940
17014000,0.0324,0.013523,0.002678,0.000431,0.001175
17015000,0.0324,0.013523,0.002678,0.000431,0.001410
17016000,0.0324,0.013523,0.002678,0.000431,0.001058
17017000,0.0324,0.013523,0.002678,0.000431,0.001175
17018000,0.0324,0.013523,0.002678,0.000431,0.001175
17019000,0.0324,0.013523,0.002678,0.000431,0.001293
17020000,0.0324,0.013523,0.002678,0.000431,0.001175
17021000,0.0324,0.013523,0.002678,0.000431,0.001175
17022000,0.0324,0.013523,0.002678,0.000431,0.000823
17023000,0.0324,0.013523,0.002678,0.000431,0.001175
17024000,0.0324,0.013523,0.002678,0.000431,0.001058
17025000,0.0324,0.013523,0.002678,0.000431,0.000940
17026000,0.0324,0.013523,0.002678,0.000431,0.001175
17027000,0.0324,0.013523,0.002678,0.000431,0.001175
17028000,0.0324,0.013523,0.002678,0.000431,0.001175
17029000,0.0324,0.013523,0.002678,0.000431,0.001175
17030000,0.0324,0.013523,0.002678,0.000431,0.001293
17031000,0.0324,0.013523,0.002678,0.000431,0.000940
17032000,0.0324,0.013523,0.002678,0.000431,0.000705
17033000,0.0324,0.013523,0.002678,0.000431,0.001528
17034000,0.0324,0.013523,0.002678,0.000431,0.000705
17035000,0.0324,0.013523,0.002678,0.000431,0.001175
17036000,0.0324,0.013523,0.002678,0.000431,0.000940
17037000,0.0324,0.013523,0.002678,0.000431,0.000823
17038000,0.0324,0.013523,0.002678,0.000431,0.001058
17039000,0.0324,0.013523,0.002678,0.000431,0.001410
17040000,0.0324,0.013523,0.002678,0.000431,0.001293
17041000,0.0324,0.013523,0.002678,0.000431,0.001058
17042000,0.0324,0.013523,0.002678,0.000431,0.001410
17043000,0.0324,0.013523,0.002678,0.000431,0.001058
17044000,0.0324,0.013523,0.002678,0.000431,0.000940
17045000,0.0324,0.013523,0.002678,0.000431,0.000705
17046000,0.0324,0.013523,0.002678,0.000431,0.001645
17047000,0.0324,0.013523,0.002678,0.000431,0.000705
17048000,0.0324,0.013523,0.002678,0.000431,0.001293
17049000,0.0324,0.013523,0.002678,0.000431,0.001058
17050000,0.0324,0.013523,0.002678,0.000431,0.001058
17051000,0.0324,0.013523,0.002678,0.000431,0.001058
17052000,0.0324,0.013523,0.002678,0.000431,0.001058
17053000,0.0324,0.013523,0.002678,0.000431,0.001058
17054000,0.0324,0.013523,0.002678,0.000431,0.001058
17055000,0.0324,0.013523,0.002678,0.000431,0.000823
17056000,0.0324,0.013523,0.002678,0.000431,0.000940
17057000,0.0324,0.013523,0.002678,0.000431,0.001058
17058000,0.0324,0.013523,0.002678,0.000431,0.001410
17059000,0.0324,0.013523,0.002678,0.000431,0.001058
17060000,0.0324,0.013523,0.002678,0.000431,0.000940
17061000,0.0324,0.013523,0.002678,0.000431,0.001175
17062000,0.0324,0.013523,0.002678,0.000431,0.001293
17063000,0.0324,0.013523,0.002678,0.000431,0.000823
17064000,0.0324,0.013523,0.002678,0.000431,0.000823
17065000,0.0324,0.013523,0.002678,0.000431,0.001058
17066000,0.0324,0.013523,0.002678,0.000431,0.001293
17067000,0.0324,0.013523,0.002678,0.000431,0.001410
17068000,0.0324,0.013523,0.002678,0.000431,0.001058
17069000,0.0324,0.013523,0.002678,0.000431,0.000823
17070000,0.0324,0.013523,0.002678,0.000431,0.000705
17071000,0.0324,0.013523,0.002678,0.000431,0.001058
17072000,0.0324,0.013523,0.002678,0.000431,0.000823
17073000,0.0324,0.013523,0.002678,0.000431,0.001410
17074000,0.0324,0.013523,0.002678,0.000431,0.001058
17075000,0.0324,0.013523,0.002678,0.000431,0.000940
17076000,0.0324,0.013523,0.002678,0.000431,0.001058
17077000,0.0324,0.013523,0.002678,0.000431,0.001058
17078000,0.0324,0.013523,0.002678,0.000431,0.001058
17079000,0.0324,0.013523,0.002678,0.000431,0.001058
17080000,0.0324,0.013523,0.002678,0.000431,0.000940
17081000,0.0324,0.013523,0.002678,0.000431,0.001058
17082000,0.0324,0.013523,0.002678,0.000431,0.001058
17083000,0.0324,0.013523,0.002678,0.000431,0.000940
17084000,0.0324,0.013523,0.002678,0.000431,0.000940
17085000,0.0324,0.013523,0.002678,0.000431,0.000940
17086000,0.0324,0.013523,0.002678,0.000431,0.000823
17087000,0.0324,0.013523,0.002678,0.000431,0.001175
17088000,0.0324,0.013523,0.002678,0.000431,0.001058
17089000,0.0324,0.013523,0.002678,0.000431,0.000705
17090000,0.0324,0.013523,0.002678,0.000431,0.001293
17091000,0.0324,0.013523,0.002678,0.000431,0.001058
17092000,0.0324,0.013523,0.002678,0.000431,0.000940
17093000,0.0324,0.013523,0.002678,0.000431,0.001058
17094000,0.0324,0.013523,0.002678,0.000431,0.001293
17095000,0.0324,0.013523,0.002678,0.000431,0.000940
17096000,0.0324,0.013523,0.002678,0.000431,0.001293
17097000,0.0324,0.013523,0.002678,0.000431,0.001058
17098000,0.0324,0.013523,0.002678,0.000431,0.001058
17099000,0.0324,0.013523,0.002678,0.000431,0.001645
17100000,0.0324,0.013523,0.002678,0.000431,0.001058
17101000,0.0324,0.013523,0.002678,0.000431,0.000705
17102000,0.0324,0.013523,0.002678,0.000431,0.001293
17103000,0.0324,0.013523,0.002678,0.000431,0.001058
17104000,0.0324,0.013523,0.002678,0.000431,0.001058
17105000,0.0324,0.013523,0.002678,0.000431,0.000940
17106000,0.0324,0.013523,0.002678,0.000431,0.001293
17107000,0.0324,0.013523,0.002678,0.000431,0.000823
17108000,0.0324,0.013523,0.002678,0.000431,0.000940
17109000,0.0324,0.013523,0.002678,0.000431,0.001293
17110000,0.0324,0.013523,0.002678,0.000431,0.000940
17111000,0.0324,0.013523,0.002678,0.000431,0.001293
17112000,0.0324,0.013523,0.002678,0.000431,0.001175
17113000,0.0324,0.013523,0.002678,0.000431,0.000823
17114000,0.0324,0.013523,0.002678,0.000431,0.001293
17115000,0.0324,0.013523,0.002678,0.000431,0.001175
17116000,0.0324,0.013523,0.002678,0.000431,0.000940
17117000,0.0324,0.013523,0.002678,0.000431,0.001410
17118000,0.0324,0.013523,0.002678,0.000431,0.001058
17119000,0.0324,0.013523,0.002678,0.000431,0.001058
17120000,0.0324,0.013523,0.002678,0.000431,0.000823
17121000,0.0324,0.013523,0.002678,0.000431,0.000823
17122000,0.0324,0.013523,0.002678,0.000431,0.001175
17123000,0.0324,0.013523,0.002678,0.000431,0.001175
17124000,0.0324,0.013523,0.002678,0.000431,0.000940
17125000,0.0324,0.013523,0.002678,0.000431,0.001175
17126000,0.0324,0.013523,0.002678,0.000431,0.001410
17127000,0.0324,0.013523,0.002678,0.000431,0.001175
17128000,0.0324,0.013523,0.002678,0.000431,0.000823
17129000,0.0324,0.013523,0.002678,0.000431,0.001058
17130000,0.0324,0.013523,0.002678,0.000431,0.001058
17131000,0.0324,0.013523,0.002678,0.000431,0.001410
17132000,0.0324,0.013523,0.002678,0.000431,0.000823
17133000,0.0324,0.013523,0.002678,0.000431,0.001293
17134000,0.0324,0.013523,0.002678,0.000431,0.001058
17135000,0.0324,0.013523,0.002678,0.000431,0.001175
17136000,0.0324,0.013523,0.002678,0.000431,0.000940
17137000,0.0324,0.013523,0.002678,0.000431,0.001175
17138000,0.0324,0.013523,0.002678,0.000431,0.001175
17139000,0.0324,0.013523,0.002678,0.000431,0.001293
17140000,0.0324,0.013523,0.002678,0.000431,0.001058
17141000,0.0324,0.013523,0.002678,0.000431,0.001410
17142000,0.0324,0.013523,0.002678,0.000431,0.001058
17143000,0.0324,0.013523,0.002678,0.000431,0.000705
17144000,0.0324,0.013523,0.002678,0.000431,0.001058
17145000,0.0324,0.013523,0.002678,0.000431,0.001293
17146000,0.0324,0.013523,0.002678,0.000431,0.001058
17147000,0.0324,0.013523,0.002678,0.000431,0.001410
17148000,0.0324,0.013523,0.002678,0.000431,0.001528
17149000,0.0324,0.013523,0.002678,0.000431,0.001058
17150000,0.0324,0.013523,0.002678,0.000431,0.001175
17151000,0.0324,0.013523,0.002678,0.000431,0.001293
17152000,0.0324,0.013523,0.002678,0.000431,0.000940
17153000,0.0324,0.013523,0.002678,0.000431,0.001175
17154000,0.0324,0.013523,0.002678,0.000431,0.001410
17155000,0.0324,0.013523,0.002678,0.000431,0.000705
17156000,0.0324,0.013523,0.002678,0.000431,0.000823
17157000,0.0324,0.013523,0.002678,0.000431,0.001175
17158000,0.0324,0.013523,0.002678,0.000431,0.000940
17159000,0.0324,0.013523,0.002678,0.000431,0.000940
17160000,0.0324,0.013523,0.002678,0.000431,0.001058
17161000,0.0324,0.013523,0.002678,0.000431,0.001058
17162000,0.0324,0.013523,0.002678,0.000431,0.000940
17163000,0.0324,0.013523,0.002678,0.000431,0.001058
17164000,0.0324,0.013523,0.002678,0.000431,0.000823
17165000,0.0324,0.013523,0.002678,0.000431,0.001175
17166000,0.0324,0.013523,0.002678,0.000431,0.001058
17167000,0.0324,0.013523,0.002678,0.000431,0.001293
17168000,0.0324,0.013523,0.002678,0.000431,0.001293
17169000,0.0324,0.013523,0.002678,0.000431,0.000940
17170000,0.0324,0.013523,0.002678,0.000431,0.001293
17171000,0.0324,0.013523,0.002678,0.000431,0.001410
17172000,0.0324,0.013523,0.002678,0.000431,0.000823
17173000,0.0324,0.013523,0.002678,0.000431,0.001058
17174000,0.0324,0.013523,0.002678,0.000431,0.001410
17175000,0.0324,0.013523,0.002678,0.000431,0.000823
17176000,0.0324,0.013523,0.002678,0.000431,0.000940
17177000,0.0324,0.013523,0.002678,0.000431,0.001175
17178000,0.0324,0.013523,0.002678,0.000431,0.000823
17179000,0.0324,0.013523,0.002678,0.000431,0.001175
17180000,0.0324,0.013523,0.002678,0.000431,0.001410
17181000,0.0324,0.013523,0.002678,0.000431,0.000940
17182000,0.0324,0.013523,0.002678,0.000431,0.001175
17183000,0.0324,0.013523,0.002678,0.000431,0.001410
17184000,0.0324,0.013523,0.002678,0.000431,0.001058
17185000,0.0324,0.013523,0.002678,0.000431,0.001058
17186000,0.0324,0.013523,0.002678,0.000431,0.001175
17187000,0.0324,0.013523,0.002678,0.000431,0.000940
17188000,0.0324,0.013523,0.002678,0.000431,0.001410
17189000,0.0324,0.013523,0.002678,0.000431,0.001645
17190000,0.0324,0.013523,0.002678,0.000431,0.000823
17191000,0.0324,0.013523,0.002678,0.000431,0.001058
17192000,0.0324,0.013523,0.002678,0.000431,0.001175
17193000,0.0324,0.013523,0.002678,0.000431,0.000823
17194000,0.0324,0.013523,0.002678,0.000431,0.001175
17195000,0.0324,0.013523,0.002678,0.000431,0.000705
17196000,0.0324,0.013523,0.002678,0.000431,0.000705
17197000,0.0324,0.013523,0.002678,0.000431,0.001058
17198000,0.0324,0.013523,0.002678,0.000431,0.001410
17199000,0.0324,0.013523,0.002678,0.000431,0.001058
17200000,0.0324,0.013523,0.002678,0.000431,0.001058
17201000,0.0324,0.013523,0.002678,0.000431,0.001410
17202000,0.0324,0.013523,0.002678,0.000431,0.001058
17203000,0.0324,0.013523,0.002678,0.000431,0.000705
17204000,0.0324,0.013523,0.002678,0.000431,0.001058
17205000,0.0324,0.013523,0.002678,0.000431,0.001293
17206000,0.0324,0.013523,0.002678,0.000431,0.001058
17207000,0.0324,0.013523,0.002678,0.000431,0.001293
17208000,0.0324,0.013523,0.002678,0.000431,0.000705
17209000,0.0324,0.013523,0.002678,0.000431,0.000823
17210000,0.0324,0.013523,0.002678,0.000431,0.001410
17211000,0.0324,0.013523,0.002678,0.000431,0.001293
17212000,0.0324,0.013523,0.002678,0.000431,0.001058
17213000,0.0324,0.013523,0.002678,0.000431,0.001175
17214000,0.0324,0.013523,0.002678,0.000431,0.001410
17215000,0.0324,0.013523,0.002678,0.000431,0.000588
17216000,0.0324,0.013523,0.002678,0.000431,0.001528
17217000,0.0324,0.013523,0.002678,0.000431,0.001293
17218000,0.0324,0.013523,0.002678,0.000431,0.000940
17219000,0.0324,0.013523,0.002678,0.000431,0.001058
17220000,0.0324,0.013523,0.002678,0.000431,0.001058
17221000,0.0324,0.013523,0.002678,0.000431,0.000705
17222000,0.0324,0.013523,0.002678,0.000431,0.000823
17223000,0.0324,0.013523,0.002678,0.000431,0.001058
17224000,0.0324,0.013523,0.002678,0.000431,0.000823
17225000,0.0324,0.013523,0.002678,0.000431,0.001175
17226000,0.0324,0.013523,0.002678,0.000431,0.000940
17227000,0.0324,0.013523,0.002678,0.000431,0.000823
17228000,0.0324,0.013523,0.002678,0.000431,0.001058
17229000,0.0324,0.013523,0.002678,0.000431,0.001175
17230000,0.0324,0.013523,0.002678,0.000431,0.000940
17231000,0.0324,0.013523,0.002678,0.000431,0.001410
17232000,0.0324,0.013523,0.002678,0.000431,0.001058
17233000,0.0324,0.013523,0.002678,0.000431,0.001058
17234000,0.0324,0.013523,0.002678,0.000431,0.000823
17235000,0.0324,0.013523,0.002678,0.000431,0.000940
17236000,0.0324,0.013523,0.002678,0.000431,0.000823
17237000,0.0324,0.013523,0.002678,0.000431,0.001175
17238000,0.0324,0.013523,0.002678,0.000431,0.001058
17239000,0.0324,0.013523,0.002678,0.000431,0.000823
17240000,0.0324,0.013523,0.002678,0.000431,0.001645
17241000,0.0324,0.013523,0.002678,0.000431,0.000588
17242000,0.0324,0.013523,0.002678,0.000431,0.001058
17243000,0.0324,0.013523,0.002678,0.000431,0.001175
17244000,0.0324,0.013523,0.002678,0.000431,0.000940
17245000,0.0324,0.013523,0.002678,0.000431,0.001175
17246000,0.0324,0.013523,0.002678,0.000431,0.001528
17247000,0.0324,0.013523,0.002678,0.000431,0.000940
17248000,0.0324,0.013523,0.002678,0.000431,0.001293
17249000,0.0324,0.013523,0.002678,0.000431,0.001410
17250000,0.0324,0.013523,0.002678,0.000431,0.000940
17251000,0.0324,0.013523,0.002678,0.000431,0.001175
17252000,0.0324,0.013523,0.002678,0.000431,0.001058
17253000,0.0324,0.013523,0.002678,0.000431,0.000823
17254000,0.0324,0.013523,0.002678,0.000431,0.000940
17255000,0.0324,0.013523,0.002678,0.000431,0.001293
17256000,0.0324,0.013523,0.002678,0.000431,0.000705
17257000,0.0324,0.013523,0.002678,0.000431,0.001293
17258000,0.0324,0.013523,0.002678,0.000431,0.001293
17259000,0.0324,0.013523,0.002678,0.000431,0.000823
17260000,0.0324,0.013523,0.002678,0.000431,0.001058
17261000,0.0324,0.013523,0.002678,0.000431,0.000940
17262000,0.0324,0.013523,0.002678,0.000431,0.001293
17263000,0.0324,0.013523,0.002678,0.000431,0.000940
17264000,0.0324,0.013523,0.002678,0.000431,0.001175
17265000,0.0324,0.013523,0.002678,0.000431,0.000940
17266000,0.0324,0.013523,0.002678,0.000431,0.001410
17267000,0.0324,0.013523,0.002678,0.000431,0.001058
17268000,0.0324,0.013523,0.002678,0.000431,0.001293
17269000,0.0324,0.013523,0.002678,0.000431,0.000940
17270000,0.0324,0.013523,0.002678,0.000431,0.001293
17271000,0.0324,0.013523,0.002678,0.000431,0.001175
17272000,0.0324,0.013523,0.002678,0.000431,0.000823
17273000,0.0324,0.013523,0.002678,0.000431,0.001175
17274000,0.0324,0.013523,0.002678,0.000431,0.001175
17275000,0.0324,0.013523,0.002678,0.000431,0.001175
17276000,0.0324,0.013523,0.002678,0.000431,0.001058
17277000,0.0324,0.013523,0.002678,0.000431,0.001293
17278000,0.0324,0.013523,0.002678,0.000431,0.001175
17279000,0.0324,0.013523,0.002678,0.000431,0.001175
17280000,0.0324,0.013523,0.002678,0.000431,0.000588
17281000,0.0324,0.013523,0.002678,0.000431,0.001528
17282000,0.0324,0.013523,0.002678,0.000431,0.001058
17283000,0.0324,0.013523,0.002678,0.000431,0.000940
17284000,0.0324,0.013523,0.002678,0.000431,0.001058
17285000,0.0324,0.013523,0.002678,0.000431,0.001410
17286000,0.0324,0.013523,0.002678,0.000431,0.001058
17287000,0.0324,0.013523,0.002678,0.000431,0.000823
17288000,0.0324,0.013523,0.002678,0.000431,0.001293
17289000,0.0324,0.013523,0.002678,0.000431,0.000940
17290000,0.0324,0.013523,0.002678,0.000431,0.001293
17291000,0.0324,0.013523,0.002678,0.000431,0.001058
17292000,0.0324,0.013523,0.002678,0.000431,0.001293
17293000,0.0324,0.013523,0.002678,0.000431,0.001175
17294000,0.0324,0.013523,0.002678,0.000431,0.000940
17295000,0.0324,0.013523,0.002678,0.000431,0.000940
17296000,0.0324,0.013523,0.002678,0.000431,0.001410
17297000,0.0324,0.013523,0.002678,0.000431,0.000823
17298000,0.0324,0.013523,0.002678,0.000431,0.001058
17299000,0.0324,0.013523,0.002678,0.000431,0.001058
17300000,0.0324,0.013523,0.002678,0.000431,0.001293
17301000,0.0324,0.013523,0.002678,0.000431,0.001058
17302000,0.0324,0.013523,0.002678,0.000431,0.001293
17303000,0.0324,0.013523,0.002678,0.000431,0.001175
17304000,0.0324,0.013523,0.002678,0.000431,0.000940
17305000,0.0324,0.013523,0.002678,0.000431,0.000940
17306000,0.0324,0.013523,0.002678,0.000431,0.000823
17307000,0.0324,0.013523,0.002678,0.000431,0.001528
17308000,0.0324,0.013523,0.002678,0.000431,0.001175
17309000,0.0324,0.013523,0.002678,0.000431,0.001058
17310000,0.0324,0.013523,0.002678,0.000431,0.001058
17311000,0.0324,0.013523,0.002678,0.000431,0.001175
17312000,0.0324,0.013523,0.002678,0.000431,0.001293
17313000,0.0324,0.013523,0.002678,0.000431,0.000823
17314000,0.0324,0.013523,0.002678,0.000431,0.000940
17315000,0.0324,0.013523,0.002678,0.000431,0.001058
17316000,0.0324,0.013523,0.002678,0.000431,0.001175
17317000,0.0324,0.013523,0.002678,0.000431,0.001058
17318000,0.0324,0.013523,0.002678,0.000431,0.001058
17319000,0.0324,0.013523,0.002678,0.000431,0.001058
17320000,0.0324,0.013523,0.002678,0.000431,0.001175
17321000,0.0324,0.013523,0.002678,0.000431,0.001058
17322000,0.0324,0.013523,0.002678,0.000431,0.000940
17323000,0.0324,0.013523,0.002678,0.000431,0.001058
17324000,0.0324,0.013523,0.002678,0.000431,0.001175
17325000,0.0324,0.013523,0.002678,0.000431,0.001410
17326000,0.0324,0.013523,0.002678,0.000431,0.000940
17327000,0.0324,0.013523,0.002678,0.000431,0.000823
17328000,0.0324,0.013523,0.002678,0.000431,0.000823
17329000,0.0324,0.013523,0.002678,0.000431,0.001058
17330000,0.0324,0.013523,0.002678,0.000431,0.001058
17331000,0.0324,0.013523,0.002678,0.000431,0.000940
17332000,0.0324,0.013523,0.002678,0.000431,0.001175
17333000,0.0324,0.013523,0.002678,0.000431,0.000940
17334000,0.0324,0.013523,0.002678,0.000431,0.000940
17335000,0.0324,0.013523,0.002678,0.000431,0.001175
17336000,0.0324,0.013523,0.002678,0.000431,0.000823
17337000,0.0324,0.013523,0.002678,0.000431,0.001293
17338000,0.0324,0.013523,0.002678,0.000431,0.000940
17339000,0.0324,0.013523,0.002678,0.000431,0.000940
17340000,0.0324,0.013523,0.002678,0.000431,0.001410
17341000,0.0324,0.013523,0.002678,0.000431,0.001293
17342000,0.0324,0.013523,0.002678,0.000431,0.000823
17343000,0.0324,0.013523,0.002678,0.000431,0.001293
17344000,0.0324,0.013523,0.002678,0.000431,0.001175
17345000,0.0324,0.013523,0.002678,0.000431,0.001058
17346000,0.0324,0.013523,0.002678,0.000431,0.001175
17347000,0.0324,0.013523,0.002678,0.000431,0.001528
17348000,0.0324,0.013523,0.002678,0.000431,0.001058
17349000,0.0324,0.013523,0.002678,0.000431,0.001175
17350000,0.0324,0.013523,0.002678,0.000431,0.001528
17351000,0.0324,0.013523,0.002678,0.000431,0.001058
17352000,0.0324,0.013523,0.002678,0.000431,0.001293
17353000,0.0324,0.013523,0.002678,0.000431,0.001293
17354000,0.0324,0.013523,0.002678,0.000431,0.000823
17355000,0.0324,0.013523,0.002678,0.000431,0.001058
17356000,0.0324,0.013523,0.002678,0.000431,0.001763
17357000,0.0324,0.013523,0.002678,0.000431,0.000823
17358000,0.0324,0.013523,0.002678,0.000431,0.000940
17359000,0.0324,0.013523,0.002678,0.000431,0.001175
17360000,0.0324,0.013523,0.002678,0.000431,0.001175
17361000,0.0324,0.013523,0.002678,0.000431,0.001410
17362000,0.0324,0.013523,0.002678,0.000431,0.001058
17363000,0.0324,0.013523,0.002678,0.000431,0.000705
17364000,0.0324,0.013523,0.002678,0.000431,0.001175
17365000,0.0324,0.013523,0.002678,0.000431,0.001058
17366000,0.0324,0.013523,0.002678,0.000431,0.000940
17367000,0.0324,0.013523,0.002678,0.000431,0.001175
17368000,0.0324,0.013523,0.002678,0.000431,0.001410
17369000,0.0324,0.013523,0.002678,0.000431,0.000823
17370000,0.0324,0.013523,0.002678,0.000431,0.001293
17371000,0.0324,0.013523,0.002678,0.000431,0.001763
17372000,0.0324,0.013523,0.002678,0.000431,0.000823
17373000,0.0324,0.013523,0.002678,0.000431,0.001175
17374000,0.0324,0.013523,0.002678,0.000431,0.001058
17375000,0.0324,0.013523,0.002678,0.000431,0.000940
17376000,0.0324,0.013523,0.002678,0.000431,0.001293
17377000,0.0324,0.013523,0.002678,0.000431,0.001058
17378000,0.0324,0.013523,0.002678,0.000431,0.000940
17379000,0.0324,0.013523,0.002678,0.000431,0.001058
17380000,0.0324,0.013523,0.002678,0.000431,0.001175
17381000,0.0324,0.013523,0.002678,0.000431,0.000940
17382000,0.0324,0.013523,0.002678,0.000431,0.001410
17383000,0.0324,0.013523,0.002678,0.000431,0.001410
17384000,0.0324,0.013523,0.002678,0.000431,0.001058
17385000,0.0324,0.013523,0.002678,0.000431,0.001293
17386000,0.0324,0.013523,0.002678,0.000431,0.001410
17387000,0.0324,0.013523,0.002678,0.000431,0.001058
17388000,0.0324,0.013523,0.002678,0.000431,0.001293
17389000,0.0324,0.013523,0.002678,0.000431,0.001175
17390000,0.0324,0.013523,0.002678,0.000431,0.001058
17391000,0.0324,0.013523,0.002678,0.000431,0.000940
17392000,0.0324,0.013523,0.002678,0.000431,0.001058
17393000,0.0324,0.013523,0.002678,0.000431,0.001528
17394000,0.0324,0.013523,0.002678,0.000431,0.000823
17395000,0.0324,0.013523,0.002678,0.000431,0.001175
17396000,0.0324,0.013523,0.002678,0.000431,0.000940
17397000,0.0324,0.013523,0.002678,0.000431,0.001410
17398000,0.0324,0.013523,0.002678,0.000431,0.001175
17399000,0.0324,0.013523,0.002678,0.000431,0.001293
17400000,0.0324,0.013523,0.002678,0.000431,0.001058
17401000,0.0324,0.013523,0.002678,0.000431,0.001058
17402000,0.0324,0.013523,0.002678,0.000431,0.001058
17403000,0.0324,0.013523,0.002678,0.000431,0.000940
17404000,0.0324,0.013523,0.002678,0.000431,0.001058
17405000,0.0324,0.013523,0.002678,0.000431,0.000705
17406000,0.0324,0.013523,0.002678,0.000431,0.001058
17407000,0.0324,0.013523,0.002678,0.000431,0.000940
17408000,0.0324,0.013523,0.002678,0.000431,0.001410
17409000,0.0324,0.013523,0.002678,0.000431,0.001175
17410000,0.0324,0.013523,0.002678,0.000431,0.001410
17411000,0.0324,0.013523,0.002678,0.000431,0.001175
17412000,0.0324,0.013523,0.002678,0.000431,0.001058
17413000,0.0324,0.013523,0.002678,0.000431,0.001058
17414000,0.0324,0.013523,0.002678,0.000431,0.001058
17415000,0.0324,0.013523,0.002678,0.000431,0.001058
17416000,0.0324,0.013523,0.002678,0.000431,0.001293
17417000,0.0324,0.013523,0.002678,0.000431,0.000940
17418000,0.0324,0.013523,0.002678,0.000431,0.000940
17419000,0.0324,0.013523,0.002678,0.000431,0.001293
17420000,0.0324,0.013523,0.002678,0.000431,0.001293
17421000,0.0324,0.013523,0.002678,0.000431,0.001058
17422000,0.0324,0.013523,0.002678,0.000431,0.001410
17423000,0.0324,0.013523,0.002678,0.000431,0.001058
17424000,0.0324,0.013523,0.002678,0.000431,0.001058
17425000,0.0324,0.013523,0.002678,0.000431,0.001175
17426000,0.0324,0.013523,0.002678,0.000431,0.001058
17427000,0.0324,0.013523,0.002678,0.000431,0.000705
17428000,0.0324,0.013523,0.002678,0.000431,0.001175
17429000,0.0324,0.013523,0.002678,0.000431,0.000940
17430000,0.0324,0.013523,0.002678,0.000431,0.001293
17431000,0.0324,0.013523,0.002678,0.000431,0.000940
17432000,0.0324,0.013523,0.002678,0.000431,0.001175
17433000,0.0324,0.013523,0.002678,0.000431,0.001175
17434000,0.0324,0.013523,0.002678,0.000431,0.001175
17435000,0.0324,0.013523,0.002678,0.000431,0.000823
17436000,0.0324,0.013523,0.002678,0.000431,0.000823
17437000,0.0324,0.013523,0.002678,0.000431,0.001410
17438000,0.0324,0.013523,0.002678,0.000431,0.001175
17439000,0.0324,0.013523,0.002678,0.000431,0.001058
17440000,0.0324,0.013523,0.002678,0.000431,0.001058
17441000,0.0324,0.013523,0.002678,0.000431,0.000940
17442000,0.0324,0.013523,0.002678,0.000431,0.001175
17443000,0.0324,0.013523,0.002678,0.000431,0.000940
17444000,0.0324,0.013523,0.002678,0.000431,0.001058
17445000,0.0324,0.013523,0.002678,0.000431,0.001058
17446000,0.0324,0.013523,0.002678,0.000431,0.001410
17447000,0.0324,0.013523,0.002678,0.000431,0.001175
17448000,0.0324,0.013523,0.002678,0.000431,0.001175
17449000,0.0324,0.013523,0.002678,0.000431,0.001645
17450000,0.0324,0.013523,0.002678,0.000431,0.001175
17451000,0.0324,0.013523,0.002678,0.000431,0.000940
17452000,0.0324,0.013523,0.002678,0.000431,0.001410
17453000,0.0324,0.013523,0.002678,0.000431,0.000705
17454000,0.0324,0.013523,0.002678,0.000431,0.000823
17455000,0.0324,0.013523,0.002678,0.000431,0.000940
17456000,0.0324,0.013523,0.002678,0.000431,0.001058
17457000,0.0324,0.013523,0.002678,0.000431,0.001175
17458000,0.0324,0.013523,0.002678,0.000431,0.000940
17459000,0.0324,0.013523,0.002678,0.000431,0.001293
17460000,0.0324,0.013523,0.002678,0.000431,0.000705
17461000,0.0324,0.013523,0.002678,0.000431,0.000823
17462000,0.0324,0.013523,0.002678,0.000431,0.000823
17463000,0.0324,0.013523,0.002678,0.000431,0.000940
17464000,0.0324,0.013523,0.002678,0.000431,0.001293
17465000,0.0324,0.013523,0.002678,0.000431,0.001293
17466000,0.0324,0.013523,0.002678,0.000431,0.000823
17467000,0.0324,0.013523,0.002678,0.000431,0.001175
17468000,0.0324,0.013523,0.002678,0.000431,0.000940
17469000,0.0324,0.013523,0.002678,0.000431,0.001175
17470000,0.0324,0.013523,0.002678,0.000431,0.001293
17471000,0.0324,0.013523,0.002678,0.000431,0.000940
17472000,0.0324,0.013523,0.002678,0.000431,0.001058
17473000,0.0324,0.013523,0.002678,0.000431,0.001175
17474000,0.0324,0.013523,0.002678,0.000431,0.000940
17475000,0.0324,0.013523,0.002678,0.000431,0.000940
17476000,0.0324,0.013523,0.002678,0.000431,0.001293
17477000,0.0324,0.013523,0.002678,0.000431,0.001058
17478000,0.0324,0.013523,0.002678,0.000431,0.001410
17479000,0.0324,0.013523,0.002678,0.000431,0.000940
17480000,0.0324,0.013523,0.002678,0.000431,0.000823
17481000,0.0324,0.013523,0.002678,0.000431,0.001058
17482000,0.0324,0.013523,0.002678,0.000431,0.001058
17483000,0.0324,0.013523,0.002678,0.000431,0.000940
17484000,0.0324,0.013523,0.002678,0.000431,0.001293
17485000,0.0324,0.013523,0.002678,0.000431,0.000940
17486000,0.0324,0.013523,0.002678,0.000431,0.001058
17487000,0.0324,0.013523,0.002678,0.000431,0.001175
17488000,0.0324,0.013523,0.002678,0.000431,0.001058
17489000,0.0324,0.013523,0.002678,0.000431,0.000940
17490000,0.0324,0.013523,0.002678,0.000431,0.000940
17491000,0.0324,0.013523,0.002678,0.000431,0.001175
17492000,0.0324,0.013523,0.002678,0.000431,0.001175
17493000,0.0324,0.013523,0.002678,0.000431,0.001410
17494000,0.0324,0.013523,0.002678,0.000431,0.001175
17495000,0.0324,0.013523,0.002678,0.000431,0.001410
17496000,0.0324,0.013523,0.002678,0.000431,0.001175
17497000,0.0324,0.013523,0.002678,0.000431,0.001410
17498000,0.0324,0.013523,0.002678,0.000431,0.001175
17499000,0.0324,0.013523,0.002678,0.000431,0.000940
17500000,0.0324,0.013523,0.002678,0.000431,0.001293
17501000,0.0324,0.013523,0.002678,0.000431,0.000940
17502000,0.0324,0.013523,0.002678,0.000431,0.000940
17503000,0.0324,0.013523,0.002678,0.000431,0.001293
17504000,0.0324,0.013523,0.002678,0.000431,0.001058
17505000,0.0324,0.013523,0.002678,0.000431,0.001058
17506000,0.0324,0.013523,0.002678,0.000431,0.001410
17507000,0.0324,0.013523,0.002678,0.000431,0.001293
17508000,0.0324,0.013523,0.002678,0.000431,0.000823
17509000,0.0324,0.013523,0.002678,0.000431,0.000940
17510000,0.0324,0.013523,0.002678,0.000431,0.000940
17511000,0.0324,0.013523,0.002678,0.000431,0.000940
17512000,0.0324,0.013523,0.002678,0.000431,0.001293
17513000,0.0324,0.013523,0.002678,0.000431,0.001058
17514000,0.0324,0.013523,0.002678,0.000431,0.001058
17515000,0.0324,0.013523,0.002678,0.000431,0.001293
17516000,0.0324,0.013523,0.002678,0.000431,0.000823
17517000,0.0324,0.013523,0.002678,0.000431,0.000705
17518000,0.0324,0.013523,0.002678,0.000431,0.000705
17519000,0.0324,0.013523,0.002678,0.000431,0.000705
17520000,0.0324,0.013523,0.002678,0.000431,0.001058
17521000,0.0324,0.013523,0.002678,0.000431,0.001293
17522000,0.0324,0.013523,0.002678,0.000431,0.000823
17523000,0.0324,0.013523,0.002678,0.000431,0.001293
17524000,0.0324,0.013523,0.002678,0.000431,0.000940
17525000,0.0324,0.013523,0.002678,0.000431,0.001058
17526000,0.0324,0.013523,0.002678,0.000431,0.001175
17527000,0.0324,0.013523,0.002678,0.000431,0.001175
17528000,0.0324,0.013523,0.002678,0.000431,0.000823
17529000,0.0324,0.013523,0.002678,0.000431,0.001293
17530000,0.0324,0.013523,0.002678,0.000431,0.001058
17531000,0.0324,0.013523,0.002678,0.000431,0.000940
17532000,0.0324,0.013523,0.002678,0.000431,0.001293
17533000,0.0324,0.013523,0.002678,0.000431,0.001175
17534000,0.0324,0.013523,0.002678,0.000431,0.001175
17535000,0.0324,0.013523,0.002678,0.000431,0.001058
17536000,0.0324,0.013523,0.002678,0.000431,0.000940
17537000,0.0324,0.013523,0.002678,0.000431,0.001058
17538000,0.0324,0.013523,0.002678,0.000431,0.001175
17539000,0.0324,0.013523,0.002678,0.000431,0.001058
17540000,0.0324,0.013523,0.002678,0.000431,0.000705
17541000,0.0324,0.013523,0.002678,0.000431,0.001175
17542000,0.0324,0.013523,0.002678,0.000431,0.000705
17543000,0.0324,0.013523,0.002678,0.000431,0.001528
17544000,0.0324,0.013523,0.002678,0.000431,0.000823
17545000,0.0324,0.013523,0.002678,0.000431,0.000705
17546000,0.0324,0.013523,0.002678,0.000431,0.001293
17547000,0.0324,0.013523,0.002678,0.000431,0.000940
17548000,0.0324,0.013523,0.002678,0.000431,0.001175
17549000,0.0324,0.013523,0.002678,0.000431,0.001410
17550000,0.0324,0.013523,0.002678,0.000431,0.001058
17551000,0.0324,0.013523,0.002678,0.000431,0.000823
17552000,0.0324,0.013523,0.002678,0.000431,0.001175
17553000,0.0324,0.013523,0.002678,0.000431,0.000940
17554000,0.0324,0.013523,0.002678,0.000431,0.000940
17555000,0.0324,0.013523,0.002678,0.000431,0.001410
17556000,0.0324,0.013523,0.002678,0.000431,0.001410
17557000,0.0324,0.013523,0.002678,0.000431,0.001058
17558000,0.0324,0.013523,0.002678,0.000431,0.001175
17559000,0.0324,0.013523,0.002678,0.000431,0.001058
17560000,0.0324,0.013523,0.002678,0.000431,0.001293
17561000,0.0324,0.013523,0.002678,0.000431,0.000940
17562000,0.0324,0.013523,0.002678,0.000431,0.001058
17563000,0.0324,0.013523,0.002678,0.000431,0.001175
17564000,0.0324,0.013523,0.002678,0.000431,0.001175
17565000,0.0324,0.013523,0.002678,0.000431,0.001058
17566000,0.0324,0.013523,0.002678,0.000431,0.000940
17567000,0.0324,0.013523,0.002678,0.000431,0.000823
17568000,0.0324,0.013523,0.002678,0.000431,0.001175
17569000,0.0324,0.013523,0.002678,0.000431,0.000823
17570000,0.0324,0.013523,0.002678,0.000431,0.001058
17571000,0.0324,0.013523,0.002678,0.000431,0.001175
17572000,0.0324,0.013523,0.002678,0.000431,0.000940
17573000,0.0324,0.013523,0.002678,0.000431,0.001175
17574000,0.0324,0.013523,0.002678,0.000431,0.001293
17575000,0.0324,0.013523,0.002678,0.000431,0.000940
17576000,0.0324,0.013523,0.002678,0.000431,0.000940
17577000,0.0324,0.013523,0.002678,0.000431,0.001528
17578000,0.0324,0.013523,0.002678,0.000431,0.000940
17579000,0.0324,0.013523,0.002678,0.000431,0.000940
17580000,0.0324,0.013523,0.002678,0.000431,0.001293
17581000,0.0324,0.013523,0.002678,0.000431,0.000940
17582000,0.0324,0.013523,0.002678,0.000431,0.001058
17583000,0.0324,0.013523,0.002678,0.000431,0.001175
17584000,0.0324,0.013523,0.002678,0.000431,0.000940
17585000,0.0324,0.013523,0.002678,0.000431,0.000940
17586000,0.0324,0.013523,0.002678,0.000431,0.001410
17587000,0.0324,0.013523,0.002678,0.000431,0.000823
17588000,0.0324,0.013523,0.002678,0.000431,0.001293
17589000,0.0324,0.013523,0.002678,0.000431,0.001645
17590000,0.0324,0.013523,0.002678,0.000431,0.000823
17591000,0.0324,0.013523,0.002678,0.000431,0.000823
17592000,0.0324,0.013523,0.002678,0.000431,0.001058
17593000,0.0324,0.013523,0.002678,0.000431,0.000705
17594000,0.0324,0.013523,0.002678,0.000431,0.000940
17595000,0.0324,0.013523,0.002678,0.000431,0.001058
17596000,0.0324,0.013523,0.002678,0.000431,0.001293
17597000,0.0324,0.013523,0.002678,0.000431,0.000940
17598000,0.0324,0.013523,0.002678,0.000431,0.001293
17599000,0.0324,0.013523,0.002678,0.000431,0.001058
17600000,0.0324,0.013523,0.002678,0.000431,0.001058
17601000,0.0324,0.013523,0.002678,0.000431,0.000940
17602000,0.0324,0.013523,0.002678,0.000431,0.001058
17603000,0.0324,0.013523,0.002678,0.000431,0.000940
17604000,0.0324,0.013523,0.002678,0.000431,0.001058
17605000,0.0324,0.013523,0.002678,0.000431,0.001058
17606000,0.0324,0.013523,0.002678,0.000431,0.001058
17607000,0.0324,0.013523,0.002678,0.000431,0.000940
17608000,0.0324,0.013523,0.002678,0.000431,0.000705
17609000,0.0324,0.013523,0.002678,0.000431,0.001293
17610000,0.0324,0.013523,0.002678,0.000431,0.001058
17611000,0.0324,0.013523,0.002678,0.000431,0.001058
17612000,0.0324,0.013523,0.002678,0.000431,0.001293
17613000,0.0324,0.013523,0.002678,0.000431,0.001410
17614000,0.0324,0.013523,0.002678,0.000431,0.001058
17615000,0.0324,0.013523,0.002678,0.000431,0.001058
17616000,0.0324,0.013523,0.002678,0.000431,0.000940
17617000,0.0324,0.013523,0.002678,0.000431,0.001058
17618000,0.0324,0.013523,0.002678,0.000431,0.001175
17619000,0.0324,0.013523,0.002678,0.000431,0.000940
17620000,0.0324,0.013523,0.002678,0.000431,0.001410
17621000,0.0324,0.013523,0.002678,0.000431,0.000705
17622000,0.0324,0.013523,0.002678,0.000431,0.000940
17623000,0.0324,0.013523,0.002678,0.000431,0.000940
17624000,0.0324,0.013523,0.002678,0.000431,0.000823
17625000,0.0324,0.013523,0.002678,0.000431,0.001175
17626000,0.0324,0.013523,0.002678,0.000431,0.000823
17627000,0.0324,0.013523,0.002678,0.000431,0.000823
17628000,0.0324,0.013523,0.002678,0.000431,0.001058
17629000,0.0324,0.013523,0.002678,0.000431,0.000940
17630000,0.0324,0.013523,0.002678,0.000431,0.000705
17631000,0.0324,0.013523,0.002678,0.000431,0.001058
17632000,0.0324,0.013523,0.002678,0.000431,0.001058
17633000,0.0324,0.013523,0.002678,0.000431,0.001293
17634000,0.0324,0.013523,0.002678,0.000431,0.000940
17635000,0.0324,0.013523,0.002678,0.000431,0.001293
17636000,0.0324,0.013523,0.002678,0.000431,0.000940
17637000,0.0324,0.013523,0.002678,0.000431,0.001175
17638000,0.0324,0.013523,0.002678,0.000431,0.000705
17639000,0.0324,0.013523,0.002678,0.000431,0.001058
17640000,0.0324,0.013523,0.002678,0.000431,0.001410
17641000,0.0324,0.013523,0.002678,0.000431,0.001175
17642000,0.0324,0.013523,0.002678,0.000431,0.000940
17643000,0.0324,0.013523,0.002678,0.000431,0.000940
17644000,0.0324,0.013523,0.002678,0.000431,0.001175
17645000,0.0324,0.013523,0.002678,0.000431,0.001410
17646000,0.0324,0.013523,0.002678,0.000431,0.001058
17647000,0.0324,0.013523,0.002678,0.000431,0.001175
17648000,0.0324,0.013523,0.002678,0.000431,0.001058
17649000,0.0324,0.013523,0.002678,0.000431,0.001410
17650000,0.0324,0.013523,0.002678,0.000431,0.001058
17651000,0.0324,0.013523,0.002678,0.000431,0.000823
17652000,0.0324,0.013523,0.002678,0.000431,0.001175
17653000,0.0324,0.013523,0.002678,0.000431,0.001175
17654000,0.0324,0.013523,0.002678,0.000431,0.001410
17655000,0.0324,0.013523,0.002678,0.000431,0.000705
17656000,0.0324,0.013523,0.002678,0.000431,0.001058
17657000,0.0324,0.013523,0.002678,0.000431,0.001058
17658000,0.0324,0.013523,0.002678,0.000431,0.001175
17659000,0.0324,0.013523,0.002678,0.000431,0.000705
17660000,0.0324,0.013523,0.002678,0.000431,0.001293
17661000,0.0324,0.013523,0.002678,0.000431,0.000940
17662000,0.0324,0.013523,0.002678,0.000431,0.000940
17663000,0.0324,0.013523,0.002678,0.000431,0.001058
17664000,0.0324,0.013523,0.002678,0.000431,0.001410
17665000,0.0324,0.013523,0.002678,0.000431,0.001058
17666000,0.0324,0.013523,0.002678,0.000431,0.000940
17667000,0.0324,0.013523,0.002678,0.000431,0.001058
17668000,0.0324,0.013523,0.002678,0.000431,0.000823
17669000,0.0324,0.013523,0.002678,0.000431,0.001293
17670000,0.0324,0.013523,0.002678,0.000431,0.000823
17671000,0.0324,0.013523,0.002678,0.000431,0.000705
17672000,0.0324,0.013523,0.002678,0.000431,0.001528
17673000,0.0324,0.013523,0.002678,0.000431,0.000940
17674000,0.0324,0.013523,0.002678,0.000431,0.000940
17675000,0.0324,0.013523,0.002678,0.000431,0.001410
17676000,0.0324,0.013523,0.002678,0.000431,0.001293
17677000,0.0324,0.013523,0.002678,0.000431,0.000705
17678000,0.0324,0.013523,0.002678,0.000431,0.000940
17679000,0.0324,0.013523,0.002678,0.000431,0.001293
17680000,0.0324,0.013523,0.002678,0.000431,0.000940
17681000,0.0324,0.013523,0.002678,0.000431,0.001645
17682000,0.0324,0.013523,0.002678,0.000431,0.001058
17683000,0.0324,0.013523,0.002678,0.000431,0.000705
17684000,0.0324,0.013523,0.002678,0.000431,0.001293
17685000,0.0324,0.013523,0.002678,0.000431,0.001058
17686000,0.0324,0.013523,0.002678,0.000431,0.001058
17687000,0.0324,0.013523,0.002678,0.000431,0.000940
17688000,0.0324,0.013523,0.002678,0.000431,0.000940
17689000,0.0324,0.013523,0.002678,0.000431,0.001175
17690000,0.0324,0.013523,0.002678,0.000431,0.001175
17691000,0.0324,0.013523,0.002678,0.000431,0.001058
17692000,0.0324,0.013523,0.002678,0.000431,0.001058
17693000,0.0324,0.013523,0.002678,0.000431,0.001410
17694000,0.0324,0.013523,0.002678,0.000431,0.001175
17695000,0.0324,0.013523,0.002678,0.000431,0.001410
17696000,0.0324,0.013523,0.002678,0.000431,0.000940
17697000,0.0324,0.013523,0.002678,0.000431,0.001058
17698000,0.0324,0.013523,0.002678,0.000431,0.001058
17699000,0.0324,0.013523,0.002678,0.000431,0.001293
17700000,0.0324,0.013523,0.002678,0.000431,0.000940
17701000,0.0324,0.013523,0.002678,0.000431,0.000940
17702000,0.0324,0.013523,0.002678,0.000431,0.001058
17703000,0.0324,0.013523,0.002678,0.000431,0.001058
17704000,0.0324,0.013523,0.002678,0.000431,0.001058
17705000,0.0324,0.013523,0.002678,0.000431,0.001175
17706000,0.0324,0.013523,0.002678,0.000431,0.001058
17707000,0.0324,0.013523,0.002678,0.000431,0.001293
17708000,0.0324,0.013523,0.002678,0.000431,0.000940
17709000,0.0324,0.013523,0.002678,0.000431,0.000940
17710000,0.0324,0.013523,0.002678,0.000431,0.000940
17711000,0.0324,0.013523,0.002678,0.000431,0.001410
17712000,0.0324,0.013523,0.002678,0.000431,0.000823
17713000,0.0324,0.013523,0.002678,0.000431,0.000823
17714000,0.0324,0.013523,0.002678,0.000431,0.000940
17715000,0.0324,0.013523,0.002678,0.000431,0.000940
17716000,0.0324,0.013523,0.002678,0.000431,0.001058
17717000,0.0324,0.013523,0.002678,0.000431,0.001058
17718000,0.0324,0.013523,0.002678,0.000431,0.000823
17719000,0.0324,0.013523,0.002678,0.000431,0.001293
17720000,0.0324,0.013523,0.002678,0.000431,0.001410
17721000,0.0324,0.013523,0.002678,0.000431,0.000823
17722000,0.0324,0.013523,0.002678,0.000431,0.001293
17723000,0.0324,0.013523,0.002678,0.000431,0.001175
17724000,0.0324,0.013523,0.002678,0.000431,0.001058
17725000,0.0324,0.013523,0.002678,0.000431,0.001293
17726000,0.0324,0.013523,0.002678,0.000431,0.001175
17727000,0.0324,0.013523,0.002678,0.000431,0.001293
17728000,0.0324,0.013523,0.002678,0.000431,0.001175
17729000,0.0324,0.013523,0.002678,0.000431,0.001175
17730000,0.0324,0.013523,0.002678,0.000431,0.000940
17731000,0.0324,0.013523,0.002678,0.000431,0.000940
17732000,0.0324,0.013523,0.002678,0.000431,0.001528
17733000,0.0324,0.013523,0.002678,0.000431,0.001058
17734000,0.0324,0.013523,0.002678,0.000431,0.000940
17735000,0.0324,0.013523,0.002678,0.000431,0.001175
17736000,0.0324,0.013523,0.002678,0.000431,0.000940
17737000,0.0324,0.013523,0.002678,0.000431,0.001175
17738000,0.0324,0.013523,0.002678,0.000431,0.001528
17739000,0.0324,0.013523,0.002678,0.000431,0.001293
17740000,0.0324,0.013523,0.002678,0.000431,0.001058
17741000,0.0324,0.013523,0.002678,0.000431,0.001058
17742000,0.0324,0.013523,0.002678,0.000431,0.000823
17743000,0.0324,0.013523,0.002678,0.000431,0.001293
17744000,0.0324,0.013523,0.002678,0.000431,0.000823
17745000,0.0324,0.013523,0.002678,0.000431,0.001293
17746000,0.0324,0.013523,0.002678,0.000431,0.001175
17747000,0.0324,0.013523,0.002678,0.000431,0.001175
17748000,0.0324,0.013523,0.002678,0.000431,0.001293
17749000,0.0324,0.013523,0.002678,0.000431,0.001175
17750000,0.0324,0.013523,0.002678,0.000431,0.001058
17751000,0.0324,0.013523,0.002678,0.000431,0.001058
17752000,0.0324,0.013523,0.002678,0.000431,0.001175
17753000,0.0324,0.013523,0.002678,0.000431,0.001058
17754000,0.0324,0.013523,0.002678,0.000431,0.000705
17755000,0.0324,0.013523,0.002678,0.000431,0.001528
17756000,0.0324,0.013523,0.002678,0.000431,0.001293
17757000,0.0324,0.013523,0.002678,0.000431,0.000823
17758000,0.0324,0.013523,0.002678,0.000431,0.001175
17759000,0.0324,0.013523,0.002678,0.000431,0.001058
17760000,0.0324,0.013523,0.002678,0.000431,0.001058
17761000,0.0324,0.013523,0.002678,0.000431,0.001410
17762000,0.0324,0.013523,0.002678,0.000431,0.001058
17763000,0.0324,0.013523,0.002678,0.000431,0.001058
17764000,0.0324,0.013523,0.002678,0.000431,0.001410
17765000,0.0324,0.013523,0.002678,0.000431,0.000940
17766000,0.0324,0.013523,0.002678,0.000431,0.001175
17767000,0.0324,0.013523,0.002678,0.000431,0.001175
17768000,0.0324,0.013523,0.002678,0.000431,0.001058
17769000,0.0324,0.013523,0.002678,0.000431,0.000940
17770000,0.0324,0.013523,0.002678,0.000431,0.001058
17771000,0.0324,0.013523,0.002678,0.000431,0.001058
17772000,0.0324,0.013523,0.002678,0.000431,0.001058
17773000,0.0324,0.013523,0.002678,0.000431,0.001175
17774000,0.0324,0.013523,0.002678,0.000431,0.000940
17775000,0.0324,0.013523,0.002678,0.000431,0.001058
17776000,0.0324,0.013523,0.002678,0.000431,0.001175
17777000,0.0324,0.013523,0.002678,0.000431,0.001058
17778000,0.0324,0.013523,0.002678,0.000431,0.000940
17779000,0.0324,0.013523,0.002678,0.000431,0.001175
17780000,0.0324,0.013523,0.002678,0.000431,0.001058
17781000,0.0324,0.013523,0.002678,0.000431,0.000940
17782000,0.0324,0.013523,0.002678,0.000431,0.001293
17783000,0.0324,0.013523,0.002678,0.000431,0.001058
17784000,0.0324,0.013523,0.002678,0.000431,0.001293
17785000,0.0324,0.013523,0.002678,0.000431,0.001293
17786000,0.0324,0.013523,0.002678,0.000431,0.000705
17787000,0.0324,0.013523,0.002678,0.000431,0.001293
17788000,0.0324,0.013523,0.002678,0.000431,0.001410
17789000,0.0324,0.013523,0.002678,0.000431,0.001058
17790000,0.0324,0.013523,0.002678,0.000431,0.001293
17791000,0.0324,0.013523,0.002678,0.000431,0.001410
17792000,0.0324,0.013523,0.002678,0.000431,0.001293
17793000,0.0324,0.013523,0.002678,0.000431,0.000940
17794000,0.0324,0.013523,0.002678,0.000431,0.001058
17795000,0.0324,0.013523,0.002678,0.000431,0.000940
17796000,0.0324,0.013523,0.002678,0.000431,0.000823
17797000,0.0324,0.013523,0.002678,0.000431,0.001293
17798000,0.0324,0.013523,0.002678,0.000431,0.000823
17799000,0.0324,0.013523,0.002678,0.000431,0.001293
17800000,0.0324,0.013523,0.002678,0.000431,0.001293
17801000,0.0324,0.013523,0.002678,0.000431,0.001293
17802000,0.0324,0.013523,0.002678,0.000431,0.000705
17803000,0.0324,0.013523,0.002678,0.000431,0.001058
17804000,0.0324,0.013523,0.002678,0.000431,0.001058
17805000,0.0324,0.013523,0.002678,0.000431,0.001175
17806000,0.0324,0.013523,0.002678,0.000431,0.001410
17807000,0.0324,0.013523,0.002678,0.000431,0.001410
17808000,0.0324,0.013523,0.002678,0.000431,0.001175
17809000,0.0324,0.013523,0.002678,0.000431,0.001175
17810000,0.0324,0.013523,0.002678,0.000431,0.001175
17811000,0.0324,0.013523,0.002678,0.000431,0.001058
17812000,0.0324,0.013523,0.002678,0.000431,0.001058
17813000,0.0324,0.013523,0.002678,0.000431,0.001293
17814000,0.0324,0.013523,0.002678,0.000431,0.000823
17815000,0.0324,0.013523,0.002678,0.000431,0.001175
17816000,0.0324,0.013523,0.002678,0.000431,0.001058
17817000,0.0324,0.013523,0.002678,0.000431,0.000940
17818000,0.0324,0.013523,0.002678,0.000431,0.001293
17819000,0.0324,0.013523,0.002678,0.000431,0.001293
17820000,0.0324,0.013523,0.002678,0.000431,0.001058
17821000,0.0324,0.013523,0.002678,0.000431,0.001175
17822000,0.0324,0.013523,0.002678,0.000431,0.001058
17823000,0.0324,0.013523,0.002678,0.000431,0.001293
17824000,0.0324,0.013523,0.002678,0.000431,0.001293
17825000,0.0324,0.013523,0.002678,0.000431,0.001058
17826000,0.0324,0.013523,0.002678,0.000431,0.001410
17827000,0.0324,0.013523,0.002678,0.000431,0.001058
17828000,0.0324,0.013523,0.002678,0.000431,0.001058
17829000,0.0324,0.013523,0.002678,0.000431,0.001175
17830000,0.0324,0.013523,0.002678,0.000431,0.001058
17831000,0.0324,0.013523,0.002678,0.000431,0.000823
17832000,0.0324,0.013523,0.002678,0.000431,0.001410
17833000,0.0324,0.013523,0.002678,0.000431,0.000823
17834000,0.0324,0.013523,0.002678,0.000431,0.001058
17835000,0.0324,0.013523,0.002678,0.000431,0.001410
17836000,0.0324,0.013523,0.002678,0.000431,0.000823
17837000,0.0324,0.013523,0.002678,0.000431,0.001058
17838000,0.0324,0.013523,0.002678,0.000431,0.001410
17839000,0.0324,0.013523,0.002678,0.000431,0.001058
17840000,0.0324,0.013523,0.002678,0.000431,0.000940
17841000,0.0324,0.013523,0.002678,0.000431,0.001058
17842000,0.0324,0.013523,0.002678,0.000431,0.001293
17843000,0.0324,0.013523,0.002678,0.000431,0.000940
17844000,0.0324,0.013523,0.002678,0.000431,0.001293
17845000,0.0324,0.013523,0.002678,0.000431,0.001293
17846000,0.0324,0.013523,0.002678,0.000431,0.001058
17847000,0.0324,0.013523,0.002678,0.000431,0.001410
17848000,0.0324,0.013523,0.002678,0.000431,0.001293
17849000,0.0324,0.013523,0.002678,0.000431,0.000823
17850000,0.0324,0.013523,0.002678,0.000431,0.001410
17851000,0.0324,0.013523,0.002678,0.000431,0.000823
17852000,0.0324,0.013523,0.002678,0.000431,0.001058
17853000,0.0324,0.013523,0.002678,0.000431,0.001410
17854000,0.0324,0.013523,0.002678,0.000431,0.001175
17855000,0.0324,0.013523,0.002678,0.000431,0.000940
17856000,0.0324,0.013523,0.002678,0.000431,0.001175
17857000,0.0324,0.013523,0.002678,0.000431,0.001175
17858000,0.0324,0.013523,0.002678,0.000431,0.001058
17859000,0.0324,0.013523,0.002678,0.000431,0.001058
17860000,0.0324,0.013523,0.002678,0.000431,0.001293
17861000,0.0324,0.013523,0.002678,0.000431,0.000705
17862000,0.0324,0.013523,0.002678,0.000431,0.001058
17863000,0.0324,0.013523,0.002678,0.000431,0.001410
17864000,0.0324,0.013523,0.002678,0.000431,0.000823
17865000,0.0324,0.013523,0.002678,0.000431,0.001058
17866000,0.0324,0.013523,0.002678,0.000431,0.001528
17867000,0.0324,0.013523,0.002678,0.000431,0.000823
17868000,0.0324,0.013523,0.002678,0.000431,0.001293
17869000,0.0324,0.013523,0.002678,0.000431,0.001175
17870000,0.0324,0.013523,0.002678,0.000431,0.000823
17871000,0.0324,0.013523,0.002678,0.000431,0.001175
17872000,0.0324,0.013523,0.002678,0.000431,0.000823
17873000,0.0324,0.013523,0.002678,0.000431,0.001293
17874000,0.0324,0.013523,0.002678,0.000431,0.001058
17875000,0.0324,0.013523,0.002678,0.000431,0.001175
17876000,0.0324,0.013523,0.002678,0.000431,0.001058
17877000,0.0324,0.013523,0.002678,0.000431,0.001175
17878000,0.0324,0.013523,0.002678,0.000431,0.001058
17879000,0.0324,0.013523,0.002678,0.000431,0.001058
17880000,0.0324,0.013523,0.002678,0.000431,0.001293
17881000,0.0324,0.013523,0.002678,0.000431,0.001645
17882000,0.0324,0.013523,0.002678,0.000431,0.000940
17883000,0.0324,0.013523,0.002678,0.000431,0.001058
17884000,0.0324,0.013523,0.002678,0.000431,0.001175
17885000,0.0324,0.013523,0.002678,0.000431,0.001175
17886000,0.0324,0.013523,0.002678,0.000431,0.000823
17887000,0.0324,0.013523,0.002678,0.000431,0.001175
17888000,0.0324,0.013523,0.002678,0.000431,0.000940
17889000,0.0324,0.013523,0.002678,0.000431,0.001058
17890000,0.0324,0.013523,0.002678,0.000431,0.000940
17891000,0.0324,0.013523,0.002678,0.000431,0.000940
17892000,0.0324,0.013523,0.002678,0.000431,0.001175
17893000,0.0324,0.013523,0.002678,0.000431,0.001175
17894000,0.0324,0.013523,0.002678,0.000431,0.001058
17895000,0.0324,0.013523,0.002678,0.000431,0.001528
17896000,0.0324,0.013523,0.002678,0.000431,0.001528
17897000,0.0324,0.013523,0.002678,0.000431,0.000940
17898000,0.0324,0.013523,0.002678,0.000431,0.000940
17899000,0.0324,0.013523,0.002678,0.000431,0.001058
17900000,0.0324,0.013523,0.002678,0.000431,0.001058
17901000,0.0324,0.013523,0.002678,0.000431,0.001293
17902000,0.0324,0.013523,0.002678,0.000431,0.000940
17903000,0.0324,0.013523,0.002678,0.000431,0.001058
17904000,0.0324,0.013523,0.002678,0.000431,0.001293
17905000,0.0324,0.013523,0.002678,0.000431,0.001058
17906000,0.0324,0.013523,0.002678,0.000431,0.000823
17907000,0.0324,0.013523,0.002678,0.000431,0.001645
17908000,0.0324,0.013523,0.002678,0.000431,0.001058
17909000,0.0324,0.013523,0.002678,0.000431,0.000705
17910000,0.0324,0.013523,0.002678,0.000431,0.000940
17911000,0.0324,0.013523,0.002678,0.000431,0.001175
17912000,0.0324,0.013523,0.002678,0.000431,0.001058
17913000,0.0324,0.013523,0.002678,0.000431,0.001175
17914000,0.0324,0.013523,0.002678,0.000431,0.000823
17915000,0.0324,0.013523,0.002678,0.000431,0.000823
17916000,0.0324,0.013523,0.002678,0.000431,0.001058
17917000,0.0324,0.013523,0.002678,0.000431,0.001410
17918000,0.0324,0.013523,0.002678,0.000431,0.000705
17919000,0.0324,0.013523,0.002678,0.000431,0.001058
17920000,0.0324,0.013523,0.002678,0.000431,0.000940
17921000,0.0324,0.013523,0.002678,0.000431,0.000940
17922000,0.0324,0.013523,0.002678,0.000431,0.001410
17923000,0.0324,0.013523,0.002678,0.000431,0.001058
17924000,0.0324,0.013523,0.002678,0.000431,0.000705
17925000,0.0324,0.013523,0.002678,0.000431,0.001058
17926000,0.0324,0.013523,0.002678,0.000431,0.001410
17927000,0.0324,0.013523,0.002678,0.000431,0.000940
17928000,0.0324,0.013523,0.002678,0.000431,0.001175
17929000,0.0324,0.013523,0.002678,0.000431,0.001175
17930000,0.0324,0.013523,0.002678,0.000431,0.000823
17931000,0.0324,0.013523,0.002678,0.000431,0.000940
17932000,0.0324,0.013523,0.002678,0.000431,0.001410
17933000,0.0324,0.013523,0.002678,0.000431,0.000588
17934000,0.0324,0.013523,0.002678,0.000431,0.001293
17935000,0.0324,0.013523,0.002678,0.000431,0.000705
17936000,0.0324,0.013523,0.002678,0.000431,0.001293
17937000,0.0324,0.013523,0.002678,0.000431,0.001058
17938000,0.0324,0.013523,0.002678,0.000431,0.000940
17939000,0.0324,0.013523,0.002678,0.000431,0.001293
17940000,0.0324,0.013523,0.002678,0.000431,0.001175
17941000,0.0324,0.013523,0.002678,0.000431,0.001058
17942000,0.0324,0.013523,0.002678,0.000431,0.001293
17943000,0.0324,0.013523,0.002678,0.000431,0.001645
17944000,0.0324,0.013523,0.002678,0.000431,0.001058
17945000,0.0324,0.013523,0.002678,0.000431,0.000940
17946000,0.0324,0.013523,0.002678,0.000431,0.001293
17947000,0.0324,0.013523,0.002678,0.000431,0.001175
17948000,0.0324,0.013523,0.002678,0.000431,0.000940
17949000,0.0324,0.013523,0.002678,0.000431,0.001410
17950000,0.0324,0.013523,0.002678,0.000431,0.000940
17951000,0.0324,0.013523,0.002678,0.000431,0.001175
17952000,0.0324,0.013523,0.002678,0.000431,0.001293
17953000,0.0324,0.013523,0.002678,0.000431,0.000940
17954000,0.0324,0.013523,0.002678,0.000431,0.001058
17955000,0.0324,0.013523,0.002678,0.000431,0.001175
17956000,0.0324,0.013523,0.002678,0.000431,0.000940
17957000,0.0324,0.013523,0.002678,0.000431,0.001175
17958000,0.0324,0.013523,0.002678,0.000431,0.001293
17959000,0.0324,0.013523,0.002678,0.000431,0.000940
17960000,0.0324,0.013523,0.002678,0.000431,0.001058
17961000,0.0324,0.013523,0.002678,0.000431,0.000940
17962000,0.0324,0.013523,0.002678,0.000431,0.001175
17963000,0.0324,0.013523,0.002678,0.000431,0.000940
17964000,0.0324,0.013523,0.002678,0.000431,0.001175
17965000,0.0324,0.013523,0.002678,0.000431,0.000823
17966000,0.0324,0.013523,0.002678,0.000431,0.000940
17967000,0.0324,0.013523,0.002678,0.000431,0.001293
17968000,0.0324,0.013523,0.002678,0.000431,0.001058
17969000,0.0324,0.013523,0.002678,0.000431,0.001058
17970000,0.0324,0.013523,0.002678,0.000431,0.001645
17971000,0.0324,0.013523,0.002678,0.000431,0.001058
17972000,0.0324,0.013523,0.002678,0.000431,0.001175
17973000,0.0324,0.013523,0.002678,0.000431,0.000940
17974000,0.0324,0.013523,0.002678,0.000431,0.000940
17975000,0.0324,0.013523,0.002678,0.000431,0.001058
17976000,0.0324,0.013523,0.002678,0.000431,0.001293
17977000,0.0324,0.013523,0.002678,0.000431,0.000705
17978000,0.0324,0.013523,0.002678,0.000431,0.001293
17979000,0.0324,0.013523,0.002678,0.000431,0.001645
17980000,0.0324,0.013523,0.002678,0.000431,0.000823
17981000,0.0324,0.013523,0.002678,0.000431,0.001293
17982000,0.0324,0.013523,0.002678,0.000431,0.001175
17983000,0.0324,0.013523,0.002678,0.000431,0.000940
17984000,0.0324,0.013523,0.002678,0.000431,0.001175
17985000,0.0324,0.013523,0.002678,0.000431,0.000940
17986000,0.0324,0.013523,0.002678,0.000431,0.000940
17987000,0.0324,0.013523,0.002678,0.000431,0.001175
17988000,0.0324,0.013523,0.002678,0.000431,0.001645
17989000,0.0324,0.013523,0.002678,0.000431,0.000940
17990000,0.0324,0.013523,0.002678,0.000431,0.000823
17991000,0.0324,0.013523,0.002678,0.000431,0.001058
17992000,0.0324,0.013523,0.002678,0.000431,0.001175
17993000,0.0324,0.013523,0.002678,0.000431,0.000940
17994000,0.0324,0.013523,0.002678,0.000431,0.001645
17995000,0.0324,0.013523,0.002678,0.000431,0.001175
17996000,0.0324,0.013523,0.002678,0.000431,0.001058
17997000,0.0324,0.013523,0.002678,0.000431,0.001293
17998000,0.0324,0.013523,0.002678,0.000431,0.001175
17999000,0.0324,0.013523,0.002678,0.000431,0.000823
