Cycle,Area(mm^2),PeakDynamic(W),SubthresholdLeakage(W),GateLeakage(W),RunTimeDynamic(W)
1000,0.0324,0.013523,0.002678,0.000431,0.007992
2000,0.0324,0.013523,0.002678,0.000431,0.000000
3000,0.0324,0.013523,0.002678,0.000431,0.000000
4000,0.0324,0.013523,0.002678,0.000431,0.000000
5000,0.0324,0.013523,0.002678,0.000431,0.000000
6000,0.0324,0.013523,0.002678,0.000431,0.031027
7000,0.0324,0.013523,0.002678,0.000431,0.031733
8000,0.0324,0.013523,0.002678,0.000431,0.015044
9000,0.0324,0.013523,0.002678,0.000431,0.009872
10000,0.0324,0.013523,0.002678,0.000431,0.012105
11000,0.0324,0.013523,0.002678,0.000431,0.011870
12000,0.0324,0.013523,0.002678,0.000431,0.014926
13000,0.0324,0.013523,0.002678,0.000431,0.014926
14000,0.0324,0.013523,0.002678,0.000431,0.019392
15000,0.0324,0.013523,0.002678,0.000431,0.014456
16000,0.0324,0.013523,0.002678,0.000431,0.017042
17000,0.0324,0.013523,0.002678,0.000431,0.011988
18000,0.0324,0.013523,0.002678,0.000431,0.014926
19000,0.0324,0.013523,0.002678,0.000431,0.017982
20000,0.0324,0.013523,0.002678,0.000431,0.019040
21000,0.0324,0.013523,0.002678,0.000431,0.018569
22000,0.0324,0.013523,0.002678,0.000431,0.014103
23000,0.0324,0.013523,0.002678,0.000431,0.020920
24000,0.0324,0.013523,0.002678,0.000431,0.022683
25000,0.0324,0.013523,0.002678,0.000431,0.019745
26000,0.0324,0.013523,0.002678,0.000431,0.016219
27000,0.0324,0.013523,0.002678,0.000431,0.022800
28000,0.0324,0.013523,0.002678,0.000431,0.019980
29000,0.0324,0.013523,0.002678,0.000431,0.021743
30000,0.0324,0.013523,0.002678,0.000431,0.013163
31000,0.0324,0.013523,0.002678,0.000431,0.021978
32000,0.0324,0.013523,0.002678,0.000431,0.021155
33000,0.0324,0.013523,0.002678,0.000431,0.021743
34000,0.0324,0.013523,0.002678,0.000431,0.013868
35000,0.0324,0.013523,0.002678,0.000431,0.023623
36000,0.0324,0.013523,0.002678,0.000431,0.021743
37000,0.0324,0.013523,0.002678,0.000431,0.015749
38000,0.0324,0.013523,0.002678,0.000431,0.021860
39000,0.0324,0.013523,0.002678,0.000431,0.020097
40000,0.0324,0.013523,0.002678,0.000431,0.021155
41000,0.0324,0.013523,0.002678,0.000431,0.023506
42000,0.0324,0.013523,0.002678,0.000431,0.021978
43000,0.0324,0.013523,0.002678,0.000431,0.023506
44000,0.0324,0.013523,0.002678,0.000431,0.020450
45000,0.0324,0.013523,0.002678,0.000431,0.019627
46000,0.0324,0.013523,0.002678,0.000431,0.024211
47000,0.0324,0.013523,0.002678,0.000431,0.021155
48000,0.0324,0.013523,0.002678,0.000431,0.019510
49000,0.0324,0.013523,0.002678,0.000431,0.021743
50000,0.0324,0.013523,0.002678,0.000431,0.025739
51000,0.0324,0.013523,0.002678,0.000431,0.022095
52000,0.0324,0.013523,0.002678,0.000431,0.018334
53000,0.0324,0.013523,0.002678,0.000431,0.028324
54000,0.0324,0.013523,0.002678,0.000431,0.020097
55000,0.0324,0.013523,0.002678,0.000431,0.021978
56000,0.0324,0.013523,0.002678,0.000431,0.023858
57000,0.0324,0.013523,0.002678,0.000431,0.024563
58000,0.0324,0.013523,0.002678,0.000431,0.029029
59000,0.0324,0.013523,0.002678,0.000431,0.017982
60000,0.0324,0.013523,0.002678,0.000431,0.022095
61000,0.0324,0.013523,0.002678,0.000431,0.023153
62000,0.0324,0.013523,0.002678,0.000431,0.027267
63000,0.0324,0.013523,0.002678,0.000431,0.022683
64000,0.0324,0.013523,0.002678,0.000431,0.020450
65000,0.0324,0.013523,0.002678,0.000431,0.024446
66000,0.0324,0.013523,0.002678,0.000431,0.025974
67000,0.0324,0.013523,0.002678,0.000431,0.026444
68000,0.0324,0.013523,0.002678,0.000431,0.012576
69000,0.0324,0.013523,0.002678,0.000431,0.026796
70000,0.0324,0.013523,0.002678,0.000431,0.029029
71000,0.0324,0.013523,0.002678,0.000431,0.019745
72000,0.0324,0.013523,0.002678,0.000431,0.021038
73000,0.0324,0.013523,0.002678,0.000431,0.025269
74000,0.0324,0.013523,0.002678,0.000431,0.024681
75000,0.0324,0.013523,0.002678,0.000431,0.025151
76000,0.0324,0.013523,0.002678,0.000431,0.018922
77000,0.0324,0.013523,0.002678,0.000431,0.022918
78000,0.0324,0.013523,0.002678,0.000431,0.022683
79000,0.0324,0.013523,0.002678,0.000431,0.018922
80000,0.0324,0.013523,0.002678,0.000431,0.025034
81000,0.0324,0.013523,0.002678,0.000431,0.023271
82000,0.0324,0.013523,0.002678,0.000431,0.027737
83000,0.0324,0.013523,0.002678,0.000431,0.021273
84000,0.0324,0.013523,0.002678,0.000431,0.027972
85000,0.0324,0.013523,0.002678,0.000431,0.024798
86000,0.0324,0.013523,0.002678,0.000431,0.024563
87000,0.0324,0.013523,0.002678,0.000431,0.024681
88000,0.0324,0.013523,0.002678,0.000431,0.019510
89000,0.0324,0.013523,0.002678,0.000431,0.022565
90000,0.0324,0.013523,0.002678,0.000431,0.029147
91000,0.0324,0.013523,0.002678,0.000431,0.025386
92000,0.0324,0.013523,0.002678,0.000431,0.029617
93000,0.0324,0.013523,0.002678,0.000431,0.018922
94000,0.0324,0.013523,0.002678,0.000431,0.020920
95000,0.0324,0.013523,0.002678,0.000431,0.030557
96000,0.0324,0.013523,0.002678,0.000431,0.023271
97000,0.0324,0.013523,0.002678,0.000431,0.019040
98000,0.0324,0.013523,0.002678,0.000431,0.023388
99000,0.0324,0.013523,0.002678,0.000431,0.022213
100000,0.0324,0.013523,0.002678,0.000431,0.027384
101000,0.0324,0.013523,0.002678,0.000431,0.018217
102000,0.0324,0.013523,0.002678,0.000431,0.023153
103000,0.0324,0.013523,0.002678,0.000431,0.022800
104000,0.0324,0.013523,0.002678,0.000431,0.023388
105000,0.0324,0.013523,0.002678,0.000431,0.021038
106000,0.0324,0.013523,0.002678,0.000431,0.023506
107000,0.0324,0.013523,0.002678,0.000431,0.029617
108000,0.0324,0.013523,0.002678,0.000431,0.020567
109000,0.0324,0.013523,0.002678,0.000431,0.022800
110000,0.0324,0.013523,0.002678,0.000431,0.023623
111000,0.0324,0.013523,0.002678,0.000431,0.026209
112000,0.0324,0.013523,0.002678,0.000431,0.022918
113000,0.0324,0.013523,0.002678,0.000431,0.023976
114000,0.0324,0.013523,0.002678,0.000431,0.027854
115000,0.0324,0.013523,0.002678,0.000431,0.024916
116000,0.0324,0.013523,0.002678,0.000431,0.017864
117000,0.0324,0.013523,0.002678,0.000431,0.022800
118000,0.0324,0.013523,0.002678,0.000431,0.025269
119000,0.0324,0.013523,0.002678,0.000431,0.025269
120000,0.0324,0.013523,0.002678,0.000431,0.018922
121000,0.0324,0.013523,0.002678,0.000431,0.024916
122000,0.0324,0.013523,0.002678,0.000431,0.024798
123000,0.0324,0.013523,0.002678,0.000431,0.021625
124000,0.0324,0.013523,0.002678,0.000431,0.025151
125000,0.0324,0.013523,0.002678,0.000431,0.026326
126000,0.0324,0.013523,0.002678,0.000431,0.023271
127000,0.0324,0.013523,0.002678,0.000431,0.022683
128000,0.0324,0.013523,0.002678,0.000431,0.023153
129000,0.0324,0.013523,0.002678,0.000431,0.028794
130000,0.0324,0.013523,0.002678,0.000431,0.026796
131000,0.0324,0.013523,0.002678,0.000431,0.026444
132000,0.0324,0.013523,0.002678,0.000431,0.024798
133000,0.0324,0.013523,0.002678,0.000431,0.021038
134000,0.0324,0.013523,0.002678,0.000431,0.029735
135000,0.0324,0.013523,0.002678,0.000431,0.024563
136000,0.0324,0.013523,0.002678,0.000431,0.019980
137000,0.0324,0.013523,0.002678,0.000431,0.023271
138000,0.0324,0.013523,0.002678,0.000431,0.023506
139000,0.0324,0.013523,0.002678,0.000431,0.026679
140000,0.0324,0.013523,0.002678,0.000431,0.025151
141000,0.0324,0.013523,0.002678,0.000431,0.025269
142000,0.0324,0.013523,0.002678,0.000431,0.021860
143000,0.0324,0.013523,0.002678,0.000431,0.022095
144000,0.0324,0.013523,0.002678,0.000431,0.030205
145000,0.0324,0.013523,0.002678,0.000431,0.028089
146000,0.0324,0.013523,0.002678,0.000431,0.019980
147000,0.0324,0.013523,0.002678,0.000431,0.025856
148000,0.0324,0.013523,0.002678,0.000431,0.023858
149000,0.0324,0.013523,0.002678,0.000431,0.021155
150000,0.0324,0.013523,0.002678,0.000431,0.023388
151000,0.0324,0.013523,0.002678,0.000431,0.022448
152000,0.0324,0.013523,0.002678,0.000431,0.024798
153000,0.0324,0.013523,0.002678,0.000431,0.025856
154000,0.0324,0.013523,0.002678,0.000431,0.025621
155000,0.0324,0.013523,0.002678,0.000431,0.022448
156000,0.0324,0.013523,0.002678,0.000431,0.021508
157000,0.0324,0.013523,0.002678,0.000431,0.023623
158000,0.0324,0.013523,0.002678,0.000431,0.026796
159000,0.0324,0.013523,0.002678,0.000431,0.023623
160000,0.0324,0.013523,0.002678,0.000431,0.021625
161000,0.0324,0.013523,0.002678,0.000431,0.019157
162000,0.0324,0.013523,0.002678,0.000431,0.025269
163000,0.0324,0.013523,0.002678,0.000431,0.023388
164000,0.0324,0.013523,0.002678,0.000431,0.019157
165000,0.0324,0.013523,0.002678,0.000431,0.024563
166000,0.0324,0.013523,0.002678,0.000431,0.028442
167000,0.0324,0.013523,0.002678,0.000431,0.021625
168000,0.0324,0.013523,0.002678,0.000431,0.022213
169000,0.0324,0.013523,0.002678,0.000431,0.026796
170000,0.0324,0.013523,0.002678,0.000431,0.020215
171000,0.0324,0.013523,0.002678,0.000431,0.023153
172000,0.0324,0.013523,0.002678,0.000431,0.019040
173000,0.0324,0.013523,0.002678,0.000431,0.024446
174000,0.0324,0.013523,0.002678,0.000431,0.020215
175000,0.0324,0.013523,0.002678,0.000431,0.025269
176000,0.0324,0.013523,0.002678,0.000431,0.025269
177000,0.0324,0.013523,0.002678,0.000431,0.021038
178000,0.0324,0.013523,0.002678,0.000431,0.019627
179000,0.0324,0.013523,0.002678,0.000431,0.022918
180000,0.0324,0.013523,0.002678,0.000431,0.021860
181000,0.0324,0.013523,0.002678,0.000431,0.021743
182000,0.0324,0.013523,0.002678,0.000431,0.023858
183000,0.0324,0.013523,0.002678,0.000431,0.020920
184000,0.0324,0.013523,0.002678,0.000431,0.023976
185000,0.0324,0.013523,0.002678,0.000431,0.021508
186000,0.0324,0.013523,0.002678,0.000431,0.025739
187000,0.0324,0.013523,0.002678,0.000431,0.020920
188000,0.0324,0.013523,0.002678,0.000431,0.025504
189000,0.0324,0.013523,0.002678,0.000431,0.023858
190000,0.0324,0.013523,0.002678,0.000431,0.022213
191000,0.0324,0.013523,0.002678,0.000431,0.022095
192000,0.0324,0.013523,0.002678,0.000431,0.024211
193000,0.0324,0.013523,0.002678,0.000431,0.022213
194000,0.0324,0.013523,0.002678,0.000431,0.023036
195000,0.0324,0.013523,0.002678,0.000431,0.021390
196000,0.0324,0.013523,0.002678,0.000431,0.024328
197000,0.0324,0.013523,0.002678,0.000431,0.016924
198000,0.0324,0.013523,0.002678,0.000431,0.021743
199000,0.0324,0.013523,0.002678,0.000431,0.023741
200000,0.0324,0.013523,0.002678,0.000431,0.019862
201000,0.0324,0.013523,0.002678,0.000431,0.022213
202000,0.0324,0.013523,0.002678,0.000431,0.019980
203000,0.0324,0.013523,0.002678,0.000431,0.022448
204000,0.0324,0.013523,0.002678,0.000431,0.022565
205000,0.0324,0.013523,0.002678,0.000431,0.027854
206000,0.0324,0.013523,0.002678,0.000431,0.028442
207000,0.0324,0.013523,0.002678,0.000431,0.025269
208000,0.0324,0.013523,0.002678,0.000431,0.022330
209000,0.0324,0.013523,0.002678,0.000431,0.021860
210000,0.0324,0.013523,0.002678,0.000431,0.020450
211000,0.0324,0.013523,0.002678,0.000431,0.023271
212000,0.0324,0.013523,0.002678,0.000431,0.026326
213000,0.0324,0.013523,0.002678,0.000431,0.021743
214000,0.0324,0.013523,0.002678,0.000431,0.017512
215000,0.0324,0.013523,0.002678,0.000431,0.022800
216000,0.0324,0.013523,0.002678,0.000431,0.023271
217000,0.0324,0.013523,0.002678,0.000431,0.022918
218000,0.0324,0.013523,0.002678,0.000431,0.027384
219000,0.0324,0.013523,0.002678,0.000431,0.021978
220000,0.0324,0.013523,0.002678,0.000431,0.023506
221000,0.0324,0.013523,0.002678,0.000431,0.023506
222000,0.0324,0.013523,0.002678,0.000431,0.019627
223000,0.0324,0.013523,0.002678,0.000431,0.021038
224000,0.0324,0.013523,0.002678,0.000431,0.027149
225000,0.0324,0.013523,0.002678,0.000431,0.024446
226000,0.0324,0.013523,0.002678,0.000431,0.021860
227000,0.0324,0.013523,0.002678,0.000431,0.023153
228000,0.0324,0.013523,0.002678,0.000431,0.027267
229000,0.0324,0.013523,0.002678,0.000431,0.021038
230000,0.0324,0.013523,0.002678,0.000431,0.026561
231000,0.0324,0.013523,0.002678,0.000431,0.023506
232000,0.0324,0.013523,0.002678,0.000431,0.026914
233000,0.0324,0.013523,0.002678,0.000431,0.023506
234000,0.0324,0.013523,0.002678,0.000431,0.018452
235000,0.0324,0.013523,0.002678,0.000431,0.021038
236000,0.0324,0.013523,0.002678,0.000431,0.021155
237000,0.0324,0.013523,0.002678,0.000431,0.022800
238000,0.0324,0.013523,0.002678,0.000431,0.023858
239000,0.0324,0.013523,0.002678,0.000431,0.025621
240000,0.0324,0.013523,0.002678,0.000431,0.022918
241000,0.0324,0.013523,0.002678,0.000431,0.021273
242000,0.0324,0.013523,0.002678,0.000431,0.019627
243000,0.0324,0.013523,0.002678,0.000431,0.023741
244000,0.0324,0.013523,0.002678,0.000431,0.024681
245000,0.0324,0.013523,0.002678,0.000431,0.017629
246000,0.0324,0.013523,0.002678,0.000431,0.024328
247000,0.0324,0.013523,0.002678,0.000431,0.023858
248000,0.0324,0.013523,0.002678,0.000431,0.023153
249000,0.0324,0.013523,0.002678,0.000431,0.018334
250000,0.0324,0.013523,0.002678,0.000431,0.028207
251000,0.0324,0.013523,0.002678,0.000431,0.021508
252000,0.0324,0.013523,0.002678,0.000431,0.018922
253000,0.0324,0.013523,0.002678,0.000431,0.021978
254000,0.0324,0.013523,0.002678,0.000431,0.023153
255000,0.0324,0.013523,0.002678,0.000431,0.020097
256000,0.0324,0.013523,0.002678,0.000431,0.019275
257000,0.0324,0.013523,0.002678,0.000431,0.023506
258000,0.0324,0.013523,0.002678,0.000431,0.031027
259000,0.0324,0.013523,0.002678,0.000431,0.021155
260000,0.0324,0.013523,0.002678,0.000431,0.022448
261000,0.0324,0.013523,0.002678,0.000431,0.027502
262000,0.0324,0.013523,0.002678,0.000431,0.021508
263000,0.0324,0.013523,0.002678,0.000431,0.019862
264000,0.0324,0.013523,0.002678,0.000431,0.023623
265000,0.0324,0.013523,0.002678,0.000431,0.022683
266000,0.0324,0.013523,0.002678,0.000431,0.021743
267000,0.0324,0.013523,0.002678,0.000431,0.023976
268000,0.0324,0.013523,0.002678,0.000431,0.020567
269000,0.0324,0.013523,0.002678,0.000431,0.027031
270000,0.0324,0.013523,0.002678,0.000431,0.022565
271000,0.0324,0.013523,0.002678,0.000431,0.021155
272000,0.0324,0.013523,0.002678,0.000431,0.020802
273000,0.0324,0.013523,0.002678,0.000431,0.024093
274000,0.0324,0.013523,0.002678,0.000431,0.018334
275000,0.0324,0.013523,0.002678,0.000431,0.023976
276000,0.0324,0.013523,0.002678,0.000431,0.025386
277000,0.0324,0.013523,0.002678,0.000431,0.025504
278000,0.0324,0.013523,0.002678,0.000431,0.017747
279000,0.0324,0.013523,0.002678,0.000431,0.021508
280000,0.0324,0.013523,0.002678,0.000431,0.019627
281000,0.0324,0.013523,0.002678,0.000431,0.024211
282000,0.0324,0.013523,0.002678,0.000431,0.019040
283000,0.0324,0.013523,0.002678,0.000431,0.019745
284000,0.0324,0.013523,0.002678,0.000431,0.023271
285000,0.0324,0.013523,0.002678,0.000431,0.023976
286000,0.0324,0.013523,0.002678,0.000431,0.020920
287000,0.0324,0.013523,0.002678,0.000431,0.024681
288000,0.0324,0.013523,0.002678,0.000431,0.021978
289000,0.0324,0.013523,0.002678,0.000431,0.028912
290000,0.0324,0.013523,0.002678,0.000431,0.019157
291000,0.0324,0.013523,0.002678,0.000431,0.017159
292000,0.0324,0.013523,0.002678,0.000431,0.022800
293000,0.0324,0.013523,0.002678,0.000431,0.017277
294000,0.0324,0.013523,0.002678,0.000431,0.020215
295000,0.0324,0.013523,0.002678,0.000431,0.023153
296000,0.0324,0.013523,0.002678,0.000431,0.022800
297000,0.0324,0.013523,0.002678,0.000431,0.020450
298000,0.0324,0.013523,0.002678,0.000431,0.023858
299000,0.0324,0.013523,0.002678,0.000431,0.025974
300000,0.0324,0.013523,0.002678,0.000431,0.022095
301000,0.0324,0.013523,0.002678,0.000431,0.024446
302000,0.0324,0.013523,0.002678,0.000431,0.024211
303000,0.0324,0.013523,0.002678,0.000431,0.022565
304000,0.0324,0.013523,0.002678,0.000431,0.019980
305000,0.0324,0.013523,0.002678,0.000431,0.034553
306000,0.0324,0.013523,0.002678,0.000431,0.016336
307000,0.0324,0.013523,0.002678,0.000431,0.021273
308000,0.0324,0.013523,0.002678,0.000431,0.023153
309000,0.0324,0.013523,0.002678,0.000431,0.023741
310000,0.0324,0.013523,0.002678,0.000431,0.025386
311000,0.0324,0.013523,0.002678,0.000431,0.016571
312000,0.0324,0.013523,0.002678,0.000431,0.023388
313000,0.0324,0.013523,0.002678,0.000431,0.027267
314000,0.0324,0.013523,0.002678,0.000431,0.019627
315000,0.0324,0.013523,0.002678,0.000431,0.021860
316000,0.0324,0.013523,0.002678,0.000431,0.022095
317000,0.0324,0.013523,0.002678,0.000431,0.021743
318000,0.0324,0.013523,0.002678,0.000431,0.020802
319000,0.0324,0.013523,0.002678,0.000431,0.022213
320000,0.0324,0.013523,0.002678,0.000431,0.021508
321000,0.0324,0.013523,0.002678,0.000431,0.022330
322000,0.0324,0.013523,0.002678,0.000431,0.021508
323000,0.0324,0.013523,0.002678,0.000431,0.016689
324000,0.0324,0.013523,0.002678,0.000431,0.023623
325000,0.0324,0.013523,0.002678,0.000431,0.024446
326000,0.0324,0.013523,0.002678,0.000431,0.023741
327000,0.0324,0.013523,0.002678,0.000431,0.019392
328000,0.0324,0.013523,0.002678,0.000431,0.022330
329000,0.0324,0.013523,0.002678,0.000431,0.016219
330000,0.0324,0.013523,0.002678,0.000431,0.022918
331000,0.0324,0.013523,0.002678,0.000431,0.021743
332000,0.0324,0.013523,0.002678,0.000431,0.020567
333000,0.0324,0.013523,0.002678,0.000431,0.026326
334000,0.0324,0.013523,0.002678,0.000431,0.026444
335000,0.0324,0.013523,0.002678,0.000431,0.021743
336000,0.0324,0.013523,0.002678,0.000431,0.020450
337000,0.0324,0.013523,0.002678,0.000431,0.017512
338000,0.0324,0.013523,0.002678,0.000431,0.021273
339000,0.0324,0.013523,0.002678,0.000431,0.019862
340000,0.0324,0.013523,0.002678,0.000431,0.021273
341000,0.0324,0.013523,0.002678,0.000431,0.019157
342000,0.0324,0.013523,0.002678,0.000431,0.028912
343000,0.0324,0.013523,0.002678,0.000431,0.022918
344000,0.0324,0.013523,0.002678,0.000431,0.023506
345000,0.0324,0.013523,0.002678,0.000431,0.021038
346000,0.0324,0.013523,0.002678,0.000431,0.019745
347000,0.0324,0.013523,0.002678,0.000431,0.019392
348000,0.0324,0.013523,0.002678,0.000431,0.018805
349000,0.0324,0.013523,0.002678,0.000431,0.024211
350000,0.0324,0.013523,0.002678,0.000431,0.016571
351000,0.0324,0.013523,0.002678,0.000431,0.024916
352000,0.0324,0.013523,0.002678,0.000431,0.018569
353000,0.0324,0.013523,0.002678,0.000431,0.017864
354000,0.0324,0.013523,0.002678,0.000431,0.016924
355000,0.0324,0.013523,0.002678,0.000431,0.023976
356000,0.0324,0.013523,0.002678,0.000431,0.024211
357000,0.0324,0.013523,0.002678,0.000431,0.023153
358000,0.0324,0.013523,0.002678,0.000431,0.016219
359000,0.0324,0.013523,0.002678,0.000431,0.024093
360000,0.0324,0.013523,0.002678,0.000431,0.019275
361000,0.0324,0.013523,0.002678,0.000431,0.020332
362000,0.0324,0.013523,0.002678,0.000431,0.023271
363000,0.0324,0.013523,0.002678,0.000431,0.018805
364000,0.0324,0.013523,0.002678,0.000431,0.018569
365000,0.0324,0.013523,0.002678,0.000431,0.023506
366000,0.0324,0.013523,0.002678,0.000431,0.018452
367000,0.0324,0.013523,0.002678,0.000431,0.021978
368000,0.0324,0.013523,0.002678,0.000431,0.019392
369000,0.0324,0.013523,0.002678,0.000431,0.024328
370000,0.0324,0.013523,0.002678,0.000431,0.015631
371000,0.0324,0.013523,0.002678,0.000431,0.023506
372000,0.0324,0.013523,0.002678,0.000431,0.025151
373000,0.0324,0.013523,0.002678,0.000431,0.017277
374000,0.0324,0.013523,0.002678,0.000431,0.021978
375000,0.0324,0.013523,0.002678,0.000431,0.024328
376000,0.0324,0.013523,0.002678,0.000431,0.018217
377000,0.0324,0.013523,0.002678,0.000431,0.019157
378000,0.0324,0.013523,0.002678,0.000431,0.019157
379000,0.0324,0.013523,0.002678,0.000431,0.021038
380000,0.0324,0.013523,0.002678,0.000431,0.022565
381000,0.0324,0.013523,0.002678,0.000431,0.025151
382000,0.0324,0.013523,0.002678,0.000431,0.014691
383000,0.0324,0.013523,0.002678,0.000431,0.019862
384000,0.0324,0.013523,0.002678,0.000431,0.023388
385000,0.0324,0.013523,0.002678,0.000431,0.020567
386000,0.0324,0.013523,0.002678,0.000431,0.018217
387000,0.0324,0.013523,0.002678,0.000431,0.025151
388000,0.0324,0.013523,0.002678,0.000431,0.022683
389000,0.0324,0.013523,0.002678,0.000431,0.021743
390000,0.0324,0.013523,0.002678,0.000431,0.022330
391000,0.0324,0.013523,0.002678,0.000431,0.020920
392000,0.0324,0.013523,0.002678,0.000431,0.020332
393000,0.0324,0.013523,0.002678,0.000431,0.015044
394000,0.0324,0.013523,0.002678,0.000431,0.020450
395000,0.0324,0.013523,0.002678,0.000431,0.020215
396000,0.0324,0.013523,0.002678,0.000431,0.015984
397000,0.0324,0.013523,0.002678,0.000431,0.021390
398000,0.0324,0.013523,0.002678,0.000431,0.019745
399000,0.0324,0.013523,0.002678,0.000431,0.019392
400000,0.0324,0.013523,0.002678,0.000431,0.020450
401000,0.0324,0.013523,0.002678,0.000431,0.019627
402000,0.0324,0.013523,0.002678,0.000431,0.020685
403000,0.0324,0.013523,0.002678,0.000431,0.023976
404000,0.0324,0.013523,0.002678,0.000431,0.014691
405000,0.0324,0.013523,0.002678,0.000431,0.014691
406000,0.0324,0.013523,0.002678,0.000431,0.018452
407000,0.0324,0.013523,0.002678,0.000431,0.019862
408000,0.0324,0.013523,0.002678,0.000431,0.019510
409000,0.0324,0.013523,0.002678,0.000431,0.014221
410000,0.0324,0.013523,0.002678,0.000431,0.023741
411000,0.0324,0.013523,0.002678,0.000431,0.014456
412000,0.0324,0.013523,0.002678,0.000431,0.018687
413000,0.0324,0.013523,0.002678,0.000431,0.015749
414000,0.0324,0.013523,0.002678,0.000431,0.023271
415000,0.0324,0.013523,0.002678,0.000431,0.021273
416000,0.0324,0.013523,0.002678,0.000431,0.017394
417000,0.0324,0.013523,0.002678,0.000431,0.019157
418000,0.0324,0.013523,0.002678,0.000431,0.014103
419000,0.0324,0.013523,0.002678,0.000431,0.015984
420000,0.0324,0.013523,0.002678,0.000431,0.017277
421000,0.0324,0.013523,0.002678,0.000431,0.020567
422000,0.0324,0.013523,0.002678,0.000431,0.019510
423000,0.0324,0.013523,0.002678,0.000431,0.021508
424000,0.0324,0.013523,0.002678,0.000431,0.016807
425000,0.0324,0.013523,0.002678,0.000431,0.018687
426000,0.0324,0.013523,0.002678,0.000431,0.021508
427000,0.0324,0.013523,0.002678,0.000431,0.016924
428000,0.0324,0.013523,0.002678,0.000431,0.021978
429000,0.0324,0.013523,0.002678,0.000431,0.020332
430000,0.0324,0.013523,0.002678,0.000431,0.017277
431000,0.0324,0.013523,0.002678,0.000431,0.018217
432000,0.0324,0.013523,0.002678,0.000431,0.020215
433000,0.0324,0.013523,0.002678,0.000431,0.016336
434000,0.0324,0.013523,0.002678,0.000431,0.020920
435000,0.0324,0.013523,0.002678,0.000431,0.018452
436000,0.0324,0.013523,0.002678,0.000431,0.022330
437000,0.0324,0.013523,0.002678,0.000431,0.021508
438000,0.0324,0.013523,0.002678,0.000431,0.015044
439000,0.0324,0.013523,0.002678,0.000431,0.016807
440000,0.0324,0.013523,0.002678,0.000431,0.021508
441000,0.0324,0.013523,0.002678,0.000431,0.018569
442000,0.0324,0.013523,0.002678,0.000431,0.019627
443000,0.0324,0.013523,0.002678,0.000431,0.017042
444000,0.0324,0.013523,0.002678,0.000431,0.021155
445000,0.0324,0.013523,0.002678,0.000431,0.019275
446000,0.0324,0.013523,0.002678,0.000431,0.015279
447000,0.0324,0.013523,0.002678,0.000431,0.017982
448000,0.0324,0.013523,0.002678,0.000431,0.018922
449000,0.0324,0.013523,0.002678,0.000431,0.017042
450000,0.0324,0.013523,0.002678,0.000431,0.016571
451000,0.0324,0.013523,0.002678,0.000431,0.020802
452000,0.0324,0.013523,0.002678,0.000431,0.020450
453000,0.0324,0.013523,0.002678,0.000431,0.016336
454000,0.0324,0.013523,0.002678,0.000431,0.018452
455000,0.0324,0.013523,0.002678,0.000431,0.020097
456000,0.0324,0.013523,0.002678,0.000431,0.016924
457000,0.0324,0.013523,0.002678,0.000431,0.019392
458000,0.0324,0.013523,0.002678,0.000431,0.015984
459000,0.0324,0.013523,0.002678,0.000431,0.020097
460000,0.0324,0.013523,0.002678,0.000431,0.014338
461000,0.0324,0.013523,0.002678,0.000431,0.018805
462000,0.0324,0.013523,0.002678,0.000431,0.019275
463000,0.0324,0.013523,0.002678,0.000431,0.019040
464000,0.0324,0.013523,0.002678,0.000431,0.016689
465000,0.0324,0.013523,0.002678,0.000431,0.013516
466000,0.0324,0.013523,0.002678,0.000431,0.016924
467000,0.0324,0.013523,0.002678,0.000431,0.022330
468000,0.0324,0.013523,0.002678,0.000431,0.013751
469000,0.0324,0.013523,0.002678,0.000431,0.017042
470000,0.0324,0.013523,0.002678,0.000431,0.020215
471000,0.0324,0.013523,0.002678,0.000431,0.016689
472000,0.0324,0.013523,0.002678,0.000431,0.016336
473000,0.0324,0.013523,0.002678,0.000431,0.013986
474000,0.0324,0.013523,0.002678,0.000431,0.019510
475000,0.0324,0.013523,0.002678,0.000431,0.018452
476000,0.0324,0.013523,0.002678,0.000431,0.021860
477000,0.0324,0.013523,0.002678,0.000431,0.018922
478000,0.0324,0.013523,0.002678,0.000431,0.013281
479000,0.0324,0.013523,0.002678,0.000431,0.019040
480000,0.0324,0.013523,0.002678,0.000431,0.014691
481000,0.0324,0.013523,0.002678,0.000431,0.018099
482000,0.0324,0.013523,0.002678,0.000431,0.018805
483000,0.0324,0.013523,0.002678,0.000431,0.014338
484000,0.0324,0.013523,0.002678,0.000431,0.014926
485000,0.0324,0.013523,0.002678,0.000431,0.021273
486000,0.0324,0.013523,0.002678,0.000431,0.015514
487000,0.0324,0.013523,0.002678,0.000431,0.013046
488000,0.0324,0.013523,0.002678,0.000431,0.017864
489000,0.0324,0.013523,0.002678,0.000431,0.013398
490000,0.0324,0.013523,0.002678,0.000431,0.019745
491000,0.0324,0.013523,0.002678,0.000431,0.013281
492000,0.0324,0.013523,0.002678,0.000431,0.017159
493000,0.0324,0.013523,0.002678,0.000431,0.015396
494000,0.0324,0.013523,0.002678,0.000431,0.015396
495000,0.0324,0.013523,0.002678,0.000431,0.018452
496000,0.0324,0.013523,0.002678,0.000431,0.014103
497000,0.0324,0.013523,0.002678,0.000431,0.019745
498000,0.0324,0.013523,0.002678,0.000431,0.017629
499000,0.0324,0.013523,0.002678,0.000431,0.015749
500000,0.0324,0.013523,0.002678,0.000431,0.016219
501000,0.0324,0.013523,0.002678,0.000431,0.019627
502000,0.0324,0.013523,0.002678,0.000431,0.017159
503000,0.0324,0.013523,0.002678,0.000431,0.017629
504000,0.0324,0.013523,0.002678,0.000431,0.014103
505000,0.0324,0.013523,0.002678,0.000431,0.014573
506000,0.0324,0.013523,0.002678,0.000431,0.018099
507000,0.0324,0.013523,0.002678,0.000431,0.017747
508000,0.0324,0.013523,0.002678,0.000431,0.017159
509000,0.0324,0.013523,0.002678,0.000431,0.013868
510000,0.0324,0.013523,0.002678,0.000431,0.015161
511000,0.0324,0.013523,0.002678,0.000431,0.018805
512000,0.0324,0.013523,0.002678,0.000431,0.018922
513000,0.0324,0.013523,0.002678,0.000431,0.014809
514000,0.0324,0.013523,0.002678,0.000431,0.016689
515000,0.0324,0.013523,0.002678,0.000431,0.013986
516000,0.0324,0.013523,0.002678,0.000431,0.018217
517000,0.0324,0.013523,0.002678,0.000431,0.018687
518000,0.0324,0.013523,0.002678,0.000431,0.018099
519000,0.0324,0.013523,0.002678,0.000431,0.015396
520000,0.0324,0.013523,0.002678,0.000431,0.015514
521000,0.0324,0.013523,0.002678,0.000431,0.020567
522000,0.0324,0.013523,0.002678,0.000431,0.017159
523000,0.0324,0.013523,0.002678,0.000431,0.016454
524000,0.0324,0.013523,0.002678,0.000431,0.013046
525000,0.0324,0.013523,0.002678,0.000431,0.015514
526000,0.0324,0.013523,0.002678,0.000431,0.017042
527000,0.0324,0.013523,0.002678,0.000431,0.016924
528000,0.0324,0.013523,0.002678,0.000431,0.015866
529000,0.0324,0.013523,0.002678,0.000431,0.016101
530000,0.0324,0.013523,0.002678,0.000431,0.020215
531000,0.0324,0.013523,0.002678,0.000431,0.015631
532000,0.0324,0.013523,0.002678,0.000431,0.016924
533000,0.0324,0.013523,0.002678,0.000431,0.013868
534000,0.0324,0.013523,0.002678,0.000431,0.017042
535000,0.0324,0.013523,0.002678,0.000431,0.014573
536000,0.0324,0.013523,0.002678,0.000431,0.017159
537000,0.0324,0.013523,0.002678,0.000431,0.015631
538000,0.0324,0.013523,0.002678,0.000431,0.015631
539000,0.0324,0.013523,0.002678,0.000431,0.018452
540000,0.0324,0.013523,0.002678,0.000431,0.017512
541000,0.0324,0.013523,0.002678,0.000431,0.016219
542000,0.0324,0.013523,0.002678,0.000431,0.016454
543000,0.0324,0.013523,0.002678,0.000431,0.017042
544000,0.0324,0.013523,0.002678,0.000431,0.016101
545000,0.0324,0.013523,0.002678,0.000431,0.013046
546000,0.0324,0.013523,0.002678,0.000431,0.018334
547000,0.0324,0.013523,0.002678,0.000431,0.018217
548000,0.0324,0.013523,0.002678,0.000431,0.018805
549000,0.0324,0.013523,0.002678,0.000431,0.016924
550000,0.0324,0.013523,0.002678,0.000431,0.018099
551000,0.0324,0.013523,0.002678,0.000431,0.015514
552000,0.0324,0.013523,0.002678,0.000431,0.016689
553000,0.0324,0.013523,0.002678,0.000431,0.012458
554000,0.0324,0.013523,0.002678,0.000431,0.016219
555000,0.0324,0.013523,0.002678,0.000431,0.016219
556000,0.0324,0.013523,0.002678,0.000431,0.017277
557000,0.0324,0.013523,0.002678,0.000431,0.016101
558000,0.0324,0.013523,0.002678,0.000431,0.016689
559000,0.0324,0.013523,0.002678,0.000431,0.016454
560000,0.0324,0.013523,0.002678,0.000431,0.015161
561000,0.0324,0.013523,0.002678,0.000431,0.018334
562000,0.0324,0.013523,0.002678,0.000431,0.015631
563000,0.0324,0.013523,0.002678,0.000431,0.012223
564000,0.0324,0.013523,0.002678,0.000431,0.015279
565000,0.0324,0.013523,0.002678,0.000431,0.012811
566000,0.0324,0.013523,0.002678,0.000431,0.017277
567000,0.0324,0.013523,0.002678,0.000431,0.013163
568000,0.0324,0.013523,0.002678,0.000431,0.015044
569000,0.0324,0.013523,0.002678,0.000431,0.013633
570000,0.0324,0.013523,0.002678,0.000431,0.014573
571000,0.0324,0.013523,0.002678,0.000431,0.018217
572000,0.0324,0.013523,0.002678,0.000431,0.013633
573000,0.0324,0.013523,0.002678,0.000431,0.016689
574000,0.0324,0.013523,0.002678,0.000431,0.016924
575000,0.0324,0.013523,0.002678,0.000431,0.013516
576000,0.0324,0.013523,0.002678,0.000431,0.015161
577000,0.0324,0.013523,0.002678,0.000431,0.015279
578000,0.0324,0.013523,0.002678,0.000431,0.014573
579000,0.0324,0.013523,0.002678,0.000431,0.015279
580000,0.0324,0.013523,0.002678,0.000431,0.014338
581000,0.0324,0.013523,0.002678,0.000431,0.013516
582000,0.0324,0.013523,0.002678,0.000431,0.015396
583000,0.0324,0.013523,0.002678,0.000431,0.014456
584000,0.0324,0.013523,0.002678,0.000431,0.018217
585000,0.0324,0.013523,0.002678,0.000431,0.015161
586000,0.0324,0.013523,0.002678,0.000431,0.018334
587000,0.0324,0.013523,0.002678,0.000431,0.015279
588000,0.0324,0.013523,0.002678,0.000431,0.015866
589000,0.0324,0.013523,0.002678,0.000431,0.016454
590000,0.0324,0.013523,0.002678,0.000431,0.015044
591000,0.0324,0.013523,0.002678,0.000431,0.013751
592000,0.0324,0.013523,0.002678,0.000431,0.014573
593000,0.0324,0.013523,0.002678,0.000431,0.013868
594000,0.0324,0.013523,0.002678,0.000431,0.013281
595000,0.0324,0.013523,0.002678,0.000431,0.014691
596000,0.0324,0.013523,0.002678,0.000431,0.015396
597000,0.0324,0.013523,0.002678,0.000431,0.013633
598000,0.0324,0.013523,0.002678,0.000431,0.012928
599000,0.0324,0.013523,0.002678,0.000431,0.015279
600000,0.0324,0.013523,0.002678,0.000431,0.016101
601000,0.0324,0.013523,0.002678,0.000431,0.011870
602000,0.0324,0.013523,0.002678,0.000431,0.015631
603000,0.0324,0.013523,0.002678,0.000431,0.015396
604000,0.0324,0.013523,0.002678,0.000431,0.012576
605000,0.0324,0.013523,0.002678,0.000431,0.013046
606000,0.0324,0.013523,0.002678,0.000431,0.010578
607000,0.0324,0.013523,0.002678,0.000431,0.011753
608000,0.0324,0.013523,0.002678,0.000431,0.015161
609000,0.0324,0.013523,0.002678,0.000431,0.014691
610000,0.0324,0.013523,0.002678,0.000431,0.016219
611000,0.0324,0.013523,0.002678,0.000431,0.011753
612000,0.0324,0.013523,0.002678,0.000431,0.010695
613000,0.0324,0.013523,0.002678,0.000431,0.014809
614000,0.0324,0.013523,0.002678,0.000431,0.013281
615000,0.0324,0.013523,0.002678,0.000431,0.011400
616000,0.0324,0.013523,0.002678,0.000431,0.012928
617000,0.0324,0.013523,0.002678,0.000431,0.013046
618000,0.0324,0.013523,0.002678,0.000431,0.013516
619000,0.0324,0.013523,0.002678,0.000431,0.016101
620000,0.0324,0.013523,0.002678,0.000431,0.011518
621000,0.0324,0.013523,0.002678,0.000431,0.013516
622000,0.0324,0.013523,0.002678,0.000431,0.013868
623000,0.0324,0.013523,0.002678,0.000431,0.016689
624000,0.0324,0.013523,0.002678,0.000431,0.014338
625000,0.0324,0.013523,0.002678,0.000431,0.011988
626000,0.0324,0.013523,0.002678,0.000431,0.014809
627000,0.0324,0.013523,0.002678,0.000431,0.014103
628000,0.0324,0.013523,0.002678,0.000431,0.015396
629000,0.0324,0.013523,0.002678,0.000431,0.013751
630000,0.0324,0.013523,0.002678,0.000431,0.014809
631000,0.0324,0.013523,0.002678,0.000431,0.015279
632000,0.0324,0.013523,0.002678,0.000431,0.013751
633000,0.0324,0.013523,0.002678,0.000431,0.014338
634000,0.0324,0.013523,0.002678,0.000431,0.014103
635000,0.0324,0.013523,0.002678,0.000431,0.011635
636000,0.0324,0.013523,0.002678,0.000431,0.015161
637000,0.0324,0.013523,0.002678,0.000431,0.014338
638000,0.0324,0.013523,0.002678,0.000431,0.009872
639000,0.0324,0.013523,0.002678,0.000431,0.014456
640000,0.0324,0.013523,0.002678,0.000431,0.017042
641000,0.0324,0.013523,0.002678,0.000431,0.012340
642000,0.0324,0.013523,0.002678,0.000431,0.014691
643000,0.0324,0.013523,0.002678,0.000431,0.014338
644000,0.0324,0.013523,0.002678,0.000431,0.013986
645000,0.0324,0.013523,0.002678,0.000431,0.013633
646000,0.0324,0.013523,0.002678,0.000431,0.010578
647000,0.0324,0.013523,0.002678,0.000431,0.015161
648000,0.0324,0.013523,0.002678,0.000431,0.013986
649000,0.0324,0.013523,0.002678,0.000431,0.015631
650000,0.0324,0.013523,0.002678,0.000431,0.014926
651000,0.0324,0.013523,0.002678,0.000431,0.013633
652000,0.0324,0.013523,0.002678,0.000431,0.014103
653000,0.0324,0.013523,0.002678,0.000431,0.012928
654000,0.0324,0.013523,0.002678,0.000431,0.013751
655000,0.0324,0.013523,0.002678,0.000431,0.012223
656000,0.0324,0.013523,0.002678,0.000431,0.013398
657000,0.0324,0.013523,0.002678,0.000431,0.012576
658000,0.0324,0.013523,0.002678,0.000431,0.013751
659000,0.0324,0.013523,0.002678,0.000431,0.014103
660000,0.0324,0.013523,0.002678,0.000431,0.013281
661000,0.0324,0.013523,0.002678,0.000431,0.012458
662000,0.0324,0.013523,0.002678,0.000431,0.010225
663000,0.0324,0.013523,0.002678,0.000431,0.015279
664000,0.0324,0.013523,0.002678,0.000431,0.012105
665000,0.0324,0.013523,0.002678,0.000431,0.011988
666000,0.0324,0.013523,0.002678,0.000431,0.013986
667000,0.0324,0.013523,0.002678,0.000431,0.013163
668000,0.0324,0.013523,0.002678,0.000431,0.013398
669000,0.0324,0.013523,0.002678,0.000431,0.012223
670000,0.0324,0.013523,0.002678,0.000431,0.010460
671000,0.0324,0.013523,0.002678,0.000431,0.009990
672000,0.0324,0.013523,0.002678,0.000431,0.011635
673000,0.0324,0.013523,0.002678,0.000431,0.013516
674000,0.0324,0.013523,0.002678,0.000431,0.013163
675000,0.0324,0.013523,0.002678,0.000431,0.011165
676000,0.0324,0.013523,0.002678,0.000431,0.012458
677000,0.0324,0.013523,0.002678,0.000431,0.009402
678000,0.0324,0.013523,0.002678,0.000431,0.013633
679000,0.0324,0.013523,0.002678,0.000431,0.011870
680000,0.0324,0.013523,0.002678,0.000431,0.010225
681000,0.0324,0.013523,0.002678,0.000431,0.012223
682000,0.0324,0.013523,0.002678,0.000431,0.010460
683000,0.0324,0.013523,0.002678,0.000431,0.012223
684000,0.0324,0.013523,0.002678,0.000431,0.012458
685000,0.0324,0.013523,0.002678,0.000431,0.010813
686000,0.0324,0.013523,0.002678,0.000431,0.011165
687000,0.0324,0.013523,0.002678,0.000431,0.011400
688000,0.0324,0.013523,0.002678,0.000431,0.011400
689000,0.0324,0.013523,0.002678,0.000431,0.011165
690000,0.0324,0.013523,0.002678,0.000431,0.011753
691000,0.0324,0.013523,0.002678,0.000431,0.012811
692000,0.0324,0.013523,0.002678,0.000431,0.009990
693000,0.0324,0.013523,0.002678,0.000431,0.011635
694000,0.0324,0.013523,0.002678,0.000431,0.010460
695000,0.0324,0.013523,0.002678,0.000431,0.013986
696000,0.0324,0.013523,0.002678,0.000431,0.012576
697000,0.0324,0.013523,0.002678,0.000431,0.011165
698000,0.0324,0.013523,0.002678,0.000431,0.012340
699000,0.0324,0.013523,0.002678,0.000431,0.008580
700000,0.0324,0.013523,0.002678,0.000431,0.011870
701000,0.0324,0.013523,0.002678,0.000431,0.010342
702000,0.0324,0.013523,0.002678,0.000431,0.009755
703000,0.0324,0.013523,0.002678,0.000431,0.007992
704000,0.0324,0.013523,0.002678,0.000431,0.010107
705000,0.0324,0.013523,0.002678,0.000431,0.010930
706000,0.0324,0.013523,0.002678,0.000431,0.010695
707000,0.0324,0.013523,0.002678,0.000431,0.009872
708000,0.0324,0.013523,0.002678,0.000431,0.011048
709000,0.0324,0.013523,0.002678,0.000431,0.009285
710000,0.0324,0.013523,0.002678,0.000431,0.008932
711000,0.0324,0.013523,0.002678,0.000431,0.011165
712000,0.0324,0.013523,0.002678,0.000431,0.011400
713000,0.0324,0.013523,0.002678,0.000431,0.010930
714000,0.0324,0.013523,0.002678,0.000431,0.011400
715000,0.0324,0.013523,0.002678,0.000431,0.009990
716000,0.0324,0.013523,0.002678,0.000431,0.011165
717000,0.0324,0.013523,0.002678,0.000431,0.010460
718000,0.0324,0.013523,0.002678,0.000431,0.009637
719000,0.0324,0.013523,0.002678,0.000431,0.007404
720000,0.0324,0.013523,0.002678,0.000431,0.010578
721000,0.0324,0.013523,0.002678,0.000431,0.011048
722000,0.0324,0.013523,0.002678,0.000431,0.012458
723000,0.0324,0.013523,0.002678,0.000431,0.007169
724000,0.0324,0.013523,0.002678,0.000431,0.008697
725000,0.0324,0.013523,0.002678,0.000431,0.009755
726000,0.0324,0.013523,0.002678,0.000431,0.007992
727000,0.0324,0.013523,0.002678,0.000431,0.009167
728000,0.0324,0.013523,0.002678,0.000431,0.010107
729000,0.0324,0.013523,0.002678,0.000431,0.009990
730000,0.0324,0.013523,0.002678,0.000431,0.010460
731000,0.0324,0.013523,0.002678,0.000431,0.011518
732000,0.0324,0.013523,0.002678,0.000431,0.010578
733000,0.0324,0.013523,0.002678,0.000431,0.010813
734000,0.0324,0.013523,0.002678,0.000431,0.008109
735000,0.0324,0.013523,0.002678,0.000431,0.008697
736000,0.0324,0.013523,0.002678,0.000431,0.011165
737000,0.0324,0.013523,0.002678,0.000431,0.009637
738000,0.0324,0.013523,0.002678,0.000431,0.011283
739000,0.0324,0.013523,0.002678,0.000431,0.010342
740000,0.0324,0.013523,0.002678,0.000431,0.011048
741000,0.0324,0.013523,0.002678,0.000431,0.008227
742000,0.0324,0.013523,0.002678,0.000431,0.008580
743000,0.0324,0.013523,0.002678,0.000431,0.009755
744000,0.0324,0.013523,0.002678,0.000431,0.008462
745000,0.0324,0.013523,0.002678,0.000431,0.009637
746000,0.0324,0.013523,0.002678,0.000431,0.010107
747000,0.0324,0.013523,0.002678,0.000431,0.010695
748000,0.0324,0.013523,0.002678,0.000431,0.009520
749000,0.0324,0.013523,0.002678,0.000431,0.009285
750000,0.0324,0.013523,0.002678,0.000431,0.009285
751000,0.0324,0.013523,0.002678,0.000431,0.009755
752000,0.0324,0.013523,0.002678,0.000431,0.009402
753000,0.0324,0.013523,0.002678,0.000431,0.009167
754000,0.0324,0.013523,0.002678,0.000431,0.010225
755000,0.0324,0.013523,0.002678,0.000431,0.009520
756000,0.0324,0.013523,0.002678,0.000431,0.009520
757000,0.0324,0.013523,0.002678,0.000431,0.009520
758000,0.0324,0.013523,0.002678,0.000431,0.009872
759000,0.0324,0.013523,0.002678,0.000431,0.009755
760000,0.0324,0.013523,0.002678,0.000431,0.009637
761000,0.0324,0.013523,0.002678,0.000431,0.009990
762000,0.0324,0.013523,0.002678,0.000431,0.009402
763000,0.0324,0.013523,0.002678,0.000431,0.009990
764000,0.0324,0.013523,0.002678,0.000431,0.009050
765000,0.0324,0.013523,0.002678,0.000431,0.009167
766000,0.0324,0.013523,0.002678,0.000431,0.009637
767000,0.0324,0.013523,0.002678,0.000431,0.009285
768000,0.0324,0.013523,0.002678,0.000431,0.009050
769000,0.0324,0.013523,0.002678,0.000431,0.008932
770000,0.0324,0.013523,0.002678,0.000431,0.008697
771000,0.0324,0.013523,0.002678,0.000431,0.008580
772000,0.0324,0.013523,0.002678,0.000431,0.007992
773000,0.0324,0.013523,0.002678,0.000431,0.006229
774000,0.0324,0.013523,0.002678,0.000431,0.007757
775000,0.0324,0.013523,0.002678,0.000431,0.006582
776000,0.0324,0.013523,0.002678,0.000431,0.006699
777000,0.0324,0.013523,0.002678,0.000431,0.007874
778000,0.0324,0.013523,0.002678,0.000431,0.007287
779000,0.0324,0.013523,0.002678,0.000431,0.006934
780000,0.0324,0.013523,0.002678,0.000431,0.006582
781000,0.0324,0.013523,0.002678,0.000431,0.006934
782000,0.0324,0.013523,0.002678,0.000431,0.006582
783000,0.0324,0.013523,0.002678,0.000431,0.007287
784000,0.0324,0.013523,0.002678,0.000431,0.005994
785000,0.0324,0.013523,0.002678,0.000431,0.006229
786000,0.0324,0.013523,0.002678,0.000431,0.006229
787000,0.0324,0.013523,0.002678,0.000431,0.006347
788000,0.0324,0.013523,0.002678,0.000431,0.006582
789000,0.0324,0.013523,0.002678,0.000431,0.006347
790000,0.0324,0.013523,0.002678,0.000431,0.005524
791000,0.0324,0.013523,0.002678,0.000431,0.006111
792000,0.0324,0.013523,0.002678,0.000431,0.005406
793000,0.0324,0.013523,0.002678,0.000431,0.005524
794000,0.0324,0.013523,0.002678,0.000431,0.004819
795000,0.0324,0.013523,0.002678,0.000431,0.005289
796000,0.0324,0.013523,0.002678,0.000431,0.005171
797000,0.0324,0.013523,0.002678,0.000431,0.005406
798000,0.0324,0.013523,0.002678,0.000431,0.004701
799000,0.0324,0.013523,0.002678,0.000431,0.005641
800000,0.0324,0.013523,0.002678,0.000431,0.004701
801000,0.0324,0.013523,0.002678,0.000431,0.005289
802000,0.0324,0.013523,0.002678,0.000431,0.005524
803000,0.0324,0.013523,0.002678,0.000431,0.004584
804000,0.0324,0.013523,0.002678,0.000431,0.005641
805000,0.0324,0.013523,0.002678,0.000431,0.004936
806000,0.0324,0.013523,0.002678,0.000431,0.005641
807000,0.0324,0.013523,0.002678,0.000431,0.004819
808000,0.0324,0.013523,0.002678,0.000431,0.005289
809000,0.0324,0.013523,0.002678,0.000431,0.005289
810000,0.0324,0.013523,0.002678,0.000431,0.005406
811000,0.0324,0.013523,0.002678,0.000431,0.005054
812000,0.0324,0.013523,0.002678,0.000431,0.004936
813000,0.0324,0.013523,0.002678,0.000431,0.005289
814000,0.0324,0.013523,0.002678,0.000431,0.004701
815000,0.0324,0.013523,0.002678,0.000431,0.004466
816000,0.0324,0.013523,0.002678,0.000431,0.004349
817000,0.0324,0.013523,0.002678,0.000431,0.004584
818000,0.0324,0.013523,0.002678,0.000431,0.004584
819000,0.0324,0.013523,0.002678,0.000431,0.004466
820000,0.0324,0.013523,0.002678,0.000431,0.005171
821000,0.0324,0.013523,0.002678,0.000431,0.004819
822000,0.0324,0.013523,0.002678,0.000431,0.004349
823000,0.0324,0.013523,0.002678,0.000431,0.004584
824000,0.0324,0.013523,0.002678,0.000431,0.004349
825000,0.0324,0.013523,0.002678,0.000431,0.004936
826000,0.0324,0.013523,0.002678,0.000431,0.004113
827000,0.0324,0.013523,0.002678,0.000431,0.005054
828000,0.0324,0.013523,0.002678,0.000431,0.004584
829000,0.0324,0.013523,0.002678,0.000431,0.004819
830000,0.0324,0.013523,0.002678,0.000431,0.004466
831000,0.0324,0.013523,0.002678,0.000431,0.004231
832000,0.0324,0.013523,0.002678,0.000431,0.004936
833000,0.0324,0.013523,0.002678,0.000431,0.005054
834000,0.0324,0.013523,0.002678,0.000431,0.004466
835000,0.0324,0.013523,0.002678,0.000431,0.004819
836000,0.0324,0.013523,0.002678,0.000431,0.003996
837000,0.0324,0.013523,0.002678,0.000431,0.004231
838000,0.0324,0.013523,0.002678,0.000431,0.004231
839000,0.0324,0.013523,0.002678,0.000431,0.004584
840000,0.0324,0.013523,0.002678,0.000431,0.004113
841000,0.0324,0.013523,0.002678,0.000431,0.003643
842000,0.0324,0.013523,0.002678,0.000431,0.004349
843000,0.0324,0.013523,0.002678,0.000431,0.004466
844000,0.0324,0.013523,0.002678,0.000431,0.004113
845000,0.0324,0.013523,0.002678,0.000431,0.003643
846000,0.0324,0.013523,0.002678,0.000431,0.004113
847000,0.0324,0.013523,0.002678,0.000431,0.004466
848000,0.0324,0.013523,0.002678,0.000431,0.003761
849000,0.0324,0.013523,0.002678,0.000431,0.004584
850000,0.0324,0.013523,0.002678,0.000431,0.004349
851000,0.0324,0.013523,0.002678,0.000431,0.003996
852000,0.0324,0.013523,0.002678,0.000431,0.004231
853000,0.0324,0.013523,0.002678,0.000431,0.004113
854000,0.0324,0.013523,0.002678,0.000431,0.003761
855000,0.0324,0.013523,0.002678,0.000431,0.002586
856000,0.0324,0.013523,0.002678,0.000431,0.003408
857000,0.0324,0.013523,0.002678,0.000431,0.003643
858000,0.0324,0.013523,0.002678,0.000431,0.003056
859000,0.0324,0.013523,0.002678,0.000431,0.003408
860000,0.0324,0.013523,0.002678,0.000431,0.003761
861000,0.0324,0.013523,0.002678,0.000431,0.003291
862000,0.0324,0.013523,0.002678,0.000431,0.003408
863000,0.0324,0.013523,0.002678,0.000431,0.003291
864000,0.0324,0.013523,0.002678,0.000431,0.003878
865000,0.0324,0.013523,0.002678,0.000431,0.003526
866000,0.0324,0.013523,0.002678,0.000431,0.004349
867000,0.0324,0.013523,0.002678,0.000431,0.003173
868000,0.0324,0.013523,0.002678,0.000431,0.002938
869000,0.0324,0.013523,0.002678,0.000431,0.002233
870000,0.0324,0.013523,0.002678,0.000431,0.003291
871000,0.0324,0.013523,0.002678,0.000431,0.002938
872000,0.0324,0.013523,0.002678,0.000431,0.003173
873000,0.0324,0.013523,0.002678,0.000431,0.002703
874000,0.0324,0.013523,0.002678,0.000431,0.003056
875000,0.0324,0.013523,0.002678,0.000431,0.002938
876000,0.0324,0.013523,0.002678,0.000431,0.002821
877000,0.0324,0.013523,0.002678,0.000431,0.002703
878000,0.0324,0.013523,0.002678,0.000431,0.003056
879000,0.0324,0.013523,0.002678,0.000431,0.002821
880000,0.0324,0.013523,0.002678,0.000431,0.003056
881000,0.0324,0.013523,0.002678,0.000431,0.003056
882000,0.0324,0.013523,0.002678,0.000431,0.002703
883000,0.0324,0.013523,0.002678,0.000431,0.002821
884000,0.0324,0.013523,0.002678,0.000431,0.003173
885000,0.0324,0.013523,0.002678,0.000431,0.002468
886000,0.0324,0.013523,0.002678,0.000431,0.002821
887000,0.0324,0.013523,0.002678,0.000431,0.002821
888000,0.0324,0.013523,0.002678,0.000431,0.002938
889000,0.0324,0.013523,0.002678,0.000431,0.002938
890000,0.0324,0.013523,0.002678,0.000431,0.003173
891000,0.0324,0.013523,0.002678,0.000431,0.002938
892000,0.0324,0.013523,0.002678,0.000431,0.002703
893000,0.0324,0.013523,0.002678,0.000431,0.002821
894000,0.0324,0.013523,0.002678,0.000431,0.003056
895000,0.0324,0.013523,0.002678,0.000431,0.002468
896000,0.0324,0.013523,0.002678,0.000431,0.003056
897000,0.0324,0.013523,0.002678,0.000431,0.002821
898000,0.0324,0.013523,0.002678,0.000431,0.002703
899000,0.0324,0.013523,0.002678,0.000431,0.003056
900000,0.0324,0.013523,0.002678,0.000431,0.002821
901000,0.0324,0.013523,0.002678,0.000431,0.003056
902000,0.0324,0.013523,0.002678,0.000431,0.002703
903000,0.0324,0.013523,0.002678,0.000431,0.003173
904000,0.0324,0.013523,0.002678,0.000431,0.002938
905000,0.0324,0.013523,0.002678,0.000431,0.002938
906000,0.0324,0.013523,0.002678,0.000431,0.002938
907000,0.0324,0.013523,0.002678,0.000431,0.002468
908000,0.0324,0.013523,0.002678,0.000431,0.002821
909000,0.0324,0.013523,0.002678,0.000431,0.003291
910000,0.0324,0.013523,0.002678,0.000431,0.002821
911000,0.0324,0.013523,0.002678,0.000431,0.003056
912000,0.0324,0.013523,0.002678,0.000431,0.002703
913000,0.0324,0.013523,0.002678,0.000431,0.003056
914000,0.0324,0.013523,0.002678,0.000431,0.003056
915000,0.0324,0.013523,0.002678,0.000431,0.002703
916000,0.0324,0.013523,0.002678,0.000431,0.003173
917000,0.0324,0.013523,0.002678,0.000431,0.002821
918000,0.0324,0.013523,0.002678,0.000431,0.003173
919000,0.0324,0.013523,0.002678,0.000431,0.003408
920000,0.0324,0.013523,0.002678,0.000431,0.003056
921000,0.0324,0.013523,0.002678,0.000431,0.003408
922000,0.0324,0.013523,0.002678,0.000431,0.002821
923000,0.0324,0.013523,0.002678,0.000431,0.002821
924000,0.0324,0.013523,0.002678,0.000431,0.002938
925000,0.0324,0.013523,0.002678,0.000431,0.002938
926000,0.0324,0.013523,0.002678,0.000431,0.002938
927000,0.0324,0.013523,0.002678,0.000431,0.002703
928000,0.0324,0.013523,0.002678,0.000431,0.003173
929000,0.0324,0.013523,0.002678,0.000431,0.002938
930000,0.0324,0.013523,0.002678,0.000431,0.002703
931000,0.0324,0.013523,0.002678,0.000431,0.002821
932000,0.0324,0.013523,0.002678,0.000431,0.002116
933000,0.0324,0.013523,0.002678,0.000431,0.002233
934000,0.0324,0.013523,0.002678,0.000431,0.002468
935000,0.0324,0.013523,0.002678,0.000431,0.002116
936000,0.0324,0.013523,0.002678,0.000431,0.002116
937000,0.0324,0.013523,0.002678,0.000431,0.002586
938000,0.0324,0.013523,0.002678,0.000431,0.002351
939000,0.0324,0.013523,0.002678,0.000431,0.001998
940000,0.0324,0.013523,0.002678,0.000431,0.002351
941000,0.0324,0.013523,0.002678,0.000431,0.002351
942000,0.0324,0.013523,0.002678,0.000431,0.002468
943000,0.0324,0.013523,0.002678,0.000431,0.002351
944000,0.0324,0.013523,0.002678,0.000431,0.002468
945000,0.0324,0.013523,0.002678,0.000431,0.002351
946000,0.0324,0.013523,0.002678,0.000431,0.002351
947000,0.0324,0.013523,0.002678,0.000431,0.002586
948000,0.0324,0.013523,0.002678,0.000431,0.002351
949000,0.0324,0.013523,0.002678,0.000431,0.002351
950000,0.0324,0.013523,0.002678,0.000431,0.002821
951000,0.0324,0.013523,0.002678,0.000431,0.002468
952000,0.0324,0.013523,0.002678,0.000431,0.001998
953000,0.0324,0.013523,0.002678,0.000431,0.002468
954000,0.0324,0.013523,0.002678,0.000431,0.002703
955000,0.0324,0.013523,0.002678,0.000431,0.002468
956000,0.0324,0.013523,0.002678,0.000431,0.002468
957000,0.0324,0.013523,0.002678,0.000431,0.002703
958000,0.0324,0.013523,0.002678,0.000431,0.002116
959000,0.0324,0.013523,0.002678,0.000431,0.002233
960000,0.0324,0.013523,0.002678,0.000431,0.002351
961000,0.0324,0.013523,0.002678,0.000431,0.002468
962000,0.0324,0.013523,0.002678,0.000431,0.002351
963000,0.0324,0.013523,0.002678,0.000431,0.002703
964000,0.0324,0.013523,0.002678,0.000431,0.002468
965000,0.0324,0.013523,0.002678,0.000431,0.002233
966000,0.0324,0.013523,0.002678,0.000431,0.002351
967000,0.0324,0.013523,0.002678,0.000431,0.002351
968000,0.0324,0.013523,0.002678,0.000431,0.002233
969000,0.0324,0.013523,0.002678,0.000431,0.002351
970000,0.0324,0.013523,0.002678,0.000431,0.002586
971000,0.0324,0.013523,0.002678,0.000431,0.002468
972000,0.0324,0.013523,0.002678,0.000431,0.002468
973000,0.0324,0.013523,0.002678,0.000431,0.002586
974000,0.0324,0.013523,0.002678,0.000431,0.002468
975000,0.0324,0.013523,0.002678,0.000431,0.002468
976000,0.0324,0.013523,0.002678,0.000431,0.002468
977000,0.0324,0.013523,0.002678,0.000431,0.002468
978000,0.0324,0.013523,0.002678,0.000431,0.002116
979000,0.0324,0.013523,0.002678,0.000431,0.002468
980000,0.0324,0.013523,0.002678,0.000431,0.002468
981000,0.0324,0.013523,0.002678,0.000431,0.002468
982000,0.0324,0.013523,0.002678,0.000431,0.002468
983000,0.0324,0.013523,0.002678,0.000431,0.002468
984000,0.0324,0.013523,0.002678,0.000431,0.002116
985000,0.0324,0.013523,0.002678,0.000431,0.002703
986000,0.0324,0.013523,0.002678,0.000431,0.002116
987000,0.0324,0.013523,0.002678,0.000431,0.002703
988000,0.0324,0.013523,0.002678,0.000431,0.002586
989000,0.0324,0.013523,0.002678,0.000431,0.002351
990000,0.0324,0.013523,0.002678,0.000431,0.001998
991000,0.0324,0.013523,0.002678,0.000431,0.001763
992000,0.0324,0.013523,0.002678,0.000431,0.001763
993000,0.0324,0.013523,0.002678,0.000431,0.001880
994000,0.0324,0.013523,0.002678,0.000431,0.001763
995000,0.0324,0.013523,0.002678,0.000431,0.001645
996000,0.0324,0.013523,0.002678,0.000431,0.002116
997000,0.0324,0.013523,0.002678,0.000431,0.001645
998000,0.0324,0.013523,0.002678,0.000431,0.001763
999000,0.0324,0.013523,0.002678,0.000431,0.001880
