Cycle,Area(mm^2),PeakDynamic(W),SubthresholdLeakage(W),GateLeakage(W),RunTimeDynamic(W)
118000000,0.0324,0.013523,0.002678,0.000431,0.004819
118001000,0.0324,0.013523,0.002678,0.000431,0.004819
118002000,0.0324,0.013523,0.002678,0.000431,0.004819
118003000,0.0324,0.013523,0.002678,0.000431,0.004584
118004000,0.0324,0.013523,0.002678,0.000431,0.005054
118005000,0.0324,0.013523,0.002678,0.000431,0.005054
118006000,0.0324,0.013523,0.002678,0.000431,0.004584
118007000,0.0324,0.013523,0.002678,0.000431,0.005171
118008000,0.0324,0.013523,0.002678,0.000431,0.004349
118009000,0.0324,0.013523,0.002678,0.000431,0.004936
118010000,0.0324,0.013523,0.002678,0.000431,0.005289
118011000,0.0324,0.013523,0.002678,0.000431,0.004466
118012000,0.0324,0.013523,0.002678,0.000431,0.004819
118013000,0.0324,0.013523,0.002678,0.000431,0.005524
118014000,0.0324,0.013523,0.002678,0.000431,0.005994
118015000,0.0324,0.013523,0.002678,0.000431,0.002351
118016000,0.0324,0.013523,0.002678,0.000431,0.002233
118017000,0.0324,0.013523,0.002678,0.000431,0.002586
118018000,0.0324,0.013523,0.002678,0.000431,0.002233
118019000,0.0324,0.013523,0.002678,0.000431,0.002351
118020000,0.0324,0.013523,0.002678,0.000431,0.002233
118021000,0.0324,0.013523,0.002678,0.000431,0.002586
118022000,0.0324,0.013523,0.002678,0.000431,0.002116
118023000,0.0324,0.013523,0.002678,0.000431,0.002703
118024000,0.0324,0.013523,0.002678,0.000431,0.002233
118025000,0.0324,0.013523,0.002678,0.000431,0.002351
118026000,0.0324,0.013523,0.002678,0.000431,0.002468
118027000,0.0324,0.013523,0.002678,0.000431,0.002233
118028000,0.0324,0.013523,0.002678,0.000431,0.002116
118029000,0.0324,0.013523,0.002678,0.000431,0.002821
118030000,0.0324,0.013523,0.002678,0.000431,0.002233
118031000,0.0324,0.013523,0.002678,0.000431,0.001645
118032000,0.0324,0.013523,0.002678,0.000431,0.001645
118033000,0.0324,0.013523,0.002678,0.000431,0.001880
118034000,0.0324,0.013523,0.002678,0.000431,0.001763
118035000,0.0324,0.013523,0.002678,0.000431,0.001528
118036000,0.0324,0.013523,0.002678,0.000431,0.001880
118037000,0.0324,0.013523,0.002678,0.000431,0.001528
118038000,0.0324,0.013523,0.002678,0.000431,0.001880
118039000,0.0324,0.013523,0.002678,0.000431,0.001645
118040000,0.0324,0.013523,0.002678,0.000431,0.001763
118041000,0.0324,0.013523,0.002678,0.000431,0.001763
118042000,0.0324,0.013523,0.002678,0.000431,0.001528
118043000,0.0324,0.013523,0.002678,0.000431,0.001880
118044000,0.0324,0.013523,0.002678,0.000431,0.001763
118045000,0.0324,0.013523,0.002678,0.000431,0.001645
118046000,0.0324,0.013523,0.002678,0.000431,0.001645
118047000,0.0324,0.013523,0.002678,0.000431,0.001763
118048000,0.0324,0.013523,0.002678,0.000431,0.001763
118049000,0.0324,0.013523,0.002678,0.000431,0.001528
118050000,0.0324,0.013523,0.002678,0.000431,0.001880
118051000,0.0324,0.013523,0.002678,0.000431,0.001645
118052000,0.0324,0.013523,0.002678,0.000431,0.001763
118053000,0.0324,0.013523,0.002678,0.000431,0.001645
118054000,0.0324,0.013523,0.002678,0.000431,0.001763
118055000,0.0324,0.013523,0.002678,0.000431,0.001763
118056000,0.0324,0.013523,0.002678,0.000431,0.001645
118057000,0.0324,0.013523,0.002678,0.000431,0.001645
118058000,0.0324,0.013523,0.002678,0.000431,0.001763
118059000,0.0324,0.013523,0.002678,0.000431,0.001880
118060000,0.0324,0.013523,0.002678,0.000431,0.001645
118061000,0.0324,0.013523,0.002678,0.000431,0.001645
118062000,0.0324,0.013523,0.002678,0.000431,0.001645
118063000,0.0324,0.013523,0.002678,0.000431,0.001763
118064000,0.0324,0.013523,0.002678,0.000431,0.001880
118065000,0.0324,0.013523,0.002678,0.000431,0.004466
118066000,0.0324,0.013523,0.002678,0.000431,0.000940
118067000,0.0324,0.013523,0.002678,0.000431,0.000705
118068000,0.0324,0.013523,0.002678,0.000431,0.000940
118069000,0.0324,0.013523,0.002678,0.000431,0.000823
118070000,0.0324,0.013523,0.002678,0.000431,0.000823
118071000,0.0324,0.013523,0.002678,0.000431,0.000940
118072000,0.0324,0.013523,0.002678,0.000431,0.000705
118073000,0.0324,0.013523,0.002678,0.000431,0.000940
118074000,0.0324,0.013523,0.002678,0.000431,0.000823
118075000,0.0324,0.013523,0.002678,0.000431,0.000823
118076000,0.0324,0.013523,0.002678,0.000431,0.000823
118077000,0.0324,0.013523,0.002678,0.000431,0.000823
118078000,0.0324,0.013523,0.002678,0.000431,0.000823
118079000,0.0324,0.013523,0.002678,0.000431,0.000823
118080000,0.0324,0.013523,0.002678,0.000431,0.000940
118081000,0.0324,0.013523,0.002678,0.000431,0.000705
118082000,0.0324,0.013523,0.002678,0.000431,0.000940
118083000,0.0324,0.013523,0.002678,0.000431,0.000823
118084000,0.0324,0.013523,0.002678,0.000431,0.000823
118085000,0.0324,0.013523,0.002678,0.000431,0.000705
118086000,0.0324,0.013523,0.002678,0.000431,0.000940
118087000,0.0324,0.013523,0.002678,0.000431,0.000940
118088000,0.0324,0.013523,0.002678,0.000431,0.000705
118089000,0.0324,0.013523,0.002678,0.000431,0.000940
118090000,0.0324,0.013523,0.002678,0.000431,0.000705
118091000,0.0324,0.013523,0.002678,0.000431,0.000940
118092000,0.0324,0.013523,0.002678,0.000431,0.000823
118093000,0.0324,0.013523,0.002678,0.000431,0.000823
118094000,0.0324,0.013523,0.002678,0.000431,0.000940
118095000,0.0324,0.013523,0.002678,0.000431,0.000705
118096000,0.0324,0.013523,0.002678,0.000431,0.000940
118097000,0.0324,0.013523,0.002678,0.000431,0.000823
118098000,0.0324,0.013523,0.002678,0.000431,0.000823
118099000,0.0324,0.013523,0.002678,0.000431,0.000823
118100000,0.0324,0.013523,0.002678,0.000431,0.000823
118101000,0.0324,0.013523,0.002678,0.000431,0.000823
118102000,0.0324,0.013523,0.002678,0.000431,0.000823
118103000,0.0324,0.013523,0.002678,0.000431,0.000940
118104000,0.0324,0.013523,0.002678,0.000431,0.000705
118105000,0.0324,0.013523,0.002678,0.000431,0.000823
118106000,0.0324,0.013523,0.002678,0.000431,0.000940
118107000,0.0324,0.013523,0.002678,0.000431,0.000823
118108000,0.0324,0.013523,0.002678,0.000431,0.000823
118109000,0.0324,0.013523,0.002678,0.000431,0.000823
118110000,0.0324,0.013523,0.002678,0.000431,0.000705
118111000,0.0324,0.013523,0.002678,0.000431,0.000940
118112000,0.0324,0.013523,0.002678,0.000431,0.000940
118113000,0.0324,0.013523,0.002678,0.000431,0.000705
118114000,0.0324,0.013523,0.002678,0.000431,0.000940
118115000,0.0324,0.013523,0.002678,0.000431,0.015161
118116000,0.0324,0.013523,0.002678,0.000431,0.494088
118117000,0.0324,0.013523,0.002678,0.000431,0.595398
118118000,0.0324,0.013523,0.002678,0.000431,0.132572
118119000,0.0324,0.013523,0.002678,0.000431,0.133512
118120000,0.0324,0.013523,0.002678,0.000431,0.418400
118121000,0.0324,0.013523,0.002678,0.000431,0.341419
118122000,0.0324,0.013523,0.002678,0.000431,0.238935
118123000,0.0324,0.013523,0.002678,0.000431,0.303928
118124000,0.0324,0.013523,0.002678,0.000431,0.178055
118125000,0.0324,0.013523,0.002678,0.000431,0.144207
118126000,0.0324,0.013523,0.002678,0.000431,0.166890
118127000,0.0324,0.013523,0.002678,0.000431,0.142209
118128000,0.0324,0.013523,0.002678,0.000431,0.420986
118129000,0.0324,0.013523,0.002678,0.000431,0.010225
118130000,0.0324,0.013523,0.002678,0.000431,0.001998
118131000,0.0324,0.013523,0.002678,0.000431,0.002703
118132000,0.0324,0.013523,0.002678,0.000431,0.002468
118133000,0.0324,0.013523,0.002678,0.000431,0.002233
118134000,0.0324,0.013523,0.002678,0.000431,0.002468
118135000,0.0324,0.013523,0.002678,0.000431,0.002351
118136000,0.0324,0.013523,0.002678,0.000431,0.002468
118137000,0.0324,0.013523,0.002678,0.000431,0.002351
118138000,0.0324,0.013523,0.002678,0.000431,0.002586
118139000,0.0324,0.013523,0.002678,0.000431,0.002116
118140000,0.0324,0.013523,0.002678,0.000431,0.002468
118141000,0.0324,0.013523,0.002678,0.000431,0.002586
118142000,0.0324,0.013523,0.002678,0.000431,0.002468
118143000,0.0324,0.013523,0.002678,0.000431,0.002233
118144000,0.0324,0.013523,0.002678,0.000431,0.002468
118145000,0.0324,0.013523,0.002678,0.000431,0.002116
118146000,0.0324,0.013523,0.002678,0.000431,0.003878
118147000,0.0324,0.013523,0.002678,0.000431,0.001880
118148000,0.0324,0.013523,0.002678,0.000431,0.001175
118149000,0.0324,0.013523,0.002678,0.000431,0.001880
118150000,0.0324,0.013523,0.002678,0.000431,0.001410
118151000,0.0324,0.013523,0.002678,0.000431,0.001645
118152000,0.0324,0.013523,0.002678,0.000431,0.001645
118153000,0.0324,0.013523,0.002678,0.000431,0.001410
118154000,0.0324,0.013523,0.002678,0.000431,0.001645
118155000,0.0324,0.013523,0.002678,0.000431,0.001645
118156000,0.0324,0.013523,0.002678,0.000431,0.001410
118157000,0.0324,0.013523,0.002678,0.000431,0.014103
118158000,0.0324,0.013523,0.002678,0.000431,0.405825
118159000,0.0324,0.013523,0.002678,0.000431,0.598101
118160000,0.0324,0.013523,0.002678,0.000431,0.133982
118161000,0.0324,0.013523,0.002678,0.000431,0.130691
118162000,0.0324,0.013523,0.002678,0.000431,0.249277
118163000,0.0324,0.013523,0.002678,0.000431,0.587876
118164000,0.0324,0.013523,0.002678,0.000431,0.226829
118165000,0.0324,0.013523,0.002678,0.000431,0.285946
118166000,0.0324,0.013523,0.002678,0.000431,0.187340
118167000,0.0324,0.013523,0.002678,0.000431,0.134100
118168000,0.0324,0.013523,0.002678,0.000431,0.178878
118169000,0.0324,0.013523,0.002678,0.000431,0.082857
118170000,0.0324,0.013523,0.002678,0.000431,0.450015
118171000,0.0324,0.013523,0.002678,0.000431,0.088969
118172000,0.0324,0.013523,0.002678,0.000431,0.037021
118173000,0.0324,0.013523,0.002678,0.000431,0.033613
118174000,0.0324,0.013523,0.002678,0.000431,0.030440
118175000,0.0324,0.013523,0.002678,0.000431,0.027972
118176000,0.0324,0.013523,0.002678,0.000431,0.031733
118177000,0.0324,0.013523,0.002678,0.000431,0.022918
118178000,0.0324,0.013523,0.002678,0.000431,0.020215
118179000,0.0324,0.013523,0.002678,0.000431,0.019157
118180000,0.0324,0.013523,0.002678,0.000431,0.021273
118181000,0.0324,0.013523,0.002678,0.000431,0.017159
118182000,0.0324,0.013523,0.002678,0.000431,0.018569
118183000,0.0324,0.013523,0.002678,0.000431,0.017042
118184000,0.0324,0.013523,0.002678,0.000431,0.015161
118185000,0.0324,0.013523,0.002678,0.000431,0.016689
118186000,0.0324,0.013523,0.002678,0.000431,0.015161
118187000,0.0324,0.013523,0.002678,0.000431,0.015866
118188000,0.0324,0.013523,0.002678,0.000431,0.015749
118189000,0.0324,0.013523,0.002678,0.000431,0.014573
118190000,0.0324,0.013523,0.002678,0.000431,0.012928
118191000,0.0324,0.013523,0.002678,0.000431,0.012576
118192000,0.0324,0.013523,0.002678,0.000431,0.010930
118193000,0.0324,0.013523,0.002678,0.000431,0.010342
118194000,0.0324,0.013523,0.002678,0.000431,0.011635
118195000,0.0324,0.013523,0.002678,0.000431,0.012458
118196000,0.0324,0.013523,0.002678,0.000431,0.009520
118197000,0.0324,0.013523,0.002678,0.000431,0.009872
118198000,0.0324,0.013523,0.002678,0.000431,0.011988
118199000,0.0324,0.013523,0.002678,0.000431,0.009285
118200000,0.0324,0.013523,0.002678,0.000431,0.009285
118201000,0.0324,0.013523,0.002678,0.000431,0.013516
118202000,0.0324,0.013523,0.002678,0.000431,0.007522
118203000,0.0324,0.013523,0.002678,0.000431,0.007404
118204000,0.0324,0.013523,0.002678,0.000431,0.007757
118205000,0.0324,0.013523,0.002678,0.000431,0.007404
118206000,0.0324,0.013523,0.002678,0.000431,0.007757
118207000,0.0324,0.013523,0.002678,0.000431,0.007052
118208000,0.0324,0.013523,0.002678,0.000431,0.010107
118209000,0.0324,0.013523,0.002678,0.000431,0.006934
118210000,0.0324,0.013523,0.002678,0.000431,0.006817
118211000,0.0324,0.013523,0.002678,0.000431,0.006699
118212000,0.0324,0.013523,0.002678,0.000431,0.006582
118213000,0.0324,0.013523,0.002678,0.000431,0.006582
118214000,0.0324,0.013523,0.002678,0.000431,0.007287
118215000,0.0324,0.013523,0.002678,0.000431,0.007639
118216000,0.0324,0.013523,0.002678,0.000431,0.006347
118217000,0.0324,0.013523,0.002678,0.000431,0.006582
118218000,0.0324,0.013523,0.002678,0.000431,0.004466
118219000,0.0324,0.013523,0.002678,0.000431,0.005171
118220000,0.0324,0.013523,0.002678,0.000431,0.005406
118221000,0.0324,0.013523,0.002678,0.000431,0.004584
118222000,0.0324,0.013523,0.002678,0.000431,0.004936
118223000,0.0324,0.013523,0.002678,0.000431,0.005406
118224000,0.0324,0.013523,0.002678,0.000431,0.004466
118225000,0.0324,0.013523,0.002678,0.000431,0.005289
118226000,0.0324,0.013523,0.002678,0.000431,0.006464
118227000,0.0324,0.013523,0.002678,0.000431,0.003996
118228000,0.0324,0.013523,0.002678,0.000431,0.005171
118229000,0.0324,0.013523,0.002678,0.000431,0.004349
118230000,0.0324,0.013523,0.002678,0.000431,0.003291
118231000,0.0324,0.013523,0.002678,0.000431,0.003526
118232000,0.0324,0.013523,0.002678,0.000431,0.003408
118233000,0.0324,0.013523,0.002678,0.000431,0.003291
118234000,0.0324,0.013523,0.002678,0.000431,0.003173
118235000,0.0324,0.013523,0.002678,0.000431,0.003291
118236000,0.0324,0.013523,0.002678,0.000431,0.003761
118237000,0.0324,0.013523,0.002678,0.000431,0.001763
118238000,0.0324,0.013523,0.002678,0.000431,0.001763
118239000,0.0324,0.013523,0.002678,0.000431,0.003408
118240000,0.0324,0.013523,0.002678,0.000431,0.001058
118241000,0.0324,0.013523,0.002678,0.000431,0.000940
118242000,0.0324,0.013523,0.002678,0.000431,0.000705
118243000,0.0324,0.013523,0.002678,0.000431,0.000940
118244000,0.0324,0.013523,0.002678,0.000431,0.000940
118245000,0.0324,0.013523,0.002678,0.000431,0.000940
118246000,0.0324,0.013523,0.002678,0.000431,0.000705
118247000,0.0324,0.013523,0.002678,0.000431,0.000940
118248000,0.0324,0.013523,0.002678,0.000431,0.000940
118249000,0.0324,0.013523,0.002678,0.000431,0.000823
118250000,0.0324,0.013523,0.002678,0.000431,0.000823
118251000,0.0324,0.013523,0.002678,0.000431,0.000940
118252000,0.0324,0.013523,0.002678,0.000431,0.000823
118253000,0.0324,0.013523,0.002678,0.000431,0.000940
118254000,0.0324,0.013523,0.002678,0.000431,0.000823
118255000,0.0324,0.013523,0.002678,0.000431,0.000940
118256000,0.0324,0.013523,0.002678,0.000431,0.000823
118257000,0.0324,0.013523,0.002678,0.000431,0.000823
118258000,0.0324,0.013523,0.002678,0.000431,0.000940
118259000,0.0324,0.013523,0.002678,0.000431,0.000940
118260000,0.0324,0.013523,0.002678,0.000431,0.000823
118261000,0.0324,0.013523,0.002678,0.000431,0.000823
118262000,0.0324,0.013523,0.002678,0.000431,0.000940
118263000,0.0324,0.013523,0.002678,0.000431,0.000940
118264000,0.0324,0.013523,0.002678,0.000431,0.000823
118265000,0.0324,0.013523,0.002678,0.000431,0.000823
118266000,0.0324,0.013523,0.002678,0.000431,0.000940
118267000,0.0324,0.013523,0.002678,0.000431,0.000940
118268000,0.0324,0.013523,0.002678,0.000431,0.000823
118269000,0.0324,0.013523,0.002678,0.000431,0.000823
118270000,0.0324,0.013523,0.002678,0.000431,0.000940
118271000,0.0324,0.013523,0.002678,0.000431,0.000823
118272000,0.0324,0.013523,0.002678,0.000431,0.000940
118273000,0.0324,0.013523,0.002678,0.000431,0.000823
118274000,0.0324,0.013523,0.002678,0.000431,0.000940
118275000,0.0324,0.013523,0.002678,0.000431,0.000823
118276000,0.0324,0.013523,0.002678,0.000431,0.000823
118277000,0.0324,0.013523,0.002678,0.000431,0.000940
118278000,0.0324,0.013523,0.002678,0.000431,0.000940
118279000,0.0324,0.013523,0.002678,0.000431,0.000823
118280000,0.0324,0.013523,0.002678,0.000431,0.000823
118281000,0.0324,0.013523,0.002678,0.000431,0.000940
118282000,0.0324,0.013523,0.002678,0.000431,0.000940
118283000,0.0324,0.013523,0.002678,0.000431,0.000705
118284000,0.0324,0.013523,0.002678,0.000431,0.000940
118285000,0.0324,0.013523,0.002678,0.000431,0.000940
118286000,0.0324,0.013523,0.002678,0.000431,0.000940
118287000,0.0324,0.013523,0.002678,0.000431,0.000823
118288000,0.0324,0.013523,0.002678,0.000431,0.000823
118289000,0.0324,0.013523,0.002678,0.000431,0.000940
118290000,0.0324,0.013523,0.002678,0.000431,0.000940
118291000,0.0324,0.013523,0.002678,0.000431,0.224949
118292000,0.0324,0.013523,0.002678,0.000431,0.604095
118293000,0.0324,0.013523,0.002678,0.000431,0.323203
118294000,0.0324,0.013523,0.002678,0.000431,0.130691
118295000,0.0324,0.013523,0.002678,0.000431,0.133982
118296000,0.0324,0.013523,0.002678,0.000431,0.580824
118297000,0.0324,0.013523,0.002678,0.000431,0.239287
118298000,0.0324,0.013523,0.002678,0.000431,0.268317
118299000,0.0324,0.013523,0.002678,0.000431,0.290765
118300000,0.0324,0.013523,0.002678,0.000431,0.136450
118301000,0.0324,0.013523,0.002678,0.000431,0.142092
118302000,0.0324,0.013523,0.002678,0.000431,0.111417
118303000,0.0324,0.013523,0.002678,0.000431,0.351527
118304000,0.0324,0.013523,0.002678,0.000431,0.233528
118305000,0.0324,0.013523,0.002678,0.000431,0.042310
118306000,0.0324,0.013523,0.002678,0.000431,0.038432
118307000,0.0324,0.013523,0.002678,0.000431,0.037256
118308000,0.0324,0.013523,0.002678,0.000431,0.025504
118309000,0.0324,0.013523,0.002678,0.000431,0.024446
118310000,0.0324,0.013523,0.002678,0.000431,0.023858
118311000,0.0324,0.013523,0.002678,0.000431,0.021743
118312000,0.0324,0.013523,0.002678,0.000431,0.021625
118313000,0.0324,0.013523,0.002678,0.000431,0.018452
118314000,0.0324,0.013523,0.002678,0.000431,0.018334
118315000,0.0324,0.013523,0.002678,0.000431,0.020097
118316000,0.0324,0.013523,0.002678,0.000431,0.017159
118317000,0.0324,0.013523,0.002678,0.000431,0.015866
118318000,0.0324,0.013523,0.002678,0.000431,0.015396
118319000,0.0324,0.013523,0.002678,0.000431,0.015044
118320000,0.0324,0.013523,0.002678,0.000431,0.014926
118321000,0.0324,0.013523,0.002678,0.000431,0.016336
118322000,0.0324,0.013523,0.002678,0.000431,0.014338
118323000,0.0324,0.013523,0.002678,0.000431,0.014691
118324000,0.0324,0.013523,0.002678,0.000431,0.013516
118325000,0.0324,0.013523,0.002678,0.000431,0.014456
118326000,0.0324,0.013523,0.002678,0.000431,0.010225
118327000,0.0324,0.013523,0.002678,0.000431,0.008697
118328000,0.0324,0.013523,0.002678,0.000431,0.009520
118329000,0.0324,0.013523,0.002678,0.000431,0.008815
118330000,0.0324,0.013523,0.002678,0.000431,0.009285
118331000,0.0324,0.013523,0.002678,0.000431,0.008697
118332000,0.0324,0.013523,0.002678,0.000431,0.007757
118333000,0.0324,0.013523,0.002678,0.000431,0.008462
118334000,0.0324,0.013523,0.002678,0.000431,0.007874
118335000,0.0324,0.013523,0.002678,0.000431,0.008580
118336000,0.0324,0.013523,0.002678,0.000431,0.007992
118337000,0.0324,0.013523,0.002678,0.000431,0.008462
118338000,0.0324,0.013523,0.002678,0.000431,0.008227
118339000,0.0324,0.013523,0.002678,0.000431,0.008462
118340000,0.0324,0.013523,0.002678,0.000431,0.008345
118341000,0.0324,0.013523,0.002678,0.000431,0.008580
118342000,0.0324,0.013523,0.002678,0.000431,0.007992
118343000,0.0324,0.013523,0.002678,0.000431,0.008345
118344000,0.0324,0.013523,0.002678,0.000431,0.008932
118345000,0.0324,0.013523,0.002678,0.000431,0.007874
118346000,0.0324,0.013523,0.002678,0.000431,0.013163
118347000,0.0324,0.013523,0.002678,0.000431,0.007287
118348000,0.0324,0.013523,0.002678,0.000431,0.006464
118349000,0.0324,0.013523,0.002678,0.000431,0.006699
118350000,0.0324,0.013523,0.002678,0.000431,0.006347
118351000,0.0324,0.013523,0.002678,0.000431,0.006934
118352000,0.0324,0.013523,0.002678,0.000431,0.007287
118353000,0.0324,0.013523,0.002678,0.000431,0.007992
118354000,0.0324,0.013523,0.002678,0.000431,0.006229
118355000,0.0324,0.013523,0.002678,0.000431,0.005759
118356000,0.0324,0.013523,0.002678,0.000431,0.005876
118357000,0.0324,0.013523,0.002678,0.000431,0.005876
118358000,0.0324,0.013523,0.002678,0.000431,0.005876
118359000,0.0324,0.013523,0.002678,0.000431,0.005876
118360000,0.0324,0.013523,0.002678,0.000431,0.008227
118361000,0.0324,0.013523,0.002678,0.000431,0.004231
118362000,0.0324,0.013523,0.002678,0.000431,0.004113
118363000,0.0324,0.013523,0.002678,0.000431,0.004349
118364000,0.0324,0.013523,0.002678,0.000431,0.004113
118365000,0.0324,0.013523,0.002678,0.000431,0.004113
118366000,0.0324,0.013523,0.002678,0.000431,0.004113
118367000,0.0324,0.013523,0.002678,0.000431,0.004113
118368000,0.0324,0.013523,0.002678,0.000431,0.004113
118369000,0.0324,0.013523,0.002678,0.000431,0.004231
118370000,0.0324,0.013523,0.002678,0.000431,0.003878
118371000,0.0324,0.013523,0.002678,0.000431,0.005876
118372000,0.0324,0.013523,0.002678,0.000431,0.003408
118373000,0.0324,0.013523,0.002678,0.000431,0.003526
118374000,0.0324,0.013523,0.002678,0.000431,0.002938
118375000,0.0324,0.013523,0.002678,0.000431,0.003291
118376000,0.0324,0.013523,0.002678,0.000431,0.003643
118377000,0.0324,0.013523,0.002678,0.000431,0.003173
118378000,0.0324,0.013523,0.002678,0.000431,0.003173
118379000,0.0324,0.013523,0.002678,0.000431,0.003526
118380000,0.0324,0.013523,0.002678,0.000431,0.003291
118381000,0.0324,0.013523,0.002678,0.000431,0.003291
118382000,0.0324,0.013523,0.002678,0.000431,0.003291
118383000,0.0324,0.013523,0.002678,0.000431,0.003526
118384000,0.0324,0.013523,0.002678,0.000431,0.003173
118385000,0.0324,0.013523,0.002678,0.000431,0.003173
118386000,0.0324,0.013523,0.002678,0.000431,0.003643
118387000,0.0324,0.013523,0.002678,0.000431,0.003173
118388000,0.0324,0.013523,0.002678,0.000431,0.003526
118389000,0.0324,0.013523,0.002678,0.000431,0.002938
118390000,0.0324,0.013523,0.002678,0.000431,0.003643
118391000,0.0324,0.013523,0.002678,0.000431,0.003291
118392000,0.0324,0.013523,0.002678,0.000431,0.003291
118393000,0.0324,0.013523,0.002678,0.000431,0.003408
118394000,0.0324,0.013523,0.002678,0.000431,0.003173
118395000,0.0324,0.013523,0.002678,0.000431,0.003526
118396000,0.0324,0.013523,0.002678,0.000431,0.003173
118397000,0.0324,0.013523,0.002678,0.000431,0.003408
118398000,0.0324,0.013523,0.002678,0.000431,0.003173
118399000,0.0324,0.013523,0.002678,0.000431,0.003408
118400000,0.0324,0.013523,0.002678,0.000431,0.003291
118401000,0.0324,0.013523,0.002678,0.000431,0.003291
118402000,0.0324,0.013523,0.002678,0.000431,0.003526
118403000,0.0324,0.013523,0.002678,0.000431,0.003056
118404000,0.0324,0.013523,0.002678,0.000431,0.003408
118405000,0.0324,0.013523,0.002678,0.000431,0.003408
118406000,0.0324,0.013523,0.002678,0.000431,0.003291
118407000,0.0324,0.013523,0.002678,0.000431,0.003173
118408000,0.0324,0.013523,0.002678,0.000431,0.003408
118409000,0.0324,0.013523,0.002678,0.000431,0.003173
118410000,0.0324,0.013523,0.002678,0.000431,0.003408
118411000,0.0324,0.013523,0.002678,0.000431,0.003526
118412000,0.0324,0.013523,0.002678,0.000431,0.003173
118413000,0.0324,0.013523,0.002678,0.000431,0.003291
118414000,0.0324,0.013523,0.002678,0.000431,0.003291
118415000,0.0324,0.013523,0.002678,0.000431,0.003408
118416000,0.0324,0.013523,0.002678,0.000431,0.003643
118417000,0.0324,0.013523,0.002678,0.000431,0.002938
118418000,0.0324,0.013523,0.002678,0.000431,0.003408
118419000,0.0324,0.013523,0.002678,0.000431,0.003291
118420000,0.0324,0.013523,0.002678,0.000431,0.003643
118421000,0.0324,0.013523,0.002678,0.000431,0.003056
118422000,0.0324,0.013523,0.002678,0.000431,0.003291
118423000,0.0324,0.013523,0.002678,0.000431,0.003526
118424000,0.0324,0.013523,0.002678,0.000431,0.003291
118425000,0.0324,0.013523,0.002678,0.000431,0.003996
118426000,0.0324,0.013523,0.002678,0.000431,0.002938
118427000,0.0324,0.013523,0.002678,0.000431,0.000940
118428000,0.0324,0.013523,0.002678,0.000431,0.000705
118429000,0.0324,0.013523,0.002678,0.000431,0.000940
118430000,0.0324,0.013523,0.002678,0.000431,0.000823
118431000,0.0324,0.013523,0.002678,0.000431,0.000823
118432000,0.0324,0.013523,0.002678,0.000431,0.000940
118433000,0.0324,0.013523,0.002678,0.000431,0.000705
118434000,0.0324,0.013523,0.002678,0.000431,0.000940
118435000,0.0324,0.013523,0.002678,0.000431,0.000705
118436000,0.0324,0.013523,0.002678,0.000431,0.000940
118437000,0.0324,0.013523,0.002678,0.000431,0.000823
118438000,0.0324,0.013523,0.002678,0.000431,0.000823
118439000,0.0324,0.013523,0.002678,0.000431,0.000823
118440000,0.0324,0.013523,0.002678,0.000431,0.000823
118441000,0.0324,0.013523,0.002678,0.000431,0.000940
118442000,0.0324,0.013523,0.002678,0.000431,0.000705
118443000,0.0324,0.013523,0.002678,0.000431,0.000940
118444000,0.0324,0.013523,0.002678,0.000431,0.000705
118445000,0.0324,0.013523,0.002678,0.000431,0.000940
118446000,0.0324,0.013523,0.002678,0.000431,0.000705
118447000,0.0324,0.013523,0.002678,0.000431,0.000940
118448000,0.0324,0.013523,0.002678,0.000431,0.000940
118449000,0.0324,0.013523,0.002678,0.000431,0.000705
118450000,0.0324,0.013523,0.002678,0.000431,0.000940
118451000,0.0324,0.013523,0.002678,0.000431,0.000705
118452000,0.0324,0.013523,0.002678,0.000431,0.000940
118453000,0.0324,0.013523,0.002678,0.000431,0.000823
118454000,0.0324,0.013523,0.002678,0.000431,0.000823
118455000,0.0324,0.013523,0.002678,0.000431,0.000823
118456000,0.0324,0.013523,0.002678,0.000431,0.000823
118457000,0.0324,0.013523,0.002678,0.000431,0.000940
118458000,0.0324,0.013523,0.002678,0.000431,0.000823
118459000,0.0324,0.013523,0.002678,0.000431,0.000823
118460000,0.0324,0.013523,0.002678,0.000431,0.000823
118461000,0.0324,0.013523,0.002678,0.000431,0.000823
118462000,0.0324,0.013523,0.002678,0.000431,0.000823
118463000,0.0324,0.013523,0.002678,0.000431,0.000823
118464000,0.0324,0.013523,0.002678,0.000431,0.000705
118465000,0.0324,0.013523,0.002678,0.000431,0.000940
118466000,0.0324,0.013523,0.002678,0.000431,0.000940
118467000,0.0324,0.013523,0.002678,0.000431,0.000705
118468000,0.0324,0.013523,0.002678,0.000431,0.000940
118469000,0.0324,0.013523,0.002678,0.000431,0.000705
118470000,0.0324,0.013523,0.002678,0.000431,0.000940
118471000,0.0324,0.013523,0.002678,0.000431,0.000823
118472000,0.0324,0.013523,0.002678,0.000431,0.000823
118473000,0.0324,0.013523,0.002678,0.000431,0.000823
118474000,0.0324,0.013523,0.002678,0.000431,0.000823
118475000,0.0324,0.013523,0.002678,0.000431,0.000940
118476000,0.0324,0.013523,0.002678,0.000431,0.000705
118477000,0.0324,0.013523,0.002678,0.000431,0.000940
118478000,0.0324,0.013523,0.002678,0.000431,0.000823
118479000,0.0324,0.013523,0.002678,0.000431,0.000823
118480000,0.0324,0.013523,0.002678,0.000431,0.000823
118481000,0.0324,0.013523,0.002678,0.000431,0.000823
118482000,0.0324,0.013523,0.002678,0.000431,0.000823
118483000,0.0324,0.013523,0.002678,0.000431,0.000823
118484000,0.0324,0.013523,0.002678,0.000431,0.000823
118485000,0.0324,0.013523,0.002678,0.000431,0.000940
118486000,0.0324,0.013523,0.002678,0.000431,0.000823
118487000,0.0324,0.013523,0.002678,0.000431,0.000823
118488000,0.0324,0.013523,0.002678,0.000431,0.000823
118489000,0.0324,0.013523,0.002678,0.000431,0.000705
118490000,0.0324,0.013523,0.002678,0.000431,0.000940
118491000,0.0324,0.013523,0.002678,0.000431,0.000940
118492000,0.0324,0.013523,0.002678,0.000431,0.000705
118493000,0.0324,0.013523,0.002678,0.000431,0.000940
118494000,0.0324,0.013523,0.002678,0.000431,0.032555
118495000,0.0324,0.013523,0.002678,0.000431,0.460005
118496000,0.0324,0.013523,0.002678,0.000431,0.606563
118497000,0.0324,0.013523,0.002678,0.000431,0.131161
118498000,0.0324,0.013523,0.002678,0.000431,0.132572
118499000,0.0324,0.013523,0.002678,0.000431,0.456127
118500000,0.0324,0.013523,0.002678,0.000431,0.326023
118501000,0.0324,0.013523,0.002678,0.000431,0.266789
118502000,0.0324,0.013523,0.002678,0.000431,0.281480
118503000,0.0324,0.013523,0.002678,0.000431,0.185695
118504000,0.0324,0.013523,0.002678,0.000431,0.142092
118505000,0.0324,0.013523,0.002678,0.000431,0.156430
118506000,0.0324,0.013523,0.002678,0.000431,0.131279
118507000,0.0324,0.013523,0.002678,0.000431,0.446842
118508000,0.0324,0.013523,0.002678,0.000431,0.071457
118509000,0.0324,0.013523,0.002678,0.000431,0.057001
118510000,0.0324,0.013523,0.002678,0.000431,0.050302
118511000,0.0324,0.013523,0.002678,0.000431,0.042663
118512000,0.0324,0.013523,0.002678,0.000431,0.037256
118513000,0.0324,0.013523,0.002678,0.000431,0.034201
118514000,0.0324,0.013523,0.002678,0.000431,0.029029
118515000,0.0324,0.013523,0.002678,0.000431,0.029617
118516000,0.0324,0.013523,0.002678,0.000431,0.027854
118517000,0.0324,0.013523,0.002678,0.000431,0.025151
118518000,0.0324,0.013523,0.002678,0.000431,0.020920
118519000,0.0324,0.013523,0.002678,0.000431,0.022565
118520000,0.0324,0.013523,0.002678,0.000431,0.021390
118521000,0.0324,0.013523,0.002678,0.000431,0.019392
118522000,0.0324,0.013523,0.002678,0.000431,0.017277
118523000,0.0324,0.013523,0.002678,0.000431,0.015396
118524000,0.0324,0.013523,0.002678,0.000431,0.014691
118525000,0.0324,0.013523,0.002678,0.000431,0.015279
118526000,0.0324,0.013523,0.002678,0.000431,0.017042
118527000,0.0324,0.013523,0.002678,0.000431,0.013281
118528000,0.0324,0.013523,0.002678,0.000431,0.012928
118529000,0.0324,0.013523,0.002678,0.000431,0.013046
118530000,0.0324,0.013523,0.002678,0.000431,0.011518
118531000,0.0324,0.013523,0.002678,0.000431,0.011753
118532000,0.0324,0.013523,0.002678,0.000431,0.011988
118533000,0.0324,0.013523,0.002678,0.000431,0.013163
118534000,0.0324,0.013523,0.002678,0.000431,0.010930
118535000,0.0324,0.013523,0.002678,0.000431,0.012223
118536000,0.0324,0.013523,0.002678,0.000431,0.009520
118537000,0.0324,0.013523,0.002678,0.000431,0.012928
118538000,0.0324,0.013523,0.002678,0.000431,0.008697
118539000,0.0324,0.013523,0.002678,0.000431,0.009167
118540000,0.0324,0.013523,0.002678,0.000431,0.009167
118541000,0.0324,0.013523,0.002678,0.000431,0.009285
118542000,0.0324,0.013523,0.002678,0.000431,0.010107
118543000,0.0324,0.013523,0.002678,0.000431,0.008109
118544000,0.0324,0.013523,0.002678,0.000431,0.008227
118545000,0.0324,0.013523,0.002678,0.000431,0.008462
118546000,0.0324,0.013523,0.002678,0.000431,0.009755
118547000,0.0324,0.013523,0.002678,0.000431,0.006934
118548000,0.0324,0.013523,0.002678,0.000431,0.007992
118549000,0.0324,0.013523,0.002678,0.000431,0.008697
118550000,0.0324,0.013523,0.002678,0.000431,0.006464
118551000,0.0324,0.013523,0.002678,0.000431,0.006934
118552000,0.0324,0.013523,0.002678,0.000431,0.006111
118553000,0.0324,0.013523,0.002678,0.000431,0.007169
118554000,0.0324,0.013523,0.002678,0.000431,0.006699
118555000,0.0324,0.013523,0.002678,0.000431,0.006699
118556000,0.0324,0.013523,0.002678,0.000431,0.006934
118557000,0.0324,0.013523,0.002678,0.000431,0.007992
118558000,0.0324,0.013523,0.002678,0.000431,0.006111
118559000,0.0324,0.013523,0.002678,0.000431,0.005759
118560000,0.0324,0.013523,0.002678,0.000431,0.005641
118561000,0.0324,0.013523,0.002678,0.000431,0.009402
118562000,0.0324,0.013523,0.002678,0.000431,0.005289
118563000,0.0324,0.013523,0.002678,0.000431,0.004936
118564000,0.0324,0.013523,0.002678,0.000431,0.004819
118565000,0.0324,0.013523,0.002678,0.000431,0.005406
118566000,0.0324,0.013523,0.002678,0.000431,0.004936
118567000,0.0324,0.013523,0.002678,0.000431,0.005759
118568000,0.0324,0.013523,0.002678,0.000431,0.004349
118569000,0.0324,0.013523,0.002678,0.000431,0.003408
118570000,0.0324,0.013523,0.002678,0.000431,0.003173
118571000,0.0324,0.013523,0.002678,0.000431,0.003526
118572000,0.0324,0.013523,0.002678,0.000431,0.004819
118573000,0.0324,0.013523,0.002678,0.000431,0.002351
118574000,0.0324,0.013523,0.002678,0.000431,0.002703
118575000,0.0324,0.013523,0.002678,0.000431,0.002468
118576000,0.0324,0.013523,0.002678,0.000431,0.002468
118577000,0.0324,0.013523,0.002678,0.000431,0.002351
118578000,0.0324,0.013523,0.002678,0.000431,0.002703
118579000,0.0324,0.013523,0.002678,0.000431,0.002468
118580000,0.0324,0.013523,0.002678,0.000431,0.002468
118581000,0.0324,0.013523,0.002678,0.000431,0.002586
118582000,0.0324,0.013523,0.002678,0.000431,0.002351
118583000,0.0324,0.013523,0.002678,0.000431,0.002586
118584000,0.0324,0.013523,0.002678,0.000431,0.002586
118585000,0.0324,0.013523,0.002678,0.000431,0.002586
118586000,0.0324,0.013523,0.002678,0.000431,0.002233
118587000,0.0324,0.013523,0.002678,0.000431,0.002703
118588000,0.0324,0.013523,0.002678,0.000431,0.002468
118589000,0.0324,0.013523,0.002678,0.000431,0.002468
118590000,0.0324,0.013523,0.002678,0.000431,0.002703
118591000,0.0324,0.013523,0.002678,0.000431,0.002233
118592000,0.0324,0.013523,0.002678,0.000431,0.002821
118593000,0.0324,0.013523,0.002678,0.000431,0.002351
118594000,0.0324,0.013523,0.002678,0.000431,0.002586
118595000,0.0324,0.013523,0.002678,0.000431,0.002586
118596000,0.0324,0.013523,0.002678,0.000431,0.002351
118597000,0.0324,0.013523,0.002678,0.000431,0.002703
118598000,0.0324,0.013523,0.002678,0.000431,0.002351
118599000,0.0324,0.013523,0.002678,0.000431,0.002586
118600000,0.0324,0.013523,0.002678,0.000431,0.002351
118601000,0.0324,0.013523,0.002678,0.000431,0.002703
118602000,0.0324,0.013523,0.002678,0.000431,0.002468
118603000,0.0324,0.013523,0.002678,0.000431,0.002351
118604000,0.0324,0.013523,0.002678,0.000431,0.002821
118605000,0.0324,0.013523,0.002678,0.000431,0.002233
118606000,0.0324,0.013523,0.002678,0.000431,0.002703
118607000,0.0324,0.013523,0.002678,0.000431,0.002468
118608000,0.0324,0.013523,0.002678,0.000431,0.002468
118609000,0.0324,0.013523,0.002678,0.000431,0.002351
118610000,0.0324,0.013523,0.002678,0.000431,0.002703
118611000,0.0324,0.013523,0.002678,0.000431,0.002586
118612000,0.0324,0.013523,0.002678,0.000431,0.002351
118613000,0.0324,0.013523,0.002678,0.000431,0.002586
118614000,0.0324,0.013523,0.002678,0.000431,0.002351
118615000,0.0324,0.013523,0.002678,0.000431,0.002703
118616000,0.0324,0.013523,0.002678,0.000431,0.002468
118617000,0.0324,0.013523,0.002678,0.000431,0.002586
118618000,0.0324,0.013523,0.002678,0.000431,0.002468
118619000,0.0324,0.013523,0.002678,0.000431,0.002468
118620000,0.0324,0.013523,0.002678,0.000431,0.002468
118621000,0.0324,0.013523,0.002678,0.000431,0.002586
118622000,0.0324,0.013523,0.002678,0.000431,0.002703
118623000,0.0324,0.013523,0.002678,0.000431,0.002233
118624000,0.0324,0.013523,0.002678,0.000431,0.002703
118625000,0.0324,0.013523,0.002678,0.000431,0.002233
118626000,0.0324,0.013523,0.002678,0.000431,0.005641
118627000,0.0324,0.013523,0.002678,0.000431,0.001763
118628000,0.0324,0.013523,0.002678,0.000431,0.001528
118629000,0.0324,0.013523,0.002678,0.000431,0.001763
118630000,0.0324,0.013523,0.002678,0.000431,0.001528
118631000,0.0324,0.013523,0.002678,0.000431,0.001880
118632000,0.0324,0.013523,0.002678,0.000431,0.001528
118633000,0.0324,0.013523,0.002678,0.000431,0.001763
118634000,0.0324,0.013523,0.002678,0.000431,0.001528
118635000,0.0324,0.013523,0.002678,0.000431,0.001763
118636000,0.0324,0.013523,0.002678,0.000431,0.001645
118637000,0.0324,0.013523,0.002678,0.000431,0.001645
118638000,0.0324,0.013523,0.002678,0.000431,0.001880
118639000,0.0324,0.013523,0.002678,0.000431,0.001528
118640000,0.0324,0.013523,0.002678,0.000431,0.001763
118641000,0.0324,0.013523,0.002678,0.000431,0.001763
118642000,0.0324,0.013523,0.002678,0.000431,0.003056
118643000,0.0324,0.013523,0.002678,0.000431,0.000823
118644000,0.0324,0.013523,0.002678,0.000431,0.000823
118645000,0.0324,0.013523,0.002678,0.000431,0.000940
118646000,0.0324,0.013523,0.002678,0.000431,0.000823
118647000,0.0324,0.013523,0.002678,0.000431,0.000823
118648000,0.0324,0.013523,0.002678,0.000431,0.000705
118649000,0.0324,0.013523,0.002678,0.000431,0.000940
118650000,0.0324,0.013523,0.002678,0.000431,0.000940
118651000,0.0324,0.013523,0.002678,0.000431,0.000705
118652000,0.0324,0.013523,0.002678,0.000431,0.000940
118653000,0.0324,0.013523,0.002678,0.000431,0.000705
118654000,0.0324,0.013523,0.002678,0.000431,0.000940
118655000,0.0324,0.013523,0.002678,0.000431,0.000823
118656000,0.0324,0.013523,0.002678,0.000431,0.000823
118657000,0.0324,0.013523,0.002678,0.000431,0.000823
118658000,0.0324,0.013523,0.002678,0.000431,0.000823
118659000,0.0324,0.013523,0.002678,0.000431,0.000940
118660000,0.0324,0.013523,0.002678,0.000431,0.000705
118661000,0.0324,0.013523,0.002678,0.000431,0.000940
118662000,0.0324,0.013523,0.002678,0.000431,0.000705
118663000,0.0324,0.013523,0.002678,0.000431,0.000823
118664000,0.0324,0.013523,0.002678,0.000431,0.000823
118665000,0.0324,0.013523,0.002678,0.000431,0.000940
118666000,0.0324,0.013523,0.002678,0.000431,0.000705
118667000,0.0324,0.013523,0.002678,0.000431,0.000940
118668000,0.0324,0.013523,0.002678,0.000431,0.000705
118669000,0.0324,0.013523,0.002678,0.000431,0.000940
118670000,0.0324,0.013523,0.002678,0.000431,0.000823
118671000,0.0324,0.013523,0.002678,0.000431,0.000823
118672000,0.0324,0.013523,0.002678,0.000431,0.000940
118673000,0.0324,0.013523,0.002678,0.000431,0.000705
118674000,0.0324,0.013523,0.002678,0.000431,0.000940
118675000,0.0324,0.013523,0.002678,0.000431,0.000823
118676000,0.0324,0.013523,0.002678,0.000431,0.000823
118677000,0.0324,0.013523,0.002678,0.000431,0.000823
118678000,0.0324,0.013523,0.002678,0.000431,0.000823
118679000,0.0324,0.013523,0.002678,0.000431,0.000823
118680000,0.0324,0.013523,0.002678,0.000431,0.000823
118681000,0.0324,0.013523,0.002678,0.000431,0.000940
118682000,0.0324,0.013523,0.002678,0.000431,0.000705
118683000,0.0324,0.013523,0.002678,0.000431,0.000940
118684000,0.0324,0.013523,0.002678,0.000431,0.000823
118685000,0.0324,0.013523,0.002678,0.000431,0.000823
118686000,0.0324,0.013523,0.002678,0.000431,0.000705
118687000,0.0324,0.013523,0.002678,0.000431,0.000940
118688000,0.0324,0.013523,0.002678,0.000431,0.000940
118689000,0.0324,0.013523,0.002678,0.000431,0.000705
118690000,0.0324,0.013523,0.002678,0.000431,0.000940
118691000,0.0324,0.013523,0.002678,0.000431,0.000705
118692000,0.0324,0.013523,0.002678,0.000431,0.000940
118693000,0.0324,0.013523,0.002678,0.000431,0.000823
118694000,0.0324,0.013523,0.002678,0.000431,0.000823
118695000,0.0324,0.013523,0.002678,0.000431,0.000940
118696000,0.0324,0.013523,0.002678,0.000431,0.000705
118697000,0.0324,0.013523,0.002678,0.000431,0.000940
118698000,0.0324,0.013523,0.002678,0.000431,0.000823
118699000,0.0324,0.013523,0.002678,0.000431,0.000823
118700000,0.0324,0.013523,0.002678,0.000431,0.000823
118701000,0.0324,0.013523,0.002678,0.000431,0.000823
118702000,0.0324,0.013523,0.002678,0.000431,0.000823
118703000,0.0324,0.013523,0.002678,0.000431,0.000823
118704000,0.0324,0.013523,0.002678,0.000431,0.000940
118705000,0.0324,0.013523,0.002678,0.000431,0.000705
118706000,0.0324,0.013523,0.002678,0.000431,0.000823
118707000,0.0324,0.013523,0.002678,0.000431,0.000940
118708000,0.0324,0.013523,0.002678,0.000431,0.000823
118709000,0.0324,0.013523,0.002678,0.000431,0.000823
118710000,0.0324,0.013523,0.002678,0.000431,0.000823
118711000,0.0324,0.013523,0.002678,0.000431,0.000705
118712000,0.0324,0.013523,0.002678,0.000431,0.000940
118713000,0.0324,0.013523,0.002678,0.000431,0.000940
118714000,0.0324,0.013523,0.002678,0.000431,0.000705
118715000,0.0324,0.013523,0.002678,0.000431,0.000940
118716000,0.0324,0.013523,0.002678,0.000431,0.000705
118717000,0.0324,0.013523,0.002678,0.000431,0.000940
118718000,0.0324,0.013523,0.002678,0.000431,0.000940
118719000,0.0324,0.013523,0.002678,0.000431,0.000705
118720000,0.0324,0.013523,0.002678,0.000431,0.000940
118721000,0.0324,0.013523,0.002678,0.000431,0.000705
118722000,0.0324,0.013523,0.002678,0.000431,0.000940
118723000,0.0324,0.013523,0.002678,0.000431,0.000823
118724000,0.0324,0.013523,0.002678,0.000431,0.000823
118725000,0.0324,0.013523,0.002678,0.000431,0.000823
118726000,0.0324,0.013523,0.002678,0.000431,0.000823
118727000,0.0324,0.013523,0.002678,0.000431,0.000940
118728000,0.0324,0.013523,0.002678,0.000431,0.000705
118729000,0.0324,0.013523,0.002678,0.000431,0.000940
118730000,0.0324,0.013523,0.002678,0.000431,0.000823
118731000,0.0324,0.013523,0.002678,0.000431,0.000823
118732000,0.0324,0.013523,0.002678,0.000431,0.000823
118733000,0.0324,0.013523,0.002678,0.000431,0.000823
118734000,0.0324,0.013523,0.002678,0.000431,0.000940
118735000,0.0324,0.013523,0.002678,0.000431,0.000705
118736000,0.0324,0.013523,0.002678,0.000431,0.000940
118737000,0.0324,0.013523,0.002678,0.000431,0.000705
118738000,0.0324,0.013523,0.002678,0.000431,0.000940
118739000,0.0324,0.013523,0.002678,0.000431,0.000705
118740000,0.0324,0.013523,0.002678,0.000431,0.000940
118741000,0.0324,0.013523,0.002678,0.000431,0.000940
118742000,0.0324,0.013523,0.002678,0.000431,0.000705
118743000,0.0324,0.013523,0.002678,0.000431,0.000940
118744000,0.0324,0.013523,0.002678,0.000431,0.000705
118745000,0.0324,0.013523,0.002678,0.000431,0.000940
118746000,0.0324,0.013523,0.002678,0.000431,0.000823
118747000,0.0324,0.013523,0.002678,0.000431,0.000823
118748000,0.0324,0.013523,0.002678,0.000431,0.000823
118749000,0.0324,0.013523,0.002678,0.000431,0.000823
118750000,0.0324,0.013523,0.002678,0.000431,0.000940
118751000,0.0324,0.013523,0.002678,0.000431,0.000705
118752000,0.0324,0.013523,0.002678,0.000431,0.000940
118753000,0.0324,0.013523,0.002678,0.000431,0.000823
118754000,0.0324,0.013523,0.002678,0.000431,0.000823
118755000,0.0324,0.013523,0.002678,0.000431,0.000823
118756000,0.0324,0.013523,0.002678,0.000431,0.000823
118757000,0.0324,0.013523,0.002678,0.000431,0.000823
118758000,0.0324,0.013523,0.002678,0.000431,0.000823
118759000,0.0324,0.013523,0.002678,0.000431,0.000823
118760000,0.0324,0.013523,0.002678,0.000431,0.000823
118761000,0.0324,0.013523,0.002678,0.000431,0.000940
118762000,0.0324,0.013523,0.002678,0.000431,0.000823
118763000,0.0324,0.013523,0.002678,0.000431,0.000823
118764000,0.0324,0.013523,0.002678,0.000431,0.000705
118765000,0.0324,0.013523,0.002678,0.000431,0.000940
118766000,0.0324,0.013523,0.002678,0.000431,0.000940
118767000,0.0324,0.013523,0.002678,0.000431,0.000705
118768000,0.0324,0.013523,0.002678,0.000431,0.000940
118769000,0.0324,0.013523,0.002678,0.000431,0.000705
118770000,0.0324,0.013523,0.002678,0.000431,0.000940
118771000,0.0324,0.013523,0.002678,0.000431,0.000940
118772000,0.0324,0.013523,0.002678,0.000431,0.001763
118773000,0.0324,0.013523,0.002678,0.000431,0.252568
118774000,0.0324,0.013523,0.002678,0.000431,0.626308
118775000,0.0324,0.013523,0.002678,0.000431,0.306631
118776000,0.0324,0.013523,0.002678,0.000431,0.136803
118777000,0.0324,0.013523,0.002678,0.000431,0.140564
118778000,0.0324,0.013523,0.002678,0.000431,0.622429
118779000,0.0324,0.013523,0.002678,0.000431,0.259972
118780000,0.0324,0.013523,0.002678,0.000431,0.283478
118781000,0.0324,0.013523,0.002678,0.000431,0.262911
118782000,0.0324,0.013523,0.002678,0.000431,0.145147
118783000,0.0324,0.013523,0.002678,0.000431,0.144207
118784000,0.0324,0.013523,0.002678,0.000431,0.165597
118785000,0.0324,0.013523,0.002678,0.000431,0.404062
118786000,0.0324,0.013523,0.002678,0.000431,0.020332
118787000,0.0324,0.013523,0.002678,0.000431,0.014221
118788000,0.0324,0.013523,0.002678,0.000431,0.012340
118789000,0.0324,0.013523,0.002678,0.000431,0.011988
118790000,0.0324,0.013523,0.002678,0.000431,0.009872
118791000,0.0324,0.013523,0.002678,0.000431,0.008109
118792000,0.0324,0.013523,0.002678,0.000431,0.007052
118793000,0.0324,0.013523,0.002678,0.000431,0.004466
118794000,0.0324,0.013523,0.002678,0.000431,0.003996
118795000,0.0324,0.013523,0.002678,0.000431,0.003878
118796000,0.0324,0.013523,0.002678,0.000431,0.004349
118797000,0.0324,0.013523,0.002678,0.000431,0.006229
118798000,0.0324,0.013523,0.002678,0.000431,0.003526
118799000,0.0324,0.013523,0.002678,0.000431,0.003996
118800000,0.0324,0.013523,0.002678,0.000431,0.003526
118801000,0.0324,0.013523,0.002678,0.000431,0.003408
118802000,0.0324,0.013523,0.002678,0.000431,0.000940
118803000,0.0324,0.013523,0.002678,0.000431,0.000940
118804000,0.0324,0.013523,0.002678,0.000431,0.000705
118805000,0.0324,0.013523,0.002678,0.000431,0.000940
118806000,0.0324,0.013523,0.002678,0.000431,0.000823
118807000,0.0324,0.013523,0.002678,0.000431,0.000823
118808000,0.0324,0.013523,0.002678,0.000431,0.000823
118809000,0.0324,0.013523,0.002678,0.000431,0.000823
118810000,0.0324,0.013523,0.002678,0.000431,0.000940
118811000,0.0324,0.013523,0.002678,0.000431,0.000705
118812000,0.0324,0.013523,0.002678,0.000431,0.000705
118813000,0.0324,0.013523,0.002678,0.000431,0.000940
118814000,0.0324,0.013523,0.002678,0.000431,0.000940
118815000,0.0324,0.013523,0.002678,0.000431,0.000705
118816000,0.0324,0.013523,0.002678,0.000431,0.000823
118817000,0.0324,0.013523,0.002678,0.000431,0.000823
118818000,0.0324,0.013523,0.002678,0.000431,0.000823
118819000,0.0324,0.013523,0.002678,0.000431,0.000823
118820000,0.0324,0.013523,0.002678,0.000431,0.000940
118821000,0.0324,0.013523,0.002678,0.000431,0.000823
118822000,0.0324,0.013523,0.002678,0.000431,0.000823
118823000,0.0324,0.013523,0.002678,0.000431,0.000705
118824000,0.0324,0.013523,0.002678,0.000431,0.000940
118825000,0.0324,0.013523,0.002678,0.000431,0.002586
118826000,0.0324,0.013523,0.002678,0.000431,0.373857
118827000,0.0324,0.013523,0.002678,0.000431,0.641234
118828000,0.0324,0.013523,0.002678,0.000431,0.131161
118829000,0.0324,0.013523,0.002678,0.000431,0.133512
118830000,0.0324,0.013523,0.002678,0.000431,0.134100
118831000,0.0324,0.013523,0.002678,0.000431,0.601157
118832000,0.0324,0.013523,0.002678,0.000431,0.234939
118833000,0.0324,0.013523,0.002678,0.000431,0.287944
118834000,0.0324,0.013523,0.002678,0.000431,0.255624
118835000,0.0324,0.013523,0.002678,0.000431,0.137390
118836000,0.0324,0.013523,0.002678,0.000431,0.143502
118837000,0.0324,0.013523,0.002678,0.000431,0.104130
118838000,0.0324,0.013523,0.002678,0.000431,0.405825
118839000,0.0324,0.013523,0.002678,0.000431,0.163129
118840000,0.0324,0.013523,0.002678,0.000431,0.028207
118841000,0.0324,0.013523,0.002678,0.000431,0.025151
118842000,0.0324,0.013523,0.002678,0.000431,0.018099
118843000,0.0324,0.013523,0.002678,0.000431,0.017277
118844000,0.0324,0.013523,0.002678,0.000431,0.013633
118845000,0.0324,0.013523,0.002678,0.000431,0.012458
118846000,0.0324,0.013523,0.002678,0.000431,0.011870
118847000,0.0324,0.013523,0.002678,0.000431,0.009520
118848000,0.0324,0.013523,0.002678,0.000431,0.009167
118849000,0.0324,0.013523,0.002678,0.000431,0.009402
118850000,0.0324,0.013523,0.002678,0.000431,0.009402
118851000,0.0324,0.013523,0.002678,0.000431,0.011400
118852000,0.0324,0.013523,0.002678,0.000431,0.010695
118853000,0.0324,0.013523,0.002678,0.000431,0.008580
118854000,0.0324,0.013523,0.002678,0.000431,0.006582
118855000,0.0324,0.013523,0.002678,0.000431,0.006699
118856000,0.0324,0.013523,0.002678,0.000431,0.006817
118857000,0.0324,0.013523,0.002678,0.000431,0.006111
118858000,0.0324,0.013523,0.002678,0.000431,0.006817
118859000,0.0324,0.013523,0.002678,0.000431,0.006347
118860000,0.0324,0.013523,0.002678,0.000431,0.006817
118861000,0.0324,0.013523,0.002678,0.000431,0.006582
118862000,0.0324,0.013523,0.002678,0.000431,0.006582
118863000,0.0324,0.013523,0.002678,0.000431,0.006464
118864000,0.0324,0.013523,0.002678,0.000431,0.006817
118865000,0.0324,0.013523,0.002678,0.000431,0.006347
118866000,0.0324,0.013523,0.002678,0.000431,0.006817
118867000,0.0324,0.013523,0.002678,0.000431,0.006347
118868000,0.0324,0.013523,0.002678,0.000431,0.006464
118869000,0.0324,0.013523,0.002678,0.000431,0.007052
118870000,0.0324,0.013523,0.002678,0.000431,0.006347
118871000,0.0324,0.013523,0.002678,0.000431,0.006464
118872000,0.0324,0.013523,0.002678,0.000431,0.006934
118873000,0.0324,0.013523,0.002678,0.000431,0.006229
118874000,0.0324,0.013523,0.002678,0.000431,0.006817
118875000,0.0324,0.013523,0.002678,0.000431,0.006582
118876000,0.0324,0.013523,0.002678,0.000431,0.006347
118877000,0.0324,0.013523,0.002678,0.000431,0.007992
118878000,0.0324,0.013523,0.002678,0.000431,0.005876
118879000,0.0324,0.013523,0.002678,0.000431,0.005524
118880000,0.0324,0.013523,0.002678,0.000431,0.005876
118881000,0.0324,0.013523,0.002678,0.000431,0.005876
118882000,0.0324,0.013523,0.002678,0.000431,0.005524
118883000,0.0324,0.013523,0.002678,0.000431,0.007404
118884000,0.0324,0.013523,0.002678,0.000431,0.004819
118885000,0.0324,0.013523,0.002678,0.000431,0.004936
118886000,0.0324,0.013523,0.002678,0.000431,0.005289
118887000,0.0324,0.013523,0.002678,0.000431,0.004231
118888000,0.0324,0.013523,0.002678,0.000431,0.005171
118889000,0.0324,0.013523,0.002678,0.000431,0.005406
118890000,0.0324,0.013523,0.002678,0.000431,0.004466
118891000,0.0324,0.013523,0.002678,0.000431,0.004701
118892000,0.0324,0.013523,0.002678,0.000431,0.005406
118893000,0.0324,0.013523,0.002678,0.000431,0.004936
118894000,0.0324,0.013523,0.002678,0.000431,0.004701
118895000,0.0324,0.013523,0.002678,0.000431,0.004701
118896000,0.0324,0.013523,0.002678,0.000431,0.005171
118897000,0.0324,0.013523,0.002678,0.000431,0.005054
118898000,0.0324,0.013523,0.002678,0.000431,0.004701
118899000,0.0324,0.013523,0.002678,0.000431,0.004819
118900000,0.0324,0.013523,0.002678,0.000431,0.005289
118901000,0.0324,0.013523,0.002678,0.000431,0.004701
118902000,0.0324,0.013523,0.002678,0.000431,0.004701
118903000,0.0324,0.013523,0.002678,0.000431,0.004701
118904000,0.0324,0.013523,0.002678,0.000431,0.004231
118905000,0.0324,0.013523,0.002678,0.000431,0.004231
118906000,0.0324,0.013523,0.002678,0.000431,0.004113
118907000,0.0324,0.013523,0.002678,0.000431,0.004349
118908000,0.0324,0.013523,0.002678,0.000431,0.003878
118909000,0.0324,0.013523,0.002678,0.000431,0.004349
118910000,0.0324,0.013523,0.002678,0.000431,0.004231
118911000,0.0324,0.013523,0.002678,0.000431,0.004349
118912000,0.0324,0.013523,0.002678,0.000431,0.004113
118913000,0.0324,0.013523,0.002678,0.000431,0.003996
118914000,0.0324,0.013523,0.002678,0.000431,0.004349
118915000,0.0324,0.013523,0.002678,0.000431,0.004349
118916000,0.0324,0.013523,0.002678,0.000431,0.004113
118917000,0.0324,0.013523,0.002678,0.000431,0.004113
118918000,0.0324,0.013523,0.002678,0.000431,0.004466
118919000,0.0324,0.013523,0.002678,0.000431,0.003996
118920000,0.0324,0.013523,0.002678,0.000431,0.004231
118921000,0.0324,0.013523,0.002678,0.000431,0.004349
118922000,0.0324,0.013523,0.002678,0.000431,0.004231
118923000,0.0324,0.013523,0.002678,0.000431,0.003996
118924000,0.0324,0.013523,0.002678,0.000431,0.004231
118925000,0.0324,0.013523,0.002678,0.000431,0.004349
118926000,0.0324,0.013523,0.002678,0.000431,0.004349
118927000,0.0324,0.013523,0.002678,0.000431,0.003878
118928000,0.0324,0.013523,0.002678,0.000431,0.004349
118929000,0.0324,0.013523,0.002678,0.000431,0.004231
118930000,0.0324,0.013523,0.002678,0.000431,0.004231
118931000,0.0324,0.013523,0.002678,0.000431,0.003996
118932000,0.0324,0.013523,0.002678,0.000431,0.004349
118933000,0.0324,0.013523,0.002678,0.000431,0.004231
118934000,0.0324,0.013523,0.002678,0.000431,0.003643
118935000,0.0324,0.013523,0.002678,0.000431,0.004701
118936000,0.0324,0.013523,0.002678,0.000431,0.007639
118937000,0.0324,0.013523,0.002678,0.000431,0.002468
118938000,0.0324,0.013523,0.002678,0.000431,0.002468
118939000,0.0324,0.013523,0.002678,0.000431,0.002468
118940000,0.0324,0.013523,0.002678,0.000431,0.002468
118941000,0.0324,0.013523,0.002678,0.000431,0.002586
118942000,0.0324,0.013523,0.002678,0.000431,0.002468
118943000,0.0324,0.013523,0.002678,0.000431,0.002586
118944000,0.0324,0.013523,0.002678,0.000431,0.002233
118945000,0.0324,0.013523,0.002678,0.000431,0.002586
118946000,0.0324,0.013523,0.002678,0.000431,0.002586
118947000,0.0324,0.013523,0.002678,0.000431,0.002351
118948000,0.0324,0.013523,0.002678,0.000431,0.002468
118949000,0.0324,0.013523,0.002678,0.000431,0.002468
118950000,0.0324,0.013523,0.002678,0.000431,0.002821
118951000,0.0324,0.013523,0.002678,0.000431,0.002233
118952000,0.0324,0.013523,0.002678,0.000431,0.002468
118953000,0.0324,0.013523,0.002678,0.000431,0.002586
118954000,0.0324,0.013523,0.002678,0.000431,0.002586
118955000,0.0324,0.013523,0.002678,0.000431,0.002351
118956000,0.0324,0.013523,0.002678,0.000431,0.002351
118957000,0.0324,0.013523,0.002678,0.000431,0.002821
118958000,0.0324,0.013523,0.002678,0.000431,0.002468
118959000,0.0324,0.013523,0.002678,0.000431,0.002233
118960000,0.0324,0.013523,0.002678,0.000431,0.002586
118961000,0.0324,0.013523,0.002678,0.000431,0.002586
118962000,0.0324,0.013523,0.002678,0.000431,0.002586
118963000,0.0324,0.013523,0.002678,0.000431,0.002116
118964000,0.0324,0.013523,0.002678,0.000431,0.002821
118965000,0.0324,0.013523,0.002678,0.000431,0.002351
118966000,0.0324,0.013523,0.002678,0.000431,0.002351
118967000,0.0324,0.013523,0.002678,0.000431,0.002586
118968000,0.0324,0.013523,0.002678,0.000431,0.002586
118969000,0.0324,0.013523,0.002678,0.000431,0.002586
118970000,0.0324,0.013523,0.002678,0.000431,0.002116
118971000,0.0324,0.013523,0.002678,0.000431,0.002821
118972000,0.0324,0.013523,0.002678,0.000431,0.002351
118973000,0.0324,0.013523,0.002678,0.000431,0.002586
118974000,0.0324,0.013523,0.002678,0.000431,0.002468
118975000,0.0324,0.013523,0.002678,0.000431,0.002468
118976000,0.0324,0.013523,0.002678,0.000431,0.002468
118977000,0.0324,0.013523,0.002678,0.000431,0.002351
118978000,0.0324,0.013523,0.002678,0.000431,0.002703
118979000,0.0324,0.013523,0.002678,0.000431,0.002351
118980000,0.0324,0.013523,0.002678,0.000431,0.002586
118981000,0.0324,0.013523,0.002678,0.000431,0.002468
118982000,0.0324,0.013523,0.002678,0.000431,0.002116
118983000,0.0324,0.013523,0.002678,0.000431,0.001528
118984000,0.0324,0.013523,0.002678,0.000431,0.002586
118985000,0.0324,0.013523,0.002678,0.000431,0.001998
118986000,0.0324,0.013523,0.002678,0.000431,0.000823
118987000,0.0324,0.013523,0.002678,0.000431,0.000823
118988000,0.0324,0.013523,0.002678,0.000431,0.000940
118989000,0.0324,0.013523,0.002678,0.000431,0.000823
118990000,0.0324,0.013523,0.002678,0.000431,0.000823
118991000,0.0324,0.013523,0.002678,0.000431,0.000823
118992000,0.0324,0.013523,0.002678,0.000431,0.000705
118993000,0.0324,0.013523,0.002678,0.000431,0.000940
118994000,0.0324,0.013523,0.002678,0.000431,0.000940
118995000,0.0324,0.013523,0.002678,0.000431,0.000705
118996000,0.0324,0.013523,0.002678,0.000431,0.000940
118997000,0.0324,0.013523,0.002678,0.000431,0.000705
118998000,0.0324,0.013523,0.002678,0.000431,0.000940
118999000,0.0324,0.013523,0.002678,0.000431,0.000823
