Cycle,Area(mm^2),PeakDynamic(W),SubthresholdLeakage(W),GateLeakage(W),RunTimeDynamic(W)
34000000,0.0324,0.013523,0.002678,0.000431,0.004819
34001000,0.0324,0.013523,0.002678,0.000431,0.001763
34002000,0.0324,0.013523,0.002678,0.000431,0.003173
34003000,0.0324,0.013523,0.002678,0.000431,0.002703
34004000,0.0324,0.013523,0.002678,0.000431,0.000705
34005000,0.0324,0.013523,0.002678,0.000431,0.000940
34006000,0.0324,0.013523,0.002678,0.000431,0.000823
34007000,0.0324,0.013523,0.002678,0.000431,0.000823
34008000,0.0324,0.013523,0.002678,0.000431,0.000823
34009000,0.0324,0.013523,0.002678,0.000431,0.000823
34010000,0.0324,0.013523,0.002678,0.000431,0.000823
34011000,0.0324,0.013523,0.002678,0.000431,0.000823
34012000,0.0324,0.013523,0.002678,0.000431,0.000940
34013000,0.0324,0.013523,0.002678,0.000431,0.000705
34014000,0.0324,0.013523,0.002678,0.000431,0.000940
34015000,0.0324,0.013523,0.002678,0.000431,0.000823
34016000,0.0324,0.013523,0.002678,0.000431,0.000823
34017000,0.0324,0.013523,0.002678,0.000431,0.000705
34018000,0.0324,0.013523,0.002678,0.000431,0.000940
34019000,0.0324,0.013523,0.002678,0.000431,0.000940
34020000,0.0324,0.013523,0.002678,0.000431,0.000705
34021000,0.0324,0.013523,0.002678,0.000431,0.000940
34022000,0.0324,0.013523,0.002678,0.000431,0.000705
34023000,0.0324,0.013523,0.002678,0.000431,0.000940
34024000,0.0324,0.013523,0.002678,0.000431,0.000823
34025000,0.0324,0.013523,0.002678,0.000431,0.001645
34026000,0.0324,0.013523,0.002678,0.000431,0.423924
34027000,0.0324,0.013523,0.002678,0.000431,0.705874
34028000,0.0324,0.013523,0.002678,0.000431,0.155372
34029000,0.0324,0.013523,0.002678,0.000431,0.137155
34030000,0.0324,0.013523,0.002678,0.000431,0.313448
34031000,0.0324,0.013523,0.002678,0.000431,0.488682
34032000,0.0324,0.013523,0.002678,0.000431,0.309452
34033000,0.0324,0.013523,0.002678,0.000431,0.317796
34034000,0.0324,0.013523,0.002678,0.000431,0.142562
34035000,0.0324,0.013523,0.002678,0.000431,0.175822
34036000,0.0324,0.013523,0.002678,0.000431,0.100252
34037000,0.0324,0.013523,0.002678,0.000431,0.461768
34038000,0.0324,0.013523,0.002678,0.000431,0.056884
34039000,0.0324,0.013523,0.002678,0.000431,0.031498
34040000,0.0324,0.013523,0.002678,0.000431,0.027502
34041000,0.0324,0.013523,0.002678,0.000431,0.022918
34042000,0.0324,0.013523,0.002678,0.000431,0.019745
34043000,0.0324,0.013523,0.002678,0.000431,0.014221
34044000,0.0324,0.013523,0.002678,0.000431,0.010225
34045000,0.0324,0.013523,0.002678,0.000431,0.011518
34046000,0.0324,0.013523,0.002678,0.000431,0.012105
34047000,0.0324,0.013523,0.002678,0.000431,0.012223
34048000,0.0324,0.013523,0.002678,0.000431,0.011048
34049000,0.0324,0.013523,0.002678,0.000431,0.007522
34050000,0.0324,0.013523,0.002678,0.000431,0.007052
34051000,0.0324,0.013523,0.002678,0.000431,0.005641
34052000,0.0324,0.013523,0.002678,0.000431,0.006111
34053000,0.0324,0.013523,0.002678,0.000431,0.007052
34054000,0.0324,0.013523,0.002678,0.000431,0.005876
34055000,0.0324,0.013523,0.002678,0.000431,0.007169
34056000,0.0324,0.013523,0.002678,0.000431,0.005759
34057000,0.0324,0.013523,0.002678,0.000431,0.007522
34058000,0.0324,0.013523,0.002678,0.000431,0.004349
34059000,0.0324,0.013523,0.002678,0.000431,0.004701
34060000,0.0324,0.013523,0.002678,0.000431,0.005524
34061000,0.0324,0.013523,0.002678,0.000431,0.003761
34062000,0.0324,0.013523,0.002678,0.000431,0.005289
34063000,0.0324,0.013523,0.002678,0.000431,0.005054
34064000,0.0324,0.013523,0.002678,0.000431,0.004584
34065000,0.0324,0.013523,0.002678,0.000431,0.005289
34066000,0.0324,0.013523,0.002678,0.000431,0.003996
34067000,0.0324,0.013523,0.002678,0.000431,0.004349
34068000,0.0324,0.013523,0.002678,0.000431,0.007169
34069000,0.0324,0.013523,0.002678,0.000431,0.000940
34070000,0.0324,0.013523,0.002678,0.000431,0.000940
34071000,0.0324,0.013523,0.002678,0.000431,0.000823
34072000,0.0324,0.013523,0.002678,0.000431,0.013868
34073000,0.0324,0.013523,0.002678,0.000431,0.457537
34074000,0.0324,0.013523,0.002678,0.000431,0.597278
34075000,0.0324,0.013523,0.002678,0.000431,0.134217
34076000,0.0324,0.013523,0.002678,0.000431,0.131161
34077000,0.0324,0.013523,0.002678,0.000431,0.307101
34078000,0.0324,0.013523,0.002678,0.000431,0.467292
34079000,0.0324,0.013523,0.002678,0.000431,0.264673
34080000,0.0324,0.013523,0.002678,0.000431,0.322380
34081000,0.0324,0.013523,0.002678,0.000431,0.182639
34082000,0.0324,0.013523,0.002678,0.000431,0.136450
34083000,0.0324,0.013523,0.002678,0.000431,0.141974
34084000,0.0324,0.013523,0.002678,0.000431,0.208965
34085000,0.0324,0.013523,0.002678,0.000431,0.407000
34086000,0.0324,0.013523,0.002678,0.000431,0.073573
34087000,0.0324,0.013523,0.002678,0.000431,0.057941
34088000,0.0324,0.013523,0.002678,0.000431,0.045483
34089000,0.0324,0.013523,0.002678,0.000431,0.047599
34090000,0.0324,0.013523,0.002678,0.000431,0.030205
34091000,0.0324,0.013523,0.002678,0.000431,0.018805
34092000,0.0324,0.013523,0.002678,0.000431,0.022565
34093000,0.0324,0.013523,0.002678,0.000431,0.015984
34094000,0.0324,0.013523,0.002678,0.000431,0.014573
34095000,0.0324,0.013523,0.002678,0.000431,0.016807
34096000,0.0324,0.013523,0.002678,0.000431,0.015396
34097000,0.0324,0.013523,0.002678,0.000431,0.015749
34098000,0.0324,0.013523,0.002678,0.000431,0.015044
34099000,0.0324,0.013523,0.002678,0.000431,0.015279
34100000,0.0324,0.013523,0.002678,0.000431,0.012105
34101000,0.0324,0.013523,0.002678,0.000431,0.010930
34102000,0.0324,0.013523,0.002678,0.000431,0.007757
34103000,0.0324,0.013523,0.002678,0.000431,0.005994
34104000,0.0324,0.013523,0.002678,0.000431,0.007874
34105000,0.0324,0.013523,0.002678,0.000431,0.004936
34106000,0.0324,0.013523,0.002678,0.000431,0.004936
34107000,0.0324,0.013523,0.002678,0.000431,0.004819
34108000,0.0324,0.013523,0.002678,0.000431,0.004819
34109000,0.0324,0.013523,0.002678,0.000431,0.005054
34110000,0.0324,0.013523,0.002678,0.000431,0.005054
34111000,0.0324,0.013523,0.002678,0.000431,0.004936
34112000,0.0324,0.013523,0.002678,0.000431,0.004701
34113000,0.0324,0.013523,0.002678,0.000431,0.005054
34114000,0.0324,0.013523,0.002678,0.000431,0.004701
34115000,0.0324,0.013523,0.002678,0.000431,0.005054
34116000,0.0324,0.013523,0.002678,0.000431,0.005289
34117000,0.0324,0.013523,0.002678,0.000431,0.005524
34118000,0.0324,0.013523,0.002678,0.000431,0.004584
34119000,0.0324,0.013523,0.002678,0.000431,0.003643
34120000,0.0324,0.013523,0.002678,0.000431,0.003056
34121000,0.0324,0.013523,0.002678,0.000431,0.003526
34122000,0.0324,0.013523,0.002678,0.000431,0.003291
34123000,0.0324,0.013523,0.002678,0.000431,0.003408
34124000,0.0324,0.013523,0.002678,0.000431,0.005054
34125000,0.0324,0.013523,0.002678,0.000431,0.002351
34126000,0.0324,0.013523,0.002678,0.000431,0.002703
34127000,0.0324,0.013523,0.002678,0.000431,0.002351
34128000,0.0324,0.013523,0.002678,0.000431,0.002586
34129000,0.0324,0.013523,0.002678,0.000431,0.002468
34130000,0.0324,0.013523,0.002678,0.000431,0.002351
34131000,0.0324,0.013523,0.002678,0.000431,0.002586
34132000,0.0324,0.013523,0.002678,0.000431,0.002586
34133000,0.0324,0.013523,0.002678,0.000431,0.002586
34134000,0.0324,0.013523,0.002678,0.000431,0.002351
34135000,0.0324,0.013523,0.002678,0.000431,0.002586
34136000,0.0324,0.013523,0.002678,0.000431,0.002468
34137000,0.0324,0.013523,0.002678,0.000431,0.002586
34138000,0.0324,0.013523,0.002678,0.000431,0.003643
34139000,0.0324,0.013523,0.002678,0.000431,0.001763
34140000,0.0324,0.013523,0.002678,0.000431,0.001645
34141000,0.0324,0.013523,0.002678,0.000431,0.001645
34142000,0.0324,0.013523,0.002678,0.000431,0.001763
34143000,0.0324,0.013523,0.002678,0.000431,0.001645
34144000,0.0324,0.013523,0.002678,0.000431,0.001645
34145000,0.0324,0.013523,0.002678,0.000431,0.001645
34146000,0.0324,0.013523,0.002678,0.000431,0.001645
34147000,0.0324,0.013523,0.002678,0.000431,0.001763
34148000,0.0324,0.013523,0.002678,0.000431,0.002468
34149000,0.0324,0.013523,0.002678,0.000431,0.002116
34150000,0.0324,0.013523,0.002678,0.000431,0.000823
34151000,0.0324,0.013523,0.002678,0.000431,0.000823
34152000,0.0324,0.013523,0.002678,0.000431,0.000823
34153000,0.0324,0.013523,0.002678,0.000431,0.000823
34154000,0.0324,0.013523,0.002678,0.000431,0.000940
34155000,0.0324,0.013523,0.002678,0.000431,0.000705
34156000,0.0324,0.013523,0.002678,0.000431,0.000823
34157000,0.0324,0.013523,0.002678,0.000431,0.000940
34158000,0.0324,0.013523,0.002678,0.000431,0.000823
34159000,0.0324,0.013523,0.002678,0.000431,0.000823
34160000,0.0324,0.013523,0.002678,0.000431,0.000823
34161000,0.0324,0.013523,0.002678,0.000431,0.000705
34162000,0.0324,0.013523,0.002678,0.000431,0.000940
34163000,0.0324,0.013523,0.002678,0.000431,0.000940
34164000,0.0324,0.013523,0.002678,0.000431,0.000705
34165000,0.0324,0.013523,0.002678,0.000431,0.000940
34166000,0.0324,0.013523,0.002678,0.000431,0.002351
34167000,0.0324,0.013523,0.002678,0.000431,0.464236
34168000,0.0324,0.013523,0.002678,0.000431,0.659216
34169000,0.0324,0.013523,0.002678,0.000431,0.136333
34170000,0.0324,0.013523,0.002678,0.000431,0.133042
34171000,0.0324,0.013523,0.002678,0.000431,0.253508
34172000,0.0324,0.013523,0.002678,0.000431,0.565781
34173000,0.0324,0.013523,0.002678,0.000431,0.236467
34174000,0.0324,0.013523,0.002678,0.000431,0.316151
34175000,0.0324,0.013523,0.002678,0.000431,0.173237
34176000,0.0324,0.013523,0.002678,0.000431,0.143032
34177000,0.0324,0.013523,0.002678,0.000431,0.121994
34178000,0.0324,0.013523,0.002678,0.000431,0.288414
34179000,0.0324,0.013523,0.002678,0.000431,0.336601
34180000,0.0324,0.013523,0.002678,0.000431,0.067931
34181000,0.0324,0.013523,0.002678,0.000431,0.048657
34182000,0.0324,0.013523,0.002678,0.000431,0.047599
34183000,0.0324,0.013523,0.002678,0.000431,0.038549
34184000,0.0324,0.013523,0.002678,0.000431,0.029970
34185000,0.0324,0.013523,0.002678,0.000431,0.021273
34186000,0.0324,0.013523,0.002678,0.000431,0.017864
34187000,0.0324,0.013523,0.002678,0.000431,0.019862
34188000,0.0324,0.013523,0.002678,0.000431,0.017159
34189000,0.0324,0.013523,0.002678,0.000431,0.021273
34190000,0.0324,0.013523,0.002678,0.000431,0.012223
34191000,0.0324,0.013523,0.002678,0.000431,0.010578
34192000,0.0324,0.013523,0.002678,0.000431,0.012458
34193000,0.0324,0.013523,0.002678,0.000431,0.009755
34194000,0.0324,0.013523,0.002678,0.000431,0.009872
34195000,0.0324,0.013523,0.002678,0.000431,0.011048
34196000,0.0324,0.013523,0.002678,0.000431,0.007287
34197000,0.0324,0.013523,0.002678,0.000431,0.005994
34198000,0.0324,0.013523,0.002678,0.000431,0.009285
34199000,0.0324,0.013523,0.002678,0.000431,0.006111
34200000,0.0324,0.013523,0.002678,0.000431,0.003173
34201000,0.0324,0.013523,0.002678,0.000431,0.005641
34202000,0.0324,0.013523,0.002678,0.000431,0.002586
34203000,0.0324,0.013523,0.002678,0.000431,0.002351
34204000,0.0324,0.013523,0.002678,0.000431,0.003996
34205000,0.0324,0.013523,0.002678,0.000431,0.001880
34206000,0.0324,0.013523,0.002678,0.000431,0.001645
34207000,0.0324,0.013523,0.002678,0.000431,0.001645
34208000,0.0324,0.013523,0.002678,0.000431,0.001763
34209000,0.0324,0.013523,0.002678,0.000431,0.001410
34210000,0.0324,0.013523,0.002678,0.000431,0.001880
34211000,0.0324,0.013523,0.002678,0.000431,0.001645
34212000,0.0324,0.013523,0.002678,0.000431,0.002703
34213000,0.0324,0.013523,0.002678,0.000431,0.000940
34214000,0.0324,0.013523,0.002678,0.000431,0.001528
34215000,0.0324,0.013523,0.002678,0.000431,0.390899
34216000,0.0324,0.013523,0.002678,0.000431,0.700703
34217000,0.0324,0.013523,0.002678,0.000431,0.144560
34218000,0.0324,0.013523,0.002678,0.000431,0.135392
34219000,0.0324,0.013523,0.002678,0.000431,0.167713
34220000,0.0324,0.013523,0.002678,0.000431,0.625603
34221000,0.0324,0.013523,0.002678,0.000431,0.240698
34222000,0.0324,0.013523,0.002678,0.000431,0.283831
34223000,0.0324,0.013523,0.002678,0.000431,0.186635
34224000,0.0324,0.013523,0.002678,0.000431,0.139976
34225000,0.0324,0.013523,0.002678,0.000431,0.149966
34226000,0.0324,0.013523,0.002678,0.000431,0.232001
34227000,0.0324,0.013523,0.002678,0.000431,0.357051
34228000,0.0324,0.013523,0.002678,0.000431,0.026679
34229000,0.0324,0.013523,0.002678,0.000431,0.024563
34230000,0.0324,0.013523,0.002678,0.000431,0.016454
34231000,0.0324,0.013523,0.002678,0.000431,0.018569
34232000,0.0324,0.013523,0.002678,0.000431,0.008227
34233000,0.0324,0.013523,0.002678,0.000431,0.005054
34234000,0.0324,0.013523,0.002678,0.000431,0.006934
34235000,0.0324,0.013523,0.002678,0.000431,0.004819
34236000,0.0324,0.013523,0.002678,0.000431,0.004231
34237000,0.0324,0.013523,0.002678,0.000431,0.004113
34238000,0.0324,0.013523,0.002678,0.000431,0.004113
34239000,0.0324,0.013523,0.002678,0.000431,0.002821
34240000,0.0324,0.013523,0.002678,0.000431,0.002586
34241000,0.0324,0.013523,0.002678,0.000431,0.002586
34242000,0.0324,0.013523,0.002678,0.000431,0.002703
34243000,0.0324,0.013523,0.002678,0.000431,0.002703
34244000,0.0324,0.013523,0.002678,0.000431,0.002468
34245000,0.0324,0.013523,0.002678,0.000431,0.002586
34246000,0.0324,0.013523,0.002678,0.000431,0.002821
34247000,0.0324,0.013523,0.002678,0.000431,0.002703
34248000,0.0324,0.013523,0.002678,0.000431,0.002468
34249000,0.0324,0.013523,0.002678,0.000431,0.002586
34250000,0.0324,0.013523,0.002678,0.000431,0.002703
34251000,0.0324,0.013523,0.002678,0.000431,0.002703
34252000,0.0324,0.013523,0.002678,0.000431,0.002586
34253000,0.0324,0.013523,0.002678,0.000431,0.002586
34254000,0.0324,0.013523,0.002678,0.000431,0.002703
34255000,0.0324,0.013523,0.002678,0.000431,0.002703
34256000,0.0324,0.013523,0.002678,0.000431,0.003878
34257000,0.0324,0.013523,0.002678,0.000431,0.001528
34258000,0.0324,0.013523,0.002678,0.000431,0.001880
34259000,0.0324,0.013523,0.002678,0.000431,0.001763
34260000,0.0324,0.013523,0.002678,0.000431,0.001763
34261000,0.0324,0.013523,0.002678,0.000431,0.003761
34262000,0.0324,0.013523,0.002678,0.000431,0.001058
34263000,0.0324,0.013523,0.002678,0.000431,0.000823
34264000,0.0324,0.013523,0.002678,0.000431,0.000823
34265000,0.0324,0.013523,0.002678,0.000431,0.000940
34266000,0.0324,0.013523,0.002678,0.000431,0.000940
34267000,0.0324,0.013523,0.002678,0.000431,0.000705
34268000,0.0324,0.013523,0.002678,0.000431,0.000940
34269000,0.0324,0.013523,0.002678,0.000431,0.000940
34270000,0.0324,0.013523,0.002678,0.000431,0.000940
34271000,0.0324,0.013523,0.002678,0.000431,0.000705
34272000,0.0324,0.013523,0.002678,0.000431,0.000940
34273000,0.0324,0.013523,0.002678,0.000431,0.000940
34274000,0.0324,0.013523,0.002678,0.000431,0.000823
34275000,0.0324,0.013523,0.002678,0.000431,0.000940
34276000,0.0324,0.013523,0.002678,0.000431,0.000823
34277000,0.0324,0.013523,0.002678,0.000431,0.000940
34278000,0.0324,0.013523,0.002678,0.000431,0.000823
34279000,0.0324,0.013523,0.002678,0.000431,0.000823
34280000,0.0324,0.013523,0.002678,0.000431,0.000940
34281000,0.0324,0.013523,0.002678,0.000431,0.000823
34282000,0.0324,0.013523,0.002678,0.000431,0.000823
34283000,0.0324,0.013523,0.002678,0.000431,0.000940
34284000,0.0324,0.013523,0.002678,0.000431,0.000940
34285000,0.0324,0.013523,0.002678,0.000431,0.000940
34286000,0.0324,0.013523,0.002678,0.000431,0.000705
34287000,0.0324,0.013523,0.002678,0.000431,0.000940
34288000,0.0324,0.013523,0.002678,0.000431,0.000940
34289000,0.0324,0.013523,0.002678,0.000431,0.000823
34290000,0.0324,0.013523,0.002678,0.000431,0.000823
34291000,0.0324,0.013523,0.002678,0.000431,0.000940
34292000,0.0324,0.013523,0.002678,0.000431,0.000940
34293000,0.0324,0.013523,0.002678,0.000431,0.000823
34294000,0.0324,0.013523,0.002678,0.000431,0.000823
34295000,0.0324,0.013523,0.002678,0.000431,0.000940
34296000,0.0324,0.013523,0.002678,0.000431,0.000823
34297000,0.0324,0.013523,0.002678,0.000431,0.000940
34298000,0.0324,0.013523,0.002678,0.000431,0.000823
34299000,0.0324,0.013523,0.002678,0.000431,0.000940
34300000,0.0324,0.013523,0.002678,0.000431,0.000823
34301000,0.0324,0.013523,0.002678,0.000431,0.000823
34302000,0.0324,0.013523,0.002678,0.000431,0.000940
34303000,0.0324,0.013523,0.002678,0.000431,0.000940
34304000,0.0324,0.013523,0.002678,0.000431,0.000823
34305000,0.0324,0.013523,0.002678,0.000431,0.000823
34306000,0.0324,0.013523,0.002678,0.000431,0.000940
34307000,0.0324,0.013523,0.002678,0.000431,0.000940
34308000,0.0324,0.013523,0.002678,0.000431,0.000823
34309000,0.0324,0.013523,0.002678,0.000431,0.000823
34310000,0.0324,0.013523,0.002678,0.000431,0.000940
34311000,0.0324,0.013523,0.002678,0.000431,0.000940
34312000,0.0324,0.013523,0.002678,0.000431,0.000823
34313000,0.0324,0.013523,0.002678,0.000431,0.000823
34314000,0.0324,0.013523,0.002678,0.000431,0.000940
34315000,0.0324,0.013523,0.002678,0.000431,0.000823
34316000,0.0324,0.013523,0.002678,0.000431,0.000940
34317000,0.0324,0.013523,0.002678,0.000431,0.000823
34318000,0.0324,0.013523,0.002678,0.000431,0.000940
34319000,0.0324,0.013523,0.002678,0.000431,0.000823
34320000,0.0324,0.013523,0.002678,0.000431,0.000823
34321000,0.0324,0.013523,0.002678,0.000431,0.000940
34322000,0.0324,0.013523,0.002678,0.000431,0.000940
34323000,0.0324,0.013523,0.002678,0.000431,0.000705
34324000,0.0324,0.013523,0.002678,0.000431,0.000940
34325000,0.0324,0.013523,0.002678,0.000431,0.000940
34326000,0.0324,0.013523,0.002678,0.000431,0.000940
34327000,0.0324,0.013523,0.002678,0.000431,0.000705
34328000,0.0324,0.013523,0.002678,0.000431,0.000940
34329000,0.0324,0.013523,0.002678,0.000431,0.000940
34330000,0.0324,0.013523,0.002678,0.000431,0.000823
34331000,0.0324,0.013523,0.002678,0.000431,0.000823
34332000,0.0324,0.013523,0.002678,0.000431,0.000940
34333000,0.0324,0.013523,0.002678,0.000431,0.000940
34334000,0.0324,0.013523,0.002678,0.000431,0.000823
34335000,0.0324,0.013523,0.002678,0.000431,0.000823
34336000,0.0324,0.013523,0.002678,0.000431,0.000940
34337000,0.0324,0.013523,0.002678,0.000431,0.000823
34338000,0.0324,0.013523,0.002678,0.000431,0.000940
34339000,0.0324,0.013523,0.002678,0.000431,0.000823
34340000,0.0324,0.013523,0.002678,0.000431,0.000940
34341000,0.0324,0.013523,0.002678,0.000431,0.000940
34342000,0.0324,0.013523,0.002678,0.000431,0.000705
34343000,0.0324,0.013523,0.002678,0.000431,0.000940
34344000,0.0324,0.013523,0.002678,0.000431,0.000940
34345000,0.0324,0.013523,0.002678,0.000431,0.000940
34346000,0.0324,0.013523,0.002678,0.000431,0.000705
34347000,0.0324,0.013523,0.002678,0.000431,0.000940
34348000,0.0324,0.013523,0.002678,0.000431,0.000940
34349000,0.0324,0.013523,0.002678,0.000431,0.000823
34350000,0.0324,0.013523,0.002678,0.000431,0.000823
34351000,0.0324,0.013523,0.002678,0.000431,0.000940
34352000,0.0324,0.013523,0.002678,0.000431,0.000940
34353000,0.0324,0.013523,0.002678,0.000431,0.000823
34354000,0.0324,0.013523,0.002678,0.000431,0.000823
34355000,0.0324,0.013523,0.002678,0.000431,0.000940
34356000,0.0324,0.013523,0.002678,0.000431,0.000823
34357000,0.0324,0.013523,0.002678,0.000431,0.000940
34358000,0.0324,0.013523,0.002678,0.000431,0.000823
34359000,0.0324,0.013523,0.002678,0.000431,0.000940
34360000,0.0324,0.013523,0.002678,0.000431,0.000823
34361000,0.0324,0.013523,0.002678,0.000431,0.000823
34362000,0.0324,0.013523,0.002678,0.000431,0.000940
34363000,0.0324,0.013523,0.002678,0.000431,0.000940
34364000,0.0324,0.013523,0.002678,0.000431,0.000823
34365000,0.0324,0.013523,0.002678,0.000431,0.000823
34366000,0.0324,0.013523,0.002678,0.000431,0.000940
34367000,0.0324,0.013523,0.002678,0.000431,0.000940
34368000,0.0324,0.013523,0.002678,0.000431,0.000823
34369000,0.0324,0.013523,0.002678,0.000431,0.000823
34370000,0.0324,0.013523,0.002678,0.000431,0.000823
34371000,0.0324,0.013523,0.002678,0.000431,0.000823
34372000,0.0324,0.013523,0.002678,0.000431,0.000823
34373000,0.0324,0.013523,0.002678,0.000431,0.000823
34374000,0.0324,0.013523,0.002678,0.000431,0.000823
34375000,0.0324,0.013523,0.002678,0.000431,0.000823
34376000,0.0324,0.013523,0.002678,0.000431,0.000940
34377000,0.0324,0.013523,0.002678,0.000431,0.000705
34378000,0.0324,0.013523,0.002678,0.000431,0.000940
34379000,0.0324,0.013523,0.002678,0.000431,0.000940
34380000,0.0324,0.013523,0.002678,0.000431,0.000823
34381000,0.0324,0.013523,0.002678,0.000431,0.000823
34382000,0.0324,0.013523,0.002678,0.000431,0.000940
34383000,0.0324,0.013523,0.002678,0.000431,0.000823
34384000,0.0324,0.013523,0.002678,0.000431,0.000940
34385000,0.0324,0.013523,0.002678,0.000431,0.000823
34386000,0.0324,0.013523,0.002678,0.000431,0.000940
34387000,0.0324,0.013523,0.002678,0.000431,0.000823
34388000,0.0324,0.013523,0.002678,0.000431,0.000823
34389000,0.0324,0.013523,0.002678,0.000431,0.000940
34390000,0.0324,0.013523,0.002678,0.000431,0.000705
34391000,0.0324,0.013523,0.002678,0.000431,0.000823
34392000,0.0324,0.013523,0.002678,0.000431,0.000940
34393000,0.0324,0.013523,0.002678,0.000431,0.000823
34394000,0.0324,0.013523,0.002678,0.000431,0.000823
34395000,0.0324,0.013523,0.002678,0.000431,0.000823
34396000,0.0324,0.013523,0.002678,0.000431,0.000823
34397000,0.0324,0.013523,0.002678,0.000431,0.000823
34398000,0.0324,0.013523,0.002678,0.000431,0.000940
34399000,0.0324,0.013523,0.002678,0.000431,0.000940
34400000,0.0324,0.013523,0.002678,0.000431,0.000823
34401000,0.0324,0.013523,0.002678,0.000431,0.000823
34402000,0.0324,0.013523,0.002678,0.000431,0.000940
34403000,0.0324,0.013523,0.002678,0.000431,0.000823
34404000,0.0324,0.013523,0.002678,0.000431,0.000940
34405000,0.0324,0.013523,0.002678,0.000431,0.000823
34406000,0.0324,0.013523,0.002678,0.000431,0.000940
34407000,0.0324,0.013523,0.002678,0.000431,0.000823
34408000,0.0324,0.013523,0.002678,0.000431,0.000823
34409000,0.0324,0.013523,0.002678,0.000431,0.000940
34410000,0.0324,0.013523,0.002678,0.000431,0.000940
34411000,0.0324,0.013523,0.002678,0.000431,0.000823
34412000,0.0324,0.013523,0.002678,0.000431,0.000823
34413000,0.0324,0.013523,0.002678,0.000431,0.000940
34414000,0.0324,0.013523,0.002678,0.000431,0.000940
34415000,0.0324,0.013523,0.002678,0.000431,0.000705
34416000,0.0324,0.013523,0.002678,0.000431,0.000940
34417000,0.0324,0.013523,0.002678,0.000431,0.000940
34418000,0.0324,0.013523,0.002678,0.000431,0.000940
34419000,0.0324,0.013523,0.002678,0.000431,0.000705
34420000,0.0324,0.013523,0.002678,0.000431,0.000940
34421000,0.0324,0.013523,0.002678,0.000431,0.000940
34422000,0.0324,0.013523,0.002678,0.000431,0.000823
34423000,0.0324,0.013523,0.002678,0.000431,0.000940
34424000,0.0324,0.013523,0.002678,0.000431,0.000823
34425000,0.0324,0.013523,0.002678,0.000431,0.000940
34426000,0.0324,0.013523,0.002678,0.000431,0.000823
34427000,0.0324,0.013523,0.002678,0.000431,0.000823
34428000,0.0324,0.013523,0.002678,0.000431,0.000940
34429000,0.0324,0.013523,0.002678,0.000431,0.000940
34430000,0.0324,0.013523,0.002678,0.000431,0.013986
34431000,0.0324,0.013523,0.002678,0.000431,0.462473
34432000,0.0324,0.013523,0.002678,0.000431,0.599864
34433000,0.0324,0.013523,0.002678,0.000431,0.132572
34434000,0.0324,0.013523,0.002678,0.000431,0.132102
34435000,0.0324,0.013523,0.002678,0.000431,0.427568
34436000,0.0324,0.013523,0.002678,0.000431,0.425217
34437000,0.0324,0.013523,0.002678,0.000431,0.266201
34438000,0.0324,0.013523,0.002678,0.000431,0.276074
34439000,0.0324,0.013523,0.002678,0.000431,0.143619
34440000,0.0324,0.013523,0.002678,0.000431,0.143032
34441000,0.0324,0.013523,0.002678,0.000431,0.138566
34442000,0.0324,0.013523,0.002678,0.000431,0.227064
34443000,0.0324,0.013523,0.002678,0.000431,0.375973
34444000,0.0324,0.013523,0.002678,0.000431,0.062643
34445000,0.0324,0.013523,0.002678,0.000431,0.055121
34446000,0.0324,0.013523,0.002678,0.000431,0.039137
34447000,0.0324,0.013523,0.002678,0.000431,0.032320
34448000,0.0324,0.013523,0.002678,0.000431,0.023976
34449000,0.0324,0.013523,0.002678,0.000431,0.029382
34450000,0.0324,0.013523,0.002678,0.000431,0.015514
34451000,0.0324,0.013523,0.002678,0.000431,0.013986
34452000,0.0324,0.013523,0.002678,0.000431,0.013046
34453000,0.0324,0.013523,0.002678,0.000431,0.010107
34454000,0.0324,0.013523,0.002678,0.000431,0.011988
34455000,0.0324,0.013523,0.002678,0.000431,0.009402
34456000,0.0324,0.013523,0.002678,0.000431,0.009402
34457000,0.0324,0.013523,0.002678,0.000431,0.010695
34458000,0.0324,0.013523,0.002678,0.000431,0.010460
34459000,0.0324,0.013523,0.002678,0.000431,0.008227
34460000,0.0324,0.013523,0.002678,0.000431,0.006934
34461000,0.0324,0.013523,0.002678,0.000431,0.006699
34462000,0.0324,0.013523,0.002678,0.000431,0.007404
34463000,0.0324,0.013523,0.002678,0.000431,0.007522
34464000,0.0324,0.013523,0.002678,0.000431,0.003761
34465000,0.0324,0.013523,0.002678,0.000431,0.004466
34466000,0.0324,0.013523,0.002678,0.000431,0.004231
34467000,0.0324,0.013523,0.002678,0.000431,0.005289
34468000,0.0324,0.013523,0.002678,0.000431,0.001880
34469000,0.0324,0.013523,0.002678,0.000431,0.001645
34470000,0.0324,0.013523,0.002678,0.000431,0.001880
34471000,0.0324,0.013523,0.002678,0.000431,0.001410
34472000,0.0324,0.013523,0.002678,0.000431,0.001880
34473000,0.0324,0.013523,0.002678,0.000431,0.002821
34474000,0.0324,0.013523,0.002678,0.000431,0.001998
34475000,0.0324,0.013523,0.002678,0.000431,0.000940
34476000,0.0324,0.013523,0.002678,0.000431,0.000705
34477000,0.0324,0.013523,0.002678,0.000431,0.000940
34478000,0.0324,0.013523,0.002678,0.000431,0.000823
34479000,0.0324,0.013523,0.002678,0.000431,0.000823
34480000,0.0324,0.013523,0.002678,0.000431,0.013516
34481000,0.0324,0.013523,0.002678,0.000431,0.523588
34482000,0.0324,0.013523,0.002678,0.000431,0.593400
34483000,0.0324,0.013523,0.002678,0.000431,0.133982
34484000,0.0324,0.013523,0.002678,0.000431,0.132102
34485000,0.0324,0.013523,0.002678,0.000431,0.424864
34486000,0.0324,0.013523,0.002678,0.000431,0.340479
34487000,0.0324,0.013523,0.002678,0.000431,0.227770
34488000,0.0324,0.013523,0.002678,0.000431,0.329079
34489000,0.0324,0.013523,0.002678,0.000431,0.177585
34490000,0.0324,0.013523,0.002678,0.000431,0.139036
34491000,0.0324,0.013523,0.002678,0.000431,0.151141
34492000,0.0324,0.013523,0.002678,0.000431,0.224244
34493000,0.0324,0.013523,0.002678,0.000431,0.411584
34494000,0.0324,0.013523,0.002678,0.000431,0.088851
34495000,0.0324,0.013523,0.002678,0.000431,0.064288
34496000,0.0324,0.013523,0.002678,0.000431,0.050772
34497000,0.0324,0.013523,0.002678,0.000431,0.040312
34498000,0.0324,0.013523,0.002678,0.000431,0.034671
34499000,0.0324,0.013523,0.002678,0.000431,0.030440
34500000,0.0324,0.013523,0.002678,0.000431,0.027502
34501000,0.0324,0.013523,0.002678,0.000431,0.018569
34502000,0.0324,0.013523,0.002678,0.000431,0.017394
34503000,0.0324,0.013523,0.002678,0.000431,0.019745
34504000,0.0324,0.013523,0.002678,0.000431,0.016219
34505000,0.0324,0.013523,0.002678,0.000431,0.013751
34506000,0.0324,0.013523,0.002678,0.000431,0.007992
34507000,0.0324,0.013523,0.002678,0.000431,0.007992
34508000,0.0324,0.013523,0.002678,0.000431,0.010342
34509000,0.0324,0.013523,0.002678,0.000431,0.010930
34510000,0.0324,0.013523,0.002678,0.000431,0.004349
34511000,0.0324,0.013523,0.002678,0.000431,0.004349
34512000,0.0324,0.013523,0.002678,0.000431,0.003761
34513000,0.0324,0.013523,0.002678,0.000431,0.004231
34514000,0.0324,0.013523,0.002678,0.000431,0.004231
34515000,0.0324,0.013523,0.002678,0.000431,0.003996
34516000,0.0324,0.013523,0.002678,0.000431,0.003996
34517000,0.0324,0.013523,0.002678,0.000431,0.004231
34518000,0.0324,0.013523,0.002678,0.000431,0.003996
34519000,0.0324,0.013523,0.002678,0.000431,0.004466
34520000,0.0324,0.013523,0.002678,0.000431,0.003761
34521000,0.0324,0.013523,0.002678,0.000431,0.004466
34522000,0.0324,0.013523,0.002678,0.000431,0.003878
34523000,0.0324,0.013523,0.002678,0.000431,0.004113
34524000,0.0324,0.013523,0.002678,0.000431,0.004584
34525000,0.0324,0.013523,0.002678,0.000431,0.003643
34526000,0.0324,0.013523,0.002678,0.000431,0.004466
34527000,0.0324,0.013523,0.002678,0.000431,0.003996
34528000,0.0324,0.013523,0.002678,0.000431,0.004113
34529000,0.0324,0.013523,0.002678,0.000431,0.004466
34530000,0.0324,0.013523,0.002678,0.000431,0.003526
34531000,0.0324,0.013523,0.002678,0.000431,0.004466
34532000,0.0324,0.013523,0.002678,0.000431,0.004349
34533000,0.0324,0.013523,0.002678,0.000431,0.005406
34534000,0.0324,0.013523,0.002678,0.000431,0.003056
34535000,0.0324,0.013523,0.002678,0.000431,0.002938
34536000,0.0324,0.013523,0.002678,0.000431,0.002821
34537000,0.0324,0.013523,0.002678,0.000431,0.005289
34538000,0.0324,0.013523,0.002678,0.000431,0.001645
34539000,0.0324,0.013523,0.002678,0.000431,0.004584
34540000,0.0324,0.013523,0.002678,0.000431,0.000705
34541000,0.0324,0.013523,0.002678,0.000431,0.000940
34542000,0.0324,0.013523,0.002678,0.000431,0.000823
34543000,0.0324,0.013523,0.002678,0.000431,0.000823
34544000,0.0324,0.013523,0.002678,0.000431,0.000823
34545000,0.0324,0.013523,0.002678,0.000431,0.000823
34546000,0.0324,0.013523,0.002678,0.000431,0.000940
34547000,0.0324,0.013523,0.002678,0.000431,0.000705
34548000,0.0324,0.013523,0.002678,0.000431,0.000940
34549000,0.0324,0.013523,0.002678,0.000431,0.000823
34550000,0.0324,0.013523,0.002678,0.000431,0.000823
34551000,0.0324,0.013523,0.002678,0.000431,0.000823
34552000,0.0324,0.013523,0.002678,0.000431,0.000823
34553000,0.0324,0.013523,0.002678,0.000431,0.000823
34554000,0.0324,0.013523,0.002678,0.000431,0.000823
34555000,0.0324,0.013523,0.002678,0.000431,0.000940
34556000,0.0324,0.013523,0.002678,0.000431,0.000823
34557000,0.0324,0.013523,0.002678,0.000431,0.000823
34558000,0.0324,0.013523,0.002678,0.000431,0.000705
34559000,0.0324,0.013523,0.002678,0.000431,0.000940
34560000,0.0324,0.013523,0.002678,0.000431,0.000940
34561000,0.0324,0.013523,0.002678,0.000431,0.000705
34562000,0.0324,0.013523,0.002678,0.000431,0.000940
34563000,0.0324,0.013523,0.002678,0.000431,0.000705
34564000,0.0324,0.013523,0.002678,0.000431,0.000940
34565000,0.0324,0.013523,0.002678,0.000431,0.000823
34566000,0.0324,0.013523,0.002678,0.000431,0.000823
34567000,0.0324,0.013523,0.002678,0.000431,0.000823
34568000,0.0324,0.013523,0.002678,0.000431,0.000823
34569000,0.0324,0.013523,0.002678,0.000431,0.000940
34570000,0.0324,0.013523,0.002678,0.000431,0.000705
34571000,0.0324,0.013523,0.002678,0.000431,0.000940
34572000,0.0324,0.013523,0.002678,0.000431,0.000823
34573000,0.0324,0.013523,0.002678,0.000431,0.000823
34574000,0.0324,0.013523,0.002678,0.000431,0.000823
34575000,0.0324,0.013523,0.002678,0.000431,0.000823
34576000,0.0324,0.013523,0.002678,0.000431,0.000940
34577000,0.0324,0.013523,0.002678,0.000431,0.000705
34578000,0.0324,0.013523,0.002678,0.000431,0.000823
34579000,0.0324,0.013523,0.002678,0.000431,0.000823
34580000,0.0324,0.013523,0.002678,0.000431,0.000940
34581000,0.0324,0.013523,0.002678,0.000431,0.000823
34582000,0.0324,0.013523,0.002678,0.000431,0.000823
34583000,0.0324,0.013523,0.002678,0.000431,0.000705
34584000,0.0324,0.013523,0.002678,0.000431,0.000940
34585000,0.0324,0.013523,0.002678,0.000431,0.000940
34586000,0.0324,0.013523,0.002678,0.000431,0.000705
34587000,0.0324,0.013523,0.002678,0.000431,0.000940
34588000,0.0324,0.013523,0.002678,0.000431,0.000705
34589000,0.0324,0.013523,0.002678,0.000431,0.000940
34590000,0.0324,0.013523,0.002678,0.000431,0.000823
34591000,0.0324,0.013523,0.002678,0.000431,0.000823
34592000,0.0324,0.013523,0.002678,0.000431,0.000940
34593000,0.0324,0.013523,0.002678,0.000431,0.000705
34594000,0.0324,0.013523,0.002678,0.000431,0.000940
34595000,0.0324,0.013523,0.002678,0.000431,0.000823
34596000,0.0324,0.013523,0.002678,0.000431,0.000823
34597000,0.0324,0.013523,0.002678,0.000431,0.000823
34598000,0.0324,0.013523,0.002678,0.000431,0.000823
34599000,0.0324,0.013523,0.002678,0.000431,0.000823
34600000,0.0324,0.013523,0.002678,0.000431,0.000823
34601000,0.0324,0.013523,0.002678,0.000431,0.000940
34602000,0.0324,0.013523,0.002678,0.000431,0.000705
34603000,0.0324,0.013523,0.002678,0.000431,0.000940
34604000,0.0324,0.013523,0.002678,0.000431,0.000823
34605000,0.0324,0.013523,0.002678,0.000431,0.000823
34606000,0.0324,0.013523,0.002678,0.000431,0.000823
34607000,0.0324,0.013523,0.002678,0.000431,0.000823
34608000,0.0324,0.013523,0.002678,0.000431,0.000940
34609000,0.0324,0.013523,0.002678,0.000431,0.000940
34610000,0.0324,0.013523,0.002678,0.000431,0.019627
34611000,0.0324,0.013523,0.002678,0.000431,0.572362
34612000,0.0324,0.013523,0.002678,0.000431,0.591049
34613000,0.0324,0.013523,0.002678,0.000431,0.133512
34614000,0.0324,0.013523,0.002678,0.000431,0.134922
34615000,0.0324,0.013523,0.002678,0.000431,0.589404
34616000,0.0324,0.013523,0.002678,0.000431,0.247162
34617000,0.0324,0.013523,0.002678,0.000431,0.279952
34618000,0.0324,0.013523,0.002678,0.000431,0.296994
34619000,0.0324,0.013523,0.002678,0.000431,0.144795
34620000,0.0324,0.013523,0.002678,0.000431,0.165715
34621000,0.0324,0.013523,0.002678,0.000431,0.114355
34622000,0.0324,0.013523,0.002678,0.000431,0.499142
34623000,0.0324,0.013523,0.002678,0.000431,0.161601
34624000,0.0324,0.013523,0.002678,0.000431,0.124110
34625000,0.0324,0.013523,0.002678,0.000431,0.103660
34626000,0.0324,0.013523,0.002678,0.000431,0.080154
34627000,0.0324,0.013523,0.002678,0.000431,0.059939
34628000,0.0324,0.013523,0.002678,0.000431,0.051947
34629000,0.0324,0.013523,0.002678,0.000431,0.041723
34630000,0.0324,0.013523,0.002678,0.000431,0.035376
34631000,0.0324,0.013523,0.002678,0.000431,0.031262
34632000,0.0324,0.013523,0.002678,0.000431,0.033966
34633000,0.0324,0.013523,0.002678,0.000431,0.022683
34634000,0.0324,0.013523,0.002678,0.000431,0.022683
34635000,0.0324,0.013523,0.002678,0.000431,0.020802
34636000,0.0324,0.013523,0.002678,0.000431,0.017042
34637000,0.0324,0.013523,0.002678,0.000431,0.013751
34638000,0.0324,0.013523,0.002678,0.000431,0.016807
34639000,0.0324,0.013523,0.002678,0.000431,0.014456
34640000,0.0324,0.013523,0.002678,0.000431,0.012811
34641000,0.0324,0.013523,0.002678,0.000431,0.014338
34642000,0.0324,0.013523,0.002678,0.000431,0.009872
34643000,0.0324,0.013523,0.002678,0.000431,0.011870
34644000,0.0324,0.013523,0.002678,0.000431,0.010460
34645000,0.0324,0.013523,0.002678,0.000431,0.011165
34646000,0.0324,0.013523,0.002678,0.000431,0.009872
34647000,0.0324,0.013523,0.002678,0.000431,0.009167
34648000,0.0324,0.013523,0.002678,0.000431,0.012105
34649000,0.0324,0.013523,0.002678,0.000431,0.005171
34650000,0.0324,0.013523,0.002678,0.000431,0.005406
34651000,0.0324,0.013523,0.002678,0.000431,0.005289
34652000,0.0324,0.013523,0.002678,0.000431,0.004584
34653000,0.0324,0.013523,0.002678,0.000431,0.004349
34654000,0.0324,0.013523,0.002678,0.000431,0.004701
34655000,0.0324,0.013523,0.002678,0.000431,0.007757
34656000,0.0324,0.013523,0.002678,0.000431,0.003291
34657000,0.0324,0.013523,0.002678,0.000431,0.003408
34658000,0.0324,0.013523,0.002678,0.000431,0.003056
34659000,0.0324,0.013523,0.002678,0.000431,0.003291
34660000,0.0324,0.013523,0.002678,0.000431,0.003173
34661000,0.0324,0.013523,0.002678,0.000431,0.006229
34662000,0.0324,0.013523,0.002678,0.000431,0.002468
34663000,0.0324,0.013523,0.002678,0.000431,0.002351
34664000,0.0324,0.013523,0.002678,0.000431,0.002233
34665000,0.0324,0.013523,0.002678,0.000431,0.002468
34666000,0.0324,0.013523,0.002678,0.000431,0.002821
34667000,0.0324,0.013523,0.002678,0.000431,0.002116
34668000,0.0324,0.013523,0.002678,0.000431,0.002586
34669000,0.0324,0.013523,0.002678,0.000431,0.002233
34670000,0.0324,0.013523,0.002678,0.000431,0.002468
34671000,0.0324,0.013523,0.002678,0.000431,0.002586
34672000,0.0324,0.013523,0.002678,0.000431,0.002233
34673000,0.0324,0.013523,0.002678,0.000431,0.002468
34674000,0.0324,0.013523,0.002678,0.000431,0.002468
34675000,0.0324,0.013523,0.002678,0.000431,0.002468
34676000,0.0324,0.013523,0.002678,0.000431,0.002351
34677000,0.0324,0.013523,0.002678,0.000431,0.002351
34678000,0.0324,0.013523,0.002678,0.000431,0.002586
34679000,0.0324,0.013523,0.002678,0.000431,0.002351
34680000,0.0324,0.013523,0.002678,0.000431,0.002351
34681000,0.0324,0.013523,0.002678,0.000431,0.002468
34682000,0.0324,0.013523,0.002678,0.000431,0.002233
34683000,0.0324,0.013523,0.002678,0.000431,0.002586
34684000,0.0324,0.013523,0.002678,0.000431,0.002116
34685000,0.0324,0.013523,0.002678,0.000431,0.002468
34686000,0.0324,0.013523,0.002678,0.000431,0.002821
34687000,0.0324,0.013523,0.002678,0.000431,0.001998
34688000,0.0324,0.013523,0.002678,0.000431,0.002821
34689000,0.0324,0.013523,0.002678,0.000431,0.003878
34690000,0.0324,0.013523,0.002678,0.000431,0.001645
34691000,0.0324,0.013523,0.002678,0.000431,0.001645
34692000,0.0324,0.013523,0.002678,0.000431,0.001410
34693000,0.0324,0.013523,0.002678,0.000431,0.001880
34694000,0.0324,0.013523,0.002678,0.000431,0.001410
34695000,0.0324,0.013523,0.002678,0.000431,0.001645
34696000,0.0324,0.013523,0.002678,0.000431,0.001645
34697000,0.0324,0.013523,0.002678,0.000431,0.001410
34698000,0.0324,0.013523,0.002678,0.000431,0.001645
34699000,0.0324,0.013523,0.002678,0.000431,0.001645
34700000,0.0324,0.013523,0.002678,0.000431,0.001645
34701000,0.0324,0.013523,0.002678,0.000431,0.001645
34702000,0.0324,0.013523,0.002678,0.000431,0.001645
34703000,0.0324,0.013523,0.002678,0.000431,0.001645
34704000,0.0324,0.013523,0.002678,0.000431,0.001763
34705000,0.0324,0.013523,0.002678,0.000431,0.001528
34706000,0.0324,0.013523,0.002678,0.000431,0.001645
34707000,0.0324,0.013523,0.002678,0.000431,0.001645
34708000,0.0324,0.013523,0.002678,0.000431,0.001645
34709000,0.0324,0.013523,0.002678,0.000431,0.001528
34710000,0.0324,0.013523,0.002678,0.000431,0.001763
34711000,0.0324,0.013523,0.002678,0.000431,0.001410
34712000,0.0324,0.013523,0.002678,0.000431,0.001645
34713000,0.0324,0.013523,0.002678,0.000431,0.001645
34714000,0.0324,0.013523,0.002678,0.000431,0.001528
34715000,0.0324,0.013523,0.002678,0.000431,0.001528
34716000,0.0324,0.013523,0.002678,0.000431,0.001645
34717000,0.0324,0.013523,0.002678,0.000431,0.001410
34718000,0.0324,0.013523,0.002678,0.000431,0.001645
34719000,0.0324,0.013523,0.002678,0.000431,0.001645
34720000,0.0324,0.013523,0.002678,0.000431,0.001410
34721000,0.0324,0.013523,0.002678,0.000431,0.001880
34722000,0.0324,0.013523,0.002678,0.000431,0.001175
34723000,0.0324,0.013523,0.002678,0.000431,0.001880
34724000,0.0324,0.013523,0.002678,0.000431,0.001410
34725000,0.0324,0.013523,0.002678,0.000431,0.001645
34726000,0.0324,0.013523,0.002678,0.000431,0.001880
34727000,0.0324,0.013523,0.002678,0.000431,0.001175
34728000,0.0324,0.013523,0.002678,0.000431,0.001880
34729000,0.0324,0.013523,0.002678,0.000431,0.001645
34730000,0.0324,0.013523,0.002678,0.000431,0.001410
34731000,0.0324,0.013523,0.002678,0.000431,0.001880
34732000,0.0324,0.013523,0.002678,0.000431,0.001645
34733000,0.0324,0.013523,0.002678,0.000431,0.001410
34734000,0.0324,0.013523,0.002678,0.000431,0.001763
34735000,0.0324,0.013523,0.002678,0.000431,0.001763
34736000,0.0324,0.013523,0.002678,0.000431,0.001645
34737000,0.0324,0.013523,0.002678,0.000431,0.001410
34738000,0.0324,0.013523,0.002678,0.000431,0.001880
34739000,0.0324,0.013523,0.002678,0.000431,0.001645
34740000,0.0324,0.013523,0.002678,0.000431,0.001645
34741000,0.0324,0.013523,0.002678,0.000431,0.001645
34742000,0.0324,0.013523,0.002678,0.000431,0.001645
34743000,0.0324,0.013523,0.002678,0.000431,0.001645
34744000,0.0324,0.013523,0.002678,0.000431,0.001645
34745000,0.0324,0.013523,0.002678,0.000431,0.001645
34746000,0.0324,0.013523,0.002678,0.000431,0.215899
34747000,0.0324,0.013523,0.002678,0.000431,0.578356
34748000,0.0324,0.013523,0.002678,0.000431,0.497732
34749000,0.0324,0.013523,0.002678,0.000431,0.132572
34750000,0.0324,0.013523,0.002678,0.000431,0.139153
34751000,0.0324,0.013523,0.002678,0.000431,0.582587
34752000,0.0324,0.013523,0.002678,0.000431,0.224244
34753000,0.0324,0.013523,0.002678,0.000431,0.308511
34754000,0.0324,0.013523,0.002678,0.000431,0.248220
34755000,0.0324,0.013523,0.002678,0.000431,0.140446
34756000,0.0324,0.013523,0.002678,0.000431,0.146558
34757000,0.0324,0.013523,0.002678,0.000431,0.230590
34758000,0.0324,0.013523,0.002678,0.000431,0.399126
34759000,0.0324,0.013523,0.002678,0.000431,0.103307
34760000,0.0324,0.013523,0.002678,0.000431,0.073455
34761000,0.0324,0.013523,0.002678,0.000431,0.072280
34762000,0.0324,0.013523,0.002678,0.000431,0.050185
34763000,0.0324,0.013523,0.002678,0.000431,0.050302
34764000,0.0324,0.013523,0.002678,0.000431,0.040195
34765000,0.0324,0.013523,0.002678,0.000431,0.031850
34766000,0.0324,0.013523,0.002678,0.000431,0.030792
34767000,0.0324,0.013523,0.002678,0.000431,0.025386
34768000,0.0324,0.013523,0.002678,0.000431,0.018217
34769000,0.0324,0.013523,0.002678,0.000431,0.016807
34770000,0.0324,0.013523,0.002678,0.000431,0.015984
34771000,0.0324,0.013523,0.002678,0.000431,0.020802
34772000,0.0324,0.013523,0.002678,0.000431,0.008227
34773000,0.0324,0.013523,0.002678,0.000431,0.006347
34774000,0.0324,0.013523,0.002678,0.000431,0.008815
34775000,0.0324,0.013523,0.002678,0.000431,0.005524
34776000,0.0324,0.013523,0.002678,0.000431,0.003056
34777000,0.0324,0.013523,0.002678,0.000431,0.001763
34778000,0.0324,0.013523,0.002678,0.000431,0.001645
34779000,0.0324,0.013523,0.002678,0.000431,0.001763
34780000,0.0324,0.013523,0.002678,0.000431,0.001645
34781000,0.0324,0.013523,0.002678,0.000431,0.001763
34782000,0.0324,0.013523,0.002678,0.000431,0.001763
34783000,0.0324,0.013523,0.002678,0.000431,0.001645
34784000,0.0324,0.013523,0.002678,0.000431,0.001763
34785000,0.0324,0.013523,0.002678,0.000431,0.001645
34786000,0.0324,0.013523,0.002678,0.000431,0.001880
34787000,0.0324,0.013523,0.002678,0.000431,0.001528
34788000,0.0324,0.013523,0.002678,0.000431,0.001763
34789000,0.0324,0.013523,0.002678,0.000431,0.001763
34790000,0.0324,0.013523,0.002678,0.000431,0.001645
34791000,0.0324,0.013523,0.002678,0.000431,0.001528
34792000,0.0324,0.013523,0.002678,0.000431,0.001880
34793000,0.0324,0.013523,0.002678,0.000431,0.001880
34794000,0.0324,0.013523,0.002678,0.000431,0.001528
34795000,0.0324,0.013523,0.002678,0.000431,0.001763
34796000,0.0324,0.013523,0.002678,0.000431,0.001645
34797000,0.0324,0.013523,0.002678,0.000431,0.001763
34798000,0.0324,0.013523,0.002678,0.000431,0.001880
34799000,0.0324,0.013523,0.002678,0.000431,0.002821
34800000,0.0324,0.013523,0.002678,0.000431,0.000940
34801000,0.0324,0.013523,0.002678,0.000431,0.000705
34802000,0.0324,0.013523,0.002678,0.000431,0.000940
34803000,0.0324,0.013523,0.002678,0.000431,0.000823
34804000,0.0324,0.013523,0.002678,0.000431,0.000823
34805000,0.0324,0.013523,0.002678,0.000431,0.000823
34806000,0.0324,0.013523,0.002678,0.000431,0.000823
34807000,0.0324,0.013523,0.002678,0.000431,0.000940
34808000,0.0324,0.013523,0.002678,0.000431,0.000705
34809000,0.0324,0.013523,0.002678,0.000431,0.000940
34810000,0.0324,0.013523,0.002678,0.000431,0.000823
34811000,0.0324,0.013523,0.002678,0.000431,0.000705
34812000,0.0324,0.013523,0.002678,0.000431,0.000940
34813000,0.0324,0.013523,0.002678,0.000431,0.000823
34814000,0.0324,0.013523,0.002678,0.000431,0.000823
34815000,0.0324,0.013523,0.002678,0.000431,0.000940
34816000,0.0324,0.013523,0.002678,0.000431,0.000823
34817000,0.0324,0.013523,0.002678,0.000431,0.000940
34818000,0.0324,0.013523,0.002678,0.000431,0.000823
34819000,0.0324,0.013523,0.002678,0.000431,0.000940
34820000,0.0324,0.013523,0.002678,0.000431,0.000823
34821000,0.0324,0.013523,0.002678,0.000431,0.000940
34822000,0.0324,0.013523,0.002678,0.000431,0.000823
34823000,0.0324,0.013523,0.002678,0.000431,0.000823
34824000,0.0324,0.013523,0.002678,0.000431,0.000940
34825000,0.0324,0.013523,0.002678,0.000431,0.000705
34826000,0.0324,0.013523,0.002678,0.000431,0.000940
34827000,0.0324,0.013523,0.002678,0.000431,0.000705
34828000,0.0324,0.013523,0.002678,0.000431,0.000940
34829000,0.0324,0.013523,0.002678,0.000431,0.000823
34830000,0.0324,0.013523,0.002678,0.000431,0.000823
34831000,0.0324,0.013523,0.002678,0.000431,0.000823
34832000,0.0324,0.013523,0.002678,0.000431,0.000823
34833000,0.0324,0.013523,0.002678,0.000431,0.000940
34834000,0.0324,0.013523,0.002678,0.000431,0.000705
34835000,0.0324,0.013523,0.002678,0.000431,0.000940
34836000,0.0324,0.013523,0.002678,0.000431,0.000705
34837000,0.0324,0.013523,0.002678,0.000431,0.000940
34838000,0.0324,0.013523,0.002678,0.000431,0.000823
34839000,0.0324,0.013523,0.002678,0.000431,0.000823
34840000,0.0324,0.013523,0.002678,0.000431,0.002351
34841000,0.0324,0.013523,0.002678,0.000431,0.312507
34842000,0.0324,0.013523,0.002678,0.000431,0.679313
34843000,0.0324,0.013523,0.002678,0.000431,0.267494
34844000,0.0324,0.013523,0.002678,0.000431,0.132572
34845000,0.0324,0.013523,0.002678,0.000431,0.171709
34846000,0.0324,0.013523,0.002678,0.000431,0.622664
34847000,0.0324,0.013523,0.002678,0.000431,0.233293
34848000,0.0324,0.013523,0.002678,0.000431,0.281010
34849000,0.0324,0.013523,0.002678,0.000431,0.230590
34850000,0.0324,0.013523,0.002678,0.000431,0.137978
34851000,0.0324,0.013523,0.002678,0.000431,0.144207
34852000,0.0324,0.013523,0.002678,0.000431,0.220130
34853000,0.0324,0.013523,0.002678,0.000431,0.405355
34854000,0.0324,0.013523,0.002678,0.000431,0.082857
34855000,0.0324,0.013523,0.002678,0.000431,0.066756
34856000,0.0324,0.013523,0.002678,0.000431,0.047834
34857000,0.0324,0.013523,0.002678,0.000431,0.047011
34858000,0.0324,0.013523,0.002678,0.000431,0.035964
34859000,0.0324,0.013523,0.002678,0.000431,0.028324
34860000,0.0324,0.013523,0.002678,0.000431,0.018687
34861000,0.0324,0.013523,0.002678,0.000431,0.016924
34862000,0.0324,0.013523,0.002678,0.000431,0.012811
34863000,0.0324,0.013523,0.002678,0.000431,0.020802
34864000,0.0324,0.013523,0.002678,0.000431,0.009520
34865000,0.0324,0.013523,0.002678,0.000431,0.009167
34866000,0.0324,0.013523,0.002678,0.000431,0.010225
34867000,0.0324,0.013523,0.002678,0.000431,0.007404
34868000,0.0324,0.013523,0.002678,0.000431,0.011165
34869000,0.0324,0.013523,0.002678,0.000431,0.008345
34870000,0.0324,0.013523,0.002678,0.000431,0.004819
34871000,0.0324,0.013523,0.002678,0.000431,0.005289
34872000,0.0324,0.013523,0.002678,0.000431,0.004584
34873000,0.0324,0.013523,0.002678,0.000431,0.005054
34874000,0.0324,0.013523,0.002678,0.000431,0.006817
34875000,0.0324,0.013523,0.002678,0.000431,0.005524
34876000,0.0324,0.013523,0.002678,0.000431,0.003408
34877000,0.0324,0.013523,0.002678,0.000431,0.003173
34878000,0.0324,0.013523,0.002678,0.000431,0.003173
34879000,0.0324,0.013523,0.002678,0.000431,0.003408
34880000,0.0324,0.013523,0.002678,0.000431,0.003291
34881000,0.0324,0.013523,0.002678,0.000431,0.003291
34882000,0.0324,0.013523,0.002678,0.000431,0.003291
34883000,0.0324,0.013523,0.002678,0.000431,0.003173
34884000,0.0324,0.013523,0.002678,0.000431,0.003173
34885000,0.0324,0.013523,0.002678,0.000431,0.003291
34886000,0.0324,0.013523,0.002678,0.000431,0.003291
34887000,0.0324,0.013523,0.002678,0.000431,0.003291
34888000,0.0324,0.013523,0.002678,0.000431,0.003056
34889000,0.0324,0.013523,0.002678,0.000431,0.003526
34890000,0.0324,0.013523,0.002678,0.000431,0.002821
34891000,0.0324,0.013523,0.002678,0.000431,0.003526
34892000,0.0324,0.013523,0.002678,0.000431,0.003408
34893000,0.0324,0.013523,0.002678,0.000431,0.002938
34894000,0.0324,0.013523,0.002678,0.000431,0.003643
34895000,0.0324,0.013523,0.002678,0.000431,0.002821
34896000,0.0324,0.013523,0.002678,0.000431,0.003526
34897000,0.0324,0.013523,0.002678,0.000431,0.003173
34898000,0.0324,0.013523,0.002678,0.000431,0.003173
34899000,0.0324,0.013523,0.002678,0.000431,0.003291
34900000,0.0324,0.013523,0.002678,0.000431,0.003291
34901000,0.0324,0.013523,0.002678,0.000431,0.003408
34902000,0.0324,0.013523,0.002678,0.000431,0.003056
34903000,0.0324,0.013523,0.002678,0.000431,0.003291
34904000,0.0324,0.013523,0.002678,0.000431,0.003291
34905000,0.0324,0.013523,0.002678,0.000431,0.003408
34906000,0.0324,0.013523,0.002678,0.000431,0.003056
34907000,0.0324,0.013523,0.002678,0.000431,0.005289
34908000,0.0324,0.013523,0.002678,0.000431,0.002351
34909000,0.0324,0.013523,0.002678,0.000431,0.002468
34910000,0.0324,0.013523,0.002678,0.000431,0.002586
34911000,0.0324,0.013523,0.002678,0.000431,0.002586
34912000,0.0324,0.013523,0.002678,0.000431,0.002586
34913000,0.0324,0.013523,0.002678,0.000431,0.000823
34914000,0.0324,0.013523,0.002678,0.000431,0.000823
34915000,0.0324,0.013523,0.002678,0.000431,0.000940
34916000,0.0324,0.013523,0.002678,0.000431,0.000823
34917000,0.0324,0.013523,0.002678,0.000431,0.000823
34918000,0.0324,0.013523,0.002678,0.000431,0.000823
34919000,0.0324,0.013523,0.002678,0.000431,0.000823
34920000,0.0324,0.013523,0.002678,0.000431,0.000705
34921000,0.0324,0.013523,0.002678,0.000431,0.000940
34922000,0.0324,0.013523,0.002678,0.000431,0.000940
34923000,0.0324,0.013523,0.002678,0.000431,0.000705
34924000,0.0324,0.013523,0.002678,0.000431,0.000940
34925000,0.0324,0.013523,0.002678,0.000431,0.000705
34926000,0.0324,0.013523,0.002678,0.000431,0.000940
34927000,0.0324,0.013523,0.002678,0.000431,0.007639
34928000,0.0324,0.013523,0.002678,0.000431,0.495146
34929000,0.0324,0.013523,0.002678,0.000431,0.648521
34930000,0.0324,0.013523,0.002678,0.000431,0.133982
34931000,0.0324,0.013523,0.002678,0.000431,0.132102
34932000,0.0324,0.013523,0.002678,0.000431,0.303810
34933000,0.0324,0.013523,0.002678,0.000431,0.528172
34934000,0.0324,0.013523,0.002678,0.000431,0.235409
34935000,0.0324,0.013523,0.002678,0.000431,0.311097
34936000,0.0324,0.013523,0.002678,0.000431,0.136333
34937000,0.0324,0.013523,0.002678,0.000431,0.147145
34938000,0.0324,0.013523,0.002678,0.000431,0.130221
34939000,0.0324,0.013523,0.002678,0.000431,0.271373
34940000,0.0324,0.013523,0.002678,0.000431,0.313800
34941000,0.0324,0.013523,0.002678,0.000431,0.037844
34942000,0.0324,0.013523,0.002678,0.000431,0.033966
34943000,0.0324,0.013523,0.002678,0.000431,0.024446
34944000,0.0324,0.013523,0.002678,0.000431,0.018687
34945000,0.0324,0.013523,0.002678,0.000431,0.011165
34946000,0.0324,0.013523,0.002678,0.000431,0.007169
34947000,0.0324,0.013523,0.002678,0.000431,0.006347
34948000,0.0324,0.013523,0.002678,0.000431,0.006817
34949000,0.0324,0.013523,0.002678,0.000431,0.006817
34950000,0.0324,0.013523,0.002678,0.000431,0.006699
34951000,0.0324,0.013523,0.002678,0.000431,0.008462
34952000,0.0324,0.013523,0.002678,0.000431,0.005641
34953000,0.0324,0.013523,0.002678,0.000431,0.006464
34954000,0.0324,0.013523,0.002678,0.000431,0.004231
34955000,0.0324,0.013523,0.002678,0.000431,0.004113
34956000,0.0324,0.013523,0.002678,0.000431,0.006111
34957000,0.0324,0.013523,0.002678,0.000431,0.003173
34958000,0.0324,0.013523,0.002678,0.000431,0.003761
34959000,0.0324,0.013523,0.002678,0.000431,0.003173
34960000,0.0324,0.013523,0.002678,0.000431,0.003526
34961000,0.0324,0.013523,0.002678,0.000431,0.003291
34962000,0.0324,0.013523,0.002678,0.000431,0.003291
34963000,0.0324,0.013523,0.002678,0.000431,0.003643
34964000,0.0324,0.013523,0.002678,0.000431,0.003408
34965000,0.0324,0.013523,0.002678,0.000431,0.003291
34966000,0.0324,0.013523,0.002678,0.000431,0.003408
34967000,0.0324,0.013523,0.002678,0.000431,0.003291
34968000,0.0324,0.013523,0.002678,0.000431,0.003643
34969000,0.0324,0.013523,0.002678,0.000431,0.003291
34970000,0.0324,0.013523,0.002678,0.000431,0.003291
34971000,0.0324,0.013523,0.002678,0.000431,0.003526
34972000,0.0324,0.013523,0.002678,0.000431,0.005524
34973000,0.0324,0.013523,0.002678,0.000431,0.002586
34974000,0.0324,0.013523,0.002678,0.000431,0.002468
34975000,0.0324,0.013523,0.002678,0.000431,0.002586
34976000,0.0324,0.013523,0.002678,0.000431,0.002586
34977000,0.0324,0.013523,0.002678,0.000431,0.002586
34978000,0.0324,0.013523,0.002678,0.000431,0.004113
34979000,0.0324,0.013523,0.002678,0.000431,0.005054
34980000,0.0324,0.013523,0.002678,0.000431,0.383730
34981000,0.0324,0.013523,0.002678,0.000431,0.672731
34982000,0.0324,0.013523,0.002678,0.000431,0.132572
34983000,0.0324,0.013523,0.002678,0.000431,0.133042
34984000,0.0324,0.013523,0.002678,0.000431,0.172531
34985000,0.0324,0.013523,0.002678,0.000431,0.580237
34986000,0.0324,0.013523,0.002678,0.000431,0.272195
34987000,0.0324,0.013523,0.002678,0.000431,0.266201
34988000,0.0324,0.013523,0.002678,0.000431,0.228240
34989000,0.0324,0.013523,0.002678,0.000431,0.140681
34990000,0.0324,0.013523,0.002678,0.000431,0.164539
34991000,0.0324,0.013523,0.002678,0.000431,0.138801
34992000,0.0324,0.013523,0.002678,0.000431,0.447782
34993000,0.0324,0.013523,0.002678,0.000431,0.066638
34994000,0.0324,0.013523,0.002678,0.000431,0.053005
34995000,0.0324,0.013523,0.002678,0.000431,0.029735
34996000,0.0324,0.013523,0.002678,0.000431,0.023623
34997000,0.0324,0.013523,0.002678,0.000431,0.022565
34998000,0.0324,0.013523,0.002678,0.000431,0.017629
34999000,0.0324,0.013523,0.002678,0.000431,0.017159
