Cycle,Area(mm^2),PeakDynamic(W),SubthresholdLeakage(W),GateLeakage(W),RunTimeDynamic(W)
77000000,0.0324,0.013523,0.002678,0.000431,0.004349
77001000,0.0324,0.013523,0.002678,0.000431,0.001880
77002000,0.0324,0.013523,0.002678,0.000431,0.001763
77003000,0.0324,0.013523,0.002678,0.000431,0.001528
77004000,0.0324,0.013523,0.002678,0.000431,0.001645
77005000,0.0324,0.013523,0.002678,0.000431,0.001763
77006000,0.0324,0.013523,0.002678,0.000431,0.001645
77007000,0.0324,0.013523,0.002678,0.000431,0.001645
77008000,0.0324,0.013523,0.002678,0.000431,0.001763
77009000,0.0324,0.013523,0.002678,0.000431,0.001410
77010000,0.0324,0.013523,0.002678,0.000431,0.001880
77011000,0.0324,0.013523,0.002678,0.000431,0.001645
77012000,0.0324,0.013523,0.002678,0.000431,0.001645
77013000,0.0324,0.013523,0.002678,0.000431,0.001645
77014000,0.0324,0.013523,0.002678,0.000431,0.001645
77015000,0.0324,0.013523,0.002678,0.000431,0.001880
77016000,0.0324,0.013523,0.002678,0.000431,0.001645
77017000,0.0324,0.013523,0.002678,0.000431,0.001645
77018000,0.0324,0.013523,0.002678,0.000431,0.001645
77019000,0.0324,0.013523,0.002678,0.000431,0.001645
77020000,0.0324,0.013523,0.002678,0.000431,0.001763
77021000,0.0324,0.013523,0.002678,0.000431,0.001645
77022000,0.0324,0.013523,0.002678,0.000431,0.001645
77023000,0.0324,0.013523,0.002678,0.000431,0.001645
77024000,0.0324,0.013523,0.002678,0.000431,0.001763
77025000,0.0324,0.013523,0.002678,0.000431,0.001645
77026000,0.0324,0.013523,0.002678,0.000431,0.001410
77027000,0.0324,0.013523,0.002678,0.000431,0.003526
77028000,0.0324,0.013523,0.002678,0.000431,0.000940
77029000,0.0324,0.013523,0.002678,0.000431,0.000823
77030000,0.0324,0.013523,0.002678,0.000431,0.000823
77031000,0.0324,0.013523,0.002678,0.000431,0.000823
77032000,0.0324,0.013523,0.002678,0.000431,0.000823
77033000,0.0324,0.013523,0.002678,0.000431,0.000823
77034000,0.0324,0.013523,0.002678,0.000431,0.000940
77035000,0.0324,0.013523,0.002678,0.000431,0.000823
77036000,0.0324,0.013523,0.002678,0.000431,0.000823
77037000,0.0324,0.013523,0.002678,0.000431,0.000705
77038000,0.0324,0.013523,0.002678,0.000431,0.000940
77039000,0.0324,0.013523,0.002678,0.000431,0.000940
77040000,0.0324,0.013523,0.002678,0.000431,0.000705
77041000,0.0324,0.013523,0.002678,0.000431,0.000940
77042000,0.0324,0.013523,0.002678,0.000431,0.000705
77043000,0.0324,0.013523,0.002678,0.000431,0.000940
77044000,0.0324,0.013523,0.002678,0.000431,0.000823
77045000,0.0324,0.013523,0.002678,0.000431,0.000823
77046000,0.0324,0.013523,0.002678,0.000431,0.000940
77047000,0.0324,0.013523,0.002678,0.000431,0.000705
77048000,0.0324,0.013523,0.002678,0.000431,0.000940
77049000,0.0324,0.013523,0.002678,0.000431,0.000823
77050000,0.0324,0.013523,0.002678,0.000431,0.000823
77051000,0.0324,0.013523,0.002678,0.000431,0.000823
77052000,0.0324,0.013523,0.002678,0.000431,0.000823
77053000,0.0324,0.013523,0.002678,0.000431,0.000823
77054000,0.0324,0.013523,0.002678,0.000431,0.000823
77055000,0.0324,0.013523,0.002678,0.000431,0.000940
77056000,0.0324,0.013523,0.002678,0.000431,0.000705
77057000,0.0324,0.013523,0.002678,0.000431,0.000823
77058000,0.0324,0.013523,0.002678,0.000431,0.000940
77059000,0.0324,0.013523,0.002678,0.000431,0.000823
77060000,0.0324,0.013523,0.002678,0.000431,0.000823
77061000,0.0324,0.013523,0.002678,0.000431,0.000823
77062000,0.0324,0.013523,0.002678,0.000431,0.000705
77063000,0.0324,0.013523,0.002678,0.000431,0.000940
77064000,0.0324,0.013523,0.002678,0.000431,0.000940
77065000,0.0324,0.013523,0.002678,0.000431,0.000705
77066000,0.0324,0.013523,0.002678,0.000431,0.000940
77067000,0.0324,0.013523,0.002678,0.000431,0.000705
77068000,0.0324,0.013523,0.002678,0.000431,0.000940
77069000,0.0324,0.013523,0.002678,0.000431,0.000940
77070000,0.0324,0.013523,0.002678,0.000431,0.000705
77071000,0.0324,0.013523,0.002678,0.000431,0.000940
77072000,0.0324,0.013523,0.002678,0.000431,0.000705
77073000,0.0324,0.013523,0.002678,0.000431,0.187928
77074000,0.0324,0.013523,0.002678,0.000431,0.417578
77075000,0.0324,0.013523,0.002678,0.000431,0.527584
77076000,0.0324,0.013523,0.002678,0.000431,0.133159
77077000,0.0324,0.013523,0.002678,0.000431,0.131632
77078000,0.0324,0.013523,0.002678,0.000431,0.570482
77079000,0.0324,0.013523,0.002678,0.000431,0.263968
77080000,0.0324,0.013523,0.002678,0.000431,0.251745
77081000,0.0324,0.013523,0.002678,0.000431,0.261148
77082000,0.0324,0.013523,0.002678,0.000431,0.138448
77083000,0.0324,0.013523,0.002678,0.000431,0.139741
77084000,0.0324,0.013523,0.002678,0.000431,0.149143
77085000,0.0324,0.013523,0.002678,0.000431,0.208613
77086000,0.0324,0.013523,0.002678,0.000431,0.363750
77087000,0.0324,0.013523,0.002678,0.000431,0.032203
77088000,0.0324,0.013523,0.002678,0.000431,0.021743
77089000,0.0324,0.013523,0.002678,0.000431,0.014691
77090000,0.0324,0.013523,0.002678,0.000431,0.015749
77091000,0.0324,0.013523,0.002678,0.000431,0.011283
77092000,0.0324,0.013523,0.002678,0.000431,0.013163
77093000,0.0324,0.013523,0.002678,0.000431,0.011753
77094000,0.0324,0.013523,0.002678,0.000431,0.007052
77095000,0.0324,0.013523,0.002678,0.000431,0.007639
77096000,0.0324,0.013523,0.002678,0.000431,0.008932
77097000,0.0324,0.013523,0.002678,0.000431,0.004584
77098000,0.0324,0.013523,0.002678,0.000431,0.005171
77099000,0.0324,0.013523,0.002678,0.000431,0.004936
77100000,0.0324,0.013523,0.002678,0.000431,0.005054
77101000,0.0324,0.013523,0.002678,0.000431,0.004936
77102000,0.0324,0.013523,0.002678,0.000431,0.004819
77103000,0.0324,0.013523,0.002678,0.000431,0.005994
77104000,0.0324,0.013523,0.002678,0.000431,0.005054
77105000,0.0324,0.013523,0.002678,0.000431,0.003526
77106000,0.0324,0.013523,0.002678,0.000431,0.003173
77107000,0.0324,0.013523,0.002678,0.000431,0.003526
77108000,0.0324,0.013523,0.002678,0.000431,0.003408
77109000,0.0324,0.013523,0.002678,0.000431,0.003408
77110000,0.0324,0.013523,0.002678,0.000431,0.003526
77111000,0.0324,0.013523,0.002678,0.000431,0.003173
77112000,0.0324,0.013523,0.002678,0.000431,0.005406
77113000,0.0324,0.013523,0.002678,0.000431,0.002468
77114000,0.0324,0.013523,0.002678,0.000431,0.002586
77115000,0.0324,0.013523,0.002678,0.000431,0.002351
77116000,0.0324,0.013523,0.002678,0.000431,0.002703
77117000,0.0324,0.013523,0.002678,0.000431,0.002351
77118000,0.0324,0.013523,0.002678,0.000431,0.002586
77119000,0.0324,0.013523,0.002678,0.000431,0.002821
77120000,0.0324,0.013523,0.002678,0.000431,0.002468
77121000,0.0324,0.013523,0.002678,0.000431,0.002586
77122000,0.0324,0.013523,0.002678,0.000431,0.002233
77123000,0.0324,0.013523,0.002678,0.000431,0.002821
77124000,0.0324,0.013523,0.002678,0.000431,0.002703
77125000,0.0324,0.013523,0.002678,0.000431,0.002233
77126000,0.0324,0.013523,0.002678,0.000431,0.002821
77127000,0.0324,0.013523,0.002678,0.000431,0.002351
77128000,0.0324,0.013523,0.002678,0.000431,0.002821
77129000,0.0324,0.013523,0.002678,0.000431,0.002233
77130000,0.0324,0.013523,0.002678,0.000431,0.002703
77131000,0.0324,0.013523,0.002678,0.000431,0.002703
77132000,0.0324,0.013523,0.002678,0.000431,0.002351
77133000,0.0324,0.013523,0.002678,0.000431,0.002586
77134000,0.0324,0.013523,0.002678,0.000431,0.002586
77135000,0.0324,0.013523,0.002678,0.000431,0.002703
77136000,0.0324,0.013523,0.002678,0.000431,0.002351
77137000,0.0324,0.013523,0.002678,0.000431,0.002586
77138000,0.0324,0.013523,0.002678,0.000431,0.002586
77139000,0.0324,0.013523,0.002678,0.000431,0.002468
77140000,0.0324,0.013523,0.002678,0.000431,0.002586
77141000,0.0324,0.013523,0.002678,0.000431,0.002468
77142000,0.0324,0.013523,0.002678,0.000431,0.002821
77143000,0.0324,0.013523,0.002678,0.000431,0.002468
77144000,0.0324,0.013523,0.002678,0.000431,0.002468
77145000,0.0324,0.013523,0.002678,0.000431,0.002351
77146000,0.0324,0.013523,0.002678,0.000431,0.002821
77147000,0.0324,0.013523,0.002678,0.000431,0.004231
77148000,0.0324,0.013523,0.002678,0.000431,0.001528
77149000,0.0324,0.013523,0.002678,0.000431,0.001880
77150000,0.0324,0.013523,0.002678,0.000431,0.001410
77151000,0.0324,0.013523,0.002678,0.000431,0.001880
77152000,0.0324,0.013523,0.002678,0.000431,0.001645
77153000,0.0324,0.013523,0.002678,0.000431,0.001645
77154000,0.0324,0.013523,0.002678,0.000431,0.001763
77155000,0.0324,0.013523,0.002678,0.000431,0.001528
77156000,0.0324,0.013523,0.002678,0.000431,0.001763
77157000,0.0324,0.013523,0.002678,0.000431,0.001645
77158000,0.0324,0.013523,0.002678,0.000431,0.001763
77159000,0.0324,0.013523,0.002678,0.000431,0.001528
77160000,0.0324,0.013523,0.002678,0.000431,0.001645
77161000,0.0324,0.013523,0.002678,0.000431,0.001763
77162000,0.0324,0.013523,0.002678,0.000431,0.001645
77163000,0.0324,0.013523,0.002678,0.000431,0.001763
77164000,0.0324,0.013523,0.002678,0.000431,0.001528
77165000,0.0324,0.013523,0.002678,0.000431,0.001645
77166000,0.0324,0.013523,0.002678,0.000431,0.001763
77167000,0.0324,0.013523,0.002678,0.000431,0.001763
77168000,0.0324,0.013523,0.002678,0.000431,0.001528
77169000,0.0324,0.013523,0.002678,0.000431,0.001763
77170000,0.0324,0.013523,0.002678,0.000431,0.001410
77171000,0.0324,0.013523,0.002678,0.000431,0.001880
77172000,0.0324,0.013523,0.002678,0.000431,0.001880
77173000,0.0324,0.013523,0.002678,0.000431,0.001410
77174000,0.0324,0.013523,0.002678,0.000431,0.001880
77175000,0.0324,0.013523,0.002678,0.000431,0.001410
77176000,0.0324,0.013523,0.002678,0.000431,0.001880
77177000,0.0324,0.013523,0.002678,0.000431,0.001763
77178000,0.0324,0.013523,0.002678,0.000431,0.001528
77179000,0.0324,0.013523,0.002678,0.000431,0.001763
77180000,0.0324,0.013523,0.002678,0.000431,0.001528
77181000,0.0324,0.013523,0.002678,0.000431,0.001880
77182000,0.0324,0.013523,0.002678,0.000431,0.001528
77183000,0.0324,0.013523,0.002678,0.000431,0.001763
77184000,0.0324,0.013523,0.002678,0.000431,0.001645
77185000,0.0324,0.013523,0.002678,0.000431,0.001645
77186000,0.0324,0.013523,0.002678,0.000431,0.001763
77187000,0.0324,0.013523,0.002678,0.000431,0.001528
77188000,0.0324,0.013523,0.002678,0.000431,0.001763
77189000,0.0324,0.013523,0.002678,0.000431,0.001645
77190000,0.0324,0.013523,0.002678,0.000431,0.001763
77191000,0.0324,0.013523,0.002678,0.000431,0.001528
77192000,0.0324,0.013523,0.002678,0.000431,0.001763
77193000,0.0324,0.013523,0.002678,0.000431,0.001645
77194000,0.0324,0.013523,0.002678,0.000431,0.002938
77195000,0.0324,0.013523,0.002678,0.000431,0.002586
77196000,0.0324,0.013523,0.002678,0.000431,0.000705
77197000,0.0324,0.013523,0.002678,0.000431,0.000940
77198000,0.0324,0.013523,0.002678,0.000431,0.000705
77199000,0.0324,0.013523,0.002678,0.000431,0.000940
77200000,0.0324,0.013523,0.002678,0.000431,0.000940
77201000,0.0324,0.013523,0.002678,0.000431,0.000705
77202000,0.0324,0.013523,0.002678,0.000431,0.000940
77203000,0.0324,0.013523,0.002678,0.000431,0.000705
77204000,0.0324,0.013523,0.002678,0.000431,0.000940
77205000,0.0324,0.013523,0.002678,0.000431,0.000823
77206000,0.0324,0.013523,0.002678,0.000431,0.000823
77207000,0.0324,0.013523,0.002678,0.000431,0.000823
77208000,0.0324,0.013523,0.002678,0.000431,0.000823
77209000,0.0324,0.013523,0.002678,0.000431,0.000940
77210000,0.0324,0.013523,0.002678,0.000431,0.000705
77211000,0.0324,0.013523,0.002678,0.000431,0.000940
77212000,0.0324,0.013523,0.002678,0.000431,0.000823
77213000,0.0324,0.013523,0.002678,0.000431,0.000823
77214000,0.0324,0.013523,0.002678,0.000431,0.000823
77215000,0.0324,0.013523,0.002678,0.000431,0.000823
77216000,0.0324,0.013523,0.002678,0.000431,0.000823
77217000,0.0324,0.013523,0.002678,0.000431,0.000823
77218000,0.0324,0.013523,0.002678,0.000431,0.000823
77219000,0.0324,0.013523,0.002678,0.000431,0.000823
77220000,0.0324,0.013523,0.002678,0.000431,0.000940
77221000,0.0324,0.013523,0.002678,0.000431,0.000823
77222000,0.0324,0.013523,0.002678,0.000431,0.000823
77223000,0.0324,0.013523,0.002678,0.000431,0.000705
77224000,0.0324,0.013523,0.002678,0.000431,0.000940
77225000,0.0324,0.013523,0.002678,0.000431,0.000940
77226000,0.0324,0.013523,0.002678,0.000431,0.000705
77227000,0.0324,0.013523,0.002678,0.000431,0.000940
77228000,0.0324,0.013523,0.002678,0.000431,0.000705
77229000,0.0324,0.013523,0.002678,0.000431,0.000940
77230000,0.0324,0.013523,0.002678,0.000431,0.000823
77231000,0.0324,0.013523,0.002678,0.000431,0.000823
77232000,0.0324,0.013523,0.002678,0.000431,0.000940
77233000,0.0324,0.013523,0.002678,0.000431,0.000705
77234000,0.0324,0.013523,0.002678,0.000431,0.000940
77235000,0.0324,0.013523,0.002678,0.000431,0.000823
77236000,0.0324,0.013523,0.002678,0.000431,0.000823
77237000,0.0324,0.013523,0.002678,0.000431,0.000823
77238000,0.0324,0.013523,0.002678,0.000431,0.000823
77239000,0.0324,0.013523,0.002678,0.000431,0.000823
77240000,0.0324,0.013523,0.002678,0.000431,0.000823
77241000,0.0324,0.013523,0.002678,0.000431,0.000940
77242000,0.0324,0.013523,0.002678,0.000431,0.000705
77243000,0.0324,0.013523,0.002678,0.000431,0.000940
77244000,0.0324,0.013523,0.002678,0.000431,0.000823
77245000,0.0324,0.013523,0.002678,0.000431,0.000823
77246000,0.0324,0.013523,0.002678,0.000431,0.000705
77247000,0.0324,0.013523,0.002678,0.000431,0.000940
77248000,0.0324,0.013523,0.002678,0.000431,0.000940
77249000,0.0324,0.013523,0.002678,0.000431,0.000705
77250000,0.0324,0.013523,0.002678,0.000431,0.013868
77251000,0.0324,0.013523,0.002678,0.000431,0.425334
77252000,0.0324,0.013523,0.002678,0.000431,0.601157
77253000,0.0324,0.013523,0.002678,0.000431,0.133042
77254000,0.0324,0.013523,0.002678,0.000431,0.131632
77255000,0.0324,0.013523,0.002678,0.000431,0.158428
77256000,0.0324,0.013523,0.002678,0.000431,0.581765
77257000,0.0324,0.013523,0.002678,0.000431,0.250100
77258000,0.0324,0.013523,0.002678,0.000431,0.250688
77259000,0.0324,0.013523,0.002678,0.000431,0.255389
77260000,0.0324,0.013523,0.002678,0.000431,0.142562
77261000,0.0324,0.013523,0.002678,0.000431,0.147968
77262000,0.0324,0.013523,0.002678,0.000431,0.105893
77263000,0.0324,0.013523,0.002678,0.000431,0.408881
77264000,0.0324,0.013523,0.002678,0.000431,0.183461
77265000,0.0324,0.013523,0.002678,0.000431,0.055473
77266000,0.0324,0.013523,0.002678,0.000431,0.045248
77267000,0.0324,0.013523,0.002678,0.000431,0.035141
77268000,0.0324,0.013523,0.002678,0.000431,0.031615
77269000,0.0324,0.013523,0.002678,0.000431,0.029382
77270000,0.0324,0.013523,0.002678,0.000431,0.024798
77271000,0.0324,0.013523,0.002678,0.000431,0.021155
77272000,0.0324,0.013523,0.002678,0.000431,0.027384
77273000,0.0324,0.013523,0.002678,0.000431,0.018687
77274000,0.0324,0.013523,0.002678,0.000431,0.015866
77275000,0.0324,0.013523,0.002678,0.000431,0.014691
77276000,0.0324,0.013523,0.002678,0.000431,0.011753
77277000,0.0324,0.013523,0.002678,0.000431,0.012458
77278000,0.0324,0.013523,0.002678,0.000431,0.011870
77279000,0.0324,0.013523,0.002678,0.000431,0.012458
77280000,0.0324,0.013523,0.002678,0.000431,0.013751
77281000,0.0324,0.013523,0.002678,0.000431,0.011048
77282000,0.0324,0.013523,0.002678,0.000431,0.012223
77283000,0.0324,0.013523,0.002678,0.000431,0.012223
77284000,0.0324,0.013523,0.002678,0.000431,0.008462
77285000,0.0324,0.013523,0.002678,0.000431,0.009402
77286000,0.0324,0.013523,0.002678,0.000431,0.008815
77287000,0.0324,0.013523,0.002678,0.000431,0.008580
77288000,0.0324,0.013523,0.002678,0.000431,0.009167
77289000,0.0324,0.013523,0.002678,0.000431,0.007874
77290000,0.0324,0.013523,0.002678,0.000431,0.007992
77291000,0.0324,0.013523,0.002678,0.000431,0.008462
77292000,0.0324,0.013523,0.002678,0.000431,0.008697
77293000,0.0324,0.013523,0.002678,0.000431,0.010930
77294000,0.0324,0.013523,0.002678,0.000431,0.007052
77295000,0.0324,0.013523,0.002678,0.000431,0.005289
77296000,0.0324,0.013523,0.002678,0.000431,0.005406
77297000,0.0324,0.013523,0.002678,0.000431,0.005876
77298000,0.0324,0.013523,0.002678,0.000431,0.005759
77299000,0.0324,0.013523,0.002678,0.000431,0.004936
77300000,0.0324,0.013523,0.002678,0.000431,0.005994
77301000,0.0324,0.013523,0.002678,0.000431,0.005759
77302000,0.0324,0.013523,0.002678,0.000431,0.004936
77303000,0.0324,0.013523,0.002678,0.000431,0.005759
77304000,0.0324,0.013523,0.002678,0.000431,0.005641
77305000,0.0324,0.013523,0.002678,0.000431,0.005876
77306000,0.0324,0.013523,0.002678,0.000431,0.005289
77307000,0.0324,0.013523,0.002678,0.000431,0.005876
77308000,0.0324,0.013523,0.002678,0.000431,0.005289
77309000,0.0324,0.013523,0.002678,0.000431,0.005524
77310000,0.0324,0.013523,0.002678,0.000431,0.005054
77311000,0.0324,0.013523,0.002678,0.000431,0.005876
77312000,0.0324,0.013523,0.002678,0.000431,0.005171
77313000,0.0324,0.013523,0.002678,0.000431,0.005054
77314000,0.0324,0.013523,0.002678,0.000431,0.004466
77315000,0.0324,0.013523,0.002678,0.000431,0.005171
77316000,0.0324,0.013523,0.002678,0.000431,0.005759
77317000,0.0324,0.013523,0.002678,0.000431,0.003761
77318000,0.0324,0.013523,0.002678,0.000431,0.003408
77319000,0.0324,0.013523,0.002678,0.000431,0.003173
77320000,0.0324,0.013523,0.002678,0.000431,0.003526
77321000,0.0324,0.013523,0.002678,0.000431,0.003408
77322000,0.0324,0.013523,0.002678,0.000431,0.003408
77323000,0.0324,0.013523,0.002678,0.000431,0.003173
77324000,0.0324,0.013523,0.002678,0.000431,0.003526
77325000,0.0324,0.013523,0.002678,0.000431,0.003643
77326000,0.0324,0.013523,0.002678,0.000431,0.004819
77327000,0.0324,0.013523,0.002678,0.000431,0.002586
77328000,0.0324,0.013523,0.002678,0.000431,0.002468
77329000,0.0324,0.013523,0.002678,0.000431,0.002703
77330000,0.0324,0.013523,0.002678,0.000431,0.002586
77331000,0.0324,0.013523,0.002678,0.000431,0.002351
77332000,0.0324,0.013523,0.002678,0.000431,0.002703
77333000,0.0324,0.013523,0.002678,0.000431,0.002468
77334000,0.0324,0.013523,0.002678,0.000431,0.002703
77335000,0.0324,0.013523,0.002678,0.000431,0.002468
77336000,0.0324,0.013523,0.002678,0.000431,0.002468
77337000,0.0324,0.013523,0.002678,0.000431,0.003526
77338000,0.0324,0.013523,0.002678,0.000431,0.003996
77339000,0.0324,0.013523,0.002678,0.000431,0.000940
77340000,0.0324,0.013523,0.002678,0.000431,0.000823
77341000,0.0324,0.013523,0.002678,0.000431,0.014103
77342000,0.0324,0.013523,0.002678,0.000431,0.509720
77343000,0.0324,0.013523,0.002678,0.000431,0.592812
77344000,0.0324,0.013523,0.002678,0.000431,0.133982
77345000,0.0324,0.013523,0.002678,0.000431,0.132102
77346000,0.0324,0.013523,0.002678,0.000431,0.463649
77347000,0.0324,0.013523,0.002678,0.000431,0.337188
77348000,0.0324,0.013523,0.002678,0.000431,0.264791
77349000,0.0324,0.013523,0.002678,0.000431,0.370214
77350000,0.0324,0.013523,0.002678,0.000431,0.136568
77351000,0.0324,0.013523,0.002678,0.000431,0.153727
77352000,0.0324,0.013523,0.002678,0.000431,0.102485
77353000,0.0324,0.013523,0.002678,0.000431,0.413934
77354000,0.0324,0.013523,0.002678,0.000431,0.148791
77355000,0.0324,0.013523,0.002678,0.000431,0.041370
77356000,0.0324,0.013523,0.002678,0.000431,0.035611
77357000,0.0324,0.013523,0.002678,0.000431,0.029500
77358000,0.0324,0.013523,0.002678,0.000431,0.028912
77359000,0.0324,0.013523,0.002678,0.000431,0.023036
77360000,0.0324,0.013523,0.002678,0.000431,0.022683
77361000,0.0324,0.013523,0.002678,0.000431,0.023741
77362000,0.0324,0.013523,0.002678,0.000431,0.023976
77363000,0.0324,0.013523,0.002678,0.000431,0.025269
77364000,0.0324,0.013523,0.002678,0.000431,0.021625
77365000,0.0324,0.013523,0.002678,0.000431,0.020097
77366000,0.0324,0.013523,0.002678,0.000431,0.017629
77367000,0.0324,0.013523,0.002678,0.000431,0.016571
77368000,0.0324,0.013523,0.002678,0.000431,0.016219
77369000,0.0324,0.013523,0.002678,0.000431,0.016689
77370000,0.0324,0.013523,0.002678,0.000431,0.013398
77371000,0.0324,0.013523,0.002678,0.000431,0.017159
77372000,0.0324,0.013523,0.002678,0.000431,0.013986
77373000,0.0324,0.013523,0.002678,0.000431,0.013633
77374000,0.0324,0.013523,0.002678,0.000431,0.013868
77375000,0.0324,0.013523,0.002678,0.000431,0.014221
77376000,0.0324,0.013523,0.002678,0.000431,0.010813
77377000,0.0324,0.013523,0.002678,0.000431,0.009755
77378000,0.0324,0.013523,0.002678,0.000431,0.010107
77379000,0.0324,0.013523,0.002678,0.000431,0.009402
77380000,0.0324,0.013523,0.002678,0.000431,0.010107
77381000,0.0324,0.013523,0.002678,0.000431,0.010107
77382000,0.0324,0.013523,0.002678,0.000431,0.010107
77383000,0.0324,0.013523,0.002678,0.000431,0.011518
77384000,0.0324,0.013523,0.002678,0.000431,0.009990
77385000,0.0324,0.013523,0.002678,0.000431,0.008580
77386000,0.0324,0.013523,0.002678,0.000431,0.008109
77387000,0.0324,0.013523,0.002678,0.000431,0.008109
77388000,0.0324,0.013523,0.002678,0.000431,0.007992
77389000,0.0324,0.013523,0.002678,0.000431,0.008227
77390000,0.0324,0.013523,0.002678,0.000431,0.008227
77391000,0.0324,0.013523,0.002678,0.000431,0.008109
77392000,0.0324,0.013523,0.002678,0.000431,0.008462
77393000,0.0324,0.013523,0.002678,0.000431,0.007992
77394000,0.0324,0.013523,0.002678,0.000431,0.008109
77395000,0.0324,0.013523,0.002678,0.000431,0.008697
77396000,0.0324,0.013523,0.002678,0.000431,0.007992
77397000,0.0324,0.013523,0.002678,0.000431,0.008109
77398000,0.0324,0.013523,0.002678,0.000431,0.007992
77399000,0.0324,0.013523,0.002678,0.000431,0.008109
77400000,0.0324,0.013523,0.002678,0.000431,0.008932
77401000,0.0324,0.013523,0.002678,0.000431,0.007874
77402000,0.0324,0.013523,0.002678,0.000431,0.008227
77403000,0.0324,0.013523,0.002678,0.000431,0.007992
77404000,0.0324,0.013523,0.002678,0.000431,0.008462
77405000,0.0324,0.013523,0.002678,0.000431,0.008109
77406000,0.0324,0.013523,0.002678,0.000431,0.007992
77407000,0.0324,0.013523,0.002678,0.000431,0.008345
77408000,0.0324,0.013523,0.002678,0.000431,0.007992
77409000,0.0324,0.013523,0.002678,0.000431,0.008227
77410000,0.0324,0.013523,0.002678,0.000431,0.008580
77411000,0.0324,0.013523,0.002678,0.000431,0.008462
77412000,0.0324,0.013523,0.002678,0.000431,0.007874
77413000,0.0324,0.013523,0.002678,0.000431,0.006699
77414000,0.0324,0.013523,0.002678,0.000431,0.006464
77415000,0.0324,0.013523,0.002678,0.000431,0.006817
77416000,0.0324,0.013523,0.002678,0.000431,0.006934
77417000,0.0324,0.013523,0.002678,0.000431,0.006111
77418000,0.0324,0.013523,0.002678,0.000431,0.004701
77419000,0.0324,0.013523,0.002678,0.000431,0.004936
77420000,0.0324,0.013523,0.002678,0.000431,0.007169
77421000,0.0324,0.013523,0.002678,0.000431,0.003761
77422000,0.0324,0.013523,0.002678,0.000431,0.004349
77423000,0.0324,0.013523,0.002678,0.000431,0.003996
77424000,0.0324,0.013523,0.002678,0.000431,0.004349
77425000,0.0324,0.013523,0.002678,0.000431,0.003996
77426000,0.0324,0.013523,0.002678,0.000431,0.003996
77427000,0.0324,0.013523,0.002678,0.000431,0.004231
77428000,0.0324,0.013523,0.002678,0.000431,0.004231
77429000,0.0324,0.013523,0.002678,0.000431,0.003761
77430000,0.0324,0.013523,0.002678,0.000431,0.004349
77431000,0.0324,0.013523,0.002678,0.000431,0.003996
77432000,0.0324,0.013523,0.002678,0.000431,0.003996
77433000,0.0324,0.013523,0.002678,0.000431,0.004584
77434000,0.0324,0.013523,0.002678,0.000431,0.003643
77435000,0.0324,0.013523,0.002678,0.000431,0.004584
77436000,0.0324,0.013523,0.002678,0.000431,0.003761
77437000,0.0324,0.013523,0.002678,0.000431,0.004231
77438000,0.0324,0.013523,0.002678,0.000431,0.004349
77439000,0.0324,0.013523,0.002678,0.000431,0.003996
77440000,0.0324,0.013523,0.002678,0.000431,0.004113
77441000,0.0324,0.013523,0.002678,0.000431,0.004113
77442000,0.0324,0.013523,0.002678,0.000431,0.004231
77443000,0.0324,0.013523,0.002678,0.000431,0.004113
77444000,0.0324,0.013523,0.002678,0.000431,0.004113
77445000,0.0324,0.013523,0.002678,0.000431,0.004113
77446000,0.0324,0.013523,0.002678,0.000431,0.004231
77447000,0.0324,0.013523,0.002678,0.000431,0.003996
77448000,0.0324,0.013523,0.002678,0.000431,0.004349
77449000,0.0324,0.013523,0.002678,0.000431,0.003878
77450000,0.0324,0.013523,0.002678,0.000431,0.004231
77451000,0.0324,0.013523,0.002678,0.000431,0.003878
77452000,0.0324,0.013523,0.002678,0.000431,0.004113
77453000,0.0324,0.013523,0.002678,0.000431,0.004584
77454000,0.0324,0.013523,0.002678,0.000431,0.003643
77455000,0.0324,0.013523,0.002678,0.000431,0.007522
77456000,0.0324,0.013523,0.002678,0.000431,0.003173
77457000,0.0324,0.013523,0.002678,0.000431,0.003408
77458000,0.0324,0.013523,0.002678,0.000431,0.003408
77459000,0.0324,0.013523,0.002678,0.000431,0.002938
77460000,0.0324,0.013523,0.002678,0.000431,0.003408
77461000,0.0324,0.013523,0.002678,0.000431,0.003408
77462000,0.0324,0.013523,0.002678,0.000431,0.003408
77463000,0.0324,0.013523,0.002678,0.000431,0.002938
77464000,0.0324,0.013523,0.002678,0.000431,0.004466
77465000,0.0324,0.013523,0.002678,0.000431,0.003643
77466000,0.0324,0.013523,0.002678,0.000431,0.002586
77467000,0.0324,0.013523,0.002678,0.000431,0.002116
77468000,0.0324,0.013523,0.002678,0.000431,0.002586
77469000,0.0324,0.013523,0.002678,0.000431,0.002233
77470000,0.0324,0.013523,0.002678,0.000431,0.002703
77471000,0.0324,0.013523,0.002678,0.000431,0.002586
77472000,0.0324,0.013523,0.002678,0.000431,0.002116
77473000,0.0324,0.013523,0.002678,0.000431,0.002821
77474000,0.0324,0.013523,0.002678,0.000431,0.002116
77475000,0.0324,0.013523,0.002678,0.000431,0.002703
77476000,0.0324,0.013523,0.002678,0.000431,0.002468
77477000,0.0324,0.013523,0.002678,0.000431,0.003643
77478000,0.0324,0.013523,0.002678,0.000431,0.001880
77479000,0.0324,0.013523,0.002678,0.000431,0.001293
77480000,0.0324,0.013523,0.002678,0.000431,0.001763
77481000,0.0324,0.013523,0.002678,0.000431,0.001410
77482000,0.0324,0.013523,0.002678,0.000431,0.001645
77483000,0.0324,0.013523,0.002678,0.000431,0.001645
77484000,0.0324,0.013523,0.002678,0.000431,0.001528
77485000,0.0324,0.013523,0.002678,0.000431,0.001528
77486000,0.0324,0.013523,0.002678,0.000431,0.001645
77487000,0.0324,0.013523,0.002678,0.000431,0.001410
77488000,0.0324,0.013523,0.002678,0.000431,0.001645
77489000,0.0324,0.013523,0.002678,0.000431,0.001410
77490000,0.0324,0.013523,0.002678,0.000431,0.001645
77491000,0.0324,0.013523,0.002678,0.000431,0.001880
77492000,0.0324,0.013523,0.002678,0.000431,0.001175
77493000,0.0324,0.013523,0.002678,0.000431,0.001880
77494000,0.0324,0.013523,0.002678,0.000431,0.001410
77495000,0.0324,0.013523,0.002678,0.000431,0.001645
77496000,0.0324,0.013523,0.002678,0.000431,0.001645
77497000,0.0324,0.013523,0.002678,0.000431,0.001410
77498000,0.0324,0.013523,0.002678,0.000431,0.001880
77499000,0.0324,0.013523,0.002678,0.000431,0.001410
77500000,0.0324,0.013523,0.002678,0.000431,0.001645
77501000,0.0324,0.013523,0.002678,0.000431,0.001645
77502000,0.0324,0.013523,0.002678,0.000431,0.001410
77503000,0.0324,0.013523,0.002678,0.000431,0.001645
77504000,0.0324,0.013523,0.002678,0.000431,0.001645
77505000,0.0324,0.013523,0.002678,0.000431,0.001410
77506000,0.0324,0.013523,0.002678,0.000431,0.001645
77507000,0.0324,0.013523,0.002678,0.000431,0.001410
77508000,0.0324,0.013523,0.002678,0.000431,0.001645
77509000,0.0324,0.013523,0.002678,0.000431,0.001880
77510000,0.0324,0.013523,0.002678,0.000431,0.001175
77511000,0.0324,0.013523,0.002678,0.000431,0.001880
77512000,0.0324,0.013523,0.002678,0.000431,0.001293
77513000,0.0324,0.013523,0.002678,0.000431,0.001763
77514000,0.0324,0.013523,0.002678,0.000431,0.001645
77515000,0.0324,0.013523,0.002678,0.000431,0.001410
77516000,0.0324,0.013523,0.002678,0.000431,0.001645
77517000,0.0324,0.013523,0.002678,0.000431,0.001528
77518000,0.0324,0.013523,0.002678,0.000431,0.001763
77519000,0.0324,0.013523,0.002678,0.000431,0.001410
77520000,0.0324,0.013523,0.002678,0.000431,0.001645
77521000,0.0324,0.013523,0.002678,0.000431,0.001528
77522000,0.0324,0.013523,0.002678,0.000431,0.001528
77523000,0.0324,0.013523,0.002678,0.000431,0.001645
77524000,0.0324,0.013523,0.002678,0.000431,0.001645
77525000,0.0324,0.013523,0.002678,0.000431,0.001410
77526000,0.0324,0.013523,0.002678,0.000431,0.001645
77527000,0.0324,0.013523,0.002678,0.000431,0.001645
77528000,0.0324,0.013523,0.002678,0.000431,0.001410
77529000,0.0324,0.013523,0.002678,0.000431,0.001880
77530000,0.0324,0.013523,0.002678,0.000431,0.001175
77531000,0.0324,0.013523,0.002678,0.000431,0.001880
77532000,0.0324,0.013523,0.002678,0.000431,0.001410
77533000,0.0324,0.013523,0.002678,0.000431,0.001645
77534000,0.0324,0.013523,0.002678,0.000431,0.001645
77535000,0.0324,0.013523,0.002678,0.000431,0.001410
77536000,0.0324,0.013523,0.002678,0.000431,0.001880
77537000,0.0324,0.013523,0.002678,0.000431,0.001410
77538000,0.0324,0.013523,0.002678,0.000431,0.001645
77539000,0.0324,0.013523,0.002678,0.000431,0.001645
77540000,0.0324,0.013523,0.002678,0.000431,0.001410
77541000,0.0324,0.013523,0.002678,0.000431,0.001645
77542000,0.0324,0.013523,0.002678,0.000431,0.001645
77543000,0.0324,0.013523,0.002678,0.000431,0.001410
77544000,0.0324,0.013523,0.002678,0.000431,0.001645
77545000,0.0324,0.013523,0.002678,0.000431,0.001293
77546000,0.0324,0.013523,0.002678,0.000431,0.001763
77547000,0.0324,0.013523,0.002678,0.000431,0.001880
77548000,0.0324,0.013523,0.002678,0.000431,0.001175
77549000,0.0324,0.013523,0.002678,0.000431,0.001880
77550000,0.0324,0.013523,0.002678,0.000431,0.001293
77551000,0.0324,0.013523,0.002678,0.000431,0.001763
77552000,0.0324,0.013523,0.002678,0.000431,0.001645
77553000,0.0324,0.013523,0.002678,0.000431,0.001410
77554000,0.0324,0.013523,0.002678,0.000431,0.001645
77555000,0.0324,0.013523,0.002678,0.000431,0.001528
77556000,0.0324,0.013523,0.002678,0.000431,0.001763
77557000,0.0324,0.013523,0.002678,0.000431,0.001410
77558000,0.0324,0.013523,0.002678,0.000431,0.190866
77559000,0.0324,0.013523,0.002678,0.000431,0.556378
77560000,0.0324,0.013523,0.002678,0.000431,0.393249
77561000,0.0324,0.013523,0.002678,0.000431,0.131161
77562000,0.0324,0.013523,0.002678,0.000431,0.131632
77563000,0.0324,0.013523,0.002678,0.000431,0.554028
77564000,0.0324,0.013523,0.002678,0.000431,0.249277
77565000,0.0324,0.013523,0.002678,0.000431,0.221658
77566000,0.0324,0.013523,0.002678,0.000431,0.314623
77567000,0.0324,0.013523,0.002678,0.000431,0.134217
77568000,0.0324,0.013523,0.002678,0.000431,0.142797
77569000,0.0324,0.013523,0.002678,0.000431,0.162659
77570000,0.0324,0.013523,0.002678,0.000431,0.131984
77571000,0.0324,0.013523,0.002678,0.000431,0.447195
77572000,0.0324,0.013523,0.002678,0.000431,0.074395
77573000,0.0324,0.013523,0.002678,0.000431,0.056884
77574000,0.0324,0.013523,0.002678,0.000431,0.049479
77575000,0.0324,0.013523,0.002678,0.000431,0.047834
77576000,0.0324,0.013523,0.002678,0.000431,0.038079
77577000,0.0324,0.013523,0.002678,0.000431,0.035023
77578000,0.0324,0.013523,0.002678,0.000431,0.031850
77579000,0.0324,0.013523,0.002678,0.000431,0.032320
77580000,0.0324,0.013523,0.002678,0.000431,0.024916
77581000,0.0324,0.013523,0.002678,0.000431,0.021743
77582000,0.0324,0.013523,0.002678,0.000431,0.026326
77583000,0.0324,0.013523,0.002678,0.000431,0.017629
77584000,0.0324,0.013523,0.002678,0.000431,0.019040
77585000,0.0324,0.013523,0.002678,0.000431,0.016219
77586000,0.0324,0.013523,0.002678,0.000431,0.016454
77587000,0.0324,0.013523,0.002678,0.000431,0.015279
77588000,0.0324,0.013523,0.002678,0.000431,0.014573
77589000,0.0324,0.013523,0.002678,0.000431,0.015396
77590000,0.0324,0.013523,0.002678,0.000431,0.014456
77591000,0.0324,0.013523,0.002678,0.000431,0.017159
77592000,0.0324,0.013523,0.002678,0.000431,0.014691
77593000,0.0324,0.013523,0.002678,0.000431,0.015631
77594000,0.0324,0.013523,0.002678,0.000431,0.012928
77595000,0.0324,0.013523,0.002678,0.000431,0.014573
77596000,0.0324,0.013523,0.002678,0.000431,0.010930
77597000,0.0324,0.013523,0.002678,0.000431,0.012811
77598000,0.0324,0.013523,0.002678,0.000431,0.009872
77599000,0.0324,0.013523,0.002678,0.000431,0.010107
77600000,0.0324,0.013523,0.002678,0.000431,0.009872
77601000,0.0324,0.013523,0.002678,0.000431,0.010342
77602000,0.0324,0.013523,0.002678,0.000431,0.010342
77603000,0.0324,0.013523,0.002678,0.000431,0.010225
77604000,0.0324,0.013523,0.002678,0.000431,0.009990
77605000,0.0324,0.013523,0.002678,0.000431,0.009520
77606000,0.0324,0.013523,0.002678,0.000431,0.011870
77607000,0.0324,0.013523,0.002678,0.000431,0.009755
77608000,0.0324,0.013523,0.002678,0.000431,0.007169
77609000,0.0324,0.013523,0.002678,0.000431,0.006817
77610000,0.0324,0.013523,0.002678,0.000431,0.006934
77611000,0.0324,0.013523,0.002678,0.000431,0.006817
77612000,0.0324,0.013523,0.002678,0.000431,0.006817
77613000,0.0324,0.013523,0.002678,0.000431,0.006817
77614000,0.0324,0.013523,0.002678,0.000431,0.006699
77615000,0.0324,0.013523,0.002678,0.000431,0.009050
77616000,0.0324,0.013523,0.002678,0.000431,0.007757
77617000,0.0324,0.013523,0.002678,0.000431,0.005171
77618000,0.0324,0.013523,0.002678,0.000431,0.005289
77619000,0.0324,0.013523,0.002678,0.000431,0.005054
77620000,0.0324,0.013523,0.002678,0.000431,0.005171
77621000,0.0324,0.013523,0.002678,0.000431,0.005054
77622000,0.0324,0.013523,0.002678,0.000431,0.005171
77623000,0.0324,0.013523,0.002678,0.000431,0.005289
77624000,0.0324,0.013523,0.002678,0.000431,0.005054
77625000,0.0324,0.013523,0.002678,0.000431,0.006347
77626000,0.0324,0.013523,0.002678,0.000431,0.005406
77627000,0.0324,0.013523,0.002678,0.000431,0.004349
77628000,0.0324,0.013523,0.002678,0.000431,0.004231
77629000,0.0324,0.013523,0.002678,0.000431,0.004231
77630000,0.0324,0.013523,0.002678,0.000431,0.004466
77631000,0.0324,0.013523,0.002678,0.000431,0.004231
77632000,0.0324,0.013523,0.002678,0.000431,0.004349
77633000,0.0324,0.013523,0.002678,0.000431,0.004349
77634000,0.0324,0.013523,0.002678,0.000431,0.003996
77635000,0.0324,0.013523,0.002678,0.000431,0.004584
77636000,0.0324,0.013523,0.002678,0.000431,0.005289
77637000,0.0324,0.013523,0.002678,0.000431,0.004584
77638000,0.0324,0.013523,0.002678,0.000431,0.003408
77639000,0.0324,0.013523,0.002678,0.000431,0.003291
77640000,0.0324,0.013523,0.002678,0.000431,0.003761
77641000,0.0324,0.013523,0.002678,0.000431,0.003173
77642000,0.0324,0.013523,0.002678,0.000431,0.003408
77643000,0.0324,0.013523,0.002678,0.000431,0.003643
77644000,0.0324,0.013523,0.002678,0.000431,0.003291
77645000,0.0324,0.013523,0.002678,0.000431,0.004936
77646000,0.0324,0.013523,0.002678,0.000431,0.002821
77647000,0.0324,0.013523,0.002678,0.000431,0.002586
77648000,0.0324,0.013523,0.002678,0.000431,0.002586
77649000,0.0324,0.013523,0.002678,0.000431,0.003761
77650000,0.0324,0.013523,0.002678,0.000431,0.001763
77651000,0.0324,0.013523,0.002678,0.000431,0.001763
77652000,0.0324,0.013523,0.002678,0.000431,0.001645
77653000,0.0324,0.013523,0.002678,0.000431,0.001645
77654000,0.0324,0.013523,0.002678,0.000431,0.001763
77655000,0.0324,0.013523,0.002678,0.000431,0.001763
77656000,0.0324,0.013523,0.002678,0.000431,0.001763
77657000,0.0324,0.013523,0.002678,0.000431,0.001645
77658000,0.0324,0.013523,0.002678,0.000431,0.001645
77659000,0.0324,0.013523,0.002678,0.000431,0.001763
77660000,0.0324,0.013523,0.002678,0.000431,0.001645
77661000,0.0324,0.013523,0.002678,0.000431,0.001763
77662000,0.0324,0.013523,0.002678,0.000431,0.001763
77663000,0.0324,0.013523,0.002678,0.000431,0.001763
77664000,0.0324,0.013523,0.002678,0.000431,0.001528
77665000,0.0324,0.013523,0.002678,0.000431,0.001763
77666000,0.0324,0.013523,0.002678,0.000431,0.001880
77667000,0.0324,0.013523,0.002678,0.000431,0.001528
77668000,0.0324,0.013523,0.002678,0.000431,0.001880
77669000,0.0324,0.013523,0.002678,0.000431,0.001528
77670000,0.0324,0.013523,0.002678,0.000431,0.001880
77671000,0.0324,0.013523,0.002678,0.000431,0.001763
77672000,0.0324,0.013523,0.002678,0.000431,0.082740
77673000,0.0324,0.013523,0.002678,0.000431,0.521825
77674000,0.0324,0.013523,0.002678,0.000431,0.544391
77675000,0.0324,0.013523,0.002678,0.000431,0.133512
77676000,0.0324,0.013523,0.002678,0.000431,0.132102
77677000,0.0324,0.013523,0.002678,0.000431,0.568836
77678000,0.0324,0.013523,0.002678,0.000431,0.237172
77679000,0.0324,0.013523,0.002678,0.000431,0.278542
77680000,0.0324,0.013523,0.002678,0.000431,0.315563
77681000,0.0324,0.013523,0.002678,0.000431,0.143619
77682000,0.0324,0.013523,0.002678,0.000431,0.142914
77683000,0.0324,0.013523,0.002678,0.000431,0.103542
77684000,0.0324,0.013523,0.002678,0.000431,0.391016
77685000,0.0324,0.013523,0.002678,0.000431,0.234351
77686000,0.0324,0.013523,0.002678,0.000431,0.084385
77687000,0.0324,0.013523,0.002678,0.000431,0.070164
77688000,0.0324,0.013523,0.002678,0.000431,0.052770
77689000,0.0324,0.013523,0.002678,0.000431,0.048187
77690000,0.0324,0.013523,0.002678,0.000431,0.038549
77691000,0.0324,0.013523,0.002678,0.000431,0.037139
77692000,0.0324,0.013523,0.002678,0.000431,0.029265
77693000,0.0324,0.013523,0.002678,0.000431,0.035611
77694000,0.0324,0.013523,0.002678,0.000431,0.026679
77695000,0.0324,0.013523,0.002678,0.000431,0.027737
77696000,0.0324,0.013523,0.002678,0.000431,0.024328
77697000,0.0324,0.013523,0.002678,0.000431,0.022330
77698000,0.0324,0.013523,0.002678,0.000431,0.021743
77699000,0.0324,0.013523,0.002678,0.000431,0.018334
77700000,0.0324,0.013523,0.002678,0.000431,0.014221
77701000,0.0324,0.013523,0.002678,0.000431,0.014691
77702000,0.0324,0.013523,0.002678,0.000431,0.013046
77703000,0.0324,0.013523,0.002678,0.000431,0.012105
77704000,0.0324,0.013523,0.002678,0.000431,0.013986
77705000,0.0324,0.013523,0.002678,0.000431,0.014221
77706000,0.0324,0.013523,0.002678,0.000431,0.012811
77707000,0.0324,0.013523,0.002678,0.000431,0.010225
77708000,0.0324,0.013523,0.002678,0.000431,0.010342
77709000,0.0324,0.013523,0.002678,0.000431,0.013868
77710000,0.0324,0.013523,0.002678,0.000431,0.007639
77711000,0.0324,0.013523,0.002678,0.000431,0.008697
77712000,0.0324,0.013523,0.002678,0.000431,0.007992
77713000,0.0324,0.013523,0.002678,0.000431,0.009285
77714000,0.0324,0.013523,0.002678,0.000431,0.011283
77715000,0.0324,0.013523,0.002678,0.000431,0.008109
77716000,0.0324,0.013523,0.002678,0.000431,0.007639
77717000,0.0324,0.013523,0.002678,0.000431,0.003761
77718000,0.0324,0.013523,0.002678,0.000431,0.004349
77719000,0.0324,0.013523,0.002678,0.000431,0.004113
77720000,0.0324,0.013523,0.002678,0.000431,0.003996
77721000,0.0324,0.013523,0.002678,0.000431,0.004113
77722000,0.0324,0.013523,0.002678,0.000431,0.003878
77723000,0.0324,0.013523,0.002678,0.000431,0.004113
77724000,0.0324,0.013523,0.002678,0.000431,0.004113
77725000,0.0324,0.013523,0.002678,0.000431,0.004466
77726000,0.0324,0.013523,0.002678,0.000431,0.003526
77727000,0.0324,0.013523,0.002678,0.000431,0.004466
77728000,0.0324,0.013523,0.002678,0.000431,0.003643
77729000,0.0324,0.013523,0.002678,0.000431,0.004231
77730000,0.0324,0.013523,0.002678,0.000431,0.004466
77731000,0.0324,0.013523,0.002678,0.000431,0.003643
77732000,0.0324,0.013523,0.002678,0.000431,0.004584
77733000,0.0324,0.013523,0.002678,0.000431,0.003643
77734000,0.0324,0.013523,0.002678,0.000431,0.004466
77735000,0.0324,0.013523,0.002678,0.000431,0.003878
77736000,0.0324,0.013523,0.002678,0.000431,0.004113
77737000,0.0324,0.013523,0.002678,0.000431,0.004466
77738000,0.0324,0.013523,0.002678,0.000431,0.003878
77739000,0.0324,0.013523,0.002678,0.000431,0.004231
77740000,0.0324,0.013523,0.002678,0.000431,0.004113
77741000,0.0324,0.013523,0.002678,0.000431,0.003996
77742000,0.0324,0.013523,0.002678,0.000431,0.004113
77743000,0.0324,0.013523,0.002678,0.000431,0.005289
77744000,0.0324,0.013523,0.002678,0.000431,0.003056
77745000,0.0324,0.013523,0.002678,0.000431,0.003408
77746000,0.0324,0.013523,0.002678,0.000431,0.003173
77747000,0.0324,0.013523,0.002678,0.000431,0.003291
77748000,0.0324,0.013523,0.002678,0.000431,0.003643
77749000,0.0324,0.013523,0.002678,0.000431,0.002938
77750000,0.0324,0.013523,0.002678,0.000431,0.003643
77751000,0.0324,0.013523,0.002678,0.000431,0.002938
77752000,0.0324,0.013523,0.002678,0.000431,0.003408
77753000,0.0324,0.013523,0.002678,0.000431,0.003291
77754000,0.0324,0.013523,0.002678,0.000431,0.003173
77755000,0.0324,0.013523,0.002678,0.000431,0.003408
77756000,0.0324,0.013523,0.002678,0.000431,0.003173
77757000,0.0324,0.013523,0.002678,0.000431,0.003643
77758000,0.0324,0.013523,0.002678,0.000431,0.003056
77759000,0.0324,0.013523,0.002678,0.000431,0.003291
77760000,0.0324,0.013523,0.002678,0.000431,0.003408
77761000,0.0324,0.013523,0.002678,0.000431,0.003173
77762000,0.0324,0.013523,0.002678,0.000431,0.003408
77763000,0.0324,0.013523,0.002678,0.000431,0.003173
77764000,0.0324,0.013523,0.002678,0.000431,0.003291
77765000,0.0324,0.013523,0.002678,0.000431,0.003408
77766000,0.0324,0.013523,0.002678,0.000431,0.003291
77767000,0.0324,0.013523,0.002678,0.000431,0.003056
77768000,0.0324,0.013523,0.002678,0.000431,0.003643
77769000,0.0324,0.013523,0.002678,0.000431,0.002821
77770000,0.0324,0.013523,0.002678,0.000431,0.003643
77771000,0.0324,0.013523,0.002678,0.000431,0.003056
77772000,0.0324,0.013523,0.002678,0.000431,0.003408
77773000,0.0324,0.013523,0.002678,0.000431,0.003408
77774000,0.0324,0.013523,0.002678,0.000431,0.003056
77775000,0.0324,0.013523,0.002678,0.000431,0.003643
77776000,0.0324,0.013523,0.002678,0.000431,0.003173
77777000,0.0324,0.013523,0.002678,0.000431,0.003173
77778000,0.0324,0.013523,0.002678,0.000431,0.003408
77779000,0.0324,0.013523,0.002678,0.000431,0.003056
77780000,0.0324,0.013523,0.002678,0.000431,0.005641
77781000,0.0324,0.013523,0.002678,0.000431,0.002468
77782000,0.0324,0.013523,0.002678,0.000431,0.002233
77783000,0.0324,0.013523,0.002678,0.000431,0.002586
77784000,0.0324,0.013523,0.002678,0.000431,0.002586
77785000,0.0324,0.013523,0.002678,0.000431,0.002233
77786000,0.0324,0.013523,0.002678,0.000431,0.002703
77787000,0.0324,0.013523,0.002678,0.000431,0.002351
77788000,0.0324,0.013523,0.002678,0.000431,0.002468
77789000,0.0324,0.013523,0.002678,0.000431,0.002233
77790000,0.0324,0.013523,0.002678,0.000431,0.002586
77791000,0.0324,0.013523,0.002678,0.000431,0.002821
77792000,0.0324,0.013523,0.002678,0.000431,0.001998
77793000,0.0324,0.013523,0.002678,0.000431,0.002703
77794000,0.0324,0.013523,0.002678,0.000431,0.002233
77795000,0.0324,0.013523,0.002678,0.000431,0.002703
77796000,0.0324,0.013523,0.002678,0.000431,0.002351
77797000,0.0324,0.013523,0.002678,0.000431,0.002351
77798000,0.0324,0.013523,0.002678,0.000431,0.002586
77799000,0.0324,0.013523,0.002678,0.000431,0.002468
77800000,0.0324,0.013523,0.002678,0.000431,0.002233
77801000,0.0324,0.013523,0.002678,0.000431,0.002586
77802000,0.0324,0.013523,0.002678,0.000431,0.002586
77803000,0.0324,0.013523,0.002678,0.000431,0.002233
77804000,0.0324,0.013523,0.002678,0.000431,0.002468
77805000,0.0324,0.013523,0.002678,0.000431,0.002351
77806000,0.0324,0.013523,0.002678,0.000431,0.002586
77807000,0.0324,0.013523,0.002678,0.000431,0.002468
77808000,0.0324,0.013523,0.002678,0.000431,0.002233
77809000,0.0324,0.013523,0.002678,0.000431,0.002586
77810000,0.0324,0.013523,0.002678,0.000431,0.002468
77811000,0.0324,0.013523,0.002678,0.000431,0.002351
77812000,0.0324,0.013523,0.002678,0.000431,0.002468
77813000,0.0324,0.013523,0.002678,0.000431,0.002351
77814000,0.0324,0.013523,0.002678,0.000431,0.002586
77815000,0.0324,0.013523,0.002678,0.000431,0.002586
77816000,0.0324,0.013523,0.002678,0.000431,0.002116
77817000,0.0324,0.013523,0.002678,0.000431,0.002821
77818000,0.0324,0.013523,0.002678,0.000431,0.002233
77819000,0.0324,0.013523,0.002678,0.000431,0.002468
77820000,0.0324,0.013523,0.002678,0.000431,0.002586
77821000,0.0324,0.013523,0.002678,0.000431,0.002351
77822000,0.0324,0.013523,0.002678,0.000431,0.002586
77823000,0.0324,0.013523,0.002678,0.000431,0.002233
77824000,0.0324,0.013523,0.002678,0.000431,0.002703
77825000,0.0324,0.013523,0.002678,0.000431,0.002351
77826000,0.0324,0.013523,0.002678,0.000431,0.002586
77827000,0.0324,0.013523,0.002678,0.000431,0.002351
77828000,0.0324,0.013523,0.002678,0.000431,0.004584
77829000,0.0324,0.013523,0.002678,0.000431,0.001645
77830000,0.0324,0.013523,0.002678,0.000431,0.001645
77831000,0.0324,0.013523,0.002678,0.000431,0.001410
77832000,0.0324,0.013523,0.002678,0.000431,0.001645
77833000,0.0324,0.013523,0.002678,0.000431,0.001410
77834000,0.0324,0.013523,0.002678,0.000431,0.001645
77835000,0.0324,0.013523,0.002678,0.000431,0.001880
77836000,0.0324,0.013523,0.002678,0.000431,0.001175
77837000,0.0324,0.013523,0.002678,0.000431,0.001880
77838000,0.0324,0.013523,0.002678,0.000431,0.001410
77839000,0.0324,0.013523,0.002678,0.000431,0.001645
77840000,0.0324,0.013523,0.002678,0.000431,0.001645
77841000,0.0324,0.013523,0.002678,0.000431,0.001410
77842000,0.0324,0.013523,0.002678,0.000431,0.001645
77843000,0.0324,0.013523,0.002678,0.000431,0.001645
77844000,0.0324,0.013523,0.002678,0.000431,0.001645
77845000,0.0324,0.013523,0.002678,0.000431,0.001410
77846000,0.0324,0.013523,0.002678,0.000431,0.001645
77847000,0.0324,0.013523,0.002678,0.000431,0.001645
77848000,0.0324,0.013523,0.002678,0.000431,0.001645
77849000,0.0324,0.013523,0.002678,0.000431,0.001410
77850000,0.0324,0.013523,0.002678,0.000431,0.001645
77851000,0.0324,0.013523,0.002678,0.000431,0.202266
77852000,0.0324,0.013523,0.002678,0.000431,0.491150
77853000,0.0324,0.013523,0.002678,0.000431,0.509367
77854000,0.0324,0.013523,0.002678,0.000431,0.133042
77855000,0.0324,0.013523,0.002678,0.000431,0.133512
77856000,0.0324,0.013523,0.002678,0.000431,0.556261
77857000,0.0324,0.013523,0.002678,0.000431,0.250570
77858000,0.0324,0.013523,0.002678,0.000431,0.245164
77859000,0.0324,0.013523,0.002678,0.000431,0.320852
77860000,0.0324,0.013523,0.002678,0.000431,0.145382
77861000,0.0324,0.013523,0.002678,0.000431,0.150671
77862000,0.0324,0.013523,0.002678,0.000431,0.104483
77863000,0.0324,0.013523,0.002678,0.000431,0.436852
77864000,0.0324,0.013523,0.002678,0.000431,0.145735
77865000,0.0324,0.013523,0.002678,0.000431,0.056296
77866000,0.0324,0.013523,0.002678,0.000431,0.049244
77867000,0.0324,0.013523,0.002678,0.000431,0.042428
77868000,0.0324,0.013523,0.002678,0.000431,0.041252
77869000,0.0324,0.013523,0.002678,0.000431,0.033496
77870000,0.0324,0.013523,0.002678,0.000431,0.029265
77871000,0.0324,0.013523,0.002678,0.000431,0.025504
77872000,0.0324,0.013523,0.002678,0.000431,0.025386
77873000,0.0324,0.013523,0.002678,0.000431,0.024798
77874000,0.0324,0.013523,0.002678,0.000431,0.022800
77875000,0.0324,0.013523,0.002678,0.000431,0.021038
77876000,0.0324,0.013523,0.002678,0.000431,0.023153
77877000,0.0324,0.013523,0.002678,0.000431,0.017394
77878000,0.0324,0.013523,0.002678,0.000431,0.015984
77879000,0.0324,0.013523,0.002678,0.000431,0.014573
77880000,0.0324,0.013523,0.002678,0.000431,0.013281
77881000,0.0324,0.013523,0.002678,0.000431,0.011518
77882000,0.0324,0.013523,0.002678,0.000431,0.011283
77883000,0.0324,0.013523,0.002678,0.000431,0.010578
77884000,0.0324,0.013523,0.002678,0.000431,0.012693
77885000,0.0324,0.013523,0.002678,0.000431,0.008227
77886000,0.0324,0.013523,0.002678,0.000431,0.008462
77887000,0.0324,0.013523,0.002678,0.000431,0.008932
77888000,0.0324,0.013523,0.002678,0.000431,0.008109
77889000,0.0324,0.013523,0.002678,0.000431,0.008462
77890000,0.0324,0.013523,0.002678,0.000431,0.008227
77891000,0.0324,0.013523,0.002678,0.000431,0.008580
77892000,0.0324,0.013523,0.002678,0.000431,0.007992
77893000,0.0324,0.013523,0.002678,0.000431,0.008580
77894000,0.0324,0.013523,0.002678,0.000431,0.008815
77895000,0.0324,0.013523,0.002678,0.000431,0.008932
77896000,0.0324,0.013523,0.002678,0.000431,0.007287
77897000,0.0324,0.013523,0.002678,0.000431,0.008227
77898000,0.0324,0.013523,0.002678,0.000431,0.009872
77899000,0.0324,0.013523,0.002678,0.000431,0.006934
77900000,0.0324,0.013523,0.002678,0.000431,0.005641
77901000,0.0324,0.013523,0.002678,0.000431,0.005994
77902000,0.0324,0.013523,0.002678,0.000431,0.005994
77903000,0.0324,0.013523,0.002678,0.000431,0.006111
77904000,0.0324,0.013523,0.002678,0.000431,0.005524
77905000,0.0324,0.013523,0.002678,0.000431,0.006582
77906000,0.0324,0.013523,0.002678,0.000431,0.004231
77907000,0.0324,0.013523,0.002678,0.000431,0.004349
77908000,0.0324,0.013523,0.002678,0.000431,0.004231
77909000,0.0324,0.013523,0.002678,0.000431,0.004231
77910000,0.0324,0.013523,0.002678,0.000431,0.004466
77911000,0.0324,0.013523,0.002678,0.000431,0.003878
77912000,0.0324,0.013523,0.002678,0.000431,0.006582
77913000,0.0324,0.013523,0.002678,0.000431,0.003526
77914000,0.0324,0.013523,0.002678,0.000431,0.003173
77915000,0.0324,0.013523,0.002678,0.000431,0.003408
77916000,0.0324,0.013523,0.002678,0.000431,0.003643
77917000,0.0324,0.013523,0.002678,0.000431,0.003526
77918000,0.0324,0.013523,0.002678,0.000431,0.003173
77919000,0.0324,0.013523,0.002678,0.000431,0.003408
77920000,0.0324,0.013523,0.002678,0.000431,0.003643
77921000,0.0324,0.013523,0.002678,0.000431,0.003408
77922000,0.0324,0.013523,0.002678,0.000431,0.003408
77923000,0.0324,0.013523,0.002678,0.000431,0.003526
77924000,0.0324,0.013523,0.002678,0.000431,0.003408
77925000,0.0324,0.013523,0.002678,0.000431,0.003526
77926000,0.0324,0.013523,0.002678,0.000431,0.003526
77927000,0.0324,0.013523,0.002678,0.000431,0.003291
77928000,0.0324,0.013523,0.002678,0.000431,0.004701
77929000,0.0324,0.013523,0.002678,0.000431,0.002468
77930000,0.0324,0.013523,0.002678,0.000431,0.002468
77931000,0.0324,0.013523,0.002678,0.000431,0.002586
77932000,0.0324,0.013523,0.002678,0.000431,0.002703
77933000,0.0324,0.013523,0.002678,0.000431,0.002468
77934000,0.0324,0.013523,0.002678,0.000431,0.002468
77935000,0.0324,0.013523,0.002678,0.000431,0.002703
77936000,0.0324,0.013523,0.002678,0.000431,0.002586
77937000,0.0324,0.013523,0.002678,0.000431,0.002233
77938000,0.0324,0.013523,0.002678,0.000431,0.002821
77939000,0.0324,0.013523,0.002678,0.000431,0.002468
77940000,0.0324,0.013523,0.002678,0.000431,0.005054
77941000,0.0324,0.013523,0.002678,0.000431,0.001528
77942000,0.0324,0.013523,0.002678,0.000431,0.001880
77943000,0.0324,0.013523,0.002678,0.000431,0.001763
77944000,0.0324,0.013523,0.002678,0.000431,0.001645
77945000,0.0324,0.013523,0.002678,0.000431,0.001763
77946000,0.0324,0.013523,0.002678,0.000431,0.001880
77947000,0.0324,0.013523,0.002678,0.000431,0.001645
77948000,0.0324,0.013523,0.002678,0.000431,0.001763
77949000,0.0324,0.013523,0.002678,0.000431,0.001763
77950000,0.0324,0.013523,0.002678,0.000431,0.001880
77951000,0.0324,0.013523,0.002678,0.000431,0.001645
77952000,0.0324,0.013523,0.002678,0.000431,0.001645
77953000,0.0324,0.013523,0.002678,0.000431,0.003291
77954000,0.0324,0.013523,0.002678,0.000431,0.000823
77955000,0.0324,0.013523,0.002678,0.000431,0.000940
77956000,0.0324,0.013523,0.002678,0.000431,0.000823
77957000,0.0324,0.013523,0.002678,0.000431,0.000823
77958000,0.0324,0.013523,0.002678,0.000431,0.000940
77959000,0.0324,0.013523,0.002678,0.000431,0.000940
77960000,0.0324,0.013523,0.002678,0.000431,0.000823
77961000,0.0324,0.013523,0.002678,0.000431,0.000823
77962000,0.0324,0.013523,0.002678,0.000431,0.000940
77963000,0.0324,0.013523,0.002678,0.000431,0.000940
77964000,0.0324,0.013523,0.002678,0.000431,0.000705
77965000,0.0324,0.013523,0.002678,0.000431,0.000940
77966000,0.0324,0.013523,0.002678,0.000431,0.000940
77967000,0.0324,0.013523,0.002678,0.000431,0.000940
77968000,0.0324,0.013523,0.002678,0.000431,0.000705
77969000,0.0324,0.013523,0.002678,0.000431,0.000940
77970000,0.0324,0.013523,0.002678,0.000431,0.000940
77971000,0.0324,0.013523,0.002678,0.000431,0.000823
77972000,0.0324,0.013523,0.002678,0.000431,0.000823
77973000,0.0324,0.013523,0.002678,0.000431,0.000940
77974000,0.0324,0.013523,0.002678,0.000431,0.000940
77975000,0.0324,0.013523,0.002678,0.000431,0.000823
77976000,0.0324,0.013523,0.002678,0.000431,0.000823
77977000,0.0324,0.013523,0.002678,0.000431,0.194157
77978000,0.0324,0.013523,0.002678,0.000431,0.470113
77979000,0.0324,0.013523,0.002678,0.000431,0.494206
77980000,0.0324,0.013523,0.002678,0.000431,0.133042
77981000,0.0324,0.013523,0.002678,0.000431,0.132102
77982000,0.0324,0.013523,0.002678,0.000431,0.554263
77983000,0.0324,0.013523,0.002678,0.000431,0.253861
77984000,0.0324,0.013523,0.002678,0.000431,0.217780
77985000,0.0324,0.013523,0.002678,0.000431,0.331665
77986000,0.0324,0.013523,0.002678,0.000431,0.146205
77987000,0.0324,0.013523,0.002678,0.000431,0.142562
77988000,0.0324,0.013523,0.002678,0.000431,0.126695
77989000,0.0324,0.013523,0.002678,0.000431,0.281480
77990000,0.0324,0.013523,0.002678,0.000431,0.343300
77991000,0.0324,0.013523,0.002678,0.000431,0.096373
77992000,0.0324,0.013523,0.002678,0.000431,0.076041
77993000,0.0324,0.013523,0.002678,0.000431,0.071457
77994000,0.0324,0.013523,0.002678,0.000431,0.056178
77995000,0.0324,0.013523,0.002678,0.000431,0.047834
77996000,0.0324,0.013523,0.002678,0.000431,0.048892
77997000,0.0324,0.013523,0.002678,0.000431,0.040665
77998000,0.0324,0.013523,0.002678,0.000431,0.037609
77999000,0.0324,0.013523,0.002678,0.000431,0.032085
