Cycle,Area(mm^2),PeakDynamic(W),SubthresholdLeakage(W),GateLeakage(W),RunTimeDynamic(W)
140000000,0.0324,0.013523,0.002678,0.000431,0.000823
140001000,0.0324,0.013523,0.002678,0.000431,0.000940
140002000,0.0324,0.013523,0.002678,0.000431,0.000705
140003000,0.0324,0.013523,0.002678,0.000431,0.000940
140004000,0.0324,0.013523,0.002678,0.000431,0.000823
140005000,0.0324,0.013523,0.002678,0.000431,0.000823
140006000,0.0324,0.013523,0.002678,0.000431,0.000705
140007000,0.0324,0.013523,0.002678,0.000431,0.000940
140008000,0.0324,0.013523,0.002678,0.000431,0.000940
140009000,0.0324,0.013523,0.002678,0.000431,0.000705
140010000,0.0324,0.013523,0.002678,0.000431,0.000940
140011000,0.0324,0.013523,0.002678,0.000431,0.000705
140012000,0.0324,0.013523,0.002678,0.000431,0.000940
140013000,0.0324,0.013523,0.002678,0.000431,0.000823
140014000,0.0324,0.013523,0.002678,0.000431,0.000823
140015000,0.0324,0.013523,0.002678,0.000431,0.011635
140016000,0.0324,0.013523,0.002678,0.000431,0.668265
140017000,0.0324,0.013523,0.002678,0.000431,0.643232
140018000,0.0324,0.013523,0.002678,0.000431,0.153139
140019000,0.0324,0.013523,0.002678,0.000431,0.143502
140020000,0.0324,0.013523,0.002678,0.000431,0.575536
140021000,0.0324,0.013523,0.002678,0.000431,0.257034
140022000,0.0324,0.013523,0.002678,0.000431,0.329314
140023000,0.0324,0.013523,0.002678,0.000431,0.180758
140024000,0.0324,0.013523,0.002678,0.000431,0.188750
140025000,0.0324,0.013523,0.002678,0.000431,0.089439
140026000,0.0324,0.013523,0.002678,0.000431,0.559787
140027000,0.0324,0.013523,0.002678,0.000431,0.271138
140028000,0.0324,0.013523,0.002678,0.000431,0.216487
140029000,0.0324,0.013523,0.002678,0.000431,0.189455
140030000,0.0324,0.013523,0.002678,0.000431,0.154197
140031000,0.0324,0.013523,0.002678,0.000431,0.138918
140032000,0.0324,0.013523,0.002678,0.000431,0.126460
140033000,0.0324,0.013523,0.002678,0.000431,0.095198
140034000,0.0324,0.013523,0.002678,0.000431,0.080859
140035000,0.0324,0.013523,0.002678,0.000431,0.076393
140036000,0.0324,0.013523,0.002678,0.000431,0.066638
140037000,0.0324,0.013523,0.002678,0.000431,0.056884
140038000,0.0324,0.013523,0.002678,0.000431,0.049009
140039000,0.0324,0.013523,0.002678,0.000431,0.045601
140040000,0.0324,0.013523,0.002678,0.000431,0.040312
140041000,0.0324,0.013523,0.002678,0.000431,0.032085
140042000,0.0324,0.013523,0.002678,0.000431,0.041135
140043000,0.0324,0.013523,0.002678,0.000431,0.026796
140044000,0.0324,0.013523,0.002678,0.000431,0.024446
140045000,0.0324,0.013523,0.002678,0.000431,0.025269
140046000,0.0324,0.013523,0.002678,0.000431,0.029852
140047000,0.0324,0.013523,0.002678,0.000431,0.021038
140048000,0.0324,0.013523,0.002678,0.000431,0.019157
140049000,0.0324,0.013523,0.002678,0.000431,0.012928
140050000,0.0324,0.013523,0.002678,0.000431,0.011165
140051000,0.0324,0.013523,0.002678,0.000431,0.013281
140052000,0.0324,0.013523,0.002678,0.000431,0.008227
140053000,0.0324,0.013523,0.002678,0.000431,0.009285
140054000,0.0324,0.013523,0.002678,0.000431,0.007522
140055000,0.0324,0.013523,0.002678,0.000431,0.008109
140056000,0.0324,0.013523,0.002678,0.000431,0.008580
140057000,0.0324,0.013523,0.002678,0.000431,0.009167
140058000,0.0324,0.013523,0.002678,0.000431,0.008815
140059000,0.0324,0.013523,0.002678,0.000431,0.008462
140060000,0.0324,0.013523,0.002678,0.000431,0.009167
140061000,0.0324,0.013523,0.002678,0.000431,0.007639
140062000,0.0324,0.013523,0.002678,0.000431,0.007052
140063000,0.0324,0.013523,0.002678,0.000431,0.003996
140064000,0.0324,0.013523,0.002678,0.000431,0.004584
140065000,0.0324,0.013523,0.002678,0.000431,0.003878
140066000,0.0324,0.013523,0.002678,0.000431,0.004584
140067000,0.0324,0.013523,0.002678,0.000431,0.004113
140068000,0.0324,0.013523,0.002678,0.000431,0.004113
140069000,0.0324,0.013523,0.002678,0.000431,0.004349
140070000,0.0324,0.013523,0.002678,0.000431,0.003996
140071000,0.0324,0.013523,0.002678,0.000431,0.004349
140072000,0.0324,0.013523,0.002678,0.000431,0.004231
140073000,0.0324,0.013523,0.002678,0.000431,0.003878
140074000,0.0324,0.013523,0.002678,0.000431,0.004231
140075000,0.0324,0.013523,0.002678,0.000431,0.004349
140076000,0.0324,0.013523,0.002678,0.000431,0.003996
140077000,0.0324,0.013523,0.002678,0.000431,0.004466
140078000,0.0324,0.013523,0.002678,0.000431,0.003878
140079000,0.0324,0.013523,0.002678,0.000431,0.007052
140080000,0.0324,0.013523,0.002678,0.000431,0.002938
140081000,0.0324,0.013523,0.002678,0.000431,0.003643
140082000,0.0324,0.013523,0.002678,0.000431,0.003526
140083000,0.0324,0.013523,0.002678,0.000431,0.002821
140084000,0.0324,0.013523,0.002678,0.000431,0.003761
140085000,0.0324,0.013523,0.002678,0.000431,0.002821
140086000,0.0324,0.013523,0.002678,0.000431,0.003526
140087000,0.0324,0.013523,0.002678,0.000431,0.003408
140088000,0.0324,0.013523,0.002678,0.000431,0.003173
140089000,0.0324,0.013523,0.002678,0.000431,0.003291
140090000,0.0324,0.013523,0.002678,0.000431,0.003173
140091000,0.0324,0.013523,0.002678,0.000431,0.003408
140092000,0.0324,0.013523,0.002678,0.000431,0.003173
140093000,0.0324,0.013523,0.002678,0.000431,0.003526
140094000,0.0324,0.013523,0.002678,0.000431,0.003291
140095000,0.0324,0.013523,0.002678,0.000431,0.003291
140096000,0.0324,0.013523,0.002678,0.000431,0.003173
140097000,0.0324,0.013523,0.002678,0.000431,0.003291
140098000,0.0324,0.013523,0.002678,0.000431,0.003173
140099000,0.0324,0.013523,0.002678,0.000431,0.003408
140100000,0.0324,0.013523,0.002678,0.000431,0.003408
140101000,0.0324,0.013523,0.002678,0.000431,0.002938
140102000,0.0324,0.013523,0.002678,0.000431,0.003761
140103000,0.0324,0.013523,0.002678,0.000431,0.003173
140104000,0.0324,0.013523,0.002678,0.000431,0.003291
140105000,0.0324,0.013523,0.002678,0.000431,0.003056
140106000,0.0324,0.013523,0.002678,0.000431,0.003408
140107000,0.0324,0.013523,0.002678,0.000431,0.003761
140108000,0.0324,0.013523,0.002678,0.000431,0.005994
140109000,0.0324,0.013523,0.002678,0.000431,0.001763
140110000,0.0324,0.013523,0.002678,0.000431,0.001763
140111000,0.0324,0.013523,0.002678,0.000431,0.001645
140112000,0.0324,0.013523,0.002678,0.000431,0.001880
140113000,0.0324,0.013523,0.002678,0.000431,0.003408
140114000,0.0324,0.013523,0.002678,0.000431,0.002351
140115000,0.0324,0.013523,0.002678,0.000431,0.383612
140116000,0.0324,0.013523,0.002678,0.000431,0.822227
140117000,0.0324,0.013523,0.002678,0.000431,0.240580
140118000,0.0324,0.013523,0.002678,0.000431,0.136685
140119000,0.0324,0.013523,0.002678,0.000431,0.554028
140120000,0.0324,0.013523,0.002678,0.000431,0.247514
140121000,0.0324,0.013523,0.002678,0.000431,0.299109
140122000,0.0324,0.013523,0.002678,0.000431,0.196977
140123000,0.0324,0.013523,0.002678,0.000431,0.176645
140124000,0.0324,0.013523,0.002678,0.000431,0.101897
140125000,0.0324,0.013523,0.002678,0.000431,0.548151
140126000,0.0324,0.013523,0.002678,0.000431,0.295818
140127000,0.0324,0.013523,0.002678,0.000431,0.210375
140128000,0.0324,0.013523,0.002678,0.000431,0.176645
140129000,0.0324,0.013523,0.002678,0.000431,0.141034
140130000,0.0324,0.013523,0.002678,0.000431,0.120819
140131000,0.0324,0.013523,0.002678,0.000431,0.106010
140132000,0.0324,0.013523,0.002678,0.000431,0.084620
140133000,0.0324,0.013523,0.002678,0.000431,0.073690
140134000,0.0324,0.013523,0.002678,0.000431,0.067696
140135000,0.0324,0.013523,0.002678,0.000431,0.057941
140136000,0.0324,0.013523,0.002678,0.000431,0.055121
140137000,0.0324,0.013523,0.002678,0.000431,0.059352
140138000,0.0324,0.013523,0.002678,0.000431,0.047599
140139000,0.0324,0.013523,0.002678,0.000431,0.043956
140140000,0.0324,0.013523,0.002678,0.000431,0.042545
140141000,0.0324,0.013523,0.002678,0.000431,0.033378
140142000,0.0324,0.013523,0.002678,0.000431,0.035258
140143000,0.0324,0.013523,0.002678,0.000431,0.023506
140144000,0.0324,0.013523,0.002678,0.000431,0.025974
140145000,0.0324,0.013523,0.002678,0.000431,0.027384
140146000,0.0324,0.013523,0.002678,0.000431,0.023388
140147000,0.0324,0.013523,0.002678,0.000431,0.015161
140148000,0.0324,0.013523,0.002678,0.000431,0.018452
140149000,0.0324,0.013523,0.002678,0.000431,0.014338
140150000,0.0324,0.013523,0.002678,0.000431,0.014103
140151000,0.0324,0.013523,0.002678,0.000431,0.013633
140152000,0.0324,0.013523,0.002678,0.000431,0.011753
140153000,0.0324,0.013523,0.002678,0.000431,0.009402
140154000,0.0324,0.013523,0.002678,0.000431,0.014338
140155000,0.0324,0.013523,0.002678,0.000431,0.009167
140156000,0.0324,0.013523,0.002678,0.000431,0.007052
140157000,0.0324,0.013523,0.002678,0.000431,0.008109
140158000,0.0324,0.013523,0.002678,0.000431,0.007404
140159000,0.0324,0.013523,0.002678,0.000431,0.006111
140160000,0.0324,0.013523,0.002678,0.000431,0.002938
140161000,0.0324,0.013523,0.002678,0.000431,0.003408
140162000,0.0324,0.013523,0.002678,0.000431,0.004113
140163000,0.0324,0.013523,0.002678,0.000431,0.001763
140164000,0.0324,0.013523,0.002678,0.000431,0.001645
140165000,0.0324,0.013523,0.002678,0.000431,0.001763
140166000,0.0324,0.013523,0.002678,0.000431,0.001880
140167000,0.0324,0.013523,0.002678,0.000431,0.001763
140168000,0.0324,0.013523,0.002678,0.000431,0.001645
140169000,0.0324,0.013523,0.002678,0.000431,0.001763
140170000,0.0324,0.013523,0.002678,0.000431,0.001763
140171000,0.0324,0.013523,0.002678,0.000431,0.001880
140172000,0.0324,0.013523,0.002678,0.000431,0.001645
140173000,0.0324,0.013523,0.002678,0.000431,0.001763
140174000,0.0324,0.013523,0.002678,0.000431,0.001763
140175000,0.0324,0.013523,0.002678,0.000431,0.001645
140176000,0.0324,0.013523,0.002678,0.000431,0.001880
140177000,0.0324,0.013523,0.002678,0.000431,0.001763
140178000,0.0324,0.013523,0.002678,0.000431,0.001763
140179000,0.0324,0.013523,0.002678,0.000431,0.001645
140180000,0.0324,0.013523,0.002678,0.000431,0.001763
140181000,0.0324,0.013523,0.002678,0.000431,0.001880
140182000,0.0324,0.013523,0.002678,0.000431,0.001645
140183000,0.0324,0.013523,0.002678,0.000431,0.004231
140184000,0.0324,0.013523,0.002678,0.000431,0.001058
140185000,0.0324,0.013523,0.002678,0.000431,0.000823
140186000,0.0324,0.013523,0.002678,0.000431,0.000940
140187000,0.0324,0.013523,0.002678,0.000431,0.000823
140188000,0.0324,0.013523,0.002678,0.000431,0.000940
140189000,0.0324,0.013523,0.002678,0.000431,0.000823
140190000,0.0324,0.013523,0.002678,0.000431,0.000823
140191000,0.0324,0.013523,0.002678,0.000431,0.000940
140192000,0.0324,0.013523,0.002678,0.000431,0.000823
140193000,0.0324,0.013523,0.002678,0.000431,0.000940
140194000,0.0324,0.013523,0.002678,0.000431,0.000823
140195000,0.0324,0.013523,0.002678,0.000431,0.000940
140196000,0.0324,0.013523,0.002678,0.000431,0.000940
140197000,0.0324,0.013523,0.002678,0.000431,0.000705
140198000,0.0324,0.013523,0.002678,0.000431,0.000940
140199000,0.0324,0.013523,0.002678,0.000431,0.000940
140200000,0.0324,0.013523,0.002678,0.000431,0.000940
140201000,0.0324,0.013523,0.002678,0.000431,0.000705
140202000,0.0324,0.013523,0.002678,0.000431,0.000940
140203000,0.0324,0.013523,0.002678,0.000431,0.000940
140204000,0.0324,0.013523,0.002678,0.000431,0.072280
140205000,0.0324,0.013523,0.002678,0.000431,0.782268
140206000,0.0324,0.013523,0.002678,0.000431,0.544861
140207000,0.0324,0.013523,0.002678,0.000431,0.137155
140208000,0.0324,0.013523,0.002678,0.000431,0.233881
140209000,0.0324,0.013523,0.002678,0.000431,0.522648
140210000,0.0324,0.013523,0.002678,0.000431,0.293585
140211000,0.0324,0.013523,0.002678,0.000431,0.252568
140212000,0.0324,0.013523,0.002678,0.000431,0.163012
140213000,0.0324,0.013523,0.002678,0.000431,0.100604
140214000,0.0324,0.013523,0.002678,0.000431,0.403709
140215000,0.0324,0.013523,0.002678,0.000431,0.373975
140216000,0.0324,0.013523,0.002678,0.000431,0.197212
140217000,0.0324,0.013523,0.002678,0.000431,0.174647
140218000,0.0324,0.013523,0.002678,0.000431,0.131044
140219000,0.0324,0.013523,0.002678,0.000431,0.105188
140220000,0.0324,0.013523,0.002678,0.000431,0.092025
140221000,0.0324,0.013523,0.002678,0.000431,0.057354
140222000,0.0324,0.013523,0.002678,0.000431,0.056884
140223000,0.0324,0.013523,0.002678,0.000431,0.039842
140224000,0.0324,0.013523,0.002678,0.000431,0.032673
140225000,0.0324,0.013523,0.002678,0.000431,0.025739
140226000,0.0324,0.013523,0.002678,0.000431,0.022683
140227000,0.0324,0.013523,0.002678,0.000431,0.026326
140228000,0.0324,0.013523,0.002678,0.000431,0.027031
140229000,0.0324,0.013523,0.002678,0.000431,0.013281
140230000,0.0324,0.013523,0.002678,0.000431,0.011753
140231000,0.0324,0.013523,0.002678,0.000431,0.013281
140232000,0.0324,0.013523,0.002678,0.000431,0.011283
140233000,0.0324,0.013523,0.002678,0.000431,0.009755
140234000,0.0324,0.013523,0.002678,0.000431,0.009520
140235000,0.0324,0.013523,0.002678,0.000431,0.006817
140236000,0.0324,0.013523,0.002678,0.000431,0.006347
140237000,0.0324,0.013523,0.002678,0.000431,0.005876
140238000,0.0324,0.013523,0.002678,0.000431,0.007522
140239000,0.0324,0.013523,0.002678,0.000431,0.005289
140240000,0.0324,0.013523,0.002678,0.000431,0.005876
140241000,0.0324,0.013523,0.002678,0.000431,0.006582
140242000,0.0324,0.013523,0.002678,0.000431,0.004466
140243000,0.0324,0.013523,0.002678,0.000431,0.004701
140244000,0.0324,0.013523,0.002678,0.000431,0.004466
140245000,0.0324,0.013523,0.002678,0.000431,0.004701
140246000,0.0324,0.013523,0.002678,0.000431,0.003878
140247000,0.0324,0.013523,0.002678,0.000431,0.004936
140248000,0.0324,0.013523,0.002678,0.000431,0.005759
140249000,0.0324,0.013523,0.002678,0.000431,0.003526
140250000,0.0324,0.013523,0.002678,0.000431,0.003761
140251000,0.0324,0.013523,0.002678,0.000431,0.006347
140252000,0.0324,0.013523,0.002678,0.000431,0.002938
140253000,0.0324,0.013523,0.002678,0.000431,0.001998
140254000,0.0324,0.013523,0.002678,0.000431,0.002703
140255000,0.0324,0.013523,0.002678,0.000431,0.002586
140256000,0.0324,0.013523,0.002678,0.000431,0.002233
140257000,0.0324,0.013523,0.002678,0.000431,0.002468
140258000,0.0324,0.013523,0.002678,0.000431,0.002468
140259000,0.0324,0.013523,0.002678,0.000431,0.002468
140260000,0.0324,0.013523,0.002678,0.000431,0.002468
140261000,0.0324,0.013523,0.002678,0.000431,0.002468
140262000,0.0324,0.013523,0.002678,0.000431,0.002351
140263000,0.0324,0.013523,0.002678,0.000431,0.002468
140264000,0.0324,0.013523,0.002678,0.000431,0.002468
140265000,0.0324,0.013523,0.002678,0.000431,0.002351
140266000,0.0324,0.013523,0.002678,0.000431,0.002821
140267000,0.0324,0.013523,0.002678,0.000431,0.002233
140268000,0.0324,0.013523,0.002678,0.000431,0.002468
140269000,0.0324,0.013523,0.002678,0.000431,0.002468
140270000,0.0324,0.013523,0.002678,0.000431,0.002468
140271000,0.0324,0.013523,0.002678,0.000431,0.002468
140272000,0.0324,0.013523,0.002678,0.000431,0.002233
140273000,0.0324,0.013523,0.002678,0.000431,0.002821
140274000,0.0324,0.013523,0.002678,0.000431,0.002351
140275000,0.0324,0.013523,0.002678,0.000431,0.002468
140276000,0.0324,0.013523,0.002678,0.000431,0.002468
140277000,0.0324,0.013523,0.002678,0.000431,0.002351
140278000,0.0324,0.013523,0.002678,0.000431,0.002468
140279000,0.0324,0.013523,0.002678,0.000431,0.002586
140280000,0.0324,0.013523,0.002678,0.000431,0.002233
140281000,0.0324,0.013523,0.002678,0.000431,0.002586
140282000,0.0324,0.013523,0.002678,0.000431,0.002468
140283000,0.0324,0.013523,0.002678,0.000431,0.002233
140284000,0.0324,0.013523,0.002678,0.000431,0.002821
140285000,0.0324,0.013523,0.002678,0.000431,0.002233
140286000,0.0324,0.013523,0.002678,0.000431,0.002586
140287000,0.0324,0.013523,0.002678,0.000431,0.002116
140288000,0.0324,0.013523,0.002678,0.000431,0.002703
140289000,0.0324,0.013523,0.002678,0.000431,0.002821
140290000,0.0324,0.013523,0.002678,0.000431,0.001880
140291000,0.0324,0.013523,0.002678,0.000431,0.002821
140292000,0.0324,0.013523,0.002678,0.000431,0.002233
140293000,0.0324,0.013523,0.002678,0.000431,0.002703
140294000,0.0324,0.013523,0.002678,0.000431,0.002468
140295000,0.0324,0.013523,0.002678,0.000431,0.002233
140296000,0.0324,0.013523,0.002678,0.000431,0.002586
140297000,0.0324,0.013523,0.002678,0.000431,0.002351
140298000,0.0324,0.013523,0.002678,0.000431,0.004113
140299000,0.0324,0.013523,0.002678,0.000431,0.001645
140300000,0.0324,0.013523,0.002678,0.000431,0.001528
140301000,0.0324,0.013523,0.002678,0.000431,0.001528
140302000,0.0324,0.013523,0.002678,0.000431,0.001645
140303000,0.0324,0.013523,0.002678,0.000431,0.001410
140304000,0.0324,0.013523,0.002678,0.000431,0.001880
140305000,0.0324,0.013523,0.002678,0.000431,0.001410
140306000,0.0324,0.013523,0.002678,0.000431,0.001645
140307000,0.0324,0.013523,0.002678,0.000431,0.001528
140308000,0.0324,0.013523,0.002678,0.000431,0.001528
140309000,0.0324,0.013523,0.002678,0.000431,0.001880
140310000,0.0324,0.013523,0.002678,0.000431,0.001175
140311000,0.0324,0.013523,0.002678,0.000431,0.001880
140312000,0.0324,0.013523,0.002678,0.000431,0.001528
140313000,0.0324,0.013523,0.002678,0.000431,0.001528
140314000,0.0324,0.013523,0.002678,0.000431,0.001645
140315000,0.0324,0.013523,0.002678,0.000431,0.001410
140316000,0.0324,0.013523,0.002678,0.000431,0.001645
140317000,0.0324,0.013523,0.002678,0.000431,0.001645
140318000,0.0324,0.013523,0.002678,0.000431,0.001410
140319000,0.0324,0.013523,0.002678,0.000431,0.001645
140320000,0.0324,0.013523,0.002678,0.000431,0.001645
140321000,0.0324,0.013523,0.002678,0.000431,0.001410
140322000,0.0324,0.013523,0.002678,0.000431,0.001880
140323000,0.0324,0.013523,0.002678,0.000431,0.001410
140324000,0.0324,0.013523,0.002678,0.000431,0.001645
140325000,0.0324,0.013523,0.002678,0.000431,0.001293
140326000,0.0324,0.013523,0.002678,0.000431,0.001763
140327000,0.0324,0.013523,0.002678,0.000431,0.001880
140328000,0.0324,0.013523,0.002678,0.000431,0.001410
140329000,0.0324,0.013523,0.002678,0.000431,0.001410
140330000,0.0324,0.013523,0.002678,0.000431,0.001410
140331000,0.0324,0.013523,0.002678,0.000431,0.001645
140332000,0.0324,0.013523,0.002678,0.000431,0.001410
140333000,0.0324,0.013523,0.002678,0.000431,0.001410
140334000,0.0324,0.013523,0.002678,0.000431,0.001645
140335000,0.0324,0.013523,0.002678,0.000431,0.001645
140336000,0.0324,0.013523,0.002678,0.000431,0.001410
140337000,0.0324,0.013523,0.002678,0.000431,0.001645
140338000,0.0324,0.013523,0.002678,0.000431,0.001645
140339000,0.0324,0.013523,0.002678,0.000431,0.001410
140340000,0.0324,0.013523,0.002678,0.000431,0.001880
140341000,0.0324,0.013523,0.002678,0.000431,0.001410
140342000,0.0324,0.013523,0.002678,0.000431,0.001645
140343000,0.0324,0.013523,0.002678,0.000431,0.001293
140344000,0.0324,0.013523,0.002678,0.000431,0.001763
140345000,0.0324,0.013523,0.002678,0.000431,0.001880
140346000,0.0324,0.013523,0.002678,0.000431,0.001175
140347000,0.0324,0.013523,0.002678,0.000431,0.001880
140348000,0.0324,0.013523,0.002678,0.000431,0.001293
140349000,0.0324,0.013523,0.002678,0.000431,0.001763
140350000,0.0324,0.013523,0.002678,0.000431,0.001645
140351000,0.0324,0.013523,0.002678,0.000431,0.001410
140352000,0.0324,0.013523,0.002678,0.000431,0.001645
140353000,0.0324,0.013523,0.002678,0.000431,0.001528
140354000,0.0324,0.013523,0.002678,0.000431,0.001763
140355000,0.0324,0.013523,0.002678,0.000431,0.001410
140356000,0.0324,0.013523,0.002678,0.000431,0.001645
140357000,0.0324,0.013523,0.002678,0.000431,0.001410
140358000,0.0324,0.013523,0.002678,0.000431,0.001645
140359000,0.0324,0.013523,0.002678,0.000431,0.001645
140360000,0.0324,0.013523,0.002678,0.000431,0.001645
140361000,0.0324,0.013523,0.002678,0.000431,0.001410
140362000,0.0324,0.013523,0.002678,0.000431,0.001645
140363000,0.0324,0.013523,0.002678,0.000431,0.001528
140364000,0.0324,0.013523,0.002678,0.000431,0.001528
140365000,0.0324,0.013523,0.002678,0.000431,0.001880
140366000,0.0324,0.013523,0.002678,0.000431,0.001175
140367000,0.0324,0.013523,0.002678,0.000431,0.001880
140368000,0.0324,0.013523,0.002678,0.000431,0.001528
140369000,0.0324,0.013523,0.002678,0.000431,0.001528
140370000,0.0324,0.013523,0.002678,0.000431,0.001645
140371000,0.0324,0.013523,0.002678,0.000431,0.001410
140372000,0.0324,0.013523,0.002678,0.000431,0.001880
140373000,0.0324,0.013523,0.002678,0.000431,0.001410
140374000,0.0324,0.013523,0.002678,0.000431,0.001645
140375000,0.0324,0.013523,0.002678,0.000431,0.001645
140376000,0.0324,0.013523,0.002678,0.000431,0.001410
140377000,0.0324,0.013523,0.002678,0.000431,0.001645
140378000,0.0324,0.013523,0.002678,0.000431,0.001645
140379000,0.0324,0.013523,0.002678,0.000431,0.001410
140380000,0.0324,0.013523,0.002678,0.000431,0.001645
140381000,0.0324,0.013523,0.002678,0.000431,0.001410
140382000,0.0324,0.013523,0.002678,0.000431,0.001645
140383000,0.0324,0.013523,0.002678,0.000431,0.001880
140384000,0.0324,0.013523,0.002678,0.000431,0.001175
140385000,0.0324,0.013523,0.002678,0.000431,0.001880
140386000,0.0324,0.013523,0.002678,0.000431,0.001293
140387000,0.0324,0.013523,0.002678,0.000431,0.001763
140388000,0.0324,0.013523,0.002678,0.000431,0.001645
140389000,0.0324,0.013523,0.002678,0.000431,0.001410
140390000,0.0324,0.013523,0.002678,0.000431,0.001880
140391000,0.0324,0.013523,0.002678,0.000431,0.001293
140392000,0.0324,0.013523,0.002678,0.000431,0.001763
140393000,0.0324,0.013523,0.002678,0.000431,0.001645
140394000,0.0324,0.013523,0.002678,0.000431,0.001410
140395000,0.0324,0.013523,0.002678,0.000431,0.001645
140396000,0.0324,0.013523,0.002678,0.000431,0.001528
140397000,0.0324,0.013523,0.002678,0.000431,0.001528
140398000,0.0324,0.013523,0.002678,0.000431,0.001645
140399000,0.0324,0.013523,0.002678,0.000431,0.001410
140400000,0.0324,0.013523,0.002678,0.000431,0.001645
140401000,0.0324,0.013523,0.002678,0.000431,0.001528
140402000,0.0324,0.013523,0.002678,0.000431,0.001528
140403000,0.0324,0.013523,0.002678,0.000431,0.001880
140404000,0.0324,0.013523,0.002678,0.000431,0.001175
140405000,0.0324,0.013523,0.002678,0.000431,0.001880
140406000,0.0324,0.013523,0.002678,0.000431,0.001528
140407000,0.0324,0.013523,0.002678,0.000431,0.001528
140408000,0.0324,0.013523,0.002678,0.000431,0.001645
140409000,0.0324,0.013523,0.002678,0.000431,0.001410
140410000,0.0324,0.013523,0.002678,0.000431,0.001880
140411000,0.0324,0.013523,0.002678,0.000431,0.001410
140412000,0.0324,0.013523,0.002678,0.000431,0.001645
140413000,0.0324,0.013523,0.002678,0.000431,0.001645
140414000,0.0324,0.013523,0.002678,0.000431,0.001410
140415000,0.0324,0.013523,0.002678,0.000431,0.001645
140416000,0.0324,0.013523,0.002678,0.000431,0.001645
140417000,0.0324,0.013523,0.002678,0.000431,0.001410
140418000,0.0324,0.013523,0.002678,0.000431,0.001645
140419000,0.0324,0.013523,0.002678,0.000431,0.001410
140420000,0.0324,0.013523,0.002678,0.000431,0.001645
140421000,0.0324,0.013523,0.002678,0.000431,0.001880
140422000,0.0324,0.013523,0.002678,0.000431,0.001175
140423000,0.0324,0.013523,0.002678,0.000431,0.001880
140424000,0.0324,0.013523,0.002678,0.000431,0.001293
140425000,0.0324,0.013523,0.002678,0.000431,0.001763
140426000,0.0324,0.013523,0.002678,0.000431,0.001763
140427000,0.0324,0.013523,0.002678,0.000431,0.001293
140428000,0.0324,0.013523,0.002678,0.000431,0.001880
140429000,0.0324,0.013523,0.002678,0.000431,0.001293
140430000,0.0324,0.013523,0.002678,0.000431,0.001763
140431000,0.0324,0.013523,0.002678,0.000431,0.001645
140432000,0.0324,0.013523,0.002678,0.000431,0.001410
140433000,0.0324,0.013523,0.002678,0.000431,0.001645
140434000,0.0324,0.013523,0.002678,0.000431,0.001528
140435000,0.0324,0.013523,0.002678,0.000431,0.001528
140436000,0.0324,0.013523,0.002678,0.000431,0.001645
140437000,0.0324,0.013523,0.002678,0.000431,0.001645
140438000,0.0324,0.013523,0.002678,0.000431,0.001293
140439000,0.0324,0.013523,0.002678,0.000431,0.001528
140440000,0.0324,0.013523,0.002678,0.000431,0.000940
140441000,0.0324,0.013523,0.002678,0.000431,0.000823
140442000,0.0324,0.013523,0.002678,0.000431,0.000940
140443000,0.0324,0.013523,0.002678,0.000431,0.000823
140444000,0.0324,0.013523,0.002678,0.000431,0.255389
140445000,0.0324,0.013523,0.002678,0.000431,0.773688
140446000,0.0324,0.013523,0.002678,0.000431,0.358578
140447000,0.0324,0.013523,0.002678,0.000431,0.133042
140448000,0.0324,0.013523,0.002678,0.000431,0.295583
140449000,0.0324,0.013523,0.002678,0.000431,0.426862
140450000,0.0324,0.013523,0.002678,0.000431,0.268787
140451000,0.0324,0.013523,0.002678,0.000431,0.339656
140452000,0.0324,0.013523,0.002678,0.000431,0.148321
140453000,0.0324,0.013523,0.002678,0.000431,0.163129
140454000,0.0324,0.013523,0.002678,0.000431,0.145735
140455000,0.0324,0.013523,0.002678,0.000431,0.524528
140456000,0.0324,0.013523,0.002678,0.000431,0.191571
140457000,0.0324,0.013523,0.002678,0.000431,0.159721
140458000,0.0324,0.013523,0.002678,0.000431,0.138566
140459000,0.0324,0.013523,0.002678,0.000431,0.116118
140460000,0.0324,0.013523,0.002678,0.000431,0.090732
140461000,0.0324,0.013523,0.002678,0.000431,0.071575
140462000,0.0324,0.013523,0.002678,0.000431,0.063818
140463000,0.0324,0.013523,0.002678,0.000431,0.071457
140464000,0.0324,0.013523,0.002678,0.000431,0.051007
140465000,0.0324,0.013523,0.002678,0.000431,0.042428
140466000,0.0324,0.013523,0.002678,0.000431,0.041017
140467000,0.0324,0.013523,0.002678,0.000431,0.025739
140468000,0.0324,0.013523,0.002678,0.000431,0.024798
140469000,0.0324,0.013523,0.002678,0.000431,0.021860
140470000,0.0324,0.013523,0.002678,0.000431,0.029500
140471000,0.0324,0.013523,0.002678,0.000431,0.021273
140472000,0.0324,0.013523,0.002678,0.000431,0.018569
140473000,0.0324,0.013523,0.002678,0.000431,0.014809
140474000,0.0324,0.013523,0.002678,0.000431,0.012340
140475000,0.0324,0.013523,0.002678,0.000431,0.015631
140476000,0.0324,0.013523,0.002678,0.000431,0.010342
140477000,0.0324,0.013523,0.002678,0.000431,0.008109
140478000,0.0324,0.013523,0.002678,0.000431,0.007287
140479000,0.0324,0.013523,0.002678,0.000431,0.008109
140480000,0.0324,0.013523,0.002678,0.000431,0.007522
140481000,0.0324,0.013523,0.002678,0.000431,0.009872
140482000,0.0324,0.013523,0.002678,0.000431,0.007287
140483000,0.0324,0.013523,0.002678,0.000431,0.008697
140484000,0.0324,0.013523,0.002678,0.000431,0.007287
140485000,0.0324,0.013523,0.002678,0.000431,0.005289
140486000,0.0324,0.013523,0.002678,0.000431,0.005406
140487000,0.0324,0.013523,0.002678,0.000431,0.005406
140488000,0.0324,0.013523,0.002678,0.000431,0.005054
140489000,0.0324,0.013523,0.002678,0.000431,0.005289
140490000,0.0324,0.013523,0.002678,0.000431,0.005289
140491000,0.0324,0.013523,0.002678,0.000431,0.005406
140492000,0.0324,0.013523,0.002678,0.000431,0.007169
140493000,0.0324,0.013523,0.002678,0.000431,0.004466
140494000,0.0324,0.013523,0.002678,0.000431,0.004701
140495000,0.0324,0.013523,0.002678,0.000431,0.008815
140496000,0.0324,0.013523,0.002678,0.000431,0.002821
140497000,0.0324,0.013523,0.002678,0.000431,0.002586
140498000,0.0324,0.013523,0.002678,0.000431,0.003173
140499000,0.0324,0.013523,0.002678,0.000431,0.002821
140500000,0.0324,0.013523,0.002678,0.000431,0.002821
140501000,0.0324,0.013523,0.002678,0.000431,0.002938
140502000,0.0324,0.013523,0.002678,0.000431,0.002938
140503000,0.0324,0.013523,0.002678,0.000431,0.002586
140504000,0.0324,0.013523,0.002678,0.000431,0.004936
140505000,0.0324,0.013523,0.002678,0.000431,0.001763
140506000,0.0324,0.013523,0.002678,0.000431,0.003878
140507000,0.0324,0.013523,0.002678,0.000431,0.000823
140508000,0.0324,0.013523,0.002678,0.000431,0.000823
140509000,0.0324,0.013523,0.002678,0.000431,0.000940
140510000,0.0324,0.013523,0.002678,0.000431,0.000823
140511000,0.0324,0.013523,0.002678,0.000431,0.000940
140512000,0.0324,0.013523,0.002678,0.000431,0.000823
140513000,0.0324,0.013523,0.002678,0.000431,0.000940
140514000,0.0324,0.013523,0.002678,0.000431,0.000823
140515000,0.0324,0.013523,0.002678,0.000431,0.000823
140516000,0.0324,0.013523,0.002678,0.000431,0.000940
140517000,0.0324,0.013523,0.002678,0.000431,0.000940
140518000,0.0324,0.013523,0.002678,0.000431,0.000823
140519000,0.0324,0.013523,0.002678,0.000431,0.000823
140520000,0.0324,0.013523,0.002678,0.000431,0.000940
140521000,0.0324,0.013523,0.002678,0.000431,0.000940
140522000,0.0324,0.013523,0.002678,0.000431,0.000823
140523000,0.0324,0.013523,0.002678,0.000431,0.000823
140524000,0.0324,0.013523,0.002678,0.000431,0.000940
140525000,0.0324,0.013523,0.002678,0.000431,0.000823
140526000,0.0324,0.013523,0.002678,0.000431,0.000940
140527000,0.0324,0.013523,0.002678,0.000431,0.000823
140528000,0.0324,0.013523,0.002678,0.000431,0.000940
140529000,0.0324,0.013523,0.002678,0.000431,0.000823
140530000,0.0324,0.013523,0.002678,0.000431,0.000823
140531000,0.0324,0.013523,0.002678,0.000431,0.000940
140532000,0.0324,0.013523,0.002678,0.000431,0.000940
140533000,0.0324,0.013523,0.002678,0.000431,0.000823
140534000,0.0324,0.013523,0.002678,0.000431,0.000823
140535000,0.0324,0.013523,0.002678,0.000431,0.000940
140536000,0.0324,0.013523,0.002678,0.000431,0.000940
140537000,0.0324,0.013523,0.002678,0.000431,0.000705
140538000,0.0324,0.013523,0.002678,0.000431,0.000940
140539000,0.0324,0.013523,0.002678,0.000431,0.000940
140540000,0.0324,0.013523,0.002678,0.000431,0.000940
140541000,0.0324,0.013523,0.002678,0.000431,0.000705
140542000,0.0324,0.013523,0.002678,0.000431,0.000940
140543000,0.0324,0.013523,0.002678,0.000431,0.000940
140544000,0.0324,0.013523,0.002678,0.000431,0.000823
140545000,0.0324,0.013523,0.002678,0.000431,0.000823
140546000,0.0324,0.013523,0.002678,0.000431,0.000940
140547000,0.0324,0.013523,0.002678,0.000431,0.000940
140548000,0.0324,0.013523,0.002678,0.000431,0.000940
140549000,0.0324,0.013523,0.002678,0.000431,0.000940
140550000,0.0324,0.013523,0.002678,0.000431,0.000823
140551000,0.0324,0.013523,0.002678,0.000431,0.000940
140552000,0.0324,0.013523,0.002678,0.000431,0.000823
140553000,0.0324,0.013523,0.002678,0.000431,0.000940
140554000,0.0324,0.013523,0.002678,0.000431,0.000823
140555000,0.0324,0.013523,0.002678,0.000431,0.000823
140556000,0.0324,0.013523,0.002678,0.000431,0.000940
140557000,0.0324,0.013523,0.002678,0.000431,0.000940
140558000,0.0324,0.013523,0.002678,0.000431,0.000705
140559000,0.0324,0.013523,0.002678,0.000431,0.000940
140560000,0.0324,0.013523,0.002678,0.000431,0.000940
140561000,0.0324,0.013523,0.002678,0.000431,0.000940
140562000,0.0324,0.013523,0.002678,0.000431,0.000705
140563000,0.0324,0.013523,0.002678,0.000431,0.000940
140564000,0.0324,0.013523,0.002678,0.000431,0.000940
140565000,0.0324,0.013523,0.002678,0.000431,0.000823
140566000,0.0324,0.013523,0.002678,0.000431,0.000823
140567000,0.0324,0.013523,0.002678,0.000431,0.000940
140568000,0.0324,0.013523,0.002678,0.000431,0.000940
140569000,0.0324,0.013523,0.002678,0.000431,0.000823
140570000,0.0324,0.013523,0.002678,0.000431,0.000823
140571000,0.0324,0.013523,0.002678,0.000431,0.000940
140572000,0.0324,0.013523,0.002678,0.000431,0.000823
140573000,0.0324,0.013523,0.002678,0.000431,0.000940
140574000,0.0324,0.013523,0.002678,0.000431,0.000823
140575000,0.0324,0.013523,0.002678,0.000431,0.000940
140576000,0.0324,0.013523,0.002678,0.000431,0.000823
140577000,0.0324,0.013523,0.002678,0.000431,0.000823
140578000,0.0324,0.013523,0.002678,0.000431,0.000940
140579000,0.0324,0.013523,0.002678,0.000431,0.000940
140580000,0.0324,0.013523,0.002678,0.000431,0.000940
140581000,0.0324,0.013523,0.002678,0.000431,0.000705
140582000,0.0324,0.013523,0.002678,0.000431,0.000940
140583000,0.0324,0.013523,0.002678,0.000431,0.000940
140584000,0.0324,0.013523,0.002678,0.000431,0.000823
140585000,0.0324,0.013523,0.002678,0.000431,0.000823
140586000,0.0324,0.013523,0.002678,0.000431,0.000940
140587000,0.0324,0.013523,0.002678,0.000431,0.000940
140588000,0.0324,0.013523,0.002678,0.000431,0.000823
140589000,0.0324,0.013523,0.002678,0.000431,0.000823
140590000,0.0324,0.013523,0.002678,0.000431,0.000940
140591000,0.0324,0.013523,0.002678,0.000431,0.000823
140592000,0.0324,0.013523,0.002678,0.000431,0.000940
140593000,0.0324,0.013523,0.002678,0.000431,0.000823
140594000,0.0324,0.013523,0.002678,0.000431,0.000940
140595000,0.0324,0.013523,0.002678,0.000431,0.000823
140596000,0.0324,0.013523,0.002678,0.000431,0.000823
140597000,0.0324,0.013523,0.002678,0.000431,0.000940
140598000,0.0324,0.013523,0.002678,0.000431,0.000940
140599000,0.0324,0.013523,0.002678,0.000431,0.000823
140600000,0.0324,0.013523,0.002678,0.000431,0.000823
140601000,0.0324,0.013523,0.002678,0.000431,0.000940
140602000,0.0324,0.013523,0.002678,0.000431,0.000940
140603000,0.0324,0.013523,0.002678,0.000431,0.000823
140604000,0.0324,0.013523,0.002678,0.000431,0.000823
140605000,0.0324,0.013523,0.002678,0.000431,0.000940
140606000,0.0324,0.013523,0.002678,0.000431,0.000823
140607000,0.0324,0.013523,0.002678,0.000431,0.000940
140608000,0.0324,0.013523,0.002678,0.000431,0.000823
140609000,0.0324,0.013523,0.002678,0.000431,0.000940
140610000,0.0324,0.013523,0.002678,0.000431,0.000823
140611000,0.0324,0.013523,0.002678,0.000431,0.000823
140612000,0.0324,0.013523,0.002678,0.000431,0.000940
140613000,0.0324,0.013523,0.002678,0.000431,0.000940
140614000,0.0324,0.013523,0.002678,0.000431,0.072280
140615000,0.0324,0.013523,0.002678,0.000431,0.688363
140616000,0.0324,0.013523,0.002678,0.000431,0.559669
140617000,0.0324,0.013523,0.002678,0.000431,0.135628
140618000,0.0324,0.013523,0.002678,0.000431,0.150083
140619000,0.0324,0.013523,0.002678,0.000431,0.597278
140620000,0.0324,0.013523,0.002678,0.000431,0.235526
140621000,0.0324,0.013523,0.002678,0.000431,0.339421
140622000,0.0324,0.013523,0.002678,0.000431,0.145265
140623000,0.0324,0.013523,0.002678,0.000431,0.179230
140624000,0.0324,0.013523,0.002678,0.000431,0.104247
140625000,0.0324,0.013523,0.002678,0.000431,0.544391
140626000,0.0324,0.013523,0.002678,0.000431,0.220600
140627000,0.0324,0.013523,0.002678,0.000431,0.149378
140628000,0.0324,0.013523,0.002678,0.000431,0.143854
140629000,0.0324,0.013523,0.002678,0.000431,0.106010
140630000,0.0324,0.013523,0.002678,0.000431,0.084973
140631000,0.0324,0.013523,0.002678,0.000431,0.059704
140632000,0.0324,0.013523,0.002678,0.000431,0.051947
140633000,0.0324,0.013523,0.002678,0.000431,0.041840
140634000,0.0324,0.013523,0.002678,0.000431,0.033966
140635000,0.0324,0.013523,0.002678,0.000431,0.030087
140636000,0.0324,0.013523,0.002678,0.000431,0.017864
140637000,0.0324,0.013523,0.002678,0.000431,0.021038
140638000,0.0324,0.013523,0.002678,0.000431,0.013281
140639000,0.0324,0.013523,0.002678,0.000431,0.009872
140640000,0.0324,0.013523,0.002678,0.000431,0.012928
140641000,0.0324,0.013523,0.002678,0.000431,0.007639
140642000,0.0324,0.013523,0.002678,0.000431,0.007404
140643000,0.0324,0.013523,0.002678,0.000431,0.006582
140644000,0.0324,0.013523,0.002678,0.000431,0.006699
140645000,0.0324,0.013523,0.002678,0.000431,0.007404
140646000,0.0324,0.013523,0.002678,0.000431,0.008697
140647000,0.0324,0.013523,0.002678,0.000431,0.005876
140648000,0.0324,0.013523,0.002678,0.000431,0.006347
140649000,0.0324,0.013523,0.002678,0.000431,0.004584
140650000,0.0324,0.013523,0.002678,0.000431,0.004701
140651000,0.0324,0.013523,0.002678,0.000431,0.007639
140652000,0.0324,0.013523,0.002678,0.000431,0.006817
140653000,0.0324,0.013523,0.002678,0.000431,0.001880
140654000,0.0324,0.013523,0.002678,0.000431,0.001998
140655000,0.0324,0.013523,0.002678,0.000431,0.001880
140656000,0.0324,0.013523,0.002678,0.000431,0.001763
140657000,0.0324,0.013523,0.002678,0.000431,0.001763
140658000,0.0324,0.013523,0.002678,0.000431,0.002233
140659000,0.0324,0.013523,0.002678,0.000431,0.001645
140660000,0.0324,0.013523,0.002678,0.000431,0.001880
140661000,0.0324,0.013523,0.002678,0.000431,0.001880
140662000,0.0324,0.013523,0.002678,0.000431,0.001763
140663000,0.0324,0.013523,0.002678,0.000431,0.002116
140664000,0.0324,0.013523,0.002678,0.000431,0.001763
140665000,0.0324,0.013523,0.002678,0.000431,0.001645
140666000,0.0324,0.013523,0.002678,0.000431,0.002116
140667000,0.0324,0.013523,0.002678,0.000431,0.001763
140668000,0.0324,0.013523,0.002678,0.000431,0.003761
140669000,0.0324,0.013523,0.002678,0.000431,0.000823
140670000,0.0324,0.013523,0.002678,0.000431,0.015044
140671000,0.0324,0.013523,0.002678,0.000431,0.704229
140672000,0.0324,0.013523,0.002678,0.000431,0.584585
140673000,0.0324,0.013523,0.002678,0.000431,0.138331
140674000,0.0324,0.013523,0.002678,0.000431,0.148673
140675000,0.0324,0.013523,0.002678,0.000431,0.646405
140676000,0.0324,0.013523,0.002678,0.000431,0.270197
140677000,0.0324,0.013523,0.002678,0.000431,0.314505
140678000,0.0324,0.013523,0.002678,0.000431,0.168065
140679000,0.0324,0.013523,0.002678,0.000431,0.169593
140680000,0.0324,0.013523,0.002678,0.000431,0.097783
140681000,0.0324,0.013523,0.002678,0.000431,0.518299
140682000,0.0324,0.013523,0.002678,0.000431,0.158781
140683000,0.0324,0.013523,0.002678,0.000431,0.119291
140684000,0.0324,0.013523,0.002678,0.000431,0.109066
140685000,0.0324,0.013523,0.002678,0.000431,0.085678
140686000,0.0324,0.013523,0.002678,0.000431,0.076746
140687000,0.0324,0.013523,0.002678,0.000431,0.062995
140688000,0.0324,0.013523,0.002678,0.000431,0.053240
140689000,0.0324,0.013523,0.002678,0.000431,0.046541
140690000,0.0324,0.013523,0.002678,0.000431,0.049479
140691000,0.0324,0.013523,0.002678,0.000431,0.042663
140692000,0.0324,0.013523,0.002678,0.000431,0.035964
140693000,0.0324,0.013523,0.002678,0.000431,0.026561
140694000,0.0324,0.013523,0.002678,0.000431,0.024916
140695000,0.0324,0.013523,0.002678,0.000431,0.022800
140696000,0.0324,0.013523,0.002678,0.000431,0.021273
140697000,0.0324,0.013523,0.002678,0.000431,0.021625
140698000,0.0324,0.013523,0.002678,0.000431,0.021625
140699000,0.0324,0.013523,0.002678,0.000431,0.020450
140700000,0.0324,0.013523,0.002678,0.000431,0.016571
140701000,0.0324,0.013523,0.002678,0.000431,0.016336
140702000,0.0324,0.013523,0.002678,0.000431,0.018452
140703000,0.0324,0.013523,0.002678,0.000431,0.014926
140704000,0.0324,0.013523,0.002678,0.000431,0.013751
140705000,0.0324,0.013523,0.002678,0.000431,0.013868
140706000,0.0324,0.013523,0.002678,0.000431,0.010930
140707000,0.0324,0.013523,0.002678,0.000431,0.010695
140708000,0.0324,0.013523,0.002678,0.000431,0.011048
140709000,0.0324,0.013523,0.002678,0.000431,0.013633
140710000,0.0324,0.013523,0.002678,0.000431,0.008697
140711000,0.0324,0.013523,0.002678,0.000431,0.009637
140712000,0.0324,0.013523,0.002678,0.000431,0.009050
140713000,0.0324,0.013523,0.002678,0.000431,0.009167
140714000,0.0324,0.013523,0.002678,0.000431,0.008932
140715000,0.0324,0.013523,0.002678,0.000431,0.008815
140716000,0.0324,0.013523,0.002678,0.000431,0.012576
140717000,0.0324,0.013523,0.002678,0.000431,0.007874
140718000,0.0324,0.013523,0.002678,0.000431,0.007404
140719000,0.0324,0.013523,0.002678,0.000431,0.007522
140720000,0.0324,0.013523,0.002678,0.000431,0.007639
140721000,0.0324,0.013523,0.002678,0.000431,0.009285
140722000,0.0324,0.013523,0.002678,0.000431,0.006817
140723000,0.0324,0.013523,0.002678,0.000431,0.006582
140724000,0.0324,0.013523,0.002678,0.000431,0.006817
140725000,0.0324,0.013523,0.002678,0.000431,0.006934
140726000,0.0324,0.013523,0.002678,0.000431,0.006229
140727000,0.0324,0.013523,0.002678,0.000431,0.006817
140728000,0.0324,0.013523,0.002678,0.000431,0.006817
140729000,0.0324,0.013523,0.002678,0.000431,0.006582
140730000,0.0324,0.013523,0.002678,0.000431,0.006699
140731000,0.0324,0.013523,0.002678,0.000431,0.006582
140732000,0.0324,0.013523,0.002678,0.000431,0.006699
140733000,0.0324,0.013523,0.002678,0.000431,0.006582
140734000,0.0324,0.013523,0.002678,0.000431,0.006817
140735000,0.0324,0.013523,0.002678,0.000431,0.006699
140736000,0.0324,0.013523,0.002678,0.000431,0.006582
140737000,0.0324,0.013523,0.002678,0.000431,0.006347
140738000,0.0324,0.013523,0.002678,0.000431,0.007052
140739000,0.0324,0.013523,0.002678,0.000431,0.006699
140740000,0.0324,0.013523,0.002678,0.000431,0.006699
140741000,0.0324,0.013523,0.002678,0.000431,0.006347
140742000,0.0324,0.013523,0.002678,0.000431,0.008109
140743000,0.0324,0.013523,0.002678,0.000431,0.006229
140744000,0.0324,0.013523,0.002678,0.000431,0.005406
140745000,0.0324,0.013523,0.002678,0.000431,0.006111
140746000,0.0324,0.013523,0.002678,0.000431,0.005759
140747000,0.0324,0.013523,0.002678,0.000431,0.005524
140748000,0.0324,0.013523,0.002678,0.000431,0.006464
140749000,0.0324,0.013523,0.002678,0.000431,0.005641
140750000,0.0324,0.013523,0.002678,0.000431,0.007522
140751000,0.0324,0.013523,0.002678,0.000431,0.005171
140752000,0.0324,0.013523,0.002678,0.000431,0.004819
140753000,0.0324,0.013523,0.002678,0.000431,0.005054
140754000,0.0324,0.013523,0.002678,0.000431,0.004584
140755000,0.0324,0.013523,0.002678,0.000431,0.006817
140756000,0.0324,0.013523,0.002678,0.000431,0.004349
140757000,0.0324,0.013523,0.002678,0.000431,0.003761
140758000,0.0324,0.013523,0.002678,0.000431,0.004584
140759000,0.0324,0.013523,0.002678,0.000431,0.004231
140760000,0.0324,0.013523,0.002678,0.000431,0.003878
140761000,0.0324,0.013523,0.002678,0.000431,0.004113
140762000,0.0324,0.013523,0.002678,0.000431,0.004231
140763000,0.0324,0.013523,0.002678,0.000431,0.003408
140764000,0.0324,0.013523,0.002678,0.000431,0.003526
140765000,0.0324,0.013523,0.002678,0.000431,0.003408
140766000,0.0324,0.013523,0.002678,0.000431,0.003173
140767000,0.0324,0.013523,0.002678,0.000431,0.003761
140768000,0.0324,0.013523,0.002678,0.000431,0.003291
140769000,0.0324,0.013523,0.002678,0.000431,0.003408
140770000,0.0324,0.013523,0.002678,0.000431,0.002703
140771000,0.0324,0.013523,0.002678,0.000431,0.002468
140772000,0.0324,0.013523,0.002678,0.000431,0.002821
140773000,0.0324,0.013523,0.002678,0.000431,0.002468
140774000,0.0324,0.013523,0.002678,0.000431,0.002468
140775000,0.0324,0.013523,0.002678,0.000431,0.002821
140776000,0.0324,0.013523,0.002678,0.000431,0.002351
140777000,0.0324,0.013523,0.002678,0.000431,0.004936
140778000,0.0324,0.013523,0.002678,0.000431,0.001645
140779000,0.0324,0.013523,0.002678,0.000431,0.001763
140780000,0.0324,0.013523,0.002678,0.000431,0.001880
140781000,0.0324,0.013523,0.002678,0.000431,0.001528
140782000,0.0324,0.013523,0.002678,0.000431,0.001763
140783000,0.0324,0.013523,0.002678,0.000431,0.001880
140784000,0.0324,0.013523,0.002678,0.000431,0.001645
140785000,0.0324,0.013523,0.002678,0.000431,0.001645
140786000,0.0324,0.013523,0.002678,0.000431,0.001763
140787000,0.0324,0.013523,0.002678,0.000431,0.001763
140788000,0.0324,0.013523,0.002678,0.000431,0.001763
140789000,0.0324,0.013523,0.002678,0.000431,0.001645
140790000,0.0324,0.013523,0.002678,0.000431,0.001763
140791000,0.0324,0.013523,0.002678,0.000431,0.001645
140792000,0.0324,0.013523,0.002678,0.000431,0.001763
140793000,0.0324,0.013523,0.002678,0.000431,0.001763
140794000,0.0324,0.013523,0.002678,0.000431,0.001763
140795000,0.0324,0.013523,0.002678,0.000431,0.001645
140796000,0.0324,0.013523,0.002678,0.000431,0.001763
140797000,0.0324,0.013523,0.002678,0.000431,0.001763
140798000,0.0324,0.013523,0.002678,0.000431,0.001763
140799000,0.0324,0.013523,0.002678,0.000431,0.001645
140800000,0.0324,0.013523,0.002678,0.000431,0.001645
140801000,0.0324,0.013523,0.002678,0.000431,0.001880
140802000,0.0324,0.013523,0.002678,0.000431,0.001763
140803000,0.0324,0.013523,0.002678,0.000431,0.001528
140804000,0.0324,0.013523,0.002678,0.000431,0.001880
140805000,0.0324,0.013523,0.002678,0.000431,0.001645
140806000,0.0324,0.013523,0.002678,0.000431,0.001880
140807000,0.0324,0.013523,0.002678,0.000431,0.001645
140808000,0.0324,0.013523,0.002678,0.000431,0.001645
140809000,0.0324,0.013523,0.002678,0.000431,0.001880
140810000,0.0324,0.013523,0.002678,0.000431,0.001645
140811000,0.0324,0.013523,0.002678,0.000431,0.001645
140812000,0.0324,0.013523,0.002678,0.000431,0.001645
140813000,0.0324,0.013523,0.002678,0.000431,0.001645
140814000,0.0324,0.013523,0.002678,0.000431,0.001645
140815000,0.0324,0.013523,0.002678,0.000431,0.001645
140816000,0.0324,0.013523,0.002678,0.000431,0.001645
140817000,0.0324,0.013523,0.002678,0.000431,0.001880
140818000,0.0324,0.013523,0.002678,0.000431,0.001410
140819000,0.0324,0.013523,0.002678,0.000431,0.001645
140820000,0.0324,0.013523,0.002678,0.000431,0.001763
140821000,0.0324,0.013523,0.002678,0.000431,0.001763
140822000,0.0324,0.013523,0.002678,0.000431,0.001410
140823000,0.0324,0.013523,0.002678,0.000431,0.001645
140824000,0.0324,0.013523,0.002678,0.000431,0.001880
140825000,0.0324,0.013523,0.002678,0.000431,0.001645
140826000,0.0324,0.013523,0.002678,0.000431,0.001410
140827000,0.0324,0.013523,0.002678,0.000431,0.001528
140828000,0.0324,0.013523,0.002678,0.000431,0.075806
140829000,0.0324,0.013523,0.002678,0.000431,0.641586
140830000,0.0324,0.013523,0.002678,0.000431,0.545448
140831000,0.0324,0.013523,0.002678,0.000431,0.134922
140832000,0.0324,0.013523,0.002678,0.000431,0.140211
140833000,0.0324,0.013523,0.002678,0.000431,0.603037
140834000,0.0324,0.013523,0.002678,0.000431,0.257857
140835000,0.0324,0.013523,0.002678,0.000431,0.319207
140836000,0.0324,0.013523,0.002678,0.000431,0.190866
140837000,0.0324,0.013523,0.002678,0.000431,0.150083
140838000,0.0324,0.013523,0.002678,0.000431,0.113885
140839000,0.0324,0.013523,0.002678,0.000431,0.433914
140840000,0.0324,0.013523,0.002678,0.000431,0.265849
140841000,0.0324,0.013523,0.002678,0.000431,0.138096
140842000,0.0324,0.013523,0.002678,0.000431,0.110829
140843000,0.0324,0.013523,0.002678,0.000431,0.104718
140844000,0.0324,0.013523,0.002678,0.000431,0.090262
140845000,0.0324,0.013523,0.002678,0.000431,0.082622
140846000,0.0324,0.013523,0.002678,0.000431,0.068284
140847000,0.0324,0.013523,0.002678,0.000431,0.054298
140848000,0.0324,0.013523,0.002678,0.000431,0.050185
140849000,0.0324,0.013523,0.002678,0.000431,0.041370
140850000,0.0324,0.013523,0.002678,0.000431,0.040195
140851000,0.0324,0.013523,0.002678,0.000431,0.031615
140852000,0.0324,0.013523,0.002678,0.000431,0.033143
140853000,0.0324,0.013523,0.002678,0.000431,0.031968
140854000,0.0324,0.013523,0.002678,0.000431,0.024093
140855000,0.0324,0.013523,0.002678,0.000431,0.025269
140856000,0.0324,0.013523,0.002678,0.000431,0.027384
140857000,0.0324,0.013523,0.002678,0.000431,0.024211
140858000,0.0324,0.013523,0.002678,0.000431,0.021155
140859000,0.0324,0.013523,0.002678,0.000431,0.021508
140860000,0.0324,0.013523,0.002678,0.000431,0.023153
140861000,0.0324,0.013523,0.002678,0.000431,0.018217
140862000,0.0324,0.013523,0.002678,0.000431,0.019392
140863000,0.0324,0.013523,0.002678,0.000431,0.015514
140864000,0.0324,0.013523,0.002678,0.000431,0.016101
140865000,0.0324,0.013523,0.002678,0.000431,0.017042
140866000,0.0324,0.013523,0.002678,0.000431,0.016689
140867000,0.0324,0.013523,0.002678,0.000431,0.014103
140868000,0.0324,0.013523,0.002678,0.000431,0.014456
140869000,0.0324,0.013523,0.002678,0.000431,0.013986
140870000,0.0324,0.013523,0.002678,0.000431,0.014338
140871000,0.0324,0.013523,0.002678,0.000431,0.014221
140872000,0.0324,0.013523,0.002678,0.000431,0.014573
140873000,0.0324,0.013523,0.002678,0.000431,0.014221
140874000,0.0324,0.013523,0.002678,0.000431,0.014456
140875000,0.0324,0.013523,0.002678,0.000431,0.013281
140876000,0.0324,0.013523,0.002678,0.000431,0.014691
140877000,0.0324,0.013523,0.002678,0.000431,0.014691
140878000,0.0324,0.013523,0.002678,0.000431,0.013516
140879000,0.0324,0.013523,0.002678,0.000431,0.014809
140880000,0.0324,0.013523,0.002678,0.000431,0.014221
140881000,0.0324,0.013523,0.002678,0.000431,0.013986
140882000,0.0324,0.013523,0.002678,0.000431,0.015279
140883000,0.0324,0.013523,0.002678,0.000431,0.013751
140884000,0.0324,0.013523,0.002678,0.000431,0.017629
140885000,0.0324,0.013523,0.002678,0.000431,0.013281
140886000,0.0324,0.013523,0.002678,0.000431,0.014103
140887000,0.0324,0.013523,0.002678,0.000431,0.011048
140888000,0.0324,0.013523,0.002678,0.000431,0.014221
140889000,0.0324,0.013523,0.002678,0.000431,0.007992
140890000,0.0324,0.013523,0.002678,0.000431,0.008697
140891000,0.0324,0.013523,0.002678,0.000431,0.009167
140892000,0.0324,0.013523,0.002678,0.000431,0.007874
140893000,0.0324,0.013523,0.002678,0.000431,0.007404
140894000,0.0324,0.013523,0.002678,0.000431,0.006464
140895000,0.0324,0.013523,0.002678,0.000431,0.006817
140896000,0.0324,0.013523,0.002678,0.000431,0.006229
140897000,0.0324,0.013523,0.002678,0.000431,0.006229
140898000,0.0324,0.013523,0.002678,0.000431,0.006582
140899000,0.0324,0.013523,0.002678,0.000431,0.006582
140900000,0.0324,0.013523,0.002678,0.000431,0.005876
140901000,0.0324,0.013523,0.002678,0.000431,0.006934
140902000,0.0324,0.013523,0.002678,0.000431,0.006582
140903000,0.0324,0.013523,0.002678,0.000431,0.005994
140904000,0.0324,0.013523,0.002678,0.000431,0.006934
140905000,0.0324,0.013523,0.002678,0.000431,0.005876
140906000,0.0324,0.013523,0.002678,0.000431,0.005876
140907000,0.0324,0.013523,0.002678,0.000431,0.005994
140908000,0.0324,0.013523,0.002678,0.000431,0.005406
140909000,0.0324,0.013523,0.002678,0.000431,0.008580
140910000,0.0324,0.013523,0.002678,0.000431,0.004701
140911000,0.0324,0.013523,0.002678,0.000431,0.004936
140912000,0.0324,0.013523,0.002678,0.000431,0.004936
140913000,0.0324,0.013523,0.002678,0.000431,0.004584
140914000,0.0324,0.013523,0.002678,0.000431,0.005054
140915000,0.0324,0.013523,0.002678,0.000431,0.005171
140916000,0.0324,0.013523,0.002678,0.000431,0.004466
140917000,0.0324,0.013523,0.002678,0.000431,0.004936
140918000,0.0324,0.013523,0.002678,0.000431,0.004701
140919000,0.0324,0.013523,0.002678,0.000431,0.004936
140920000,0.0324,0.013523,0.002678,0.000431,0.004936
140921000,0.0324,0.013523,0.002678,0.000431,0.004466
140922000,0.0324,0.013523,0.002678,0.000431,0.005171
140923000,0.0324,0.013523,0.002678,0.000431,0.004584
140924000,0.0324,0.013523,0.002678,0.000431,0.004936
140925000,0.0324,0.013523,0.002678,0.000431,0.004819
140926000,0.0324,0.013523,0.002678,0.000431,0.004701
140927000,0.0324,0.013523,0.002678,0.000431,0.005171
140928000,0.0324,0.013523,0.002678,0.000431,0.004584
140929000,0.0324,0.013523,0.002678,0.000431,0.004819
140930000,0.0324,0.013523,0.002678,0.000431,0.004936
140931000,0.0324,0.013523,0.002678,0.000431,0.004349
140932000,0.0324,0.013523,0.002678,0.000431,0.004936
140933000,0.0324,0.013523,0.002678,0.000431,0.005054
140934000,0.0324,0.013523,0.002678,0.000431,0.004701
140935000,0.0324,0.013523,0.002678,0.000431,0.004701
140936000,0.0324,0.013523,0.002678,0.000431,0.004819
140937000,0.0324,0.013523,0.002678,0.000431,0.004819
140938000,0.0324,0.013523,0.002678,0.000431,0.005171
140939000,0.0324,0.013523,0.002678,0.000431,0.004231
140940000,0.0324,0.013523,0.002678,0.000431,0.004936
140941000,0.0324,0.013523,0.002678,0.000431,0.005054
140942000,0.0324,0.013523,0.002678,0.000431,0.005054
140943000,0.0324,0.013523,0.002678,0.000431,0.004231
140944000,0.0324,0.013523,0.002678,0.000431,0.005054
140945000,0.0324,0.013523,0.002678,0.000431,0.004701
140946000,0.0324,0.013523,0.002678,0.000431,0.004936
140947000,0.0324,0.013523,0.002678,0.000431,0.004819
140948000,0.0324,0.013523,0.002678,0.000431,0.004701
140949000,0.0324,0.013523,0.002678,0.000431,0.004936
140950000,0.0324,0.013523,0.002678,0.000431,0.004584
140951000,0.0324,0.013523,0.002678,0.000431,0.004819
140952000,0.0324,0.013523,0.002678,0.000431,0.004936
140953000,0.0324,0.013523,0.002678,0.000431,0.004936
140954000,0.0324,0.013523,0.002678,0.000431,0.004466
140955000,0.0324,0.013523,0.002678,0.000431,0.005054
140956000,0.0324,0.013523,0.002678,0.000431,0.004936
140957000,0.0324,0.013523,0.002678,0.000431,0.004584
140958000,0.0324,0.013523,0.002678,0.000431,0.004936
140959000,0.0324,0.013523,0.002678,0.000431,0.004466
140960000,0.0324,0.013523,0.002678,0.000431,0.005406
140961000,0.0324,0.013523,0.002678,0.000431,0.004701
140962000,0.0324,0.013523,0.002678,0.000431,0.004701
140963000,0.0324,0.013523,0.002678,0.000431,0.004936
140964000,0.0324,0.013523,0.002678,0.000431,0.004701
140965000,0.0324,0.013523,0.002678,0.000431,0.004936
140966000,0.0324,0.013523,0.002678,0.000431,0.004466
140967000,0.0324,0.013523,0.002678,0.000431,0.005171
140968000,0.0324,0.013523,0.002678,0.000431,0.004466
140969000,0.0324,0.013523,0.002678,0.000431,0.004936
140970000,0.0324,0.013523,0.002678,0.000431,0.004701
140971000,0.0324,0.013523,0.002678,0.000431,0.005171
140972000,0.0324,0.013523,0.002678,0.000431,0.004466
140973000,0.0324,0.013523,0.002678,0.000431,0.004819
140974000,0.0324,0.013523,0.002678,0.000431,0.004701
140975000,0.0324,0.013523,0.002678,0.000431,0.005289
140976000,0.0324,0.013523,0.002678,0.000431,0.004701
140977000,0.0324,0.013523,0.002678,0.000431,0.004466
140978000,0.0324,0.013523,0.002678,0.000431,0.004936
140979000,0.0324,0.013523,0.002678,0.000431,0.004819
140980000,0.0324,0.013523,0.002678,0.000431,0.005054
140981000,0.0324,0.013523,0.002678,0.000431,0.004466
140982000,0.0324,0.013523,0.002678,0.000431,0.005171
140983000,0.0324,0.013523,0.002678,0.000431,0.004584
140984000,0.0324,0.013523,0.002678,0.000431,0.004819
140985000,0.0324,0.013523,0.002678,0.000431,0.005054
140986000,0.0324,0.013523,0.002678,0.000431,0.004584
140987000,0.0324,0.013523,0.002678,0.000431,0.004936
140988000,0.0324,0.013523,0.002678,0.000431,0.004584
140989000,0.0324,0.013523,0.002678,0.000431,0.004819
140990000,0.0324,0.013523,0.002678,0.000431,0.004936
140991000,0.0324,0.013523,0.002678,0.000431,0.004936
140992000,0.0324,0.013523,0.002678,0.000431,0.004466
140993000,0.0324,0.013523,0.002678,0.000431,0.005054
140994000,0.0324,0.013523,0.002678,0.000431,0.005054
140995000,0.0324,0.013523,0.002678,0.000431,0.004466
140996000,0.0324,0.013523,0.002678,0.000431,0.004936
140997000,0.0324,0.013523,0.002678,0.000431,0.004819
140998000,0.0324,0.013523,0.002678,0.000431,0.005054
140999000,0.0324,0.013523,0.002678,0.000431,0.004466
