Cycle,Area(mm^2),PeakDynamic(W),SubthresholdLeakage(W),GateLeakage(W),RunTimeDynamic(W)
112000000,0.0324,0.013523,0.002678,0.000431,0.002586
112001000,0.0324,0.013523,0.002678,0.000431,0.002468
112002000,0.0324,0.013523,0.002678,0.000431,0.002233
112003000,0.0324,0.013523,0.002678,0.000431,0.002586
112004000,0.0324,0.013523,0.002678,0.000431,0.002351
112005000,0.0324,0.013523,0.002678,0.000431,0.002468
112006000,0.0324,0.013523,0.002678,0.000431,0.002468
112007000,0.0324,0.013523,0.002678,0.000431,0.002351
112008000,0.0324,0.013523,0.002678,0.000431,0.002468
112009000,0.0324,0.013523,0.002678,0.000431,0.002351
112010000,0.0324,0.013523,0.002678,0.000431,0.002468
112011000,0.0324,0.013523,0.002678,0.000431,0.002586
112012000,0.0324,0.013523,0.002678,0.000431,0.002586
112013000,0.0324,0.013523,0.002678,0.000431,0.002116
112014000,0.0324,0.013523,0.002678,0.000431,0.002351
112015000,0.0324,0.013523,0.002678,0.000431,0.002821
112016000,0.0324,0.013523,0.002678,0.000431,0.002351
112017000,0.0324,0.013523,0.002678,0.000431,0.002116
112018000,0.0324,0.013523,0.002678,0.000431,0.002821
112019000,0.0324,0.013523,0.002678,0.000431,0.002351
112020000,0.0324,0.013523,0.002678,0.000431,0.002468
112021000,0.0324,0.013523,0.002678,0.000431,0.001998
112022000,0.0324,0.013523,0.002678,0.000431,0.002821
112023000,0.0324,0.013523,0.002678,0.000431,0.002468
112024000,0.0324,0.013523,0.002678,0.000431,0.002351
112025000,0.0324,0.013523,0.002678,0.000431,0.002468
112026000,0.0324,0.013523,0.002678,0.000431,0.002351
112027000,0.0324,0.013523,0.002678,0.000431,0.002468
112028000,0.0324,0.013523,0.002678,0.000431,0.002233
112029000,0.0324,0.013523,0.002678,0.000431,0.002586
112030000,0.0324,0.013523,0.002678,0.000431,0.002821
112031000,0.0324,0.013523,0.002678,0.000431,0.001998
112032000,0.0324,0.013523,0.002678,0.000431,0.002468
112033000,0.0324,0.013523,0.002678,0.000431,0.002351
112034000,0.0324,0.013523,0.002678,0.000431,0.002821
112035000,0.0324,0.013523,0.002678,0.000431,0.002468
112036000,0.0324,0.013523,0.002678,0.000431,0.001998
112037000,0.0324,0.013523,0.002678,0.000431,0.002821
112038000,0.0324,0.013523,0.002678,0.000431,0.002351
112039000,0.0324,0.013523,0.002678,0.000431,0.002468
112040000,0.0324,0.013523,0.002678,0.000431,0.002233
112041000,0.0324,0.013523,0.002678,0.000431,0.002586
112042000,0.0324,0.013523,0.002678,0.000431,0.002468
112043000,0.0324,0.013523,0.002678,0.000431,0.002351
112044000,0.0324,0.013523,0.002678,0.000431,0.002468
112045000,0.0324,0.013523,0.002678,0.000431,0.002351
112046000,0.0324,0.013523,0.002678,0.000431,0.002468
112047000,0.0324,0.013523,0.002678,0.000431,0.002468
112048000,0.0324,0.013523,0.002678,0.000431,0.002351
112049000,0.0324,0.013523,0.002678,0.000431,0.002821
112050000,0.0324,0.013523,0.002678,0.000431,0.001998
112051000,0.0324,0.013523,0.002678,0.000431,0.002468
112052000,0.0324,0.013523,0.002678,0.000431,0.002586
112053000,0.0324,0.013523,0.002678,0.000431,0.002586
112054000,0.0324,0.013523,0.002678,0.000431,0.002116
112055000,0.0324,0.013523,0.002678,0.000431,0.002351
112056000,0.0324,0.013523,0.002678,0.000431,0.002821
112057000,0.0324,0.013523,0.002678,0.000431,0.002351
112058000,0.0324,0.013523,0.002678,0.000431,0.002116
112059000,0.0324,0.013523,0.002678,0.000431,0.002821
112060000,0.0324,0.013523,0.002678,0.000431,0.002351
112061000,0.0324,0.013523,0.002678,0.000431,0.002468
112062000,0.0324,0.013523,0.002678,0.000431,0.002351
112063000,0.0324,0.013523,0.002678,0.000431,0.002468
112064000,0.0324,0.013523,0.002678,0.000431,0.002586
112065000,0.0324,0.013523,0.002678,0.000431,0.002233
112066000,0.0324,0.013523,0.002678,0.000431,0.002468
112067000,0.0324,0.013523,0.002678,0.000431,0.002351
112068000,0.0324,0.013523,0.002678,0.000431,0.002468
112069000,0.0324,0.013523,0.002678,0.000431,0.001998
112070000,0.0324,0.013523,0.002678,0.000431,0.002821
112071000,0.0324,0.013523,0.002678,0.000431,0.002116
112072000,0.0324,0.013523,0.002678,0.000431,0.002351
112073000,0.0324,0.013523,0.002678,0.000431,0.002468
112074000,0.0324,0.013523,0.002678,0.000431,0.001998
112075000,0.0324,0.013523,0.002678,0.000431,0.002468
112076000,0.0324,0.013523,0.002678,0.000431,0.002468
112077000,0.0324,0.013523,0.002678,0.000431,0.002351
112078000,0.0324,0.013523,0.002678,0.000431,0.002116
112079000,0.0324,0.013523,0.002678,0.000431,0.002351
112080000,0.0324,0.013523,0.002678,0.000431,0.002821
112081000,0.0324,0.013523,0.002678,0.000431,0.002468
112082000,0.0324,0.013523,0.002678,0.000431,0.002351
112083000,0.0324,0.013523,0.002678,0.000431,0.002468
112084000,0.0324,0.013523,0.002678,0.000431,0.002351
112085000,0.0324,0.013523,0.002678,0.000431,0.002468
112086000,0.0324,0.013523,0.002678,0.000431,0.002233
112087000,0.0324,0.013523,0.002678,0.000431,0.002586
112088000,0.0324,0.013523,0.002678,0.000431,0.002468
112089000,0.0324,0.013523,0.002678,0.000431,0.002233
112090000,0.0324,0.013523,0.002678,0.000431,0.001880
112091000,0.0324,0.013523,0.002678,0.000431,0.001880
112092000,0.0324,0.013523,0.002678,0.000431,0.001880
112093000,0.0324,0.013523,0.002678,0.000431,0.002351
112094000,0.0324,0.013523,0.002678,0.000431,0.002821
112095000,0.0324,0.013523,0.002678,0.000431,0.002233
112096000,0.0324,0.013523,0.002678,0.000431,0.002233
112097000,0.0324,0.013523,0.002678,0.000431,0.002586
112098000,0.0324,0.013523,0.002678,0.000431,0.002586
112099000,0.0324,0.013523,0.002678,0.000431,0.002468
112100000,0.0324,0.013523,0.002678,0.000431,0.001998
112101000,0.0324,0.013523,0.002678,0.000431,0.002821
112102000,0.0324,0.013523,0.002678,0.000431,0.002351
112103000,0.0324,0.013523,0.002678,0.000431,0.026444
112104000,0.0324,0.013523,0.002678,0.000431,0.585408
112105000,0.0324,0.013523,0.002678,0.000431,0.594222
112106000,0.0324,0.013523,0.002678,0.000431,0.136098
112107000,0.0324,0.013523,0.002678,0.000431,0.136333
112108000,0.0324,0.013523,0.002678,0.000431,0.560609
112109000,0.0324,0.013523,0.002678,0.000431,0.249512
112110000,0.0324,0.013523,0.002678,0.000431,0.309217
112111000,0.0324,0.013523,0.002678,0.000431,0.307454
112112000,0.0324,0.013523,0.002678,0.000431,0.157605
112113000,0.0324,0.013523,0.002678,0.000431,0.154079
112114000,0.0324,0.013523,0.002678,0.000431,0.138683
112115000,0.0324,0.013523,0.002678,0.000431,0.455774
112116000,0.0324,0.013523,0.002678,0.000431,0.101897
112117000,0.0324,0.013523,0.002678,0.000431,0.075453
112118000,0.0324,0.013523,0.002678,0.000431,0.057236
112119000,0.0324,0.013523,0.002678,0.000431,0.057824
112120000,0.0324,0.013523,0.002678,0.000431,0.043485
112121000,0.0324,0.013523,0.002678,0.000431,0.048069
112122000,0.0324,0.013523,0.002678,0.000431,0.035964
112123000,0.0324,0.013523,0.002678,0.000431,0.032673
112124000,0.0324,0.013523,0.002678,0.000431,0.033496
112125000,0.0324,0.013523,0.002678,0.000431,0.024093
112126000,0.0324,0.013523,0.002678,0.000431,0.020802
112127000,0.0324,0.013523,0.002678,0.000431,0.016924
112128000,0.0324,0.013523,0.002678,0.000431,0.017747
112129000,0.0324,0.013523,0.002678,0.000431,0.018217
112130000,0.0324,0.013523,0.002678,0.000431,0.021508
112131000,0.0324,0.013523,0.002678,0.000431,0.012811
112132000,0.0324,0.013523,0.002678,0.000431,0.012576
112133000,0.0324,0.013523,0.002678,0.000431,0.012576
112134000,0.0324,0.013523,0.002678,0.000431,0.013163
112135000,0.0324,0.013523,0.002678,0.000431,0.010930
112136000,0.0324,0.013523,0.002678,0.000431,0.011400
112137000,0.0324,0.013523,0.002678,0.000431,0.011870
112138000,0.0324,0.013523,0.002678,0.000431,0.008815
112139000,0.0324,0.013523,0.002678,0.000431,0.008815
112140000,0.0324,0.013523,0.002678,0.000431,0.007757
112141000,0.0324,0.013523,0.002678,0.000431,0.005759
112142000,0.0324,0.013523,0.002678,0.000431,0.009637
112143000,0.0324,0.013523,0.002678,0.000431,0.005171
112144000,0.0324,0.013523,0.002678,0.000431,0.006817
112145000,0.0324,0.013523,0.002678,0.000431,0.007992
112146000,0.0324,0.013523,0.002678,0.000431,0.004113
112147000,0.0324,0.013523,0.002678,0.000431,0.003878
112148000,0.0324,0.013523,0.002678,0.000431,0.004349
112149000,0.0324,0.013523,0.002678,0.000431,0.003408
112150000,0.0324,0.013523,0.002678,0.000431,0.001528
112151000,0.0324,0.013523,0.002678,0.000431,0.002938
112152000,0.0324,0.013523,0.002678,0.000431,0.000823
112153000,0.0324,0.013523,0.002678,0.000431,0.071927
112154000,0.0324,0.013523,0.002678,0.000431,0.526761
112155000,0.0324,0.013523,0.002678,0.000431,0.597396
112156000,0.0324,0.013523,0.002678,0.000431,0.132102
112157000,0.0324,0.013523,0.002678,0.000431,0.138448
112158000,0.0324,0.013523,0.002678,0.000431,0.603625
112159000,0.0324,0.013523,0.002678,0.000431,0.269257
112160000,0.0324,0.013523,0.002678,0.000431,0.279482
112161000,0.0324,0.013523,0.002678,0.000431,0.282185
112162000,0.0324,0.013523,0.002678,0.000431,0.137038
112163000,0.0324,0.013523,0.002678,0.000431,0.152552
112164000,0.0324,0.013523,0.002678,0.000431,0.166302
112165000,0.0324,0.013523,0.002678,0.000431,0.416755
112166000,0.0324,0.013523,0.002678,0.000431,0.073925
112167000,0.0324,0.013523,0.002678,0.000431,0.056649
112168000,0.0324,0.013523,0.002678,0.000431,0.045601
112169000,0.0324,0.013523,0.002678,0.000431,0.042780
112170000,0.0324,0.013523,0.002678,0.000431,0.031733
112171000,0.0324,0.013523,0.002678,0.000431,0.028324
112172000,0.0324,0.013523,0.002678,0.000431,0.025739
112173000,0.0324,0.013523,0.002678,0.000431,0.024681
112174000,0.0324,0.013523,0.002678,0.000431,0.024798
112175000,0.0324,0.013523,0.002678,0.000431,0.021390
112176000,0.0324,0.013523,0.002678,0.000431,0.021625
112177000,0.0324,0.013523,0.002678,0.000431,0.019040
112178000,0.0324,0.013523,0.002678,0.000431,0.018805
112179000,0.0324,0.013523,0.002678,0.000431,0.018452
112180000,0.0324,0.013523,0.002678,0.000431,0.016336
112181000,0.0324,0.013523,0.002678,0.000431,0.018687
112182000,0.0324,0.013523,0.002678,0.000431,0.015631
112183000,0.0324,0.013523,0.002678,0.000431,0.013281
112184000,0.0324,0.013523,0.002678,0.000431,0.014809
112185000,0.0324,0.013523,0.002678,0.000431,0.014456
112186000,0.0324,0.013523,0.002678,0.000431,0.011283
112187000,0.0324,0.013523,0.002678,0.000431,0.013281
112188000,0.0324,0.013523,0.002678,0.000431,0.011283
112189000,0.0324,0.013523,0.002678,0.000431,0.016689
112190000,0.0324,0.013523,0.002678,0.000431,0.010107
112191000,0.0324,0.013523,0.002678,0.000431,0.010930
112192000,0.0324,0.013523,0.002678,0.000431,0.010578
112193000,0.0324,0.013523,0.002678,0.000431,0.012576
112194000,0.0324,0.013523,0.002678,0.000431,0.008815
112195000,0.0324,0.013523,0.002678,0.000431,0.010107
112196000,0.0324,0.013523,0.002678,0.000431,0.009167
112197000,0.0324,0.013523,0.002678,0.000431,0.011165
112198000,0.0324,0.013523,0.002678,0.000431,0.010342
112199000,0.0324,0.013523,0.002678,0.000431,0.008462
112200000,0.0324,0.013523,0.002678,0.000431,0.008932
112201000,0.0324,0.013523,0.002678,0.000431,0.008697
112202000,0.0324,0.013523,0.002678,0.000431,0.008815
112203000,0.0324,0.013523,0.002678,0.000431,0.009050
112204000,0.0324,0.013523,0.002678,0.000431,0.008345
112205000,0.0324,0.013523,0.002678,0.000431,0.010342
112206000,0.0324,0.013523,0.002678,0.000431,0.009285
112207000,0.0324,0.013523,0.002678,0.000431,0.007874
112208000,0.0324,0.013523,0.002678,0.000431,0.008697
112209000,0.0324,0.013523,0.002678,0.000431,0.006817
112210000,0.0324,0.013523,0.002678,0.000431,0.008580
112211000,0.0324,0.013523,0.002678,0.000431,0.007052
112212000,0.0324,0.013523,0.002678,0.000431,0.007404
112213000,0.0324,0.013523,0.002678,0.000431,0.007169
112214000,0.0324,0.013523,0.002678,0.000431,0.006934
112215000,0.0324,0.013523,0.002678,0.000431,0.007052
112216000,0.0324,0.013523,0.002678,0.000431,0.007874
112217000,0.0324,0.013523,0.002678,0.000431,0.006934
112218000,0.0324,0.013523,0.002678,0.000431,0.007522
112219000,0.0324,0.013523,0.002678,0.000431,0.006582
112220000,0.0324,0.013523,0.002678,0.000431,0.007757
112221000,0.0324,0.013523,0.002678,0.000431,0.007052
112222000,0.0324,0.013523,0.002678,0.000431,0.007052
112223000,0.0324,0.013523,0.002678,0.000431,0.007757
112224000,0.0324,0.013523,0.002678,0.000431,0.006817
112225000,0.0324,0.013523,0.002678,0.000431,0.007522
112226000,0.0324,0.013523,0.002678,0.000431,0.007169
112227000,0.0324,0.013523,0.002678,0.000431,0.006934
112228000,0.0324,0.013523,0.002678,0.000431,0.007639
112229000,0.0324,0.013523,0.002678,0.000431,0.007169
112230000,0.0324,0.013523,0.002678,0.000431,0.007052
112231000,0.0324,0.013523,0.002678,0.000431,0.007757
112232000,0.0324,0.013523,0.002678,0.000431,0.006464
112233000,0.0324,0.013523,0.002678,0.000431,0.007992
112234000,0.0324,0.013523,0.002678,0.000431,0.007404
112235000,0.0324,0.013523,0.002678,0.000431,0.006817
112236000,0.0324,0.013523,0.002678,0.000431,0.007522
112237000,0.0324,0.013523,0.002678,0.000431,0.007404
112238000,0.0324,0.013523,0.002678,0.000431,0.007757
112239000,0.0324,0.013523,0.002678,0.000431,0.006229
112240000,0.0324,0.013523,0.002678,0.000431,0.006229
112241000,0.0324,0.013523,0.002678,0.000431,0.006699
112242000,0.0324,0.013523,0.002678,0.000431,0.006111
112243000,0.0324,0.013523,0.002678,0.000431,0.006347
112244000,0.0324,0.013523,0.002678,0.000431,0.007757
112245000,0.0324,0.013523,0.002678,0.000431,0.005406
112246000,0.0324,0.013523,0.002678,0.000431,0.005759
112247000,0.0324,0.013523,0.002678,0.000431,0.005171
112248000,0.0324,0.013523,0.002678,0.000431,0.005641
112249000,0.0324,0.013523,0.002678,0.000431,0.005524
112250000,0.0324,0.013523,0.002678,0.000431,0.005876
112251000,0.0324,0.013523,0.002678,0.000431,0.005524
112252000,0.0324,0.013523,0.002678,0.000431,0.005289
112253000,0.0324,0.013523,0.002678,0.000431,0.005876
112254000,0.0324,0.013523,0.002678,0.000431,0.005171
112255000,0.0324,0.013523,0.002678,0.000431,0.006347
112256000,0.0324,0.013523,0.002678,0.000431,0.004584
112257000,0.0324,0.013523,0.002678,0.000431,0.006111
112258000,0.0324,0.013523,0.002678,0.000431,0.005876
112259000,0.0324,0.013523,0.002678,0.000431,0.005171
112260000,0.0324,0.013523,0.002678,0.000431,0.005876
112261000,0.0324,0.013523,0.002678,0.000431,0.005171
112262000,0.0324,0.013523,0.002678,0.000431,0.005759
112263000,0.0324,0.013523,0.002678,0.000431,0.005641
112264000,0.0324,0.013523,0.002678,0.000431,0.004819
112265000,0.0324,0.013523,0.002678,0.000431,0.005406
112266000,0.0324,0.013523,0.002678,0.000431,0.005641
112267000,0.0324,0.013523,0.002678,0.000431,0.005289
112268000,0.0324,0.013523,0.002678,0.000431,0.005876
112269000,0.0324,0.013523,0.002678,0.000431,0.005641
112270000,0.0324,0.013523,0.002678,0.000431,0.005289
112271000,0.0324,0.013523,0.002678,0.000431,0.006111
112272000,0.0324,0.013523,0.002678,0.000431,0.004819
112273000,0.0324,0.013523,0.002678,0.000431,0.006229
112274000,0.0324,0.013523,0.002678,0.000431,0.005759
112275000,0.0324,0.013523,0.002678,0.000431,0.005289
112276000,0.0324,0.013523,0.002678,0.000431,0.005641
112277000,0.0324,0.013523,0.002678,0.000431,0.005289
112278000,0.0324,0.013523,0.002678,0.000431,0.005641
112279000,0.0324,0.013523,0.002678,0.000431,0.005994
112280000,0.0324,0.013523,0.002678,0.000431,0.005054
112281000,0.0324,0.013523,0.002678,0.000431,0.005759
112282000,0.0324,0.013523,0.002678,0.000431,0.005054
112283000,0.0324,0.013523,0.002678,0.000431,0.005876
112284000,0.0324,0.013523,0.002678,0.000431,0.006347
112285000,0.0324,0.013523,0.002678,0.000431,0.005054
112286000,0.0324,0.013523,0.002678,0.000431,0.005406
112287000,0.0324,0.013523,0.002678,0.000431,0.005524
112288000,0.0324,0.013523,0.002678,0.000431,0.004466
112289000,0.0324,0.013523,0.002678,0.000431,0.005054
112290000,0.0324,0.013523,0.002678,0.000431,0.005876
112291000,0.0324,0.013523,0.002678,0.000431,0.005289
112292000,0.0324,0.013523,0.002678,0.000431,0.005524
112293000,0.0324,0.013523,0.002678,0.000431,0.005524
112294000,0.0324,0.013523,0.002678,0.000431,0.004936
112295000,0.0324,0.013523,0.002678,0.000431,0.005289
112296000,0.0324,0.013523,0.002678,0.000431,0.004701
112297000,0.0324,0.013523,0.002678,0.000431,0.006347
112298000,0.0324,0.013523,0.002678,0.000431,0.004113
112299000,0.0324,0.013523,0.002678,0.000431,0.003878
112300000,0.0324,0.013523,0.002678,0.000431,0.003878
112301000,0.0324,0.013523,0.002678,0.000431,0.003878
112302000,0.0324,0.013523,0.002678,0.000431,0.004231
112303000,0.0324,0.013523,0.002678,0.000431,0.003878
112304000,0.0324,0.013523,0.002678,0.000431,0.003878
112305000,0.0324,0.013523,0.002678,0.000431,0.003878
112306000,0.0324,0.013523,0.002678,0.000431,0.006464
112307000,0.0324,0.013523,0.002678,0.000431,0.003173
112308000,0.0324,0.013523,0.002678,0.000431,0.003526
112309000,0.0324,0.013523,0.002678,0.000431,0.003291
112310000,0.0324,0.013523,0.002678,0.000431,0.002938
112311000,0.0324,0.013523,0.002678,0.000431,0.003173
112312000,0.0324,0.013523,0.002678,0.000431,0.003643
112313000,0.0324,0.013523,0.002678,0.000431,0.003291
112314000,0.0324,0.013523,0.002678,0.000431,0.002821
112315000,0.0324,0.013523,0.002678,0.000431,0.003173
112316000,0.0324,0.013523,0.002678,0.000431,0.003291
112317000,0.0324,0.013523,0.002678,0.000431,0.002586
112318000,0.0324,0.013523,0.002678,0.000431,0.003761
112319000,0.0324,0.013523,0.002678,0.000431,0.002703
112320000,0.0324,0.013523,0.002678,0.000431,0.003408
112321000,0.0324,0.013523,0.002678,0.000431,0.003526
112322000,0.0324,0.013523,0.002678,0.000431,0.001528
112323000,0.0324,0.013523,0.002678,0.000431,0.001763
112324000,0.0324,0.013523,0.002678,0.000431,0.001645
112325000,0.0324,0.013523,0.002678,0.000431,0.001645
112326000,0.0324,0.013523,0.002678,0.000431,0.003643
112327000,0.0324,0.013523,0.002678,0.000431,0.000823
112328000,0.0324,0.013523,0.002678,0.000431,0.000823
112329000,0.0324,0.013523,0.002678,0.000431,0.000940
112330000,0.0324,0.013523,0.002678,0.000431,0.000823
112331000,0.0324,0.013523,0.002678,0.000431,0.001763
112332000,0.0324,0.013523,0.002678,0.000431,0.358343
112333000,0.0324,0.013523,0.002678,0.000431,0.682134
112334000,0.0324,0.013523,0.002678,0.000431,0.156195
112335000,0.0324,0.013523,0.002678,0.000431,0.133159
112336000,0.0324,0.013523,0.002678,0.000431,0.153374
112337000,0.0324,0.013523,0.002678,0.000431,0.651224
112338000,0.0324,0.013523,0.002678,0.000431,0.246104
112339000,0.0324,0.013523,0.002678,0.000431,0.271725
112340000,0.0324,0.013523,0.002678,0.000431,0.230708
112341000,0.0324,0.013523,0.002678,0.000431,0.136568
112342000,0.0324,0.013523,0.002678,0.000431,0.155490
112343000,0.0324,0.013523,0.002678,0.000431,0.148438
112344000,0.0324,0.013523,0.002678,0.000431,0.460005
112345000,0.0324,0.013523,0.002678,0.000431,0.131749
112346000,0.0324,0.013523,0.002678,0.000431,0.101779
112347000,0.0324,0.013523,0.002678,0.000431,0.088264
112348000,0.0324,0.013523,0.002678,0.000431,0.074630
112349000,0.0324,0.013523,0.002678,0.000431,0.059704
112350000,0.0324,0.013523,0.002678,0.000431,0.058999
112351000,0.0324,0.013523,0.002678,0.000431,0.041840
112352000,0.0324,0.013523,0.002678,0.000431,0.036199
112353000,0.0324,0.013523,0.002678,0.000431,0.033731
112354000,0.0324,0.013523,0.002678,0.000431,0.030557
112355000,0.0324,0.013523,0.002678,0.000431,0.022800
112356000,0.0324,0.013523,0.002678,0.000431,0.020685
112357000,0.0324,0.013523,0.002678,0.000431,0.020215
112358000,0.0324,0.013523,0.002678,0.000431,0.023858
112359000,0.0324,0.013523,0.002678,0.000431,0.016571
112360000,0.0324,0.013523,0.002678,0.000431,0.018805
112361000,0.0324,0.013523,0.002678,0.000431,0.014809
112362000,0.0324,0.013523,0.002678,0.000431,0.009520
112363000,0.0324,0.013523,0.002678,0.000431,0.009990
112364000,0.0324,0.013523,0.002678,0.000431,0.010460
112365000,0.0324,0.013523,0.002678,0.000431,0.010578
112366000,0.0324,0.013523,0.002678,0.000431,0.011048
112367000,0.0324,0.013523,0.002678,0.000431,0.007169
112368000,0.0324,0.013523,0.002678,0.000431,0.008109
112369000,0.0324,0.013523,0.002678,0.000431,0.007287
112370000,0.0324,0.013523,0.002678,0.000431,0.007639
112371000,0.0324,0.013523,0.002678,0.000431,0.007404
112372000,0.0324,0.013523,0.002678,0.000431,0.007757
112373000,0.0324,0.013523,0.002678,0.000431,0.007169
112374000,0.0324,0.013523,0.002678,0.000431,0.007522
112375000,0.0324,0.013523,0.002678,0.000431,0.007992
112376000,0.0324,0.013523,0.002678,0.000431,0.007169
112377000,0.0324,0.013523,0.002678,0.000431,0.007992
112378000,0.0324,0.013523,0.002678,0.000431,0.007287
112379000,0.0324,0.013523,0.002678,0.000431,0.007874
112380000,0.0324,0.013523,0.002678,0.000431,0.007639
112381000,0.0324,0.013523,0.002678,0.000431,0.006582
112382000,0.0324,0.013523,0.002678,0.000431,0.007052
112383000,0.0324,0.013523,0.002678,0.000431,0.006582
112384000,0.0324,0.013523,0.002678,0.000431,0.007169
112385000,0.0324,0.013523,0.002678,0.000431,0.006699
112386000,0.0324,0.013523,0.002678,0.000431,0.006934
112387000,0.0324,0.013523,0.002678,0.000431,0.006934
112388000,0.0324,0.013523,0.002678,0.000431,0.007169
112389000,0.0324,0.013523,0.002678,0.000431,0.006229
112390000,0.0324,0.013523,0.002678,0.000431,0.007287
112391000,0.0324,0.013523,0.002678,0.000431,0.009402
112392000,0.0324,0.013523,0.002678,0.000431,0.007169
112393000,0.0324,0.013523,0.002678,0.000431,0.004466
112394000,0.0324,0.013523,0.002678,0.000431,0.004349
112395000,0.0324,0.013523,0.002678,0.000431,0.006464
112396000,0.0324,0.013523,0.002678,0.000431,0.003526
112397000,0.0324,0.013523,0.002678,0.000431,0.003408
112398000,0.0324,0.013523,0.002678,0.000431,0.003408
112399000,0.0324,0.013523,0.002678,0.000431,0.003526
112400000,0.0324,0.013523,0.002678,0.000431,0.003408
112401000,0.0324,0.013523,0.002678,0.000431,0.003408
112402000,0.0324,0.013523,0.002678,0.000431,0.003408
112403000,0.0324,0.013523,0.002678,0.000431,0.003408
112404000,0.0324,0.013523,0.002678,0.000431,0.003526
112405000,0.0324,0.013523,0.002678,0.000431,0.003408
112406000,0.0324,0.013523,0.002678,0.000431,0.003408
112407000,0.0324,0.013523,0.002678,0.000431,0.003408
112408000,0.0324,0.013523,0.002678,0.000431,0.003526
112409000,0.0324,0.013523,0.002678,0.000431,0.003408
112410000,0.0324,0.013523,0.002678,0.000431,0.003408
112411000,0.0324,0.013523,0.002678,0.000431,0.004701
112412000,0.0324,0.013523,0.002678,0.000431,0.002586
112413000,0.0324,0.013523,0.002678,0.000431,0.002586
112414000,0.0324,0.013523,0.002678,0.000431,0.002233
112415000,0.0324,0.013523,0.002678,0.000431,0.002703
112416000,0.0324,0.013523,0.002678,0.000431,0.002703
112417000,0.0324,0.013523,0.002678,0.000431,0.002351
112418000,0.0324,0.013523,0.002678,0.000431,0.002586
112419000,0.0324,0.013523,0.002678,0.000431,0.002586
112420000,0.0324,0.013523,0.002678,0.000431,0.002703
112421000,0.0324,0.013523,0.002678,0.000431,0.002468
112422000,0.0324,0.013523,0.002678,0.000431,0.002351
112423000,0.0324,0.013523,0.002678,0.000431,0.002821
112424000,0.0324,0.013523,0.002678,0.000431,0.002468
112425000,0.0324,0.013523,0.002678,0.000431,0.002586
112426000,0.0324,0.013523,0.002678,0.000431,0.004466
112427000,0.0324,0.013523,0.002678,0.000431,0.001645
112428000,0.0324,0.013523,0.002678,0.000431,0.001880
112429000,0.0324,0.013523,0.002678,0.000431,0.001528
112430000,0.0324,0.013523,0.002678,0.000431,0.001763
112431000,0.0324,0.013523,0.002678,0.000431,0.001880
112432000,0.0324,0.013523,0.002678,0.000431,0.001645
112433000,0.0324,0.013523,0.002678,0.000431,0.001645
112434000,0.0324,0.013523,0.002678,0.000431,0.001763
112435000,0.0324,0.013523,0.002678,0.000431,0.001763
112436000,0.0324,0.013523,0.002678,0.000431,0.001645
112437000,0.0324,0.013523,0.002678,0.000431,0.001645
112438000,0.0324,0.013523,0.002678,0.000431,0.001763
112439000,0.0324,0.013523,0.002678,0.000431,0.001645
112440000,0.0324,0.013523,0.002678,0.000431,0.001880
112441000,0.0324,0.013523,0.002678,0.000431,0.001528
112442000,0.0324,0.013523,0.002678,0.000431,0.001880
112443000,0.0324,0.013523,0.002678,0.000431,0.001645
112444000,0.0324,0.013523,0.002678,0.000431,0.001645
112445000,0.0324,0.013523,0.002678,0.000431,0.001645
112446000,0.0324,0.013523,0.002678,0.000431,0.001880
112447000,0.0324,0.013523,0.002678,0.000431,0.001763
112448000,0.0324,0.013523,0.002678,0.000431,0.001528
112449000,0.0324,0.013523,0.002678,0.000431,0.001880
112450000,0.0324,0.013523,0.002678,0.000431,0.001645
112451000,0.0324,0.013523,0.002678,0.000431,0.001528
112452000,0.0324,0.013523,0.002678,0.000431,0.001763
112453000,0.0324,0.013523,0.002678,0.000431,0.001880
112454000,0.0324,0.013523,0.002678,0.000431,0.001763
112455000,0.0324,0.013523,0.002678,0.000431,0.001645
112456000,0.0324,0.013523,0.002678,0.000431,0.002586
112457000,0.0324,0.013523,0.002678,0.000431,0.002116
112458000,0.0324,0.013523,0.002678,0.000431,0.000823
112459000,0.0324,0.013523,0.002678,0.000431,0.000940
112460000,0.0324,0.013523,0.002678,0.000431,0.000823
112461000,0.0324,0.013523,0.002678,0.000431,0.000940
112462000,0.0324,0.013523,0.002678,0.000431,0.000823
112463000,0.0324,0.013523,0.002678,0.000431,0.000823
112464000,0.0324,0.013523,0.002678,0.000431,0.000940
112465000,0.0324,0.013523,0.002678,0.000431,0.000940
112466000,0.0324,0.013523,0.002678,0.000431,0.000823
112467000,0.0324,0.013523,0.002678,0.000431,0.000823
112468000,0.0324,0.013523,0.002678,0.000431,0.000940
112469000,0.0324,0.013523,0.002678,0.000431,0.000940
112470000,0.0324,0.013523,0.002678,0.000431,0.000705
112471000,0.0324,0.013523,0.002678,0.000431,0.000940
112472000,0.0324,0.013523,0.002678,0.000431,0.000940
112473000,0.0324,0.013523,0.002678,0.000431,0.000940
112474000,0.0324,0.013523,0.002678,0.000431,0.000705
112475000,0.0324,0.013523,0.002678,0.000431,0.000940
112476000,0.0324,0.013523,0.002678,0.000431,0.000940
112477000,0.0324,0.013523,0.002678,0.000431,0.000823
112478000,0.0324,0.013523,0.002678,0.000431,0.000823
112479000,0.0324,0.013523,0.002678,0.000431,0.000940
112480000,0.0324,0.013523,0.002678,0.000431,0.000940
112481000,0.0324,0.013523,0.002678,0.000431,0.000823
112482000,0.0324,0.013523,0.002678,0.000431,0.000823
112483000,0.0324,0.013523,0.002678,0.000431,0.000940
112484000,0.0324,0.013523,0.002678,0.000431,0.000823
112485000,0.0324,0.013523,0.002678,0.000431,0.000823
112486000,0.0324,0.013523,0.002678,0.000431,0.000940
112487000,0.0324,0.013523,0.002678,0.000431,0.000940
112488000,0.0324,0.013523,0.002678,0.000431,0.000940
112489000,0.0324,0.013523,0.002678,0.000431,0.000705
112490000,0.0324,0.013523,0.002678,0.000431,0.000940
112491000,0.0324,0.013523,0.002678,0.000431,0.000940
112492000,0.0324,0.013523,0.002678,0.000431,0.000823
112493000,0.0324,0.013523,0.002678,0.000431,0.000823
112494000,0.0324,0.013523,0.002678,0.000431,0.000940
112495000,0.0324,0.013523,0.002678,0.000431,0.000940
112496000,0.0324,0.013523,0.002678,0.000431,0.000823
112497000,0.0324,0.013523,0.002678,0.000431,0.000823
112498000,0.0324,0.013523,0.002678,0.000431,0.000940
112499000,0.0324,0.013523,0.002678,0.000431,0.000823
112500000,0.0324,0.013523,0.002678,0.000431,0.000940
112501000,0.0324,0.013523,0.002678,0.000431,0.000823
112502000,0.0324,0.013523,0.002678,0.000431,0.000940
112503000,0.0324,0.013523,0.002678,0.000431,0.000823
112504000,0.0324,0.013523,0.002678,0.000431,0.000823
112505000,0.0324,0.013523,0.002678,0.000431,0.000940
112506000,0.0324,0.013523,0.002678,0.000431,0.000940
112507000,0.0324,0.013523,0.002678,0.000431,0.000823
112508000,0.0324,0.013523,0.002678,0.000431,0.000823
112509000,0.0324,0.013523,0.002678,0.000431,0.000940
112510000,0.0324,0.013523,0.002678,0.000431,0.000940
112511000,0.0324,0.013523,0.002678,0.000431,0.000705
112512000,0.0324,0.013523,0.002678,0.000431,0.000940
112513000,0.0324,0.013523,0.002678,0.000431,0.000940
112514000,0.0324,0.013523,0.002678,0.000431,0.000940
112515000,0.0324,0.013523,0.002678,0.000431,0.000823
112516000,0.0324,0.013523,0.002678,0.000431,0.000823
112517000,0.0324,0.013523,0.002678,0.000431,0.000940
112518000,0.0324,0.013523,0.002678,0.000431,0.000823
112519000,0.0324,0.013523,0.002678,0.000431,0.014338
112520000,0.0324,0.013523,0.002678,0.000431,0.575771
112521000,0.0324,0.013523,0.002678,0.000431,0.600922
112522000,0.0324,0.013523,0.002678,0.000431,0.133512
112523000,0.0324,0.013523,0.002678,0.000431,0.133042
112524000,0.0324,0.013523,0.002678,0.000431,0.430036
112525000,0.0324,0.013523,0.002678,0.000431,0.315681
112526000,0.0324,0.013523,0.002678,0.000431,0.229533
112527000,0.0324,0.013523,0.002678,0.000431,0.290647
112528000,0.0324,0.013523,0.002678,0.000431,0.180053
112529000,0.0324,0.013523,0.002678,0.000431,0.144442
112530000,0.0324,0.013523,0.002678,0.000431,0.173354
112531000,0.0324,0.013523,0.002678,0.000431,0.127636
112532000,0.0324,0.013523,0.002678,0.000431,0.467997
112533000,0.0324,0.013523,0.002678,0.000431,0.124345
112534000,0.0324,0.013523,0.002678,0.000431,0.086148
112535000,0.0324,0.013523,0.002678,0.000431,0.068754
112536000,0.0324,0.013523,0.002678,0.000431,0.056649
112537000,0.0324,0.013523,0.002678,0.000431,0.046659
112538000,0.0324,0.013523,0.002678,0.000431,0.049362
112539000,0.0324,0.013523,0.002678,0.000431,0.038667
112540000,0.0324,0.013523,0.002678,0.000431,0.039019
112541000,0.0324,0.013523,0.002678,0.000431,0.031850
112542000,0.0324,0.013523,0.002678,0.000431,0.032320
112543000,0.0324,0.013523,0.002678,0.000431,0.024211
112544000,0.0324,0.013523,0.002678,0.000431,0.025621
112545000,0.0324,0.013523,0.002678,0.000431,0.022800
112546000,0.0324,0.013523,0.002678,0.000431,0.024328
112547000,0.0324,0.013523,0.002678,0.000431,0.023858
112548000,0.0324,0.013523,0.002678,0.000431,0.025504
112549000,0.0324,0.013523,0.002678,0.000431,0.016807
112550000,0.0324,0.013523,0.002678,0.000431,0.017629
112551000,0.0324,0.013523,0.002678,0.000431,0.013281
112552000,0.0324,0.013523,0.002678,0.000431,0.014691
112553000,0.0324,0.013523,0.002678,0.000431,0.015749
112554000,0.0324,0.013523,0.002678,0.000431,0.012458
112555000,0.0324,0.013523,0.002678,0.000431,0.012458
112556000,0.0324,0.013523,0.002678,0.000431,0.011870
112557000,0.0324,0.013523,0.002678,0.000431,0.012105
112558000,0.0324,0.013523,0.002678,0.000431,0.014338
112559000,0.0324,0.013523,0.002678,0.000431,0.011753
112560000,0.0324,0.013523,0.002678,0.000431,0.014221
112561000,0.0324,0.013523,0.002678,0.000431,0.011870
112562000,0.0324,0.013523,0.002678,0.000431,0.011400
112563000,0.0324,0.013523,0.002678,0.000431,0.008815
112564000,0.0324,0.013523,0.002678,0.000431,0.008932
112565000,0.0324,0.013523,0.002678,0.000431,0.011635
112566000,0.0324,0.013523,0.002678,0.000431,0.007992
112567000,0.0324,0.013523,0.002678,0.000431,0.007992
112568000,0.0324,0.013523,0.002678,0.000431,0.008109
112569000,0.0324,0.013523,0.002678,0.000431,0.008462
112570000,0.0324,0.013523,0.002678,0.000431,0.008109
112571000,0.0324,0.013523,0.002678,0.000431,0.008345
112572000,0.0324,0.013523,0.002678,0.000431,0.007992
112573000,0.0324,0.013523,0.002678,0.000431,0.008697
112574000,0.0324,0.013523,0.002678,0.000431,0.008462
112575000,0.0324,0.013523,0.002678,0.000431,0.008109
112576000,0.0324,0.013523,0.002678,0.000431,0.008462
112577000,0.0324,0.013523,0.002678,0.000431,0.008109
112578000,0.0324,0.013523,0.002678,0.000431,0.008345
112579000,0.0324,0.013523,0.002678,0.000431,0.008697
112580000,0.0324,0.013523,0.002678,0.000431,0.008227
112581000,0.0324,0.013523,0.002678,0.000431,0.009755
112582000,0.0324,0.013523,0.002678,0.000431,0.007287
112583000,0.0324,0.013523,0.002678,0.000431,0.007639
112584000,0.0324,0.013523,0.002678,0.000431,0.007757
112585000,0.0324,0.013523,0.002678,0.000431,0.007287
112586000,0.0324,0.013523,0.002678,0.000431,0.007404
112587000,0.0324,0.013523,0.002678,0.000431,0.007757
112588000,0.0324,0.013523,0.002678,0.000431,0.007992
112589000,0.0324,0.013523,0.002678,0.000431,0.007404
112590000,0.0324,0.013523,0.002678,0.000431,0.006817
112591000,0.0324,0.013523,0.002678,0.000431,0.006934
112592000,0.0324,0.013523,0.002678,0.000431,0.008932
112593000,0.0324,0.013523,0.002678,0.000431,0.006229
112594000,0.0324,0.013523,0.002678,0.000431,0.005759
112595000,0.0324,0.013523,0.002678,0.000431,0.005994
112596000,0.0324,0.013523,0.002678,0.000431,0.006229
112597000,0.0324,0.013523,0.002678,0.000431,0.005876
112598000,0.0324,0.013523,0.002678,0.000431,0.006111
112599000,0.0324,0.013523,0.002678,0.000431,0.005876
112600000,0.0324,0.013523,0.002678,0.000431,0.006111
112601000,0.0324,0.013523,0.002678,0.000431,0.006229
112602000,0.0324,0.013523,0.002678,0.000431,0.005876
112603000,0.0324,0.013523,0.002678,0.000431,0.006111
112604000,0.0324,0.013523,0.002678,0.000431,0.005876
112605000,0.0324,0.013523,0.002678,0.000431,0.005994
112606000,0.0324,0.013523,0.002678,0.000431,0.006229
112607000,0.0324,0.013523,0.002678,0.000431,0.006111
112608000,0.0324,0.013523,0.002678,0.000431,0.005876
112609000,0.0324,0.013523,0.002678,0.000431,0.005876
112610000,0.0324,0.013523,0.002678,0.000431,0.006229
112611000,0.0324,0.013523,0.002678,0.000431,0.006229
112612000,0.0324,0.013523,0.002678,0.000431,0.006111
112613000,0.0324,0.013523,0.002678,0.000431,0.005759
112614000,0.0324,0.013523,0.002678,0.000431,0.005994
112615000,0.0324,0.013523,0.002678,0.000431,0.006347
112616000,0.0324,0.013523,0.002678,0.000431,0.005759
112617000,0.0324,0.013523,0.002678,0.000431,0.005171
112618000,0.0324,0.013523,0.002678,0.000431,0.005054
112619000,0.0324,0.013523,0.002678,0.000431,0.005171
112620000,0.0324,0.013523,0.002678,0.000431,0.005289
112621000,0.0324,0.013523,0.002678,0.000431,0.005289
112622000,0.0324,0.013523,0.002678,0.000431,0.005054
112623000,0.0324,0.013523,0.002678,0.000431,0.005406
112624000,0.0324,0.013523,0.002678,0.000431,0.004819
112625000,0.0324,0.013523,0.002678,0.000431,0.005406
112626000,0.0324,0.013523,0.002678,0.000431,0.005289
112627000,0.0324,0.013523,0.002678,0.000431,0.005171
112628000,0.0324,0.013523,0.002678,0.000431,0.004936
112629000,0.0324,0.013523,0.002678,0.000431,0.005289
112630000,0.0324,0.013523,0.002678,0.000431,0.005524
112631000,0.0324,0.013523,0.002678,0.000431,0.005054
112632000,0.0324,0.013523,0.002678,0.000431,0.004936
112633000,0.0324,0.013523,0.002678,0.000431,0.005289
112634000,0.0324,0.013523,0.002678,0.000431,0.005406
112635000,0.0324,0.013523,0.002678,0.000431,0.005054
112636000,0.0324,0.013523,0.002678,0.000431,0.005171
112637000,0.0324,0.013523,0.002678,0.000431,0.005406
112638000,0.0324,0.013523,0.002678,0.000431,0.005054
112639000,0.0324,0.013523,0.002678,0.000431,0.005406
112640000,0.0324,0.013523,0.002678,0.000431,0.004936
112641000,0.0324,0.013523,0.002678,0.000431,0.005289
112642000,0.0324,0.013523,0.002678,0.000431,0.005171
112643000,0.0324,0.013523,0.002678,0.000431,0.005054
112644000,0.0324,0.013523,0.002678,0.000431,0.005406
112645000,0.0324,0.013523,0.002678,0.000431,0.005054
112646000,0.0324,0.013523,0.002678,0.000431,0.005289
112647000,0.0324,0.013523,0.002678,0.000431,0.005171
112648000,0.0324,0.013523,0.002678,0.000431,0.005054
112649000,0.0324,0.013523,0.002678,0.000431,0.005641
112650000,0.0324,0.013523,0.002678,0.000431,0.004936
112651000,0.0324,0.013523,0.002678,0.000431,0.005054
112652000,0.0324,0.013523,0.002678,0.000431,0.005406
112653000,0.0324,0.013523,0.002678,0.000431,0.005171
112654000,0.0324,0.013523,0.002678,0.000431,0.005171
112655000,0.0324,0.013523,0.002678,0.000431,0.005054
112656000,0.0324,0.013523,0.002678,0.000431,0.005406
112657000,0.0324,0.013523,0.002678,0.000431,0.005171
112658000,0.0324,0.013523,0.002678,0.000431,0.005054
112659000,0.0324,0.013523,0.002678,0.000431,0.005289
112660000,0.0324,0.013523,0.002678,0.000431,0.005289
112661000,0.0324,0.013523,0.002678,0.000431,0.005054
112662000,0.0324,0.013523,0.002678,0.000431,0.005289
112663000,0.0324,0.013523,0.002678,0.000431,0.005171
112664000,0.0324,0.013523,0.002678,0.000431,0.005171
112665000,0.0324,0.013523,0.002678,0.000431,0.005171
112666000,0.0324,0.013523,0.002678,0.000431,0.005171
112667000,0.0324,0.013523,0.002678,0.000431,0.005406
112668000,0.0324,0.013523,0.002678,0.000431,0.005171
112669000,0.0324,0.013523,0.002678,0.000431,0.004936
112670000,0.0324,0.013523,0.002678,0.000431,0.005289
112671000,0.0324,0.013523,0.002678,0.000431,0.005406
112672000,0.0324,0.013523,0.002678,0.000431,0.005171
112673000,0.0324,0.013523,0.002678,0.000431,0.005054
112674000,0.0324,0.013523,0.002678,0.000431,0.005289
112675000,0.0324,0.013523,0.002678,0.000431,0.005171
112676000,0.0324,0.013523,0.002678,0.000431,0.005406
112677000,0.0324,0.013523,0.002678,0.000431,0.005054
112678000,0.0324,0.013523,0.002678,0.000431,0.005289
112679000,0.0324,0.013523,0.002678,0.000431,0.005171
112680000,0.0324,0.013523,0.002678,0.000431,0.005054
112681000,0.0324,0.013523,0.002678,0.000431,0.005289
112682000,0.0324,0.013523,0.002678,0.000431,0.005171
112683000,0.0324,0.013523,0.002678,0.000431,0.005406
112684000,0.0324,0.013523,0.002678,0.000431,0.004701
112685000,0.0324,0.013523,0.002678,0.000431,0.005406
112686000,0.0324,0.013523,0.002678,0.000431,0.005406
112687000,0.0324,0.013523,0.002678,0.000431,0.005054
112688000,0.0324,0.013523,0.002678,0.000431,0.005171
112689000,0.0324,0.013523,0.002678,0.000431,0.005289
112690000,0.0324,0.013523,0.002678,0.000431,0.005524
112691000,0.0324,0.013523,0.002678,0.000431,0.004701
112692000,0.0324,0.013523,0.002678,0.000431,0.005171
112693000,0.0324,0.013523,0.002678,0.000431,0.005406
112694000,0.0324,0.013523,0.002678,0.000431,0.005289
112695000,0.0324,0.013523,0.002678,0.000431,0.005171
112696000,0.0324,0.013523,0.002678,0.000431,0.004936
112697000,0.0324,0.013523,0.002678,0.000431,0.005524
112698000,0.0324,0.013523,0.002678,0.000431,0.005054
112699000,0.0324,0.013523,0.002678,0.000431,0.005171
112700000,0.0324,0.013523,0.002678,0.000431,0.005171
112701000,0.0324,0.013523,0.002678,0.000431,0.007052
112702000,0.0324,0.013523,0.002678,0.000431,0.004466
112703000,0.0324,0.013523,0.002678,0.000431,0.004113
112704000,0.0324,0.013523,0.002678,0.000431,0.004466
112705000,0.0324,0.013523,0.002678,0.000431,0.006582
112706000,0.0324,0.013523,0.002678,0.000431,0.003173
112707000,0.0324,0.013523,0.002678,0.000431,0.003643
112708000,0.0324,0.013523,0.002678,0.000431,0.003526
112709000,0.0324,0.013523,0.002678,0.000431,0.003526
112710000,0.0324,0.013523,0.002678,0.000431,0.003408
112711000,0.0324,0.013523,0.002678,0.000431,0.003291
112712000,0.0324,0.013523,0.002678,0.000431,0.003526
112713000,0.0324,0.013523,0.002678,0.000431,0.003526
112714000,0.0324,0.013523,0.002678,0.000431,0.003291
112715000,0.0324,0.013523,0.002678,0.000431,0.004936
112716000,0.0324,0.013523,0.002678,0.000431,0.002586
112717000,0.0324,0.013523,0.002678,0.000431,0.002703
112718000,0.0324,0.013523,0.002678,0.000431,0.002703
112719000,0.0324,0.013523,0.002678,0.000431,0.002233
112720000,0.0324,0.013523,0.002678,0.000431,0.002821
112721000,0.0324,0.013523,0.002678,0.000431,0.002351
112722000,0.0324,0.013523,0.002678,0.000431,0.002703
112723000,0.0324,0.013523,0.002678,0.000431,0.002586
112724000,0.0324,0.013523,0.002678,0.000431,0.002586
112725000,0.0324,0.013523,0.002678,0.000431,0.002586
112726000,0.0324,0.013523,0.002678,0.000431,0.003526
112727000,0.0324,0.013523,0.002678,0.000431,0.001880
112728000,0.0324,0.013523,0.002678,0.000431,0.001763
112729000,0.0324,0.013523,0.002678,0.000431,0.001645
112730000,0.0324,0.013523,0.002678,0.000431,0.001763
112731000,0.0324,0.013523,0.002678,0.000431,0.001763
112732000,0.0324,0.013523,0.002678,0.000431,0.001880
112733000,0.0324,0.013523,0.002678,0.000431,0.001528
112734000,0.0324,0.013523,0.002678,0.000431,0.001880
112735000,0.0324,0.013523,0.002678,0.000431,0.001763
112736000,0.0324,0.013523,0.002678,0.000431,0.001763
112737000,0.0324,0.013523,0.002678,0.000431,0.001763
112738000,0.0324,0.013523,0.002678,0.000431,0.001763
112739000,0.0324,0.013523,0.002678,0.000431,0.001763
112740000,0.0324,0.013523,0.002678,0.000431,0.001645
112741000,0.0324,0.013523,0.002678,0.000431,0.001880
112742000,0.0324,0.013523,0.002678,0.000431,0.001763
112743000,0.0324,0.013523,0.002678,0.000431,0.003173
112744000,0.0324,0.013523,0.002678,0.000431,0.002233
112745000,0.0324,0.013523,0.002678,0.000431,0.000823
112746000,0.0324,0.013523,0.002678,0.000431,0.000940
112747000,0.0324,0.013523,0.002678,0.000431,0.000940
112748000,0.0324,0.013523,0.002678,0.000431,0.000705
112749000,0.0324,0.013523,0.002678,0.000431,0.000940
112750000,0.0324,0.013523,0.002678,0.000431,0.000940
112751000,0.0324,0.013523,0.002678,0.000431,0.000940
112752000,0.0324,0.013523,0.002678,0.000431,0.000705
112753000,0.0324,0.013523,0.002678,0.000431,0.000940
112754000,0.0324,0.013523,0.002678,0.000431,0.000940
112755000,0.0324,0.013523,0.002678,0.000431,0.000823
112756000,0.0324,0.013523,0.002678,0.000431,0.000823
112757000,0.0324,0.013523,0.002678,0.000431,0.000940
112758000,0.0324,0.013523,0.002678,0.000431,0.000940
112759000,0.0324,0.013523,0.002678,0.000431,0.000823
112760000,0.0324,0.013523,0.002678,0.000431,0.000823
112761000,0.0324,0.013523,0.002678,0.000431,0.000940
112762000,0.0324,0.013523,0.002678,0.000431,0.000823
112763000,0.0324,0.013523,0.002678,0.000431,0.000940
112764000,0.0324,0.013523,0.002678,0.000431,0.000823
112765000,0.0324,0.013523,0.002678,0.000431,0.000940
112766000,0.0324,0.013523,0.002678,0.000431,0.000940
112767000,0.0324,0.013523,0.002678,0.000431,0.014221
112768000,0.0324,0.013523,0.002678,0.000431,0.564018
112769000,0.0324,0.013523,0.002678,0.000431,0.593635
112770000,0.0324,0.013523,0.002678,0.000431,0.135628
112771000,0.0324,0.013523,0.002678,0.000431,0.133042
112772000,0.0324,0.013523,0.002678,0.000431,0.471406
112773000,0.0324,0.013523,0.002678,0.000431,0.287356
112774000,0.0324,0.013523,0.002678,0.000431,0.228240
112775000,0.0324,0.013523,0.002678,0.000431,0.343652
112776000,0.0324,0.013523,0.002678,0.000431,0.138918
112777000,0.0324,0.013523,0.002678,0.000431,0.156195
112778000,0.0324,0.013523,0.002678,0.000431,0.133865
112779000,0.0324,0.013523,0.002678,0.000431,0.242696
112780000,0.0324,0.013523,0.002678,0.000431,0.381144
112781000,0.0324,0.013523,0.002678,0.000431,0.072985
112782000,0.0324,0.013523,0.002678,0.000431,0.054416
112783000,0.0324,0.013523,0.002678,0.000431,0.051360
112784000,0.0324,0.013523,0.002678,0.000431,0.040312
112785000,0.0324,0.013523,0.002678,0.000431,0.045248
112786000,0.0324,0.013523,0.002678,0.000431,0.034318
112787000,0.0324,0.013523,0.002678,0.000431,0.032555
112788000,0.0324,0.013523,0.002678,0.000431,0.021273
112789000,0.0324,0.013523,0.002678,0.000431,0.021038
112790000,0.0324,0.013523,0.002678,0.000431,0.016219
112791000,0.0324,0.013523,0.002678,0.000431,0.014221
112792000,0.0324,0.013523,0.002678,0.000431,0.015514
112793000,0.0324,0.013523,0.002678,0.000431,0.010460
112794000,0.0324,0.013523,0.002678,0.000431,0.008580
112795000,0.0324,0.013523,0.002678,0.000431,0.007052
112796000,0.0324,0.013523,0.002678,0.000431,0.011988
112797000,0.0324,0.013523,0.002678,0.000431,0.004349
112798000,0.0324,0.013523,0.002678,0.000431,0.004349
112799000,0.0324,0.013523,0.002678,0.000431,0.003761
112800000,0.0324,0.013523,0.002678,0.000431,0.004466
112801000,0.0324,0.013523,0.002678,0.000431,0.004349
112802000,0.0324,0.013523,0.002678,0.000431,0.003291
112803000,0.0324,0.013523,0.002678,0.000431,0.003526
112804000,0.0324,0.013523,0.002678,0.000431,0.003173
112805000,0.0324,0.013523,0.002678,0.000431,0.003643
112806000,0.0324,0.013523,0.002678,0.000431,0.004231
112807000,0.0324,0.013523,0.002678,0.000431,0.003878
112808000,0.0324,0.013523,0.002678,0.000431,0.002703
112809000,0.0324,0.013523,0.002678,0.000431,0.002351
112810000,0.0324,0.013523,0.002678,0.000431,0.005876
112811000,0.0324,0.013523,0.002678,0.000431,0.001645
112812000,0.0324,0.013523,0.002678,0.000431,0.001880
112813000,0.0324,0.013523,0.002678,0.000431,0.001528
112814000,0.0324,0.013523,0.002678,0.000431,0.001763
112815000,0.0324,0.013523,0.002678,0.000431,0.001763
112816000,0.0324,0.013523,0.002678,0.000431,0.001763
112817000,0.0324,0.013523,0.002678,0.000431,0.001645
112818000,0.0324,0.013523,0.002678,0.000431,0.001645
112819000,0.0324,0.013523,0.002678,0.000431,0.001880
112820000,0.0324,0.013523,0.002678,0.000431,0.003173
112821000,0.0324,0.013523,0.002678,0.000431,0.002468
112822000,0.0324,0.013523,0.002678,0.000431,0.000823
112823000,0.0324,0.013523,0.002678,0.000431,0.000940
112824000,0.0324,0.013523,0.002678,0.000431,0.000823
112825000,0.0324,0.013523,0.002678,0.000431,0.000940
112826000,0.0324,0.013523,0.002678,0.000431,0.000823
112827000,0.0324,0.013523,0.002678,0.000431,0.000940
112828000,0.0324,0.013523,0.002678,0.000431,0.000823
112829000,0.0324,0.013523,0.002678,0.000431,0.000823
112830000,0.0324,0.013523,0.002678,0.000431,0.000940
112831000,0.0324,0.013523,0.002678,0.000431,0.000940
112832000,0.0324,0.013523,0.002678,0.000431,0.000823
112833000,0.0324,0.013523,0.002678,0.000431,0.000823
112834000,0.0324,0.013523,0.002678,0.000431,0.000940
112835000,0.0324,0.013523,0.002678,0.000431,0.000940
112836000,0.0324,0.013523,0.002678,0.000431,0.000705
112837000,0.0324,0.013523,0.002678,0.000431,0.000940
112838000,0.0324,0.013523,0.002678,0.000431,0.000940
112839000,0.0324,0.013523,0.002678,0.000431,0.000940
112840000,0.0324,0.013523,0.002678,0.000431,0.000705
112841000,0.0324,0.013523,0.002678,0.000431,0.000940
112842000,0.0324,0.013523,0.002678,0.000431,0.000940
112843000,0.0324,0.013523,0.002678,0.000431,0.000823
112844000,0.0324,0.013523,0.002678,0.000431,0.000823
112845000,0.0324,0.013523,0.002678,0.000431,0.000940
112846000,0.0324,0.013523,0.002678,0.000431,0.000940
112847000,0.0324,0.013523,0.002678,0.000431,0.000823
112848000,0.0324,0.013523,0.002678,0.000431,0.000823
112849000,0.0324,0.013523,0.002678,0.000431,0.000940
112850000,0.0324,0.013523,0.002678,0.000431,0.000823
112851000,0.0324,0.013523,0.002678,0.000431,0.000940
112852000,0.0324,0.013523,0.002678,0.000431,0.000823
112853000,0.0324,0.013523,0.002678,0.000431,0.000940
112854000,0.0324,0.013523,0.002678,0.000431,0.000940
112855000,0.0324,0.013523,0.002678,0.000431,0.000705
112856000,0.0324,0.013523,0.002678,0.000431,0.000940
112857000,0.0324,0.013523,0.002678,0.000431,0.000940
112858000,0.0324,0.013523,0.002678,0.000431,0.000940
112859000,0.0324,0.013523,0.002678,0.000431,0.000705
112860000,0.0324,0.013523,0.002678,0.000431,0.000940
112861000,0.0324,0.013523,0.002678,0.000431,0.000940
112862000,0.0324,0.013523,0.002678,0.000431,0.000823
112863000,0.0324,0.013523,0.002678,0.000431,0.000823
112864000,0.0324,0.013523,0.002678,0.000431,0.000940
112865000,0.0324,0.013523,0.002678,0.000431,0.000823
112866000,0.0324,0.013523,0.002678,0.000431,0.000940
112867000,0.0324,0.013523,0.002678,0.000431,0.000823
112868000,0.0324,0.013523,0.002678,0.000431,0.000940
112869000,0.0324,0.013523,0.002678,0.000431,0.193804
112870000,0.0324,0.013523,0.002678,0.000431,0.491033
112871000,0.0324,0.013523,0.002678,0.000431,0.508309
112872000,0.0324,0.013523,0.002678,0.000431,0.133982
112873000,0.0324,0.013523,0.002678,0.000431,0.132337
112874000,0.0324,0.013523,0.002678,0.000431,0.621136
112875000,0.0324,0.013523,0.002678,0.000431,0.254096
112876000,0.0324,0.013523,0.002678,0.000431,0.277837
112877000,0.0324,0.013523,0.002678,0.000431,0.257034
112878000,0.0324,0.013523,0.002678,0.000431,0.140564
112879000,0.0324,0.013523,0.002678,0.000431,0.161601
112880000,0.0324,0.013523,0.002678,0.000431,0.129399
112881000,0.0324,0.013523,0.002678,0.000431,0.442376
112882000,0.0324,0.013523,0.002678,0.000431,0.071457
112883000,0.0324,0.013523,0.002678,0.000431,0.047364
112884000,0.0324,0.013523,0.002678,0.000431,0.038432
112885000,0.0324,0.013523,0.002678,0.000431,0.035376
112886000,0.0324,0.013523,0.002678,0.000431,0.030675
112887000,0.0324,0.013523,0.002678,0.000431,0.025974
112888000,0.0324,0.013523,0.002678,0.000431,0.020920
112889000,0.0324,0.013523,0.002678,0.000431,0.025504
112890000,0.0324,0.013523,0.002678,0.000431,0.021508
112891000,0.0324,0.013523,0.002678,0.000431,0.017982
112892000,0.0324,0.013523,0.002678,0.000431,0.018805
112893000,0.0324,0.013523,0.002678,0.000431,0.019157
112894000,0.0324,0.013523,0.002678,0.000431,0.018217
112895000,0.0324,0.013523,0.002678,0.000431,0.019275
112896000,0.0324,0.013523,0.002678,0.000431,0.017042
112897000,0.0324,0.013523,0.002678,0.000431,0.015279
112898000,0.0324,0.013523,0.002678,0.000431,0.012458
112899000,0.0324,0.013523,0.002678,0.000431,0.012811
112900000,0.0324,0.013523,0.002678,0.000431,0.012458
112901000,0.0324,0.013523,0.002678,0.000431,0.012576
112902000,0.0324,0.013523,0.002678,0.000431,0.011635
112903000,0.0324,0.013523,0.002678,0.000431,0.012811
112904000,0.0324,0.013523,0.002678,0.000431,0.012811
112905000,0.0324,0.013523,0.002678,0.000431,0.013986
112906000,0.0324,0.013523,0.002678,0.000431,0.013398
112907000,0.0324,0.013523,0.002678,0.000431,0.011870
112908000,0.0324,0.013523,0.002678,0.000431,0.013633
112909000,0.0324,0.013523,0.002678,0.000431,0.010460
112910000,0.0324,0.013523,0.002678,0.000431,0.011283
112911000,0.0324,0.013523,0.002678,0.000431,0.013751
112912000,0.0324,0.013523,0.002678,0.000431,0.009285
112913000,0.0324,0.013523,0.002678,0.000431,0.007992
112914000,0.0324,0.013523,0.002678,0.000431,0.007287
112915000,0.0324,0.013523,0.002678,0.000431,0.007287
112916000,0.0324,0.013523,0.002678,0.000431,0.007757
112917000,0.0324,0.013523,0.002678,0.000431,0.009637
112918000,0.0324,0.013523,0.002678,0.000431,0.006699
112919000,0.0324,0.013523,0.002678,0.000431,0.006817
112920000,0.0324,0.013523,0.002678,0.000431,0.006934
112921000,0.0324,0.013523,0.002678,0.000431,0.006347
112922000,0.0324,0.013523,0.002678,0.000431,0.007287
112923000,0.0324,0.013523,0.002678,0.000431,0.006817
112924000,0.0324,0.013523,0.002678,0.000431,0.006582
112925000,0.0324,0.013523,0.002678,0.000431,0.007757
112926000,0.0324,0.013523,0.002678,0.000431,0.007287
112927000,0.0324,0.013523,0.002678,0.000431,0.006464
112928000,0.0324,0.013523,0.002678,0.000431,0.005759
112929000,0.0324,0.013523,0.002678,0.000431,0.006934
112930000,0.0324,0.013523,0.002678,0.000431,0.006464
112931000,0.0324,0.013523,0.002678,0.000431,0.005406
112932000,0.0324,0.013523,0.002678,0.000431,0.004819
112933000,0.0324,0.013523,0.002678,0.000431,0.005406
112934000,0.0324,0.013523,0.002678,0.000431,0.004701
112935000,0.0324,0.013523,0.002678,0.000431,0.004936
112936000,0.0324,0.013523,0.002678,0.000431,0.005406
112937000,0.0324,0.013523,0.002678,0.000431,0.004584
112938000,0.0324,0.013523,0.002678,0.000431,0.005641
112939000,0.0324,0.013523,0.002678,0.000431,0.004819
112940000,0.0324,0.013523,0.002678,0.000431,0.004701
112941000,0.0324,0.013523,0.002678,0.000431,0.005524
112942000,0.0324,0.013523,0.002678,0.000431,0.005171
112943000,0.0324,0.013523,0.002678,0.000431,0.004584
112944000,0.0324,0.013523,0.002678,0.000431,0.004701
112945000,0.0324,0.013523,0.002678,0.000431,0.005289
112946000,0.0324,0.013523,0.002678,0.000431,0.005171
112947000,0.0324,0.013523,0.002678,0.000431,0.005054
112948000,0.0324,0.013523,0.002678,0.000431,0.004701
112949000,0.0324,0.013523,0.002678,0.000431,0.005406
112950000,0.0324,0.013523,0.002678,0.000431,0.004936
112951000,0.0324,0.013523,0.002678,0.000431,0.005289
112952000,0.0324,0.013523,0.002678,0.000431,0.004936
112953000,0.0324,0.013523,0.002678,0.000431,0.004936
112954000,0.0324,0.013523,0.002678,0.000431,0.005171
112955000,0.0324,0.013523,0.002678,0.000431,0.004936
112956000,0.0324,0.013523,0.002678,0.000431,0.005054
112957000,0.0324,0.013523,0.002678,0.000431,0.004113
112958000,0.0324,0.013523,0.002678,0.000431,0.004701
112959000,0.0324,0.013523,0.002678,0.000431,0.004231
112960000,0.0324,0.013523,0.002678,0.000431,0.004466
112961000,0.0324,0.013523,0.002678,0.000431,0.004584
112962000,0.0324,0.013523,0.002678,0.000431,0.004349
112963000,0.0324,0.013523,0.002678,0.000431,0.003996
112964000,0.0324,0.013523,0.002678,0.000431,0.004701
112965000,0.0324,0.013523,0.002678,0.000431,0.004231
112966000,0.0324,0.013523,0.002678,0.000431,0.004584
112967000,0.0324,0.013523,0.002678,0.000431,0.004584
112968000,0.0324,0.013523,0.002678,0.000431,0.003996
112969000,0.0324,0.013523,0.002678,0.000431,0.004936
112970000,0.0324,0.013523,0.002678,0.000431,0.004113
112971000,0.0324,0.013523,0.002678,0.000431,0.004466
112972000,0.0324,0.013523,0.002678,0.000431,0.004349
112973000,0.0324,0.013523,0.002678,0.000431,0.004231
112974000,0.0324,0.013523,0.002678,0.000431,0.006347
112975000,0.0324,0.013523,0.002678,0.000431,0.003291
112976000,0.0324,0.013523,0.002678,0.000431,0.003761
112977000,0.0324,0.013523,0.002678,0.000431,0.003526
112978000,0.0324,0.013523,0.002678,0.000431,0.003526
112979000,0.0324,0.013523,0.002678,0.000431,0.003643
112980000,0.0324,0.013523,0.002678,0.000431,0.003643
112981000,0.0324,0.013523,0.002678,0.000431,0.003761
112982000,0.0324,0.013523,0.002678,0.000431,0.003291
112983000,0.0324,0.013523,0.002678,0.000431,0.003643
112984000,0.0324,0.013523,0.002678,0.000431,0.003761
112985000,0.0324,0.013523,0.002678,0.000431,0.003526
112986000,0.0324,0.013523,0.002678,0.000431,0.003173
112987000,0.0324,0.013523,0.002678,0.000431,0.003996
112988000,0.0324,0.013523,0.002678,0.000431,0.003408
112989000,0.0324,0.013523,0.002678,0.000431,0.003761
112990000,0.0324,0.013523,0.002678,0.000431,0.003408
112991000,0.0324,0.013523,0.002678,0.000431,0.003526
112992000,0.0324,0.013523,0.002678,0.000431,0.003643
112993000,0.0324,0.013523,0.002678,0.000431,0.003526
112994000,0.0324,0.013523,0.002678,0.000431,0.003643
112995000,0.0324,0.013523,0.002678,0.000431,0.003408
112996000,0.0324,0.013523,0.002678,0.000431,0.003291
112997000,0.0324,0.013523,0.002678,0.000431,0.003761
112998000,0.0324,0.013523,0.002678,0.000431,0.003761
112999000,0.0324,0.013523,0.002678,0.000431,0.003526
