Cycle,Area(mm^2),PeakDynamic(W),SubthresholdLeakage(W),GateLeakage(W),RunTimeDynamic(W)
144000000,0.0324,0.013523,0.002678,0.000431,0.001763
144001000,0.0324,0.013523,0.002678,0.000431,0.001645
144002000,0.0324,0.013523,0.002678,0.000431,0.001763
144003000,0.0324,0.013523,0.002678,0.000431,0.001645
144004000,0.0324,0.013523,0.002678,0.000431,0.001645
144005000,0.0324,0.013523,0.002678,0.000431,0.001528
144006000,0.0324,0.013523,0.002678,0.000431,0.001763
144007000,0.0324,0.013523,0.002678,0.000431,0.001763
144008000,0.0324,0.013523,0.002678,0.000431,0.001528
144009000,0.0324,0.013523,0.002678,0.000431,0.001880
144010000,0.0324,0.013523,0.002678,0.000431,0.001528
144011000,0.0324,0.013523,0.002678,0.000431,0.001763
144012000,0.0324,0.013523,0.002678,0.000431,0.001528
144013000,0.0324,0.013523,0.002678,0.000431,0.001763
144014000,0.0324,0.013523,0.002678,0.000431,0.001880
144015000,0.0324,0.013523,0.002678,0.000431,0.001410
144016000,0.0324,0.013523,0.002678,0.000431,0.001880
144017000,0.0324,0.013523,0.002678,0.000431,0.001528
144018000,0.0324,0.013523,0.002678,0.000431,0.001763
144019000,0.0324,0.013523,0.002678,0.000431,0.001645
144020000,0.0324,0.013523,0.002678,0.000431,0.001645
144021000,0.0324,0.013523,0.002678,0.000431,0.001763
144022000,0.0324,0.013523,0.002678,0.000431,0.001528
144023000,0.0324,0.013523,0.002678,0.000431,0.001880
144024000,0.0324,0.013523,0.002678,0.000431,0.001528
144025000,0.0324,0.013523,0.002678,0.000431,0.001763
144026000,0.0324,0.013523,0.002678,0.000431,0.001645
144027000,0.0324,0.013523,0.002678,0.000431,0.001645
144028000,0.0324,0.013523,0.002678,0.000431,0.001528
144029000,0.0324,0.013523,0.002678,0.000431,0.001763
144030000,0.0324,0.013523,0.002678,0.000431,0.001880
144031000,0.0324,0.013523,0.002678,0.000431,0.001410
144032000,0.0324,0.013523,0.002678,0.000431,0.001880
144033000,0.0324,0.013523,0.002678,0.000431,0.001528
144034000,0.0324,0.013523,0.002678,0.000431,0.001763
144035000,0.0324,0.013523,0.002678,0.000431,0.001528
144036000,0.0324,0.013523,0.002678,0.000431,0.001763
144037000,0.0324,0.013523,0.002678,0.000431,0.001880
144038000,0.0324,0.013523,0.002678,0.000431,0.001410
144039000,0.0324,0.013523,0.002678,0.000431,0.001880
144040000,0.0324,0.013523,0.002678,0.000431,0.001528
144041000,0.0324,0.013523,0.002678,0.000431,0.001763
144042000,0.0324,0.013523,0.002678,0.000431,0.001645
144043000,0.0324,0.013523,0.002678,0.000431,0.001645
144044000,0.0324,0.013523,0.002678,0.000431,0.001763
144045000,0.0324,0.013523,0.002678,0.000431,0.001528
144046000,0.0324,0.013523,0.002678,0.000431,0.001880
144047000,0.0324,0.013523,0.002678,0.000431,0.001528
144048000,0.0324,0.013523,0.002678,0.000431,0.001645
144049000,0.0324,0.013523,0.002678,0.000431,0.001763
144050000,0.0324,0.013523,0.002678,0.000431,0.001645
144051000,0.0324,0.013523,0.002678,0.000431,0.001763
144052000,0.0324,0.013523,0.002678,0.000431,0.001528
144053000,0.0324,0.013523,0.002678,0.000431,0.001645
144054000,0.0324,0.013523,0.002678,0.000431,0.001763
144055000,0.0324,0.013523,0.002678,0.000431,0.001763
144056000,0.0324,0.013523,0.002678,0.000431,0.001528
144057000,0.0324,0.013523,0.002678,0.000431,0.001763
144058000,0.0324,0.013523,0.002678,0.000431,0.001528
144059000,0.0324,0.013523,0.002678,0.000431,0.001763
144060000,0.0324,0.013523,0.002678,0.000431,0.001880
144061000,0.0324,0.013523,0.002678,0.000431,0.002938
144062000,0.0324,0.013523,0.002678,0.000431,0.000940
144063000,0.0324,0.013523,0.002678,0.000431,0.000705
144064000,0.0324,0.013523,0.002678,0.000431,0.000940
144065000,0.0324,0.013523,0.002678,0.000431,0.000823
144066000,0.0324,0.013523,0.002678,0.000431,0.000823
144067000,0.0324,0.013523,0.002678,0.000431,0.000823
144068000,0.0324,0.013523,0.002678,0.000431,0.000823
144069000,0.0324,0.013523,0.002678,0.000431,0.000940
144070000,0.0324,0.013523,0.002678,0.000431,0.000705
144071000,0.0324,0.013523,0.002678,0.000431,0.000940
144072000,0.0324,0.013523,0.002678,0.000431,0.000823
144073000,0.0324,0.013523,0.002678,0.000431,0.000823
144074000,0.0324,0.013523,0.002678,0.000431,0.000823
144075000,0.0324,0.013523,0.002678,0.000431,0.000823
144076000,0.0324,0.013523,0.002678,0.000431,0.000823
144077000,0.0324,0.013523,0.002678,0.000431,0.000823
144078000,0.0324,0.013523,0.002678,0.000431,0.000940
144079000,0.0324,0.013523,0.002678,0.000431,0.000823
144080000,0.0324,0.013523,0.002678,0.000431,0.000823
144081000,0.0324,0.013523,0.002678,0.000431,0.000705
144082000,0.0324,0.013523,0.002678,0.000431,0.014456
144083000,0.0324,0.013523,0.002678,0.000431,0.761700
144084000,0.0324,0.013523,0.002678,0.000431,0.566368
144085000,0.0324,0.013523,0.002678,0.000431,0.138801
144086000,0.0324,0.013523,0.002678,0.000431,0.142327
144087000,0.0324,0.013523,0.002678,0.000431,0.536634
144088000,0.0324,0.013523,0.002678,0.000431,0.275721
144089000,0.0324,0.013523,0.002678,0.000431,0.292645
144090000,0.0324,0.013523,0.002678,0.000431,0.182286
144091000,0.0324,0.013523,0.002678,0.000431,0.164775
144092000,0.0324,0.013523,0.002678,0.000431,0.109654
144093000,0.0324,0.013523,0.002678,0.000431,0.420281
144094000,0.0324,0.013523,0.002678,0.000431,0.371977
144095000,0.0324,0.013523,0.002678,0.000431,0.200503
144096000,0.0324,0.013523,0.002678,0.000431,0.155137
144097000,0.0324,0.013523,0.002678,0.000431,0.134100
144098000,0.0324,0.013523,0.002678,0.000431,0.121524
144099000,0.0324,0.013523,0.002678,0.000431,0.094023
144100000,0.0324,0.013523,0.002678,0.000431,0.092730
144101000,0.0324,0.013523,0.002678,0.000431,0.068754
144102000,0.0324,0.013523,0.002678,0.000431,0.059822
144103000,0.0324,0.013523,0.002678,0.000431,0.055473
144104000,0.0324,0.013523,0.002678,0.000431,0.041017
144105000,0.0324,0.013523,0.002678,0.000431,0.042545
144106000,0.0324,0.013523,0.002678,0.000431,0.040077
144107000,0.0324,0.013523,0.002678,0.000431,0.039137
144108000,0.0324,0.013523,0.002678,0.000431,0.036904
144109000,0.0324,0.013523,0.002678,0.000431,0.029265
144110000,0.0324,0.013523,0.002678,0.000431,0.035376
144111000,0.0324,0.013523,0.002678,0.000431,0.029852
144112000,0.0324,0.013523,0.002678,0.000431,0.026444
144113000,0.0324,0.013523,0.002678,0.000431,0.027619
144114000,0.0324,0.013523,0.002678,0.000431,0.029500
144115000,0.0324,0.013523,0.002678,0.000431,0.023153
144116000,0.0324,0.013523,0.002678,0.000431,0.024211
144117000,0.0324,0.013523,0.002678,0.000431,0.021743
144118000,0.0324,0.013523,0.002678,0.000431,0.015866
144119000,0.0324,0.013523,0.002678,0.000431,0.013163
144120000,0.0324,0.013523,0.002678,0.000431,0.010342
144121000,0.0324,0.013523,0.002678,0.000431,0.009755
144122000,0.0324,0.013523,0.002678,0.000431,0.009990
144123000,0.0324,0.013523,0.002678,0.000431,0.009167
144124000,0.0324,0.013523,0.002678,0.000431,0.009755
144125000,0.0324,0.013523,0.002678,0.000431,0.009637
144126000,0.0324,0.013523,0.002678,0.000431,0.010342
144127000,0.0324,0.013523,0.002678,0.000431,0.009872
144128000,0.0324,0.013523,0.002678,0.000431,0.008462
144129000,0.0324,0.013523,0.002678,0.000431,0.010813
144130000,0.0324,0.013523,0.002678,0.000431,0.007992
144131000,0.0324,0.013523,0.002678,0.000431,0.007992
144132000,0.0324,0.013523,0.002678,0.000431,0.006934
144133000,0.0324,0.013523,0.002678,0.000431,0.006464
144134000,0.0324,0.013523,0.002678,0.000431,0.007639
144135000,0.0324,0.013523,0.002678,0.000431,0.006817
144136000,0.0324,0.013523,0.002678,0.000431,0.007287
144137000,0.0324,0.013523,0.002678,0.000431,0.006582
144138000,0.0324,0.013523,0.002678,0.000431,0.007169
144139000,0.0324,0.013523,0.002678,0.000431,0.009755
144140000,0.0324,0.013523,0.002678,0.000431,0.007052
144141000,0.0324,0.013523,0.002678,0.000431,0.004819
144142000,0.0324,0.013523,0.002678,0.000431,0.003996
144143000,0.0324,0.013523,0.002678,0.000431,0.004349
144144000,0.0324,0.013523,0.002678,0.000431,0.004584
144145000,0.0324,0.013523,0.002678,0.000431,0.004584
144146000,0.0324,0.013523,0.002678,0.000431,0.004349
144147000,0.0324,0.013523,0.002678,0.000431,0.004231
144148000,0.0324,0.013523,0.002678,0.000431,0.005054
144149000,0.0324,0.013523,0.002678,0.000431,0.004113
144150000,0.0324,0.013523,0.002678,0.000431,0.004231
144151000,0.0324,0.013523,0.002678,0.000431,0.004701
144152000,0.0324,0.013523,0.002678,0.000431,0.004584
144153000,0.0324,0.013523,0.002678,0.000431,0.004349
144154000,0.0324,0.013523,0.002678,0.000431,0.004584
144155000,0.0324,0.013523,0.002678,0.000431,0.004349
144156000,0.0324,0.013523,0.002678,0.000431,0.004584
144157000,0.0324,0.013523,0.002678,0.000431,0.004113
144158000,0.0324,0.013523,0.002678,0.000431,0.004819
144159000,0.0324,0.013523,0.002678,0.000431,0.004466
144160000,0.0324,0.013523,0.002678,0.000431,0.003996
144161000,0.0324,0.013523,0.002678,0.000431,0.003996
144162000,0.0324,0.013523,0.002678,0.000431,0.003996
144163000,0.0324,0.013523,0.002678,0.000431,0.003996
144164000,0.0324,0.013523,0.002678,0.000431,0.004113
144165000,0.0324,0.013523,0.002678,0.000431,0.003761
144166000,0.0324,0.013523,0.002678,0.000431,0.003761
144167000,0.0324,0.013523,0.002678,0.000431,0.004113
144168000,0.0324,0.013523,0.002678,0.000431,0.003996
144169000,0.0324,0.013523,0.002678,0.000431,0.003643
144170000,0.0324,0.013523,0.002678,0.000431,0.007522
144171000,0.0324,0.013523,0.002678,0.000431,0.001528
144172000,0.0324,0.013523,0.002678,0.000431,0.001880
144173000,0.0324,0.013523,0.002678,0.000431,0.001645
144174000,0.0324,0.013523,0.002678,0.000431,0.001645
144175000,0.0324,0.013523,0.002678,0.000431,0.001645
144176000,0.0324,0.013523,0.002678,0.000431,0.001645
144177000,0.0324,0.013523,0.002678,0.000431,0.001763
144178000,0.0324,0.013523,0.002678,0.000431,0.001763
144179000,0.0324,0.013523,0.002678,0.000431,0.001410
144180000,0.0324,0.013523,0.002678,0.000431,0.001880
144181000,0.0324,0.013523,0.002678,0.000431,0.001645
144182000,0.0324,0.013523,0.002678,0.000431,0.001645
144183000,0.0324,0.013523,0.002678,0.000431,0.001763
144184000,0.0324,0.013523,0.002678,0.000431,0.001528
144185000,0.0324,0.013523,0.002678,0.000431,0.001763
144186000,0.0324,0.013523,0.002678,0.000431,0.001645
144187000,0.0324,0.013523,0.002678,0.000431,0.001763
144188000,0.0324,0.013523,0.002678,0.000431,0.001763
144189000,0.0324,0.013523,0.002678,0.000431,0.001528
144190000,0.0324,0.013523,0.002678,0.000431,0.001763
144191000,0.0324,0.013523,0.002678,0.000431,0.001645
144192000,0.0324,0.013523,0.002678,0.000431,0.001645
144193000,0.0324,0.013523,0.002678,0.000431,0.001645
144194000,0.0324,0.013523,0.002678,0.000431,0.001763
144195000,0.0324,0.013523,0.002678,0.000431,0.001528
144196000,0.0324,0.013523,0.002678,0.000431,0.001763
144197000,0.0324,0.013523,0.002678,0.000431,0.001763
144198000,0.0324,0.013523,0.002678,0.000431,0.001528
144199000,0.0324,0.013523,0.002678,0.000431,0.001528
144200000,0.0324,0.013523,0.002678,0.000431,0.001880
144201000,0.0324,0.013523,0.002678,0.000431,0.001763
144202000,0.0324,0.013523,0.002678,0.000431,0.001528
144203000,0.0324,0.013523,0.002678,0.000431,0.001763
144204000,0.0324,0.013523,0.002678,0.000431,0.001528
144205000,0.0324,0.013523,0.002678,0.000431,0.001763
144206000,0.0324,0.013523,0.002678,0.000431,0.001763
144207000,0.0324,0.013523,0.002678,0.000431,0.001645
144208000,0.0324,0.013523,0.002678,0.000431,0.001763
144209000,0.0324,0.013523,0.002678,0.000431,0.001410
144210000,0.0324,0.013523,0.002678,0.000431,0.001880
144211000,0.0324,0.013523,0.002678,0.000431,0.001763
144212000,0.0324,0.013523,0.002678,0.000431,0.001528
144213000,0.0324,0.013523,0.002678,0.000431,0.001763
144214000,0.0324,0.013523,0.002678,0.000431,0.001528
144215000,0.0324,0.013523,0.002678,0.000431,0.001763
144216000,0.0324,0.013523,0.002678,0.000431,0.001645
144217000,0.0324,0.013523,0.002678,0.000431,0.001763
144218000,0.0324,0.013523,0.002678,0.000431,0.001645
144219000,0.0324,0.013523,0.002678,0.000431,0.001528
144220000,0.0324,0.013523,0.002678,0.000431,0.001880
144221000,0.0324,0.013523,0.002678,0.000431,0.001645
144222000,0.0324,0.013523,0.002678,0.000431,0.001645
144223000,0.0324,0.013523,0.002678,0.000431,0.001645
144224000,0.0324,0.013523,0.002678,0.000431,0.001528
144225000,0.0324,0.013523,0.002678,0.000431,0.001763
144226000,0.0324,0.013523,0.002678,0.000431,0.001763
144227000,0.0324,0.013523,0.002678,0.000431,0.001645
144228000,0.0324,0.013523,0.002678,0.000431,0.001645
144229000,0.0324,0.013523,0.002678,0.000431,0.001645
144230000,0.0324,0.013523,0.002678,0.000431,0.001763
144231000,0.0324,0.013523,0.002678,0.000431,0.001763
144232000,0.0324,0.013523,0.002678,0.000431,0.001410
144233000,0.0324,0.013523,0.002678,0.000431,0.001880
144234000,0.0324,0.013523,0.002678,0.000431,0.001645
144235000,0.0324,0.013523,0.002678,0.000431,0.001645
144236000,0.0324,0.013523,0.002678,0.000431,0.001763
144237000,0.0324,0.013523,0.002678,0.000431,0.001528
144238000,0.0324,0.013523,0.002678,0.000431,0.001763
144239000,0.0324,0.013523,0.002678,0.000431,0.001645
144240000,0.0324,0.013523,0.002678,0.000431,0.001763
144241000,0.0324,0.013523,0.002678,0.000431,0.001645
144242000,0.0324,0.013523,0.002678,0.000431,0.001645
144243000,0.0324,0.013523,0.002678,0.000431,0.001763
144244000,0.0324,0.013523,0.002678,0.000431,0.001645
144245000,0.0324,0.013523,0.002678,0.000431,0.001645
144246000,0.0324,0.013523,0.002678,0.000431,0.001645
144247000,0.0324,0.013523,0.002678,0.000431,0.001645
144248000,0.0324,0.013523,0.002678,0.000431,0.001645
144249000,0.0324,0.013523,0.002678,0.000431,0.001763
144250000,0.0324,0.013523,0.002678,0.000431,0.001645
144251000,0.0324,0.013523,0.002678,0.000431,0.001645
144252000,0.0324,0.013523,0.002678,0.000431,0.001528
144253000,0.0324,0.013523,0.002678,0.000431,0.001763
144254000,0.0324,0.013523,0.002678,0.000431,0.001880
144255000,0.0324,0.013523,0.002678,0.000431,0.001410
144256000,0.0324,0.013523,0.002678,0.000431,0.001763
144257000,0.0324,0.013523,0.002678,0.000431,0.001645
144258000,0.0324,0.013523,0.002678,0.000431,0.001763
144259000,0.0324,0.013523,0.002678,0.000431,0.001645
144260000,0.0324,0.013523,0.002678,0.000431,0.001645
144261000,0.0324,0.013523,0.002678,0.000431,0.001528
144262000,0.0324,0.013523,0.002678,0.000431,0.001763
144263000,0.0324,0.013523,0.002678,0.000431,0.001880
144264000,0.0324,0.013523,0.002678,0.000431,0.001410
144265000,0.0324,0.013523,0.002678,0.000431,0.001880
144266000,0.0324,0.013523,0.002678,0.000431,0.001528
144267000,0.0324,0.013523,0.002678,0.000431,0.001763
144268000,0.0324,0.013523,0.002678,0.000431,0.001763
144269000,0.0324,0.013523,0.002678,0.000431,0.001528
144270000,0.0324,0.013523,0.002678,0.000431,0.004584
144271000,0.0324,0.013523,0.002678,0.000431,0.000705
144272000,0.0324,0.013523,0.002678,0.000431,0.000940
144273000,0.0324,0.013523,0.002678,0.000431,0.000823
144274000,0.0324,0.013523,0.002678,0.000431,0.000823
144275000,0.0324,0.013523,0.002678,0.000431,0.000823
144276000,0.0324,0.013523,0.002678,0.000431,0.000823
144277000,0.0324,0.013523,0.002678,0.000431,0.000940
144278000,0.0324,0.013523,0.002678,0.000431,0.000705
144279000,0.0324,0.013523,0.002678,0.000431,0.000940
144280000,0.0324,0.013523,0.002678,0.000431,0.000705
144281000,0.0324,0.013523,0.002678,0.000431,0.000940
144282000,0.0324,0.013523,0.002678,0.000431,0.000823
144283000,0.0324,0.013523,0.002678,0.000431,0.000823
144284000,0.0324,0.013523,0.002678,0.000431,0.000823
144285000,0.0324,0.013523,0.002678,0.000431,0.000823
144286000,0.0324,0.013523,0.002678,0.000431,0.000940
144287000,0.0324,0.013523,0.002678,0.000431,0.000705
144288000,0.0324,0.013523,0.002678,0.000431,0.000940
144289000,0.0324,0.013523,0.002678,0.000431,0.000705
144290000,0.0324,0.013523,0.002678,0.000431,0.000940
144291000,0.0324,0.013523,0.002678,0.000431,0.000823
144292000,0.0324,0.013523,0.002678,0.000431,0.000823
144293000,0.0324,0.013523,0.002678,0.000431,0.000940
144294000,0.0324,0.013523,0.002678,0.000431,0.000705
144295000,0.0324,0.013523,0.002678,0.000431,0.000940
144296000,0.0324,0.013523,0.002678,0.000431,0.000823
144297000,0.0324,0.013523,0.002678,0.000431,0.000823
144298000,0.0324,0.013523,0.002678,0.000431,0.000823
144299000,0.0324,0.013523,0.002678,0.000431,0.000823
144300000,0.0324,0.013523,0.002678,0.000431,0.000823
144301000,0.0324,0.013523,0.002678,0.000431,0.000823
144302000,0.0324,0.013523,0.002678,0.000431,0.000940
144303000,0.0324,0.013523,0.002678,0.000431,0.000823
144304000,0.0324,0.013523,0.002678,0.000431,0.000823
144305000,0.0324,0.013523,0.002678,0.000431,0.000823
144306000,0.0324,0.013523,0.002678,0.000431,0.000823
144307000,0.0324,0.013523,0.002678,0.000431,0.000823
144308000,0.0324,0.013523,0.002678,0.000431,0.000823
144309000,0.0324,0.013523,0.002678,0.000431,0.000823
144310000,0.0324,0.013523,0.002678,0.000431,0.000823
144311000,0.0324,0.013523,0.002678,0.000431,0.000940
144312000,0.0324,0.013523,0.002678,0.000431,0.000823
144313000,0.0324,0.013523,0.002678,0.000431,0.000823
144314000,0.0324,0.013523,0.002678,0.000431,0.000705
144315000,0.0324,0.013523,0.002678,0.000431,0.000940
144316000,0.0324,0.013523,0.002678,0.000431,0.000940
144317000,0.0324,0.013523,0.002678,0.000431,0.000705
144318000,0.0324,0.013523,0.002678,0.000431,0.000940
144319000,0.0324,0.013523,0.002678,0.000431,0.000705
144320000,0.0324,0.013523,0.002678,0.000431,0.000940
144321000,0.0324,0.013523,0.002678,0.000431,0.000823
144322000,0.0324,0.013523,0.002678,0.000431,0.000823
144323000,0.0324,0.013523,0.002678,0.000431,0.000823
144324000,0.0324,0.013523,0.002678,0.000431,0.000823
144325000,0.0324,0.013523,0.002678,0.000431,0.000940
144326000,0.0324,0.013523,0.002678,0.000431,0.000705
144327000,0.0324,0.013523,0.002678,0.000431,0.000940
144328000,0.0324,0.013523,0.002678,0.000431,0.000823
144329000,0.0324,0.013523,0.002678,0.000431,0.000823
144330000,0.0324,0.013523,0.002678,0.000431,0.000823
144331000,0.0324,0.013523,0.002678,0.000431,0.000823
144332000,0.0324,0.013523,0.002678,0.000431,0.000823
144333000,0.0324,0.013523,0.002678,0.000431,0.000823
144334000,0.0324,0.013523,0.002678,0.000431,0.000940
144335000,0.0324,0.013523,0.002678,0.000431,0.000705
144336000,0.0324,0.013523,0.002678,0.000431,0.000940
144337000,0.0324,0.013523,0.002678,0.000431,0.000705
144338000,0.0324,0.013523,0.002678,0.000431,0.000940
144339000,0.0324,0.013523,0.002678,0.000431,0.000940
144340000,0.0324,0.013523,0.002678,0.000431,0.000705
144341000,0.0324,0.013523,0.002678,0.000431,0.000940
144342000,0.0324,0.013523,0.002678,0.000431,0.000705
144343000,0.0324,0.013523,0.002678,0.000431,0.000940
144344000,0.0324,0.013523,0.002678,0.000431,0.000823
144345000,0.0324,0.013523,0.002678,0.000431,0.000823
144346000,0.0324,0.013523,0.002678,0.000431,0.000823
144347000,0.0324,0.013523,0.002678,0.000431,0.000823
144348000,0.0324,0.013523,0.002678,0.000431,0.000940
144349000,0.0324,0.013523,0.002678,0.000431,0.000705
144350000,0.0324,0.013523,0.002678,0.000431,0.000940
144351000,0.0324,0.013523,0.002678,0.000431,0.000823
144352000,0.0324,0.013523,0.002678,0.000431,0.000823
144353000,0.0324,0.013523,0.002678,0.000431,0.000823
144354000,0.0324,0.013523,0.002678,0.000431,0.000823
144355000,0.0324,0.013523,0.002678,0.000431,0.000823
144356000,0.0324,0.013523,0.002678,0.000431,0.000823
144357000,0.0324,0.013523,0.002678,0.000431,0.000823
144358000,0.0324,0.013523,0.002678,0.000431,0.000940
144359000,0.0324,0.013523,0.002678,0.000431,0.000823
144360000,0.0324,0.013523,0.002678,0.000431,0.000823
144361000,0.0324,0.013523,0.002678,0.000431,0.000823
144362000,0.0324,0.013523,0.002678,0.000431,0.000705
144363000,0.0324,0.013523,0.002678,0.000431,0.000940
144364000,0.0324,0.013523,0.002678,0.000431,0.000940
144365000,0.0324,0.013523,0.002678,0.000431,0.000705
144366000,0.0324,0.013523,0.002678,0.000431,0.000940
144367000,0.0324,0.013523,0.002678,0.000431,0.000705
144368000,0.0324,0.013523,0.002678,0.000431,0.000940
144369000,0.0324,0.013523,0.002678,0.000431,0.000823
144370000,0.0324,0.013523,0.002678,0.000431,0.000823
144371000,0.0324,0.013523,0.002678,0.000431,0.000940
144372000,0.0324,0.013523,0.002678,0.000431,0.000705
144373000,0.0324,0.013523,0.002678,0.000431,0.000940
144374000,0.0324,0.013523,0.002678,0.000431,0.000705
144375000,0.0324,0.013523,0.002678,0.000431,0.000940
144376000,0.0324,0.013523,0.002678,0.000431,0.000823
144377000,0.0324,0.013523,0.002678,0.000431,0.000823
144378000,0.0324,0.013523,0.002678,0.000431,0.000823
144379000,0.0324,0.013523,0.002678,0.000431,0.000823
144380000,0.0324,0.013523,0.002678,0.000431,0.000823
144381000,0.0324,0.013523,0.002678,0.000431,0.000823
144382000,0.0324,0.013523,0.002678,0.000431,0.000940
144383000,0.0324,0.013523,0.002678,0.000431,0.000823
144384000,0.0324,0.013523,0.002678,0.000431,0.000823
144385000,0.0324,0.013523,0.002678,0.000431,0.000705
144386000,0.0324,0.013523,0.002678,0.000431,0.000940
144387000,0.0324,0.013523,0.002678,0.000431,0.000940
144388000,0.0324,0.013523,0.002678,0.000431,0.000705
144389000,0.0324,0.013523,0.002678,0.000431,0.000940
144390000,0.0324,0.013523,0.002678,0.000431,0.000705
144391000,0.0324,0.013523,0.002678,0.000431,0.000940
144392000,0.0324,0.013523,0.002678,0.000431,0.000823
144393000,0.0324,0.013523,0.002678,0.000431,0.000823
144394000,0.0324,0.013523,0.002678,0.000431,0.000823
144395000,0.0324,0.013523,0.002678,0.000431,0.000823
144396000,0.0324,0.013523,0.002678,0.000431,0.000940
144397000,0.0324,0.013523,0.002678,0.000431,0.000705
144398000,0.0324,0.013523,0.002678,0.000431,0.000940
144399000,0.0324,0.013523,0.002678,0.000431,0.000823
144400000,0.0324,0.013523,0.002678,0.000431,0.000705
144401000,0.0324,0.013523,0.002678,0.000431,0.000940
144402000,0.0324,0.013523,0.002678,0.000431,0.000823
144403000,0.0324,0.013523,0.002678,0.000431,0.000823
144404000,0.0324,0.013523,0.002678,0.000431,0.000823
144405000,0.0324,0.013523,0.002678,0.000431,0.000823
144406000,0.0324,0.013523,0.002678,0.000431,0.000823
144407000,0.0324,0.013523,0.002678,0.000431,0.000940
144408000,0.0324,0.013523,0.002678,0.000431,0.000823
144409000,0.0324,0.013523,0.002678,0.000431,0.000823
144410000,0.0324,0.013523,0.002678,0.000431,0.000705
144411000,0.0324,0.013523,0.002678,0.000431,0.000940
144412000,0.0324,0.013523,0.002678,0.000431,0.000940
144413000,0.0324,0.013523,0.002678,0.000431,0.000705
144414000,0.0324,0.013523,0.002678,0.000431,0.000940
144415000,0.0324,0.013523,0.002678,0.000431,0.000705
144416000,0.0324,0.013523,0.002678,0.000431,0.000940
144417000,0.0324,0.013523,0.002678,0.000431,0.000823
144418000,0.0324,0.013523,0.002678,0.000431,0.000823
144419000,0.0324,0.013523,0.002678,0.000431,0.000940
144420000,0.0324,0.013523,0.002678,0.000431,0.000705
144421000,0.0324,0.013523,0.002678,0.000431,0.000940
144422000,0.0324,0.013523,0.002678,0.000431,0.000705
144423000,0.0324,0.013523,0.002678,0.000431,0.000940
144424000,0.0324,0.013523,0.002678,0.000431,0.000823
144425000,0.0324,0.013523,0.002678,0.000431,0.000823
144426000,0.0324,0.013523,0.002678,0.000431,0.000823
144427000,0.0324,0.013523,0.002678,0.000431,0.000823
144428000,0.0324,0.013523,0.002678,0.000431,0.000940
144429000,0.0324,0.013523,0.002678,0.000431,0.000705
144430000,0.0324,0.013523,0.002678,0.000431,0.000940
144431000,0.0324,0.013523,0.002678,0.000431,0.000705
144432000,0.0324,0.013523,0.002678,0.000431,0.000940
144433000,0.0324,0.013523,0.002678,0.000431,0.000705
144434000,0.0324,0.013523,0.002678,0.000431,0.000940
144435000,0.0324,0.013523,0.002678,0.000431,0.000940
144436000,0.0324,0.013523,0.002678,0.000431,0.000705
144437000,0.0324,0.013523,0.002678,0.000431,0.000940
144438000,0.0324,0.013523,0.002678,0.000431,0.000705
144439000,0.0324,0.013523,0.002678,0.000431,0.000940
144440000,0.0324,0.013523,0.002678,0.000431,0.000823
144441000,0.0324,0.013523,0.002678,0.000431,0.000823
144442000,0.0324,0.013523,0.002678,0.000431,0.000823
144443000,0.0324,0.013523,0.002678,0.000431,0.000823
144444000,0.0324,0.013523,0.002678,0.000431,0.000940
144445000,0.0324,0.013523,0.002678,0.000431,0.000705
144446000,0.0324,0.013523,0.002678,0.000431,0.000940
144447000,0.0324,0.013523,0.002678,0.000431,0.000823
144448000,0.0324,0.013523,0.002678,0.000431,0.000823
144449000,0.0324,0.013523,0.002678,0.000431,0.000823
144450000,0.0324,0.013523,0.002678,0.000431,0.000823
144451000,0.0324,0.013523,0.002678,0.000431,0.000823
144452000,0.0324,0.013523,0.002678,0.000431,0.000823
144453000,0.0324,0.013523,0.002678,0.000431,0.000823
144454000,0.0324,0.013523,0.002678,0.000431,0.000823
144455000,0.0324,0.013523,0.002678,0.000431,0.000940
144456000,0.0324,0.013523,0.002678,0.000431,0.000823
144457000,0.0324,0.013523,0.002678,0.000431,0.000823
144458000,0.0324,0.013523,0.002678,0.000431,0.000705
144459000,0.0324,0.013523,0.002678,0.000431,0.000940
144460000,0.0324,0.013523,0.002678,0.000431,0.000940
144461000,0.0324,0.013523,0.002678,0.000431,0.000705
144462000,0.0324,0.013523,0.002678,0.000431,0.000940
144463000,0.0324,0.013523,0.002678,0.000431,0.000705
144464000,0.0324,0.013523,0.002678,0.000431,0.000940
144465000,0.0324,0.013523,0.002678,0.000431,0.000823
144466000,0.0324,0.013523,0.002678,0.000431,0.000823
144467000,0.0324,0.013523,0.002678,0.000431,0.000940
144468000,0.0324,0.013523,0.002678,0.000431,0.000705
144469000,0.0324,0.013523,0.002678,0.000431,0.000940
144470000,0.0324,0.013523,0.002678,0.000431,0.000823
144471000,0.0324,0.013523,0.002678,0.000431,0.000823
144472000,0.0324,0.013523,0.002678,0.000431,0.000823
144473000,0.0324,0.013523,0.002678,0.000431,0.000823
144474000,0.0324,0.013523,0.002678,0.000431,0.000940
144475000,0.0324,0.013523,0.002678,0.000431,0.000705
144476000,0.0324,0.013523,0.002678,0.000431,0.000940
144477000,0.0324,0.013523,0.002678,0.000431,0.000823
144478000,0.0324,0.013523,0.002678,0.000431,0.000823
144479000,0.0324,0.013523,0.002678,0.000431,0.000823
144480000,0.0324,0.013523,0.002678,0.000431,0.001645
144481000,0.0324,0.013523,0.002678,0.000431,0.366923
144482000,0.0324,0.013523,0.002678,0.000431,0.785441
144483000,0.0324,0.013523,0.002678,0.000431,0.269257
144484000,0.0324,0.013523,0.002678,0.000431,0.139036
144485000,0.0324,0.013523,0.002678,0.000431,0.407588
144486000,0.0324,0.013523,0.002678,0.000431,0.310862
144487000,0.0324,0.013523,0.002678,0.000431,0.249512
144488000,0.0324,0.013523,0.002678,0.000431,0.272783
144489000,0.0324,0.013523,0.002678,0.000431,0.144677
144490000,0.0324,0.013523,0.002678,0.000431,0.196507
144491000,0.0324,0.013523,0.002678,0.000431,0.101897
144492000,0.0324,0.013523,0.002678,0.000431,0.543803
144493000,0.0324,0.013523,0.002678,0.000431,0.219073
144494000,0.0324,0.013523,0.002678,0.000431,0.159251
144495000,0.0324,0.013523,0.002678,0.000431,0.149731
144496000,0.0324,0.013523,0.002678,0.000431,0.122582
144497000,0.0324,0.013523,0.002678,0.000431,0.114120
144498000,0.0324,0.013523,0.002678,0.000431,0.102955
144499000,0.0324,0.013523,0.002678,0.000431,0.099311
144500000,0.0324,0.013523,0.002678,0.000431,0.093787
144501000,0.0324,0.013523,0.002678,0.000431,0.064758
144502000,0.0324,0.013523,0.002678,0.000431,0.050537
144503000,0.0324,0.013523,0.002678,0.000431,0.047834
144504000,0.0324,0.013523,0.002678,0.000431,0.037727
144505000,0.0324,0.013523,0.002678,0.000431,0.035729
144506000,0.0324,0.013523,0.002678,0.000431,0.028324
144507000,0.0324,0.013523,0.002678,0.000431,0.023153
144508000,0.0324,0.013523,0.002678,0.000431,0.019392
144509000,0.0324,0.013523,0.002678,0.000431,0.019627
144510000,0.0324,0.013523,0.002678,0.000431,0.016807
144511000,0.0324,0.013523,0.002678,0.000431,0.013633
144512000,0.0324,0.013523,0.002678,0.000431,0.016924
144513000,0.0324,0.013523,0.002678,0.000431,0.015044
144514000,0.0324,0.013523,0.002678,0.000431,0.010225
144515000,0.0324,0.013523,0.002678,0.000431,0.010460
144516000,0.0324,0.013523,0.002678,0.000431,0.008932
144517000,0.0324,0.013523,0.002678,0.000431,0.011518
144518000,0.0324,0.013523,0.002678,0.000431,0.007404
144519000,0.0324,0.013523,0.002678,0.000431,0.008932
144520000,0.0324,0.013523,0.002678,0.000431,0.006934
144521000,0.0324,0.013523,0.002678,0.000431,0.009050
144522000,0.0324,0.013523,0.002678,0.000431,0.003526
144523000,0.0324,0.013523,0.002678,0.000431,0.004113
144524000,0.0324,0.013523,0.002678,0.000431,0.004349
144525000,0.0324,0.013523,0.002678,0.000431,0.003878
144526000,0.0324,0.013523,0.002678,0.000431,0.004349
144527000,0.0324,0.013523,0.002678,0.000431,0.003996
144528000,0.0324,0.013523,0.002678,0.000431,0.004113
144529000,0.0324,0.013523,0.002678,0.000431,0.003408
144530000,0.0324,0.013523,0.002678,0.000431,0.005406
144531000,0.0324,0.013523,0.002678,0.000431,0.002703
144532000,0.0324,0.013523,0.002678,0.000431,0.004113
144533000,0.0324,0.013523,0.002678,0.000431,0.001763
144534000,0.0324,0.013523,0.002678,0.000431,0.001645
144535000,0.0324,0.013523,0.002678,0.000431,0.001645
144536000,0.0324,0.013523,0.002678,0.000431,0.001763
144537000,0.0324,0.013523,0.002678,0.000431,0.001880
144538000,0.0324,0.013523,0.002678,0.000431,0.001528
144539000,0.0324,0.013523,0.002678,0.000431,0.001763
144540000,0.0324,0.013523,0.002678,0.000431,0.001645
144541000,0.0324,0.013523,0.002678,0.000431,0.001880
144542000,0.0324,0.013523,0.002678,0.000431,0.001763
144543000,0.0324,0.013523,0.002678,0.000431,0.001528
144544000,0.0324,0.013523,0.002678,0.000431,0.001880
144545000,0.0324,0.013523,0.002678,0.000431,0.001645
144546000,0.0324,0.013523,0.002678,0.000431,0.001645
144547000,0.0324,0.013523,0.002678,0.000431,0.001763
144548000,0.0324,0.013523,0.002678,0.000431,0.001763
144549000,0.0324,0.013523,0.002678,0.000431,0.001763
144550000,0.0324,0.013523,0.002678,0.000431,0.001645
144551000,0.0324,0.013523,0.002678,0.000431,0.001763
144552000,0.0324,0.013523,0.002678,0.000431,0.001880
144553000,0.0324,0.013523,0.002678,0.000431,0.001645
144554000,0.0324,0.013523,0.002678,0.000431,0.001763
144555000,0.0324,0.013523,0.002678,0.000431,0.001645
144556000,0.0324,0.013523,0.002678,0.000431,0.001645
144557000,0.0324,0.013523,0.002678,0.000431,0.001763
144558000,0.0324,0.013523,0.002678,0.000431,0.001880
144559000,0.0324,0.013523,0.002678,0.000431,0.001528
144560000,0.0324,0.013523,0.002678,0.000431,0.001763
144561000,0.0324,0.013523,0.002678,0.000431,0.002586
144562000,0.0324,0.013523,0.002678,0.000431,0.001998
144563000,0.0324,0.013523,0.002678,0.000431,0.000705
144564000,0.0324,0.013523,0.002678,0.000431,0.000940
144565000,0.0324,0.013523,0.002678,0.000431,0.000940
144566000,0.0324,0.013523,0.002678,0.000431,0.000705
144567000,0.0324,0.013523,0.002678,0.000431,0.000940
144568000,0.0324,0.013523,0.002678,0.000431,0.000705
144569000,0.0324,0.013523,0.002678,0.000431,0.000940
144570000,0.0324,0.013523,0.002678,0.000431,0.000823
144571000,0.0324,0.013523,0.002678,0.000431,0.000823
144572000,0.0324,0.013523,0.002678,0.000431,0.000940
144573000,0.0324,0.013523,0.002678,0.000431,0.000705
144574000,0.0324,0.013523,0.002678,0.000431,0.000940
144575000,0.0324,0.013523,0.002678,0.000431,0.000823
144576000,0.0324,0.013523,0.002678,0.000431,0.000823
144577000,0.0324,0.013523,0.002678,0.000431,0.000705
144578000,0.0324,0.013523,0.002678,0.000431,0.000705
144579000,0.0324,0.013523,0.002678,0.000431,0.000940
144580000,0.0324,0.013523,0.002678,0.000431,0.000823
144581000,0.0324,0.013523,0.002678,0.000431,0.000823
144582000,0.0324,0.013523,0.002678,0.000431,0.000940
144583000,0.0324,0.013523,0.002678,0.000431,0.002586
144584000,0.0324,0.013523,0.002678,0.000431,0.574948
144585000,0.0324,0.013523,0.002678,0.000431,0.715747
144586000,0.0324,0.013523,0.002678,0.000431,0.135510
144587000,0.0324,0.013523,0.002678,0.000431,0.136920
144588000,0.0324,0.013523,0.002678,0.000431,0.534871
144589000,0.0324,0.013523,0.002678,0.000431,0.261618
144590000,0.0324,0.013523,0.002678,0.000431,0.356345
144591000,0.0324,0.013523,0.002678,0.000431,0.156783
144592000,0.0324,0.013523,0.002678,0.000431,0.157018
144593000,0.0324,0.013523,0.002678,0.000431,0.189690
144594000,0.0324,0.013523,0.002678,0.000431,0.511248
144595000,0.0324,0.013523,0.002678,0.000431,0.206144
144596000,0.0324,0.013523,0.002678,0.000431,0.176292
144597000,0.0324,0.013523,0.002678,0.000431,0.152317
144598000,0.0324,0.013523,0.002678,0.000431,0.134335
144599000,0.0324,0.013523,0.002678,0.000431,0.098254
144600000,0.0324,0.013523,0.002678,0.000431,0.093787
144601000,0.0324,0.013523,0.002678,0.000431,0.072867
144602000,0.0324,0.013523,0.002678,0.000431,0.055238
144603000,0.0324,0.013523,0.002678,0.000431,0.050185
144604000,0.0324,0.013523,0.002678,0.000431,0.050302
144605000,0.0324,0.013523,0.002678,0.000431,0.049949
144606000,0.0324,0.013523,0.002678,0.000431,0.042428
144607000,0.0324,0.013523,0.002678,0.000431,0.050655
144608000,0.0324,0.013523,0.002678,0.000431,0.036904
144609000,0.0324,0.013523,0.002678,0.000431,0.033260
144610000,0.0324,0.013523,0.002678,0.000431,0.028559
144611000,0.0324,0.013523,0.002678,0.000431,0.026796
144612000,0.0324,0.013523,0.002678,0.000431,0.029147
144613000,0.0324,0.013523,0.002678,0.000431,0.023036
144614000,0.0324,0.013523,0.002678,0.000431,0.026326
144615000,0.0324,0.013523,0.002678,0.000431,0.021508
144616000,0.0324,0.013523,0.002678,0.000431,0.018687
144617000,0.0324,0.013523,0.002678,0.000431,0.019980
144618000,0.0324,0.013523,0.002678,0.000431,0.016571
144619000,0.0324,0.013523,0.002678,0.000431,0.022213
144620000,0.0324,0.013523,0.002678,0.000431,0.019627
144621000,0.0324,0.013523,0.002678,0.000431,0.016101
144622000,0.0324,0.013523,0.002678,0.000431,0.013986
144623000,0.0324,0.013523,0.002678,0.000431,0.014691
144624000,0.0324,0.013523,0.002678,0.000431,0.013868
144625000,0.0324,0.013523,0.002678,0.000431,0.015044
144626000,0.0324,0.013523,0.002678,0.000431,0.014926
144627000,0.0324,0.013523,0.002678,0.000431,0.015514
144628000,0.0324,0.013523,0.002678,0.000431,0.013516
144629000,0.0324,0.013523,0.002678,0.000431,0.011870
144630000,0.0324,0.013523,0.002678,0.000431,0.011870
144631000,0.0324,0.013523,0.002678,0.000431,0.012928
144632000,0.0324,0.013523,0.002678,0.000431,0.009520
144633000,0.0324,0.013523,0.002678,0.000431,0.010930
144634000,0.0324,0.013523,0.002678,0.000431,0.010930
144635000,0.0324,0.013523,0.002678,0.000431,0.009990
144636000,0.0324,0.013523,0.002678,0.000431,0.009167
144637000,0.0324,0.013523,0.002678,0.000431,0.009402
144638000,0.0324,0.013523,0.002678,0.000431,0.011400
144639000,0.0324,0.013523,0.002678,0.000431,0.008815
144640000,0.0324,0.013523,0.002678,0.000431,0.007992
144641000,0.0324,0.013523,0.002678,0.000431,0.008345
144642000,0.0324,0.013523,0.002678,0.000431,0.008815
144643000,0.0324,0.013523,0.002678,0.000431,0.007992
144644000,0.0324,0.013523,0.002678,0.000431,0.008580
144645000,0.0324,0.013523,0.002678,0.000431,0.008580
144646000,0.0324,0.013523,0.002678,0.000431,0.010578
144647000,0.0324,0.013523,0.002678,0.000431,0.007874
144648000,0.0324,0.013523,0.002678,0.000431,0.007169
144649000,0.0324,0.013523,0.002678,0.000431,0.008345
144650000,0.0324,0.013523,0.002678,0.000431,0.006464
144651000,0.0324,0.013523,0.002678,0.000431,0.007757
144652000,0.0324,0.013523,0.002678,0.000431,0.006934
144653000,0.0324,0.013523,0.002678,0.000431,0.006699
144654000,0.0324,0.013523,0.002678,0.000431,0.007522
144655000,0.0324,0.013523,0.002678,0.000431,0.005876
144656000,0.0324,0.013523,0.002678,0.000431,0.007757
144657000,0.0324,0.013523,0.002678,0.000431,0.006817
144658000,0.0324,0.013523,0.002678,0.000431,0.006699
144659000,0.0324,0.013523,0.002678,0.000431,0.007287
144660000,0.0324,0.013523,0.002678,0.000431,0.006347
144661000,0.0324,0.013523,0.002678,0.000431,0.007287
144662000,0.0324,0.013523,0.002678,0.000431,0.007169
144663000,0.0324,0.013523,0.002678,0.000431,0.008109
144664000,0.0324,0.013523,0.002678,0.000431,0.010695
144665000,0.0324,0.013523,0.002678,0.000431,0.004819
144666000,0.0324,0.013523,0.002678,0.000431,0.004231
144667000,0.0324,0.013523,0.002678,0.000431,0.005641
144668000,0.0324,0.013523,0.002678,0.000431,0.004349
144669000,0.0324,0.013523,0.002678,0.000431,0.004819
144670000,0.0324,0.013523,0.002678,0.000431,0.004231
144671000,0.0324,0.013523,0.002678,0.000431,0.004936
144672000,0.0324,0.013523,0.002678,0.000431,0.005641
144673000,0.0324,0.013523,0.002678,0.000431,0.003643
144674000,0.0324,0.013523,0.002678,0.000431,0.005524
144675000,0.0324,0.013523,0.002678,0.000431,0.004231
144676000,0.0324,0.013523,0.002678,0.000431,0.004936
144677000,0.0324,0.013523,0.002678,0.000431,0.007169
144678000,0.0324,0.013523,0.002678,0.000431,0.003526
144679000,0.0324,0.013523,0.002678,0.000431,0.004231
144680000,0.0324,0.013523,0.002678,0.000431,0.003643
144681000,0.0324,0.013523,0.002678,0.000431,0.004349
144682000,0.0324,0.013523,0.002678,0.000431,0.003996
144683000,0.0324,0.013523,0.002678,0.000431,0.003526
144684000,0.0324,0.013523,0.002678,0.000431,0.004113
144685000,0.0324,0.013523,0.002678,0.000431,0.003761
144686000,0.0324,0.013523,0.002678,0.000431,0.003878
144687000,0.0324,0.013523,0.002678,0.000431,0.003996
144688000,0.0324,0.013523,0.002678,0.000431,0.003996
144689000,0.0324,0.013523,0.002678,0.000431,0.003643
144690000,0.0324,0.013523,0.002678,0.000431,0.004113
144691000,0.0324,0.013523,0.002678,0.000431,0.003878
144692000,0.0324,0.013523,0.002678,0.000431,0.004113
144693000,0.0324,0.013523,0.002678,0.000431,0.003526
144694000,0.0324,0.013523,0.002678,0.000431,0.003996
144695000,0.0324,0.013523,0.002678,0.000431,0.003526
144696000,0.0324,0.013523,0.002678,0.000431,0.003996
144697000,0.0324,0.013523,0.002678,0.000431,0.004701
144698000,0.0324,0.013523,0.002678,0.000431,0.002821
144699000,0.0324,0.013523,0.002678,0.000431,0.004701
144700000,0.0324,0.013523,0.002678,0.000431,0.003526
144701000,0.0324,0.013523,0.002678,0.000431,0.003996
144702000,0.0324,0.013523,0.002678,0.000431,0.004584
144703000,0.0324,0.013523,0.002678,0.000431,0.002938
144704000,0.0324,0.013523,0.002678,0.000431,0.004701
144705000,0.0324,0.013523,0.002678,0.000431,0.003526
144706000,0.0324,0.013523,0.002678,0.000431,0.003996
144707000,0.0324,0.013523,0.002678,0.000431,0.004113
144708000,0.0324,0.013523,0.002678,0.000431,0.003408
144709000,0.0324,0.013523,0.002678,0.000431,0.004113
144710000,0.0324,0.013523,0.002678,0.000431,0.004113
144711000,0.0324,0.013523,0.002678,0.000431,0.003878
144712000,0.0324,0.013523,0.002678,0.000431,0.003643
144713000,0.0324,0.013523,0.002678,0.000431,0.003996
144714000,0.0324,0.013523,0.002678,0.000431,0.003996
144715000,0.0324,0.013523,0.002678,0.000431,0.004113
144716000,0.0324,0.013523,0.002678,0.000431,0.003526
144717000,0.0324,0.013523,0.002678,0.000431,0.004113
144718000,0.0324,0.013523,0.002678,0.000431,0.003408
144719000,0.0324,0.013523,0.002678,0.000431,0.004113
144720000,0.0324,0.013523,0.002678,0.000431,0.004466
144721000,0.0324,0.013523,0.002678,0.000431,0.003056
144722000,0.0324,0.013523,0.002678,0.000431,0.004701
144723000,0.0324,0.013523,0.002678,0.000431,0.003173
144724000,0.0324,0.013523,0.002678,0.000431,0.004349
144725000,0.0324,0.013523,0.002678,0.000431,0.004466
144726000,0.0324,0.013523,0.002678,0.000431,0.003056
144727000,0.0324,0.013523,0.002678,0.000431,0.004701
144728000,0.0324,0.013523,0.002678,0.000431,0.003173
144729000,0.0324,0.013523,0.002678,0.000431,0.004349
144730000,0.0324,0.013523,0.002678,0.000431,0.003996
144731000,0.0324,0.013523,0.002678,0.000431,0.003526
144732000,0.0324,0.013523,0.002678,0.000431,0.004113
144733000,0.0324,0.013523,0.002678,0.000431,0.003761
144734000,0.0324,0.013523,0.002678,0.000431,0.004231
144735000,0.0324,0.013523,0.002678,0.000431,0.003643
144736000,0.0324,0.013523,0.002678,0.000431,0.003996
144737000,0.0324,0.013523,0.002678,0.000431,0.004113
144738000,0.0324,0.013523,0.002678,0.000431,0.003761
144739000,0.0324,0.013523,0.002678,0.000431,0.003761
144740000,0.0324,0.013523,0.002678,0.000431,0.004113
144741000,0.0324,0.013523,0.002678,0.000431,0.003408
144742000,0.0324,0.013523,0.002678,0.000431,0.004113
144743000,0.0324,0.013523,0.002678,0.000431,0.004113
144744000,0.0324,0.013523,0.002678,0.000431,0.003408
144745000,0.0324,0.013523,0.002678,0.000431,0.004701
144746000,0.0324,0.013523,0.002678,0.000431,0.003291
144747000,0.0324,0.013523,0.002678,0.000431,0.004231
144748000,0.0324,0.013523,0.002678,0.000431,0.003526
144749000,0.0324,0.013523,0.002678,0.000431,0.003996
144750000,0.0324,0.013523,0.002678,0.000431,0.004584
144751000,0.0324,0.013523,0.002678,0.000431,0.002938
144752000,0.0324,0.013523,0.002678,0.000431,0.004701
144753000,0.0324,0.013523,0.002678,0.000431,0.003526
144754000,0.0324,0.013523,0.002678,0.000431,0.003996
144755000,0.0324,0.013523,0.002678,0.000431,0.004113
144756000,0.0324,0.013523,0.002678,0.000431,0.003408
144757000,0.0324,0.013523,0.002678,0.000431,0.004584
144758000,0.0324,0.013523,0.002678,0.000431,0.003643
144759000,0.0324,0.013523,0.002678,0.000431,0.003878
144760000,0.0324,0.013523,0.002678,0.000431,0.004113
144761000,0.0324,0.013523,0.002678,0.000431,0.003526
144762000,0.0324,0.013523,0.002678,0.000431,0.004113
144763000,0.0324,0.013523,0.002678,0.000431,0.004113
144764000,0.0324,0.013523,0.002678,0.000431,0.003408
144765000,0.0324,0.013523,0.002678,0.000431,0.004113
144766000,0.0324,0.013523,0.002678,0.000431,0.003878
144767000,0.0324,0.013523,0.002678,0.000431,0.003643
144768000,0.0324,0.013523,0.002678,0.000431,0.004584
144769000,0.0324,0.013523,0.002678,0.000431,0.003408
144770000,0.0324,0.013523,0.002678,0.000431,0.004231
144771000,0.0324,0.013523,0.002678,0.000431,0.003291
144772000,0.0324,0.013523,0.002678,0.000431,0.004231
144773000,0.0324,0.013523,0.002678,0.000431,0.004466
144774000,0.0324,0.013523,0.002678,0.000431,0.003056
144775000,0.0324,0.013523,0.002678,0.000431,0.004701
144776000,0.0324,0.013523,0.002678,0.000431,0.003173
144777000,0.0324,0.013523,0.002678,0.000431,0.004349
144778000,0.0324,0.013523,0.002678,0.000431,0.003996
144779000,0.0324,0.013523,0.002678,0.000431,0.003526
144780000,0.0324,0.013523,0.002678,0.000431,0.003878
144781000,0.0324,0.013523,0.002678,0.000431,0.003291
144782000,0.0324,0.013523,0.002678,0.000431,0.004349
144783000,0.0324,0.013523,0.002678,0.000431,0.003996
144784000,0.0324,0.013523,0.002678,0.000431,0.003526
144785000,0.0324,0.013523,0.002678,0.000431,0.004584
144786000,0.0324,0.013523,0.002678,0.000431,0.003291
144787000,0.0324,0.013523,0.002678,0.000431,0.004231
144788000,0.0324,0.013523,0.002678,0.000431,0.004113
144789000,0.0324,0.013523,0.002678,0.000431,0.003408
144790000,0.0324,0.013523,0.002678,0.000431,0.004113
144791000,0.0324,0.013523,0.002678,0.000431,0.003878
144792000,0.0324,0.013523,0.002678,0.000431,0.004113
144793000,0.0324,0.013523,0.002678,0.000431,0.003056
144794000,0.0324,0.013523,0.002678,0.000431,0.002586
144795000,0.0324,0.013523,0.002678,0.000431,0.012223
144796000,0.0324,0.013523,0.002678,0.000431,0.000705
144797000,0.0324,0.013523,0.002678,0.000431,0.000940
144798000,0.0324,0.013523,0.002678,0.000431,0.000940
144799000,0.0324,0.013523,0.002678,0.000431,0.000705
144800000,0.0324,0.013523,0.002678,0.000431,0.000940
144801000,0.0324,0.013523,0.002678,0.000431,0.000705
144802000,0.0324,0.013523,0.002678,0.000431,0.000940
144803000,0.0324,0.013523,0.002678,0.000431,0.000823
144804000,0.0324,0.013523,0.002678,0.000431,0.000823
144805000,0.0324,0.013523,0.002678,0.000431,0.000940
144806000,0.0324,0.013523,0.002678,0.000431,0.000705
144807000,0.0324,0.013523,0.002678,0.000431,0.000940
144808000,0.0324,0.013523,0.002678,0.000431,0.000823
144809000,0.0324,0.013523,0.002678,0.000431,0.000823
144810000,0.0324,0.013523,0.002678,0.000431,0.000823
144811000,0.0324,0.013523,0.002678,0.000431,0.000823
144812000,0.0324,0.013523,0.002678,0.000431,0.000823
144813000,0.0324,0.013523,0.002678,0.000431,0.000823
144814000,0.0324,0.013523,0.002678,0.000431,0.000940
144815000,0.0324,0.013523,0.002678,0.000431,0.000705
144816000,0.0324,0.013523,0.002678,0.000431,0.000823
144817000,0.0324,0.013523,0.002678,0.000431,0.000940
144818000,0.0324,0.013523,0.002678,0.000431,0.000823
144819000,0.0324,0.013523,0.002678,0.000431,0.000823
144820000,0.0324,0.013523,0.002678,0.000431,0.000823
144821000,0.0324,0.013523,0.002678,0.000431,0.000705
144822000,0.0324,0.013523,0.002678,0.000431,0.000940
144823000,0.0324,0.013523,0.002678,0.000431,0.000940
144824000,0.0324,0.013523,0.002678,0.000431,0.000705
144825000,0.0324,0.013523,0.002678,0.000431,0.000940
144826000,0.0324,0.013523,0.002678,0.000431,0.000705
144827000,0.0324,0.013523,0.002678,0.000431,0.000940
144828000,0.0324,0.013523,0.002678,0.000431,0.000940
144829000,0.0324,0.013523,0.002678,0.000431,0.000705
144830000,0.0324,0.013523,0.002678,0.000431,0.000940
144831000,0.0324,0.013523,0.002678,0.000431,0.000705
144832000,0.0324,0.013523,0.002678,0.000431,0.000940
144833000,0.0324,0.013523,0.002678,0.000431,0.000823
144834000,0.0324,0.013523,0.002678,0.000431,0.000823
144835000,0.0324,0.013523,0.002678,0.000431,0.000823
144836000,0.0324,0.013523,0.002678,0.000431,0.000823
144837000,0.0324,0.013523,0.002678,0.000431,0.000940
144838000,0.0324,0.013523,0.002678,0.000431,0.000705
144839000,0.0324,0.013523,0.002678,0.000431,0.000940
144840000,0.0324,0.013523,0.002678,0.000431,0.000705
144841000,0.0324,0.013523,0.002678,0.000431,0.021508
144842000,0.0324,0.013523,0.002678,0.000431,0.743483
144843000,0.0324,0.013523,0.002678,0.000431,0.575418
144844000,0.0324,0.013523,0.002678,0.000431,0.144207
144845000,0.0324,0.013523,0.002678,0.000431,0.142327
144846000,0.0324,0.013523,0.002678,0.000431,0.570364
144847000,0.0324,0.013523,0.002678,0.000431,0.252098
144848000,0.0324,0.013523,0.002678,0.000431,0.322732
144849000,0.0324,0.013523,0.002678,0.000431,0.206262
144850000,0.0324,0.013523,0.002678,0.000431,0.165597
144851000,0.0324,0.013523,0.002678,0.000431,0.111534
144852000,0.0324,0.013523,0.002678,0.000431,0.481630
144853000,0.0324,0.013523,0.002678,0.000431,0.372682
144854000,0.0324,0.013523,0.002678,0.000431,0.235409
144855000,0.0324,0.013523,0.002678,0.000431,0.194392
144856000,0.0324,0.013523,0.002678,0.000431,0.158075
144857000,0.0324,0.013523,0.002678,0.000431,0.124580
144858000,0.0324,0.013523,0.002678,0.000431,0.102250
144859000,0.0324,0.013523,0.002678,0.000431,0.069812
144860000,0.0324,0.013523,0.002678,0.000431,0.076393
144861000,0.0324,0.013523,0.002678,0.000431,0.063465
144862000,0.0324,0.013523,0.002678,0.000431,0.041723
144863000,0.0324,0.013523,0.002678,0.000431,0.036434
144864000,0.0324,0.013523,0.002678,0.000431,0.035376
144865000,0.0324,0.013523,0.002678,0.000431,0.028912
144866000,0.0324,0.013523,0.002678,0.000431,0.028559
144867000,0.0324,0.013523,0.002678,0.000431,0.027384
144868000,0.0324,0.013523,0.002678,0.000431,0.032438
144869000,0.0324,0.013523,0.002678,0.000431,0.019157
144870000,0.0324,0.013523,0.002678,0.000431,0.014456
144871000,0.0324,0.013523,0.002678,0.000431,0.014103
144872000,0.0324,0.013523,0.002678,0.000431,0.007874
144873000,0.0324,0.013523,0.002678,0.000431,0.014338
144874000,0.0324,0.013523,0.002678,0.000431,0.007052
144875000,0.0324,0.013523,0.002678,0.000431,0.003526
144876000,0.0324,0.013523,0.002678,0.000431,0.003408
144877000,0.0324,0.013523,0.002678,0.000431,0.003291
144878000,0.0324,0.013523,0.002678,0.000431,0.003408
144879000,0.0324,0.013523,0.002678,0.000431,0.003173
144880000,0.0324,0.013523,0.002678,0.000431,0.005171
144881000,0.0324,0.013523,0.002678,0.000431,0.002351
144882000,0.0324,0.013523,0.002678,0.000431,0.004584
144883000,0.0324,0.013523,0.002678,0.000431,0.001528
144884000,0.0324,0.013523,0.002678,0.000431,0.001763
144885000,0.0324,0.013523,0.002678,0.000431,0.001763
144886000,0.0324,0.013523,0.002678,0.000431,0.001645
144887000,0.0324,0.013523,0.002678,0.000431,0.003643
144888000,0.0324,0.013523,0.002678,0.000431,0.002586
144889000,0.0324,0.013523,0.002678,0.000431,0.546976
144890000,0.0324,0.013523,0.002678,0.000431,0.761935
144891000,0.0324,0.013523,0.002678,0.000431,0.213431
144892000,0.0324,0.013523,0.002678,0.000431,0.164422
144893000,0.0324,0.013523,0.002678,0.000431,0.589756
144894000,0.0324,0.013523,0.002678,0.000431,0.280892
144895000,0.0324,0.013523,0.002678,0.000431,0.320734
144896000,0.0324,0.013523,0.002678,0.000431,0.167830
144897000,0.0324,0.013523,0.002678,0.000431,0.117058
144898000,0.0324,0.013523,0.002678,0.000431,0.350822
144899000,0.0324,0.013523,0.002678,0.000431,0.448135
144900000,0.0324,0.013523,0.002678,0.000431,0.208613
144901000,0.0324,0.013523,0.002678,0.000431,0.192511
144902000,0.0324,0.013523,0.002678,0.000431,0.132572
144903000,0.0324,0.013523,0.002678,0.000431,0.109889
144904000,0.0324,0.013523,0.002678,0.000431,0.099076
144905000,0.0324,0.013523,0.002678,0.000431,0.067931
144906000,0.0324,0.013523,0.002678,0.000431,0.058529
144907000,0.0324,0.013523,0.002678,0.000431,0.053945
144908000,0.0324,0.013523,0.002678,0.000431,0.051242
144909000,0.0324,0.013523,0.002678,0.000431,0.036434
144910000,0.0324,0.013523,0.002678,0.000431,0.027502
144911000,0.0324,0.013523,0.002678,0.000431,0.025151
144912000,0.0324,0.013523,0.002678,0.000431,0.020685
144913000,0.0324,0.013523,0.002678,0.000431,0.021273
144914000,0.0324,0.013523,0.002678,0.000431,0.022918
144915000,0.0324,0.013523,0.002678,0.000431,0.019157
144916000,0.0324,0.013523,0.002678,0.000431,0.015396
144917000,0.0324,0.013523,0.002678,0.000431,0.013281
144918000,0.0324,0.013523,0.002678,0.000431,0.012105
144919000,0.0324,0.013523,0.002678,0.000431,0.013398
144920000,0.0324,0.013523,0.002678,0.000431,0.012811
144921000,0.0324,0.013523,0.002678,0.000431,0.013751
144922000,0.0324,0.013523,0.002678,0.000431,0.011870
144923000,0.0324,0.013523,0.002678,0.000431,0.014221
144924000,0.0324,0.013523,0.002678,0.000431,0.009755
144925000,0.0324,0.013523,0.002678,0.000431,0.008227
144926000,0.0324,0.013523,0.002678,0.000431,0.007757
144927000,0.0324,0.013523,0.002678,0.000431,0.014221
144928000,0.0324,0.013523,0.002678,0.000431,0.006464
144929000,0.0324,0.013523,0.002678,0.000431,0.007757
144930000,0.0324,0.013523,0.002678,0.000431,0.006111
144931000,0.0324,0.013523,0.002678,0.000431,0.005289
144932000,0.0324,0.013523,0.002678,0.000431,0.006699
144933000,0.0324,0.013523,0.002678,0.000431,0.004231
144934000,0.0324,0.013523,0.002678,0.000431,0.004584
144935000,0.0324,0.013523,0.002678,0.000431,0.004584
144936000,0.0324,0.013523,0.002678,0.000431,0.004231
144937000,0.0324,0.013523,0.002678,0.000431,0.004231
144938000,0.0324,0.013523,0.002678,0.000431,0.004466
144939000,0.0324,0.013523,0.002678,0.000431,0.004701
144940000,0.0324,0.013523,0.002678,0.000431,0.004231
144941000,0.0324,0.013523,0.002678,0.000431,0.004466
144942000,0.0324,0.013523,0.002678,0.000431,0.006582
144943000,0.0324,0.013523,0.002678,0.000431,0.005524
144944000,0.0324,0.013523,0.002678,0.000431,0.002703
144945000,0.0324,0.013523,0.002678,0.000431,0.010107
144946000,0.0324,0.013523,0.002678,0.000431,0.684249
144947000,0.0324,0.013523,0.002678,0.000431,0.642409
144948000,0.0324,0.013523,0.002678,0.000431,0.148791
144949000,0.0324,0.013523,0.002678,0.000431,0.144912
144950000,0.0324,0.013523,0.002678,0.000431,0.590932
144951000,0.0324,0.013523,0.002678,0.000431,0.243401
144952000,0.0324,0.013523,0.002678,0.000431,0.310039
144953000,0.0324,0.013523,0.002678,0.000431,0.179818
144954000,0.0324,0.013523,0.002678,0.000431,0.181581
144955000,0.0324,0.013523,0.002678,0.000431,0.101897
144956000,0.0324,0.013523,0.002678,0.000431,0.518417
144957000,0.0324,0.013523,0.002678,0.000431,0.316738
144958000,0.0324,0.013523,0.002678,0.000431,0.191924
144959000,0.0324,0.013523,0.002678,0.000431,0.156077
144960000,0.0324,0.013523,0.002678,0.000431,0.128341
144961000,0.0324,0.013523,0.002678,0.000431,0.105775
144962000,0.0324,0.013523,0.002678,0.000431,0.086148
144963000,0.0324,0.013523,0.002678,0.000431,0.061232
144964000,0.0324,0.013523,0.002678,0.000431,0.059117
144965000,0.0324,0.013523,0.002678,0.000431,0.052183
144966000,0.0324,0.013523,0.002678,0.000431,0.042193
144967000,0.0324,0.013523,0.002678,0.000431,0.041723
144968000,0.0324,0.013523,0.002678,0.000431,0.030440
144969000,0.0324,0.013523,0.002678,0.000431,0.025269
144970000,0.0324,0.013523,0.002678,0.000431,0.022330
144971000,0.0324,0.013523,0.002678,0.000431,0.012223
144972000,0.0324,0.013523,0.002678,0.000431,0.014221
144973000,0.0324,0.013523,0.002678,0.000431,0.016689
144974000,0.0324,0.013523,0.002678,0.000431,0.010342
144975000,0.0324,0.013523,0.002678,0.000431,0.013986
144976000,0.0324,0.013523,0.002678,0.000431,0.011165
144977000,0.0324,0.013523,0.002678,0.000431,0.006934
144978000,0.0324,0.013523,0.002678,0.000431,0.009990
144979000,0.0324,0.013523,0.002678,0.000431,0.005524
144980000,0.0324,0.013523,0.002678,0.000431,0.005524
144981000,0.0324,0.013523,0.002678,0.000431,0.005406
144982000,0.0324,0.013523,0.002678,0.000431,0.005759
144983000,0.0324,0.013523,0.002678,0.000431,0.004936
144984000,0.0324,0.013523,0.002678,0.000431,0.006464
144985000,0.0324,0.013523,0.002678,0.000431,0.005406
144986000,0.0324,0.013523,0.002678,0.000431,0.004584
144987000,0.0324,0.013523,0.002678,0.000431,0.004701
144988000,0.0324,0.013523,0.002678,0.000431,0.007169
144989000,0.0324,0.013523,0.002678,0.000431,0.006229
144990000,0.0324,0.013523,0.002678,0.000431,0.002586
144991000,0.0324,0.013523,0.002678,0.000431,0.002703
144992000,0.0324,0.013523,0.002678,0.000431,0.003996
144993000,0.0324,0.013523,0.002678,0.000431,0.004819
144994000,0.0324,0.013523,0.002678,0.000431,0.001293
144995000,0.0324,0.013523,0.002678,0.000431,0.001293
144996000,0.0324,0.013523,0.002678,0.000431,0.000940
144997000,0.0324,0.013523,0.002678,0.000431,0.001528
144998000,0.0324,0.013523,0.002678,0.000431,0.001058
144999000,0.0324,0.013523,0.002678,0.000431,0.001058
