Cycle,Area(mm^2),PeakDynamic(W),SubthresholdLeakage(W),GateLeakage(W),RunTimeDynamic(W)
103000000,0.0324,0.013523,0.002678,0.000431,0.038549
103001000,0.0324,0.013523,0.002678,0.000431,0.035141
103002000,0.0324,0.013523,0.002678,0.000431,0.029970
103003000,0.0324,0.013523,0.002678,0.000431,0.027854
103004000,0.0324,0.013523,0.002678,0.000431,0.027267
103005000,0.0324,0.013523,0.002678,0.000431,0.025504
103006000,0.0324,0.013523,0.002678,0.000431,0.020920
103007000,0.0324,0.013523,0.002678,0.000431,0.019862
103008000,0.0324,0.013523,0.002678,0.000431,0.014573
103009000,0.0324,0.013523,0.002678,0.000431,0.016454
103010000,0.0324,0.013523,0.002678,0.000431,0.014221
103011000,0.0324,0.013523,0.002678,0.000431,0.014456
103012000,0.0324,0.013523,0.002678,0.000431,0.012223
103013000,0.0324,0.013523,0.002678,0.000431,0.012693
103014000,0.0324,0.013523,0.002678,0.000431,0.016336
103015000,0.0324,0.013523,0.002678,0.000431,0.010930
103016000,0.0324,0.013523,0.002678,0.000431,0.012458
103017000,0.0324,0.013523,0.002678,0.000431,0.008697
103018000,0.0324,0.013523,0.002678,0.000431,0.009285
103019000,0.0324,0.013523,0.002678,0.000431,0.008932
103020000,0.0324,0.013523,0.002678,0.000431,0.009167
103021000,0.0324,0.013523,0.002678,0.000431,0.009167
103022000,0.0324,0.013523,0.002678,0.000431,0.009050
103023000,0.0324,0.013523,0.002678,0.000431,0.009520
103024000,0.0324,0.013523,0.002678,0.000431,0.008697
103025000,0.0324,0.013523,0.002678,0.000431,0.009285
103026000,0.0324,0.013523,0.002678,0.000431,0.009050
103027000,0.0324,0.013523,0.002678,0.000431,0.008932
103028000,0.0324,0.013523,0.002678,0.000431,0.009637
103029000,0.0324,0.013523,0.002678,0.000431,0.008815
103030000,0.0324,0.013523,0.002678,0.000431,0.010460
103031000,0.0324,0.013523,0.002678,0.000431,0.009402
103032000,0.0324,0.013523,0.002678,0.000431,0.007874
103033000,0.0324,0.013523,0.002678,0.000431,0.008462
103034000,0.0324,0.013523,0.002678,0.000431,0.006934
103035000,0.0324,0.013523,0.002678,0.000431,0.007992
103036000,0.0324,0.013523,0.002678,0.000431,0.004113
103037000,0.0324,0.013523,0.002678,0.000431,0.003996
103038000,0.0324,0.013523,0.002678,0.000431,0.004349
103039000,0.0324,0.013523,0.002678,0.000431,0.005171
103040000,0.0324,0.013523,0.002678,0.000431,0.003408
103041000,0.0324,0.013523,0.002678,0.000431,0.003408
103042000,0.0324,0.013523,0.002678,0.000431,0.002821
103043000,0.0324,0.013523,0.002678,0.000431,0.003526
103044000,0.0324,0.013523,0.002678,0.000431,0.003291
103045000,0.0324,0.013523,0.002678,0.000431,0.003056
103046000,0.0324,0.013523,0.002678,0.000431,0.003408
103047000,0.0324,0.013523,0.002678,0.000431,0.002938
103048000,0.0324,0.013523,0.002678,0.000431,0.003408
103049000,0.0324,0.013523,0.002678,0.000431,0.003408
103050000,0.0324,0.013523,0.002678,0.000431,0.003056
103051000,0.0324,0.013523,0.002678,0.000431,0.003526
103052000,0.0324,0.013523,0.002678,0.000431,0.002821
103053000,0.0324,0.013523,0.002678,0.000431,0.003526
103054000,0.0324,0.013523,0.002678,0.000431,0.003173
103055000,0.0324,0.013523,0.002678,0.000431,0.003408
103056000,0.0324,0.013523,0.002678,0.000431,0.003408
103057000,0.0324,0.013523,0.002678,0.000431,0.002938
103058000,0.0324,0.013523,0.002678,0.000431,0.003526
103059000,0.0324,0.013523,0.002678,0.000431,0.003173
103060000,0.0324,0.013523,0.002678,0.000431,0.003291
103061000,0.0324,0.013523,0.002678,0.000431,0.003291
103062000,0.0324,0.013523,0.002678,0.000431,0.003056
103063000,0.0324,0.013523,0.002678,0.000431,0.003291
103064000,0.0324,0.013523,0.002678,0.000431,0.003408
103065000,0.0324,0.013523,0.002678,0.000431,0.003056
103066000,0.0324,0.013523,0.002678,0.000431,0.003291
103067000,0.0324,0.013523,0.002678,0.000431,0.003408
103068000,0.0324,0.013523,0.002678,0.000431,0.003056
103069000,0.0324,0.013523,0.002678,0.000431,0.003526
103070000,0.0324,0.013523,0.002678,0.000431,0.002938
103071000,0.0324,0.013523,0.002678,0.000431,0.003408
103072000,0.0324,0.013523,0.002678,0.000431,0.003056
103073000,0.0324,0.013523,0.002678,0.000431,0.003408
103074000,0.0324,0.013523,0.002678,0.000431,0.004466
103075000,0.0324,0.013523,0.002678,0.000431,0.003408
103076000,0.0324,0.013523,0.002678,0.000431,0.002821
103077000,0.0324,0.013523,0.002678,0.000431,0.002116
103078000,0.0324,0.013523,0.002678,0.000431,0.002586
103079000,0.0324,0.013523,0.002678,0.000431,0.002586
103080000,0.0324,0.013523,0.002678,0.000431,0.002116
103081000,0.0324,0.013523,0.002678,0.000431,0.002586
103082000,0.0324,0.013523,0.002678,0.000431,0.002233
103083000,0.0324,0.013523,0.002678,0.000431,0.002468
103084000,0.0324,0.013523,0.002678,0.000431,0.002468
103085000,0.0324,0.013523,0.002678,0.000431,0.002468
103086000,0.0324,0.013523,0.002678,0.000431,0.002233
103087000,0.0324,0.013523,0.002678,0.000431,0.002468
103088000,0.0324,0.013523,0.002678,0.000431,0.004113
103089000,0.0324,0.013523,0.002678,0.000431,0.000823
103090000,0.0324,0.013523,0.002678,0.000431,0.000823
103091000,0.0324,0.013523,0.002678,0.000431,0.000823
103092000,0.0324,0.013523,0.002678,0.000431,0.000940
103093000,0.0324,0.013523,0.002678,0.000431,0.000823
103094000,0.0324,0.013523,0.002678,0.000431,0.000823
103095000,0.0324,0.013523,0.002678,0.000431,0.000705
103096000,0.0324,0.013523,0.002678,0.000431,0.000940
103097000,0.0324,0.013523,0.002678,0.000431,0.000940
103098000,0.0324,0.013523,0.002678,0.000431,0.000705
103099000,0.0324,0.013523,0.002678,0.000431,0.000940
103100000,0.0324,0.013523,0.002678,0.000431,0.000705
103101000,0.0324,0.013523,0.002678,0.000431,0.000940
103102000,0.0324,0.013523,0.002678,0.000431,0.000940
103103000,0.0324,0.013523,0.002678,0.000431,0.000705
103104000,0.0324,0.013523,0.002678,0.000431,0.000940
103105000,0.0324,0.013523,0.002678,0.000431,0.000705
103106000,0.0324,0.013523,0.002678,0.000431,0.000940
103107000,0.0324,0.013523,0.002678,0.000431,0.000823
103108000,0.0324,0.013523,0.002678,0.000431,0.000823
103109000,0.0324,0.013523,0.002678,0.000431,0.000940
103110000,0.0324,0.013523,0.002678,0.000431,0.000705
103111000,0.0324,0.013523,0.002678,0.000431,0.000940
103112000,0.0324,0.013523,0.002678,0.000431,0.000823
103113000,0.0324,0.013523,0.002678,0.000431,0.000823
103114000,0.0324,0.013523,0.002678,0.000431,0.000823
103115000,0.0324,0.013523,0.002678,0.000431,0.000823
103116000,0.0324,0.013523,0.002678,0.000431,0.000823
103117000,0.0324,0.013523,0.002678,0.000431,0.000823
103118000,0.0324,0.013523,0.002678,0.000431,0.000940
103119000,0.0324,0.013523,0.002678,0.000431,0.000823
103120000,0.0324,0.013523,0.002678,0.000431,0.000823
103121000,0.0324,0.013523,0.002678,0.000431,0.000823
103122000,0.0324,0.013523,0.002678,0.000431,0.000823
103123000,0.0324,0.013523,0.002678,0.000431,0.000705
103124000,0.0324,0.013523,0.002678,0.000431,0.000940
103125000,0.0324,0.013523,0.002678,0.000431,0.000940
103126000,0.0324,0.013523,0.002678,0.000431,0.000705
103127000,0.0324,0.013523,0.002678,0.000431,0.000940
103128000,0.0324,0.013523,0.002678,0.000431,0.000705
103129000,0.0324,0.013523,0.002678,0.000431,0.000940
103130000,0.0324,0.013523,0.002678,0.000431,0.000823
103131000,0.0324,0.013523,0.002678,0.000431,0.000823
103132000,0.0324,0.013523,0.002678,0.000431,0.000823
103133000,0.0324,0.013523,0.002678,0.000431,0.000823
103134000,0.0324,0.013523,0.002678,0.000431,0.000940
103135000,0.0324,0.013523,0.002678,0.000431,0.000705
103136000,0.0324,0.013523,0.002678,0.000431,0.000940
103137000,0.0324,0.013523,0.002678,0.000431,0.000823
103138000,0.0324,0.013523,0.002678,0.000431,0.000823
103139000,0.0324,0.013523,0.002678,0.000431,0.000823
103140000,0.0324,0.013523,0.002678,0.000431,0.000823
103141000,0.0324,0.013523,0.002678,0.000431,0.000823
103142000,0.0324,0.013523,0.002678,0.000431,0.000823
103143000,0.0324,0.013523,0.002678,0.000431,0.000823
103144000,0.0324,0.013523,0.002678,0.000431,0.000940
103145000,0.0324,0.013523,0.002678,0.000431,0.000823
103146000,0.0324,0.013523,0.002678,0.000431,0.000823
103147000,0.0324,0.013523,0.002678,0.000431,0.000823
103148000,0.0324,0.013523,0.002678,0.000431,0.000940
103149000,0.0324,0.013523,0.002678,0.000431,0.000940
103150000,0.0324,0.013523,0.002678,0.000431,0.000940
103151000,0.0324,0.013523,0.002678,0.000431,0.000823
103152000,0.0324,0.013523,0.002678,0.000431,0.000823
103153000,0.0324,0.013523,0.002678,0.000431,0.000940
103154000,0.0324,0.013523,0.002678,0.000431,0.000940
103155000,0.0324,0.013523,0.002678,0.000431,0.000823
103156000,0.0324,0.013523,0.002678,0.000431,0.000823
103157000,0.0324,0.013523,0.002678,0.000431,0.000940
103158000,0.0324,0.013523,0.002678,0.000431,0.000823
103159000,0.0324,0.013523,0.002678,0.000431,0.000940
103160000,0.0324,0.013523,0.002678,0.000431,0.000823
103161000,0.0324,0.013523,0.002678,0.000431,0.000940
103162000,0.0324,0.013523,0.002678,0.000431,0.000823
103163000,0.0324,0.013523,0.002678,0.000431,0.000823
103164000,0.0324,0.013523,0.002678,0.000431,0.000940
103165000,0.0324,0.013523,0.002678,0.000431,0.000940
103166000,0.0324,0.013523,0.002678,0.000431,0.000823
103167000,0.0324,0.013523,0.002678,0.000431,0.000823
103168000,0.0324,0.013523,0.002678,0.000431,0.000940
103169000,0.0324,0.013523,0.002678,0.000431,0.000940
103170000,0.0324,0.013523,0.002678,0.000431,0.000823
103171000,0.0324,0.013523,0.002678,0.000431,0.000940
103172000,0.0324,0.013523,0.002678,0.000431,0.001058
103173000,0.0324,0.013523,0.002678,0.000431,0.000705
103174000,0.0324,0.013523,0.002678,0.000431,0.000940
103175000,0.0324,0.013523,0.002678,0.000431,0.000940
103176000,0.0324,0.013523,0.002678,0.000431,0.022918
103177000,0.0324,0.013523,0.002678,0.000431,0.538397
103178000,0.0324,0.013523,0.002678,0.000431,0.598218
103179000,0.0324,0.013523,0.002678,0.000431,0.134687
103180000,0.0324,0.013523,0.002678,0.000431,0.133277
103181000,0.0324,0.013523,0.002678,0.000431,0.549797
103182000,0.0324,0.013523,0.002678,0.000431,0.268199
103183000,0.0324,0.013523,0.002678,0.000431,0.307454
103184000,0.0324,0.013523,0.002678,0.000431,0.283478
103185000,0.0324,0.013523,0.002678,0.000431,0.145382
103186000,0.0324,0.013523,0.002678,0.000431,0.157605
103187000,0.0324,0.013523,0.002678,0.000431,0.099899
103188000,0.0324,0.013523,0.002678,0.000431,0.435324
103189000,0.0324,0.013523,0.002678,0.000431,0.145147
103190000,0.0324,0.013523,0.002678,0.000431,0.053240
103191000,0.0324,0.013523,0.002678,0.000431,0.049949
103192000,0.0324,0.013523,0.002678,0.000431,0.042428
103193000,0.0324,0.013523,0.002678,0.000431,0.043720
103194000,0.0324,0.013523,0.002678,0.000431,0.044661
103195000,0.0324,0.013523,0.002678,0.000431,0.034201
103196000,0.0324,0.013523,0.002678,0.000431,0.033260
103197000,0.0324,0.013523,0.002678,0.000431,0.030792
103198000,0.0324,0.013523,0.002678,0.000431,0.025739
103199000,0.0324,0.013523,0.002678,0.000431,0.030205
103200000,0.0324,0.013523,0.002678,0.000431,0.025034
103201000,0.0324,0.013523,0.002678,0.000431,0.024798
103202000,0.0324,0.013523,0.002678,0.000431,0.024093
103203000,0.0324,0.013523,0.002678,0.000431,0.022095
103204000,0.0324,0.013523,0.002678,0.000431,0.023858
103205000,0.0324,0.013523,0.002678,0.000431,0.021508
103206000,0.0324,0.013523,0.002678,0.000431,0.020567
103207000,0.0324,0.013523,0.002678,0.000431,0.023153
103208000,0.0324,0.013523,0.002678,0.000431,0.015749
103209000,0.0324,0.013523,0.002678,0.000431,0.013868
103210000,0.0324,0.013523,0.002678,0.000431,0.013281
103211000,0.0324,0.013523,0.002678,0.000431,0.012223
103212000,0.0324,0.013523,0.002678,0.000431,0.011635
103213000,0.0324,0.013523,0.002678,0.000431,0.011753
103214000,0.0324,0.013523,0.002678,0.000431,0.013633
103215000,0.0324,0.013523,0.002678,0.000431,0.011753
103216000,0.0324,0.013523,0.002678,0.000431,0.010342
103217000,0.0324,0.013523,0.002678,0.000431,0.010695
103218000,0.0324,0.013523,0.002678,0.000431,0.013633
103219000,0.0324,0.013523,0.002678,0.000431,0.008462
103220000,0.0324,0.013523,0.002678,0.000431,0.008580
103221000,0.0324,0.013523,0.002678,0.000431,0.009755
103222000,0.0324,0.013523,0.002678,0.000431,0.007522
103223000,0.0324,0.013523,0.002678,0.000431,0.007992
103224000,0.0324,0.013523,0.002678,0.000431,0.007522
103225000,0.0324,0.013523,0.002678,0.000431,0.008109
103226000,0.0324,0.013523,0.002678,0.000431,0.007287
103227000,0.0324,0.013523,0.002678,0.000431,0.007757
103228000,0.0324,0.013523,0.002678,0.000431,0.007992
103229000,0.0324,0.013523,0.002678,0.000431,0.007052
103230000,0.0324,0.013523,0.002678,0.000431,0.009755
103231000,0.0324,0.013523,0.002678,0.000431,0.006934
103232000,0.0324,0.013523,0.002678,0.000431,0.006817
103233000,0.0324,0.013523,0.002678,0.000431,0.006464
103234000,0.0324,0.013523,0.002678,0.000431,0.006934
103235000,0.0324,0.013523,0.002678,0.000431,0.008462
103236000,0.0324,0.013523,0.002678,0.000431,0.005759
103237000,0.0324,0.013523,0.002678,0.000431,0.007287
103238000,0.0324,0.013523,0.002678,0.000431,0.005054
103239000,0.0324,0.013523,0.002678,0.000431,0.005171
103240000,0.0324,0.013523,0.002678,0.000431,0.006699
103241000,0.0324,0.013523,0.002678,0.000431,0.003996
103242000,0.0324,0.013523,0.002678,0.000431,0.004466
103243000,0.0324,0.013523,0.002678,0.000431,0.004349
103244000,0.0324,0.013523,0.002678,0.000431,0.004113
103245000,0.0324,0.013523,0.002678,0.000431,0.004584
103246000,0.0324,0.013523,0.002678,0.000431,0.004349
103247000,0.0324,0.013523,0.002678,0.000431,0.004349
103248000,0.0324,0.013523,0.002678,0.000431,0.004349
103249000,0.0324,0.013523,0.002678,0.000431,0.004231
103250000,0.0324,0.013523,0.002678,0.000431,0.004349
103251000,0.0324,0.013523,0.002678,0.000431,0.004349
103252000,0.0324,0.013523,0.002678,0.000431,0.004466
103253000,0.0324,0.013523,0.002678,0.000431,0.004231
103254000,0.0324,0.013523,0.002678,0.000431,0.004349
103255000,0.0324,0.013523,0.002678,0.000431,0.004466
103256000,0.0324,0.013523,0.002678,0.000431,0.003996
103257000,0.0324,0.013523,0.002678,0.000431,0.004584
103258000,0.0324,0.013523,0.002678,0.000431,0.004231
103259000,0.0324,0.013523,0.002678,0.000431,0.004231
103260000,0.0324,0.013523,0.002678,0.000431,0.004584
103261000,0.0324,0.013523,0.002678,0.000431,0.004231
103262000,0.0324,0.013523,0.002678,0.000431,0.005641
103263000,0.0324,0.013523,0.002678,0.000431,0.003291
103264000,0.0324,0.013523,0.002678,0.000431,0.003526
103265000,0.0324,0.013523,0.002678,0.000431,0.003526
103266000,0.0324,0.013523,0.002678,0.000431,0.003408
103267000,0.0324,0.013523,0.002678,0.000431,0.003173
103268000,0.0324,0.013523,0.002678,0.000431,0.003526
103269000,0.0324,0.013523,0.002678,0.000431,0.003526
103270000,0.0324,0.013523,0.002678,0.000431,0.003291
103271000,0.0324,0.013523,0.002678,0.000431,0.003526
103272000,0.0324,0.013523,0.002678,0.000431,0.003291
103273000,0.0324,0.013523,0.002678,0.000431,0.003526
103274000,0.0324,0.013523,0.002678,0.000431,0.003408
103275000,0.0324,0.013523,0.002678,0.000431,0.003291
103276000,0.0324,0.013523,0.002678,0.000431,0.003526
103277000,0.0324,0.013523,0.002678,0.000431,0.003291
103278000,0.0324,0.013523,0.002678,0.000431,0.003291
103279000,0.0324,0.013523,0.002678,0.000431,0.003643
103280000,0.0324,0.013523,0.002678,0.000431,0.003291
103281000,0.0324,0.013523,0.002678,0.000431,0.003526
103282000,0.0324,0.013523,0.002678,0.000431,0.003173
103283000,0.0324,0.013523,0.002678,0.000431,0.003526
103284000,0.0324,0.013523,0.002678,0.000431,0.004349
103285000,0.0324,0.013523,0.002678,0.000431,0.003643
103286000,0.0324,0.013523,0.002678,0.000431,0.002351
103287000,0.0324,0.013523,0.002678,0.000431,0.002586
103288000,0.0324,0.013523,0.002678,0.000431,0.002586
103289000,0.0324,0.013523,0.002678,0.000431,0.002586
103290000,0.0324,0.013523,0.002678,0.000431,0.002468
103291000,0.0324,0.013523,0.002678,0.000431,0.002468
103292000,0.0324,0.013523,0.002678,0.000431,0.002586
103293000,0.0324,0.013523,0.002678,0.000431,0.002703
103294000,0.0324,0.013523,0.002678,0.000431,0.002351
103295000,0.0324,0.013523,0.002678,0.000431,0.002703
103296000,0.0324,0.013523,0.002678,0.000431,0.002351
103297000,0.0324,0.013523,0.002678,0.000431,0.002586
103298000,0.0324,0.013523,0.002678,0.000431,0.002586
103299000,0.0324,0.013523,0.002678,0.000431,0.002351
103300000,0.0324,0.013523,0.002678,0.000431,0.002703
103301000,0.0324,0.013523,0.002678,0.000431,0.002468
103302000,0.0324,0.013523,0.002678,0.000431,0.002468
103303000,0.0324,0.013523,0.002678,0.000431,0.002468
103304000,0.0324,0.013523,0.002678,0.000431,0.002586
103305000,0.0324,0.013523,0.002678,0.000431,0.002468
103306000,0.0324,0.013523,0.002678,0.000431,0.002468
103307000,0.0324,0.013523,0.002678,0.000431,0.002703
103308000,0.0324,0.013523,0.002678,0.000431,0.002468
103309000,0.0324,0.013523,0.002678,0.000431,0.002586
103310000,0.0324,0.013523,0.002678,0.000431,0.002351
103311000,0.0324,0.013523,0.002678,0.000431,0.002586
103312000,0.0324,0.013523,0.002678,0.000431,0.002586
103313000,0.0324,0.013523,0.002678,0.000431,0.002586
103314000,0.0324,0.013523,0.002678,0.000431,0.002586
103315000,0.0324,0.013523,0.002678,0.000431,0.002351
103316000,0.0324,0.013523,0.002678,0.000431,0.003526
103317000,0.0324,0.013523,0.002678,0.000431,0.002468
103318000,0.0324,0.013523,0.002678,0.000431,0.001645
103319000,0.0324,0.013523,0.002678,0.000431,0.001763
103320000,0.0324,0.013523,0.002678,0.000431,0.001763
103321000,0.0324,0.013523,0.002678,0.000431,0.001880
103322000,0.0324,0.013523,0.002678,0.000431,0.001410
103323000,0.0324,0.013523,0.002678,0.000431,0.001880
103324000,0.0324,0.013523,0.002678,0.000431,0.001763
103325000,0.0324,0.013523,0.002678,0.000431,0.001645
103326000,0.0324,0.013523,0.002678,0.000431,0.001645
103327000,0.0324,0.013523,0.002678,0.000431,0.001763
103328000,0.0324,0.013523,0.002678,0.000431,0.001763
103329000,0.0324,0.013523,0.002678,0.000431,0.001645
103330000,0.0324,0.013523,0.002678,0.000431,0.001645
103331000,0.0324,0.013523,0.002678,0.000431,0.001880
103332000,0.0324,0.013523,0.002678,0.000431,0.001645
103333000,0.0324,0.013523,0.002678,0.000431,0.001763
103334000,0.0324,0.013523,0.002678,0.000431,0.001645
103335000,0.0324,0.013523,0.002678,0.000431,0.001645
103336000,0.0324,0.013523,0.002678,0.000431,0.001763
103337000,0.0324,0.013523,0.002678,0.000431,0.001763
103338000,0.0324,0.013523,0.002678,0.000431,0.001645
103339000,0.0324,0.013523,0.002678,0.000431,0.001880
103340000,0.0324,0.013523,0.002678,0.000431,0.001528
103341000,0.0324,0.013523,0.002678,0.000431,0.001763
103342000,0.0324,0.013523,0.002678,0.000431,0.001880
103343000,0.0324,0.013523,0.002678,0.000431,0.001645
103344000,0.0324,0.013523,0.002678,0.000431,0.001763
103345000,0.0324,0.013523,0.002678,0.000431,0.002938
103346000,0.0324,0.013523,0.002678,0.000431,0.001058
103347000,0.0324,0.013523,0.002678,0.000431,0.000823
103348000,0.0324,0.013523,0.002678,0.000431,0.000823
103349000,0.0324,0.013523,0.002678,0.000431,0.000823
103350000,0.0324,0.013523,0.002678,0.000431,0.000823
103351000,0.0324,0.013523,0.002678,0.000431,0.000823
103352000,0.0324,0.013523,0.002678,0.000431,0.000823
103353000,0.0324,0.013523,0.002678,0.000431,0.000940
103354000,0.0324,0.013523,0.002678,0.000431,0.000705
103355000,0.0324,0.013523,0.002678,0.000431,0.000940
103356000,0.0324,0.013523,0.002678,0.000431,0.000823
103357000,0.0324,0.013523,0.002678,0.000431,0.000823
103358000,0.0324,0.013523,0.002678,0.000431,0.000705
103359000,0.0324,0.013523,0.002678,0.000431,0.000940
103360000,0.0324,0.013523,0.002678,0.000431,0.000940
103361000,0.0324,0.013523,0.002678,0.000431,0.000705
103362000,0.0324,0.013523,0.002678,0.000431,0.000940
103363000,0.0324,0.013523,0.002678,0.000431,0.000705
103364000,0.0324,0.013523,0.002678,0.000431,0.000940
103365000,0.0324,0.013523,0.002678,0.000431,0.000823
103366000,0.0324,0.013523,0.002678,0.000431,0.000823
103367000,0.0324,0.013523,0.002678,0.000431,0.000940
103368000,0.0324,0.013523,0.002678,0.000431,0.000705
103369000,0.0324,0.013523,0.002678,0.000431,0.000940
103370000,0.0324,0.013523,0.002678,0.000431,0.000823
103371000,0.0324,0.013523,0.002678,0.000431,0.000823
103372000,0.0324,0.013523,0.002678,0.000431,0.000823
103373000,0.0324,0.013523,0.002678,0.000431,0.000823
103374000,0.0324,0.013523,0.002678,0.000431,0.000823
103375000,0.0324,0.013523,0.002678,0.000431,0.000823
103376000,0.0324,0.013523,0.002678,0.000431,0.000940
103377000,0.0324,0.013523,0.002678,0.000431,0.000705
103378000,0.0324,0.013523,0.002678,0.000431,0.000823
103379000,0.0324,0.013523,0.002678,0.000431,0.000823
103380000,0.0324,0.013523,0.002678,0.000431,0.000940
103381000,0.0324,0.013523,0.002678,0.000431,0.000823
103382000,0.0324,0.013523,0.002678,0.000431,0.000823
103383000,0.0324,0.013523,0.002678,0.000431,0.000705
103384000,0.0324,0.013523,0.002678,0.000431,0.000940
103385000,0.0324,0.013523,0.002678,0.000431,0.000940
103386000,0.0324,0.013523,0.002678,0.000431,0.000705
103387000,0.0324,0.013523,0.002678,0.000431,0.000940
103388000,0.0324,0.013523,0.002678,0.000431,0.160073
103389000,0.0324,0.013523,0.002678,0.000431,0.449898
103390000,0.0324,0.013523,0.002678,0.000431,0.535458
103391000,0.0324,0.013523,0.002678,0.000431,0.133982
103392000,0.0324,0.013523,0.002678,0.000431,0.131632
103393000,0.0324,0.013523,0.002678,0.000431,0.546389
103394000,0.0324,0.013523,0.002678,0.000431,0.236702
103395000,0.0324,0.013523,0.002678,0.000431,0.237524
103396000,0.0324,0.013523,0.002678,0.000431,0.314153
103397000,0.0324,0.013523,0.002678,0.000431,0.135040
103398000,0.0324,0.013523,0.002678,0.000431,0.143972
103399000,0.0324,0.013523,0.002678,0.000431,0.161836
103400000,0.0324,0.013523,0.002678,0.000431,0.143149
103401000,0.0324,0.013523,0.002678,0.000431,0.451426
103402000,0.0324,0.013523,0.002678,0.000431,0.083563
103403000,0.0324,0.013523,0.002678,0.000431,0.059469
103404000,0.0324,0.013523,0.002678,0.000431,0.058059
103405000,0.0324,0.013523,0.002678,0.000431,0.045601
103406000,0.0324,0.013523,0.002678,0.000431,0.041723
103407000,0.0324,0.013523,0.002678,0.000431,0.041723
103408000,0.0324,0.013523,0.002678,0.000431,0.033025
103409000,0.0324,0.013523,0.002678,0.000431,0.034671
103410000,0.0324,0.013523,0.002678,0.000431,0.029265
103411000,0.0324,0.013523,0.002678,0.000431,0.028207
103412000,0.0324,0.013523,0.002678,0.000431,0.023858
103413000,0.0324,0.013523,0.002678,0.000431,0.023388
103414000,0.0324,0.013523,0.002678,0.000431,0.023271
103415000,0.0324,0.013523,0.002678,0.000431,0.024681
103416000,0.0324,0.013523,0.002678,0.000431,0.022918
103417000,0.0324,0.013523,0.002678,0.000431,0.023153
103418000,0.0324,0.013523,0.002678,0.000431,0.017864
103419000,0.0324,0.013523,0.002678,0.000431,0.014103
103420000,0.0324,0.013523,0.002678,0.000431,0.009990
103421000,0.0324,0.013523,0.002678,0.000431,0.009050
103422000,0.0324,0.013523,0.002678,0.000431,0.009520
103423000,0.0324,0.013523,0.002678,0.000431,0.010342
103424000,0.0324,0.013523,0.002678,0.000431,0.009755
103425000,0.0324,0.013523,0.002678,0.000431,0.008345
103426000,0.0324,0.013523,0.002678,0.000431,0.008697
103427000,0.0324,0.013523,0.002678,0.000431,0.008227
103428000,0.0324,0.013523,0.002678,0.000431,0.007992
103429000,0.0324,0.013523,0.002678,0.000431,0.008462
103430000,0.0324,0.013523,0.002678,0.000431,0.010460
103431000,0.0324,0.013523,0.002678,0.000431,0.008345
103432000,0.0324,0.013523,0.002678,0.000431,0.006464
103433000,0.0324,0.013523,0.002678,0.000431,0.006582
103434000,0.0324,0.013523,0.002678,0.000431,0.006582
103435000,0.0324,0.013523,0.002678,0.000431,0.006582
103436000,0.0324,0.013523,0.002678,0.000431,0.006699
103437000,0.0324,0.013523,0.002678,0.000431,0.006699
103438000,0.0324,0.013523,0.002678,0.000431,0.006817
103439000,0.0324,0.013523,0.002678,0.000431,0.006699
103440000,0.0324,0.013523,0.002678,0.000431,0.006582
103441000,0.0324,0.013523,0.002678,0.000431,0.006464
103442000,0.0324,0.013523,0.002678,0.000431,0.006934
103443000,0.0324,0.013523,0.002678,0.000431,0.006582
103444000,0.0324,0.013523,0.002678,0.000431,0.006464
103445000,0.0324,0.013523,0.002678,0.000431,0.006934
103446000,0.0324,0.013523,0.002678,0.000431,0.006111
103447000,0.0324,0.013523,0.002678,0.000431,0.006934
103448000,0.0324,0.013523,0.002678,0.000431,0.007874
103449000,0.0324,0.013523,0.002678,0.000431,0.007522
103450000,0.0324,0.013523,0.002678,0.000431,0.005759
103451000,0.0324,0.013523,0.002678,0.000431,0.005524
103452000,0.0324,0.013523,0.002678,0.000431,0.005994
103453000,0.0324,0.013523,0.002678,0.000431,0.005994
103454000,0.0324,0.013523,0.002678,0.000431,0.005641
103455000,0.0324,0.013523,0.002678,0.000431,0.005994
103456000,0.0324,0.013523,0.002678,0.000431,0.005759
103457000,0.0324,0.013523,0.002678,0.000431,0.005641
103458000,0.0324,0.013523,0.002678,0.000431,0.005641
103459000,0.0324,0.013523,0.002678,0.000431,0.006229
103460000,0.0324,0.013523,0.002678,0.000431,0.005876
103461000,0.0324,0.013523,0.002678,0.000431,0.005406
103462000,0.0324,0.013523,0.002678,0.000431,0.005994
103463000,0.0324,0.013523,0.002678,0.000431,0.005641
103464000,0.0324,0.013523,0.002678,0.000431,0.005994
103465000,0.0324,0.013523,0.002678,0.000431,0.005759
103466000,0.0324,0.013523,0.002678,0.000431,0.005406
103467000,0.0324,0.013523,0.002678,0.000431,0.006111
103468000,0.0324,0.013523,0.002678,0.000431,0.006111
103469000,0.0324,0.013523,0.002678,0.000431,0.005289
103470000,0.0324,0.013523,0.002678,0.000431,0.006111
103471000,0.0324,0.013523,0.002678,0.000431,0.005641
103472000,0.0324,0.013523,0.002678,0.000431,0.005641
103473000,0.0324,0.013523,0.002678,0.000431,0.007404
103474000,0.0324,0.013523,0.002678,0.000431,0.005524
103475000,0.0324,0.013523,0.002678,0.000431,0.004349
103476000,0.0324,0.013523,0.002678,0.000431,0.003996
103477000,0.0324,0.013523,0.002678,0.000431,0.004231
103478000,0.0324,0.013523,0.002678,0.000431,0.004466
103479000,0.0324,0.013523,0.002678,0.000431,0.004113
103480000,0.0324,0.013523,0.002678,0.000431,0.004231
103481000,0.0324,0.013523,0.002678,0.000431,0.004231
103482000,0.0324,0.013523,0.002678,0.000431,0.004349
103483000,0.0324,0.013523,0.002678,0.000431,0.004231
103484000,0.0324,0.013523,0.002678,0.000431,0.005876
103485000,0.0324,0.013523,0.002678,0.000431,0.003408
103486000,0.0324,0.013523,0.002678,0.000431,0.003408
103487000,0.0324,0.013523,0.002678,0.000431,0.003643
103488000,0.0324,0.013523,0.002678,0.000431,0.003173
103489000,0.0324,0.013523,0.002678,0.000431,0.003408
103490000,0.0324,0.013523,0.002678,0.000431,0.003408
103491000,0.0324,0.013523,0.002678,0.000431,0.003408
103492000,0.0324,0.013523,0.002678,0.000431,0.003526
103493000,0.0324,0.013523,0.002678,0.000431,0.003173
103494000,0.0324,0.013523,0.002678,0.000431,0.003643
103495000,0.0324,0.013523,0.002678,0.000431,0.003173
103496000,0.0324,0.013523,0.002678,0.000431,0.003408
103497000,0.0324,0.013523,0.002678,0.000431,0.003526
103498000,0.0324,0.013523,0.002678,0.000431,0.003173
103499000,0.0324,0.013523,0.002678,0.000431,0.003526
103500000,0.0324,0.013523,0.002678,0.000431,0.003173
103501000,0.0324,0.013523,0.002678,0.000431,0.003761
103502000,0.0324,0.013523,0.002678,0.000431,0.005289
103503000,0.0324,0.013523,0.002678,0.000431,0.004701
103504000,0.0324,0.013523,0.002678,0.000431,0.002351
103505000,0.0324,0.013523,0.002678,0.000431,0.002586
103506000,0.0324,0.013523,0.002678,0.000431,0.002703
103507000,0.0324,0.013523,0.002678,0.000431,0.002351
103508000,0.0324,0.013523,0.002678,0.000431,0.002468
103509000,0.0324,0.013523,0.002678,0.000431,0.002468
103510000,0.0324,0.013523,0.002678,0.000431,0.002703
103511000,0.0324,0.013523,0.002678,0.000431,0.002468
103512000,0.0324,0.013523,0.002678,0.000431,0.002586
103513000,0.0324,0.013523,0.002678,0.000431,0.002468
103514000,0.0324,0.013523,0.002678,0.000431,0.002468
103515000,0.0324,0.013523,0.002678,0.000431,0.002586
103516000,0.0324,0.013523,0.002678,0.000431,0.002468
103517000,0.0324,0.013523,0.002678,0.000431,0.002586
103518000,0.0324,0.013523,0.002678,0.000431,0.002233
103519000,0.0324,0.013523,0.002678,0.000431,0.002703
103520000,0.0324,0.013523,0.002678,0.000431,0.002586
103521000,0.0324,0.013523,0.002678,0.000431,0.002351
103522000,0.0324,0.013523,0.002678,0.000431,0.002703
103523000,0.0324,0.013523,0.002678,0.000431,0.002351
103524000,0.0324,0.013523,0.002678,0.000431,0.002351
103525000,0.0324,0.013523,0.002678,0.000431,0.002703
103526000,0.0324,0.013523,0.002678,0.000431,0.002586
103527000,0.0324,0.013523,0.002678,0.000431,0.002351
103528000,0.0324,0.013523,0.002678,0.000431,0.002468
103529000,0.0324,0.013523,0.002678,0.000431,0.002468
103530000,0.0324,0.013523,0.002678,0.000431,0.002586
103531000,0.0324,0.013523,0.002678,0.000431,0.002703
103532000,0.0324,0.013523,0.002678,0.000431,0.002351
103533000,0.0324,0.013523,0.002678,0.000431,0.002468
103534000,0.0324,0.013523,0.002678,0.000431,0.002351
103535000,0.0324,0.013523,0.002678,0.000431,0.002821
103536000,0.0324,0.013523,0.002678,0.000431,0.002586
103537000,0.0324,0.013523,0.002678,0.000431,0.002351
103538000,0.0324,0.013523,0.002678,0.000431,0.002586
103539000,0.0324,0.013523,0.002678,0.000431,0.002351
103540000,0.0324,0.013523,0.002678,0.000431,0.002821
103541000,0.0324,0.013523,0.002678,0.000431,0.002351
103542000,0.0324,0.013523,0.002678,0.000431,0.002586
103543000,0.0324,0.013523,0.002678,0.000431,0.002468
103544000,0.0324,0.013523,0.002678,0.000431,0.002468
103545000,0.0324,0.013523,0.002678,0.000431,0.002703
103546000,0.0324,0.013523,0.002678,0.000431,0.002351
103547000,0.0324,0.013523,0.002678,0.000431,0.002586
103548000,0.0324,0.013523,0.002678,0.000431,0.002468
103549000,0.0324,0.013523,0.002678,0.000431,0.002468
103550000,0.0324,0.013523,0.002678,0.000431,0.002468
103551000,0.0324,0.013523,0.002678,0.000431,0.002586
103552000,0.0324,0.013523,0.002678,0.000431,0.002586
103553000,0.0324,0.013523,0.002678,0.000431,0.002351
103554000,0.0324,0.013523,0.002678,0.000431,0.002703
103555000,0.0324,0.013523,0.002678,0.000431,0.002351
103556000,0.0324,0.013523,0.002678,0.000431,0.002468
103557000,0.0324,0.013523,0.002678,0.000431,0.002351
103558000,0.0324,0.013523,0.002678,0.000431,0.002821
103559000,0.0324,0.013523,0.002678,0.000431,0.002586
103560000,0.0324,0.013523,0.002678,0.000431,0.002351
103561000,0.0324,0.013523,0.002678,0.000431,0.002586
103562000,0.0324,0.013523,0.002678,0.000431,0.002351
103563000,0.0324,0.013523,0.002678,0.000431,0.002703
103564000,0.0324,0.013523,0.002678,0.000431,0.002468
103565000,0.0324,0.013523,0.002678,0.000431,0.002586
103566000,0.0324,0.013523,0.002678,0.000431,0.002468
103567000,0.0324,0.013523,0.002678,0.000431,0.002468
103568000,0.0324,0.013523,0.002678,0.000431,0.002586
103569000,0.0324,0.013523,0.002678,0.000431,0.002468
103570000,0.0324,0.013523,0.002678,0.000431,0.002586
103571000,0.0324,0.013523,0.002678,0.000431,0.002586
103572000,0.0324,0.013523,0.002678,0.000431,0.002351
103573000,0.0324,0.013523,0.002678,0.000431,0.002586
103574000,0.0324,0.013523,0.002678,0.000431,0.002468
103575000,0.0324,0.013523,0.002678,0.000431,0.002468
103576000,0.0324,0.013523,0.002678,0.000431,0.002468
103577000,0.0324,0.013523,0.002678,0.000431,0.002468
103578000,0.0324,0.013523,0.002678,0.000431,0.003643
103579000,0.0324,0.013523,0.002678,0.000431,0.003173
103580000,0.0324,0.013523,0.002678,0.000431,0.001645
103581000,0.0324,0.013523,0.002678,0.000431,0.001645
103582000,0.0324,0.013523,0.002678,0.000431,0.001645
103583000,0.0324,0.013523,0.002678,0.000431,0.001645
103584000,0.0324,0.013523,0.002678,0.000431,0.003408
103585000,0.0324,0.013523,0.002678,0.000431,0.000823
103586000,0.0324,0.013523,0.002678,0.000431,0.000823
103587000,0.0324,0.013523,0.002678,0.000431,0.000823
103588000,0.0324,0.013523,0.002678,0.000431,0.000823
103589000,0.0324,0.013523,0.002678,0.000431,0.000940
103590000,0.0324,0.013523,0.002678,0.000431,0.000705
103591000,0.0324,0.013523,0.002678,0.000431,0.000940
103592000,0.0324,0.013523,0.002678,0.000431,0.000823
103593000,0.0324,0.013523,0.002678,0.000431,0.000823
103594000,0.0324,0.013523,0.002678,0.000431,0.000823
103595000,0.0324,0.013523,0.002678,0.000431,0.000823
103596000,0.0324,0.013523,0.002678,0.000431,0.000823
103597000,0.0324,0.013523,0.002678,0.000431,0.000823
103598000,0.0324,0.013523,0.002678,0.000431,0.000940
103599000,0.0324,0.013523,0.002678,0.000431,0.000705
103600000,0.0324,0.013523,0.002678,0.000431,0.000940
103601000,0.0324,0.013523,0.002678,0.000431,0.000705
103602000,0.0324,0.013523,0.002678,0.000431,0.000940
103603000,0.0324,0.013523,0.002678,0.000431,0.000940
103604000,0.0324,0.013523,0.002678,0.000431,0.000705
103605000,0.0324,0.013523,0.002678,0.000431,0.000940
103606000,0.0324,0.013523,0.002678,0.000431,0.000705
103607000,0.0324,0.013523,0.002678,0.000431,0.000940
103608000,0.0324,0.013523,0.002678,0.000431,0.000823
103609000,0.0324,0.013523,0.002678,0.000431,0.000823
103610000,0.0324,0.013523,0.002678,0.000431,0.000823
103611000,0.0324,0.013523,0.002678,0.000431,0.000823
103612000,0.0324,0.013523,0.002678,0.000431,0.000940
103613000,0.0324,0.013523,0.002678,0.000431,0.000705
103614000,0.0324,0.013523,0.002678,0.000431,0.000940
103615000,0.0324,0.013523,0.002678,0.000431,0.000823
103616000,0.0324,0.013523,0.002678,0.000431,0.000823
103617000,0.0324,0.013523,0.002678,0.000431,0.000823
103618000,0.0324,0.013523,0.002678,0.000431,0.000823
103619000,0.0324,0.013523,0.002678,0.000431,0.000823
103620000,0.0324,0.013523,0.002678,0.000431,0.000823
103621000,0.0324,0.013523,0.002678,0.000431,0.000823
103622000,0.0324,0.013523,0.002678,0.000431,0.000823
103623000,0.0324,0.013523,0.002678,0.000431,0.000940
103624000,0.0324,0.013523,0.002678,0.000431,0.000823
103625000,0.0324,0.013523,0.002678,0.000431,0.000823
103626000,0.0324,0.013523,0.002678,0.000431,0.000705
103627000,0.0324,0.013523,0.002678,0.000431,0.000940
103628000,0.0324,0.013523,0.002678,0.000431,0.000940
103629000,0.0324,0.013523,0.002678,0.000431,0.000705
103630000,0.0324,0.013523,0.002678,0.000431,0.000940
103631000,0.0324,0.013523,0.002678,0.000431,0.000705
103632000,0.0324,0.013523,0.002678,0.000431,0.000940
103633000,0.0324,0.013523,0.002678,0.000431,0.000823
103634000,0.0324,0.013523,0.002678,0.000431,0.000823
103635000,0.0324,0.013523,0.002678,0.000431,0.000940
103636000,0.0324,0.013523,0.002678,0.000431,0.000705
103637000,0.0324,0.013523,0.002678,0.000431,0.000940
103638000,0.0324,0.013523,0.002678,0.000431,0.000823
103639000,0.0324,0.013523,0.002678,0.000431,0.000823
103640000,0.0324,0.013523,0.002678,0.000431,0.000823
103641000,0.0324,0.013523,0.002678,0.000431,0.000823
103642000,0.0324,0.013523,0.002678,0.000431,0.000940
103643000,0.0324,0.013523,0.002678,0.000431,0.000705
103644000,0.0324,0.013523,0.002678,0.000431,0.000940
103645000,0.0324,0.013523,0.002678,0.000431,0.000705
103646000,0.0324,0.013523,0.002678,0.000431,0.000940
103647000,0.0324,0.013523,0.002678,0.000431,0.000823
103648000,0.0324,0.013523,0.002678,0.000431,0.000823
103649000,0.0324,0.013523,0.002678,0.000431,0.000705
103650000,0.0324,0.013523,0.002678,0.000431,0.000940
103651000,0.0324,0.013523,0.002678,0.000431,0.000940
103652000,0.0324,0.013523,0.002678,0.000431,0.000705
103653000,0.0324,0.013523,0.002678,0.000431,0.000940
103654000,0.0324,0.013523,0.002678,0.000431,0.000705
103655000,0.0324,0.013523,0.002678,0.000431,0.000940
103656000,0.0324,0.013523,0.002678,0.000431,0.000823
103657000,0.0324,0.013523,0.002678,0.000431,0.000823
103658000,0.0324,0.013523,0.002678,0.000431,0.000940
103659000,0.0324,0.013523,0.002678,0.000431,0.000705
103660000,0.0324,0.013523,0.002678,0.000431,0.000940
103661000,0.0324,0.013523,0.002678,0.000431,0.000823
103662000,0.0324,0.013523,0.002678,0.000431,0.000823
103663000,0.0324,0.013523,0.002678,0.000431,0.000823
103664000,0.0324,0.013523,0.002678,0.000431,0.000823
103665000,0.0324,0.013523,0.002678,0.000431,0.000823
103666000,0.0324,0.013523,0.002678,0.000431,0.000823
103667000,0.0324,0.013523,0.002678,0.000431,0.000940
103668000,0.0324,0.013523,0.002678,0.000431,0.000705
103669000,0.0324,0.013523,0.002678,0.000431,0.000823
103670000,0.0324,0.013523,0.002678,0.000431,0.000940
103671000,0.0324,0.013523,0.002678,0.000431,0.000823
103672000,0.0324,0.013523,0.002678,0.000431,0.000823
103673000,0.0324,0.013523,0.002678,0.000431,0.000823
103674000,0.0324,0.013523,0.002678,0.000431,0.000823
103675000,0.0324,0.013523,0.002678,0.000431,0.000823
103676000,0.0324,0.013523,0.002678,0.000431,0.000940
103677000,0.0324,0.013523,0.002678,0.000431,0.000823
103678000,0.0324,0.013523,0.002678,0.000431,0.000823
103679000,0.0324,0.013523,0.002678,0.000431,0.000705
103680000,0.0324,0.013523,0.002678,0.000431,0.000940
103681000,0.0324,0.013523,0.002678,0.000431,0.000940
103682000,0.0324,0.013523,0.002678,0.000431,0.000705
103683000,0.0324,0.013523,0.002678,0.000431,0.000940
103684000,0.0324,0.013523,0.002678,0.000431,0.000705
103685000,0.0324,0.013523,0.002678,0.000431,0.000940
103686000,0.0324,0.013523,0.002678,0.000431,0.000823
103687000,0.0324,0.013523,0.002678,0.000431,0.000823
103688000,0.0324,0.013523,0.002678,0.000431,0.000823
103689000,0.0324,0.013523,0.002678,0.000431,0.000823
103690000,0.0324,0.013523,0.002678,0.000431,0.000940
103691000,0.0324,0.013523,0.002678,0.000431,0.000823
103692000,0.0324,0.013523,0.002678,0.000431,0.000823
103693000,0.0324,0.013523,0.002678,0.000431,0.000823
103694000,0.0324,0.013523,0.002678,0.000431,0.000823
103695000,0.0324,0.013523,0.002678,0.000431,0.000823
103696000,0.0324,0.013523,0.002678,0.000431,0.000823
103697000,0.0324,0.013523,0.002678,0.000431,0.000940
103698000,0.0324,0.013523,0.002678,0.000431,0.000705
103699000,0.0324,0.013523,0.002678,0.000431,0.000940
103700000,0.0324,0.013523,0.002678,0.000431,0.000823
103701000,0.0324,0.013523,0.002678,0.000431,0.000823
103702000,0.0324,0.013523,0.002678,0.000431,0.000705
103703000,0.0324,0.013523,0.002678,0.000431,0.000940
103704000,0.0324,0.013523,0.002678,0.000431,0.001998
103705000,0.0324,0.013523,0.002678,0.000431,0.330607
103706000,0.0324,0.013523,0.002678,0.000431,0.661449
103707000,0.0324,0.013523,0.002678,0.000431,0.227770
103708000,0.0324,0.013523,0.002678,0.000431,0.133512
103709000,0.0324,0.013523,0.002678,0.000431,0.132572
103710000,0.0324,0.013523,0.002678,0.000431,0.595633
103711000,0.0324,0.013523,0.002678,0.000431,0.235056
103712000,0.0324,0.013523,0.002678,0.000431,0.273958
103713000,0.0324,0.013523,0.002678,0.000431,0.237407
103714000,0.0324,0.013523,0.002678,0.000431,0.137978
103715000,0.0324,0.013523,0.002678,0.000431,0.162189
103716000,0.0324,0.013523,0.002678,0.000431,0.112592
103717000,0.0324,0.013523,0.002678,0.000431,0.424277
103718000,0.0324,0.013523,0.002678,0.000431,0.168300
103719000,0.0324,0.013523,0.002678,0.000431,0.060880
103720000,0.0324,0.013523,0.002678,0.000431,0.047834
103721000,0.0324,0.013523,0.002678,0.000431,0.038549
103722000,0.0324,0.013523,0.002678,0.000431,0.033143
103723000,0.0324,0.013523,0.002678,0.000431,0.033613
103724000,0.0324,0.013523,0.002678,0.000431,0.030675
103725000,0.0324,0.013523,0.002678,0.000431,0.027267
103726000,0.0324,0.013523,0.002678,0.000431,0.029970
103727000,0.0324,0.013523,0.002678,0.000431,0.022213
103728000,0.0324,0.013523,0.002678,0.000431,0.026091
103729000,0.0324,0.013523,0.002678,0.000431,0.022213
103730000,0.0324,0.013523,0.002678,0.000431,0.019040
103731000,0.0324,0.013523,0.002678,0.000431,0.019862
103732000,0.0324,0.013523,0.002678,0.000431,0.019392
103733000,0.0324,0.013523,0.002678,0.000431,0.021390
103734000,0.0324,0.013523,0.002678,0.000431,0.017394
103735000,0.0324,0.013523,0.002678,0.000431,0.015749
103736000,0.0324,0.013523,0.002678,0.000431,0.016219
103737000,0.0324,0.013523,0.002678,0.000431,0.015514
103738000,0.0324,0.013523,0.002678,0.000431,0.014573
103739000,0.0324,0.013523,0.002678,0.000431,0.012576
103740000,0.0324,0.013523,0.002678,0.000431,0.011870
103741000,0.0324,0.013523,0.002678,0.000431,0.014338
103742000,0.0324,0.013523,0.002678,0.000431,0.015749
103743000,0.0324,0.013523,0.002678,0.000431,0.007522
103744000,0.0324,0.013523,0.002678,0.000431,0.008697
103745000,0.0324,0.013523,0.002678,0.000431,0.010225
103746000,0.0324,0.013523,0.002678,0.000431,0.009520
103747000,0.0324,0.013523,0.002678,0.000431,0.005994
103748000,0.0324,0.013523,0.002678,0.000431,0.005524
103749000,0.0324,0.013523,0.002678,0.000431,0.006347
103750000,0.0324,0.013523,0.002678,0.000431,0.005171
103751000,0.0324,0.013523,0.002678,0.000431,0.006111
103752000,0.0324,0.013523,0.002678,0.000431,0.005759
103753000,0.0324,0.013523,0.002678,0.000431,0.005641
103754000,0.0324,0.013523,0.002678,0.000431,0.005994
103755000,0.0324,0.013523,0.002678,0.000431,0.005524
103756000,0.0324,0.013523,0.002678,0.000431,0.005759
103757000,0.0324,0.013523,0.002678,0.000431,0.005994
103758000,0.0324,0.013523,0.002678,0.000431,0.005524
103759000,0.0324,0.013523,0.002678,0.000431,0.005876
103760000,0.0324,0.013523,0.002678,0.000431,0.005759
103761000,0.0324,0.013523,0.002678,0.000431,0.005641
103762000,0.0324,0.013523,0.002678,0.000431,0.006111
103763000,0.0324,0.013523,0.002678,0.000431,0.005171
103764000,0.0324,0.013523,0.002678,0.000431,0.006347
103765000,0.0324,0.013523,0.002678,0.000431,0.005641
103766000,0.0324,0.013523,0.002678,0.000431,0.005876
103767000,0.0324,0.013523,0.002678,0.000431,0.005641
103768000,0.0324,0.013523,0.002678,0.000431,0.005641
103769000,0.0324,0.013523,0.002678,0.000431,0.005759
103770000,0.0324,0.013523,0.002678,0.000431,0.007052
103771000,0.0324,0.013523,0.002678,0.000431,0.007287
103772000,0.0324,0.013523,0.002678,0.000431,0.004113
103773000,0.0324,0.013523,0.002678,0.000431,0.003996
103774000,0.0324,0.013523,0.002678,0.000431,0.003173
103775000,0.0324,0.013523,0.002678,0.000431,0.003291
103776000,0.0324,0.013523,0.002678,0.000431,0.003173
103777000,0.0324,0.013523,0.002678,0.000431,0.003408
103778000,0.0324,0.013523,0.002678,0.000431,0.003526
103779000,0.0324,0.013523,0.002678,0.000431,0.002821
103780000,0.0324,0.013523,0.002678,0.000431,0.003643
103781000,0.0324,0.013523,0.002678,0.000431,0.003173
103782000,0.0324,0.013523,0.002678,0.000431,0.003173
103783000,0.0324,0.013523,0.002678,0.000431,0.003408
103784000,0.0324,0.013523,0.002678,0.000431,0.003291
103785000,0.0324,0.013523,0.002678,0.000431,0.003526
103786000,0.0324,0.013523,0.002678,0.000431,0.002938
103787000,0.0324,0.013523,0.002678,0.000431,0.003526
103788000,0.0324,0.013523,0.002678,0.000431,0.003056
103789000,0.0324,0.013523,0.002678,0.000431,0.003408
103790000,0.0324,0.013523,0.002678,0.000431,0.003408
103791000,0.0324,0.013523,0.002678,0.000431,0.003173
103792000,0.0324,0.013523,0.002678,0.000431,0.003291
103793000,0.0324,0.013523,0.002678,0.000431,0.003291
103794000,0.0324,0.013523,0.002678,0.000431,0.003173
103795000,0.0324,0.013523,0.002678,0.000431,0.003526
103796000,0.0324,0.013523,0.002678,0.000431,0.003291
103797000,0.0324,0.013523,0.002678,0.000431,0.005171
103798000,0.0324,0.013523,0.002678,0.000431,0.002821
103799000,0.0324,0.013523,0.002678,0.000431,0.002233
103800000,0.0324,0.013523,0.002678,0.000431,0.002586
103801000,0.0324,0.013523,0.002678,0.000431,0.002233
103802000,0.0324,0.013523,0.002678,0.000431,0.002468
103803000,0.0324,0.013523,0.002678,0.000431,0.002821
103804000,0.0324,0.013523,0.002678,0.000431,0.003878
103805000,0.0324,0.013523,0.002678,0.000431,0.000940
103806000,0.0324,0.013523,0.002678,0.000431,0.000823
103807000,0.0324,0.013523,0.002678,0.000431,0.000940
103808000,0.0324,0.013523,0.002678,0.000431,0.000940
103809000,0.0324,0.013523,0.002678,0.000431,0.000705
103810000,0.0324,0.013523,0.002678,0.000431,0.000940
103811000,0.0324,0.013523,0.002678,0.000431,0.000940
103812000,0.0324,0.013523,0.002678,0.000431,0.000940
103813000,0.0324,0.013523,0.002678,0.000431,0.000705
103814000,0.0324,0.013523,0.002678,0.000431,0.000940
103815000,0.0324,0.013523,0.002678,0.000431,0.000940
103816000,0.0324,0.013523,0.002678,0.000431,0.000823
103817000,0.0324,0.013523,0.002678,0.000431,0.000940
103818000,0.0324,0.013523,0.002678,0.000431,0.000823
103819000,0.0324,0.013523,0.002678,0.000431,0.000940
103820000,0.0324,0.013523,0.002678,0.000431,0.000823
103821000,0.0324,0.013523,0.002678,0.000431,0.000823
103822000,0.0324,0.013523,0.002678,0.000431,0.000940
103823000,0.0324,0.013523,0.002678,0.000431,0.000940
103824000,0.0324,0.013523,0.002678,0.000431,0.000705
103825000,0.0324,0.013523,0.002678,0.000431,0.000940
103826000,0.0324,0.013523,0.002678,0.000431,0.000940
103827000,0.0324,0.013523,0.002678,0.000431,0.000940
103828000,0.0324,0.013523,0.002678,0.000431,0.000705
103829000,0.0324,0.013523,0.002678,0.000431,0.000940
103830000,0.0324,0.013523,0.002678,0.000431,0.000940
103831000,0.0324,0.013523,0.002678,0.000431,0.000823
103832000,0.0324,0.013523,0.002678,0.000431,0.000823
103833000,0.0324,0.013523,0.002678,0.000431,0.000940
103834000,0.0324,0.013523,0.002678,0.000431,0.000940
103835000,0.0324,0.013523,0.002678,0.000431,0.000823
103836000,0.0324,0.013523,0.002678,0.000431,0.000823
103837000,0.0324,0.013523,0.002678,0.000431,0.000940
103838000,0.0324,0.013523,0.002678,0.000431,0.000823
103839000,0.0324,0.013523,0.002678,0.000431,0.000940
103840000,0.0324,0.013523,0.002678,0.000431,0.000823
103841000,0.0324,0.013523,0.002678,0.000431,0.000940
103842000,0.0324,0.013523,0.002678,0.000431,0.000823
103843000,0.0324,0.013523,0.002678,0.000431,0.000823
103844000,0.0324,0.013523,0.002678,0.000431,0.000940
103845000,0.0324,0.013523,0.002678,0.000431,0.000940
103846000,0.0324,0.013523,0.002678,0.000431,0.000823
103847000,0.0324,0.013523,0.002678,0.000431,0.000823
103848000,0.0324,0.013523,0.002678,0.000431,0.000940
103849000,0.0324,0.013523,0.002678,0.000431,0.000940
103850000,0.0324,0.013523,0.002678,0.000431,0.000823
103851000,0.0324,0.013523,0.002678,0.000431,0.000823
103852000,0.0324,0.013523,0.002678,0.000431,0.000940
103853000,0.0324,0.013523,0.002678,0.000431,0.000940
103854000,0.0324,0.013523,0.002678,0.000431,0.000823
103855000,0.0324,0.013523,0.002678,0.000431,0.000823
103856000,0.0324,0.013523,0.002678,0.000431,0.000940
103857000,0.0324,0.013523,0.002678,0.000431,0.000823
103858000,0.0324,0.013523,0.002678,0.000431,0.000940
103859000,0.0324,0.013523,0.002678,0.000431,0.000823
103860000,0.0324,0.013523,0.002678,0.000431,0.000940
103861000,0.0324,0.013523,0.002678,0.000431,0.000823
103862000,0.0324,0.013523,0.002678,0.000431,0.000823
103863000,0.0324,0.013523,0.002678,0.000431,0.000940
103864000,0.0324,0.013523,0.002678,0.000431,0.000940
103865000,0.0324,0.013523,0.002678,0.000431,0.000823
103866000,0.0324,0.013523,0.002678,0.000431,0.000823
103867000,0.0324,0.013523,0.002678,0.000431,0.000940
103868000,0.0324,0.013523,0.002678,0.000431,0.000940
103869000,0.0324,0.013523,0.002678,0.000431,0.000705
103870000,0.0324,0.013523,0.002678,0.000431,0.000940
103871000,0.0324,0.013523,0.002678,0.000431,0.000940
103872000,0.0324,0.013523,0.002678,0.000431,0.000823
103873000,0.0324,0.013523,0.002678,0.000431,0.000940
103874000,0.0324,0.013523,0.002678,0.000431,0.000823
103875000,0.0324,0.013523,0.002678,0.000431,0.000940
103876000,0.0324,0.013523,0.002678,0.000431,0.000823
103877000,0.0324,0.013523,0.002678,0.000431,0.000823
103878000,0.0324,0.013523,0.002678,0.000431,0.000940
103879000,0.0324,0.013523,0.002678,0.000431,0.000823
103880000,0.0324,0.013523,0.002678,0.000431,0.000940
103881000,0.0324,0.013523,0.002678,0.000431,0.000823
103882000,0.0324,0.013523,0.002678,0.000431,0.000940
103883000,0.0324,0.013523,0.002678,0.000431,0.000940
103884000,0.0324,0.013523,0.002678,0.000431,0.000705
103885000,0.0324,0.013523,0.002678,0.000431,0.000940
103886000,0.0324,0.013523,0.002678,0.000431,0.000940
103887000,0.0324,0.013523,0.002678,0.000431,0.000940
103888000,0.0324,0.013523,0.002678,0.000431,0.000705
103889000,0.0324,0.013523,0.002678,0.000431,0.000940
103890000,0.0324,0.013523,0.002678,0.000431,0.000940
103891000,0.0324,0.013523,0.002678,0.000431,0.000823
103892000,0.0324,0.013523,0.002678,0.000431,0.000823
103893000,0.0324,0.013523,0.002678,0.000431,0.200503
103894000,0.0324,0.013523,0.002678,0.000431,0.584350
103895000,0.0324,0.013523,0.002678,0.000431,0.398185
103896000,0.0324,0.013523,0.002678,0.000431,0.132102
103897000,0.0324,0.013523,0.002678,0.000431,0.140799
103898000,0.0324,0.013523,0.002678,0.000431,0.656160
103899000,0.0324,0.013523,0.002678,0.000431,0.235762
103900000,0.0324,0.013523,0.002678,0.000431,0.276309
103901000,0.0324,0.013523,0.002678,0.000431,0.260207
103902000,0.0324,0.013523,0.002678,0.000431,0.137390
103903000,0.0324,0.013523,0.002678,0.000431,0.161484
103904000,0.0324,0.013523,0.002678,0.000431,0.140799
103905000,0.0324,0.013523,0.002678,0.000431,0.455422
103906000,0.0324,0.013523,0.002678,0.000431,0.077686
103907000,0.0324,0.013523,0.002678,0.000431,0.057706
103908000,0.0324,0.013523,0.002678,0.000431,0.044661
103909000,0.0324,0.013523,0.002678,0.000431,0.036669
103910000,0.0324,0.013523,0.002678,0.000431,0.035846
103911000,0.0324,0.013523,0.002678,0.000431,0.035023
103912000,0.0324,0.013523,0.002678,0.000431,0.031027
103913000,0.0324,0.013523,0.002678,0.000431,0.034906
103914000,0.0324,0.013523,0.002678,0.000431,0.024916
103915000,0.0324,0.013523,0.002678,0.000431,0.026914
103916000,0.0324,0.013523,0.002678,0.000431,0.018922
103917000,0.0324,0.013523,0.002678,0.000431,0.021155
103918000,0.0324,0.013523,0.002678,0.000431,0.023153
103919000,0.0324,0.013523,0.002678,0.000431,0.014691
103920000,0.0324,0.013523,0.002678,0.000431,0.016219
103921000,0.0324,0.013523,0.002678,0.000431,0.015631
103922000,0.0324,0.013523,0.002678,0.000431,0.015396
103923000,0.0324,0.013523,0.002678,0.000431,0.013633
103924000,0.0324,0.013523,0.002678,0.000431,0.012811
103925000,0.0324,0.013523,0.002678,0.000431,0.012928
103926000,0.0324,0.013523,0.002678,0.000431,0.017042
103927000,0.0324,0.013523,0.002678,0.000431,0.012576
103928000,0.0324,0.013523,0.002678,0.000431,0.013163
103929000,0.0324,0.013523,0.002678,0.000431,0.011165
103930000,0.0324,0.013523,0.002678,0.000431,0.013281
103931000,0.0324,0.013523,0.002678,0.000431,0.011400
103932000,0.0324,0.013523,0.002678,0.000431,0.009755
103933000,0.0324,0.013523,0.002678,0.000431,0.011048
103934000,0.0324,0.013523,0.002678,0.000431,0.010813
103935000,0.0324,0.013523,0.002678,0.000431,0.010578
103936000,0.0324,0.013523,0.002678,0.000431,0.010578
103937000,0.0324,0.013523,0.002678,0.000431,0.010342
103938000,0.0324,0.013523,0.002678,0.000431,0.011518
103939000,0.0324,0.013523,0.002678,0.000431,0.009990
103940000,0.0324,0.013523,0.002678,0.000431,0.010813
103941000,0.0324,0.013523,0.002678,0.000431,0.010813
103942000,0.0324,0.013523,0.002678,0.000431,0.010813
103943000,0.0324,0.013523,0.002678,0.000431,0.012340
103944000,0.0324,0.013523,0.002678,0.000431,0.009167
103945000,0.0324,0.013523,0.002678,0.000431,0.010225
103946000,0.0324,0.013523,0.002678,0.000431,0.009520
103947000,0.0324,0.013523,0.002678,0.000431,0.009520
103948000,0.0324,0.013523,0.002678,0.000431,0.011753
103949000,0.0324,0.013523,0.002678,0.000431,0.008580
103950000,0.0324,0.013523,0.002678,0.000431,0.009637
103951000,0.0324,0.013523,0.002678,0.000431,0.008462
103952000,0.0324,0.013523,0.002678,0.000431,0.008932
103953000,0.0324,0.013523,0.002678,0.000431,0.009167
103954000,0.0324,0.013523,0.002678,0.000431,0.008697
103955000,0.0324,0.013523,0.002678,0.000431,0.009285
103956000,0.0324,0.013523,0.002678,0.000431,0.008462
103957000,0.0324,0.013523,0.002678,0.000431,0.009520
103958000,0.0324,0.013523,0.002678,0.000431,0.008345
103959000,0.0324,0.013523,0.002678,0.000431,0.009167
103960000,0.0324,0.013523,0.002678,0.000431,0.009050
103961000,0.0324,0.013523,0.002678,0.000431,0.008815
103962000,0.0324,0.013523,0.002678,0.000431,0.009050
103963000,0.0324,0.013523,0.002678,0.000431,0.009050
103964000,0.0324,0.013523,0.002678,0.000431,0.009402
103965000,0.0324,0.013523,0.002678,0.000431,0.008109
103966000,0.0324,0.013523,0.002678,0.000431,0.007639
103967000,0.0324,0.013523,0.002678,0.000431,0.010342
103968000,0.0324,0.013523,0.002678,0.000431,0.007169
103969000,0.0324,0.013523,0.002678,0.000431,0.007522
103970000,0.0324,0.013523,0.002678,0.000431,0.007992
103971000,0.0324,0.013523,0.002678,0.000431,0.007169
103972000,0.0324,0.013523,0.002678,0.000431,0.008109
103973000,0.0324,0.013523,0.002678,0.000431,0.005289
103974000,0.0324,0.013523,0.002678,0.000431,0.005641
103975000,0.0324,0.013523,0.002678,0.000431,0.005524
103976000,0.0324,0.013523,0.002678,0.000431,0.005524
103977000,0.0324,0.013523,0.002678,0.000431,0.006934
103978000,0.0324,0.013523,0.002678,0.000431,0.006582
103979000,0.0324,0.013523,0.002678,0.000431,0.004349
103980000,0.0324,0.013523,0.002678,0.000431,0.002586
103981000,0.0324,0.013523,0.002678,0.000431,0.003056
103982000,0.0324,0.013523,0.002678,0.000431,0.004349
103983000,0.0324,0.013523,0.002678,0.000431,0.002233
103984000,0.0324,0.013523,0.002678,0.000431,0.002233
103985000,0.0324,0.013523,0.002678,0.000431,0.001763
103986000,0.0324,0.013523,0.002678,0.000431,0.002586
103987000,0.0324,0.013523,0.002678,0.000431,0.001880
103988000,0.0324,0.013523,0.002678,0.000431,0.001998
103989000,0.0324,0.013523,0.002678,0.000431,0.002351
103990000,0.0324,0.013523,0.002678,0.000431,0.003056
103991000,0.0324,0.013523,0.002678,0.000431,0.001645
103992000,0.0324,0.013523,0.002678,0.000431,0.002233
103993000,0.0324,0.013523,0.002678,0.000431,0.369626
103994000,0.0324,0.013523,0.002678,0.000431,0.685072
103995000,0.0324,0.013523,0.002678,0.000431,0.157253
103996000,0.0324,0.013523,0.002678,0.000431,0.133512
103997000,0.0324,0.013523,0.002678,0.000431,0.242343
103998000,0.0324,0.013523,0.002678,0.000431,0.631126
103999000,0.0324,0.013523,0.002678,0.000431,0.235291
