Cycle,Area(mm^2),PeakDynamic(W),SubthresholdLeakage(W),GateLeakage(W),RunTimeDynamic(W)
153000000,0.0324,0.013523,0.002678,0.000431,0.000823
153001000,0.0324,0.013523,0.002678,0.000431,0.000940
153002000,0.0324,0.013523,0.002678,0.000431,0.000705
153003000,0.0324,0.013523,0.002678,0.000431,0.000940
153004000,0.0324,0.013523,0.002678,0.000431,0.000823
153005000,0.0324,0.013523,0.002678,0.000431,0.000823
153006000,0.0324,0.013523,0.002678,0.000431,0.000940
153007000,0.0324,0.013523,0.002678,0.000431,0.000823
153008000,0.0324,0.013523,0.002678,0.000431,0.000823
153009000,0.0324,0.013523,0.002678,0.000431,0.000940
153010000,0.0324,0.013523,0.002678,0.000431,0.000705
153011000,0.0324,0.013523,0.002678,0.000431,0.000940
153012000,0.0324,0.013523,0.002678,0.000431,0.000823
153013000,0.0324,0.013523,0.002678,0.000431,0.000823
153014000,0.0324,0.013523,0.002678,0.000431,0.000940
153015000,0.0324,0.013523,0.002678,0.000431,0.000823
153016000,0.0324,0.013523,0.002678,0.000431,0.000823
153017000,0.0324,0.013523,0.002678,0.000431,0.000940
153018000,0.0324,0.013523,0.002678,0.000431,0.000705
153019000,0.0324,0.013523,0.002678,0.000431,0.000940
153020000,0.0324,0.013523,0.002678,0.000431,0.000823
153021000,0.0324,0.013523,0.002678,0.000431,0.000823
153022000,0.0324,0.013523,0.002678,0.000431,0.000940
153023000,0.0324,0.013523,0.002678,0.000431,0.000823
153024000,0.0324,0.013523,0.002678,0.000431,0.000823
153025000,0.0324,0.013523,0.002678,0.000431,0.000940
153026000,0.0324,0.013523,0.002678,0.000431,0.000705
153027000,0.0324,0.013523,0.002678,0.000431,0.000940
153028000,0.0324,0.013523,0.002678,0.000431,0.000823
153029000,0.0324,0.013523,0.002678,0.000431,0.000823
153030000,0.0324,0.013523,0.002678,0.000431,0.000940
153031000,0.0324,0.013523,0.002678,0.000431,0.000823
153032000,0.0324,0.013523,0.002678,0.000431,0.000823
153033000,0.0324,0.013523,0.002678,0.000431,0.000940
153034000,0.0324,0.013523,0.002678,0.000431,0.000705
153035000,0.0324,0.013523,0.002678,0.000431,0.000940
153036000,0.0324,0.013523,0.002678,0.000431,0.000823
153037000,0.0324,0.013523,0.002678,0.000431,0.000823
153038000,0.0324,0.013523,0.002678,0.000431,0.000940
153039000,0.0324,0.013523,0.002678,0.000431,0.000823
153040000,0.0324,0.013523,0.002678,0.000431,0.000823
153041000,0.0324,0.013523,0.002678,0.000431,0.000940
153042000,0.0324,0.013523,0.002678,0.000431,0.002116
153043000,0.0324,0.013523,0.002678,0.000431,0.550267
153044000,0.0324,0.013523,0.002678,0.000431,0.753238
153045000,0.0324,0.013523,0.002678,0.000431,0.141269
153046000,0.0324,0.013523,0.002678,0.000431,0.135510
153047000,0.0324,0.013523,0.002678,0.000431,0.587758
153048000,0.0324,0.013523,0.002678,0.000431,0.243401
153049000,0.0324,0.013523,0.002678,0.000431,0.359401
153050000,0.0324,0.013523,0.002678,0.000431,0.179818
153051000,0.0324,0.013523,0.002678,0.000431,0.151376
153052000,0.0324,0.013523,0.002678,0.000431,0.174647
153053000,0.0324,0.013523,0.002678,0.000431,0.477635
153054000,0.0324,0.013523,0.002678,0.000431,0.157018
153055000,0.0324,0.013523,0.002678,0.000431,0.143267
153056000,0.0324,0.013523,0.002678,0.000431,0.121289
153057000,0.0324,0.013523,0.002678,0.000431,0.117176
153058000,0.0324,0.013523,0.002678,0.000431,0.103542
153059000,0.0324,0.013523,0.002678,0.000431,0.095785
153060000,0.0324,0.013523,0.002678,0.000431,0.085090
153061000,0.0324,0.013523,0.002678,0.000431,0.073220
153062000,0.0324,0.013523,0.002678,0.000431,0.066286
153063000,0.0324,0.013523,0.002678,0.000431,0.066168
153064000,0.0324,0.013523,0.002678,0.000431,0.064053
153065000,0.0324,0.013523,0.002678,0.000431,0.063700
153066000,0.0324,0.013523,0.002678,0.000431,0.051007
153067000,0.0324,0.013523,0.002678,0.000431,0.051125
153068000,0.0324,0.013523,0.002678,0.000431,0.047834
153069000,0.0324,0.013523,0.002678,0.000431,0.045366
153070000,0.0324,0.013523,0.002678,0.000431,0.046189
153071000,0.0324,0.013523,0.002678,0.000431,0.046071
153072000,0.0324,0.013523,0.002678,0.000431,0.041487
153073000,0.0324,0.013523,0.002678,0.000431,0.035846
153074000,0.0324,0.013523,0.002678,0.000431,0.041370
153075000,0.0324,0.013523,0.002678,0.000431,0.039489
153076000,0.0324,0.013523,0.002678,0.000431,0.036551
153077000,0.0324,0.013523,0.002678,0.000431,0.034906
153078000,0.0324,0.013523,0.002678,0.000431,0.035376
153079000,0.0324,0.013523,0.002678,0.000431,0.036669
153080000,0.0324,0.013523,0.002678,0.000431,0.035964
153081000,0.0324,0.013523,0.002678,0.000431,0.035846
153082000,0.0324,0.013523,0.002678,0.000431,0.034318
153083000,0.0324,0.013523,0.002678,0.000431,0.031145
153084000,0.0324,0.013523,0.002678,0.000431,0.028442
153085000,0.0324,0.013523,0.002678,0.000431,0.029617
153086000,0.0324,0.013523,0.002678,0.000431,0.027972
153087000,0.0324,0.013523,0.002678,0.000431,0.027031
153088000,0.0324,0.013523,0.002678,0.000431,0.028912
153089000,0.0324,0.013523,0.002678,0.000431,0.025386
153090000,0.0324,0.013523,0.002678,0.000431,0.026444
153091000,0.0324,0.013523,0.002678,0.000431,0.022800
153092000,0.0324,0.013523,0.002678,0.000431,0.024563
153093000,0.0324,0.013523,0.002678,0.000431,0.021743
153094000,0.0324,0.013523,0.002678,0.000431,0.026209
153095000,0.0324,0.013523,0.002678,0.000431,0.024328
153096000,0.0324,0.013523,0.002678,0.000431,0.021038
153097000,0.0324,0.013523,0.002678,0.000431,0.023271
153098000,0.0324,0.013523,0.002678,0.000431,0.023623
153099000,0.0324,0.013523,0.002678,0.000431,0.021625
153100000,0.0324,0.013523,0.002678,0.000431,0.020215
153101000,0.0324,0.013523,0.002678,0.000431,0.019627
153102000,0.0324,0.013523,0.002678,0.000431,0.021390
153103000,0.0324,0.013523,0.002678,0.000431,0.020097
153104000,0.0324,0.013523,0.002678,0.000431,0.020920
153105000,0.0324,0.013523,0.002678,0.000431,0.019510
153106000,0.0324,0.013523,0.002678,0.000431,0.020097
153107000,0.0324,0.013523,0.002678,0.000431,0.021978
153108000,0.0324,0.013523,0.002678,0.000431,0.019392
153109000,0.0324,0.013523,0.002678,0.000431,0.020567
153110000,0.0324,0.013523,0.002678,0.000431,0.018334
153111000,0.0324,0.013523,0.002678,0.000431,0.016336
153112000,0.0324,0.013523,0.002678,0.000431,0.019392
153113000,0.0324,0.013523,0.002678,0.000431,0.018922
153114000,0.0324,0.013523,0.002678,0.000431,0.018334
153115000,0.0324,0.013523,0.002678,0.000431,0.016689
153116000,0.0324,0.013523,0.002678,0.000431,0.015396
153117000,0.0324,0.013523,0.002678,0.000431,0.015866
153118000,0.0324,0.013523,0.002678,0.000431,0.013986
153119000,0.0324,0.013523,0.002678,0.000431,0.014573
153120000,0.0324,0.013523,0.002678,0.000431,0.015749
153121000,0.0324,0.013523,0.002678,0.000431,0.013516
153122000,0.0324,0.013523,0.002678,0.000431,0.015396
153123000,0.0324,0.013523,0.002678,0.000431,0.014103
153124000,0.0324,0.013523,0.002678,0.000431,0.014573
153125000,0.0324,0.013523,0.002678,0.000431,0.015749
153126000,0.0324,0.013523,0.002678,0.000431,0.012811
153127000,0.0324,0.013523,0.002678,0.000431,0.015984
153128000,0.0324,0.013523,0.002678,0.000431,0.013398
153129000,0.0324,0.013523,0.002678,0.000431,0.014691
153130000,0.0324,0.013523,0.002678,0.000431,0.015631
153131000,0.0324,0.013523,0.002678,0.000431,0.013046
153132000,0.0324,0.013523,0.002678,0.000431,0.015396
153133000,0.0324,0.013523,0.002678,0.000431,0.013633
153134000,0.0324,0.013523,0.002678,0.000431,0.015044
153135000,0.0324,0.013523,0.002678,0.000431,0.014573
153136000,0.0324,0.013523,0.002678,0.000431,0.014221
153137000,0.0324,0.013523,0.002678,0.000431,0.015161
153138000,0.0324,0.013523,0.002678,0.000431,0.013986
153139000,0.0324,0.013523,0.002678,0.000431,0.014103
153140000,0.0324,0.013523,0.002678,0.000431,0.015161
153141000,0.0324,0.013523,0.002678,0.000431,0.020802
153142000,0.0324,0.013523,0.002678,0.000431,0.010813
153143000,0.0324,0.013523,0.002678,0.000431,0.011635
153144000,0.0324,0.013523,0.002678,0.000431,0.010342
153145000,0.0324,0.013523,0.002678,0.000431,0.011283
153146000,0.0324,0.013523,0.002678,0.000431,0.010578
153147000,0.0324,0.013523,0.002678,0.000431,0.011048
153148000,0.0324,0.013523,0.002678,0.000431,0.013398
153149000,0.0324,0.013523,0.002678,0.000431,0.010695
153150000,0.0324,0.013523,0.002678,0.000431,0.010225
153151000,0.0324,0.013523,0.002678,0.000431,0.009167
153152000,0.0324,0.013523,0.002678,0.000431,0.009285
153153000,0.0324,0.013523,0.002678,0.000431,0.008697
153154000,0.0324,0.013523,0.002678,0.000431,0.009637
153155000,0.0324,0.013523,0.002678,0.000431,0.006347
153156000,0.0324,0.013523,0.002678,0.000431,0.006582
153157000,0.0324,0.013523,0.002678,0.000431,0.006934
153158000,0.0324,0.013523,0.002678,0.000431,0.004701
153159000,0.0324,0.013523,0.002678,0.000431,0.005289
153160000,0.0324,0.013523,0.002678,0.000431,0.004936
153161000,0.0324,0.013523,0.002678,0.000431,0.005289
153162000,0.0324,0.013523,0.002678,0.000431,0.005289
153163000,0.0324,0.013523,0.002678,0.000431,0.005054
153164000,0.0324,0.013523,0.002678,0.000431,0.005054
153165000,0.0324,0.013523,0.002678,0.000431,0.005054
153166000,0.0324,0.013523,0.002678,0.000431,0.005406
153167000,0.0324,0.013523,0.002678,0.000431,0.005054
153168000,0.0324,0.013523,0.002678,0.000431,0.005406
153169000,0.0324,0.013523,0.002678,0.000431,0.004584
153170000,0.0324,0.013523,0.002678,0.000431,0.005641
153171000,0.0324,0.013523,0.002678,0.000431,0.005054
153172000,0.0324,0.013523,0.002678,0.000431,0.005994
153173000,0.0324,0.013523,0.002678,0.000431,0.005994
153174000,0.0324,0.013523,0.002678,0.000431,0.003408
153175000,0.0324,0.013523,0.002678,0.000431,0.005054
153176000,0.0324,0.013523,0.002678,0.000431,0.004113
153177000,0.0324,0.013523,0.002678,0.000431,0.004231
153178000,0.0324,0.013523,0.002678,0.000431,0.004466
153179000,0.0324,0.013523,0.002678,0.000431,0.003761
153180000,0.0324,0.013523,0.002678,0.000431,0.005054
153181000,0.0324,0.013523,0.002678,0.000431,0.003761
153182000,0.0324,0.013523,0.002678,0.000431,0.004584
153183000,0.0324,0.013523,0.002678,0.000431,0.004231
153184000,0.0324,0.013523,0.002678,0.000431,0.003996
153185000,0.0324,0.013523,0.002678,0.000431,0.004701
153186000,0.0324,0.013523,0.002678,0.000431,0.003878
153187000,0.0324,0.013523,0.002678,0.000431,0.004466
153188000,0.0324,0.013523,0.002678,0.000431,0.004231
153189000,0.0324,0.013523,0.002678,0.000431,0.004349
153190000,0.0324,0.013523,0.002678,0.000431,0.004349
153191000,0.0324,0.013523,0.002678,0.000431,0.004231
153192000,0.0324,0.013523,0.002678,0.000431,0.004466
153193000,0.0324,0.013523,0.002678,0.000431,0.003996
153194000,0.0324,0.013523,0.002678,0.000431,0.004113
153195000,0.0324,0.013523,0.002678,0.000431,0.004584
153196000,0.0324,0.013523,0.002678,0.000431,0.004466
153197000,0.0324,0.013523,0.002678,0.000431,0.003761
153198000,0.0324,0.013523,0.002678,0.000431,0.004701
153199000,0.0324,0.013523,0.002678,0.000431,0.003643
153200000,0.0324,0.013523,0.002678,0.000431,0.004819
153201000,0.0324,0.013523,0.002678,0.000431,0.004701
153202000,0.0324,0.013523,0.002678,0.000431,0.003408
153203000,0.0324,0.013523,0.002678,0.000431,0.005054
153204000,0.0324,0.013523,0.002678,0.000431,0.003643
153205000,0.0324,0.013523,0.002678,0.000431,0.004819
153206000,0.0324,0.013523,0.002678,0.000431,0.004349
153207000,0.0324,0.013523,0.002678,0.000431,0.003761
153208000,0.0324,0.013523,0.002678,0.000431,0.005171
153209000,0.0324,0.013523,0.002678,0.000431,0.003643
153210000,0.0324,0.013523,0.002678,0.000431,0.004936
153211000,0.0324,0.013523,0.002678,0.000431,0.004113
153212000,0.0324,0.013523,0.002678,0.000431,0.004231
153213000,0.0324,0.013523,0.002678,0.000431,0.004231
153214000,0.0324,0.013523,0.002678,0.000431,0.004113
153215000,0.0324,0.013523,0.002678,0.000431,0.004466
153216000,0.0324,0.013523,0.002678,0.000431,0.003996
153217000,0.0324,0.013523,0.002678,0.000431,0.004819
153218000,0.0324,0.013523,0.002678,0.000431,0.003996
153219000,0.0324,0.013523,0.002678,0.000431,0.004231
153220000,0.0324,0.013523,0.002678,0.000431,0.004466
153221000,0.0324,0.013523,0.002678,0.000431,0.004113
153222000,0.0324,0.013523,0.002678,0.000431,0.004113
153223000,0.0324,0.013523,0.002678,0.000431,0.004349
153224000,0.0324,0.013523,0.002678,0.000431,0.004349
153225000,0.0324,0.013523,0.002678,0.000431,0.004231
153226000,0.0324,0.013523,0.002678,0.000431,0.004584
153227000,0.0324,0.013523,0.002678,0.000431,0.004113
153228000,0.0324,0.013523,0.002678,0.000431,0.004349
153229000,0.0324,0.013523,0.002678,0.000431,0.003878
153230000,0.0324,0.013523,0.002678,0.000431,0.004584
153231000,0.0324,0.013523,0.002678,0.000431,0.004701
153232000,0.0324,0.013523,0.002678,0.000431,0.003408
153233000,0.0324,0.013523,0.002678,0.000431,0.005054
153234000,0.0324,0.013523,0.002678,0.000431,0.003878
153235000,0.0324,0.013523,0.002678,0.000431,0.004584
153236000,0.0324,0.013523,0.002678,0.000431,0.004466
153237000,0.0324,0.013523,0.002678,0.000431,0.003643
153238000,0.0324,0.013523,0.002678,0.000431,0.005054
153239000,0.0324,0.013523,0.002678,0.000431,0.003761
153240000,0.0324,0.013523,0.002678,0.000431,0.004701
153241000,0.0324,0.013523,0.002678,0.000431,0.004113
153242000,0.0324,0.013523,0.002678,0.000431,0.003996
153243000,0.0324,0.013523,0.002678,0.000431,0.004819
153244000,0.0324,0.013523,0.002678,0.000431,0.003878
153245000,0.0324,0.013523,0.002678,0.000431,0.004819
153246000,0.0324,0.013523,0.002678,0.000431,0.003878
153247000,0.0324,0.013523,0.002678,0.000431,0.004231
153248000,0.0324,0.013523,0.002678,0.000431,0.004466
153249000,0.0324,0.013523,0.002678,0.000431,0.004231
153250000,0.0324,0.013523,0.002678,0.000431,0.004231
153251000,0.0324,0.013523,0.002678,0.000431,0.004113
153252000,0.0324,0.013523,0.002678,0.000431,0.004231
153253000,0.0324,0.013523,0.002678,0.000431,0.004466
153254000,0.0324,0.013523,0.002678,0.000431,0.004584
153255000,0.0324,0.013523,0.002678,0.000431,0.003878
153256000,0.0324,0.013523,0.002678,0.000431,0.004466
153257000,0.0324,0.013523,0.002678,0.000431,0.003761
153258000,0.0324,0.013523,0.002678,0.000431,0.004701
153259000,0.0324,0.013523,0.002678,0.000431,0.004819
153260000,0.0324,0.013523,0.002678,0.000431,0.003526
153261000,0.0324,0.013523,0.002678,0.000431,0.004819
153262000,0.0324,0.013523,0.002678,0.000431,0.003526
153263000,0.0324,0.013523,0.002678,0.000431,0.004936
153264000,0.0324,0.013523,0.002678,0.000431,0.004466
153265000,0.0324,0.013523,0.002678,0.000431,0.003878
153266000,0.0324,0.013523,0.002678,0.000431,0.004701
153267000,0.0324,0.013523,0.002678,0.000431,0.003643
153268000,0.0324,0.013523,0.002678,0.000431,0.004936
153269000,0.0324,0.013523,0.002678,0.000431,0.004113
153270000,0.0324,0.013523,0.002678,0.000431,0.004231
153271000,0.0324,0.013523,0.002678,0.000431,0.004584
153272000,0.0324,0.013523,0.002678,0.000431,0.003761
153273000,0.0324,0.013523,0.002678,0.000431,0.004701
153274000,0.0324,0.013523,0.002678,0.000431,0.004113
153275000,0.0324,0.013523,0.002678,0.000431,0.004466
153276000,0.0324,0.013523,0.002678,0.000431,0.003996
153277000,0.0324,0.013523,0.002678,0.000431,0.004231
153278000,0.0324,0.013523,0.002678,0.000431,0.004584
153279000,0.0324,0.013523,0.002678,0.000431,0.003996
153280000,0.0324,0.013523,0.002678,0.000431,0.004466
153281000,0.0324,0.013523,0.002678,0.000431,0.004349
153282000,0.0324,0.013523,0.002678,0.000431,0.003996
153283000,0.0324,0.013523,0.002678,0.000431,0.004466
153284000,0.0324,0.013523,0.002678,0.000431,0.004349
153285000,0.0324,0.013523,0.002678,0.000431,0.003761
153286000,0.0324,0.013523,0.002678,0.000431,0.004701
153287000,0.0324,0.013523,0.002678,0.000431,0.004113
153288000,0.0324,0.013523,0.002678,0.000431,0.004466
153289000,0.0324,0.013523,0.002678,0.000431,0.004584
153290000,0.0324,0.013523,0.002678,0.000431,0.003761
153291000,0.0324,0.013523,0.002678,0.000431,0.004701
153292000,0.0324,0.013523,0.002678,0.000431,0.003878
153293000,0.0324,0.013523,0.002678,0.000431,0.004584
153294000,0.0324,0.013523,0.002678,0.000431,0.004466
153295000,0.0324,0.013523,0.002678,0.000431,0.003643
153296000,0.0324,0.013523,0.002678,0.000431,0.004819
153297000,0.0324,0.013523,0.002678,0.000431,0.003996
153298000,0.0324,0.013523,0.002678,0.000431,0.004701
153299000,0.0324,0.013523,0.002678,0.000431,0.004231
153300000,0.0324,0.013523,0.002678,0.000431,0.003878
153301000,0.0324,0.013523,0.002678,0.000431,0.004819
153302000,0.0324,0.013523,0.002678,0.000431,0.003996
153303000,0.0324,0.013523,0.002678,0.000431,0.004466
153304000,0.0324,0.013523,0.002678,0.000431,0.004113
153305000,0.0324,0.013523,0.002678,0.000431,0.004231
153306000,0.0324,0.013523,0.002678,0.000431,0.004584
153307000,0.0324,0.013523,0.002678,0.000431,0.005876
153308000,0.0324,0.013523,0.002678,0.000431,0.003056
153309000,0.0324,0.013523,0.002678,0.000431,0.002468
153310000,0.0324,0.013523,0.002678,0.000431,0.002351
153311000,0.0324,0.013523,0.002678,0.000431,0.004466
153312000,0.0324,0.013523,0.002678,0.000431,0.003643
153313000,0.0324,0.013523,0.002678,0.000431,0.001645
153314000,0.0324,0.013523,0.002678,0.000431,0.001998
153315000,0.0324,0.013523,0.002678,0.000431,0.001528
153316000,0.0324,0.013523,0.002678,0.000431,0.002233
153317000,0.0324,0.013523,0.002678,0.000431,0.001645
153318000,0.0324,0.013523,0.002678,0.000431,0.001998
153319000,0.0324,0.013523,0.002678,0.000431,0.001998
153320000,0.0324,0.013523,0.002678,0.000431,0.001528
153321000,0.0324,0.013523,0.002678,0.000431,0.002233
153322000,0.0324,0.013523,0.002678,0.000431,0.001645
153323000,0.0324,0.013523,0.002678,0.000431,0.001998
153324000,0.0324,0.013523,0.002678,0.000431,0.001763
153325000,0.0324,0.013523,0.002678,0.000431,0.001763
153326000,0.0324,0.013523,0.002678,0.000431,0.002233
153327000,0.0324,0.013523,0.002678,0.000431,0.001410
153328000,0.0324,0.013523,0.002678,0.000431,0.002233
153329000,0.0324,0.013523,0.002678,0.000431,0.001763
153330000,0.0324,0.013523,0.002678,0.000431,0.001763
153331000,0.0324,0.013523,0.002678,0.000431,0.002233
153332000,0.0324,0.013523,0.002678,0.000431,0.001645
153333000,0.0324,0.013523,0.002678,0.000431,0.005171
153334000,0.0324,0.013523,0.002678,0.000431,0.071575
153335000,0.0324,0.013523,0.002678,0.000431,0.651106
153336000,0.0324,0.013523,0.002678,0.000431,0.553910
153337000,0.0324,0.013523,0.002678,0.000431,0.134452
153338000,0.0324,0.013523,0.002678,0.000431,0.143032
153339000,0.0324,0.013523,0.002678,0.000431,0.631361
153340000,0.0324,0.013523,0.002678,0.000431,0.231178
153341000,0.0324,0.013523,0.002678,0.000431,0.342242
153342000,0.0324,0.013523,0.002678,0.000431,0.185224
153343000,0.0324,0.013523,0.002678,0.000431,0.157018
153344000,0.0324,0.013523,0.002678,0.000431,0.100722
153345000,0.0324,0.013523,0.002678,0.000431,0.496792
153346000,0.0324,0.013523,0.002678,0.000431,0.243401
153347000,0.0324,0.013523,0.002678,0.000431,0.163482
153348000,0.0324,0.013523,0.002678,0.000431,0.149848
153349000,0.0324,0.013523,0.002678,0.000431,0.132689
153350000,0.0324,0.013523,0.002678,0.000431,0.115883
153351000,0.0324,0.013523,0.002678,0.000431,0.098489
153352000,0.0324,0.013523,0.002678,0.000431,0.078861
153353000,0.0324,0.013523,0.002678,0.000431,0.065581
153354000,0.0324,0.013523,0.002678,0.000431,0.067109
153355000,0.0324,0.013523,0.002678,0.000431,0.053945
153356000,0.0324,0.013523,0.002678,0.000431,0.050537
153357000,0.0324,0.013523,0.002678,0.000431,0.038667
153358000,0.0324,0.013523,0.002678,0.000431,0.037609
153359000,0.0324,0.013523,0.002678,0.000431,0.032438
153360000,0.0324,0.013523,0.002678,0.000431,0.030557
153361000,0.0324,0.013523,0.002678,0.000431,0.030087
153362000,0.0324,0.013523,0.002678,0.000431,0.028324
153363000,0.0324,0.013523,0.002678,0.000431,0.031027
153364000,0.0324,0.013523,0.002678,0.000431,0.025621
153365000,0.0324,0.013523,0.002678,0.000431,0.020685
153366000,0.0324,0.013523,0.002678,0.000431,0.020215
153367000,0.0324,0.013523,0.002678,0.000431,0.016924
153368000,0.0324,0.013523,0.002678,0.000431,0.016689
153369000,0.0324,0.013523,0.002678,0.000431,0.017394
153370000,0.0324,0.013523,0.002678,0.000431,0.018569
153371000,0.0324,0.013523,0.002678,0.000431,0.012811
153372000,0.0324,0.013523,0.002678,0.000431,0.017159
153373000,0.0324,0.013523,0.002678,0.000431,0.015279
153374000,0.0324,0.013523,0.002678,0.000431,0.008697
153375000,0.0324,0.013523,0.002678,0.000431,0.008109
153376000,0.0324,0.013523,0.002678,0.000431,0.008462
153377000,0.0324,0.013523,0.002678,0.000431,0.007522
153378000,0.0324,0.013523,0.002678,0.000431,0.007874
153379000,0.0324,0.013523,0.002678,0.000431,0.007757
153380000,0.0324,0.013523,0.002678,0.000431,0.007992
153381000,0.0324,0.013523,0.002678,0.000431,0.007404
153382000,0.0324,0.013523,0.002678,0.000431,0.008345
153383000,0.0324,0.013523,0.002678,0.000431,0.007757
153384000,0.0324,0.013523,0.002678,0.000431,0.007522
153385000,0.0324,0.013523,0.002678,0.000431,0.008227
153386000,0.0324,0.013523,0.002678,0.000431,0.007757
153387000,0.0324,0.013523,0.002678,0.000431,0.007992
153388000,0.0324,0.013523,0.002678,0.000431,0.007404
153389000,0.0324,0.013523,0.002678,0.000431,0.011518
153390000,0.0324,0.013523,0.002678,0.000431,0.004819
153391000,0.0324,0.013523,0.002678,0.000431,0.006111
153392000,0.0324,0.013523,0.002678,0.000431,0.005876
153393000,0.0324,0.013523,0.002678,0.000431,0.005054
153394000,0.0324,0.013523,0.002678,0.000431,0.007169
153395000,0.0324,0.013523,0.002678,0.000431,0.005876
153396000,0.0324,0.013523,0.002678,0.000431,0.005994
153397000,0.0324,0.013523,0.002678,0.000431,0.004701
153398000,0.0324,0.013523,0.002678,0.000431,0.001998
153399000,0.0324,0.013523,0.002678,0.000431,0.001410
153400000,0.0324,0.013523,0.002678,0.000431,0.001880
153401000,0.0324,0.013523,0.002678,0.000431,0.001528
153402000,0.0324,0.013523,0.002678,0.000431,0.001763
153403000,0.0324,0.013523,0.002678,0.000431,0.001880
153404000,0.0324,0.013523,0.002678,0.000431,0.001410
153405000,0.0324,0.013523,0.002678,0.000431,0.001880
153406000,0.0324,0.013523,0.002678,0.000431,0.001528
153407000,0.0324,0.013523,0.002678,0.000431,0.001763
153408000,0.0324,0.013523,0.002678,0.000431,0.001645
153409000,0.0324,0.013523,0.002678,0.000431,0.001645
153410000,0.0324,0.013523,0.002678,0.000431,0.001763
153411000,0.0324,0.013523,0.002678,0.000431,0.001645
153412000,0.0324,0.013523,0.002678,0.000431,0.003526
153413000,0.0324,0.013523,0.002678,0.000431,0.000705
153414000,0.0324,0.013523,0.002678,0.000431,0.000940
153415000,0.0324,0.013523,0.002678,0.000431,0.000823
153416000,0.0324,0.013523,0.002678,0.000431,0.000823
153417000,0.0324,0.013523,0.002678,0.000431,0.000823
153418000,0.0324,0.013523,0.002678,0.000431,0.000823
153419000,0.0324,0.013523,0.002678,0.000431,0.000940
153420000,0.0324,0.013523,0.002678,0.000431,0.000705
153421000,0.0324,0.013523,0.002678,0.000431,0.000940
153422000,0.0324,0.013523,0.002678,0.000431,0.000823
153423000,0.0324,0.013523,0.002678,0.000431,0.000823
153424000,0.0324,0.013523,0.002678,0.000431,0.000705
153425000,0.0324,0.013523,0.002678,0.000431,0.000940
153426000,0.0324,0.013523,0.002678,0.000431,0.000940
153427000,0.0324,0.013523,0.002678,0.000431,0.000705
153428000,0.0324,0.013523,0.002678,0.000431,0.000940
153429000,0.0324,0.013523,0.002678,0.000431,0.000705
153430000,0.0324,0.013523,0.002678,0.000431,0.000940
153431000,0.0324,0.013523,0.002678,0.000431,0.000823
153432000,0.0324,0.013523,0.002678,0.000431,0.000823
153433000,0.0324,0.013523,0.002678,0.000431,0.000823
153434000,0.0324,0.013523,0.002678,0.000431,0.000823
153435000,0.0324,0.013523,0.002678,0.000431,0.000940
153436000,0.0324,0.013523,0.002678,0.000431,0.000705
153437000,0.0324,0.013523,0.002678,0.000431,0.000940
153438000,0.0324,0.013523,0.002678,0.000431,0.000823
153439000,0.0324,0.013523,0.002678,0.000431,0.000823
153440000,0.0324,0.013523,0.002678,0.000431,0.000823
153441000,0.0324,0.013523,0.002678,0.000431,0.000823
153442000,0.0324,0.013523,0.002678,0.000431,0.000823
