Cycle,Area(mm^2),PeakDynamic(W),SubthresholdLeakage(W),GateLeakage(W),RunTimeDynamic(W)
124000000,0.0324,0.013523,0.002678,0.000431,0.012340
124001000,0.0324,0.013523,0.002678,0.000431,0.010695
124002000,0.0324,0.013523,0.002678,0.000431,0.011283
124003000,0.0324,0.013523,0.002678,0.000431,0.012458
124004000,0.0324,0.013523,0.002678,0.000431,0.011400
124005000,0.0324,0.013523,0.002678,0.000431,0.010695
124006000,0.0324,0.013523,0.002678,0.000431,0.009872
124007000,0.0324,0.013523,0.002678,0.000431,0.010225
124008000,0.0324,0.013523,0.002678,0.000431,0.010578
124009000,0.0324,0.013523,0.002678,0.000431,0.009050
124010000,0.0324,0.013523,0.002678,0.000431,0.009520
124011000,0.0324,0.013523,0.002678,0.000431,0.008815
124012000,0.0324,0.013523,0.002678,0.000431,0.008345
124013000,0.0324,0.013523,0.002678,0.000431,0.007874
124014000,0.0324,0.013523,0.002678,0.000431,0.008345
124015000,0.0324,0.013523,0.002678,0.000431,0.008462
124016000,0.0324,0.013523,0.002678,0.000431,0.008815
124017000,0.0324,0.013523,0.002678,0.000431,0.007522
124018000,0.0324,0.013523,0.002678,0.000431,0.009167
124019000,0.0324,0.013523,0.002678,0.000431,0.007287
124020000,0.0324,0.013523,0.002678,0.000431,0.008932
124021000,0.0324,0.013523,0.002678,0.000431,0.008697
124022000,0.0324,0.013523,0.002678,0.000431,0.007757
124023000,0.0324,0.013523,0.002678,0.000431,0.008697
124024000,0.0324,0.013523,0.002678,0.000431,0.007639
124025000,0.0324,0.013523,0.002678,0.000431,0.010107
124026000,0.0324,0.013523,0.002678,0.000431,0.007639
124027000,0.0324,0.013523,0.002678,0.000431,0.007169
124028000,0.0324,0.013523,0.002678,0.000431,0.007639
124029000,0.0324,0.013523,0.002678,0.000431,0.007169
124030000,0.0324,0.013523,0.002678,0.000431,0.007757
124031000,0.0324,0.013523,0.002678,0.000431,0.011165
124032000,0.0324,0.013523,0.002678,0.000431,0.004936
124033000,0.0324,0.013523,0.002678,0.000431,0.005406
124034000,0.0324,0.013523,0.002678,0.000431,0.004584
124035000,0.0324,0.013523,0.002678,0.000431,0.005054
124036000,0.0324,0.013523,0.002678,0.000431,0.003996
124037000,0.0324,0.013523,0.002678,0.000431,0.004584
124038000,0.0324,0.013523,0.002678,0.000431,0.003878
124039000,0.0324,0.013523,0.002678,0.000431,0.004349
124040000,0.0324,0.013523,0.002678,0.000431,0.004231
124041000,0.0324,0.013523,0.002678,0.000431,0.006229
124042000,0.0324,0.013523,0.002678,0.000431,0.003173
124043000,0.0324,0.013523,0.002678,0.000431,0.003526
124044000,0.0324,0.013523,0.002678,0.000431,0.003526
124045000,0.0324,0.013523,0.002678,0.000431,0.002938
124046000,0.0324,0.013523,0.002678,0.000431,0.003526
124047000,0.0324,0.013523,0.002678,0.000431,0.003408
124048000,0.0324,0.013523,0.002678,0.000431,0.003408
124049000,0.0324,0.013523,0.002678,0.000431,0.002938
124050000,0.0324,0.013523,0.002678,0.000431,0.003643
124051000,0.0324,0.013523,0.002678,0.000431,0.003408
124052000,0.0324,0.013523,0.002678,0.000431,0.003173
124053000,0.0324,0.013523,0.002678,0.000431,0.003291
124054000,0.0324,0.013523,0.002678,0.000431,0.004584
124055000,0.0324,0.013523,0.002678,0.000431,0.002821
124056000,0.0324,0.013523,0.002678,0.000431,0.002468
124057000,0.0324,0.013523,0.002678,0.000431,0.002233
124058000,0.0324,0.013523,0.002678,0.000431,0.002586
124059000,0.0324,0.013523,0.002678,0.000431,0.002586
124060000,0.0324,0.013523,0.002678,0.000431,0.002586
124061000,0.0324,0.013523,0.002678,0.000431,0.002233
124062000,0.0324,0.013523,0.002678,0.000431,0.002703
124063000,0.0324,0.013523,0.002678,0.000431,0.002468
124064000,0.0324,0.013523,0.002678,0.000431,0.002233
124065000,0.0324,0.013523,0.002678,0.000431,0.002586
124066000,0.0324,0.013523,0.002678,0.000431,0.002586
124067000,0.0324,0.013523,0.002678,0.000431,0.002586
124068000,0.0324,0.013523,0.002678,0.000431,0.002116
124069000,0.0324,0.013523,0.002678,0.000431,0.002821
124070000,0.0324,0.013523,0.002678,0.000431,0.002468
124071000,0.0324,0.013523,0.002678,0.000431,0.002468
124072000,0.0324,0.013523,0.002678,0.000431,0.002351
124073000,0.0324,0.013523,0.002678,0.000431,0.002586
124074000,0.0324,0.013523,0.002678,0.000431,0.002586
124075000,0.0324,0.013523,0.002678,0.000431,0.002351
124076000,0.0324,0.013523,0.002678,0.000431,0.002586
124077000,0.0324,0.013523,0.002678,0.000431,0.002468
124078000,0.0324,0.013523,0.002678,0.000431,0.002468
124079000,0.0324,0.013523,0.002678,0.000431,0.002468
124080000,0.0324,0.013523,0.002678,0.000431,0.002468
124081000,0.0324,0.013523,0.002678,0.000431,0.002586
124082000,0.0324,0.013523,0.002678,0.000431,0.002233
124083000,0.0324,0.013523,0.002678,0.000431,0.002703
124084000,0.0324,0.013523,0.002678,0.000431,0.002703
124085000,0.0324,0.013523,0.002678,0.000431,0.002233
124086000,0.0324,0.013523,0.002678,0.000431,0.002468
124087000,0.0324,0.013523,0.002678,0.000431,0.002468
124088000,0.0324,0.013523,0.002678,0.000431,0.002821
124089000,0.0324,0.013523,0.002678,0.000431,0.002351
124090000,0.0324,0.013523,0.002678,0.000431,0.002468
124091000,0.0324,0.013523,0.002678,0.000431,0.002703
124092000,0.0324,0.013523,0.002678,0.000431,0.002351
124093000,0.0324,0.013523,0.002678,0.000431,0.002586
124094000,0.0324,0.013523,0.002678,0.000431,0.002468
124095000,0.0324,0.013523,0.002678,0.000431,0.002586
124096000,0.0324,0.013523,0.002678,0.000431,0.002233
124097000,0.0324,0.013523,0.002678,0.000431,0.002586
124098000,0.0324,0.013523,0.002678,0.000431,0.002586
124099000,0.0324,0.013523,0.002678,0.000431,0.002586
124100000,0.0324,0.013523,0.002678,0.000431,0.002116
124101000,0.0324,0.013523,0.002678,0.000431,0.002821
124102000,0.0324,0.013523,0.002678,0.000431,0.002468
124103000,0.0324,0.013523,0.002678,0.000431,0.002468
124104000,0.0324,0.013523,0.002678,0.000431,0.002233
124105000,0.0324,0.013523,0.002678,0.000431,0.002703
124106000,0.0324,0.013523,0.002678,0.000431,0.002586
124107000,0.0324,0.013523,0.002678,0.000431,0.002351
124108000,0.0324,0.013523,0.002678,0.000431,0.002468
124109000,0.0324,0.013523,0.002678,0.000431,0.002468
124110000,0.0324,0.013523,0.002678,0.000431,0.002586
124111000,0.0324,0.013523,0.002678,0.000431,0.002351
124112000,0.0324,0.013523,0.002678,0.000431,0.002586
124113000,0.0324,0.013523,0.002678,0.000431,0.002351
124114000,0.0324,0.013523,0.002678,0.000431,0.002586
124115000,0.0324,0.013523,0.002678,0.000431,0.002586
124116000,0.0324,0.013523,0.002678,0.000431,0.002351
124117000,0.0324,0.013523,0.002678,0.000431,0.002586
124118000,0.0324,0.013523,0.002678,0.000431,0.002351
124119000,0.0324,0.013523,0.002678,0.000431,0.002586
124120000,0.0324,0.013523,0.002678,0.000431,0.002703
124121000,0.0324,0.013523,0.002678,0.000431,0.002233
124122000,0.0324,0.013523,0.002678,0.000431,0.003173
124123000,0.0324,0.013523,0.002678,0.000431,0.001763
124124000,0.0324,0.013523,0.002678,0.000431,0.000940
124125000,0.0324,0.013523,0.002678,0.000431,0.000823
124126000,0.0324,0.013523,0.002678,0.000431,0.000823
124127000,0.0324,0.013523,0.002678,0.000431,0.000823
124128000,0.0324,0.013523,0.002678,0.000431,0.000823
124129000,0.0324,0.013523,0.002678,0.000431,0.000823
124130000,0.0324,0.013523,0.002678,0.000431,0.000823
124131000,0.0324,0.013523,0.002678,0.000431,0.000940
124132000,0.0324,0.013523,0.002678,0.000431,0.000705
124133000,0.0324,0.013523,0.002678,0.000431,0.000940
124134000,0.0324,0.013523,0.002678,0.000431,0.000823
124135000,0.0324,0.013523,0.002678,0.000431,0.000823
124136000,0.0324,0.013523,0.002678,0.000431,0.000705
124137000,0.0324,0.013523,0.002678,0.000431,0.000940
124138000,0.0324,0.013523,0.002678,0.000431,0.000940
124139000,0.0324,0.013523,0.002678,0.000431,0.000705
124140000,0.0324,0.013523,0.002678,0.000431,0.000940
124141000,0.0324,0.013523,0.002678,0.000431,0.000705
124142000,0.0324,0.013523,0.002678,0.000431,0.000940
124143000,0.0324,0.013523,0.002678,0.000431,0.000823
124144000,0.0324,0.013523,0.002678,0.000431,0.000823
124145000,0.0324,0.013523,0.002678,0.000431,0.000940
124146000,0.0324,0.013523,0.002678,0.000431,0.000705
124147000,0.0324,0.013523,0.002678,0.000431,0.000940
124148000,0.0324,0.013523,0.002678,0.000431,0.000823
124149000,0.0324,0.013523,0.002678,0.000431,0.000823
124150000,0.0324,0.013523,0.002678,0.000431,0.000823
124151000,0.0324,0.013523,0.002678,0.000431,0.000823
124152000,0.0324,0.013523,0.002678,0.000431,0.000823
124153000,0.0324,0.013523,0.002678,0.000431,0.000823
124154000,0.0324,0.013523,0.002678,0.000431,0.000940
124155000,0.0324,0.013523,0.002678,0.000431,0.000705
124156000,0.0324,0.013523,0.002678,0.000431,0.000823
124157000,0.0324,0.013523,0.002678,0.000431,0.000940
124158000,0.0324,0.013523,0.002678,0.000431,0.000823
124159000,0.0324,0.013523,0.002678,0.000431,0.000823
124160000,0.0324,0.013523,0.002678,0.000431,0.000823
124161000,0.0324,0.013523,0.002678,0.000431,0.000705
124162000,0.0324,0.013523,0.002678,0.000431,0.000940
124163000,0.0324,0.013523,0.002678,0.000431,0.000940
124164000,0.0324,0.013523,0.002678,0.000431,0.000705
124165000,0.0324,0.013523,0.002678,0.000431,0.000940
124166000,0.0324,0.013523,0.002678,0.000431,0.000705
124167000,0.0324,0.013523,0.002678,0.000431,0.000940
124168000,0.0324,0.013523,0.002678,0.000431,0.000940
124169000,0.0324,0.013523,0.002678,0.000431,0.000705
124170000,0.0324,0.013523,0.002678,0.000431,0.000940
124171000,0.0324,0.013523,0.002678,0.000431,0.000705
124172000,0.0324,0.013523,0.002678,0.000431,0.000940
124173000,0.0324,0.013523,0.002678,0.000431,0.000823
124174000,0.0324,0.013523,0.002678,0.000431,0.000823
124175000,0.0324,0.013523,0.002678,0.000431,0.000823
124176000,0.0324,0.013523,0.002678,0.000431,0.000823
124177000,0.0324,0.013523,0.002678,0.000431,0.000940
124178000,0.0324,0.013523,0.002678,0.000431,0.000823
124179000,0.0324,0.013523,0.002678,0.000431,0.000823
124180000,0.0324,0.013523,0.002678,0.000431,0.000823
124181000,0.0324,0.013523,0.002678,0.000431,0.000823
124182000,0.0324,0.013523,0.002678,0.000431,0.000823
124183000,0.0324,0.013523,0.002678,0.000431,0.000823
124184000,0.0324,0.013523,0.002678,0.000431,0.000940
124185000,0.0324,0.013523,0.002678,0.000431,0.000705
124186000,0.0324,0.013523,0.002678,0.000431,0.000940
124187000,0.0324,0.013523,0.002678,0.000431,0.000823
124188000,0.0324,0.013523,0.002678,0.000431,0.000823
124189000,0.0324,0.013523,0.002678,0.000431,0.000705
124190000,0.0324,0.013523,0.002678,0.000431,0.000940
124191000,0.0324,0.013523,0.002678,0.000431,0.000940
124192000,0.0324,0.013523,0.002678,0.000431,0.000705
124193000,0.0324,0.013523,0.002678,0.000431,0.000940
124194000,0.0324,0.013523,0.002678,0.000431,0.000705
124195000,0.0324,0.013523,0.002678,0.000431,0.000940
124196000,0.0324,0.013523,0.002678,0.000431,0.000823
124197000,0.0324,0.013523,0.002678,0.000431,0.000823
124198000,0.0324,0.013523,0.002678,0.000431,0.000940
124199000,0.0324,0.013523,0.002678,0.000431,0.000705
124200000,0.0324,0.013523,0.002678,0.000431,0.000940
124201000,0.0324,0.013523,0.002678,0.000431,0.000705
124202000,0.0324,0.013523,0.002678,0.000431,0.000940
124203000,0.0324,0.013523,0.002678,0.000431,0.000823
124204000,0.0324,0.013523,0.002678,0.000431,0.000823
124205000,0.0324,0.013523,0.002678,0.000431,0.000823
124206000,0.0324,0.013523,0.002678,0.000431,0.000823
124207000,0.0324,0.013523,0.002678,0.000431,0.000940
124208000,0.0324,0.013523,0.002678,0.000431,0.000705
124209000,0.0324,0.013523,0.002678,0.000431,0.000940
124210000,0.0324,0.013523,0.002678,0.000431,0.000940
124211000,0.0324,0.013523,0.002678,0.000431,0.000823
124212000,0.0324,0.013523,0.002678,0.000431,0.000823
124213000,0.0324,0.013523,0.002678,0.000431,0.000940
124214000,0.0324,0.013523,0.002678,0.000431,0.000940
124215000,0.0324,0.013523,0.002678,0.000431,0.000823
124216000,0.0324,0.013523,0.002678,0.000431,0.000823
124217000,0.0324,0.013523,0.002678,0.000431,0.000940
124218000,0.0324,0.013523,0.002678,0.000431,0.000823
124219000,0.0324,0.013523,0.002678,0.000431,0.000823
124220000,0.0324,0.013523,0.002678,0.000431,0.000823
124221000,0.0324,0.013523,0.002678,0.000431,0.000823
124222000,0.0324,0.013523,0.002678,0.000431,0.000940
124223000,0.0324,0.013523,0.002678,0.000431,0.000823
124224000,0.0324,0.013523,0.002678,0.000431,0.000823
124225000,0.0324,0.013523,0.002678,0.000431,0.000823
124226000,0.0324,0.013523,0.002678,0.000431,0.000823
124227000,0.0324,0.013523,0.002678,0.000431,0.000823
124228000,0.0324,0.013523,0.002678,0.000431,0.000823
124229000,0.0324,0.013523,0.002678,0.000431,0.000940
124230000,0.0324,0.013523,0.002678,0.000431,0.000705
124231000,0.0324,0.013523,0.002678,0.000431,0.000940
124232000,0.0324,0.013523,0.002678,0.000431,0.000823
124233000,0.0324,0.013523,0.002678,0.000431,0.000823
124234000,0.0324,0.013523,0.002678,0.000431,0.000705
124235000,0.0324,0.013523,0.002678,0.000431,0.000940
124236000,0.0324,0.013523,0.002678,0.000431,0.000823
124237000,0.0324,0.013523,0.002678,0.000431,0.000823
124238000,0.0324,0.013523,0.002678,0.000431,0.000823
124239000,0.0324,0.013523,0.002678,0.000431,0.000823
124240000,0.0324,0.013523,0.002678,0.000431,0.000940
124241000,0.0324,0.013523,0.002678,0.000431,0.000705
124242000,0.0324,0.013523,0.002678,0.000431,0.000940
124243000,0.0324,0.013523,0.002678,0.000431,0.000823
124244000,0.0324,0.013523,0.002678,0.000431,0.000823
124245000,0.0324,0.013523,0.002678,0.000431,0.000823
124246000,0.0324,0.013523,0.002678,0.000431,0.000823
124247000,0.0324,0.013523,0.002678,0.000431,0.000940
124248000,0.0324,0.013523,0.002678,0.000431,0.000705
124249000,0.0324,0.013523,0.002678,0.000431,0.000940
124250000,0.0324,0.013523,0.002678,0.000431,0.000705
124251000,0.0324,0.013523,0.002678,0.000431,0.000940
124252000,0.0324,0.013523,0.002678,0.000431,0.000823
124253000,0.0324,0.013523,0.002678,0.000431,0.000823
124254000,0.0324,0.013523,0.002678,0.000431,0.000940
124255000,0.0324,0.013523,0.002678,0.000431,0.000705
124256000,0.0324,0.013523,0.002678,0.000431,0.000940
124257000,0.0324,0.013523,0.002678,0.000431,0.000823
124258000,0.0324,0.013523,0.002678,0.000431,0.000823
124259000,0.0324,0.013523,0.002678,0.000431,0.000823
124260000,0.0324,0.013523,0.002678,0.000431,0.000823
124261000,0.0324,0.013523,0.002678,0.000431,0.000823
124262000,0.0324,0.013523,0.002678,0.000431,0.000823
124263000,0.0324,0.013523,0.002678,0.000431,0.000940
124264000,0.0324,0.013523,0.002678,0.000431,0.000823
124265000,0.0324,0.013523,0.002678,0.000431,0.000823
124266000,0.0324,0.013523,0.002678,0.000431,0.000823
124267000,0.0324,0.013523,0.002678,0.000431,0.000823
124268000,0.0324,0.013523,0.002678,0.000431,0.000823
124269000,0.0324,0.013523,0.002678,0.000431,0.000823
124270000,0.0324,0.013523,0.002678,0.000431,0.000823
124271000,0.0324,0.013523,0.002678,0.000431,0.000823
124272000,0.0324,0.013523,0.002678,0.000431,0.000940
124273000,0.0324,0.013523,0.002678,0.000431,0.000823
124274000,0.0324,0.013523,0.002678,0.000431,0.000823
124275000,0.0324,0.013523,0.002678,0.000431,0.000705
124276000,0.0324,0.013523,0.002678,0.000431,0.000940
124277000,0.0324,0.013523,0.002678,0.000431,0.000940
124278000,0.0324,0.013523,0.002678,0.000431,0.000705
124279000,0.0324,0.013523,0.002678,0.000431,0.000940
124280000,0.0324,0.013523,0.002678,0.000431,0.000705
124281000,0.0324,0.013523,0.002678,0.000431,0.000940
124282000,0.0324,0.013523,0.002678,0.000431,0.000823
124283000,0.0324,0.013523,0.002678,0.000431,0.000823
124284000,0.0324,0.013523,0.002678,0.000431,0.000823
124285000,0.0324,0.013523,0.002678,0.000431,0.000823
124286000,0.0324,0.013523,0.002678,0.000431,0.000940
124287000,0.0324,0.013523,0.002678,0.000431,0.000705
124288000,0.0324,0.013523,0.002678,0.000431,0.000940
124289000,0.0324,0.013523,0.002678,0.000431,0.000823
124290000,0.0324,0.013523,0.002678,0.000431,0.000705
124291000,0.0324,0.013523,0.002678,0.000431,0.000940
124292000,0.0324,0.013523,0.002678,0.000431,0.000823
124293000,0.0324,0.013523,0.002678,0.000431,0.000823
124294000,0.0324,0.013523,0.002678,0.000431,0.000823
124295000,0.0324,0.013523,0.002678,0.000431,0.000823
124296000,0.0324,0.013523,0.002678,0.000431,0.000823
124297000,0.0324,0.013523,0.002678,0.000431,0.000940
124298000,0.0324,0.013523,0.002678,0.000431,0.000823
124299000,0.0324,0.013523,0.002678,0.000431,0.000823
124300000,0.0324,0.013523,0.002678,0.000431,0.000705
124301000,0.0324,0.013523,0.002678,0.000431,0.000940
124302000,0.0324,0.013523,0.002678,0.000431,0.000940
124303000,0.0324,0.013523,0.002678,0.000431,0.000705
124304000,0.0324,0.013523,0.002678,0.000431,0.000940
124305000,0.0324,0.013523,0.002678,0.000431,0.000705
124306000,0.0324,0.013523,0.002678,0.000431,0.000940
124307000,0.0324,0.013523,0.002678,0.000431,0.000823
124308000,0.0324,0.013523,0.002678,0.000431,0.000940
124309000,0.0324,0.013523,0.002678,0.000431,0.000823
124310000,0.0324,0.013523,0.002678,0.000431,0.000940
124311000,0.0324,0.013523,0.002678,0.000431,0.000823
124312000,0.0324,0.013523,0.002678,0.000431,0.000823
124313000,0.0324,0.013523,0.002678,0.000431,0.000940
124314000,0.0324,0.013523,0.002678,0.000431,0.000940
124315000,0.0324,0.013523,0.002678,0.000431,0.000940
124316000,0.0324,0.013523,0.002678,0.000431,0.000705
124317000,0.0324,0.013523,0.002678,0.000431,0.000940
124318000,0.0324,0.013523,0.002678,0.000431,0.000705
124319000,0.0324,0.013523,0.002678,0.000431,0.000940
124320000,0.0324,0.013523,0.002678,0.000431,0.000705
124321000,0.0324,0.013523,0.002678,0.000431,0.000940
124322000,0.0324,0.013523,0.002678,0.000431,0.000940
124323000,0.0324,0.013523,0.002678,0.000431,0.000705
124324000,0.0324,0.013523,0.002678,0.000431,0.000940
124325000,0.0324,0.013523,0.002678,0.000431,0.000705
124326000,0.0324,0.013523,0.002678,0.000431,0.000940
124327000,0.0324,0.013523,0.002678,0.000431,0.000823
124328000,0.0324,0.013523,0.002678,0.000431,0.000823
124329000,0.0324,0.013523,0.002678,0.000431,0.000823
124330000,0.0324,0.013523,0.002678,0.000431,0.000823
124331000,0.0324,0.013523,0.002678,0.000431,0.000940
124332000,0.0324,0.013523,0.002678,0.000431,0.000705
124333000,0.0324,0.013523,0.002678,0.000431,0.000940
124334000,0.0324,0.013523,0.002678,0.000431,0.000823
124335000,0.0324,0.013523,0.002678,0.000431,0.000823
124336000,0.0324,0.013523,0.002678,0.000431,0.000823
124337000,0.0324,0.013523,0.002678,0.000431,0.000823
124338000,0.0324,0.013523,0.002678,0.000431,0.000823
124339000,0.0324,0.013523,0.002678,0.000431,0.000823
124340000,0.0324,0.013523,0.002678,0.000431,0.000823
124341000,0.0324,0.013523,0.002678,0.000431,0.000823
124342000,0.0324,0.013523,0.002678,0.000431,0.000940
124343000,0.0324,0.013523,0.002678,0.000431,0.000823
124344000,0.0324,0.013523,0.002678,0.000431,0.000823
124345000,0.0324,0.013523,0.002678,0.000431,0.000705
124346000,0.0324,0.013523,0.002678,0.000431,0.000940
124347000,0.0324,0.013523,0.002678,0.000431,0.000940
124348000,0.0324,0.013523,0.002678,0.000431,0.000705
124349000,0.0324,0.013523,0.002678,0.000431,0.000940
124350000,0.0324,0.013523,0.002678,0.000431,0.000705
124351000,0.0324,0.013523,0.002678,0.000431,0.000940
124352000,0.0324,0.013523,0.002678,0.000431,0.000823
124353000,0.0324,0.013523,0.002678,0.000431,0.000823
124354000,0.0324,0.013523,0.002678,0.000431,0.000940
124355000,0.0324,0.013523,0.002678,0.000431,0.000705
124356000,0.0324,0.013523,0.002678,0.000431,0.000940
124357000,0.0324,0.013523,0.002678,0.000431,0.000823
124358000,0.0324,0.013523,0.002678,0.000431,0.000823
124359000,0.0324,0.013523,0.002678,0.000431,0.000940
124360000,0.0324,0.013523,0.002678,0.000431,0.000823
124361000,0.0324,0.013523,0.002678,0.000431,0.000940
124362000,0.0324,0.013523,0.002678,0.000431,0.000823
124363000,0.0324,0.013523,0.002678,0.000431,0.000940
124364000,0.0324,0.013523,0.002678,0.000431,0.000823
124365000,0.0324,0.013523,0.002678,0.000431,0.000823
124366000,0.0324,0.013523,0.002678,0.000431,0.000940
124367000,0.0324,0.013523,0.002678,0.000431,0.000940
124368000,0.0324,0.013523,0.002678,0.000431,0.000823
124369000,0.0324,0.013523,0.002678,0.000431,0.000823
124370000,0.0324,0.013523,0.002678,0.000431,0.000940
124371000,0.0324,0.013523,0.002678,0.000431,0.000940
124372000,0.0324,0.013523,0.002678,0.000431,0.000705
124373000,0.0324,0.013523,0.002678,0.000431,0.000940
124374000,0.0324,0.013523,0.002678,0.000431,0.000940
124375000,0.0324,0.013523,0.002678,0.000431,0.000940
124376000,0.0324,0.013523,0.002678,0.000431,0.000823
124377000,0.0324,0.013523,0.002678,0.000431,0.000705
124378000,0.0324,0.013523,0.002678,0.000431,0.000940
124379000,0.0324,0.013523,0.002678,0.000431,0.000823
124380000,0.0324,0.013523,0.002678,0.000431,0.000823
124381000,0.0324,0.013523,0.002678,0.000431,0.000823
124382000,0.0324,0.013523,0.002678,0.000431,0.000823
124383000,0.0324,0.013523,0.002678,0.000431,0.000823
124384000,0.0324,0.013523,0.002678,0.000431,0.000940
124385000,0.0324,0.013523,0.002678,0.000431,0.000823
124386000,0.0324,0.013523,0.002678,0.000431,0.000823
124387000,0.0324,0.013523,0.002678,0.000431,0.000940
124388000,0.0324,0.013523,0.002678,0.000431,0.000823
124389000,0.0324,0.013523,0.002678,0.000431,0.000823
124390000,0.0324,0.013523,0.002678,0.000431,0.000940
124391000,0.0324,0.013523,0.002678,0.000431,0.000940
124392000,0.0324,0.013523,0.002678,0.000431,0.000705
124393000,0.0324,0.013523,0.002678,0.000431,0.000940
124394000,0.0324,0.013523,0.002678,0.000431,0.000940
124395000,0.0324,0.013523,0.002678,0.000431,0.000940
124396000,0.0324,0.013523,0.002678,0.000431,0.000705
124397000,0.0324,0.013523,0.002678,0.000431,0.000940
124398000,0.0324,0.013523,0.002678,0.000431,0.000705
124399000,0.0324,0.013523,0.002678,0.000431,0.000940
124400000,0.0324,0.013523,0.002678,0.000431,0.000823
124401000,0.0324,0.013523,0.002678,0.000431,0.000823
124402000,0.0324,0.013523,0.002678,0.000431,0.000823
124403000,0.0324,0.013523,0.002678,0.000431,0.000823
124404000,0.0324,0.013523,0.002678,0.000431,0.000823
124405000,0.0324,0.013523,0.002678,0.000431,0.000823
124406000,0.0324,0.013523,0.002678,0.000431,0.000940
124407000,0.0324,0.013523,0.002678,0.000431,0.000705
124408000,0.0324,0.013523,0.002678,0.000431,0.000940
124409000,0.0324,0.013523,0.002678,0.000431,0.000823
124410000,0.0324,0.013523,0.002678,0.000431,0.000823
124411000,0.0324,0.013523,0.002678,0.000431,0.000823
124412000,0.0324,0.013523,0.002678,0.000431,0.000823
124413000,0.0324,0.013523,0.002678,0.000431,0.000940
124414000,0.0324,0.013523,0.002678,0.000431,0.000705
124415000,0.0324,0.013523,0.002678,0.000431,0.000823
124416000,0.0324,0.013523,0.002678,0.000431,0.000823
124417000,0.0324,0.013523,0.002678,0.000431,0.000940
124418000,0.0324,0.013523,0.002678,0.000431,0.000823
124419000,0.0324,0.013523,0.002678,0.000431,0.000823
124420000,0.0324,0.013523,0.002678,0.000431,0.000705
124421000,0.0324,0.013523,0.002678,0.000431,0.000940
124422000,0.0324,0.013523,0.002678,0.000431,0.000940
124423000,0.0324,0.013523,0.002678,0.000431,0.000705
124424000,0.0324,0.013523,0.002678,0.000431,0.000940
124425000,0.0324,0.013523,0.002678,0.000431,0.000705
124426000,0.0324,0.013523,0.002678,0.000431,0.000940
124427000,0.0324,0.013523,0.002678,0.000431,0.000823
124428000,0.0324,0.013523,0.002678,0.000431,0.000823
124429000,0.0324,0.013523,0.002678,0.000431,0.000823
124430000,0.0324,0.013523,0.002678,0.000431,0.000823
124431000,0.0324,0.013523,0.002678,0.000431,0.000940
124432000,0.0324,0.013523,0.002678,0.000431,0.000705
124433000,0.0324,0.013523,0.002678,0.000431,0.000940
124434000,0.0324,0.013523,0.002678,0.000431,0.000823
124435000,0.0324,0.013523,0.002678,0.000431,0.000823
124436000,0.0324,0.013523,0.002678,0.000431,0.000823
124437000,0.0324,0.013523,0.002678,0.000431,0.000823
124438000,0.0324,0.013523,0.002678,0.000431,0.000823
124439000,0.0324,0.013523,0.002678,0.000431,0.000823
124440000,0.0324,0.013523,0.002678,0.000431,0.000940
124441000,0.0324,0.013523,0.002678,0.000431,0.000705
124442000,0.0324,0.013523,0.002678,0.000431,0.000940
124443000,0.0324,0.013523,0.002678,0.000431,0.000705
124444000,0.0324,0.013523,0.002678,0.000431,0.000940
124445000,0.0324,0.013523,0.002678,0.000431,0.000940
124446000,0.0324,0.013523,0.002678,0.000431,0.000705
124447000,0.0324,0.013523,0.002678,0.000431,0.000940
124448000,0.0324,0.013523,0.002678,0.000431,0.000705
124449000,0.0324,0.013523,0.002678,0.000431,0.000940
124450000,0.0324,0.013523,0.002678,0.000431,0.000823
124451000,0.0324,0.013523,0.002678,0.000431,0.000823
124452000,0.0324,0.013523,0.002678,0.000431,0.000823
124453000,0.0324,0.013523,0.002678,0.000431,0.000823
124454000,0.0324,0.013523,0.002678,0.000431,0.000940
124455000,0.0324,0.013523,0.002678,0.000431,0.000705
124456000,0.0324,0.013523,0.002678,0.000431,0.000940
124457000,0.0324,0.013523,0.002678,0.000431,0.000823
124458000,0.0324,0.013523,0.002678,0.000431,0.000823
124459000,0.0324,0.013523,0.002678,0.000431,0.000823
124460000,0.0324,0.013523,0.002678,0.000431,0.000823
124461000,0.0324,0.013523,0.002678,0.000431,0.000823
124462000,0.0324,0.013523,0.002678,0.000431,0.000823
124463000,0.0324,0.013523,0.002678,0.000431,0.000823
124464000,0.0324,0.013523,0.002678,0.000431,0.000823
124465000,0.0324,0.013523,0.002678,0.000431,0.000940
124466000,0.0324,0.013523,0.002678,0.000431,0.000705
124467000,0.0324,0.013523,0.002678,0.000431,0.000940
124468000,0.0324,0.013523,0.002678,0.000431,0.000823
124469000,0.0324,0.013523,0.002678,0.000431,0.000823
124470000,0.0324,0.013523,0.002678,0.000431,0.000823
124471000,0.0324,0.013523,0.002678,0.000431,0.000823
124472000,0.0324,0.013523,0.002678,0.000431,0.000823
124473000,0.0324,0.013523,0.002678,0.000431,0.000823
124474000,0.0324,0.013523,0.002678,0.000431,0.000940
124475000,0.0324,0.013523,0.002678,0.000431,0.000823
124476000,0.0324,0.013523,0.002678,0.000431,0.000823
124477000,0.0324,0.013523,0.002678,0.000431,0.000705
124478000,0.0324,0.013523,0.002678,0.000431,0.000940
124479000,0.0324,0.013523,0.002678,0.000431,0.000940
124480000,0.0324,0.013523,0.002678,0.000431,0.000705
124481000,0.0324,0.013523,0.002678,0.000431,0.000940
124482000,0.0324,0.013523,0.002678,0.000431,0.000705
124483000,0.0324,0.013523,0.002678,0.000431,0.000940
124484000,0.0324,0.013523,0.002678,0.000431,0.000823
124485000,0.0324,0.013523,0.002678,0.000431,0.000823
124486000,0.0324,0.013523,0.002678,0.000431,0.000823
124487000,0.0324,0.013523,0.002678,0.000431,0.000823
124488000,0.0324,0.013523,0.002678,0.000431,0.000940
124489000,0.0324,0.013523,0.002678,0.000431,0.000823
124490000,0.0324,0.013523,0.002678,0.000431,0.000823
124491000,0.0324,0.013523,0.002678,0.000431,0.000823
124492000,0.0324,0.013523,0.002678,0.000431,0.000823
124493000,0.0324,0.013523,0.002678,0.000431,0.000823
124494000,0.0324,0.013523,0.002678,0.000431,0.000823
124495000,0.0324,0.013523,0.002678,0.000431,0.000940
124496000,0.0324,0.013523,0.002678,0.000431,0.000705
124497000,0.0324,0.013523,0.002678,0.000431,0.000823
124498000,0.0324,0.013523,0.002678,0.000431,0.000940
124499000,0.0324,0.013523,0.002678,0.000431,0.000823
124500000,0.0324,0.013523,0.002678,0.000431,0.000823
124501000,0.0324,0.013523,0.002678,0.000431,0.000823
124502000,0.0324,0.013523,0.002678,0.000431,0.000705
124503000,0.0324,0.013523,0.002678,0.000431,0.000940
124504000,0.0324,0.013523,0.002678,0.000431,0.000940
124505000,0.0324,0.013523,0.002678,0.000431,0.000705
124506000,0.0324,0.013523,0.002678,0.000431,0.000940
124507000,0.0324,0.013523,0.002678,0.000431,0.000705
124508000,0.0324,0.013523,0.002678,0.000431,0.000940
124509000,0.0324,0.013523,0.002678,0.000431,0.000823
124510000,0.0324,0.013523,0.002678,0.000431,0.000823
124511000,0.0324,0.013523,0.002678,0.000431,0.000823
124512000,0.0324,0.013523,0.002678,0.000431,0.000823
124513000,0.0324,0.013523,0.002678,0.000431,0.000940
124514000,0.0324,0.013523,0.002678,0.000431,0.000823
124515000,0.0324,0.013523,0.002678,0.000431,0.000823
124516000,0.0324,0.013523,0.002678,0.000431,0.000823
124517000,0.0324,0.013523,0.002678,0.000431,0.000823
124518000,0.0324,0.013523,0.002678,0.000431,0.000823
124519000,0.0324,0.013523,0.002678,0.000431,0.000823
124520000,0.0324,0.013523,0.002678,0.000431,0.000940
124521000,0.0324,0.013523,0.002678,0.000431,0.000705
124522000,0.0324,0.013523,0.002678,0.000431,0.000940
124523000,0.0324,0.013523,0.002678,0.000431,0.000823
124524000,0.0324,0.013523,0.002678,0.000431,0.000823
124525000,0.0324,0.013523,0.002678,0.000431,0.000705
124526000,0.0324,0.013523,0.002678,0.000431,0.000940
124527000,0.0324,0.013523,0.002678,0.000431,0.000940
124528000,0.0324,0.013523,0.002678,0.000431,0.000705
124529000,0.0324,0.013523,0.002678,0.000431,0.000940
124530000,0.0324,0.013523,0.002678,0.000431,0.000705
124531000,0.0324,0.013523,0.002678,0.000431,0.000940
124532000,0.0324,0.013523,0.002678,0.000431,0.000823
124533000,0.0324,0.013523,0.002678,0.000431,0.000823
124534000,0.0324,0.013523,0.002678,0.000431,0.000823
124535000,0.0324,0.013523,0.002678,0.000431,0.000823
124536000,0.0324,0.013523,0.002678,0.000431,0.000940
124537000,0.0324,0.013523,0.002678,0.000431,0.000705
124538000,0.0324,0.013523,0.002678,0.000431,0.000940
124539000,0.0324,0.013523,0.002678,0.000431,0.000705
124540000,0.0324,0.013523,0.002678,0.000431,0.000940
124541000,0.0324,0.013523,0.002678,0.000431,0.000705
124542000,0.0324,0.013523,0.002678,0.000431,0.000940
124543000,0.0324,0.013523,0.002678,0.000431,0.000823
124544000,0.0324,0.013523,0.002678,0.000431,0.000823
124545000,0.0324,0.013523,0.002678,0.000431,0.000823
124546000,0.0324,0.013523,0.002678,0.000431,0.000823
124547000,0.0324,0.013523,0.002678,0.000431,0.000940
124548000,0.0324,0.013523,0.002678,0.000431,0.000940
124549000,0.0324,0.013523,0.002678,0.000431,0.000940
124550000,0.0324,0.013523,0.002678,0.000431,0.000823
124551000,0.0324,0.013523,0.002678,0.000431,0.000823
124552000,0.0324,0.013523,0.002678,0.000431,0.000940
124553000,0.0324,0.013523,0.002678,0.000431,0.000823
124554000,0.0324,0.013523,0.002678,0.000431,0.000940
124555000,0.0324,0.013523,0.002678,0.000431,0.000823
124556000,0.0324,0.013523,0.002678,0.000431,0.000940
124557000,0.0324,0.013523,0.002678,0.000431,0.000940
124558000,0.0324,0.013523,0.002678,0.000431,0.000823
124559000,0.0324,0.013523,0.002678,0.000431,0.000823
124560000,0.0324,0.013523,0.002678,0.000431,0.000940
124561000,0.0324,0.013523,0.002678,0.000431,0.000940
124562000,0.0324,0.013523,0.002678,0.000431,0.000823
124563000,0.0324,0.013523,0.002678,0.000431,0.000823
124564000,0.0324,0.013523,0.002678,0.000431,0.000940
124565000,0.0324,0.013523,0.002678,0.000431,0.000940
124566000,0.0324,0.013523,0.002678,0.000431,0.000823
124567000,0.0324,0.013523,0.002678,0.000431,0.000823
124568000,0.0324,0.013523,0.002678,0.000431,0.000940
124569000,0.0324,0.013523,0.002678,0.000431,0.000940
124570000,0.0324,0.013523,0.002678,0.000431,0.000823
124571000,0.0324,0.013523,0.002678,0.000431,0.000823
124572000,0.0324,0.013523,0.002678,0.000431,0.000940
124573000,0.0324,0.013523,0.002678,0.000431,0.000823
124574000,0.0324,0.013523,0.002678,0.000431,0.000940
124575000,0.0324,0.013523,0.002678,0.000431,0.000823
124576000,0.0324,0.013523,0.002678,0.000431,0.000940
124577000,0.0324,0.013523,0.002678,0.000431,0.000823
124578000,0.0324,0.013523,0.002678,0.000431,0.000823
124579000,0.0324,0.013523,0.002678,0.000431,0.000940
124580000,0.0324,0.013523,0.002678,0.000431,0.000940
124581000,0.0324,0.013523,0.002678,0.000431,0.000940
124582000,0.0324,0.013523,0.002678,0.000431,0.000705
124583000,0.0324,0.013523,0.002678,0.000431,0.000940
124584000,0.0324,0.013523,0.002678,0.000431,0.000940
124585000,0.0324,0.013523,0.002678,0.000431,0.000823
124586000,0.0324,0.013523,0.002678,0.000431,0.000823
124587000,0.0324,0.013523,0.002678,0.000431,0.000940
124588000,0.0324,0.013523,0.002678,0.000431,0.000940
124589000,0.0324,0.013523,0.002678,0.000431,0.000823
124590000,0.0324,0.013523,0.002678,0.000431,0.000823
124591000,0.0324,0.013523,0.002678,0.000431,0.000940
124592000,0.0324,0.013523,0.002678,0.000431,0.000823
124593000,0.0324,0.013523,0.002678,0.000431,0.000940
124594000,0.0324,0.013523,0.002678,0.000431,0.000823
124595000,0.0324,0.013523,0.002678,0.000431,0.000940
124596000,0.0324,0.013523,0.002678,0.000431,0.000823
124597000,0.0324,0.013523,0.002678,0.000431,0.000823
124598000,0.0324,0.013523,0.002678,0.000431,0.000940
124599000,0.0324,0.013523,0.002678,0.000431,0.000940
124600000,0.0324,0.013523,0.002678,0.000431,0.000823
124601000,0.0324,0.013523,0.002678,0.000431,0.000823
124602000,0.0324,0.013523,0.002678,0.000431,0.000940
124603000,0.0324,0.013523,0.002678,0.000431,0.000940
124604000,0.0324,0.013523,0.002678,0.000431,0.000823
124605000,0.0324,0.013523,0.002678,0.000431,0.000823
124606000,0.0324,0.013523,0.002678,0.000431,0.000940
124607000,0.0324,0.013523,0.002678,0.000431,0.000823
124608000,0.0324,0.013523,0.002678,0.000431,0.000940
124609000,0.0324,0.013523,0.002678,0.000431,0.000823
124610000,0.0324,0.013523,0.002678,0.000431,0.000940
124611000,0.0324,0.013523,0.002678,0.000431,0.000823
124612000,0.0324,0.013523,0.002678,0.000431,0.000823
124613000,0.0324,0.013523,0.002678,0.000431,0.000940
124614000,0.0324,0.013523,0.002678,0.000431,0.000940
124615000,0.0324,0.013523,0.002678,0.000431,0.000940
124616000,0.0324,0.013523,0.002678,0.000431,0.000940
124617000,0.0324,0.013523,0.002678,0.000431,0.000705
124618000,0.0324,0.013523,0.002678,0.000431,0.000940
124619000,0.0324,0.013523,0.002678,0.000431,0.000940
124620000,0.0324,0.013523,0.002678,0.000431,0.000823
124621000,0.0324,0.013523,0.002678,0.000431,0.000823
124622000,0.0324,0.013523,0.002678,0.000431,0.000940
124623000,0.0324,0.013523,0.002678,0.000431,0.000940
124624000,0.0324,0.013523,0.002678,0.000431,0.000823
124625000,0.0324,0.013523,0.002678,0.000431,0.000823
124626000,0.0324,0.013523,0.002678,0.000431,0.000940
124627000,0.0324,0.013523,0.002678,0.000431,0.000823
124628000,0.0324,0.013523,0.002678,0.000431,0.000940
124629000,0.0324,0.013523,0.002678,0.000431,0.000823
124630000,0.0324,0.013523,0.002678,0.000431,0.000940
124631000,0.0324,0.013523,0.002678,0.000431,0.000823
124632000,0.0324,0.013523,0.002678,0.000431,0.000823
124633000,0.0324,0.013523,0.002678,0.000431,0.000940
124634000,0.0324,0.013523,0.002678,0.000431,0.000940
124635000,0.0324,0.013523,0.002678,0.000431,0.000940
124636000,0.0324,0.013523,0.002678,0.000431,0.000705
124637000,0.0324,0.013523,0.002678,0.000431,0.000940
124638000,0.0324,0.013523,0.002678,0.000431,0.000940
124639000,0.0324,0.013523,0.002678,0.000431,0.000823
124640000,0.0324,0.013523,0.002678,0.000431,0.000823
124641000,0.0324,0.013523,0.002678,0.000431,0.000940
124642000,0.0324,0.013523,0.002678,0.000431,0.000940
124643000,0.0324,0.013523,0.002678,0.000431,0.000823
124644000,0.0324,0.013523,0.002678,0.000431,0.000823
124645000,0.0324,0.013523,0.002678,0.000431,0.000940
124646000,0.0324,0.013523,0.002678,0.000431,0.000823
124647000,0.0324,0.013523,0.002678,0.000431,0.000940
124648000,0.0324,0.013523,0.002678,0.000431,0.000823
124649000,0.0324,0.013523,0.002678,0.000431,0.000940
124650000,0.0324,0.013523,0.002678,0.000431,0.000823
124651000,0.0324,0.013523,0.002678,0.000431,0.000823
124652000,0.0324,0.013523,0.002678,0.000431,0.000940
124653000,0.0324,0.013523,0.002678,0.000431,0.000940
124654000,0.0324,0.013523,0.002678,0.000431,0.000823
124655000,0.0324,0.013523,0.002678,0.000431,0.000823
124656000,0.0324,0.013523,0.002678,0.000431,0.000940
124657000,0.0324,0.013523,0.002678,0.000431,0.000940
124658000,0.0324,0.013523,0.002678,0.000431,0.000823
124659000,0.0324,0.013523,0.002678,0.000431,0.000823
124660000,0.0324,0.013523,0.002678,0.000431,0.000940
124661000,0.0324,0.013523,0.002678,0.000431,0.000823
124662000,0.0324,0.013523,0.002678,0.000431,0.000940
124663000,0.0324,0.013523,0.002678,0.000431,0.000823
124664000,0.0324,0.013523,0.002678,0.000431,0.000940
124665000,0.0324,0.013523,0.002678,0.000431,0.000823
124666000,0.0324,0.013523,0.002678,0.000431,0.000823
124667000,0.0324,0.013523,0.002678,0.000431,0.000940
124668000,0.0324,0.013523,0.002678,0.000431,0.000940
124669000,0.0324,0.013523,0.002678,0.000431,0.000823
124670000,0.0324,0.013523,0.002678,0.000431,0.000823
124671000,0.0324,0.013523,0.002678,0.000431,0.000940
124672000,0.0324,0.013523,0.002678,0.000431,0.000940
124673000,0.0324,0.013523,0.002678,0.000431,0.000705
124674000,0.0324,0.013523,0.002678,0.000431,0.000940
124675000,0.0324,0.013523,0.002678,0.000431,0.000940
124676000,0.0324,0.013523,0.002678,0.000431,0.000940
124677000,0.0324,0.013523,0.002678,0.000431,0.000705
124678000,0.0324,0.013523,0.002678,0.000431,0.000940
124679000,0.0324,0.013523,0.002678,0.000431,0.000940
124680000,0.0324,0.013523,0.002678,0.000431,0.000823
124681000,0.0324,0.013523,0.002678,0.000431,0.000823
124682000,0.0324,0.013523,0.002678,0.000431,0.000940
124683000,0.0324,0.013523,0.002678,0.000431,0.000940
124684000,0.0324,0.013523,0.002678,0.000431,0.000823
124685000,0.0324,0.013523,0.002678,0.000431,0.000823
124686000,0.0324,0.013523,0.002678,0.000431,0.000940
124687000,0.0324,0.013523,0.002678,0.000431,0.000823
124688000,0.0324,0.013523,0.002678,0.000431,0.000940
124689000,0.0324,0.013523,0.002678,0.000431,0.000823
124690000,0.0324,0.013523,0.002678,0.000431,0.000940
124691000,0.0324,0.013523,0.002678,0.000431,0.000940
124692000,0.0324,0.013523,0.002678,0.000431,0.000705
124693000,0.0324,0.013523,0.002678,0.000431,0.000940
124694000,0.0324,0.013523,0.002678,0.000431,0.000940
124695000,0.0324,0.013523,0.002678,0.000431,0.000940
124696000,0.0324,0.013523,0.002678,0.000431,0.000705
124697000,0.0324,0.013523,0.002678,0.000431,0.000940
124698000,0.0324,0.013523,0.002678,0.000431,0.000940
124699000,0.0324,0.013523,0.002678,0.000431,0.000823
124700000,0.0324,0.013523,0.002678,0.000431,0.000823
124701000,0.0324,0.013523,0.002678,0.000431,0.000940
124702000,0.0324,0.013523,0.002678,0.000431,0.000823
124703000,0.0324,0.013523,0.002678,0.000431,0.000940
124704000,0.0324,0.013523,0.002678,0.000431,0.000823
124705000,0.0324,0.013523,0.002678,0.000431,0.000940
124706000,0.0324,0.013523,0.002678,0.000431,0.000823
124707000,0.0324,0.013523,0.002678,0.000431,0.000823
124708000,0.0324,0.013523,0.002678,0.000431,0.000940
124709000,0.0324,0.013523,0.002678,0.000431,0.000940
124710000,0.0324,0.013523,0.002678,0.000431,0.000823
124711000,0.0324,0.013523,0.002678,0.000431,0.000823
124712000,0.0324,0.013523,0.002678,0.000431,0.000940
124713000,0.0324,0.013523,0.002678,0.000431,0.000940
124714000,0.0324,0.013523,0.002678,0.000431,0.000705
124715000,0.0324,0.013523,0.002678,0.000431,0.000940
124716000,0.0324,0.013523,0.002678,0.000431,0.000940
124717000,0.0324,0.013523,0.002678,0.000431,0.000940
124718000,0.0324,0.013523,0.002678,0.000431,0.000823
124719000,0.0324,0.013523,0.002678,0.000431,0.000823
124720000,0.0324,0.013523,0.002678,0.000431,0.000940
124721000,0.0324,0.013523,0.002678,0.000431,0.000823
124722000,0.0324,0.013523,0.002678,0.000431,0.000940
124723000,0.0324,0.013523,0.002678,0.000431,0.000823
124724000,0.0324,0.013523,0.002678,0.000431,0.000940
124725000,0.0324,0.013523,0.002678,0.000431,0.000823
124726000,0.0324,0.013523,0.002678,0.000431,0.000823
124727000,0.0324,0.013523,0.002678,0.000431,0.000940
124728000,0.0324,0.013523,0.002678,0.000431,0.000940
124729000,0.0324,0.013523,0.002678,0.000431,0.000823
124730000,0.0324,0.013523,0.002678,0.000431,0.000823
124731000,0.0324,0.013523,0.002678,0.000431,0.000940
124732000,0.0324,0.013523,0.002678,0.000431,0.000940
124733000,0.0324,0.013523,0.002678,0.000431,0.000705
124734000,0.0324,0.013523,0.002678,0.000431,0.000940
124735000,0.0324,0.013523,0.002678,0.000431,0.000940
124736000,0.0324,0.013523,0.002678,0.000431,0.000940
124737000,0.0324,0.013523,0.002678,0.000431,0.000705
124738000,0.0324,0.013523,0.002678,0.000431,0.000940
124739000,0.0324,0.013523,0.002678,0.000431,0.000940
124740000,0.0324,0.013523,0.002678,0.000431,0.000823
124741000,0.0324,0.013523,0.002678,0.000431,0.000823
124742000,0.0324,0.013523,0.002678,0.000431,0.000940
124743000,0.0324,0.013523,0.002678,0.000431,0.000940
124744000,0.0324,0.013523,0.002678,0.000431,0.000823
124745000,0.0324,0.013523,0.002678,0.000431,0.000823
124746000,0.0324,0.013523,0.002678,0.000431,0.000940
124747000,0.0324,0.013523,0.002678,0.000431,0.000823
124748000,0.0324,0.013523,0.002678,0.000431,0.000823
124749000,0.0324,0.013523,0.002678,0.000431,0.000940
124750000,0.0324,0.013523,0.002678,0.000431,0.000940
124751000,0.0324,0.013523,0.002678,0.000431,0.000940
124752000,0.0324,0.013523,0.002678,0.000431,0.013751
124753000,0.0324,0.013523,0.002678,0.000431,0.507134
124754000,0.0324,0.013523,0.002678,0.000431,0.598924
124755000,0.0324,0.013523,0.002678,0.000431,0.132572
124756000,0.0324,0.013523,0.002678,0.000431,0.133042
124757000,0.0324,0.013523,0.002678,0.000431,0.436030
124758000,0.0324,0.013523,0.002678,0.000431,0.343652
124759000,0.0324,0.013523,0.002678,0.000431,0.272195
124760000,0.0324,0.013523,0.002678,0.000431,0.294878
124761000,0.0324,0.013523,0.002678,0.000431,0.171944
124762000,0.0324,0.013523,0.002678,0.000431,0.143854
124763000,0.0324,0.013523,0.002678,0.000431,0.144090
124764000,0.0324,0.013523,0.002678,0.000431,0.232823
124765000,0.0324,0.013523,0.002678,0.000431,0.385727
124766000,0.0324,0.013523,0.002678,0.000431,0.092377
124767000,0.0324,0.013523,0.002678,0.000431,0.082387
124768000,0.0324,0.013523,0.002678,0.000431,0.057589
124769000,0.0324,0.013523,0.002678,0.000431,0.054768
124770000,0.0324,0.013523,0.002678,0.000431,0.053123
124771000,0.0324,0.013523,0.002678,0.000431,0.046424
124772000,0.0324,0.013523,0.002678,0.000431,0.046659
124773000,0.0324,0.013523,0.002678,0.000431,0.037727
124774000,0.0324,0.013523,0.002678,0.000431,0.040312
124775000,0.0324,0.013523,0.002678,0.000431,0.036316
124776000,0.0324,0.013523,0.002678,0.000431,0.028912
124777000,0.0324,0.013523,0.002678,0.000431,0.029500
124778000,0.0324,0.013523,0.002678,0.000431,0.028677
124779000,0.0324,0.013523,0.002678,0.000431,0.028677
124780000,0.0324,0.013523,0.002678,0.000431,0.028089
124781000,0.0324,0.013523,0.002678,0.000431,0.031145
124782000,0.0324,0.013523,0.002678,0.000431,0.026091
124783000,0.0324,0.013523,0.002678,0.000431,0.026091
124784000,0.0324,0.013523,0.002678,0.000431,0.024681
124785000,0.0324,0.013523,0.002678,0.000431,0.028677
124786000,0.0324,0.013523,0.002678,0.000431,0.023153
124787000,0.0324,0.013523,0.002678,0.000431,0.024681
124788000,0.0324,0.013523,0.002678,0.000431,0.020920
124789000,0.0324,0.013523,0.002678,0.000431,0.022448
124790000,0.0324,0.013523,0.002678,0.000431,0.016101
124791000,0.0324,0.013523,0.002678,0.000431,0.016924
124792000,0.0324,0.013523,0.002678,0.000431,0.014221
124793000,0.0324,0.013523,0.002678,0.000431,0.018569
124794000,0.0324,0.013523,0.002678,0.000431,0.009520
124795000,0.0324,0.013523,0.002678,0.000431,0.010813
124796000,0.0324,0.013523,0.002678,0.000431,0.009755
124797000,0.0324,0.013523,0.002678,0.000431,0.010342
124798000,0.0324,0.013523,0.002678,0.000431,0.010107
124799000,0.0324,0.013523,0.002678,0.000431,0.009285
124800000,0.0324,0.013523,0.002678,0.000431,0.010578
124801000,0.0324,0.013523,0.002678,0.000431,0.011870
124802000,0.0324,0.013523,0.002678,0.000431,0.011518
124803000,0.0324,0.013523,0.002678,0.000431,0.009050
124804000,0.0324,0.013523,0.002678,0.000431,0.009285
124805000,0.0324,0.013523,0.002678,0.000431,0.010578
124806000,0.0324,0.013523,0.002678,0.000431,0.011283
124807000,0.0324,0.013523,0.002678,0.000431,0.005524
124808000,0.0324,0.013523,0.002678,0.000431,0.005054
124809000,0.0324,0.013523,0.002678,0.000431,0.005759
124810000,0.0324,0.013523,0.002678,0.000431,0.004231
124811000,0.0324,0.013523,0.002678,0.000431,0.003526
124812000,0.0324,0.013523,0.002678,0.000431,0.003643
124813000,0.0324,0.013523,0.002678,0.000431,0.003761
124814000,0.0324,0.013523,0.002678,0.000431,0.003526
124815000,0.0324,0.013523,0.002678,0.000431,0.004231
124816000,0.0324,0.013523,0.002678,0.000431,0.003408
124817000,0.0324,0.013523,0.002678,0.000431,0.005406
124818000,0.0324,0.013523,0.002678,0.000431,0.002703
124819000,0.0324,0.013523,0.002678,0.000431,0.002821
124820000,0.0324,0.013523,0.002678,0.000431,0.003173
124821000,0.0324,0.013523,0.002678,0.000431,0.002468
124822000,0.0324,0.013523,0.002678,0.000431,0.004701
124823000,0.0324,0.013523,0.002678,0.000431,0.001763
124824000,0.0324,0.013523,0.002678,0.000431,0.001998
124825000,0.0324,0.013523,0.002678,0.000431,0.002351
124826000,0.0324,0.013523,0.002678,0.000431,0.001763
124827000,0.0324,0.013523,0.002678,0.000431,0.001763
124828000,0.0324,0.013523,0.002678,0.000431,0.102602
124829000,0.0324,0.013523,0.002678,0.000431,0.556613
124830000,0.0324,0.013523,0.002678,0.000431,0.552970
124831000,0.0324,0.013523,0.002678,0.000431,0.133042
124832000,0.0324,0.013523,0.002678,0.000431,0.131749
124833000,0.0324,0.013523,0.002678,0.000431,0.582352
124834000,0.0324,0.013523,0.002678,0.000431,0.238582
124835000,0.0324,0.013523,0.002678,0.000431,0.289589
124836000,0.0324,0.013523,0.002678,0.000431,0.317561
124837000,0.0324,0.013523,0.002678,0.000431,0.142562
124838000,0.0324,0.013523,0.002678,0.000431,0.159016
124839000,0.0324,0.013523,0.002678,0.000431,0.135628
124840000,0.0324,0.013523,0.002678,0.000431,0.444021
124841000,0.0324,0.013523,0.002678,0.000431,0.062760
124842000,0.0324,0.013523,0.002678,0.000431,0.039725
124843000,0.0324,0.013523,0.002678,0.000431,0.037021
124844000,0.0324,0.013523,0.002678,0.000431,0.026796
124845000,0.0324,0.013523,0.002678,0.000431,0.024798
124846000,0.0324,0.013523,0.002678,0.000431,0.017982
124847000,0.0324,0.013523,0.002678,0.000431,0.020920
124848000,0.0324,0.013523,0.002678,0.000431,0.017159
124849000,0.0324,0.013523,0.002678,0.000431,0.015749
124850000,0.0324,0.013523,0.002678,0.000431,0.016689
124851000,0.0324,0.013523,0.002678,0.000431,0.014691
124852000,0.0324,0.013523,0.002678,0.000431,0.018452
124853000,0.0324,0.013523,0.002678,0.000431,0.013868
124854000,0.0324,0.013523,0.002678,0.000431,0.015279
124855000,0.0324,0.013523,0.002678,0.000431,0.015279
124856000,0.0324,0.013523,0.002678,0.000431,0.016689
124857000,0.0324,0.013523,0.002678,0.000431,0.013281
124858000,0.0324,0.013523,0.002678,0.000431,0.015514
124859000,0.0324,0.013523,0.002678,0.000431,0.013751
124860000,0.0324,0.013523,0.002678,0.000431,0.012576
124861000,0.0324,0.013523,0.002678,0.000431,0.015161
124862000,0.0324,0.013523,0.002678,0.000431,0.010813
124863000,0.0324,0.013523,0.002678,0.000431,0.010695
124864000,0.0324,0.013523,0.002678,0.000431,0.009402
124865000,0.0324,0.013523,0.002678,0.000431,0.009990
124866000,0.0324,0.013523,0.002678,0.000431,0.009402
124867000,0.0324,0.013523,0.002678,0.000431,0.010342
124868000,0.0324,0.013523,0.002678,0.000431,0.009990
124869000,0.0324,0.013523,0.002678,0.000431,0.009637
124870000,0.0324,0.013523,0.002678,0.000431,0.009990
124871000,0.0324,0.013523,0.002678,0.000431,0.009167
124872000,0.0324,0.013523,0.002678,0.000431,0.010813
124873000,0.0324,0.013523,0.002678,0.000431,0.011165
124874000,0.0324,0.013523,0.002678,0.000431,0.009167
124875000,0.0324,0.013523,0.002678,0.000431,0.008815
124876000,0.0324,0.013523,0.002678,0.000431,0.010930
124877000,0.0324,0.013523,0.002678,0.000431,0.009637
124878000,0.0324,0.013523,0.002678,0.000431,0.008815
124879000,0.0324,0.013523,0.002678,0.000431,0.006699
124880000,0.0324,0.013523,0.002678,0.000431,0.006229
124881000,0.0324,0.013523,0.002678,0.000431,0.006582
124882000,0.0324,0.013523,0.002678,0.000431,0.006464
124883000,0.0324,0.013523,0.002678,0.000431,0.006464
124884000,0.0324,0.013523,0.002678,0.000431,0.006111
124885000,0.0324,0.013523,0.002678,0.000431,0.006699
124886000,0.0324,0.013523,0.002678,0.000431,0.006347
124887000,0.0324,0.013523,0.002678,0.000431,0.006347
124888000,0.0324,0.013523,0.002678,0.000431,0.006699
124889000,0.0324,0.013523,0.002678,0.000431,0.005641
124890000,0.0324,0.013523,0.002678,0.000431,0.005054
124891000,0.0324,0.013523,0.002678,0.000431,0.010813
124892000,0.0324,0.013523,0.002678,0.000431,0.002821
124893000,0.0324,0.013523,0.002678,0.000431,0.002116
124894000,0.0324,0.013523,0.002678,0.000431,0.002586
124895000,0.0324,0.013523,0.002678,0.000431,0.002468
124896000,0.0324,0.013523,0.002678,0.000431,0.002233
124897000,0.0324,0.013523,0.002678,0.000431,0.002821
124898000,0.0324,0.013523,0.002678,0.000431,0.001998
124899000,0.0324,0.013523,0.002678,0.000431,0.002703
124900000,0.0324,0.013523,0.002678,0.000431,0.002351
124901000,0.0324,0.013523,0.002678,0.000431,0.002468
124902000,0.0324,0.013523,0.002678,0.000431,0.002351
124903000,0.0324,0.013523,0.002678,0.000431,0.002351
124904000,0.0324,0.013523,0.002678,0.000431,0.001998
124905000,0.0324,0.013523,0.002678,0.000431,0.001763
124906000,0.0324,0.013523,0.002678,0.000431,0.001645
124907000,0.0324,0.013523,0.002678,0.000431,0.001763
124908000,0.0324,0.013523,0.002678,0.000431,0.003761
124909000,0.0324,0.013523,0.002678,0.000431,0.000940
124910000,0.0324,0.013523,0.002678,0.000431,0.006347
124911000,0.0324,0.013523,0.002678,0.000431,0.432151
124912000,0.0324,0.013523,0.002678,0.000431,0.642527
124913000,0.0324,0.013523,0.002678,0.000431,0.131279
124914000,0.0324,0.013523,0.002678,0.000431,0.133865
124915000,0.0324,0.013523,0.002678,0.000431,0.171826
124916000,0.0324,0.013523,0.002678,0.000431,0.568014
124917000,0.0324,0.013523,0.002678,0.000431,0.258680
124918000,0.0324,0.013523,0.002678,0.000431,0.255741
124919000,0.0324,0.013523,0.002678,0.000431,0.231531
124920000,0.0324,0.013523,0.002678,0.000431,0.137978
124921000,0.0324,0.013523,0.002678,0.000431,0.163599
124922000,0.0324,0.013523,0.002678,0.000431,0.103660
124923000,0.0324,0.013523,0.002678,0.000431,0.443081
124924000,0.0324,0.013523,0.002678,0.000431,0.137155
124925000,0.0324,0.013523,0.002678,0.000431,0.057236
124926000,0.0324,0.013523,0.002678,0.000431,0.052653
124927000,0.0324,0.013523,0.002678,0.000431,0.053123
124928000,0.0324,0.013523,0.002678,0.000431,0.038432
124929000,0.0324,0.013523,0.002678,0.000431,0.039019
124930000,0.0324,0.013523,0.002678,0.000431,0.033848
124931000,0.0324,0.013523,0.002678,0.000431,0.035494
124932000,0.0324,0.013523,0.002678,0.000431,0.028442
124933000,0.0324,0.013523,0.002678,0.000431,0.028794
124934000,0.0324,0.013523,0.002678,0.000431,0.025504
124935000,0.0324,0.013523,0.002678,0.000431,0.029382
124936000,0.0324,0.013523,0.002678,0.000431,0.021390
124937000,0.0324,0.013523,0.002678,0.000431,0.022918
124938000,0.0324,0.013523,0.002678,0.000431,0.022918
124939000,0.0324,0.013523,0.002678,0.000431,0.021390
124940000,0.0324,0.013523,0.002678,0.000431,0.022800
124941000,0.0324,0.013523,0.002678,0.000431,0.023741
124942000,0.0324,0.013523,0.002678,0.000431,0.021978
124943000,0.0324,0.013523,0.002678,0.000431,0.020215
124944000,0.0324,0.013523,0.002678,0.000431,0.019157
124945000,0.0324,0.013523,0.002678,0.000431,0.017512
124946000,0.0324,0.013523,0.002678,0.000431,0.023623
124947000,0.0324,0.013523,0.002678,0.000431,0.017629
124948000,0.0324,0.013523,0.002678,0.000431,0.013986
124949000,0.0324,0.013523,0.002678,0.000431,0.015161
124950000,0.0324,0.013523,0.002678,0.000431,0.016101
124951000,0.0324,0.013523,0.002678,0.000431,0.013281
124952000,0.0324,0.013523,0.002678,0.000431,0.016219
124953000,0.0324,0.013523,0.002678,0.000431,0.012928
124954000,0.0324,0.013523,0.002678,0.000431,0.012105
124955000,0.0324,0.013523,0.002678,0.000431,0.012576
124956000,0.0324,0.013523,0.002678,0.000431,0.014103
124957000,0.0324,0.013523,0.002678,0.000431,0.015044
124958000,0.0324,0.013523,0.002678,0.000431,0.011165
124959000,0.0324,0.013523,0.002678,0.000431,0.010930
124960000,0.0324,0.013523,0.002678,0.000431,0.011048
124961000,0.0324,0.013523,0.002678,0.000431,0.011988
124962000,0.0324,0.013523,0.002678,0.000431,0.010578
124963000,0.0324,0.013523,0.002678,0.000431,0.012458
124964000,0.0324,0.013523,0.002678,0.000431,0.010225
124965000,0.0324,0.013523,0.002678,0.000431,0.011165
124966000,0.0324,0.013523,0.002678,0.000431,0.009050
124967000,0.0324,0.013523,0.002678,0.000431,0.009167
124968000,0.0324,0.013523,0.002678,0.000431,0.008697
124969000,0.0324,0.013523,0.002678,0.000431,0.009402
124970000,0.0324,0.013523,0.002678,0.000431,0.006817
124971000,0.0324,0.013523,0.002678,0.000431,0.005876
124972000,0.0324,0.013523,0.002678,0.000431,0.007052
124973000,0.0324,0.013523,0.002678,0.000431,0.005759
124974000,0.0324,0.013523,0.002678,0.000431,0.005994
124975000,0.0324,0.013523,0.002678,0.000431,0.006347
124976000,0.0324,0.013523,0.002678,0.000431,0.006817
124977000,0.0324,0.013523,0.002678,0.000431,0.005876
124978000,0.0324,0.013523,0.002678,0.000431,0.006699
124979000,0.0324,0.013523,0.002678,0.000431,0.007757
124980000,0.0324,0.013523,0.002678,0.000431,0.007992
124981000,0.0324,0.013523,0.002678,0.000431,0.004701
124982000,0.0324,0.013523,0.002678,0.000431,0.004819
124983000,0.0324,0.013523,0.002678,0.000431,0.003996
124984000,0.0324,0.013523,0.002678,0.000431,0.005289
124985000,0.0324,0.013523,0.002678,0.000431,0.004113
124986000,0.0324,0.013523,0.002678,0.000431,0.004819
124987000,0.0324,0.013523,0.002678,0.000431,0.004584
124988000,0.0324,0.013523,0.002678,0.000431,0.004113
124989000,0.0324,0.013523,0.002678,0.000431,0.004701
124990000,0.0324,0.013523,0.002678,0.000431,0.005406
124991000,0.0324,0.013523,0.002678,0.000431,0.003526
124992000,0.0324,0.013523,0.002678,0.000431,0.005406
124993000,0.0324,0.013523,0.002678,0.000431,0.004466
124994000,0.0324,0.013523,0.002678,0.000431,0.004113
124995000,0.0324,0.013523,0.002678,0.000431,0.004701
124996000,0.0324,0.013523,0.002678,0.000431,0.004701
124997000,0.0324,0.013523,0.002678,0.000431,0.004466
124998000,0.0324,0.013523,0.002678,0.000431,0.004584
124999000,0.0324,0.013523,0.002678,0.000431,0.002703
