Cycle,Area(mm^2),PeakDynamic(W),SubthresholdLeakage(W),GateLeakage(W),RunTimeDynamic(W)
58000000,0.0324,0.013523,0.002678,0.000431,0.001058
58001000,0.0324,0.013523,0.002678,0.000431,0.000940
58002000,0.0324,0.013523,0.002678,0.000431,0.000940
58003000,0.0324,0.013523,0.002678,0.000431,0.224479
58004000,0.0324,0.013523,0.002678,0.000431,0.644054
58005000,0.0324,0.013523,0.002678,0.000431,0.320852
58006000,0.0324,0.013523,0.002678,0.000431,0.132102
58007000,0.0324,0.013523,0.002678,0.000431,0.139859
58008000,0.0324,0.013523,0.002678,0.000431,0.645112
58009000,0.0324,0.013523,0.002678,0.000431,0.230590
58010000,0.0324,0.013523,0.002678,0.000431,0.279129
58011000,0.0324,0.013523,0.002678,0.000431,0.243989
58012000,0.0324,0.013523,0.002678,0.000431,0.143267
58013000,0.0324,0.013523,0.002678,0.000431,0.159251
58014000,0.0324,0.013523,0.002678,0.000431,0.143149
58015000,0.0324,0.013523,0.002678,0.000431,0.455892
58016000,0.0324,0.013523,0.002678,0.000431,0.086618
58017000,0.0324,0.013523,0.002678,0.000431,0.069929
58018000,0.0324,0.013523,0.002678,0.000431,0.063465
58019000,0.0324,0.013523,0.002678,0.000431,0.050420
58020000,0.0324,0.013523,0.002678,0.000431,0.039607
58021000,0.0324,0.013523,0.002678,0.000431,0.037139
58022000,0.0324,0.013523,0.002678,0.000431,0.035258
58023000,0.0324,0.013523,0.002678,0.000431,0.033378
58024000,0.0324,0.013523,0.002678,0.000431,0.024328
58025000,0.0324,0.013523,0.002678,0.000431,0.019862
58026000,0.0324,0.013523,0.002678,0.000431,0.021860
58027000,0.0324,0.013523,0.002678,0.000431,0.019040
58028000,0.0324,0.013523,0.002678,0.000431,0.019862
58029000,0.0324,0.013523,0.002678,0.000431,0.015984
58030000,0.0324,0.013523,0.002678,0.000431,0.017042
58031000,0.0324,0.013523,0.002678,0.000431,0.012693
58032000,0.0324,0.013523,0.002678,0.000431,0.012928
58033000,0.0324,0.013523,0.002678,0.000431,0.013281
58034000,0.0324,0.013523,0.002678,0.000431,0.012576
58035000,0.0324,0.013523,0.002678,0.000431,0.012928
58036000,0.0324,0.013523,0.002678,0.000431,0.012105
58037000,0.0324,0.013523,0.002678,0.000431,0.013398
58038000,0.0324,0.013523,0.002678,0.000431,0.012576
58039000,0.0324,0.013523,0.002678,0.000431,0.013163
58040000,0.0324,0.013523,0.002678,0.000431,0.011753
58041000,0.0324,0.013523,0.002678,0.000431,0.013163
58042000,0.0324,0.013523,0.002678,0.000431,0.012928
58043000,0.0324,0.013523,0.002678,0.000431,0.012693
58044000,0.0324,0.013523,0.002678,0.000431,0.012340
58045000,0.0324,0.013523,0.002678,0.000431,0.012811
58046000,0.0324,0.013523,0.002678,0.000431,0.012928
58047000,0.0324,0.013523,0.002678,0.000431,0.012693
58048000,0.0324,0.013523,0.002678,0.000431,0.013986
58049000,0.0324,0.013523,0.002678,0.000431,0.012340
58050000,0.0324,0.013523,0.002678,0.000431,0.011518
58051000,0.0324,0.013523,0.002678,0.000431,0.013398
58052000,0.0324,0.013523,0.002678,0.000431,0.011988
58053000,0.0324,0.013523,0.002678,0.000431,0.011283
58054000,0.0324,0.013523,0.002678,0.000431,0.011048
58055000,0.0324,0.013523,0.002678,0.000431,0.011400
58056000,0.0324,0.013523,0.002678,0.000431,0.009872
58057000,0.0324,0.013523,0.002678,0.000431,0.010107
58058000,0.0324,0.013523,0.002678,0.000431,0.009872
58059000,0.0324,0.013523,0.002678,0.000431,0.011988
58060000,0.0324,0.013523,0.002678,0.000431,0.009167
58061000,0.0324,0.013523,0.002678,0.000431,0.010342
58062000,0.0324,0.013523,0.002678,0.000431,0.009285
58063000,0.0324,0.013523,0.002678,0.000431,0.007287
58064000,0.0324,0.013523,0.002678,0.000431,0.007522
58065000,0.0324,0.013523,0.002678,0.000431,0.007522
58066000,0.0324,0.013523,0.002678,0.000431,0.007522
58067000,0.0324,0.013523,0.002678,0.000431,0.007404
58068000,0.0324,0.013523,0.002678,0.000431,0.007052
58069000,0.0324,0.013523,0.002678,0.000431,0.008109
58070000,0.0324,0.013523,0.002678,0.000431,0.009402
58071000,0.0324,0.013523,0.002678,0.000431,0.006229
58072000,0.0324,0.013523,0.002678,0.000431,0.007404
58073000,0.0324,0.013523,0.002678,0.000431,0.005994
58074000,0.0324,0.013523,0.002678,0.000431,0.006934
58075000,0.0324,0.013523,0.002678,0.000431,0.006582
58076000,0.0324,0.013523,0.002678,0.000431,0.006817
58077000,0.0324,0.013523,0.002678,0.000431,0.006582
58078000,0.0324,0.013523,0.002678,0.000431,0.006464
58079000,0.0324,0.013523,0.002678,0.000431,0.006699
58080000,0.0324,0.013523,0.002678,0.000431,0.006699
58081000,0.0324,0.013523,0.002678,0.000431,0.006699
58082000,0.0324,0.013523,0.002678,0.000431,0.008345
58083000,0.0324,0.013523,0.002678,0.000431,0.005759
58084000,0.0324,0.013523,0.002678,0.000431,0.006111
58085000,0.0324,0.013523,0.002678,0.000431,0.005289
58086000,0.0324,0.013523,0.002678,0.000431,0.005994
58087000,0.0324,0.013523,0.002678,0.000431,0.005289
58088000,0.0324,0.013523,0.002678,0.000431,0.005876
58089000,0.0324,0.013523,0.002678,0.000431,0.005406
58090000,0.0324,0.013523,0.002678,0.000431,0.005876
58091000,0.0324,0.013523,0.002678,0.000431,0.005524
58092000,0.0324,0.013523,0.002678,0.000431,0.005759
58093000,0.0324,0.013523,0.002678,0.000431,0.005876
58094000,0.0324,0.013523,0.002678,0.000431,0.005406
58095000,0.0324,0.013523,0.002678,0.000431,0.005876
58096000,0.0324,0.013523,0.002678,0.000431,0.005289
58097000,0.0324,0.013523,0.002678,0.000431,0.005641
58098000,0.0324,0.013523,0.002678,0.000431,0.006229
58099000,0.0324,0.013523,0.002678,0.000431,0.005171
58100000,0.0324,0.013523,0.002678,0.000431,0.005994
58101000,0.0324,0.013523,0.002678,0.000431,0.005171
58102000,0.0324,0.013523,0.002678,0.000431,0.005876
58103000,0.0324,0.013523,0.002678,0.000431,0.005994
58104000,0.0324,0.013523,0.002678,0.000431,0.005289
58105000,0.0324,0.013523,0.002678,0.000431,0.005759
58106000,0.0324,0.013523,0.002678,0.000431,0.005641
58107000,0.0324,0.013523,0.002678,0.000431,0.005876
58108000,0.0324,0.013523,0.002678,0.000431,0.005289
58109000,0.0324,0.013523,0.002678,0.000431,0.005994
58110000,0.0324,0.013523,0.002678,0.000431,0.005641
58111000,0.0324,0.013523,0.002678,0.000431,0.005524
58112000,0.0324,0.013523,0.002678,0.000431,0.005876
58113000,0.0324,0.013523,0.002678,0.000431,0.008580
58114000,0.0324,0.013523,0.002678,0.000431,0.003878
58115000,0.0324,0.013523,0.002678,0.000431,0.004231
58116000,0.0324,0.013523,0.002678,0.000431,0.004113
58117000,0.0324,0.013523,0.002678,0.000431,0.003996
58118000,0.0324,0.013523,0.002678,0.000431,0.004231
58119000,0.0324,0.013523,0.002678,0.000431,0.004113
58120000,0.0324,0.013523,0.002678,0.000431,0.004231
58121000,0.0324,0.013523,0.002678,0.000431,0.003761
58122000,0.0324,0.013523,0.002678,0.000431,0.004466
58123000,0.0324,0.013523,0.002678,0.000431,0.003996
58124000,0.0324,0.013523,0.002678,0.000431,0.003291
58125000,0.0324,0.013523,0.002678,0.000431,0.003643
58126000,0.0324,0.013523,0.002678,0.000431,0.003173
58127000,0.0324,0.013523,0.002678,0.000431,0.003643
58128000,0.0324,0.013523,0.002678,0.000431,0.003408
58129000,0.0324,0.013523,0.002678,0.000431,0.003291
58130000,0.0324,0.013523,0.002678,0.000431,0.003761
58131000,0.0324,0.013523,0.002678,0.000431,0.003173
58132000,0.0324,0.013523,0.002678,0.000431,0.003643
58133000,0.0324,0.013523,0.002678,0.000431,0.003291
58134000,0.0324,0.013523,0.002678,0.000431,0.003526
58135000,0.0324,0.013523,0.002678,0.000431,0.003408
58136000,0.0324,0.013523,0.002678,0.000431,0.003408
58137000,0.0324,0.013523,0.002678,0.000431,0.005641
58138000,0.0324,0.013523,0.002678,0.000431,0.002586
58139000,0.0324,0.013523,0.002678,0.000431,0.002468
58140000,0.0324,0.013523,0.002678,0.000431,0.002586
58141000,0.0324,0.013523,0.002678,0.000431,0.002821
58142000,0.0324,0.013523,0.002678,0.000431,0.002233
58143000,0.0324,0.013523,0.002678,0.000431,0.002703
58144000,0.0324,0.013523,0.002678,0.000431,0.002468
58145000,0.0324,0.013523,0.002678,0.000431,0.002586
58146000,0.0324,0.013523,0.002678,0.000431,0.004113
58147000,0.0324,0.013523,0.002678,0.000431,0.001880
58148000,0.0324,0.013523,0.002678,0.000431,0.001763
58149000,0.0324,0.013523,0.002678,0.000431,0.001763
58150000,0.0324,0.013523,0.002678,0.000431,0.001528
58151000,0.0324,0.013523,0.002678,0.000431,0.002938
58152000,0.0324,0.013523,0.002678,0.000431,0.000940
58153000,0.0324,0.013523,0.002678,0.000431,0.000940
58154000,0.0324,0.013523,0.002678,0.000431,0.000823
58155000,0.0324,0.013523,0.002678,0.000431,0.000823
58156000,0.0324,0.013523,0.002678,0.000431,0.000940
58157000,0.0324,0.013523,0.002678,0.000431,0.000940
58158000,0.0324,0.013523,0.002678,0.000431,0.000705
58159000,0.0324,0.013523,0.002678,0.000431,0.000940
58160000,0.0324,0.013523,0.002678,0.000431,0.000940
58161000,0.0324,0.013523,0.002678,0.000431,0.000940
58162000,0.0324,0.013523,0.002678,0.000431,0.000705
58163000,0.0324,0.013523,0.002678,0.000431,0.000940
58164000,0.0324,0.013523,0.002678,0.000431,0.000940
58165000,0.0324,0.013523,0.002678,0.000431,0.000823
58166000,0.0324,0.013523,0.002678,0.000431,0.000940
58167000,0.0324,0.013523,0.002678,0.000431,0.000823
58168000,0.0324,0.013523,0.002678,0.000431,0.000940
58169000,0.0324,0.013523,0.002678,0.000431,0.000823
58170000,0.0324,0.013523,0.002678,0.000431,0.000823
58171000,0.0324,0.013523,0.002678,0.000431,0.000940
58172000,0.0324,0.013523,0.002678,0.000431,0.000940
58173000,0.0324,0.013523,0.002678,0.000431,0.000823
58174000,0.0324,0.013523,0.002678,0.000431,0.000823
58175000,0.0324,0.013523,0.002678,0.000431,0.000940
58176000,0.0324,0.013523,0.002678,0.000431,0.000940
58177000,0.0324,0.013523,0.002678,0.000431,0.000705
58178000,0.0324,0.013523,0.002678,0.000431,0.000940
58179000,0.0324,0.013523,0.002678,0.000431,0.000940
58180000,0.0324,0.013523,0.002678,0.000431,0.000940
58181000,0.0324,0.013523,0.002678,0.000431,0.000705
58182000,0.0324,0.013523,0.002678,0.000431,0.000940
58183000,0.0324,0.013523,0.002678,0.000431,0.000940
58184000,0.0324,0.013523,0.002678,0.000431,0.000823
58185000,0.0324,0.013523,0.002678,0.000431,0.000823
58186000,0.0324,0.013523,0.002678,0.000431,0.000940
58187000,0.0324,0.013523,0.002678,0.000431,0.000823
58188000,0.0324,0.013523,0.002678,0.000431,0.000940
58189000,0.0324,0.013523,0.002678,0.000431,0.000823
58190000,0.0324,0.013523,0.002678,0.000431,0.000940
58191000,0.0324,0.013523,0.002678,0.000431,0.000823
58192000,0.0324,0.013523,0.002678,0.000431,0.000823
58193000,0.0324,0.013523,0.002678,0.000431,0.000940
58194000,0.0324,0.013523,0.002678,0.000431,0.000940
58195000,0.0324,0.013523,0.002678,0.000431,0.000823
58196000,0.0324,0.013523,0.002678,0.000431,0.000823
58197000,0.0324,0.013523,0.002678,0.000431,0.000940
58198000,0.0324,0.013523,0.002678,0.000431,0.000940
58199000,0.0324,0.013523,0.002678,0.000431,0.000823
58200000,0.0324,0.013523,0.002678,0.000431,0.000823
58201000,0.0324,0.013523,0.002678,0.000431,0.000940
58202000,0.0324,0.013523,0.002678,0.000431,0.000940
58203000,0.0324,0.013523,0.002678,0.000431,0.000823
58204000,0.0324,0.013523,0.002678,0.000431,0.000823
58205000,0.0324,0.013523,0.002678,0.000431,0.000940
58206000,0.0324,0.013523,0.002678,0.000431,0.000823
58207000,0.0324,0.013523,0.002678,0.000431,0.000940
58208000,0.0324,0.013523,0.002678,0.000431,0.000823
58209000,0.0324,0.013523,0.002678,0.000431,0.199210
58210000,0.0324,0.013523,0.002678,0.000431,0.500553
58211000,0.0324,0.013523,0.002678,0.000431,0.496792
58212000,0.0324,0.013523,0.002678,0.000431,0.133042
58213000,0.0324,0.013523,0.002678,0.000431,0.132454
58214000,0.0324,0.013523,0.002678,0.000431,0.584468
58215000,0.0324,0.013523,0.002678,0.000431,0.249982
58216000,0.0324,0.013523,0.002678,0.000431,0.304280
58217000,0.0324,0.013523,0.002678,0.000431,0.282068
58218000,0.0324,0.013523,0.002678,0.000431,0.142914
58219000,0.0324,0.013523,0.002678,0.000431,0.154667
58220000,0.0324,0.013523,0.002678,0.000431,0.149143
58221000,0.0324,0.013523,0.002678,0.000431,0.429683
58222000,0.0324,0.013523,0.002678,0.000431,0.029265
58223000,0.0324,0.013523,0.002678,0.000431,0.029029
58224000,0.0324,0.013523,0.002678,0.000431,0.020332
58225000,0.0324,0.013523,0.002678,0.000431,0.024563
58226000,0.0324,0.013523,0.002678,0.000431,0.017747
58227000,0.0324,0.013523,0.002678,0.000431,0.015044
58228000,0.0324,0.013523,0.002678,0.000431,0.013751
58229000,0.0324,0.013523,0.002678,0.000431,0.012223
58230000,0.0324,0.013523,0.002678,0.000431,0.008932
58231000,0.0324,0.013523,0.002678,0.000431,0.010578
58232000,0.0324,0.013523,0.002678,0.000431,0.007992
58233000,0.0324,0.013523,0.002678,0.000431,0.008815
58234000,0.0324,0.013523,0.002678,0.000431,0.009755
58235000,0.0324,0.013523,0.002678,0.000431,0.006582
58236000,0.0324,0.013523,0.002678,0.000431,0.006229
58237000,0.0324,0.013523,0.002678,0.000431,0.006817
58238000,0.0324,0.013523,0.002678,0.000431,0.006229
58239000,0.0324,0.013523,0.002678,0.000431,0.006817
58240000,0.0324,0.013523,0.002678,0.000431,0.006111
58241000,0.0324,0.013523,0.002678,0.000431,0.006699
58242000,0.0324,0.013523,0.002678,0.000431,0.006464
58243000,0.0324,0.013523,0.002678,0.000431,0.006464
58244000,0.0324,0.013523,0.002678,0.000431,0.006111
58245000,0.0324,0.013523,0.002678,0.000431,0.007169
58246000,0.0324,0.013523,0.002678,0.000431,0.005289
58247000,0.0324,0.013523,0.002678,0.000431,0.004819
58248000,0.0324,0.013523,0.002678,0.000431,0.005289
58249000,0.0324,0.013523,0.002678,0.000431,0.005054
58250000,0.0324,0.013523,0.002678,0.000431,0.005054
58251000,0.0324,0.013523,0.002678,0.000431,0.005171
58252000,0.0324,0.013523,0.002678,0.000431,0.004819
58253000,0.0324,0.013523,0.002678,0.000431,0.005289
58254000,0.0324,0.013523,0.002678,0.000431,0.005054
58255000,0.0324,0.013523,0.002678,0.000431,0.005171
58256000,0.0324,0.013523,0.002678,0.000431,0.004936
58257000,0.0324,0.013523,0.002678,0.000431,0.005054
58258000,0.0324,0.013523,0.002678,0.000431,0.005406
58259000,0.0324,0.013523,0.002678,0.000431,0.004819
58260000,0.0324,0.013523,0.002678,0.000431,0.005171
58261000,0.0324,0.013523,0.002678,0.000431,0.005054
58262000,0.0324,0.013523,0.002678,0.000431,0.005054
58263000,0.0324,0.013523,0.002678,0.000431,0.005054
58264000,0.0324,0.013523,0.002678,0.000431,0.005054
58265000,0.0324,0.013523,0.002678,0.000431,0.006582
58266000,0.0324,0.013523,0.002678,0.000431,0.005406
58267000,0.0324,0.013523,0.002678,0.000431,0.005641
58268000,0.0324,0.013523,0.002678,0.000431,0.004701
58269000,0.0324,0.013523,0.002678,0.000431,0.001998
58270000,0.0324,0.013523,0.002678,0.000431,0.001528
58271000,0.0324,0.013523,0.002678,0.000431,0.001763
58272000,0.0324,0.013523,0.002678,0.000431,0.001880
58273000,0.0324,0.013523,0.002678,0.000431,0.001763
58274000,0.0324,0.013523,0.002678,0.000431,0.001645
58275000,0.0324,0.013523,0.002678,0.000431,0.001763
58276000,0.0324,0.013523,0.002678,0.000431,0.001880
58277000,0.0324,0.013523,0.002678,0.000431,0.001645
58278000,0.0324,0.013523,0.002678,0.000431,0.001645
58279000,0.0324,0.013523,0.002678,0.000431,0.001880
58280000,0.0324,0.013523,0.002678,0.000431,0.001880
58281000,0.0324,0.013523,0.002678,0.000431,0.001645
58282000,0.0324,0.013523,0.002678,0.000431,0.001645
58283000,0.0324,0.013523,0.002678,0.000431,0.001880
58284000,0.0324,0.013523,0.002678,0.000431,0.001763
58285000,0.0324,0.013523,0.002678,0.000431,0.001763
58286000,0.0324,0.013523,0.002678,0.000431,0.001645
58287000,0.0324,0.013523,0.002678,0.000431,0.001880
58288000,0.0324,0.013523,0.002678,0.000431,0.001763
58289000,0.0324,0.013523,0.002678,0.000431,0.001645
58290000,0.0324,0.013523,0.002678,0.000431,0.001763
58291000,0.0324,0.013523,0.002678,0.000431,0.001880
58292000,0.0324,0.013523,0.002678,0.000431,0.001763
58293000,0.0324,0.013523,0.002678,0.000431,0.001645
58294000,0.0324,0.013523,0.002678,0.000431,0.001763
58295000,0.0324,0.013523,0.002678,0.000431,0.001880
58296000,0.0324,0.013523,0.002678,0.000431,0.001645
58297000,0.0324,0.013523,0.002678,0.000431,0.001645
58298000,0.0324,0.013523,0.002678,0.000431,0.001880
58299000,0.0324,0.013523,0.002678,0.000431,0.001880
58300000,0.0324,0.013523,0.002678,0.000431,0.001645
58301000,0.0324,0.013523,0.002678,0.000431,0.001645
58302000,0.0324,0.013523,0.002678,0.000431,0.001880
58303000,0.0324,0.013523,0.002678,0.000431,0.001763
58304000,0.0324,0.013523,0.002678,0.000431,0.001645
58305000,0.0324,0.013523,0.002678,0.000431,0.001763
58306000,0.0324,0.013523,0.002678,0.000431,0.001880
58307000,0.0324,0.013523,0.002678,0.000431,0.001763
58308000,0.0324,0.013523,0.002678,0.000431,0.001645
58309000,0.0324,0.013523,0.002678,0.000431,0.001763
58310000,0.0324,0.013523,0.002678,0.000431,0.001880
58311000,0.0324,0.013523,0.002678,0.000431,0.001645
58312000,0.0324,0.013523,0.002678,0.000431,0.001763
58313000,0.0324,0.013523,0.002678,0.000431,0.001763
58314000,0.0324,0.013523,0.002678,0.000431,0.001880
58315000,0.0324,0.013523,0.002678,0.000431,0.001645
58316000,0.0324,0.013523,0.002678,0.000431,0.001645
58317000,0.0324,0.013523,0.002678,0.000431,0.001880
58318000,0.0324,0.013523,0.002678,0.000431,0.001880
58319000,0.0324,0.013523,0.002678,0.000431,0.001528
58320000,0.0324,0.013523,0.002678,0.000431,0.001763
58321000,0.0324,0.013523,0.002678,0.000431,0.001880
58322000,0.0324,0.013523,0.002678,0.000431,0.001880
58323000,0.0324,0.013523,0.002678,0.000431,0.001528
58324000,0.0324,0.013523,0.002678,0.000431,0.001763
58325000,0.0324,0.013523,0.002678,0.000431,0.001880
58326000,0.0324,0.013523,0.002678,0.000431,0.001645
58327000,0.0324,0.013523,0.002678,0.000431,0.001763
58328000,0.0324,0.013523,0.002678,0.000431,0.001763
58329000,0.0324,0.013523,0.002678,0.000431,0.001880
58330000,0.0324,0.013523,0.002678,0.000431,0.001645
58331000,0.0324,0.013523,0.002678,0.000431,0.001645
58332000,0.0324,0.013523,0.002678,0.000431,0.001880
58333000,0.0324,0.013523,0.002678,0.000431,0.001763
58334000,0.0324,0.013523,0.002678,0.000431,0.001763
58335000,0.0324,0.013523,0.002678,0.000431,0.001645
58336000,0.0324,0.013523,0.002678,0.000431,0.001880
58337000,0.0324,0.013523,0.002678,0.000431,0.001763
58338000,0.0324,0.013523,0.002678,0.000431,0.001528
58339000,0.0324,0.013523,0.002678,0.000431,0.002116
58340000,0.0324,0.013523,0.002678,0.000431,0.001880
58341000,0.0324,0.013523,0.002678,0.000431,0.001880
58342000,0.0324,0.013523,0.002678,0.000431,0.001410
58343000,0.0324,0.013523,0.002678,0.000431,0.001880
58344000,0.0324,0.013523,0.002678,0.000431,0.001880
58345000,0.0324,0.013523,0.002678,0.000431,0.001645
58346000,0.0324,0.013523,0.002678,0.000431,0.001763
58347000,0.0324,0.013523,0.002678,0.000431,0.001763
58348000,0.0324,0.013523,0.002678,0.000431,0.003291
58349000,0.0324,0.013523,0.002678,0.000431,0.000940
58350000,0.0324,0.013523,0.002678,0.000431,0.000823
58351000,0.0324,0.013523,0.002678,0.000431,0.000940
58352000,0.0324,0.013523,0.002678,0.000431,0.000940
58353000,0.0324,0.013523,0.002678,0.000431,0.000705
58354000,0.0324,0.013523,0.002678,0.000431,0.000940
58355000,0.0324,0.013523,0.002678,0.000431,0.000940
58356000,0.0324,0.013523,0.002678,0.000431,0.000940
58357000,0.0324,0.013523,0.002678,0.000431,0.000705
58358000,0.0324,0.013523,0.002678,0.000431,0.000940
58359000,0.0324,0.013523,0.002678,0.000431,0.000940
58360000,0.0324,0.013523,0.002678,0.000431,0.000823
58361000,0.0324,0.013523,0.002678,0.000431,0.000823
58362000,0.0324,0.013523,0.002678,0.000431,0.000940
58363000,0.0324,0.013523,0.002678,0.000431,0.000940
58364000,0.0324,0.013523,0.002678,0.000431,0.000823
58365000,0.0324,0.013523,0.002678,0.000431,0.000823
58366000,0.0324,0.013523,0.002678,0.000431,0.000940
58367000,0.0324,0.013523,0.002678,0.000431,0.000823
58368000,0.0324,0.013523,0.002678,0.000431,0.000940
58369000,0.0324,0.013523,0.002678,0.000431,0.000823
58370000,0.0324,0.013523,0.002678,0.000431,0.000940
58371000,0.0324,0.013523,0.002678,0.000431,0.000823
58372000,0.0324,0.013523,0.002678,0.000431,0.000823
58373000,0.0324,0.013523,0.002678,0.000431,0.000940
58374000,0.0324,0.013523,0.002678,0.000431,0.000940
58375000,0.0324,0.013523,0.002678,0.000431,0.000940
58376000,0.0324,0.013523,0.002678,0.000431,0.002351
58377000,0.0324,0.013523,0.002678,0.000431,0.399243
58378000,0.0324,0.013523,0.002678,0.000431,0.644054
58379000,0.0324,0.013523,0.002678,0.000431,0.131632
58380000,0.0324,0.013523,0.002678,0.000431,0.133982
58381000,0.0324,0.013523,0.002678,0.000431,0.193804
58382000,0.0324,0.013523,0.002678,0.000431,0.614320
58383000,0.0324,0.013523,0.002678,0.000431,0.285241
58384000,0.0324,0.013523,0.002678,0.000431,0.241873
58385000,0.0324,0.013523,0.002678,0.000431,0.196860
58386000,0.0324,0.013523,0.002678,0.000431,0.141386
58387000,0.0324,0.013523,0.002678,0.000431,0.158310
58388000,0.0324,0.013523,0.002678,0.000431,0.134922
58389000,0.0324,0.013523,0.002678,0.000431,0.450133
58390000,0.0324,0.013523,0.002678,0.000431,0.065346
58391000,0.0324,0.013523,0.002678,0.000431,0.047834
58392000,0.0324,0.013523,0.002678,0.000431,0.044308
58393000,0.0324,0.013523,0.002678,0.000431,0.039489
58394000,0.0324,0.013523,0.002678,0.000431,0.027384
58395000,0.0324,0.013523,0.002678,0.000431,0.023506
58396000,0.0324,0.013523,0.002678,0.000431,0.022448
58397000,0.0324,0.013523,0.002678,0.000431,0.016571
58398000,0.0324,0.013523,0.002678,0.000431,0.017629
58399000,0.0324,0.013523,0.002678,0.000431,0.018099
58400000,0.0324,0.013523,0.002678,0.000431,0.016336
58401000,0.0324,0.013523,0.002678,0.000431,0.009050
58402000,0.0324,0.013523,0.002678,0.000431,0.011753
58403000,0.0324,0.013523,0.002678,0.000431,0.009050
58404000,0.0324,0.013523,0.002678,0.000431,0.006229
58405000,0.0324,0.013523,0.002678,0.000431,0.008109
58406000,0.0324,0.013523,0.002678,0.000431,0.007169
58407000,0.0324,0.013523,0.002678,0.000431,0.004466
58408000,0.0324,0.013523,0.002678,0.000431,0.004231
58409000,0.0324,0.013523,0.002678,0.000431,0.005994
58410000,0.0324,0.013523,0.002678,0.000431,0.003408
58411000,0.0324,0.013523,0.002678,0.000431,0.003291
58412000,0.0324,0.013523,0.002678,0.000431,0.003408
58413000,0.0324,0.013523,0.002678,0.000431,0.003291
58414000,0.0324,0.013523,0.002678,0.000431,0.005289
58415000,0.0324,0.013523,0.002678,0.000431,0.002703
58416000,0.0324,0.013523,0.002678,0.000431,0.003408
58417000,0.0324,0.013523,0.002678,0.000431,0.001763
58418000,0.0324,0.013523,0.002678,0.000431,0.001880
58419000,0.0324,0.013523,0.002678,0.000431,0.001645
58420000,0.0324,0.013523,0.002678,0.000431,0.000823
58421000,0.0324,0.013523,0.002678,0.000431,0.000940
58422000,0.0324,0.013523,0.002678,0.000431,0.000823
58423000,0.0324,0.013523,0.002678,0.000431,0.000823
58424000,0.0324,0.013523,0.002678,0.000431,0.011400
58425000,0.0324,0.013523,0.002678,0.000431,0.468937
58426000,0.0324,0.013523,0.002678,0.000431,0.616200
58427000,0.0324,0.013523,0.002678,0.000431,0.132102
58428000,0.0324,0.013523,0.002678,0.000431,0.133042
58429000,0.0324,0.013523,0.002678,0.000431,0.239640
58430000,0.0324,0.013523,0.002678,0.000431,0.576711
58431000,0.0324,0.013523,0.002678,0.000431,0.236232
58432000,0.0324,0.013523,0.002678,0.000431,0.276191
58433000,0.0324,0.013523,0.002678,0.000431,0.192394
58434000,0.0324,0.013523,0.002678,0.000431,0.139741
58435000,0.0324,0.013523,0.002678,0.000431,0.160073
58436000,0.0324,0.013523,0.002678,0.000431,0.155372
58437000,0.0324,0.013523,0.002678,0.000431,0.440143
58438000,0.0324,0.013523,0.002678,0.000431,0.084738
58439000,0.0324,0.013523,0.002678,0.000431,0.063230
58440000,0.0324,0.013523,0.002678,0.000431,0.046424
58441000,0.0324,0.013523,0.002678,0.000431,0.031145
58442000,0.0324,0.013523,0.002678,0.000431,0.028442
58443000,0.0324,0.013523,0.002678,0.000431,0.030910
58444000,0.0324,0.013523,0.002678,0.000431,0.022330
58445000,0.0324,0.013523,0.002678,0.000431,0.017629
58446000,0.0324,0.013523,0.002678,0.000431,0.015984
58447000,0.0324,0.013523,0.002678,0.000431,0.012458
58448000,0.0324,0.013523,0.002678,0.000431,0.011283
58449000,0.0324,0.013523,0.002678,0.000431,0.010342
58450000,0.0324,0.013523,0.002678,0.000431,0.011048
58451000,0.0324,0.013523,0.002678,0.000431,0.010578
58452000,0.0324,0.013523,0.002678,0.000431,0.010578
58453000,0.0324,0.013523,0.002678,0.000431,0.010930
58454000,0.0324,0.013523,0.002678,0.000431,0.010107
58455000,0.0324,0.013523,0.002678,0.000431,0.011753
58456000,0.0324,0.013523,0.002678,0.000431,0.010695
58457000,0.0324,0.013523,0.002678,0.000431,0.009285
58458000,0.0324,0.013523,0.002678,0.000431,0.008815
58459000,0.0324,0.013523,0.002678,0.000431,0.008932
58460000,0.0324,0.013523,0.002678,0.000431,0.010578
58461000,0.0324,0.013523,0.002678,0.000431,0.007992
58462000,0.0324,0.013523,0.002678,0.000431,0.008462
58463000,0.0324,0.013523,0.002678,0.000431,0.010813
58464000,0.0324,0.013523,0.002678,0.000431,0.005876
58465000,0.0324,0.013523,0.002678,0.000431,0.005994
58466000,0.0324,0.013523,0.002678,0.000431,0.006229
58467000,0.0324,0.013523,0.002678,0.000431,0.005876
58468000,0.0324,0.013523,0.002678,0.000431,0.005876
58469000,0.0324,0.013523,0.002678,0.000431,0.005759
58470000,0.0324,0.013523,0.002678,0.000431,0.007169
58471000,0.0324,0.013523,0.002678,0.000431,0.005171
58472000,0.0324,0.013523,0.002678,0.000431,0.005289
58473000,0.0324,0.013523,0.002678,0.000431,0.005054
58474000,0.0324,0.013523,0.002678,0.000431,0.007052
58475000,0.0324,0.013523,0.002678,0.000431,0.004231
58476000,0.0324,0.013523,0.002678,0.000431,0.004466
58477000,0.0324,0.013523,0.002678,0.000431,0.004113
58478000,0.0324,0.013523,0.002678,0.000431,0.004231
58479000,0.0324,0.013523,0.002678,0.000431,0.004701
58480000,0.0324,0.013523,0.002678,0.000431,0.004113
58481000,0.0324,0.013523,0.002678,0.000431,0.004349
58482000,0.0324,0.013523,0.002678,0.000431,0.004113
58483000,0.0324,0.013523,0.002678,0.000431,0.004466
58484000,0.0324,0.013523,0.002678,0.000431,0.004466
58485000,0.0324,0.013523,0.002678,0.000431,0.003996
58486000,0.0324,0.013523,0.002678,0.000431,0.004584
58487000,0.0324,0.013523,0.002678,0.000431,0.003996
58488000,0.0324,0.013523,0.002678,0.000431,0.006111
58489000,0.0324,0.013523,0.002678,0.000431,0.003643
58490000,0.0324,0.013523,0.002678,0.000431,0.003291
58491000,0.0324,0.013523,0.002678,0.000431,0.003526
58492000,0.0324,0.013523,0.002678,0.000431,0.003173
58493000,0.0324,0.013523,0.002678,0.000431,0.003761
58494000,0.0324,0.013523,0.002678,0.000431,0.003291
58495000,0.0324,0.013523,0.002678,0.000431,0.003291
58496000,0.0324,0.013523,0.002678,0.000431,0.003643
58497000,0.0324,0.013523,0.002678,0.000431,0.003291
58498000,0.0324,0.013523,0.002678,0.000431,0.003643
58499000,0.0324,0.013523,0.002678,0.000431,0.003408
58500000,0.0324,0.013523,0.002678,0.000431,0.003408
58501000,0.0324,0.013523,0.002678,0.000431,0.003526
58502000,0.0324,0.013523,0.002678,0.000431,0.003526
58503000,0.0324,0.013523,0.002678,0.000431,0.003526
58504000,0.0324,0.013523,0.002678,0.000431,0.003291
58505000,0.0324,0.013523,0.002678,0.000431,0.003526
58506000,0.0324,0.013523,0.002678,0.000431,0.003526
58507000,0.0324,0.013523,0.002678,0.000431,0.003526
58508000,0.0324,0.013523,0.002678,0.000431,0.003291
58509000,0.0324,0.013523,0.002678,0.000431,0.003526
58510000,0.0324,0.013523,0.002678,0.000431,0.003526
58511000,0.0324,0.013523,0.002678,0.000431,0.003526
58512000,0.0324,0.013523,0.002678,0.000431,0.003526
58513000,0.0324,0.013523,0.002678,0.000431,0.003643
58514000,0.0324,0.013523,0.002678,0.000431,0.003291
58515000,0.0324,0.013523,0.002678,0.000431,0.003526
58516000,0.0324,0.013523,0.002678,0.000431,0.003408
58517000,0.0324,0.013523,0.002678,0.000431,0.004936
58518000,0.0324,0.013523,0.002678,0.000431,0.004113
58519000,0.0324,0.013523,0.002678,0.000431,0.001645
58520000,0.0324,0.013523,0.002678,0.000431,0.001763
58521000,0.0324,0.013523,0.002678,0.000431,0.001763
58522000,0.0324,0.013523,0.002678,0.000431,0.002703
58523000,0.0324,0.013523,0.002678,0.000431,0.002116
58524000,0.0324,0.013523,0.002678,0.000431,0.000940
58525000,0.0324,0.013523,0.002678,0.000431,0.000940
58526000,0.0324,0.013523,0.002678,0.000431,0.000705
58527000,0.0324,0.013523,0.002678,0.000431,0.000940
58528000,0.0324,0.013523,0.002678,0.000431,0.000940
58529000,0.0324,0.013523,0.002678,0.000431,0.000823
58530000,0.0324,0.013523,0.002678,0.000431,0.000940
58531000,0.0324,0.013523,0.002678,0.000431,0.000823
58532000,0.0324,0.013523,0.002678,0.000431,0.000940
58533000,0.0324,0.013523,0.002678,0.000431,0.000823
58534000,0.0324,0.013523,0.002678,0.000431,0.000823
58535000,0.0324,0.013523,0.002678,0.000431,0.000940
58536000,0.0324,0.013523,0.002678,0.000431,0.000823
58537000,0.0324,0.013523,0.002678,0.000431,0.000940
58538000,0.0324,0.013523,0.002678,0.000431,0.000823
58539000,0.0324,0.013523,0.002678,0.000431,0.000940
58540000,0.0324,0.013523,0.002678,0.000431,0.000940
58541000,0.0324,0.013523,0.002678,0.000431,0.000705
58542000,0.0324,0.013523,0.002678,0.000431,0.000940
58543000,0.0324,0.013523,0.002678,0.000431,0.000940
58544000,0.0324,0.013523,0.002678,0.000431,0.000940
58545000,0.0324,0.013523,0.002678,0.000431,0.000705
58546000,0.0324,0.013523,0.002678,0.000431,0.000940
58547000,0.0324,0.013523,0.002678,0.000431,0.000940
58548000,0.0324,0.013523,0.002678,0.000431,0.000823
58549000,0.0324,0.013523,0.002678,0.000431,0.000823
58550000,0.0324,0.013523,0.002678,0.000431,0.000940
58551000,0.0324,0.013523,0.002678,0.000431,0.000940
58552000,0.0324,0.013523,0.002678,0.000431,0.000823
58553000,0.0324,0.013523,0.002678,0.000431,0.000823
58554000,0.0324,0.013523,0.002678,0.000431,0.000940
58555000,0.0324,0.013523,0.002678,0.000431,0.000823
58556000,0.0324,0.013523,0.002678,0.000431,0.000940
58557000,0.0324,0.013523,0.002678,0.000431,0.000823
58558000,0.0324,0.013523,0.002678,0.000431,0.000940
58559000,0.0324,0.013523,0.002678,0.000431,0.001880
58560000,0.0324,0.013523,0.002678,0.000431,0.277837
58561000,0.0324,0.013523,0.002678,0.000431,0.649696
58562000,0.0324,0.013523,0.002678,0.000431,0.282890
58563000,0.0324,0.013523,0.002678,0.000431,0.133042
58564000,0.0324,0.013523,0.002678,0.000431,0.132572
58565000,0.0324,0.013523,0.002678,0.000431,0.597748
58566000,0.0324,0.013523,0.002678,0.000431,0.236232
58567000,0.0324,0.013523,0.002678,0.000431,0.289354
58568000,0.0324,0.013523,0.002678,0.000431,0.255859
58569000,0.0324,0.013523,0.002678,0.000431,0.143972
58570000,0.0324,0.013523,0.002678,0.000431,0.176762
58571000,0.0324,0.013523,0.002678,0.000431,0.091202
58572000,0.0324,0.013523,0.002678,0.000431,0.486919
58573000,0.0324,0.013523,0.002678,0.000431,0.121524
58574000,0.0324,0.013523,0.002678,0.000431,0.075453
58575000,0.0324,0.013523,0.002678,0.000431,0.057001
58576000,0.0324,0.013523,0.002678,0.000431,0.051360
58577000,0.0324,0.013523,0.002678,0.000431,0.037491
58578000,0.0324,0.013523,0.002678,0.000431,0.029970
58579000,0.0324,0.013523,0.002678,0.000431,0.031262
58580000,0.0324,0.013523,0.002678,0.000431,0.021038
58581000,0.0324,0.013523,0.002678,0.000431,0.022565
58582000,0.0324,0.013523,0.002678,0.000431,0.017394
58583000,0.0324,0.013523,0.002678,0.000431,0.017277
58584000,0.0324,0.013523,0.002678,0.000431,0.017864
58585000,0.0324,0.013523,0.002678,0.000431,0.012458
58586000,0.0324,0.013523,0.002678,0.000431,0.013986
58587000,0.0324,0.013523,0.002678,0.000431,0.014221
58588000,0.0324,0.013523,0.002678,0.000431,0.014221
58589000,0.0324,0.013523,0.002678,0.000431,0.011870
58590000,0.0324,0.013523,0.002678,0.000431,0.012223
58591000,0.0324,0.013523,0.002678,0.000431,0.011518
58592000,0.0324,0.013523,0.002678,0.000431,0.013281
58593000,0.0324,0.013523,0.002678,0.000431,0.010225
58594000,0.0324,0.013523,0.002678,0.000431,0.011165
58595000,0.0324,0.013523,0.002678,0.000431,0.010460
58596000,0.0324,0.013523,0.002678,0.000431,0.011283
58597000,0.0324,0.013523,0.002678,0.000431,0.009990
58598000,0.0324,0.013523,0.002678,0.000431,0.009402
58599000,0.0324,0.013523,0.002678,0.000431,0.009755
58600000,0.0324,0.013523,0.002678,0.000431,0.009990
58601000,0.0324,0.013523,0.002678,0.000431,0.009050
58602000,0.0324,0.013523,0.002678,0.000431,0.010225
58603000,0.0324,0.013523,0.002678,0.000431,0.008932
58604000,0.0324,0.013523,0.002678,0.000431,0.009402
58605000,0.0324,0.013523,0.002678,0.000431,0.011870
58606000,0.0324,0.013523,0.002678,0.000431,0.008815
58607000,0.0324,0.013523,0.002678,0.000431,0.007287
58608000,0.0324,0.013523,0.002678,0.000431,0.005289
58609000,0.0324,0.013523,0.002678,0.000431,0.006229
58610000,0.0324,0.013523,0.002678,0.000431,0.005289
58611000,0.0324,0.013523,0.002678,0.000431,0.005289
58612000,0.0324,0.013523,0.002678,0.000431,0.004936
58613000,0.0324,0.013523,0.002678,0.000431,0.005289
58614000,0.0324,0.013523,0.002678,0.000431,0.006582
58615000,0.0324,0.013523,0.002678,0.000431,0.007169
58616000,0.0324,0.013523,0.002678,0.000431,0.003526
58617000,0.0324,0.013523,0.002678,0.000431,0.003408
58618000,0.0324,0.013523,0.002678,0.000431,0.003526
58619000,0.0324,0.013523,0.002678,0.000431,0.003173
58620000,0.0324,0.013523,0.002678,0.000431,0.003643
58621000,0.0324,0.013523,0.002678,0.000431,0.003761
58622000,0.0324,0.013523,0.002678,0.000431,0.003291
58623000,0.0324,0.013523,0.002678,0.000431,0.005406
58624000,0.0324,0.013523,0.002678,0.000431,0.002468
58625000,0.0324,0.013523,0.002678,0.000431,0.002703
58626000,0.0324,0.013523,0.002678,0.000431,0.002586
58627000,0.0324,0.013523,0.002678,0.000431,0.002703
58628000,0.0324,0.013523,0.002678,0.000431,0.003761
58629000,0.0324,0.013523,0.002678,0.000431,0.001763
58630000,0.0324,0.013523,0.002678,0.000431,0.001880
58631000,0.0324,0.013523,0.002678,0.000431,0.001763
58632000,0.0324,0.013523,0.002678,0.000431,0.003761
58633000,0.0324,0.013523,0.002678,0.000431,0.001058
58634000,0.0324,0.013523,0.002678,0.000431,0.000940
58635000,0.0324,0.013523,0.002678,0.000431,0.000940
58636000,0.0324,0.013523,0.002678,0.000431,0.014221
58637000,0.0324,0.013523,0.002678,0.000431,0.554263
58638000,0.0324,0.013523,0.002678,0.000431,0.593165
58639000,0.0324,0.013523,0.002678,0.000431,0.132807
58640000,0.0324,0.013523,0.002678,0.000431,0.133512
58641000,0.0324,0.013523,0.002678,0.000431,0.465764
58642000,0.0324,0.013523,0.002678,0.000431,0.299227
58643000,0.0324,0.013523,0.002678,0.000431,0.275839
58644000,0.0324,0.013523,0.002678,0.000431,0.318266
58645000,0.0324,0.013523,0.002678,0.000431,0.141974
58646000,0.0324,0.013523,0.002678,0.000431,0.151729
58647000,0.0324,0.013523,0.002678,0.000431,0.117998
58648000,0.0324,0.013523,0.002678,0.000431,0.299227
58649000,0.0324,0.013523,0.002678,0.000431,0.277837
58650000,0.0324,0.013523,0.002678,0.000431,0.039725
58651000,0.0324,0.013523,0.002678,0.000431,0.029852
58652000,0.0324,0.013523,0.002678,0.000431,0.027384
58653000,0.0324,0.013523,0.002678,0.000431,0.025386
58654000,0.0324,0.013523,0.002678,0.000431,0.023153
58655000,0.0324,0.013523,0.002678,0.000431,0.015396
58656000,0.0324,0.013523,0.002678,0.000431,0.016807
58657000,0.0324,0.013523,0.002678,0.000431,0.017042
58658000,0.0324,0.013523,0.002678,0.000431,0.016689
58659000,0.0324,0.013523,0.002678,0.000431,0.013046
58660000,0.0324,0.013523,0.002678,0.000431,0.012928
58661000,0.0324,0.013523,0.002678,0.000431,0.011870
58662000,0.0324,0.013523,0.002678,0.000431,0.015044
58663000,0.0324,0.013523,0.002678,0.000431,0.010342
58664000,0.0324,0.013523,0.002678,0.000431,0.010813
58665000,0.0324,0.013523,0.002678,0.000431,0.010578
58666000,0.0324,0.013523,0.002678,0.000431,0.008815
58667000,0.0324,0.013523,0.002678,0.000431,0.008462
58668000,0.0324,0.013523,0.002678,0.000431,0.010225
58669000,0.0324,0.013523,0.002678,0.000431,0.006347
58670000,0.0324,0.013523,0.002678,0.000431,0.005524
58671000,0.0324,0.013523,0.002678,0.000431,0.006229
58672000,0.0324,0.013523,0.002678,0.000431,0.005994
58673000,0.0324,0.013523,0.002678,0.000431,0.005876
58674000,0.0324,0.013523,0.002678,0.000431,0.006229
58675000,0.0324,0.013523,0.002678,0.000431,0.005524
58676000,0.0324,0.013523,0.002678,0.000431,0.006347
58677000,0.0324,0.013523,0.002678,0.000431,0.005994
58678000,0.0324,0.013523,0.002678,0.000431,0.005994
58679000,0.0324,0.013523,0.002678,0.000431,0.007169
58680000,0.0324,0.013523,0.002678,0.000431,0.005054
58681000,0.0324,0.013523,0.002678,0.000431,0.005171
58682000,0.0324,0.013523,0.002678,0.000431,0.006464
58683000,0.0324,0.013523,0.002678,0.000431,0.005406
58684000,0.0324,0.013523,0.002678,0.000431,0.004466
58685000,0.0324,0.013523,0.002678,0.000431,0.006582
58686000,0.0324,0.013523,0.002678,0.000431,0.003996
58687000,0.0324,0.013523,0.002678,0.000431,0.002586
58688000,0.0324,0.013523,0.002678,0.000431,0.002821
58689000,0.0324,0.013523,0.002678,0.000431,0.002468
58690000,0.0324,0.013523,0.002678,0.000431,0.002703
58691000,0.0324,0.013523,0.002678,0.000431,0.002468
58692000,0.0324,0.013523,0.002678,0.000431,0.002703
58693000,0.0324,0.013523,0.002678,0.000431,0.003878
58694000,0.0324,0.013523,0.002678,0.000431,0.001880
58695000,0.0324,0.013523,0.002678,0.000431,0.001763
58696000,0.0324,0.013523,0.002678,0.000431,0.001763
58697000,0.0324,0.013523,0.002678,0.000431,0.001645
58698000,0.0324,0.013523,0.002678,0.000431,0.003291
58699000,0.0324,0.013523,0.002678,0.000431,0.001058
58700000,0.0324,0.013523,0.002678,0.000431,0.000823
58701000,0.0324,0.013523,0.002678,0.000431,0.000823
58702000,0.0324,0.013523,0.002678,0.000431,0.000823
58703000,0.0324,0.013523,0.002678,0.000431,0.000823
58704000,0.0324,0.013523,0.002678,0.000431,0.000823
58705000,0.0324,0.013523,0.002678,0.000431,0.000823
58706000,0.0324,0.013523,0.002678,0.000431,0.000940
58707000,0.0324,0.013523,0.002678,0.000431,0.000705
58708000,0.0324,0.013523,0.002678,0.000431,0.000940
58709000,0.0324,0.013523,0.002678,0.000431,0.000705
58710000,0.0324,0.013523,0.002678,0.000431,0.000940
58711000,0.0324,0.013523,0.002678,0.000431,0.000940
58712000,0.0324,0.013523,0.002678,0.000431,0.000705
58713000,0.0324,0.013523,0.002678,0.000431,0.000940
58714000,0.0324,0.013523,0.002678,0.000431,0.000705
58715000,0.0324,0.013523,0.002678,0.000431,0.000940
58716000,0.0324,0.013523,0.002678,0.000431,0.000823
58717000,0.0324,0.013523,0.002678,0.000431,0.000823
58718000,0.0324,0.013523,0.002678,0.000431,0.000823
58719000,0.0324,0.013523,0.002678,0.000431,0.000823
58720000,0.0324,0.013523,0.002678,0.000431,0.000940
58721000,0.0324,0.013523,0.002678,0.000431,0.000705
58722000,0.0324,0.013523,0.002678,0.000431,0.000940
58723000,0.0324,0.013523,0.002678,0.000431,0.000705
58724000,0.0324,0.013523,0.002678,0.000431,0.000823
58725000,0.0324,0.013523,0.002678,0.000431,0.000940
58726000,0.0324,0.013523,0.002678,0.000431,0.000823
58727000,0.0324,0.013523,0.002678,0.000431,0.000823
58728000,0.0324,0.013523,0.002678,0.000431,0.000823
58729000,0.0324,0.013523,0.002678,0.000431,0.000705
58730000,0.0324,0.013523,0.002678,0.000431,0.000940
58731000,0.0324,0.013523,0.002678,0.000431,0.000940
58732000,0.0324,0.013523,0.002678,0.000431,0.000705
58733000,0.0324,0.013523,0.002678,0.000431,0.000940
58734000,0.0324,0.013523,0.002678,0.000431,0.000705
58735000,0.0324,0.013523,0.002678,0.000431,0.000940
58736000,0.0324,0.013523,0.002678,0.000431,0.000940
58737000,0.0324,0.013523,0.002678,0.000431,0.000705
58738000,0.0324,0.013523,0.002678,0.000431,0.000940
58739000,0.0324,0.013523,0.002678,0.000431,0.000705
58740000,0.0324,0.013523,0.002678,0.000431,0.000940
58741000,0.0324,0.013523,0.002678,0.000431,0.000823
58742000,0.0324,0.013523,0.002678,0.000431,0.000823
58743000,0.0324,0.013523,0.002678,0.000431,0.000823
58744000,0.0324,0.013523,0.002678,0.000431,0.000823
58745000,0.0324,0.013523,0.002678,0.000431,0.000940
58746000,0.0324,0.013523,0.002678,0.000431,0.000823
58747000,0.0324,0.013523,0.002678,0.000431,0.000823
58748000,0.0324,0.013523,0.002678,0.000431,0.000823
58749000,0.0324,0.013523,0.002678,0.000431,0.000823
58750000,0.0324,0.013523,0.002678,0.000431,0.000823
58751000,0.0324,0.013523,0.002678,0.000431,0.000823
58752000,0.0324,0.013523,0.002678,0.000431,0.000940
58753000,0.0324,0.013523,0.002678,0.000431,0.000705
58754000,0.0324,0.013523,0.002678,0.000431,0.000940
58755000,0.0324,0.013523,0.002678,0.000431,0.000823
58756000,0.0324,0.013523,0.002678,0.000431,0.000823
58757000,0.0324,0.013523,0.002678,0.000431,0.000705
58758000,0.0324,0.013523,0.002678,0.000431,0.000940
58759000,0.0324,0.013523,0.002678,0.000431,0.000940
58760000,0.0324,0.013523,0.002678,0.000431,0.000705
58761000,0.0324,0.013523,0.002678,0.000431,0.000940
58762000,0.0324,0.013523,0.002678,0.000431,0.000705
58763000,0.0324,0.013523,0.002678,0.000431,0.000940
58764000,0.0324,0.013523,0.002678,0.000431,0.000823
58765000,0.0324,0.013523,0.002678,0.000431,0.000823
58766000,0.0324,0.013523,0.002678,0.000431,0.000940
58767000,0.0324,0.013523,0.002678,0.000431,0.000705
58768000,0.0324,0.013523,0.002678,0.000431,0.000940
58769000,0.0324,0.013523,0.002678,0.000431,0.000823
58770000,0.0324,0.013523,0.002678,0.000431,0.000823
58771000,0.0324,0.013523,0.002678,0.000431,0.000823
58772000,0.0324,0.013523,0.002678,0.000431,0.000823
58773000,0.0324,0.013523,0.002678,0.000431,0.000823
58774000,0.0324,0.013523,0.002678,0.000431,0.000823
58775000,0.0324,0.013523,0.002678,0.000431,0.000940
58776000,0.0324,0.013523,0.002678,0.000431,0.000705
58777000,0.0324,0.013523,0.002678,0.000431,0.000823
58778000,0.0324,0.013523,0.002678,0.000431,0.000940
58779000,0.0324,0.013523,0.002678,0.000431,0.000823
58780000,0.0324,0.013523,0.002678,0.000431,0.000823
58781000,0.0324,0.013523,0.002678,0.000431,0.000823
58782000,0.0324,0.013523,0.002678,0.000431,0.000705
58783000,0.0324,0.013523,0.002678,0.000431,0.000940
58784000,0.0324,0.013523,0.002678,0.000431,0.000940
58785000,0.0324,0.013523,0.002678,0.000431,0.000705
58786000,0.0324,0.013523,0.002678,0.000431,0.000940
58787000,0.0324,0.013523,0.002678,0.000431,0.000705
58788000,0.0324,0.013523,0.002678,0.000431,0.000940
58789000,0.0324,0.013523,0.002678,0.000431,0.000940
58790000,0.0324,0.013523,0.002678,0.000431,0.000705
58791000,0.0324,0.013523,0.002678,0.000431,0.000940
58792000,0.0324,0.013523,0.002678,0.000431,0.000705
58793000,0.0324,0.013523,0.002678,0.000431,0.000940
58794000,0.0324,0.013523,0.002678,0.000431,0.000823
58795000,0.0324,0.013523,0.002678,0.000431,0.000823
58796000,0.0324,0.013523,0.002678,0.000431,0.000823
58797000,0.0324,0.013523,0.002678,0.000431,0.000823
58798000,0.0324,0.013523,0.002678,0.000431,0.000940
58799000,0.0324,0.013523,0.002678,0.000431,0.000705
58800000,0.0324,0.013523,0.002678,0.000431,0.000940
58801000,0.0324,0.013523,0.002678,0.000431,0.000823
58802000,0.0324,0.013523,0.002678,0.000431,0.000823
58803000,0.0324,0.013523,0.002678,0.000431,0.000823
58804000,0.0324,0.013523,0.002678,0.000431,0.000823
58805000,0.0324,0.013523,0.002678,0.000431,0.000823
58806000,0.0324,0.013523,0.002678,0.000431,0.000823
58807000,0.0324,0.013523,0.002678,0.000431,0.000940
58808000,0.0324,0.013523,0.002678,0.000431,0.000705
58809000,0.0324,0.013523,0.002678,0.000431,0.000940
58810000,0.0324,0.013523,0.002678,0.000431,0.000705
58811000,0.0324,0.013523,0.002678,0.000431,0.000940
58812000,0.0324,0.013523,0.002678,0.000431,0.000940
58813000,0.0324,0.013523,0.002678,0.000431,0.000705
58814000,0.0324,0.013523,0.002678,0.000431,0.000940
58815000,0.0324,0.013523,0.002678,0.000431,0.000705
58816000,0.0324,0.013523,0.002678,0.000431,0.000940
58817000,0.0324,0.013523,0.002678,0.000431,0.000823
58818000,0.0324,0.013523,0.002678,0.000431,0.000823
58819000,0.0324,0.013523,0.002678,0.000431,0.000823
58820000,0.0324,0.013523,0.002678,0.000431,0.000823
58821000,0.0324,0.013523,0.002678,0.000431,0.000940
58822000,0.0324,0.013523,0.002678,0.000431,0.000705
58823000,0.0324,0.013523,0.002678,0.000431,0.000940
58824000,0.0324,0.013523,0.002678,0.000431,0.000823
58825000,0.0324,0.013523,0.002678,0.000431,0.000823
58826000,0.0324,0.013523,0.002678,0.000431,0.000823
58827000,0.0324,0.013523,0.002678,0.000431,0.000823
58828000,0.0324,0.013523,0.002678,0.000431,0.000823
58829000,0.0324,0.013523,0.002678,0.000431,0.000823
58830000,0.0324,0.013523,0.002678,0.000431,0.000823
58831000,0.0324,0.013523,0.002678,0.000431,0.000823
58832000,0.0324,0.013523,0.002678,0.000431,0.000940
58833000,0.0324,0.013523,0.002678,0.000431,0.000705
58834000,0.0324,0.013523,0.002678,0.000431,0.000940
58835000,0.0324,0.013523,0.002678,0.000431,0.000705
58836000,0.0324,0.013523,0.002678,0.000431,0.000940
58837000,0.0324,0.013523,0.002678,0.000431,0.000940
58838000,0.0324,0.013523,0.002678,0.000431,0.000705
58839000,0.0324,0.013523,0.002678,0.000431,0.000940
58840000,0.0324,0.013523,0.002678,0.000431,0.000705
58841000,0.0324,0.013523,0.002678,0.000431,0.000940
58842000,0.0324,0.013523,0.002678,0.000431,0.000823
58843000,0.0324,0.013523,0.002678,0.000431,0.000823
58844000,0.0324,0.013523,0.002678,0.000431,0.000823
58845000,0.0324,0.013523,0.002678,0.000431,0.000823
58846000,0.0324,0.013523,0.002678,0.000431,0.000940
58847000,0.0324,0.013523,0.002678,0.000431,0.000823
58848000,0.0324,0.013523,0.002678,0.000431,0.000823
58849000,0.0324,0.013523,0.002678,0.000431,0.000823
58850000,0.0324,0.013523,0.002678,0.000431,0.000823
58851000,0.0324,0.013523,0.002678,0.000431,0.000823
58852000,0.0324,0.013523,0.002678,0.000431,0.000823
58853000,0.0324,0.013523,0.002678,0.000431,0.000940
58854000,0.0324,0.013523,0.002678,0.000431,0.000705
58855000,0.0324,0.013523,0.002678,0.000431,0.000940
58856000,0.0324,0.013523,0.002678,0.000431,0.000823
58857000,0.0324,0.013523,0.002678,0.000431,0.000823
58858000,0.0324,0.013523,0.002678,0.000431,0.000705
58859000,0.0324,0.013523,0.002678,0.000431,0.000940
58860000,0.0324,0.013523,0.002678,0.000431,0.000940
58861000,0.0324,0.013523,0.002678,0.000431,0.000705
58862000,0.0324,0.013523,0.002678,0.000431,0.000940
58863000,0.0324,0.013523,0.002678,0.000431,0.000705
58864000,0.0324,0.013523,0.002678,0.000431,0.000940
58865000,0.0324,0.013523,0.002678,0.000431,0.000823
58866000,0.0324,0.013523,0.002678,0.000431,0.000823
58867000,0.0324,0.013523,0.002678,0.000431,0.000940
58868000,0.0324,0.013523,0.002678,0.000431,0.000705
58869000,0.0324,0.013523,0.002678,0.000431,0.000940
58870000,0.0324,0.013523,0.002678,0.000431,0.000823
58871000,0.0324,0.013523,0.002678,0.000431,0.000823
58872000,0.0324,0.013523,0.002678,0.000431,0.000823
58873000,0.0324,0.013523,0.002678,0.000431,0.000823
58874000,0.0324,0.013523,0.002678,0.000431,0.000823
58875000,0.0324,0.013523,0.002678,0.000431,0.000823
58876000,0.0324,0.013523,0.002678,0.000431,0.000940
58877000,0.0324,0.013523,0.002678,0.000431,0.000705
58878000,0.0324,0.013523,0.002678,0.000431,0.000823
58879000,0.0324,0.013523,0.002678,0.000431,0.000940
58880000,0.0324,0.013523,0.002678,0.000431,0.000823
58881000,0.0324,0.013523,0.002678,0.000431,0.000823
58882000,0.0324,0.013523,0.002678,0.000431,0.000823
58883000,0.0324,0.013523,0.002678,0.000431,0.000705
58884000,0.0324,0.013523,0.002678,0.000431,0.000940
58885000,0.0324,0.013523,0.002678,0.000431,0.000940
58886000,0.0324,0.013523,0.002678,0.000431,0.000705
58887000,0.0324,0.013523,0.002678,0.000431,0.000940
58888000,0.0324,0.013523,0.002678,0.000431,0.000705
58889000,0.0324,0.013523,0.002678,0.000431,0.000940
58890000,0.0324,0.013523,0.002678,0.000431,0.000940
58891000,0.0324,0.013523,0.002678,0.000431,0.000705
58892000,0.0324,0.013523,0.002678,0.000431,0.000940
58893000,0.0324,0.013523,0.002678,0.000431,0.000705
58894000,0.0324,0.013523,0.002678,0.000431,0.000940
58895000,0.0324,0.013523,0.002678,0.000431,0.000823
58896000,0.0324,0.013523,0.002678,0.000431,0.000823
58897000,0.0324,0.013523,0.002678,0.000431,0.000940
58898000,0.0324,0.013523,0.002678,0.000431,0.000705
58899000,0.0324,0.013523,0.002678,0.000431,0.000940
58900000,0.0324,0.013523,0.002678,0.000431,0.000823
58901000,0.0324,0.013523,0.002678,0.000431,0.000823
58902000,0.0324,0.013523,0.002678,0.000431,0.000823
58903000,0.0324,0.013523,0.002678,0.000431,0.000823
58904000,0.0324,0.013523,0.002678,0.000431,0.000823
58905000,0.0324,0.013523,0.002678,0.000431,0.000823
58906000,0.0324,0.013523,0.002678,0.000431,0.000940
58907000,0.0324,0.013523,0.002678,0.000431,0.000705
58908000,0.0324,0.013523,0.002678,0.000431,0.000940
58909000,0.0324,0.013523,0.002678,0.000431,0.000823
58910000,0.0324,0.013523,0.002678,0.000431,0.000823
58911000,0.0324,0.013523,0.002678,0.000431,0.000705
58912000,0.0324,0.013523,0.002678,0.000431,0.000940
58913000,0.0324,0.013523,0.002678,0.000431,0.000940
58914000,0.0324,0.013523,0.002678,0.000431,0.000705
58915000,0.0324,0.013523,0.002678,0.000431,0.000940
58916000,0.0324,0.013523,0.002678,0.000431,0.000705
58917000,0.0324,0.013523,0.002678,0.000431,0.000940
58918000,0.0324,0.013523,0.002678,0.000431,0.000823
58919000,0.0324,0.013523,0.002678,0.000431,0.000823
58920000,0.0324,0.013523,0.002678,0.000431,0.000940
58921000,0.0324,0.013523,0.002678,0.000431,0.000705
58922000,0.0324,0.013523,0.002678,0.000431,0.000940
58923000,0.0324,0.013523,0.002678,0.000431,0.000823
58924000,0.0324,0.013523,0.002678,0.000431,0.000823
58925000,0.0324,0.013523,0.002678,0.000431,0.000823
58926000,0.0324,0.013523,0.002678,0.000431,0.000823
58927000,0.0324,0.013523,0.002678,0.000431,0.000940
58928000,0.0324,0.013523,0.002678,0.000431,0.000705
58929000,0.0324,0.013523,0.002678,0.000431,0.000940
58930000,0.0324,0.013523,0.002678,0.000431,0.000823
58931000,0.0324,0.013523,0.002678,0.000431,0.000823
58932000,0.0324,0.013523,0.002678,0.000431,0.000823
58933000,0.0324,0.013523,0.002678,0.000431,0.000823
58934000,0.0324,0.013523,0.002678,0.000431,0.000940
58935000,0.0324,0.013523,0.002678,0.000431,0.000705
58936000,0.0324,0.013523,0.002678,0.000431,0.000823
58937000,0.0324,0.013523,0.002678,0.000431,0.000940
58938000,0.0324,0.013523,0.002678,0.000431,0.000823
58939000,0.0324,0.013523,0.002678,0.000431,0.000823
58940000,0.0324,0.013523,0.002678,0.000431,0.000823
58941000,0.0324,0.013523,0.002678,0.000431,0.000823
58942000,0.0324,0.013523,0.002678,0.000431,0.000823
58943000,0.0324,0.013523,0.002678,0.000431,0.000940
58944000,0.0324,0.013523,0.002678,0.000431,0.000823
58945000,0.0324,0.013523,0.002678,0.000431,0.000823
58946000,0.0324,0.013523,0.002678,0.000431,0.000705
58947000,0.0324,0.013523,0.002678,0.000431,0.000940
58948000,0.0324,0.013523,0.002678,0.000431,0.000940
58949000,0.0324,0.013523,0.002678,0.000431,0.000705
58950000,0.0324,0.013523,0.002678,0.000431,0.000940
58951000,0.0324,0.013523,0.002678,0.000431,0.000705
58952000,0.0324,0.013523,0.002678,0.000431,0.000940
58953000,0.0324,0.013523,0.002678,0.000431,0.000823
58954000,0.0324,0.013523,0.002678,0.000431,0.000823
58955000,0.0324,0.013523,0.002678,0.000431,0.000940
58956000,0.0324,0.013523,0.002678,0.000431,0.000705
58957000,0.0324,0.013523,0.002678,0.000431,0.000940
58958000,0.0324,0.013523,0.002678,0.000431,0.000823
58959000,0.0324,0.013523,0.002678,0.000431,0.000823
58960000,0.0324,0.013523,0.002678,0.000431,0.000823
58961000,0.0324,0.013523,0.002678,0.000431,0.000823
58962000,0.0324,0.013523,0.002678,0.000431,0.000940
58963000,0.0324,0.013523,0.002678,0.000431,0.000705
58964000,0.0324,0.013523,0.002678,0.000431,0.000940
58965000,0.0324,0.013523,0.002678,0.000431,0.000823
58966000,0.0324,0.013523,0.002678,0.000431,0.000823
58967000,0.0324,0.013523,0.002678,0.000431,0.000823
58968000,0.0324,0.013523,0.002678,0.000431,0.000823
58969000,0.0324,0.013523,0.002678,0.000431,0.000823
58970000,0.0324,0.013523,0.002678,0.000431,0.000823
58971000,0.0324,0.013523,0.002678,0.000431,0.000940
58972000,0.0324,0.013523,0.002678,0.000431,0.000705
58973000,0.0324,0.013523,0.002678,0.000431,0.000940
58974000,0.0324,0.013523,0.002678,0.000431,0.000705
58975000,0.0324,0.013523,0.002678,0.000431,0.000940
58976000,0.0324,0.013523,0.002678,0.000431,0.000940
58977000,0.0324,0.013523,0.002678,0.000431,0.000705
58978000,0.0324,0.013523,0.002678,0.000431,0.000940
58979000,0.0324,0.013523,0.002678,0.000431,0.000705
58980000,0.0324,0.013523,0.002678,0.000431,0.000940
58981000,0.0324,0.013523,0.002678,0.000431,0.000823
58982000,0.0324,0.013523,0.002678,0.000431,0.000823
58983000,0.0324,0.013523,0.002678,0.000431,0.000940
58984000,0.0324,0.013523,0.002678,0.000431,0.000705
58985000,0.0324,0.013523,0.002678,0.000431,0.000940
58986000,0.0324,0.013523,0.002678,0.000431,0.000705
58987000,0.0324,0.013523,0.002678,0.000431,0.000940
58988000,0.0324,0.013523,0.002678,0.000431,0.000823
58989000,0.0324,0.013523,0.002678,0.000431,0.000823
58990000,0.0324,0.013523,0.002678,0.000431,0.000823
58991000,0.0324,0.013523,0.002678,0.000431,0.000823
58992000,0.0324,0.013523,0.002678,0.000431,0.000940
58993000,0.0324,0.013523,0.002678,0.000431,0.000705
58994000,0.0324,0.013523,0.002678,0.000431,0.000823
58995000,0.0324,0.013523,0.002678,0.000431,0.000940
58996000,0.0324,0.013523,0.002678,0.000431,0.000823
58997000,0.0324,0.013523,0.002678,0.000431,0.000823
58998000,0.0324,0.013523,0.002678,0.000431,0.000823
58999000,0.0324,0.013523,0.002678,0.000431,0.000705
