Cycle,Area(mm^2),PeakDynamic(W),SubthresholdLeakage(W),GateLeakage(W),RunTimeDynamic(W)
110000000,0.0324,0.013523,0.002678,0.000431,0.000823
110001000,0.0324,0.013523,0.002678,0.000431,0.000823
110002000,0.0324,0.013523,0.002678,0.000431,0.000823
110003000,0.0324,0.013523,0.002678,0.000431,0.000823
110004000,0.0324,0.013523,0.002678,0.000431,0.000823
110005000,0.0324,0.013523,0.002678,0.000431,0.000940
110006000,0.0324,0.013523,0.002678,0.000431,0.000705
110007000,0.0324,0.013523,0.002678,0.000431,0.000940
110008000,0.0324,0.013523,0.002678,0.000431,0.000823
110009000,0.0324,0.013523,0.002678,0.000431,0.000823
110010000,0.0324,0.013523,0.002678,0.000431,0.000705
110011000,0.0324,0.013523,0.002678,0.000431,0.000940
110012000,0.0324,0.013523,0.002678,0.000431,0.000705
110013000,0.0324,0.013523,0.002678,0.000431,0.000940
110014000,0.0324,0.013523,0.002678,0.000431,0.000940
110015000,0.0324,0.013523,0.002678,0.000431,0.000705
110016000,0.0324,0.013523,0.002678,0.000431,0.000940
110017000,0.0324,0.013523,0.002678,0.000431,0.000705
110018000,0.0324,0.013523,0.002678,0.000431,0.000940
110019000,0.0324,0.013523,0.002678,0.000431,0.000823
110020000,0.0324,0.013523,0.002678,0.000431,0.000823
110021000,0.0324,0.013523,0.002678,0.000431,0.000940
110022000,0.0324,0.013523,0.002678,0.000431,0.000705
110023000,0.0324,0.013523,0.002678,0.000431,0.000940
110024000,0.0324,0.013523,0.002678,0.000431,0.000705
110025000,0.0324,0.013523,0.002678,0.000431,0.000940
110026000,0.0324,0.013523,0.002678,0.000431,0.000823
110027000,0.0324,0.013523,0.002678,0.000431,0.000823
110028000,0.0324,0.013523,0.002678,0.000431,0.000823
110029000,0.0324,0.013523,0.002678,0.000431,0.000823
110030000,0.0324,0.013523,0.002678,0.000431,0.000823
110031000,0.0324,0.013523,0.002678,0.000431,0.000823
110032000,0.0324,0.013523,0.002678,0.000431,0.000940
110033000,0.0324,0.013523,0.002678,0.000431,0.000705
110034000,0.0324,0.013523,0.002678,0.000431,0.000940
110035000,0.0324,0.013523,0.002678,0.000431,0.000705
110036000,0.0324,0.013523,0.002678,0.000431,0.000940
110037000,0.0324,0.013523,0.002678,0.000431,0.000940
110038000,0.0324,0.013523,0.002678,0.000431,0.000705
110039000,0.0324,0.013523,0.002678,0.000431,0.000940
110040000,0.0324,0.013523,0.002678,0.000431,0.000705
110041000,0.0324,0.013523,0.002678,0.000431,0.000940
110042000,0.0324,0.013523,0.002678,0.000431,0.000823
110043000,0.0324,0.013523,0.002678,0.000431,0.000823
110044000,0.0324,0.013523,0.002678,0.000431,0.000823
110045000,0.0324,0.013523,0.002678,0.000431,0.000823
110046000,0.0324,0.013523,0.002678,0.000431,0.000940
110047000,0.0324,0.013523,0.002678,0.000431,0.000705
110048000,0.0324,0.013523,0.002678,0.000431,0.000940
110049000,0.0324,0.013523,0.002678,0.000431,0.000823
110050000,0.0324,0.013523,0.002678,0.000431,0.000705
110051000,0.0324,0.013523,0.002678,0.000431,0.000940
110052000,0.0324,0.013523,0.002678,0.000431,0.000823
110053000,0.0324,0.013523,0.002678,0.000431,0.000823
110054000,0.0324,0.013523,0.002678,0.000431,0.000823
110055000,0.0324,0.013523,0.002678,0.000431,0.000823
110056000,0.0324,0.013523,0.002678,0.000431,0.000823
110057000,0.0324,0.013523,0.002678,0.000431,0.000940
110058000,0.0324,0.013523,0.002678,0.000431,0.000823
110059000,0.0324,0.013523,0.002678,0.000431,0.000823
110060000,0.0324,0.013523,0.002678,0.000431,0.000705
110061000,0.0324,0.013523,0.002678,0.000431,0.000940
110062000,0.0324,0.013523,0.002678,0.000431,0.000940
110063000,0.0324,0.013523,0.002678,0.000431,0.000705
110064000,0.0324,0.013523,0.002678,0.000431,0.000940
110065000,0.0324,0.013523,0.002678,0.000431,0.000705
110066000,0.0324,0.013523,0.002678,0.000431,0.000940
110067000,0.0324,0.013523,0.002678,0.000431,0.000823
110068000,0.0324,0.013523,0.002678,0.000431,0.000823
110069000,0.0324,0.013523,0.002678,0.000431,0.000940
110070000,0.0324,0.013523,0.002678,0.000431,0.000705
110071000,0.0324,0.013523,0.002678,0.000431,0.000940
110072000,0.0324,0.013523,0.002678,0.000431,0.000705
110073000,0.0324,0.013523,0.002678,0.000431,0.000940
110074000,0.0324,0.013523,0.002678,0.000431,0.000823
110075000,0.0324,0.013523,0.002678,0.000431,0.000823
110076000,0.0324,0.013523,0.002678,0.000431,0.000823
110077000,0.0324,0.013523,0.002678,0.000431,0.000823
110078000,0.0324,0.013523,0.002678,0.000431,0.000940
110079000,0.0324,0.013523,0.002678,0.000431,0.000705
110080000,0.0324,0.013523,0.002678,0.000431,0.000940
110081000,0.0324,0.013523,0.002678,0.000431,0.000823
110082000,0.0324,0.013523,0.002678,0.000431,0.000823
110083000,0.0324,0.013523,0.002678,0.000431,0.000705
110084000,0.0324,0.013523,0.002678,0.000431,0.000940
110085000,0.0324,0.013523,0.002678,0.000431,0.000940
110086000,0.0324,0.013523,0.002678,0.000431,0.000705
110087000,0.0324,0.013523,0.002678,0.000431,0.000940
110088000,0.0324,0.013523,0.002678,0.000431,0.000705
110089000,0.0324,0.013523,0.002678,0.000431,0.000940
110090000,0.0324,0.013523,0.002678,0.000431,0.000823
110091000,0.0324,0.013523,0.002678,0.000431,0.000823
110092000,0.0324,0.013523,0.002678,0.000431,0.000823
110093000,0.0324,0.013523,0.002678,0.000431,0.000823
110094000,0.0324,0.013523,0.002678,0.000431,0.000940
110095000,0.0324,0.013523,0.002678,0.000431,0.000823
110096000,0.0324,0.013523,0.002678,0.000431,0.000823
110097000,0.0324,0.013523,0.002678,0.000431,0.000823
110098000,0.0324,0.013523,0.002678,0.000431,0.000823
110099000,0.0324,0.013523,0.002678,0.000431,0.000823
110100000,0.0324,0.013523,0.002678,0.000431,0.000823
110101000,0.0324,0.013523,0.002678,0.000431,0.000940
110102000,0.0324,0.013523,0.002678,0.000431,0.000705
110103000,0.0324,0.013523,0.002678,0.000431,0.000823
110104000,0.0324,0.013523,0.002678,0.000431,0.000823
110105000,0.0324,0.013523,0.002678,0.000431,0.000940
110106000,0.0324,0.013523,0.002678,0.000431,0.000823
110107000,0.0324,0.013523,0.002678,0.000431,0.000823
110108000,0.0324,0.013523,0.002678,0.000431,0.000705
110109000,0.0324,0.013523,0.002678,0.000431,0.000940
110110000,0.0324,0.013523,0.002678,0.000431,0.000940
110111000,0.0324,0.013523,0.002678,0.000431,0.000705
110112000,0.0324,0.013523,0.002678,0.000431,0.000940
110113000,0.0324,0.013523,0.002678,0.000431,0.000705
110114000,0.0324,0.013523,0.002678,0.000431,0.000940
110115000,0.0324,0.013523,0.002678,0.000431,0.000823
110116000,0.0324,0.013523,0.002678,0.000431,0.000823
110117000,0.0324,0.013523,0.002678,0.000431,0.000940
110118000,0.0324,0.013523,0.002678,0.000431,0.000705
110119000,0.0324,0.013523,0.002678,0.000431,0.000940
110120000,0.0324,0.013523,0.002678,0.000431,0.000823
110121000,0.0324,0.013523,0.002678,0.000431,0.000823
110122000,0.0324,0.013523,0.002678,0.000431,0.000823
110123000,0.0324,0.013523,0.002678,0.000431,0.000823
110124000,0.0324,0.013523,0.002678,0.000431,0.000823
110125000,0.0324,0.013523,0.002678,0.000431,0.000823
110126000,0.0324,0.013523,0.002678,0.000431,0.000940
110127000,0.0324,0.013523,0.002678,0.000431,0.000705
110128000,0.0324,0.013523,0.002678,0.000431,0.000940
110129000,0.0324,0.013523,0.002678,0.000431,0.000823
110130000,0.0324,0.013523,0.002678,0.000431,0.000823
110131000,0.0324,0.013523,0.002678,0.000431,0.000705
110132000,0.0324,0.013523,0.002678,0.000431,0.000940
110133000,0.0324,0.013523,0.002678,0.000431,0.000940
110134000,0.0324,0.013523,0.002678,0.000431,0.000705
110135000,0.0324,0.013523,0.002678,0.000431,0.000940
110136000,0.0324,0.013523,0.002678,0.000431,0.000705
110137000,0.0324,0.013523,0.002678,0.000431,0.000940
110138000,0.0324,0.013523,0.002678,0.000431,0.000823
110139000,0.0324,0.013523,0.002678,0.000431,0.000705
110140000,0.0324,0.013523,0.002678,0.000431,0.000940
110141000,0.0324,0.013523,0.002678,0.000431,0.000823
110142000,0.0324,0.013523,0.002678,0.000431,0.000823
110143000,0.0324,0.013523,0.002678,0.000431,0.000823
110144000,0.0324,0.013523,0.002678,0.000431,0.000823
110145000,0.0324,0.013523,0.002678,0.000431,0.000823
110146000,0.0324,0.013523,0.002678,0.000431,0.000940
110147000,0.0324,0.013523,0.002678,0.000431,0.000823
110148000,0.0324,0.013523,0.002678,0.000431,0.000823
110149000,0.0324,0.013523,0.002678,0.000431,0.000705
110150000,0.0324,0.013523,0.002678,0.000431,0.000940
110151000,0.0324,0.013523,0.002678,0.000431,0.000940
110152000,0.0324,0.013523,0.002678,0.000431,0.000705
110153000,0.0324,0.013523,0.002678,0.000431,0.000940
110154000,0.0324,0.013523,0.002678,0.000431,0.000705
110155000,0.0324,0.013523,0.002678,0.000431,0.000940
110156000,0.0324,0.013523,0.002678,0.000431,0.000823
110157000,0.0324,0.013523,0.002678,0.000431,0.000823
110158000,0.0324,0.013523,0.002678,0.000431,0.000940
110159000,0.0324,0.013523,0.002678,0.000431,0.000705
110160000,0.0324,0.013523,0.002678,0.000431,0.000940
110161000,0.0324,0.013523,0.002678,0.000431,0.000823
110162000,0.0324,0.013523,0.002678,0.000431,0.000823
110163000,0.0324,0.013523,0.002678,0.000431,0.000823
110164000,0.0324,0.013523,0.002678,0.000431,0.000823
110165000,0.0324,0.013523,0.002678,0.000431,0.000823
110166000,0.0324,0.013523,0.002678,0.000431,0.000823
110167000,0.0324,0.013523,0.002678,0.000431,0.000940
110168000,0.0324,0.013523,0.002678,0.000431,0.000705
110169000,0.0324,0.013523,0.002678,0.000431,0.000940
110170000,0.0324,0.013523,0.002678,0.000431,0.000823
110171000,0.0324,0.013523,0.002678,0.000431,0.000823
110172000,0.0324,0.013523,0.002678,0.000431,0.000705
110173000,0.0324,0.013523,0.002678,0.000431,0.000940
110174000,0.0324,0.013523,0.002678,0.000431,0.000940
110175000,0.0324,0.013523,0.002678,0.000431,0.000705
110176000,0.0324,0.013523,0.002678,0.000431,0.000940
110177000,0.0324,0.013523,0.002678,0.000431,0.000705
110178000,0.0324,0.013523,0.002678,0.000431,0.000940
110179000,0.0324,0.013523,0.002678,0.000431,0.000823
110180000,0.0324,0.013523,0.002678,0.000431,0.000823
110181000,0.0324,0.013523,0.002678,0.000431,0.000823
110182000,0.0324,0.013523,0.002678,0.000431,0.000823
110183000,0.0324,0.013523,0.002678,0.000431,0.000940
110184000,0.0324,0.013523,0.002678,0.000431,0.000705
110185000,0.0324,0.013523,0.002678,0.000431,0.000940
110186000,0.0324,0.013523,0.002678,0.000431,0.000823
110187000,0.0324,0.013523,0.002678,0.000431,0.000823
110188000,0.0324,0.013523,0.002678,0.000431,0.000823
110189000,0.0324,0.013523,0.002678,0.000431,0.000823
110190000,0.0324,0.013523,0.002678,0.000431,0.000823
110191000,0.0324,0.013523,0.002678,0.000431,0.000823
110192000,0.0324,0.013523,0.002678,0.000431,0.000823
110193000,0.0324,0.013523,0.002678,0.000431,0.000823
110194000,0.0324,0.013523,0.002678,0.000431,0.000940
110195000,0.0324,0.013523,0.002678,0.000431,0.000823
110196000,0.0324,0.013523,0.002678,0.000431,0.000705
110197000,0.0324,0.013523,0.002678,0.000431,0.000940
110198000,0.0324,0.013523,0.002678,0.000431,0.000823
110199000,0.0324,0.013523,0.002678,0.000431,0.000823
110200000,0.0324,0.013523,0.002678,0.000431,0.000823
110201000,0.0324,0.013523,0.002678,0.000431,0.000940
110202000,0.0324,0.013523,0.002678,0.000431,0.000705
110203000,0.0324,0.013523,0.002678,0.000431,0.000940
110204000,0.0324,0.013523,0.002678,0.000431,0.000705
110205000,0.0324,0.013523,0.002678,0.000431,0.000940
110206000,0.0324,0.013523,0.002678,0.000431,0.000705
110207000,0.0324,0.013523,0.002678,0.000431,0.000940
110208000,0.0324,0.013523,0.002678,0.000431,0.000940
110209000,0.0324,0.013523,0.002678,0.000431,0.000705
110210000,0.0324,0.013523,0.002678,0.000431,0.000940
110211000,0.0324,0.013523,0.002678,0.000431,0.000705
110212000,0.0324,0.013523,0.002678,0.000431,0.000940
110213000,0.0324,0.013523,0.002678,0.000431,0.000823
110214000,0.0324,0.013523,0.002678,0.000431,0.000823
110215000,0.0324,0.013523,0.002678,0.000431,0.000823
110216000,0.0324,0.013523,0.002678,0.000431,0.000823
110217000,0.0324,0.013523,0.002678,0.000431,0.000940
110218000,0.0324,0.013523,0.002678,0.000431,0.000823
110219000,0.0324,0.013523,0.002678,0.000431,0.000823
110220000,0.0324,0.013523,0.002678,0.000431,0.000823
110221000,0.0324,0.013523,0.002678,0.000431,0.000823
110222000,0.0324,0.013523,0.002678,0.000431,0.000823
110223000,0.0324,0.013523,0.002678,0.000431,0.000823
110224000,0.0324,0.013523,0.002678,0.000431,0.000940
110225000,0.0324,0.013523,0.002678,0.000431,0.000705
110226000,0.0324,0.013523,0.002678,0.000431,0.000823
110227000,0.0324,0.013523,0.002678,0.000431,0.000823
110228000,0.0324,0.013523,0.002678,0.000431,0.000940
110229000,0.0324,0.013523,0.002678,0.000431,0.000823
110230000,0.0324,0.013523,0.002678,0.000431,0.000823
110231000,0.0324,0.013523,0.002678,0.000431,0.000705
110232000,0.0324,0.013523,0.002678,0.000431,0.000940
110233000,0.0324,0.013523,0.002678,0.000431,0.000940
110234000,0.0324,0.013523,0.002678,0.000431,0.000705
110235000,0.0324,0.013523,0.002678,0.000431,0.000940
110236000,0.0324,0.013523,0.002678,0.000431,0.000705
110237000,0.0324,0.013523,0.002678,0.000431,0.000940
110238000,0.0324,0.013523,0.002678,0.000431,0.000823
110239000,0.0324,0.013523,0.002678,0.000431,0.000823
110240000,0.0324,0.013523,0.002678,0.000431,0.000940
110241000,0.0324,0.013523,0.002678,0.000431,0.000705
110242000,0.0324,0.013523,0.002678,0.000431,0.000940
110243000,0.0324,0.013523,0.002678,0.000431,0.000823
110244000,0.0324,0.013523,0.002678,0.000431,0.000823
110245000,0.0324,0.013523,0.002678,0.000431,0.000823
110246000,0.0324,0.013523,0.002678,0.000431,0.000823
110247000,0.0324,0.013523,0.002678,0.000431,0.000823
110248000,0.0324,0.013523,0.002678,0.000431,0.000823
110249000,0.0324,0.013523,0.002678,0.000431,0.000940
110250000,0.0324,0.013523,0.002678,0.000431,0.000705
110251000,0.0324,0.013523,0.002678,0.000431,0.000940
110252000,0.0324,0.013523,0.002678,0.000431,0.000823
110253000,0.0324,0.013523,0.002678,0.000431,0.000823
110254000,0.0324,0.013523,0.002678,0.000431,0.000705
110255000,0.0324,0.013523,0.002678,0.000431,0.000940
110256000,0.0324,0.013523,0.002678,0.000431,0.000940
110257000,0.0324,0.013523,0.002678,0.000431,0.000705
110258000,0.0324,0.013523,0.002678,0.000431,0.000940
110259000,0.0324,0.013523,0.002678,0.000431,0.000705
110260000,0.0324,0.013523,0.002678,0.000431,0.000940
110261000,0.0324,0.013523,0.002678,0.000431,0.000823
110262000,0.0324,0.013523,0.002678,0.000431,0.000823
110263000,0.0324,0.013523,0.002678,0.000431,0.000940
110264000,0.0324,0.013523,0.002678,0.000431,0.000705
110265000,0.0324,0.013523,0.002678,0.000431,0.000940
110266000,0.0324,0.013523,0.002678,0.000431,0.000823
110267000,0.0324,0.013523,0.002678,0.000431,0.000823
110268000,0.0324,0.013523,0.002678,0.000431,0.000823
110269000,0.0324,0.013523,0.002678,0.000431,0.000823
110270000,0.0324,0.013523,0.002678,0.000431,0.000823
110271000,0.0324,0.013523,0.002678,0.000431,0.000823
110272000,0.0324,0.013523,0.002678,0.000431,0.000823
110273000,0.0324,0.013523,0.002678,0.000431,0.000823
110274000,0.0324,0.013523,0.002678,0.000431,0.000940
110275000,0.0324,0.013523,0.002678,0.000431,0.000705
110276000,0.0324,0.013523,0.002678,0.000431,0.000940
110277000,0.0324,0.013523,0.002678,0.000431,0.000823
110278000,0.0324,0.013523,0.002678,0.000431,0.000823
110279000,0.0324,0.013523,0.002678,0.000431,0.000823
110280000,0.0324,0.013523,0.002678,0.000431,0.000823
110281000,0.0324,0.013523,0.002678,0.000431,0.000823
110282000,0.0324,0.013523,0.002678,0.000431,0.000823
110283000,0.0324,0.013523,0.002678,0.000431,0.000823
110284000,0.0324,0.013523,0.002678,0.000431,0.000823
110285000,0.0324,0.013523,0.002678,0.000431,0.000823
110286000,0.0324,0.013523,0.002678,0.000431,0.000823
110287000,0.0324,0.013523,0.002678,0.000431,0.000940
110288000,0.0324,0.013523,0.002678,0.000431,0.000823
110289000,0.0324,0.013523,0.002678,0.000431,0.000823
110290000,0.0324,0.013523,0.002678,0.000431,0.000705
110291000,0.0324,0.013523,0.002678,0.000431,0.000940
110292000,0.0324,0.013523,0.002678,0.000431,0.000940
110293000,0.0324,0.013523,0.002678,0.000431,0.000705
110294000,0.0324,0.013523,0.002678,0.000431,0.000940
110295000,0.0324,0.013523,0.002678,0.000431,0.000705
110296000,0.0324,0.013523,0.002678,0.000431,0.000940
110297000,0.0324,0.013523,0.002678,0.000431,0.000823
110298000,0.0324,0.013523,0.002678,0.000431,0.000823
110299000,0.0324,0.013523,0.002678,0.000431,0.000940
110300000,0.0324,0.013523,0.002678,0.000431,0.000705
110301000,0.0324,0.013523,0.002678,0.000431,0.000940
110302000,0.0324,0.013523,0.002678,0.000431,0.000823
110303000,0.0324,0.013523,0.002678,0.000431,0.000823
110304000,0.0324,0.013523,0.002678,0.000431,0.000823
110305000,0.0324,0.013523,0.002678,0.000431,0.000823
110306000,0.0324,0.013523,0.002678,0.000431,0.000823
110307000,0.0324,0.013523,0.002678,0.000431,0.000823
110308000,0.0324,0.013523,0.002678,0.000431,0.000940
110309000,0.0324,0.013523,0.002678,0.000431,0.000705
110310000,0.0324,0.013523,0.002678,0.000431,0.000705
110311000,0.0324,0.013523,0.002678,0.000431,0.000940
110312000,0.0324,0.013523,0.002678,0.000431,0.000940
110313000,0.0324,0.013523,0.002678,0.000431,0.000705
110314000,0.0324,0.013523,0.002678,0.000431,0.000940
110315000,0.0324,0.013523,0.002678,0.000431,0.000705
110316000,0.0324,0.013523,0.002678,0.000431,0.000940
110317000,0.0324,0.013523,0.002678,0.000431,0.000823
110318000,0.0324,0.013523,0.002678,0.000431,0.000823
110319000,0.0324,0.013523,0.002678,0.000431,0.000823
110320000,0.0324,0.013523,0.002678,0.000431,0.000823
110321000,0.0324,0.013523,0.002678,0.000431,0.000940
110322000,0.0324,0.013523,0.002678,0.000431,0.000705
110323000,0.0324,0.013523,0.002678,0.000431,0.000940
110324000,0.0324,0.013523,0.002678,0.000431,0.000823
110325000,0.0324,0.013523,0.002678,0.000431,0.000823
110326000,0.0324,0.013523,0.002678,0.000431,0.000823
110327000,0.0324,0.013523,0.002678,0.000431,0.000823
110328000,0.0324,0.013523,0.002678,0.000431,0.000940
110329000,0.0324,0.013523,0.002678,0.000431,0.000705
110330000,0.0324,0.013523,0.002678,0.000431,0.000940
110331000,0.0324,0.013523,0.002678,0.000431,0.000823
110332000,0.0324,0.013523,0.002678,0.000431,0.000823
110333000,0.0324,0.013523,0.002678,0.000431,0.000705
110334000,0.0324,0.013523,0.002678,0.000431,0.000940
110335000,0.0324,0.013523,0.002678,0.000431,0.000940
110336000,0.0324,0.013523,0.002678,0.000431,0.000705
110337000,0.0324,0.013523,0.002678,0.000431,0.000940
110338000,0.0324,0.013523,0.002678,0.000431,0.000705
110339000,0.0324,0.013523,0.002678,0.000431,0.000940
110340000,0.0324,0.013523,0.002678,0.000431,0.000823
110341000,0.0324,0.013523,0.002678,0.000431,0.000823
110342000,0.0324,0.013523,0.002678,0.000431,0.000940
110343000,0.0324,0.013523,0.002678,0.000431,0.000705
110344000,0.0324,0.013523,0.002678,0.000431,0.000940
110345000,0.0324,0.013523,0.002678,0.000431,0.000705
110346000,0.0324,0.013523,0.002678,0.000431,0.000940
110347000,0.0324,0.013523,0.002678,0.000431,0.000823
110348000,0.0324,0.013523,0.002678,0.000431,0.000823
110349000,0.0324,0.013523,0.002678,0.000431,0.000823
110350000,0.0324,0.013523,0.002678,0.000431,0.000823
110351000,0.0324,0.013523,0.002678,0.000431,0.000940
110352000,0.0324,0.013523,0.002678,0.000431,0.000705
110353000,0.0324,0.013523,0.002678,0.000431,0.000823
110354000,0.0324,0.013523,0.002678,0.000431,0.000823
110355000,0.0324,0.013523,0.002678,0.000431,0.000940
110356000,0.0324,0.013523,0.002678,0.000431,0.000823
110357000,0.0324,0.013523,0.002678,0.000431,0.000823
110358000,0.0324,0.013523,0.002678,0.000431,0.000705
110359000,0.0324,0.013523,0.002678,0.000431,0.000940
110360000,0.0324,0.013523,0.002678,0.000431,0.000940
110361000,0.0324,0.013523,0.002678,0.000431,0.000705
110362000,0.0324,0.013523,0.002678,0.000431,0.000940
110363000,0.0324,0.013523,0.002678,0.000431,0.000705
110364000,0.0324,0.013523,0.002678,0.000431,0.000940
110365000,0.0324,0.013523,0.002678,0.000431,0.000823
110366000,0.0324,0.013523,0.002678,0.000431,0.000823
110367000,0.0324,0.013523,0.002678,0.000431,0.000940
110368000,0.0324,0.013523,0.002678,0.000431,0.000705
110369000,0.0324,0.013523,0.002678,0.000431,0.000940
110370000,0.0324,0.013523,0.002678,0.000431,0.000823
110371000,0.0324,0.013523,0.002678,0.000431,0.000823
110372000,0.0324,0.013523,0.002678,0.000431,0.000823
110373000,0.0324,0.013523,0.002678,0.000431,0.000823
110374000,0.0324,0.013523,0.002678,0.000431,0.000823
110375000,0.0324,0.013523,0.002678,0.000431,0.000823
110376000,0.0324,0.013523,0.002678,0.000431,0.000940
110377000,0.0324,0.013523,0.002678,0.000431,0.000823
110378000,0.0324,0.013523,0.002678,0.000431,0.000823
110379000,0.0324,0.013523,0.002678,0.000431,0.000823
110380000,0.0324,0.013523,0.002678,0.000431,0.000823
110381000,0.0324,0.013523,0.002678,0.000431,0.000823
110382000,0.0324,0.013523,0.002678,0.000431,0.000823
110383000,0.0324,0.013523,0.002678,0.000431,0.000940
110384000,0.0324,0.013523,0.002678,0.000431,0.000705
110385000,0.0324,0.013523,0.002678,0.000431,0.000940
110386000,0.0324,0.013523,0.002678,0.000431,0.000705
110387000,0.0324,0.013523,0.002678,0.000431,0.000940
110388000,0.0324,0.013523,0.002678,0.000431,0.000940
110389000,0.0324,0.013523,0.002678,0.000431,0.000705
110390000,0.0324,0.013523,0.002678,0.000431,0.000940
110391000,0.0324,0.013523,0.002678,0.000431,0.000705
110392000,0.0324,0.013523,0.002678,0.000431,0.000940
110393000,0.0324,0.013523,0.002678,0.000431,0.000823
110394000,0.0324,0.013523,0.002678,0.000431,0.000823
110395000,0.0324,0.013523,0.002678,0.000431,0.000823
110396000,0.0324,0.013523,0.002678,0.000431,0.000823
110397000,0.0324,0.013523,0.002678,0.000431,0.000940
110398000,0.0324,0.013523,0.002678,0.000431,0.000705
110399000,0.0324,0.013523,0.002678,0.000431,0.000940
110400000,0.0324,0.013523,0.002678,0.000431,0.000823
110401000,0.0324,0.013523,0.002678,0.000431,0.000823
110402000,0.0324,0.013523,0.002678,0.000431,0.000823
110403000,0.0324,0.013523,0.002678,0.000431,0.000823
110404000,0.0324,0.013523,0.002678,0.000431,0.000823
110405000,0.0324,0.013523,0.002678,0.000431,0.000823
110406000,0.0324,0.013523,0.002678,0.000431,0.000823
110407000,0.0324,0.013523,0.002678,0.000431,0.000823
110408000,0.0324,0.013523,0.002678,0.000431,0.000940
110409000,0.0324,0.013523,0.002678,0.000431,0.000823
110410000,0.0324,0.013523,0.002678,0.000431,0.000823
110411000,0.0324,0.013523,0.002678,0.000431,0.000705
110412000,0.0324,0.013523,0.002678,0.000431,0.000940
110413000,0.0324,0.013523,0.002678,0.000431,0.000940
110414000,0.0324,0.013523,0.002678,0.000431,0.000705
110415000,0.0324,0.013523,0.002678,0.000431,0.000940
110416000,0.0324,0.013523,0.002678,0.000431,0.000705
110417000,0.0324,0.013523,0.002678,0.000431,0.000940
110418000,0.0324,0.013523,0.002678,0.000431,0.000823
110419000,0.0324,0.013523,0.002678,0.000431,0.000823
110420000,0.0324,0.013523,0.002678,0.000431,0.000940
110421000,0.0324,0.013523,0.002678,0.000431,0.000705
110422000,0.0324,0.013523,0.002678,0.000431,0.000940
110423000,0.0324,0.013523,0.002678,0.000431,0.000823
110424000,0.0324,0.013523,0.002678,0.000431,0.000823
110425000,0.0324,0.013523,0.002678,0.000431,0.000823
110426000,0.0324,0.013523,0.002678,0.000431,0.000823
110427000,0.0324,0.013523,0.002678,0.000431,0.000823
110428000,0.0324,0.013523,0.002678,0.000431,0.000823
110429000,0.0324,0.013523,0.002678,0.000431,0.000940
110430000,0.0324,0.013523,0.002678,0.000431,0.000705
110431000,0.0324,0.013523,0.002678,0.000431,0.000940
110432000,0.0324,0.013523,0.002678,0.000431,0.000705
110433000,0.0324,0.013523,0.002678,0.000431,0.000940
110434000,0.0324,0.013523,0.002678,0.000431,0.000823
110435000,0.0324,0.013523,0.002678,0.000431,0.000823
110436000,0.0324,0.013523,0.002678,0.000431,0.000823
110437000,0.0324,0.013523,0.002678,0.000431,0.000823
110438000,0.0324,0.013523,0.002678,0.000431,0.000940
110439000,0.0324,0.013523,0.002678,0.000431,0.000705
110440000,0.0324,0.013523,0.002678,0.000431,0.000940
110441000,0.0324,0.013523,0.002678,0.000431,0.000823
110442000,0.0324,0.013523,0.002678,0.000431,0.000823
110443000,0.0324,0.013523,0.002678,0.000431,0.000823
110444000,0.0324,0.013523,0.002678,0.000431,0.000823
110445000,0.0324,0.013523,0.002678,0.000431,0.000823
110446000,0.0324,0.013523,0.002678,0.000431,0.000823
110447000,0.0324,0.013523,0.002678,0.000431,0.000823
110448000,0.0324,0.013523,0.002678,0.000431,0.000823
110449000,0.0324,0.013523,0.002678,0.000431,0.000940
110450000,0.0324,0.013523,0.002678,0.000431,0.000823
110451000,0.0324,0.013523,0.002678,0.000431,0.000823
110452000,0.0324,0.013523,0.002678,0.000431,0.000705
110453000,0.0324,0.013523,0.002678,0.000431,0.002116
110454000,0.0324,0.013523,0.002678,0.000431,0.331782
110455000,0.0324,0.013523,0.002678,0.000431,0.684014
110456000,0.0324,0.013523,0.002678,0.000431,0.138566
110457000,0.0324,0.013523,0.002678,0.000431,0.134452
110458000,0.0324,0.013523,0.002678,0.000431,0.130691
110459000,0.0324,0.013523,0.002678,0.000431,0.587053
110460000,0.0324,0.013523,0.002678,0.000431,0.225537
110461000,0.0324,0.013523,0.002678,0.000431,0.251980
110462000,0.0324,0.013523,0.002678,0.000431,0.287004
110463000,0.0324,0.013523,0.002678,0.000431,0.140916
110464000,0.0324,0.013523,0.002678,0.000431,0.136568
110465000,0.0324,0.013523,0.002678,0.000431,0.126813
110466000,0.0324,0.013523,0.002678,0.000431,0.292998
110467000,0.0324,0.013523,0.002678,0.000431,0.300990
110468000,0.0324,0.013523,0.002678,0.000431,0.051007
110469000,0.0324,0.013523,0.002678,0.000431,0.045718
110470000,0.0324,0.013523,0.002678,0.000431,0.036669
110471000,0.0324,0.013523,0.002678,0.000431,0.029970
110472000,0.0324,0.013523,0.002678,0.000431,0.022800
110473000,0.0324,0.013523,0.002678,0.000431,0.020450
110474000,0.0324,0.013523,0.002678,0.000431,0.024093
110475000,0.0324,0.013523,0.002678,0.000431,0.020920
110476000,0.0324,0.013523,0.002678,0.000431,0.013751
110477000,0.0324,0.013523,0.002678,0.000431,0.016571
110478000,0.0324,0.013523,0.002678,0.000431,0.015279
110479000,0.0324,0.013523,0.002678,0.000431,0.013751
110480000,0.0324,0.013523,0.002678,0.000431,0.011283
110481000,0.0324,0.013523,0.002678,0.000431,0.009872
110482000,0.0324,0.013523,0.002678,0.000431,0.013163
110483000,0.0324,0.013523,0.002678,0.000431,0.011518
110484000,0.0324,0.013523,0.002678,0.000431,0.009402
110485000,0.0324,0.013523,0.002678,0.000431,0.006699
110486000,0.0324,0.013523,0.002678,0.000431,0.007169
110487000,0.0324,0.013523,0.002678,0.000431,0.007287
110488000,0.0324,0.013523,0.002678,0.000431,0.005876
110489000,0.0324,0.013523,0.002678,0.000431,0.005524
110490000,0.0324,0.013523,0.002678,0.000431,0.006347
110491000,0.0324,0.013523,0.002678,0.000431,0.006111
110492000,0.0324,0.013523,0.002678,0.000431,0.005406
110493000,0.0324,0.013523,0.002678,0.000431,0.006111
110494000,0.0324,0.013523,0.002678,0.000431,0.005759
110495000,0.0324,0.013523,0.002678,0.000431,0.006111
110496000,0.0324,0.013523,0.002678,0.000431,0.005759
110497000,0.0324,0.013523,0.002678,0.000431,0.005759
110498000,0.0324,0.013523,0.002678,0.000431,0.005994
110499000,0.0324,0.013523,0.002678,0.000431,0.005876
110500000,0.0324,0.013523,0.002678,0.000431,0.005876
110501000,0.0324,0.013523,0.002678,0.000431,0.005994
110502000,0.0324,0.013523,0.002678,0.000431,0.005641
110503000,0.0324,0.013523,0.002678,0.000431,0.005759
110504000,0.0324,0.013523,0.002678,0.000431,0.005994
110505000,0.0324,0.013523,0.002678,0.000431,0.006111
110506000,0.0324,0.013523,0.002678,0.000431,0.005994
110507000,0.0324,0.013523,0.002678,0.000431,0.005406
110508000,0.0324,0.013523,0.002678,0.000431,0.006229
110509000,0.0324,0.013523,0.002678,0.000431,0.007404
110510000,0.0324,0.013523,0.002678,0.000431,0.006699
110511000,0.0324,0.013523,0.002678,0.000431,0.005524
110512000,0.0324,0.013523,0.002678,0.000431,0.004231
110513000,0.0324,0.013523,0.002678,0.000431,0.005641
110514000,0.0324,0.013523,0.002678,0.000431,0.004584
110515000,0.0324,0.013523,0.002678,0.000431,0.005054
110516000,0.0324,0.013523,0.002678,0.000431,0.005054
110517000,0.0324,0.013523,0.002678,0.000431,0.004819
110518000,0.0324,0.013523,0.002678,0.000431,0.005171
110519000,0.0324,0.013523,0.002678,0.000431,0.004701
110520000,0.0324,0.013523,0.002678,0.000431,0.005289
110521000,0.0324,0.013523,0.002678,0.000431,0.004584
110522000,0.0324,0.013523,0.002678,0.000431,0.005054
110523000,0.0324,0.013523,0.002678,0.000431,0.005054
110524000,0.0324,0.013523,0.002678,0.000431,0.005054
110525000,0.0324,0.013523,0.002678,0.000431,0.004819
110526000,0.0324,0.013523,0.002678,0.000431,0.005054
110527000,0.0324,0.013523,0.002678,0.000431,0.004584
110528000,0.0324,0.013523,0.002678,0.000431,0.008932
110529000,0.0324,0.013523,0.002678,0.000431,0.003408
110530000,0.0324,0.013523,0.002678,0.000431,0.003056
110531000,0.0324,0.013523,0.002678,0.000431,0.003643
110532000,0.0324,0.013523,0.002678,0.000431,0.002938
110533000,0.0324,0.013523,0.002678,0.000431,0.005759
110534000,0.0324,0.013523,0.002678,0.000431,0.002468
110535000,0.0324,0.013523,0.002678,0.000431,0.002351
110536000,0.0324,0.013523,0.002678,0.000431,0.002586
110537000,0.0324,0.013523,0.002678,0.000431,0.002351
110538000,0.0324,0.013523,0.002678,0.000431,0.002351
110539000,0.0324,0.013523,0.002678,0.000431,0.002586
110540000,0.0324,0.013523,0.002678,0.000431,0.003996
110541000,0.0324,0.013523,0.002678,0.000431,0.001528
110542000,0.0324,0.013523,0.002678,0.000431,0.014221
110543000,0.0324,0.013523,0.002678,0.000431,0.486919
110544000,0.0324,0.013523,0.002678,0.000431,0.590344
110545000,0.0324,0.013523,0.002678,0.000431,0.134100
110546000,0.0324,0.013523,0.002678,0.000431,0.130691
110547000,0.0324,0.013523,0.002678,0.000431,0.255976
110548000,0.0324,0.013523,0.002678,0.000431,0.488565
110549000,0.0324,0.013523,0.002678,0.000431,0.229650
110550000,0.0324,0.013523,0.002678,0.000431,0.289824
110551000,0.0324,0.013523,0.002678,0.000431,0.218015
110552000,0.0324,0.013523,0.002678,0.000431,0.150436
110553000,0.0324,0.013523,0.002678,0.000431,0.171004
110554000,0.0324,0.013523,0.002678,0.000431,0.111652
110555000,0.0324,0.013523,0.002678,0.000431,0.452601
110556000,0.0324,0.013523,0.002678,0.000431,0.062172
110557000,0.0324,0.013523,0.002678,0.000431,0.033143
110558000,0.0324,0.013523,0.002678,0.000431,0.031027
110559000,0.0324,0.013523,0.002678,0.000431,0.033143
110560000,0.0324,0.013523,0.002678,0.000431,0.025974
110561000,0.0324,0.013523,0.002678,0.000431,0.030205
110562000,0.0324,0.013523,0.002678,0.000431,0.022565
110563000,0.0324,0.013523,0.002678,0.000431,0.017747
110564000,0.0324,0.013523,0.002678,0.000431,0.017394
110565000,0.0324,0.013523,0.002678,0.000431,0.016807
110566000,0.0324,0.013523,0.002678,0.000431,0.019392
110567000,0.0324,0.013523,0.002678,0.000431,0.016454
110568000,0.0324,0.013523,0.002678,0.000431,0.017042
110569000,0.0324,0.013523,0.002678,0.000431,0.013751
110570000,0.0324,0.013523,0.002678,0.000431,0.014926
110571000,0.0324,0.013523,0.002678,0.000431,0.012223
110572000,0.0324,0.013523,0.002678,0.000431,0.011753
110573000,0.0324,0.013523,0.002678,0.000431,0.012458
110574000,0.0324,0.013523,0.002678,0.000431,0.013046
110575000,0.0324,0.013523,0.002678,0.000431,0.009990
110576000,0.0324,0.013523,0.002678,0.000431,0.011048
110577000,0.0324,0.013523,0.002678,0.000431,0.011753
110578000,0.0324,0.013523,0.002678,0.000431,0.010460
110579000,0.0324,0.013523,0.002678,0.000431,0.010107
110580000,0.0324,0.013523,0.002678,0.000431,0.009637
110581000,0.0324,0.013523,0.002678,0.000431,0.009402
110582000,0.0324,0.013523,0.002678,0.000431,0.013163
110583000,0.0324,0.013523,0.002678,0.000431,0.008932
110584000,0.0324,0.013523,0.002678,0.000431,0.009285
110585000,0.0324,0.013523,0.002678,0.000431,0.008697
110586000,0.0324,0.013523,0.002678,0.000431,0.008697
110587000,0.0324,0.013523,0.002678,0.000431,0.009755
110588000,0.0324,0.013523,0.002678,0.000431,0.008932
110589000,0.0324,0.013523,0.002678,0.000431,0.008462
110590000,0.0324,0.013523,0.002678,0.000431,0.009755
110591000,0.0324,0.013523,0.002678,0.000431,0.008815
110592000,0.0324,0.013523,0.002678,0.000431,0.009285
110593000,0.0324,0.013523,0.002678,0.000431,0.008462
110594000,0.0324,0.013523,0.002678,0.000431,0.007874
110595000,0.0324,0.013523,0.002678,0.000431,0.007874
110596000,0.0324,0.013523,0.002678,0.000431,0.007287
110597000,0.0324,0.013523,0.002678,0.000431,0.007874
110598000,0.0324,0.013523,0.002678,0.000431,0.007404
110599000,0.0324,0.013523,0.002678,0.000431,0.007992
110600000,0.0324,0.013523,0.002678,0.000431,0.007287
110601000,0.0324,0.013523,0.002678,0.000431,0.007639
110602000,0.0324,0.013523,0.002678,0.000431,0.007874
110603000,0.0324,0.013523,0.002678,0.000431,0.007287
110604000,0.0324,0.013523,0.002678,0.000431,0.007639
110605000,0.0324,0.013523,0.002678,0.000431,0.007757
110606000,0.0324,0.013523,0.002678,0.000431,0.008227
110607000,0.0324,0.013523,0.002678,0.000431,0.009167
110608000,0.0324,0.013523,0.002678,0.000431,0.005994
110609000,0.0324,0.013523,0.002678,0.000431,0.006111
110610000,0.0324,0.013523,0.002678,0.000431,0.006347
110611000,0.0324,0.013523,0.002678,0.000431,0.005641
110612000,0.0324,0.013523,0.002678,0.000431,0.005876
110613000,0.0324,0.013523,0.002678,0.000431,0.006111
110614000,0.0324,0.013523,0.002678,0.000431,0.006111
110615000,0.0324,0.013523,0.002678,0.000431,0.005289
110616000,0.0324,0.013523,0.002678,0.000431,0.006347
110617000,0.0324,0.013523,0.002678,0.000431,0.006111
110618000,0.0324,0.013523,0.002678,0.000431,0.005994
110619000,0.0324,0.013523,0.002678,0.000431,0.007169
110620000,0.0324,0.013523,0.002678,0.000431,0.005054
110621000,0.0324,0.013523,0.002678,0.000431,0.005289
110622000,0.0324,0.013523,0.002678,0.000431,0.005054
110623000,0.0324,0.013523,0.002678,0.000431,0.005171
110624000,0.0324,0.013523,0.002678,0.000431,0.004936
110625000,0.0324,0.013523,0.002678,0.000431,0.006817
110626000,0.0324,0.013523,0.002678,0.000431,0.004349
110627000,0.0324,0.013523,0.002678,0.000431,0.004113
110628000,0.0324,0.013523,0.002678,0.000431,0.004231
110629000,0.0324,0.013523,0.002678,0.000431,0.004349
110630000,0.0324,0.013523,0.002678,0.000431,0.004231
110631000,0.0324,0.013523,0.002678,0.000431,0.004349
110632000,0.0324,0.013523,0.002678,0.000431,0.004231
110633000,0.0324,0.013523,0.002678,0.000431,0.004466
110634000,0.0324,0.013523,0.002678,0.000431,0.004113
110635000,0.0324,0.013523,0.002678,0.000431,0.004231
110636000,0.0324,0.013523,0.002678,0.000431,0.004349
110637000,0.0324,0.013523,0.002678,0.000431,0.004349
110638000,0.0324,0.013523,0.002678,0.000431,0.004349
110639000,0.0324,0.013523,0.002678,0.000431,0.006347
110640000,0.0324,0.013523,0.002678,0.000431,0.003643
110641000,0.0324,0.013523,0.002678,0.000431,0.003761
110642000,0.0324,0.013523,0.002678,0.000431,0.003056
110643000,0.0324,0.013523,0.002678,0.000431,0.003291
110644000,0.0324,0.013523,0.002678,0.000431,0.003526
110645000,0.0324,0.013523,0.002678,0.000431,0.003761
110646000,0.0324,0.013523,0.002678,0.000431,0.003056
110647000,0.0324,0.013523,0.002678,0.000431,0.003291
110648000,0.0324,0.013523,0.002678,0.000431,0.005524
110649000,0.0324,0.013523,0.002678,0.000431,0.002468
110650000,0.0324,0.013523,0.002678,0.000431,0.002351
110651000,0.0324,0.013523,0.002678,0.000431,0.002586
110652000,0.0324,0.013523,0.002678,0.000431,0.002703
110653000,0.0324,0.013523,0.002678,0.000431,0.002468
110654000,0.0324,0.013523,0.002678,0.000431,0.002233
110655000,0.0324,0.013523,0.002678,0.000431,0.002821
110656000,0.0324,0.013523,0.002678,0.000431,0.002468
110657000,0.0324,0.013523,0.002678,0.000431,0.002586
110658000,0.0324,0.013523,0.002678,0.000431,0.002468
110659000,0.0324,0.013523,0.002678,0.000431,0.002586
110660000,0.0324,0.013523,0.002678,0.000431,0.002586
110661000,0.0324,0.013523,0.002678,0.000431,0.002351
110662000,0.0324,0.013523,0.002678,0.000431,0.002586
110663000,0.0324,0.013523,0.002678,0.000431,0.002703
110664000,0.0324,0.013523,0.002678,0.000431,0.002468
110665000,0.0324,0.013523,0.002678,0.000431,0.002351
110666000,0.0324,0.013523,0.002678,0.000431,0.002586
110667000,0.0324,0.013523,0.002678,0.000431,0.002586
110668000,0.0324,0.013523,0.002678,0.000431,0.002351
110669000,0.0324,0.013523,0.002678,0.000431,0.002586
110670000,0.0324,0.013523,0.002678,0.000431,0.002821
110671000,0.0324,0.013523,0.002678,0.000431,0.002233
110672000,0.0324,0.013523,0.002678,0.000431,0.002586
110673000,0.0324,0.013523,0.002678,0.000431,0.002468
110674000,0.0324,0.013523,0.002678,0.000431,0.002821
110675000,0.0324,0.013523,0.002678,0.000431,0.002233
110676000,0.0324,0.013523,0.002678,0.000431,0.002468
110677000,0.0324,0.013523,0.002678,0.000431,0.002821
110678000,0.0324,0.013523,0.002678,0.000431,0.002351
110679000,0.0324,0.013523,0.002678,0.000431,0.002468
110680000,0.0324,0.013523,0.002678,0.000431,0.003761
110681000,0.0324,0.013523,0.002678,0.000431,0.001058
110682000,0.0324,0.013523,0.002678,0.000431,0.000940
110683000,0.0324,0.013523,0.002678,0.000431,0.000823
110684000,0.0324,0.013523,0.002678,0.000431,0.000823
110685000,0.0324,0.013523,0.002678,0.000431,0.000940
110686000,0.0324,0.013523,0.002678,0.000431,0.000940
110687000,0.0324,0.013523,0.002678,0.000431,0.000823
110688000,0.0324,0.013523,0.002678,0.000431,0.000823
110689000,0.0324,0.013523,0.002678,0.000431,0.000940
110690000,0.0324,0.013523,0.002678,0.000431,0.000823
110691000,0.0324,0.013523,0.002678,0.000431,0.000940
110692000,0.0324,0.013523,0.002678,0.000431,0.000823
110693000,0.0324,0.013523,0.002678,0.000431,0.000940
110694000,0.0324,0.013523,0.002678,0.000431,0.000823
110695000,0.0324,0.013523,0.002678,0.000431,0.000823
110696000,0.0324,0.013523,0.002678,0.000431,0.000940
110697000,0.0324,0.013523,0.002678,0.000431,0.000940
110698000,0.0324,0.013523,0.002678,0.000431,0.000823
110699000,0.0324,0.013523,0.002678,0.000431,0.000823
110700000,0.0324,0.013523,0.002678,0.000431,0.000940
110701000,0.0324,0.013523,0.002678,0.000431,0.000940
110702000,0.0324,0.013523,0.002678,0.000431,0.000705
110703000,0.0324,0.013523,0.002678,0.000431,0.000940
110704000,0.0324,0.013523,0.002678,0.000431,0.000940
110705000,0.0324,0.013523,0.002678,0.000431,0.000940
110706000,0.0324,0.013523,0.002678,0.000431,0.000705
110707000,0.0324,0.013523,0.002678,0.000431,0.000940
110708000,0.0324,0.013523,0.002678,0.000431,0.000940
110709000,0.0324,0.013523,0.002678,0.000431,0.000823
110710000,0.0324,0.013523,0.002678,0.000431,0.000940
110711000,0.0324,0.013523,0.002678,0.000431,0.000823
110712000,0.0324,0.013523,0.002678,0.000431,0.000940
110713000,0.0324,0.013523,0.002678,0.000431,0.000823
110714000,0.0324,0.013523,0.002678,0.000431,0.000823
110715000,0.0324,0.013523,0.002678,0.000431,0.000940
110716000,0.0324,0.013523,0.002678,0.000431,0.000823
110717000,0.0324,0.013523,0.002678,0.000431,0.000823
110718000,0.0324,0.013523,0.002678,0.000431,0.000940
110719000,0.0324,0.013523,0.002678,0.000431,0.000940
110720000,0.0324,0.013523,0.002678,0.000431,0.000940
110721000,0.0324,0.013523,0.002678,0.000431,0.000705
110722000,0.0324,0.013523,0.002678,0.000431,0.000940
110723000,0.0324,0.013523,0.002678,0.000431,0.000940
110724000,0.0324,0.013523,0.002678,0.000431,0.000823
110725000,0.0324,0.013523,0.002678,0.000431,0.000823
110726000,0.0324,0.013523,0.002678,0.000431,0.000940
110727000,0.0324,0.013523,0.002678,0.000431,0.001880
110728000,0.0324,0.013523,0.002678,0.000431,0.319442
110729000,0.0324,0.013523,0.002678,0.000431,0.648638
110730000,0.0324,0.013523,0.002678,0.000431,0.187457
110731000,0.0324,0.013523,0.002678,0.000431,0.131632
110732000,0.0324,0.013523,0.002678,0.000431,0.133982
110733000,0.0324,0.013523,0.002678,0.000431,0.586701
110734000,0.0324,0.013523,0.002678,0.000431,0.227770
110735000,0.0324,0.013523,0.002678,0.000431,0.230473
110736000,0.0324,0.013523,0.002678,0.000431,0.291470
110737000,0.0324,0.013523,0.002678,0.000431,0.139153
110738000,0.0324,0.013523,0.002678,0.000431,0.144560
110739000,0.0324,0.013523,0.002678,0.000431,0.131397
110740000,0.0324,0.013523,0.002678,0.000431,0.284183
110741000,0.0324,0.013523,0.002678,0.000431,0.307219
110742000,0.0324,0.013523,0.002678,0.000431,0.048539
110743000,0.0324,0.013523,0.002678,0.000431,0.042428
110744000,0.0324,0.013523,0.002678,0.000431,0.037021
110745000,0.0324,0.013523,0.002678,0.000431,0.032085
110746000,0.0324,0.013523,0.002678,0.000431,0.026561
110747000,0.0324,0.013523,0.002678,0.000431,0.027619
110748000,0.0324,0.013523,0.002678,0.000431,0.024328
110749000,0.0324,0.013523,0.002678,0.000431,0.024446
110750000,0.0324,0.013523,0.002678,0.000431,0.023506
110751000,0.0324,0.013523,0.002678,0.000431,0.023271
110752000,0.0324,0.013523,0.002678,0.000431,0.019862
110753000,0.0324,0.013523,0.002678,0.000431,0.019862
110754000,0.0324,0.013523,0.002678,0.000431,0.022565
110755000,0.0324,0.013523,0.002678,0.000431,0.019275
110756000,0.0324,0.013523,0.002678,0.000431,0.019040
110757000,0.0324,0.013523,0.002678,0.000431,0.015866
110758000,0.0324,0.013523,0.002678,0.000431,0.013281
110759000,0.0324,0.013523,0.002678,0.000431,0.012693
110760000,0.0324,0.013523,0.002678,0.000431,0.012928
110761000,0.0324,0.013523,0.002678,0.000431,0.014926
110762000,0.0324,0.013523,0.002678,0.000431,0.012693
110763000,0.0324,0.013523,0.002678,0.000431,0.011283
110764000,0.0324,0.013523,0.002678,0.000431,0.010342
110765000,0.0324,0.013523,0.002678,0.000431,0.009402
110766000,0.0324,0.013523,0.002678,0.000431,0.009402
110767000,0.0324,0.013523,0.002678,0.000431,0.010930
110768000,0.0324,0.013523,0.002678,0.000431,0.007992
110769000,0.0324,0.013523,0.002678,0.000431,0.008227
110770000,0.0324,0.013523,0.002678,0.000431,0.008697
110771000,0.0324,0.013523,0.002678,0.000431,0.008109
110772000,0.0324,0.013523,0.002678,0.000431,0.008462
110773000,0.0324,0.013523,0.002678,0.000431,0.008345
110774000,0.0324,0.013523,0.002678,0.000431,0.008227
110775000,0.0324,0.013523,0.002678,0.000431,0.010695
110776000,0.0324,0.013523,0.002678,0.000431,0.007522
110777000,0.0324,0.013523,0.002678,0.000431,0.007874
110778000,0.0324,0.013523,0.002678,0.000431,0.007287
110779000,0.0324,0.013523,0.002678,0.000431,0.007522
110780000,0.0324,0.013523,0.002678,0.000431,0.007992
110781000,0.0324,0.013523,0.002678,0.000431,0.007757
110782000,0.0324,0.013523,0.002678,0.000431,0.006111
110783000,0.0324,0.013523,0.002678,0.000431,0.005641
110784000,0.0324,0.013523,0.002678,0.000431,0.006111
110785000,0.0324,0.013523,0.002678,0.000431,0.006699
110786000,0.0324,0.013523,0.002678,0.000431,0.006111
110787000,0.0324,0.013523,0.002678,0.000431,0.005406
110788000,0.0324,0.013523,0.002678,0.000431,0.004819
110789000,0.0324,0.013523,0.002678,0.000431,0.005524
110790000,0.0324,0.013523,0.002678,0.000431,0.004701
110791000,0.0324,0.013523,0.002678,0.000431,0.005289
110792000,0.0324,0.013523,0.002678,0.000431,0.005171
110793000,0.0324,0.013523,0.002678,0.000431,0.006582
110794000,0.0324,0.013523,0.002678,0.000431,0.004349
110795000,0.0324,0.013523,0.002678,0.000431,0.005171
110796000,0.0324,0.013523,0.002678,0.000431,0.004819
110797000,0.0324,0.013523,0.002678,0.000431,0.003291
110798000,0.0324,0.013523,0.002678,0.000431,0.003291
110799000,0.0324,0.013523,0.002678,0.000431,0.003526
110800000,0.0324,0.013523,0.002678,0.000431,0.004936
110801000,0.0324,0.013523,0.002678,0.000431,0.002468
110802000,0.0324,0.013523,0.002678,0.000431,0.002468
110803000,0.0324,0.013523,0.002678,0.000431,0.002703
110804000,0.0324,0.013523,0.002678,0.000431,0.002468
110805000,0.0324,0.013523,0.002678,0.000431,0.002586
110806000,0.0324,0.013523,0.002678,0.000431,0.002586
110807000,0.0324,0.013523,0.002678,0.000431,0.002586
110808000,0.0324,0.013523,0.002678,0.000431,0.002351
110809000,0.0324,0.013523,0.002678,0.000431,0.002586
110810000,0.0324,0.013523,0.002678,0.000431,0.002703
110811000,0.0324,0.013523,0.002678,0.000431,0.002351
110812000,0.0324,0.013523,0.002678,0.000431,0.002586
110813000,0.0324,0.013523,0.002678,0.000431,0.002586
110814000,0.0324,0.013523,0.002678,0.000431,0.002468
110815000,0.0324,0.013523,0.002678,0.000431,0.002468
110816000,0.0324,0.013523,0.002678,0.000431,0.004113
110817000,0.0324,0.013523,0.002678,0.000431,0.001763
110818000,0.0324,0.013523,0.002678,0.000431,0.001528
110819000,0.0324,0.013523,0.002678,0.000431,0.001880
110820000,0.0324,0.013523,0.002678,0.000431,0.001528
110821000,0.0324,0.013523,0.002678,0.000431,0.001763
110822000,0.0324,0.013523,0.002678,0.000431,0.001645
110823000,0.0324,0.013523,0.002678,0.000431,0.001645
110824000,0.0324,0.013523,0.002678,0.000431,0.001763
110825000,0.0324,0.013523,0.002678,0.000431,0.001645
110826000,0.0324,0.013523,0.002678,0.000431,0.001763
110827000,0.0324,0.013523,0.002678,0.000431,0.001645
110828000,0.0324,0.013523,0.002678,0.000431,0.001528
110829000,0.0324,0.013523,0.002678,0.000431,0.001880
110830000,0.0324,0.013523,0.002678,0.000431,0.001645
110831000,0.0324,0.013523,0.002678,0.000431,0.001645
110832000,0.0324,0.013523,0.002678,0.000431,0.001763
110833000,0.0324,0.013523,0.002678,0.000431,0.001528
110834000,0.0324,0.013523,0.002678,0.000431,0.001763
110835000,0.0324,0.013523,0.002678,0.000431,0.001763
110836000,0.0324,0.013523,0.002678,0.000431,0.001528
110837000,0.0324,0.013523,0.002678,0.000431,0.001880
110838000,0.0324,0.013523,0.002678,0.000431,0.001528
110839000,0.0324,0.013523,0.002678,0.000431,0.001763
110840000,0.0324,0.013523,0.002678,0.000431,0.001880
110841000,0.0324,0.013523,0.002678,0.000431,0.001528
110842000,0.0324,0.013523,0.002678,0.000431,0.001763
110843000,0.0324,0.013523,0.002678,0.000431,0.001528
110844000,0.0324,0.013523,0.002678,0.000431,0.001763
110845000,0.0324,0.013523,0.002678,0.000431,0.001763
110846000,0.0324,0.013523,0.002678,0.000431,0.001645
110847000,0.0324,0.013523,0.002678,0.000431,0.001645
110848000,0.0324,0.013523,0.002678,0.000431,0.001763
110849000,0.0324,0.013523,0.002678,0.000431,0.001645
110850000,0.0324,0.013523,0.002678,0.000431,0.001645
110851000,0.0324,0.013523,0.002678,0.000431,0.001763
110852000,0.0324,0.013523,0.002678,0.000431,0.001645
110853000,0.0324,0.013523,0.002678,0.000431,0.001763
110854000,0.0324,0.013523,0.002678,0.000431,0.001645
110855000,0.0324,0.013523,0.002678,0.000431,0.001645
110856000,0.0324,0.013523,0.002678,0.000431,0.001880
110857000,0.0324,0.013523,0.002678,0.000431,0.001410
110858000,0.0324,0.013523,0.002678,0.000431,0.002703
110859000,0.0324,0.013523,0.002678,0.000431,0.000940
110860000,0.0324,0.013523,0.002678,0.000431,0.000940
110861000,0.0324,0.013523,0.002678,0.000431,0.000823
110862000,0.0324,0.013523,0.002678,0.000431,0.000823
110863000,0.0324,0.013523,0.002678,0.000431,0.000940
110864000,0.0324,0.013523,0.002678,0.000431,0.000940
110865000,0.0324,0.013523,0.002678,0.000431,0.000823
110866000,0.0324,0.013523,0.002678,0.000431,0.000823
110867000,0.0324,0.013523,0.002678,0.000431,0.000940
110868000,0.0324,0.013523,0.002678,0.000431,0.000940
110869000,0.0324,0.013523,0.002678,0.000431,0.000823
110870000,0.0324,0.013523,0.002678,0.000431,0.000823
110871000,0.0324,0.013523,0.002678,0.000431,0.000940
110872000,0.0324,0.013523,0.002678,0.000431,0.000823
110873000,0.0324,0.013523,0.002678,0.000431,0.000940
110874000,0.0324,0.013523,0.002678,0.000431,0.000823
110875000,0.0324,0.013523,0.002678,0.000431,0.000940
110876000,0.0324,0.013523,0.002678,0.000431,0.000823
110877000,0.0324,0.013523,0.002678,0.000431,0.000823
110878000,0.0324,0.013523,0.002678,0.000431,0.000940
110879000,0.0324,0.013523,0.002678,0.000431,0.000940
110880000,0.0324,0.013523,0.002678,0.000431,0.000823
110881000,0.0324,0.013523,0.002678,0.000431,0.000823
110882000,0.0324,0.013523,0.002678,0.000431,0.072280
110883000,0.0324,0.013523,0.002678,0.000431,0.449310
110884000,0.0324,0.013523,0.002678,0.000431,0.597161
110885000,0.0324,0.013523,0.002678,0.000431,0.131279
110886000,0.0324,0.013523,0.002678,0.000431,0.134335
110887000,0.0324,0.013523,0.002678,0.000431,0.521590
110888000,0.0324,0.013523,0.002678,0.000431,0.249160
110889000,0.0324,0.013523,0.002678,0.000431,0.230590
110890000,0.0324,0.013523,0.002678,0.000431,0.312272
110891000,0.0324,0.013523,0.002678,0.000431,0.166185
110892000,0.0324,0.013523,0.002678,0.000431,0.143737
110893000,0.0324,0.013523,0.002678,0.000431,0.164422
110894000,0.0324,0.013523,0.002678,0.000431,0.135980
110895000,0.0324,0.013523,0.002678,0.000431,0.444727
110896000,0.0324,0.013523,0.002678,0.000431,0.061937
110897000,0.0324,0.013523,0.002678,0.000431,0.049832
110898000,0.0324,0.013523,0.002678,0.000431,0.048069
110899000,0.0324,0.013523,0.002678,0.000431,0.043133
110900000,0.0324,0.013523,0.002678,0.000431,0.035964
110901000,0.0324,0.013523,0.002678,0.000431,0.036786
110902000,0.0324,0.013523,0.002678,0.000431,0.039960
110903000,0.0324,0.013523,0.002678,0.000431,0.033260
110904000,0.0324,0.013523,0.002678,0.000431,0.030910
110905000,0.0324,0.013523,0.002678,0.000431,0.029735
110906000,0.0324,0.013523,0.002678,0.000431,0.028442
110907000,0.0324,0.013523,0.002678,0.000431,0.025621
110908000,0.0324,0.013523,0.002678,0.000431,0.026444
110909000,0.0324,0.013523,0.002678,0.000431,0.024798
110910000,0.0324,0.013523,0.002678,0.000431,0.025739
110911000,0.0324,0.013523,0.002678,0.000431,0.024681
110912000,0.0324,0.013523,0.002678,0.000431,0.022330
110913000,0.0324,0.013523,0.002678,0.000431,0.020685
110914000,0.0324,0.013523,0.002678,0.000431,0.020097
110915000,0.0324,0.013523,0.002678,0.000431,0.021038
110916000,0.0324,0.013523,0.002678,0.000431,0.018805
110917000,0.0324,0.013523,0.002678,0.000431,0.019510
110918000,0.0324,0.013523,0.002678,0.000431,0.019392
110919000,0.0324,0.013523,0.002678,0.000431,0.021038
110920000,0.0324,0.013523,0.002678,0.000431,0.017864
110921000,0.0324,0.013523,0.002678,0.000431,0.018334
110922000,0.0324,0.013523,0.002678,0.000431,0.016924
110923000,0.0324,0.013523,0.002678,0.000431,0.017864
110924000,0.0324,0.013523,0.002678,0.000431,0.020450
110925000,0.0324,0.013523,0.002678,0.000431,0.015161
110926000,0.0324,0.013523,0.002678,0.000431,0.015396
110927000,0.0324,0.013523,0.002678,0.000431,0.014926
110928000,0.0324,0.013523,0.002678,0.000431,0.015514
110929000,0.0324,0.013523,0.002678,0.000431,0.014809
110930000,0.0324,0.013523,0.002678,0.000431,0.016336
110931000,0.0324,0.013523,0.002678,0.000431,0.017747
110932000,0.0324,0.013523,0.002678,0.000431,0.014338
110933000,0.0324,0.013523,0.002678,0.000431,0.013398
110934000,0.0324,0.013523,0.002678,0.000431,0.014221
110935000,0.0324,0.013523,0.002678,0.000431,0.013868
110936000,0.0324,0.013523,0.002678,0.000431,0.013986
110937000,0.0324,0.013523,0.002678,0.000431,0.014221
110938000,0.0324,0.013523,0.002678,0.000431,0.013281
110939000,0.0324,0.013523,0.002678,0.000431,0.014221
110940000,0.0324,0.013523,0.002678,0.000431,0.014926
110941000,0.0324,0.013523,0.002678,0.000431,0.012105
110942000,0.0324,0.013523,0.002678,0.000431,0.012928
110943000,0.0324,0.013523,0.002678,0.000431,0.012693
110944000,0.0324,0.013523,0.002678,0.000431,0.013516
110945000,0.0324,0.013523,0.002678,0.000431,0.013633
110946000,0.0324,0.013523,0.002678,0.000431,0.011283
110947000,0.0324,0.013523,0.002678,0.000431,0.008345
110948000,0.0324,0.013523,0.002678,0.000431,0.010695
110949000,0.0324,0.013523,0.002678,0.000431,0.007639
110950000,0.0324,0.013523,0.002678,0.000431,0.007874
110951000,0.0324,0.013523,0.002678,0.000431,0.007874
110952000,0.0324,0.013523,0.002678,0.000431,0.007404
110953000,0.0324,0.013523,0.002678,0.000431,0.007639
110954000,0.0324,0.013523,0.002678,0.000431,0.007757
110955000,0.0324,0.013523,0.002678,0.000431,0.007992
110956000,0.0324,0.013523,0.002678,0.000431,0.007052
110957000,0.0324,0.013523,0.002678,0.000431,0.008227
110958000,0.0324,0.013523,0.002678,0.000431,0.007404
110959000,0.0324,0.013523,0.002678,0.000431,0.007757
110960000,0.0324,0.013523,0.002678,0.000431,0.007757
110961000,0.0324,0.013523,0.002678,0.000431,0.007287
110962000,0.0324,0.013523,0.002678,0.000431,0.008345
110963000,0.0324,0.013523,0.002678,0.000431,0.008462
110964000,0.0324,0.013523,0.002678,0.000431,0.009402
110965000,0.0324,0.013523,0.002678,0.000431,0.004936
110966000,0.0324,0.013523,0.002678,0.000431,0.004936
110967000,0.0324,0.013523,0.002678,0.000431,0.005289
110968000,0.0324,0.013523,0.002678,0.000431,0.004466
110969000,0.0324,0.013523,0.002678,0.000431,0.004349
110970000,0.0324,0.013523,0.002678,0.000431,0.004466
110971000,0.0324,0.013523,0.002678,0.000431,0.004466
110972000,0.0324,0.013523,0.002678,0.000431,0.004113
110973000,0.0324,0.013523,0.002678,0.000431,0.004231
110974000,0.0324,0.013523,0.002678,0.000431,0.004231
110975000,0.0324,0.013523,0.002678,0.000431,0.005876
110976000,0.0324,0.013523,0.002678,0.000431,0.003526
110977000,0.0324,0.013523,0.002678,0.000431,0.005406
110978000,0.0324,0.013523,0.002678,0.000431,0.002468
110979000,0.0324,0.013523,0.002678,0.000431,0.002468
110980000,0.0324,0.013523,0.002678,0.000431,0.002586
110981000,0.0324,0.013523,0.002678,0.000431,0.002586
110982000,0.0324,0.013523,0.002678,0.000431,0.002586
110983000,0.0324,0.013523,0.002678,0.000431,0.002351
110984000,0.0324,0.013523,0.002678,0.000431,0.002586
110985000,0.0324,0.013523,0.002678,0.000431,0.002586
110986000,0.0324,0.013523,0.002678,0.000431,0.002468
110987000,0.0324,0.013523,0.002678,0.000431,0.002586
110988000,0.0324,0.013523,0.002678,0.000431,0.002586
110989000,0.0324,0.013523,0.002678,0.000431,0.003526
110990000,0.0324,0.013523,0.002678,0.000431,0.001528
110991000,0.0324,0.013523,0.002678,0.000431,0.001763
110992000,0.0324,0.013523,0.002678,0.000431,0.001645
110993000,0.0324,0.013523,0.002678,0.000431,0.001645
110994000,0.0324,0.013523,0.002678,0.000431,0.001763
110995000,0.0324,0.013523,0.002678,0.000431,0.001645
110996000,0.0324,0.013523,0.002678,0.000431,0.001763
110997000,0.0324,0.013523,0.002678,0.000431,0.003056
110998000,0.0324,0.013523,0.002678,0.000431,0.000823
110999000,0.0324,0.013523,0.002678,0.000431,0.000823
