Cycle,Area(mm^2),PeakDynamic(W),SubthresholdLeakage(W),GateLeakage(W),RunTimeDynamic(W)
109000000,0.0324,0.013523,0.002678,0.000431,0.060997
109001000,0.0324,0.013523,0.002678,0.000431,0.056531
109002000,0.0324,0.013523,0.002678,0.000431,0.052535
109003000,0.0324,0.013523,0.002678,0.000431,0.052888
109004000,0.0324,0.013523,0.002678,0.000431,0.045836
109005000,0.0324,0.013523,0.002678,0.000431,0.046189
109006000,0.0324,0.013523,0.002678,0.000431,0.039607
109007000,0.0324,0.013523,0.002678,0.000431,0.037844
109008000,0.0324,0.013523,0.002678,0.000431,0.039254
109009000,0.0324,0.013523,0.002678,0.000431,0.038432
109010000,0.0324,0.013523,0.002678,0.000431,0.033143
109011000,0.0324,0.013523,0.002678,0.000431,0.033613
109012000,0.0324,0.013523,0.002678,0.000431,0.032438
109013000,0.0324,0.013523,0.002678,0.000431,0.028324
109014000,0.0324,0.013523,0.002678,0.000431,0.028207
109015000,0.0324,0.013523,0.002678,0.000431,0.026209
109016000,0.0324,0.013523,0.002678,0.000431,0.027149
109017000,0.0324,0.013523,0.002678,0.000431,0.027149
109018000,0.0324,0.013523,0.002678,0.000431,0.024328
109019000,0.0324,0.013523,0.002678,0.000431,0.023153
109020000,0.0324,0.013523,0.002678,0.000431,0.022095
109021000,0.0324,0.013523,0.002678,0.000431,0.019980
109022000,0.0324,0.013523,0.002678,0.000431,0.020685
109023000,0.0324,0.013523,0.002678,0.000431,0.019275
109024000,0.0324,0.013523,0.002678,0.000431,0.021625
109025000,0.0324,0.013523,0.002678,0.000431,0.021860
109026000,0.0324,0.013523,0.002678,0.000431,0.023741
109027000,0.0324,0.013523,0.002678,0.000431,0.015161
109028000,0.0324,0.013523,0.002678,0.000431,0.014456
109029000,0.0324,0.013523,0.002678,0.000431,0.015279
109030000,0.0324,0.013523,0.002678,0.000431,0.013633
109031000,0.0324,0.013523,0.002678,0.000431,0.014456
109032000,0.0324,0.013523,0.002678,0.000431,0.013633
109033000,0.0324,0.013523,0.002678,0.000431,0.013868
109034000,0.0324,0.013523,0.002678,0.000431,0.015044
109035000,0.0324,0.013523,0.002678,0.000431,0.012105
109036000,0.0324,0.013523,0.002678,0.000431,0.012576
109037000,0.0324,0.013523,0.002678,0.000431,0.012693
109038000,0.0324,0.013523,0.002678,0.000431,0.011518
109039000,0.0324,0.013523,0.002678,0.000431,0.013986
109040000,0.0324,0.013523,0.002678,0.000431,0.014338
109041000,0.0324,0.013523,0.002678,0.000431,0.011400
109042000,0.0324,0.013523,0.002678,0.000431,0.011988
109043000,0.0324,0.013523,0.002678,0.000431,0.009872
109044000,0.0324,0.013523,0.002678,0.000431,0.011048
109045000,0.0324,0.013523,0.002678,0.000431,0.008697
109046000,0.0324,0.013523,0.002678,0.000431,0.009872
109047000,0.0324,0.013523,0.002678,0.000431,0.011518
109048000,0.0324,0.013523,0.002678,0.000431,0.007522
109049000,0.0324,0.013523,0.002678,0.000431,0.008227
109050000,0.0324,0.013523,0.002678,0.000431,0.007757
109051000,0.0324,0.013523,0.002678,0.000431,0.007874
109052000,0.0324,0.013523,0.002678,0.000431,0.008227
109053000,0.0324,0.013523,0.002678,0.000431,0.005994
109054000,0.0324,0.013523,0.002678,0.000431,0.006464
109055000,0.0324,0.013523,0.002678,0.000431,0.008815
109056000,0.0324,0.013523,0.002678,0.000431,0.005289
109057000,0.0324,0.013523,0.002678,0.000431,0.005759
109058000,0.0324,0.013523,0.002678,0.000431,0.005289
109059000,0.0324,0.013523,0.002678,0.000431,0.005641
109060000,0.0324,0.013523,0.002678,0.000431,0.005289
109061000,0.0324,0.013523,0.002678,0.000431,0.005289
109062000,0.0324,0.013523,0.002678,0.000431,0.005994
109063000,0.0324,0.013523,0.002678,0.000431,0.004936
109064000,0.0324,0.013523,0.002678,0.000431,0.005876
109065000,0.0324,0.013523,0.002678,0.000431,0.005171
109066000,0.0324,0.013523,0.002678,0.000431,0.005289
109067000,0.0324,0.013523,0.002678,0.000431,0.005876
109068000,0.0324,0.013523,0.002678,0.000431,0.005054
109069000,0.0324,0.013523,0.002678,0.000431,0.007404
109070000,0.0324,0.013523,0.002678,0.000431,0.004701
109071000,0.0324,0.013523,0.002678,0.000431,0.004584
109072000,0.0324,0.013523,0.002678,0.000431,0.004701
109073000,0.0324,0.013523,0.002678,0.000431,0.006464
109074000,0.0324,0.013523,0.002678,0.000431,0.004936
109075000,0.0324,0.013523,0.002678,0.000431,0.002821
109076000,0.0324,0.013523,0.002678,0.000431,0.002351
109077000,0.0324,0.013523,0.002678,0.000431,0.003173
109078000,0.0324,0.013523,0.002678,0.000431,0.002821
109079000,0.0324,0.013523,0.002678,0.000431,0.002468
109080000,0.0324,0.013523,0.002678,0.000431,0.002938
109081000,0.0324,0.013523,0.002678,0.000431,0.002351
109082000,0.0324,0.013523,0.002678,0.000431,0.003173
109083000,0.0324,0.013523,0.002678,0.000431,0.002586
109084000,0.0324,0.013523,0.002678,0.000431,0.002703
109085000,0.0324,0.013523,0.002678,0.000431,0.002938
109086000,0.0324,0.013523,0.002678,0.000431,0.002351
109087000,0.0324,0.013523,0.002678,0.000431,0.003173
109088000,0.0324,0.013523,0.002678,0.000431,0.002351
109089000,0.0324,0.013523,0.002678,0.000431,0.002938
109090000,0.0324,0.013523,0.002678,0.000431,0.002703
109091000,0.0324,0.013523,0.002678,0.000431,0.006111
109092000,0.0324,0.013523,0.002678,0.000431,0.001175
109093000,0.0324,0.013523,0.002678,0.000431,0.000940
109094000,0.0324,0.013523,0.002678,0.000431,0.000823
109095000,0.0324,0.013523,0.002678,0.000431,0.000823
109096000,0.0324,0.013523,0.002678,0.000431,0.000940
109097000,0.0324,0.013523,0.002678,0.000431,0.000940
109098000,0.0324,0.013523,0.002678,0.000431,0.000823
109099000,0.0324,0.013523,0.002678,0.000431,0.000823
109100000,0.0324,0.013523,0.002678,0.000431,0.000940
109101000,0.0324,0.013523,0.002678,0.000431,0.000823
109102000,0.0324,0.013523,0.002678,0.000431,0.000940
109103000,0.0324,0.013523,0.002678,0.000431,0.000823
109104000,0.0324,0.013523,0.002678,0.000431,0.000940
109105000,0.0324,0.013523,0.002678,0.000431,0.000940
109106000,0.0324,0.013523,0.002678,0.000431,0.000823
109107000,0.0324,0.013523,0.002678,0.000431,0.000823
109108000,0.0324,0.013523,0.002678,0.000431,0.000940
109109000,0.0324,0.013523,0.002678,0.000431,0.000940
109110000,0.0324,0.013523,0.002678,0.000431,0.000823
109111000,0.0324,0.013523,0.002678,0.000431,0.000823
109112000,0.0324,0.013523,0.002678,0.000431,0.000940
109113000,0.0324,0.013523,0.002678,0.000431,0.000823
109114000,0.0324,0.013523,0.002678,0.000431,0.000940
109115000,0.0324,0.013523,0.002678,0.000431,0.000823
109116000,0.0324,0.013523,0.002678,0.000431,0.000940
109117000,0.0324,0.013523,0.002678,0.000431,0.000940
109118000,0.0324,0.013523,0.002678,0.000431,0.000705
109119000,0.0324,0.013523,0.002678,0.000431,0.000940
109120000,0.0324,0.013523,0.002678,0.000431,0.000940
109121000,0.0324,0.013523,0.002678,0.000431,0.000940
109122000,0.0324,0.013523,0.002678,0.000431,0.000705
109123000,0.0324,0.013523,0.002678,0.000431,0.000940
109124000,0.0324,0.013523,0.002678,0.000431,0.000940
109125000,0.0324,0.013523,0.002678,0.000431,0.000823
109126000,0.0324,0.013523,0.002678,0.000431,0.000823
109127000,0.0324,0.013523,0.002678,0.000431,0.000940
109128000,0.0324,0.013523,0.002678,0.000431,0.000940
109129000,0.0324,0.013523,0.002678,0.000431,0.000823
109130000,0.0324,0.013523,0.002678,0.000431,0.000823
109131000,0.0324,0.013523,0.002678,0.000431,0.000940
109132000,0.0324,0.013523,0.002678,0.000431,0.000823
109133000,0.0324,0.013523,0.002678,0.000431,0.000940
109134000,0.0324,0.013523,0.002678,0.000431,0.000823
109135000,0.0324,0.013523,0.002678,0.000431,0.002116
109136000,0.0324,0.013523,0.002678,0.000431,0.317444
109137000,0.0324,0.013523,0.002678,0.000431,0.641586
109138000,0.0324,0.013523,0.002678,0.000431,0.260325
109139000,0.0324,0.013523,0.002678,0.000431,0.135863
109140000,0.0324,0.013523,0.002678,0.000431,0.142914
109141000,0.0324,0.013523,0.002678,0.000431,0.617493
109142000,0.0324,0.013523,0.002678,0.000431,0.222833
109143000,0.0324,0.013523,0.002678,0.000431,0.316738
109144000,0.0324,0.013523,0.002678,0.000431,0.253156
109145000,0.0324,0.013523,0.002678,0.000431,0.137626
109146000,0.0324,0.013523,0.002678,0.000431,0.155020
109147000,0.0324,0.013523,0.002678,0.000431,0.171004
109148000,0.0324,0.013523,0.002678,0.000431,0.422866
109149000,0.0324,0.013523,0.002678,0.000431,0.073455
109150000,0.0324,0.013523,0.002678,0.000431,0.062525
109151000,0.0324,0.013523,0.002678,0.000431,0.056531
109152000,0.0324,0.013523,0.002678,0.000431,0.046894
109153000,0.0324,0.013523,0.002678,0.000431,0.038667
109154000,0.0324,0.013523,0.002678,0.000431,0.033613
109155000,0.0324,0.013523,0.002678,0.000431,0.033143
109156000,0.0324,0.013523,0.002678,0.000431,0.030910
109157000,0.0324,0.013523,0.002678,0.000431,0.028794
109158000,0.0324,0.013523,0.002678,0.000431,0.029265
109159000,0.0324,0.013523,0.002678,0.000431,0.023623
109160000,0.0324,0.013523,0.002678,0.000431,0.025151
109161000,0.0324,0.013523,0.002678,0.000431,0.026796
109162000,0.0324,0.013523,0.002678,0.000431,0.019510
109163000,0.0324,0.013523,0.002678,0.000431,0.020802
109164000,0.0324,0.013523,0.002678,0.000431,0.014103
109165000,0.0324,0.013523,0.002678,0.000431,0.014691
109166000,0.0324,0.013523,0.002678,0.000431,0.015161
109167000,0.0324,0.013523,0.002678,0.000431,0.014573
109168000,0.0324,0.013523,0.002678,0.000431,0.014926
109169000,0.0324,0.013523,0.002678,0.000431,0.016336
109170000,0.0324,0.013523,0.002678,0.000431,0.017629
109171000,0.0324,0.013523,0.002678,0.000431,0.011165
109172000,0.0324,0.013523,0.002678,0.000431,0.013046
109173000,0.0324,0.013523,0.002678,0.000431,0.010813
109174000,0.0324,0.013523,0.002678,0.000431,0.009285
109175000,0.0324,0.013523,0.002678,0.000431,0.009402
109176000,0.0324,0.013523,0.002678,0.000431,0.008932
109177000,0.0324,0.013523,0.002678,0.000431,0.009990
109178000,0.0324,0.013523,0.002678,0.000431,0.008227
109179000,0.0324,0.013523,0.002678,0.000431,0.009637
109180000,0.0324,0.013523,0.002678,0.000431,0.008932
109181000,0.0324,0.013523,0.002678,0.000431,0.009637
109182000,0.0324,0.013523,0.002678,0.000431,0.009050
109183000,0.0324,0.013523,0.002678,0.000431,0.008932
109184000,0.0324,0.013523,0.002678,0.000431,0.007874
109185000,0.0324,0.013523,0.002678,0.000431,0.007404
109186000,0.0324,0.013523,0.002678,0.000431,0.007992
109187000,0.0324,0.013523,0.002678,0.000431,0.007287
109188000,0.0324,0.013523,0.002678,0.000431,0.008462
109189000,0.0324,0.013523,0.002678,0.000431,0.007874
109190000,0.0324,0.013523,0.002678,0.000431,0.006934
109191000,0.0324,0.013523,0.002678,0.000431,0.008462
109192000,0.0324,0.013523,0.002678,0.000431,0.005759
109193000,0.0324,0.013523,0.002678,0.000431,0.005876
109194000,0.0324,0.013523,0.002678,0.000431,0.005994
109195000,0.0324,0.013523,0.002678,0.000431,0.005994
109196000,0.0324,0.013523,0.002678,0.000431,0.006699
109197000,0.0324,0.013523,0.002678,0.000431,0.006464
109198000,0.0324,0.013523,0.002678,0.000431,0.005054
109199000,0.0324,0.013523,0.002678,0.000431,0.005054
109200000,0.0324,0.013523,0.002678,0.000431,0.005054
109201000,0.0324,0.013523,0.002678,0.000431,0.006817
109202000,0.0324,0.013523,0.002678,0.000431,0.004231
109203000,0.0324,0.013523,0.002678,0.000431,0.003878
109204000,0.0324,0.013523,0.002678,0.000431,0.004584
109205000,0.0324,0.013523,0.002678,0.000431,0.004466
109206000,0.0324,0.013523,0.002678,0.000431,0.003878
109207000,0.0324,0.013523,0.002678,0.000431,0.004231
109208000,0.0324,0.013523,0.002678,0.000431,0.004231
109209000,0.0324,0.013523,0.002678,0.000431,0.004466
109210000,0.0324,0.013523,0.002678,0.000431,0.005759
109211000,0.0324,0.013523,0.002678,0.000431,0.003291
109212000,0.0324,0.013523,0.002678,0.000431,0.003408
109213000,0.0324,0.013523,0.002678,0.000431,0.003408
109214000,0.0324,0.013523,0.002678,0.000431,0.003408
109215000,0.0324,0.013523,0.002678,0.000431,0.003291
109216000,0.0324,0.013523,0.002678,0.000431,0.003408
109217000,0.0324,0.013523,0.002678,0.000431,0.003291
109218000,0.0324,0.013523,0.002678,0.000431,0.003408
109219000,0.0324,0.013523,0.002678,0.000431,0.003291
109220000,0.0324,0.013523,0.002678,0.000431,0.003291
109221000,0.0324,0.013523,0.002678,0.000431,0.003408
109222000,0.0324,0.013523,0.002678,0.000431,0.003408
109223000,0.0324,0.013523,0.002678,0.000431,0.003173
109224000,0.0324,0.013523,0.002678,0.000431,0.003408
109225000,0.0324,0.013523,0.002678,0.000431,0.003526
109226000,0.0324,0.013523,0.002678,0.000431,0.003056
109227000,0.0324,0.013523,0.002678,0.000431,0.003526
109228000,0.0324,0.013523,0.002678,0.000431,0.003408
109229000,0.0324,0.013523,0.002678,0.000431,0.003173
109230000,0.0324,0.013523,0.002678,0.000431,0.003408
109231000,0.0324,0.013523,0.002678,0.000431,0.003291
109232000,0.0324,0.013523,0.002678,0.000431,0.003526
109233000,0.0324,0.013523,0.002678,0.000431,0.003173
109234000,0.0324,0.013523,0.002678,0.000431,0.003526
109235000,0.0324,0.013523,0.002678,0.000431,0.004584
109236000,0.0324,0.013523,0.002678,0.000431,0.004113
109237000,0.0324,0.013523,0.002678,0.000431,0.002703
109238000,0.0324,0.013523,0.002678,0.000431,0.002233
109239000,0.0324,0.013523,0.002678,0.000431,0.004349
109240000,0.0324,0.013523,0.002678,0.000431,0.003526
109241000,0.0324,0.013523,0.002678,0.000431,0.001645
109242000,0.0324,0.013523,0.002678,0.000431,0.001763
109243000,0.0324,0.013523,0.002678,0.000431,0.001528
109244000,0.0324,0.013523,0.002678,0.000431,0.001880
109245000,0.0324,0.013523,0.002678,0.000431,0.001410
109246000,0.0324,0.013523,0.002678,0.000431,0.001763
109247000,0.0324,0.013523,0.002678,0.000431,0.001763
109248000,0.0324,0.013523,0.002678,0.000431,0.001645
109249000,0.0324,0.013523,0.002678,0.000431,0.001645
109250000,0.0324,0.013523,0.002678,0.000431,0.001645
109251000,0.0324,0.013523,0.002678,0.000431,0.001645
109252000,0.0324,0.013523,0.002678,0.000431,0.001645
109253000,0.0324,0.013523,0.002678,0.000431,0.001880
109254000,0.0324,0.013523,0.002678,0.000431,0.001410
109255000,0.0324,0.013523,0.002678,0.000431,0.001880
109256000,0.0324,0.013523,0.002678,0.000431,0.001410
109257000,0.0324,0.013523,0.002678,0.000431,0.001880
109258000,0.0324,0.013523,0.002678,0.000431,0.001880
109259000,0.0324,0.013523,0.002678,0.000431,0.001410
109260000,0.0324,0.013523,0.002678,0.000431,0.001880
109261000,0.0324,0.013523,0.002678,0.000431,0.001410
109262000,0.0324,0.013523,0.002678,0.000431,0.001880
109263000,0.0324,0.013523,0.002678,0.000431,0.001645
109264000,0.0324,0.013523,0.002678,0.000431,0.001645
109265000,0.0324,0.013523,0.002678,0.000431,0.001645
109266000,0.0324,0.013523,0.002678,0.000431,0.001645
109267000,0.0324,0.013523,0.002678,0.000431,0.001880
109268000,0.0324,0.013523,0.002678,0.000431,0.001410
109269000,0.0324,0.013523,0.002678,0.000431,0.001880
109270000,0.0324,0.013523,0.002678,0.000431,0.001528
109271000,0.0324,0.013523,0.002678,0.000431,0.001763
109272000,0.0324,0.013523,0.002678,0.000431,0.001645
109273000,0.0324,0.013523,0.002678,0.000431,0.001645
109274000,0.0324,0.013523,0.002678,0.000431,0.003761
109275000,0.0324,0.013523,0.002678,0.000431,0.000823
109276000,0.0324,0.013523,0.002678,0.000431,0.000940
109277000,0.0324,0.013523,0.002678,0.000431,0.000705
109278000,0.0324,0.013523,0.002678,0.000431,0.000940
109279000,0.0324,0.013523,0.002678,0.000431,0.000705
109280000,0.0324,0.013523,0.002678,0.000431,0.000940
109281000,0.0324,0.013523,0.002678,0.000431,0.000823
109282000,0.0324,0.013523,0.002678,0.000431,0.000823
109283000,0.0324,0.013523,0.002678,0.000431,0.000940
109284000,0.0324,0.013523,0.002678,0.000431,0.000705
109285000,0.0324,0.013523,0.002678,0.000431,0.000940
109286000,0.0324,0.013523,0.002678,0.000431,0.000823
109287000,0.0324,0.013523,0.002678,0.000431,0.000823
109288000,0.0324,0.013523,0.002678,0.000431,0.000823
109289000,0.0324,0.013523,0.002678,0.000431,0.000823
109290000,0.0324,0.013523,0.002678,0.000431,0.000823
109291000,0.0324,0.013523,0.002678,0.000431,0.000823
109292000,0.0324,0.013523,0.002678,0.000431,0.000940
109293000,0.0324,0.013523,0.002678,0.000431,0.000705
109294000,0.0324,0.013523,0.002678,0.000431,0.000823
109295000,0.0324,0.013523,0.002678,0.000431,0.000823
109296000,0.0324,0.013523,0.002678,0.000431,0.000705
109297000,0.0324,0.013523,0.002678,0.000431,0.000940
109298000,0.0324,0.013523,0.002678,0.000431,0.000705
109299000,0.0324,0.013523,0.002678,0.000431,0.000940
109300000,0.0324,0.013523,0.002678,0.000431,0.000940
109301000,0.0324,0.013523,0.002678,0.000431,0.000705
109302000,0.0324,0.013523,0.002678,0.000431,0.000940
109303000,0.0324,0.013523,0.002678,0.000431,0.000705
109304000,0.0324,0.013523,0.002678,0.000431,0.000940
109305000,0.0324,0.013523,0.002678,0.000431,0.000823
109306000,0.0324,0.013523,0.002678,0.000431,0.000823
109307000,0.0324,0.013523,0.002678,0.000431,0.000940
109308000,0.0324,0.013523,0.002678,0.000431,0.000705
109309000,0.0324,0.013523,0.002678,0.000431,0.000940
109310000,0.0324,0.013523,0.002678,0.000431,0.000823
109311000,0.0324,0.013523,0.002678,0.000431,0.000823
109312000,0.0324,0.013523,0.002678,0.000431,0.000823
109313000,0.0324,0.013523,0.002678,0.000431,0.000823
109314000,0.0324,0.013523,0.002678,0.000431,0.000823
109315000,0.0324,0.013523,0.002678,0.000431,0.000823
109316000,0.0324,0.013523,0.002678,0.000431,0.000940
109317000,0.0324,0.013523,0.002678,0.000431,0.000705
109318000,0.0324,0.013523,0.002678,0.000431,0.000940
109319000,0.0324,0.013523,0.002678,0.000431,0.000823
109320000,0.0324,0.013523,0.002678,0.000431,0.000823
109321000,0.0324,0.013523,0.002678,0.000431,0.000823
109322000,0.0324,0.013523,0.002678,0.000431,0.000823
109323000,0.0324,0.013523,0.002678,0.000431,0.000940
109324000,0.0324,0.013523,0.002678,0.000431,0.000705
109325000,0.0324,0.013523,0.002678,0.000431,0.000940
109326000,0.0324,0.013523,0.002678,0.000431,0.000705
109327000,0.0324,0.013523,0.002678,0.000431,0.000940
109328000,0.0324,0.013523,0.002678,0.000431,0.000823
109329000,0.0324,0.013523,0.002678,0.000431,0.000823
109330000,0.0324,0.013523,0.002678,0.000431,0.000940
109331000,0.0324,0.013523,0.002678,0.000431,0.000705
109332000,0.0324,0.013523,0.002678,0.000431,0.000940
109333000,0.0324,0.013523,0.002678,0.000431,0.000823
109334000,0.0324,0.013523,0.002678,0.000431,0.000823
109335000,0.0324,0.013523,0.002678,0.000431,0.000823
109336000,0.0324,0.013523,0.002678,0.000431,0.000823
109337000,0.0324,0.013523,0.002678,0.000431,0.000940
109338000,0.0324,0.013523,0.002678,0.000431,0.000705
109339000,0.0324,0.013523,0.002678,0.000431,0.000940
109340000,0.0324,0.013523,0.002678,0.000431,0.000823
109341000,0.0324,0.013523,0.002678,0.000431,0.000823
109342000,0.0324,0.013523,0.002678,0.000431,0.000823
109343000,0.0324,0.013523,0.002678,0.000431,0.000823
109344000,0.0324,0.013523,0.002678,0.000431,0.000823
109345000,0.0324,0.013523,0.002678,0.000431,0.000823
109346000,0.0324,0.013523,0.002678,0.000431,0.000823
109347000,0.0324,0.013523,0.002678,0.000431,0.000823
109348000,0.0324,0.013523,0.002678,0.000431,0.000940
109349000,0.0324,0.013523,0.002678,0.000431,0.000823
109350000,0.0324,0.013523,0.002678,0.000431,0.000823
109351000,0.0324,0.013523,0.002678,0.000431,0.000705
109352000,0.0324,0.013523,0.002678,0.000431,0.000940
109353000,0.0324,0.013523,0.002678,0.000431,0.000940
109354000,0.0324,0.013523,0.002678,0.000431,0.000705
109355000,0.0324,0.013523,0.002678,0.000431,0.000940
109356000,0.0324,0.013523,0.002678,0.000431,0.000705
109357000,0.0324,0.013523,0.002678,0.000431,0.000940
109358000,0.0324,0.013523,0.002678,0.000431,0.000823
109359000,0.0324,0.013523,0.002678,0.000431,0.000823
109360000,0.0324,0.013523,0.002678,0.000431,0.000940
109361000,0.0324,0.013523,0.002678,0.000431,0.000705
109362000,0.0324,0.013523,0.002678,0.000431,0.000940
109363000,0.0324,0.013523,0.002678,0.000431,0.000823
109364000,0.0324,0.013523,0.002678,0.000431,0.000823
109365000,0.0324,0.013523,0.002678,0.000431,0.000823
109366000,0.0324,0.013523,0.002678,0.000431,0.000823
109367000,0.0324,0.013523,0.002678,0.000431,0.000823
109368000,0.0324,0.013523,0.002678,0.000431,0.072515
109369000,0.0324,0.013523,0.002678,0.000431,0.512305
109370000,0.0324,0.013523,0.002678,0.000431,0.565428
109371000,0.0324,0.013523,0.002678,0.000431,0.136803
109372000,0.0324,0.013523,0.002678,0.000431,0.133277
109373000,0.0324,0.013523,0.002678,0.000431,0.603977
109374000,0.0324,0.013523,0.002678,0.000431,0.258092
109375000,0.0324,0.013523,0.002678,0.000431,0.226359
109376000,0.0324,0.013523,0.002678,0.000431,0.296876
109377000,0.0324,0.013523,0.002678,0.000431,0.148086
109378000,0.0324,0.013523,0.002678,0.000431,0.137743
109379000,0.0324,0.013523,0.002678,0.000431,0.122229
109380000,0.0324,0.013523,0.002678,0.000431,0.303105
109381000,0.0324,0.013523,0.002678,0.000431,0.311215
109382000,0.0324,0.013523,0.002678,0.000431,0.077334
109383000,0.0324,0.013523,0.002678,0.000431,0.072515
109384000,0.0324,0.013523,0.002678,0.000431,0.066638
109385000,0.0324,0.013523,0.002678,0.000431,0.058529
109386000,0.0324,0.013523,0.002678,0.000431,0.053945
109387000,0.0324,0.013523,0.002678,0.000431,0.041370
109388000,0.0324,0.013523,0.002678,0.000431,0.035729
109389000,0.0324,0.013523,0.002678,0.000431,0.036669
109390000,0.0324,0.013523,0.002678,0.000431,0.030087
109391000,0.0324,0.013523,0.002678,0.000431,0.028677
109392000,0.0324,0.013523,0.002678,0.000431,0.032790
109393000,0.0324,0.013523,0.002678,0.000431,0.023506
109394000,0.0324,0.013523,0.002678,0.000431,0.019862
109395000,0.0324,0.013523,0.002678,0.000431,0.018569
109396000,0.0324,0.013523,0.002678,0.000431,0.020097
109397000,0.0324,0.013523,0.002678,0.000431,0.019040
109398000,0.0324,0.013523,0.002678,0.000431,0.019157
109399000,0.0324,0.013523,0.002678,0.000431,0.017394
109400000,0.0324,0.013523,0.002678,0.000431,0.016571
109401000,0.0324,0.013523,0.002678,0.000431,0.017747
109402000,0.0324,0.013523,0.002678,0.000431,0.014573
109403000,0.0324,0.013523,0.002678,0.000431,0.016336
109404000,0.0324,0.013523,0.002678,0.000431,0.012693
109405000,0.0324,0.013523,0.002678,0.000431,0.014338
109406000,0.0324,0.013523,0.002678,0.000431,0.013868
109407000,0.0324,0.013523,0.002678,0.000431,0.011753
109408000,0.0324,0.013523,0.002678,0.000431,0.011283
109409000,0.0324,0.013523,0.002678,0.000431,0.010225
109410000,0.0324,0.013523,0.002678,0.000431,0.010930
109411000,0.0324,0.013523,0.002678,0.000431,0.010813
109412000,0.0324,0.013523,0.002678,0.000431,0.011048
109413000,0.0324,0.013523,0.002678,0.000431,0.011048
109414000,0.0324,0.013523,0.002678,0.000431,0.010695
109415000,0.0324,0.013523,0.002678,0.000431,0.010695
109416000,0.0324,0.013523,0.002678,0.000431,0.011048
109417000,0.0324,0.013523,0.002678,0.000431,0.010695
109418000,0.0324,0.013523,0.002678,0.000431,0.011635
109419000,0.0324,0.013523,0.002678,0.000431,0.014691
109420000,0.0324,0.013523,0.002678,0.000431,0.008697
109421000,0.0324,0.013523,0.002678,0.000431,0.008345
109422000,0.0324,0.013523,0.002678,0.000431,0.008580
109423000,0.0324,0.013523,0.002678,0.000431,0.008227
109424000,0.0324,0.013523,0.002678,0.000431,0.008345
109425000,0.0324,0.013523,0.002678,0.000431,0.008462
109426000,0.0324,0.013523,0.002678,0.000431,0.008345
109427000,0.0324,0.013523,0.002678,0.000431,0.008697
109428000,0.0324,0.013523,0.002678,0.000431,0.011283
109429000,0.0324,0.013523,0.002678,0.000431,0.007992
109430000,0.0324,0.013523,0.002678,0.000431,0.006111
109431000,0.0324,0.013523,0.002678,0.000431,0.005641
109432000,0.0324,0.013523,0.002678,0.000431,0.005994
109433000,0.0324,0.013523,0.002678,0.000431,0.005759
109434000,0.0324,0.013523,0.002678,0.000431,0.005641
109435000,0.0324,0.013523,0.002678,0.000431,0.005759
109436000,0.0324,0.013523,0.002678,0.000431,0.005759
109437000,0.0324,0.013523,0.002678,0.000431,0.007404
109438000,0.0324,0.013523,0.002678,0.000431,0.004701
109439000,0.0324,0.013523,0.002678,0.000431,0.005289
109440000,0.0324,0.013523,0.002678,0.000431,0.004819
109441000,0.0324,0.013523,0.002678,0.000431,0.004701
109442000,0.0324,0.013523,0.002678,0.000431,0.004701
109443000,0.0324,0.013523,0.002678,0.000431,0.003996
109444000,0.0324,0.013523,0.002678,0.000431,0.004466
109445000,0.0324,0.013523,0.002678,0.000431,0.003878
109446000,0.0324,0.013523,0.002678,0.000431,0.004349
109447000,0.0324,0.013523,0.002678,0.000431,0.004466
109448000,0.0324,0.013523,0.002678,0.000431,0.004113
109449000,0.0324,0.013523,0.002678,0.000431,0.004113
109450000,0.0324,0.013523,0.002678,0.000431,0.004349
109451000,0.0324,0.013523,0.002678,0.000431,0.005759
109452000,0.0324,0.013523,0.002678,0.000431,0.003526
109453000,0.0324,0.013523,0.002678,0.000431,0.001763
109454000,0.0324,0.013523,0.002678,0.000431,0.001528
109455000,0.0324,0.013523,0.002678,0.000431,0.001763
109456000,0.0324,0.013523,0.002678,0.000431,0.001763
109457000,0.0324,0.013523,0.002678,0.000431,0.001528
109458000,0.0324,0.013523,0.002678,0.000431,0.001880
109459000,0.0324,0.013523,0.002678,0.000431,0.001528
109460000,0.0324,0.013523,0.002678,0.000431,0.003408
109461000,0.0324,0.013523,0.002678,0.000431,0.000823
109462000,0.0324,0.013523,0.002678,0.000431,0.000940
109463000,0.0324,0.013523,0.002678,0.000431,0.000705
109464000,0.0324,0.013523,0.002678,0.000431,0.000940
109465000,0.0324,0.013523,0.002678,0.000431,0.000823
109466000,0.0324,0.013523,0.002678,0.000431,0.000823
109467000,0.0324,0.013523,0.002678,0.000431,0.000823
109468000,0.0324,0.013523,0.002678,0.000431,0.000823
109469000,0.0324,0.013523,0.002678,0.000431,0.000940
109470000,0.0324,0.013523,0.002678,0.000431,0.000705
109471000,0.0324,0.013523,0.002678,0.000431,0.000940
109472000,0.0324,0.013523,0.002678,0.000431,0.000823
109473000,0.0324,0.013523,0.002678,0.000431,0.000823
109474000,0.0324,0.013523,0.002678,0.000431,0.000823
109475000,0.0324,0.013523,0.002678,0.000431,0.000823
109476000,0.0324,0.013523,0.002678,0.000431,0.000823
109477000,0.0324,0.013523,0.002678,0.000431,0.000823
109478000,0.0324,0.013523,0.002678,0.000431,0.000823
109479000,0.0324,0.013523,0.002678,0.000431,0.000823
109480000,0.0324,0.013523,0.002678,0.000431,0.000940
109481000,0.0324,0.013523,0.002678,0.000431,0.000823
109482000,0.0324,0.013523,0.002678,0.000431,0.000823
109483000,0.0324,0.013523,0.002678,0.000431,0.000705
109484000,0.0324,0.013523,0.002678,0.000431,0.000940
109485000,0.0324,0.013523,0.002678,0.000431,0.000940
109486000,0.0324,0.013523,0.002678,0.000431,0.000705
109487000,0.0324,0.013523,0.002678,0.000431,0.000940
109488000,0.0324,0.013523,0.002678,0.000431,0.000705
109489000,0.0324,0.013523,0.002678,0.000431,0.000940
109490000,0.0324,0.013523,0.002678,0.000431,0.000823
109491000,0.0324,0.013523,0.002678,0.000431,0.000823
109492000,0.0324,0.013523,0.002678,0.000431,0.000940
109493000,0.0324,0.013523,0.002678,0.000431,0.000705
109494000,0.0324,0.013523,0.002678,0.000431,0.000940
109495000,0.0324,0.013523,0.002678,0.000431,0.000823
109496000,0.0324,0.013523,0.002678,0.000431,0.000823
109497000,0.0324,0.013523,0.002678,0.000431,0.000823
109498000,0.0324,0.013523,0.002678,0.000431,0.000823
109499000,0.0324,0.013523,0.002678,0.000431,0.000823
109500000,0.0324,0.013523,0.002678,0.000431,0.000823
109501000,0.0324,0.013523,0.002678,0.000431,0.000940
109502000,0.0324,0.013523,0.002678,0.000431,0.000705
109503000,0.0324,0.013523,0.002678,0.000431,0.000940
109504000,0.0324,0.013523,0.002678,0.000431,0.000823
109505000,0.0324,0.013523,0.002678,0.000431,0.000823
109506000,0.0324,0.013523,0.002678,0.000431,0.000705
109507000,0.0324,0.013523,0.002678,0.000431,0.000940
109508000,0.0324,0.013523,0.002678,0.000431,0.000940
109509000,0.0324,0.013523,0.002678,0.000431,0.000705
109510000,0.0324,0.013523,0.002678,0.000431,0.000940
109511000,0.0324,0.013523,0.002678,0.000431,0.000705
109512000,0.0324,0.013523,0.002678,0.000431,0.000940
109513000,0.0324,0.013523,0.002678,0.000431,0.000823
109514000,0.0324,0.013523,0.002678,0.000431,0.000823
109515000,0.0324,0.013523,0.002678,0.000431,0.000940
109516000,0.0324,0.013523,0.002678,0.000431,0.000705
109517000,0.0324,0.013523,0.002678,0.000431,0.070869
109518000,0.0324,0.013523,0.002678,0.000431,0.477399
109519000,0.0324,0.013523,0.002678,0.000431,0.612557
109520000,0.0324,0.013523,0.002678,0.000431,0.131161
109521000,0.0324,0.013523,0.002678,0.000431,0.134922
109522000,0.0324,0.013523,0.002678,0.000431,0.524763
109523000,0.0324,0.013523,0.002678,0.000431,0.244341
109524000,0.0324,0.013523,0.002678,0.000431,0.241755
109525000,0.0324,0.013523,0.002678,0.000431,0.314035
109526000,0.0324,0.013523,0.002678,0.000431,0.146440
109527000,0.0324,0.013523,0.002678,0.000431,0.144442
109528000,0.0324,0.013523,0.002678,0.000431,0.163717
109529000,0.0324,0.013523,0.002678,0.000431,0.146323
109530000,0.0324,0.013523,0.002678,0.000431,0.420633
109531000,0.0324,0.013523,0.002678,0.000431,0.047716
109532000,0.0324,0.013523,0.002678,0.000431,0.025856
109533000,0.0324,0.013523,0.002678,0.000431,0.021625
109534000,0.0324,0.013523,0.002678,0.000431,0.023036
109535000,0.0324,0.013523,0.002678,0.000431,0.021273
109536000,0.0324,0.013523,0.002678,0.000431,0.022095
109537000,0.0324,0.013523,0.002678,0.000431,0.017042
109538000,0.0324,0.013523,0.002678,0.000431,0.018922
109539000,0.0324,0.013523,0.002678,0.000431,0.018687
109540000,0.0324,0.013523,0.002678,0.000431,0.017512
109541000,0.0324,0.013523,0.002678,0.000431,0.017747
109542000,0.0324,0.013523,0.002678,0.000431,0.016454
109543000,0.0324,0.013523,0.002678,0.000431,0.013516
109544000,0.0324,0.013523,0.002678,0.000431,0.013163
109545000,0.0324,0.013523,0.002678,0.000431,0.013751
109546000,0.0324,0.013523,0.002678,0.000431,0.014691
109547000,0.0324,0.013523,0.002678,0.000431,0.015631
109548000,0.0324,0.013523,0.002678,0.000431,0.012693
109549000,0.0324,0.013523,0.002678,0.000431,0.011518
109550000,0.0324,0.013523,0.002678,0.000431,0.010107
109551000,0.0324,0.013523,0.002678,0.000431,0.009872
109552000,0.0324,0.013523,0.002678,0.000431,0.009637
109553000,0.0324,0.013523,0.002678,0.000431,0.008109
109554000,0.0324,0.013523,0.002678,0.000431,0.008462
109555000,0.0324,0.013523,0.002678,0.000431,0.005171
109556000,0.0324,0.013523,0.002678,0.000431,0.006582
109557000,0.0324,0.013523,0.002678,0.000431,0.005641
109558000,0.0324,0.013523,0.002678,0.000431,0.006229
109559000,0.0324,0.013523,0.002678,0.000431,0.007169
109560000,0.0324,0.013523,0.002678,0.000431,0.004819
109561000,0.0324,0.013523,0.002678,0.000431,0.005641
109562000,0.0324,0.013523,0.002678,0.000431,0.004584
109563000,0.0324,0.013523,0.002678,0.000431,0.005641
109564000,0.0324,0.013523,0.002678,0.000431,0.006229
109565000,0.0324,0.013523,0.002678,0.000431,0.004113
109566000,0.0324,0.013523,0.002678,0.000431,0.004231
109567000,0.0324,0.013523,0.002678,0.000431,0.004231
109568000,0.0324,0.013523,0.002678,0.000431,0.006699
109569000,0.0324,0.013523,0.002678,0.000431,0.003173
109570000,0.0324,0.013523,0.002678,0.000431,0.003291
109571000,0.0324,0.013523,0.002678,0.000431,0.003056
109572000,0.0324,0.013523,0.002678,0.000431,0.003643
109573000,0.0324,0.013523,0.002678,0.000431,0.002821
109574000,0.0324,0.013523,0.002678,0.000431,0.003643
109575000,0.0324,0.013523,0.002678,0.000431,0.002938
109576000,0.0324,0.013523,0.002678,0.000431,0.003408
109577000,0.0324,0.013523,0.002678,0.000431,0.003291
109578000,0.0324,0.013523,0.002678,0.000431,0.003056
109579000,0.0324,0.013523,0.002678,0.000431,0.003526
109580000,0.0324,0.013523,0.002678,0.000431,0.003056
109581000,0.0324,0.013523,0.002678,0.000431,0.003526
109582000,0.0324,0.013523,0.002678,0.000431,0.002938
109583000,0.0324,0.013523,0.002678,0.000431,0.003408
109584000,0.0324,0.013523,0.002678,0.000431,0.003408
109585000,0.0324,0.013523,0.002678,0.000431,0.003056
109586000,0.0324,0.013523,0.002678,0.000431,0.003291
109587000,0.0324,0.013523,0.002678,0.000431,0.003173
109588000,0.0324,0.013523,0.002678,0.000431,0.003291
109589000,0.0324,0.013523,0.002678,0.000431,0.003291
109590000,0.0324,0.013523,0.002678,0.000431,0.003291
109591000,0.0324,0.013523,0.002678,0.000431,0.002938
109592000,0.0324,0.013523,0.002678,0.000431,0.003643
109593000,0.0324,0.013523,0.002678,0.000431,0.002938
109594000,0.0324,0.013523,0.002678,0.000431,0.003173
109595000,0.0324,0.013523,0.002678,0.000431,0.003056
109596000,0.0324,0.013523,0.002678,0.000431,0.003173
109597000,0.0324,0.013523,0.002678,0.000431,0.003173
109598000,0.0324,0.013523,0.002678,0.000431,0.003291
109599000,0.0324,0.013523,0.002678,0.000431,0.003291
109600000,0.0324,0.013523,0.002678,0.000431,0.003408
109601000,0.0324,0.013523,0.002678,0.000431,0.002938
109602000,0.0324,0.013523,0.002678,0.000431,0.003526
109603000,0.0324,0.013523,0.002678,0.000431,0.002938
109604000,0.0324,0.013523,0.002678,0.000431,0.003408
109605000,0.0324,0.013523,0.002678,0.000431,0.003408
109606000,0.0324,0.013523,0.002678,0.000431,0.002938
109607000,0.0324,0.013523,0.002678,0.000431,0.003526
109608000,0.0324,0.013523,0.002678,0.000431,0.003056
109609000,0.0324,0.013523,0.002678,0.000431,0.003526
109610000,0.0324,0.013523,0.002678,0.000431,0.003173
109611000,0.0324,0.013523,0.002678,0.000431,0.003173
109612000,0.0324,0.013523,0.002678,0.000431,0.003291
109613000,0.0324,0.013523,0.002678,0.000431,0.003291
109614000,0.0324,0.013523,0.002678,0.000431,0.003056
109615000,0.0324,0.013523,0.002678,0.000431,0.003291
109616000,0.0324,0.013523,0.002678,0.000431,0.003408
109617000,0.0324,0.013523,0.002678,0.000431,0.002938
109618000,0.0324,0.013523,0.002678,0.000431,0.003761
109619000,0.0324,0.013523,0.002678,0.000431,0.002703
109620000,0.0324,0.013523,0.002678,0.000431,0.003643
109621000,0.0324,0.013523,0.002678,0.000431,0.002938
109622000,0.0324,0.013523,0.002678,0.000431,0.003408
109623000,0.0324,0.013523,0.002678,0.000431,0.003408
109624000,0.0324,0.013523,0.002678,0.000431,0.002938
109625000,0.0324,0.013523,0.002678,0.000431,0.003643
109626000,0.0324,0.013523,0.002678,0.000431,0.002938
109627000,0.0324,0.013523,0.002678,0.000431,0.003526
109628000,0.0324,0.013523,0.002678,0.000431,0.003291
109629000,0.0324,0.013523,0.002678,0.000431,0.003056
109630000,0.0324,0.013523,0.002678,0.000431,0.003291
109631000,0.0324,0.013523,0.002678,0.000431,0.003173
109632000,0.0324,0.013523,0.002678,0.000431,0.003408
109633000,0.0324,0.013523,0.002678,0.000431,0.003173
109634000,0.0324,0.013523,0.002678,0.000431,0.003173
109635000,0.0324,0.013523,0.002678,0.000431,0.003173
109636000,0.0324,0.013523,0.002678,0.000431,0.003291
109637000,0.0324,0.013523,0.002678,0.000431,0.003056
109638000,0.0324,0.013523,0.002678,0.000431,0.003643
109639000,0.0324,0.013523,0.002678,0.000431,0.002703
109640000,0.0324,0.013523,0.002678,0.000431,0.003643
109641000,0.0324,0.013523,0.002678,0.000431,0.003056
109642000,0.0324,0.013523,0.002678,0.000431,0.003291
109643000,0.0324,0.013523,0.002678,0.000431,0.003526
109644000,0.0324,0.013523,0.002678,0.000431,0.002821
109645000,0.0324,0.013523,0.002678,0.000431,0.003761
109646000,0.0324,0.013523,0.002678,0.000431,0.003761
109647000,0.0324,0.013523,0.002678,0.000431,0.003173
109648000,0.0324,0.013523,0.002678,0.000431,0.002586
109649000,0.0324,0.013523,0.002678,0.000431,0.002116
109650000,0.0324,0.013523,0.002678,0.000431,0.002586
109651000,0.0324,0.013523,0.002678,0.000431,0.002468
109652000,0.0324,0.013523,0.002678,0.000431,0.002233
109653000,0.0324,0.013523,0.002678,0.000431,0.002468
109654000,0.0324,0.013523,0.002678,0.000431,0.002116
109655000,0.0324,0.013523,0.002678,0.000431,0.002703
109656000,0.0324,0.013523,0.002678,0.000431,0.002586
109657000,0.0324,0.013523,0.002678,0.000431,0.002116
109658000,0.0324,0.013523,0.002678,0.000431,0.002586
109659000,0.0324,0.013523,0.002678,0.000431,0.002233
109660000,0.0324,0.013523,0.002678,0.000431,0.002586
109661000,0.0324,0.013523,0.002678,0.000431,0.002468
109662000,0.0324,0.013523,0.002678,0.000431,0.002116
109663000,0.0324,0.013523,0.002678,0.000431,0.002586
109664000,0.0324,0.013523,0.002678,0.000431,0.002468
109665000,0.0324,0.013523,0.002678,0.000431,0.002233
109666000,0.0324,0.013523,0.002678,0.000431,0.002586
109667000,0.0324,0.013523,0.002678,0.000431,0.002351
109668000,0.0324,0.013523,0.002678,0.000431,0.002351
109669000,0.0324,0.013523,0.002678,0.000431,0.002468
109670000,0.0324,0.013523,0.002678,0.000431,0.002233
109671000,0.0324,0.013523,0.002678,0.000431,0.002703
109672000,0.0324,0.013523,0.002678,0.000431,0.002233
109673000,0.0324,0.013523,0.002678,0.000431,0.002586
109674000,0.0324,0.013523,0.002678,0.000431,0.002116
109675000,0.0324,0.013523,0.002678,0.000431,0.002586
109676000,0.0324,0.013523,0.002678,0.000431,0.002703
109677000,0.0324,0.013523,0.002678,0.000431,0.001880
109678000,0.0324,0.013523,0.002678,0.000431,0.003408
109679000,0.0324,0.013523,0.002678,0.000431,0.001880
109680000,0.0324,0.013523,0.002678,0.000431,0.000823
109681000,0.0324,0.013523,0.002678,0.000431,0.000823
109682000,0.0324,0.013523,0.002678,0.000431,0.000823
109683000,0.0324,0.013523,0.002678,0.000431,0.000823
109684000,0.0324,0.013523,0.002678,0.000431,0.000940
109685000,0.0324,0.013523,0.002678,0.000431,0.000823
109686000,0.0324,0.013523,0.002678,0.000431,0.000823
109687000,0.0324,0.013523,0.002678,0.000431,0.000705
109688000,0.0324,0.013523,0.002678,0.000431,0.000940
109689000,0.0324,0.013523,0.002678,0.000431,0.000940
109690000,0.0324,0.013523,0.002678,0.000431,0.000705
109691000,0.0324,0.013523,0.002678,0.000431,0.000940
109692000,0.0324,0.013523,0.002678,0.000431,0.000705
109693000,0.0324,0.013523,0.002678,0.000431,0.000940
109694000,0.0324,0.013523,0.002678,0.000431,0.000823
109695000,0.0324,0.013523,0.002678,0.000431,0.000823
109696000,0.0324,0.013523,0.002678,0.000431,0.000940
109697000,0.0324,0.013523,0.002678,0.000431,0.000705
109698000,0.0324,0.013523,0.002678,0.000431,0.000940
109699000,0.0324,0.013523,0.002678,0.000431,0.000823
109700000,0.0324,0.013523,0.002678,0.000431,0.000823
109701000,0.0324,0.013523,0.002678,0.000431,0.000823
109702000,0.0324,0.013523,0.002678,0.000431,0.000823
109703000,0.0324,0.013523,0.002678,0.000431,0.000823
109704000,0.0324,0.013523,0.002678,0.000431,0.000823
109705000,0.0324,0.013523,0.002678,0.000431,0.000940
109706000,0.0324,0.013523,0.002678,0.000431,0.000705
109707000,0.0324,0.013523,0.002678,0.000431,0.000940
109708000,0.0324,0.013523,0.002678,0.000431,0.000823
109709000,0.0324,0.013523,0.002678,0.000431,0.000823
109710000,0.0324,0.013523,0.002678,0.000431,0.000705
109711000,0.0324,0.013523,0.002678,0.000431,0.000940
109712000,0.0324,0.013523,0.002678,0.000431,0.000940
109713000,0.0324,0.013523,0.002678,0.000431,0.000705
109714000,0.0324,0.013523,0.002678,0.000431,0.000940
109715000,0.0324,0.013523,0.002678,0.000431,0.000705
109716000,0.0324,0.013523,0.002678,0.000431,0.000823
109717000,0.0324,0.013523,0.002678,0.000431,0.000823
109718000,0.0324,0.013523,0.002678,0.000431,0.000940
109719000,0.0324,0.013523,0.002678,0.000431,0.000705
109720000,0.0324,0.013523,0.002678,0.000431,0.000823
109721000,0.0324,0.013523,0.002678,0.000431,0.000940
109722000,0.0324,0.013523,0.002678,0.000431,0.000823
109723000,0.0324,0.013523,0.002678,0.000431,0.000823
109724000,0.0324,0.013523,0.002678,0.000431,0.000823
109725000,0.0324,0.013523,0.002678,0.000431,0.000705
109726000,0.0324,0.013523,0.002678,0.000431,0.000940
109727000,0.0324,0.013523,0.002678,0.000431,0.000940
109728000,0.0324,0.013523,0.002678,0.000431,0.000705
109729000,0.0324,0.013523,0.002678,0.000431,0.000940
109730000,0.0324,0.013523,0.002678,0.000431,0.000705
109731000,0.0324,0.013523,0.002678,0.000431,0.000940
109732000,0.0324,0.013523,0.002678,0.000431,0.000940
109733000,0.0324,0.013523,0.002678,0.000431,0.000705
109734000,0.0324,0.013523,0.002678,0.000431,0.000940
109735000,0.0324,0.013523,0.002678,0.000431,0.000705
109736000,0.0324,0.013523,0.002678,0.000431,0.000940
109737000,0.0324,0.013523,0.002678,0.000431,0.000823
109738000,0.0324,0.013523,0.002678,0.000431,0.000823
109739000,0.0324,0.013523,0.002678,0.000431,0.000823
109740000,0.0324,0.013523,0.002678,0.000431,0.000823
109741000,0.0324,0.013523,0.002678,0.000431,0.000940
109742000,0.0324,0.013523,0.002678,0.000431,0.000705
109743000,0.0324,0.013523,0.002678,0.000431,0.000940
109744000,0.0324,0.013523,0.002678,0.000431,0.000823
109745000,0.0324,0.013523,0.002678,0.000431,0.000823
109746000,0.0324,0.013523,0.002678,0.000431,0.000823
109747000,0.0324,0.013523,0.002678,0.000431,0.000823
109748000,0.0324,0.013523,0.002678,0.000431,0.000823
109749000,0.0324,0.013523,0.002678,0.000431,0.000823
109750000,0.0324,0.013523,0.002678,0.000431,0.000940
109751000,0.0324,0.013523,0.002678,0.000431,0.000705
109752000,0.0324,0.013523,0.002678,0.000431,0.000940
109753000,0.0324,0.013523,0.002678,0.000431,0.000705
109754000,0.0324,0.013523,0.002678,0.000431,0.000940
109755000,0.0324,0.013523,0.002678,0.000431,0.000940
109756000,0.0324,0.013523,0.002678,0.000431,0.000705
109757000,0.0324,0.013523,0.002678,0.000431,0.000940
109758000,0.0324,0.013523,0.002678,0.000431,0.000705
109759000,0.0324,0.013523,0.002678,0.000431,0.000940
109760000,0.0324,0.013523,0.002678,0.000431,0.000823
109761000,0.0324,0.013523,0.002678,0.000431,0.000823
109762000,0.0324,0.013523,0.002678,0.000431,0.000823
109763000,0.0324,0.013523,0.002678,0.000431,0.000823
109764000,0.0324,0.013523,0.002678,0.000431,0.000940
109765000,0.0324,0.013523,0.002678,0.000431,0.000705
109766000,0.0324,0.013523,0.002678,0.000431,0.000940
109767000,0.0324,0.013523,0.002678,0.000431,0.000823
109768000,0.0324,0.013523,0.002678,0.000431,0.000823
109769000,0.0324,0.013523,0.002678,0.000431,0.000823
109770000,0.0324,0.013523,0.002678,0.000431,0.000823
109771000,0.0324,0.013523,0.002678,0.000431,0.000823
109772000,0.0324,0.013523,0.002678,0.000431,0.000823
109773000,0.0324,0.013523,0.002678,0.000431,0.000823
109774000,0.0324,0.013523,0.002678,0.000431,0.000823
109775000,0.0324,0.013523,0.002678,0.000431,0.000940
109776000,0.0324,0.013523,0.002678,0.000431,0.000823
109777000,0.0324,0.013523,0.002678,0.000431,0.000823
109778000,0.0324,0.013523,0.002678,0.000431,0.000705
109779000,0.0324,0.013523,0.002678,0.000431,0.000940
109780000,0.0324,0.013523,0.002678,0.000431,0.000940
109781000,0.0324,0.013523,0.002678,0.000431,0.000705
109782000,0.0324,0.013523,0.002678,0.000431,0.000940
109783000,0.0324,0.013523,0.002678,0.000431,0.000705
109784000,0.0324,0.013523,0.002678,0.000431,0.000940
109785000,0.0324,0.013523,0.002678,0.000431,0.000823
109786000,0.0324,0.013523,0.002678,0.000431,0.000823
109787000,0.0324,0.013523,0.002678,0.000431,0.000940
109788000,0.0324,0.013523,0.002678,0.000431,0.000705
109789000,0.0324,0.013523,0.002678,0.000431,0.000940
109790000,0.0324,0.013523,0.002678,0.000431,0.000823
109791000,0.0324,0.013523,0.002678,0.000431,0.000823
109792000,0.0324,0.013523,0.002678,0.000431,0.000823
109793000,0.0324,0.013523,0.002678,0.000431,0.000823
109794000,0.0324,0.013523,0.002678,0.000431,0.000940
109795000,0.0324,0.013523,0.002678,0.000431,0.000705
109796000,0.0324,0.013523,0.002678,0.000431,0.000940
109797000,0.0324,0.013523,0.002678,0.000431,0.000823
109798000,0.0324,0.013523,0.002678,0.000431,0.000823
109799000,0.0324,0.013523,0.002678,0.000431,0.000823
109800000,0.0324,0.013523,0.002678,0.000431,0.000823
109801000,0.0324,0.013523,0.002678,0.000431,0.000705
109802000,0.0324,0.013523,0.002678,0.000431,0.000940
109803000,0.0324,0.013523,0.002678,0.000431,0.000940
109804000,0.0324,0.013523,0.002678,0.000431,0.000705
109805000,0.0324,0.013523,0.002678,0.000431,0.000940
109806000,0.0324,0.013523,0.002678,0.000431,0.000705
109807000,0.0324,0.013523,0.002678,0.000431,0.000940
109808000,0.0324,0.013523,0.002678,0.000431,0.000940
109809000,0.0324,0.013523,0.002678,0.000431,0.000705
109810000,0.0324,0.013523,0.002678,0.000431,0.000940
109811000,0.0324,0.013523,0.002678,0.000431,0.000705
109812000,0.0324,0.013523,0.002678,0.000431,0.000940
109813000,0.0324,0.013523,0.002678,0.000431,0.000823
109814000,0.0324,0.013523,0.002678,0.000431,0.000823
109815000,0.0324,0.013523,0.002678,0.000431,0.000823
109816000,0.0324,0.013523,0.002678,0.000431,0.000823
109817000,0.0324,0.013523,0.002678,0.000431,0.000940
109818000,0.0324,0.013523,0.002678,0.000431,0.000705
109819000,0.0324,0.013523,0.002678,0.000431,0.000940
109820000,0.0324,0.013523,0.002678,0.000431,0.000705
109821000,0.0324,0.013523,0.002678,0.000431,0.000823
109822000,0.0324,0.013523,0.002678,0.000431,0.000940
109823000,0.0324,0.013523,0.002678,0.000431,0.000823
109824000,0.0324,0.013523,0.002678,0.000431,0.000823
109825000,0.0324,0.013523,0.002678,0.000431,0.000823
109826000,0.0324,0.013523,0.002678,0.000431,0.000940
109827000,0.0324,0.013523,0.002678,0.000431,0.000705
109828000,0.0324,0.013523,0.002678,0.000431,0.000940
109829000,0.0324,0.013523,0.002678,0.000431,0.000823
109830000,0.0324,0.013523,0.002678,0.000431,0.000823
109831000,0.0324,0.013523,0.002678,0.000431,0.000823
109832000,0.0324,0.013523,0.002678,0.000431,0.000823
109833000,0.0324,0.013523,0.002678,0.000431,0.000940
109834000,0.0324,0.013523,0.002678,0.000431,0.000705
109835000,0.0324,0.013523,0.002678,0.000431,0.000940
109836000,0.0324,0.013523,0.002678,0.000431,0.000823
109837000,0.0324,0.013523,0.002678,0.000431,0.000823
109838000,0.0324,0.013523,0.002678,0.000431,0.000823
109839000,0.0324,0.013523,0.002678,0.000431,0.000823
109840000,0.0324,0.013523,0.002678,0.000431,0.000823
109841000,0.0324,0.013523,0.002678,0.000431,0.000823
109842000,0.0324,0.013523,0.002678,0.000431,0.000940
109843000,0.0324,0.013523,0.002678,0.000431,0.000823
109844000,0.0324,0.013523,0.002678,0.000431,0.000823
109845000,0.0324,0.013523,0.002678,0.000431,0.000705
109846000,0.0324,0.013523,0.002678,0.000431,0.000940
109847000,0.0324,0.013523,0.002678,0.000431,0.000940
109848000,0.0324,0.013523,0.002678,0.000431,0.000705
109849000,0.0324,0.013523,0.002678,0.000431,0.000940
109850000,0.0324,0.013523,0.002678,0.000431,0.000705
109851000,0.0324,0.013523,0.002678,0.000431,0.000940
109852000,0.0324,0.013523,0.002678,0.000431,0.000823
109853000,0.0324,0.013523,0.002678,0.000431,0.000823
109854000,0.0324,0.013523,0.002678,0.000431,0.000823
109855000,0.0324,0.013523,0.002678,0.000431,0.000823
109856000,0.0324,0.013523,0.002678,0.000431,0.000940
109857000,0.0324,0.013523,0.002678,0.000431,0.000823
109858000,0.0324,0.013523,0.002678,0.000431,0.000823
109859000,0.0324,0.013523,0.002678,0.000431,0.000823
109860000,0.0324,0.013523,0.002678,0.000431,0.000823
109861000,0.0324,0.013523,0.002678,0.000431,0.000823
109862000,0.0324,0.013523,0.002678,0.000431,0.000823
109863000,0.0324,0.013523,0.002678,0.000431,0.000940
109864000,0.0324,0.013523,0.002678,0.000431,0.000705
109865000,0.0324,0.013523,0.002678,0.000431,0.000823
109866000,0.0324,0.013523,0.002678,0.000431,0.000940
109867000,0.0324,0.013523,0.002678,0.000431,0.000823
109868000,0.0324,0.013523,0.002678,0.000431,0.000823
109869000,0.0324,0.013523,0.002678,0.000431,0.000823
109870000,0.0324,0.013523,0.002678,0.000431,0.000705
109871000,0.0324,0.013523,0.002678,0.000431,0.000940
109872000,0.0324,0.013523,0.002678,0.000431,0.000940
109873000,0.0324,0.013523,0.002678,0.000431,0.000705
109874000,0.0324,0.013523,0.002678,0.000431,0.000940
109875000,0.0324,0.013523,0.002678,0.000431,0.000705
109876000,0.0324,0.013523,0.002678,0.000431,0.000940
109877000,0.0324,0.013523,0.002678,0.000431,0.000940
109878000,0.0324,0.013523,0.002678,0.000431,0.000705
109879000,0.0324,0.013523,0.002678,0.000431,0.000940
109880000,0.0324,0.013523,0.002678,0.000431,0.000705
109881000,0.0324,0.013523,0.002678,0.000431,0.000940
109882000,0.0324,0.013523,0.002678,0.000431,0.000823
109883000,0.0324,0.013523,0.002678,0.000431,0.000823
109884000,0.0324,0.013523,0.002678,0.000431,0.000823
109885000,0.0324,0.013523,0.002678,0.000431,0.000823
109886000,0.0324,0.013523,0.002678,0.000431,0.000940
109887000,0.0324,0.013523,0.002678,0.000431,0.000705
109888000,0.0324,0.013523,0.002678,0.000431,0.000940
109889000,0.0324,0.013523,0.002678,0.000431,0.000823
109890000,0.0324,0.013523,0.002678,0.000431,0.000823
109891000,0.0324,0.013523,0.002678,0.000431,0.000823
109892000,0.0324,0.013523,0.002678,0.000431,0.000823
109893000,0.0324,0.013523,0.002678,0.000431,0.000823
109894000,0.0324,0.013523,0.002678,0.000431,0.000823
109895000,0.0324,0.013523,0.002678,0.000431,0.000940
109896000,0.0324,0.013523,0.002678,0.000431,0.000705
109897000,0.0324,0.013523,0.002678,0.000431,0.000940
109898000,0.0324,0.013523,0.002678,0.000431,0.000705
109899000,0.0324,0.013523,0.002678,0.000431,0.000940
109900000,0.0324,0.013523,0.002678,0.000431,0.000940
109901000,0.0324,0.013523,0.002678,0.000431,0.000705
109902000,0.0324,0.013523,0.002678,0.000431,0.000940
109903000,0.0324,0.013523,0.002678,0.000431,0.000705
109904000,0.0324,0.013523,0.002678,0.000431,0.000940
109905000,0.0324,0.013523,0.002678,0.000431,0.000823
109906000,0.0324,0.013523,0.002678,0.000431,0.000823
109907000,0.0324,0.013523,0.002678,0.000431,0.000823
109908000,0.0324,0.013523,0.002678,0.000431,0.000823
109909000,0.0324,0.013523,0.002678,0.000431,0.000940
109910000,0.0324,0.013523,0.002678,0.000431,0.000705
109911000,0.0324,0.013523,0.002678,0.000431,0.000940
109912000,0.0324,0.013523,0.002678,0.000431,0.000823
109913000,0.0324,0.013523,0.002678,0.000431,0.000705
109914000,0.0324,0.013523,0.002678,0.000431,0.000940
109915000,0.0324,0.013523,0.002678,0.000431,0.000823
109916000,0.0324,0.013523,0.002678,0.000431,0.000823
109917000,0.0324,0.013523,0.002678,0.000431,0.000823
109918000,0.0324,0.013523,0.002678,0.000431,0.000823
109919000,0.0324,0.013523,0.002678,0.000431,0.000823
109920000,0.0324,0.013523,0.002678,0.000431,0.000940
109921000,0.0324,0.013523,0.002678,0.000431,0.000705
109922000,0.0324,0.013523,0.002678,0.000431,0.000940
109923000,0.0324,0.013523,0.002678,0.000431,0.000705
109924000,0.0324,0.013523,0.002678,0.000431,0.000940
109925000,0.0324,0.013523,0.002678,0.000431,0.000940
109926000,0.0324,0.013523,0.002678,0.000431,0.000705
109927000,0.0324,0.013523,0.002678,0.000431,0.000940
109928000,0.0324,0.013523,0.002678,0.000431,0.000705
109929000,0.0324,0.013523,0.002678,0.000431,0.000940
109930000,0.0324,0.013523,0.002678,0.000431,0.000823
109931000,0.0324,0.013523,0.002678,0.000431,0.000823
109932000,0.0324,0.013523,0.002678,0.000431,0.000823
109933000,0.0324,0.013523,0.002678,0.000431,0.000823
109934000,0.0324,0.013523,0.002678,0.000431,0.000940
109935000,0.0324,0.013523,0.002678,0.000431,0.000705
109936000,0.0324,0.013523,0.002678,0.000431,0.000940
109937000,0.0324,0.013523,0.002678,0.000431,0.000823
109938000,0.0324,0.013523,0.002678,0.000431,0.000823
109939000,0.0324,0.013523,0.002678,0.000431,0.000823
109940000,0.0324,0.013523,0.002678,0.000431,0.000823
109941000,0.0324,0.013523,0.002678,0.000431,0.000823
109942000,0.0324,0.013523,0.002678,0.000431,0.000823
109943000,0.0324,0.013523,0.002678,0.000431,0.000940
109944000,0.0324,0.013523,0.002678,0.000431,0.000823
109945000,0.0324,0.013523,0.002678,0.000431,0.000823
109946000,0.0324,0.013523,0.002678,0.000431,0.000705
109947000,0.0324,0.013523,0.002678,0.000431,0.000940
109948000,0.0324,0.013523,0.002678,0.000431,0.000940
109949000,0.0324,0.013523,0.002678,0.000431,0.000705
109950000,0.0324,0.013523,0.002678,0.000431,0.000940
109951000,0.0324,0.013523,0.002678,0.000431,0.000705
109952000,0.0324,0.013523,0.002678,0.000431,0.000940
109953000,0.0324,0.013523,0.002678,0.000431,0.000823
109954000,0.0324,0.013523,0.002678,0.000431,0.000823
109955000,0.0324,0.013523,0.002678,0.000431,0.000823
109956000,0.0324,0.013523,0.002678,0.000431,0.000823
109957000,0.0324,0.013523,0.002678,0.000431,0.000940
109958000,0.0324,0.013523,0.002678,0.000431,0.000823
109959000,0.0324,0.013523,0.002678,0.000431,0.000823
109960000,0.0324,0.013523,0.002678,0.000431,0.000823
109961000,0.0324,0.013523,0.002678,0.000431,0.000823
109962000,0.0324,0.013523,0.002678,0.000431,0.000823
109963000,0.0324,0.013523,0.002678,0.000431,0.000823
109964000,0.0324,0.013523,0.002678,0.000431,0.000940
109965000,0.0324,0.013523,0.002678,0.000431,0.000705
109966000,0.0324,0.013523,0.002678,0.000431,0.000823
109967000,0.0324,0.013523,0.002678,0.000431,0.000940
109968000,0.0324,0.013523,0.002678,0.000431,0.000823
109969000,0.0324,0.013523,0.002678,0.000431,0.000823
109970000,0.0324,0.013523,0.002678,0.000431,0.000823
109971000,0.0324,0.013523,0.002678,0.000431,0.000823
109972000,0.0324,0.013523,0.002678,0.000431,0.000823
109973000,0.0324,0.013523,0.002678,0.000431,0.000823
109974000,0.0324,0.013523,0.002678,0.000431,0.000823
109975000,0.0324,0.013523,0.002678,0.000431,0.000940
109976000,0.0324,0.013523,0.002678,0.000431,0.000705
109977000,0.0324,0.013523,0.002678,0.000431,0.000823
109978000,0.0324,0.013523,0.002678,0.000431,0.000940
109979000,0.0324,0.013523,0.002678,0.000431,0.000823
109980000,0.0324,0.013523,0.002678,0.000431,0.000823
109981000,0.0324,0.013523,0.002678,0.000431,0.000823
109982000,0.0324,0.013523,0.002678,0.000431,0.000705
109983000,0.0324,0.013523,0.002678,0.000431,0.000940
109984000,0.0324,0.013523,0.002678,0.000431,0.000940
109985000,0.0324,0.013523,0.002678,0.000431,0.000823
109986000,0.0324,0.013523,0.002678,0.000431,0.000823
109987000,0.0324,0.013523,0.002678,0.000431,0.000705
109988000,0.0324,0.013523,0.002678,0.000431,0.000940
109989000,0.0324,0.013523,0.002678,0.000431,0.000940
109990000,0.0324,0.013523,0.002678,0.000431,0.000705
109991000,0.0324,0.013523,0.002678,0.000431,0.000940
109992000,0.0324,0.013523,0.002678,0.000431,0.000705
109993000,0.0324,0.013523,0.002678,0.000431,0.000940
109994000,0.0324,0.013523,0.002678,0.000431,0.000823
109995000,0.0324,0.013523,0.002678,0.000431,0.000823
109996000,0.0324,0.013523,0.002678,0.000431,0.000823
109997000,0.0324,0.013523,0.002678,0.000431,0.000823
109998000,0.0324,0.013523,0.002678,0.000431,0.000940
109999000,0.0324,0.013523,0.002678,0.000431,0.000823
