Cycle,Area(mm^2),PeakDynamic(W),SubthresholdLeakage(W),GateLeakage(W),RunTimeDynamic(W)
81000000,0.0324,0.013523,0.002678,0.000431,0.003526
81001000,0.0324,0.013523,0.002678,0.000431,0.003408
81002000,0.0324,0.013523,0.002678,0.000431,0.003056
81003000,0.0324,0.013523,0.002678,0.000431,0.003643
81004000,0.0324,0.013523,0.002678,0.000431,0.003291
81005000,0.0324,0.013523,0.002678,0.000431,0.003291
81006000,0.0324,0.013523,0.002678,0.000431,0.003526
81007000,0.0324,0.013523,0.002678,0.000431,0.003056
81008000,0.0324,0.013523,0.002678,0.000431,0.003643
81009000,0.0324,0.013523,0.002678,0.000431,0.003291
81010000,0.0324,0.013523,0.002678,0.000431,0.003173
81011000,0.0324,0.013523,0.002678,0.000431,0.005171
81012000,0.0324,0.013523,0.002678,0.000431,0.002586
81013000,0.0324,0.013523,0.002678,0.000431,0.002351
81014000,0.0324,0.013523,0.002678,0.000431,0.002703
81015000,0.0324,0.013523,0.002678,0.000431,0.002233
81016000,0.0324,0.013523,0.002678,0.000431,0.002703
81017000,0.0324,0.013523,0.002678,0.000431,0.002586
81018000,0.0324,0.013523,0.002678,0.000431,0.002351
81019000,0.0324,0.013523,0.002678,0.000431,0.002703
81020000,0.0324,0.013523,0.002678,0.000431,0.002468
81021000,0.0324,0.013523,0.002678,0.000431,0.002586
81022000,0.0324,0.013523,0.002678,0.000431,0.002468
81023000,0.0324,0.013523,0.002678,0.000431,0.002468
81024000,0.0324,0.013523,0.002678,0.000431,0.002586
81025000,0.0324,0.013523,0.002678,0.000431,0.002468
81026000,0.0324,0.013523,0.002678,0.000431,0.002586
81027000,0.0324,0.013523,0.002678,0.000431,0.002468
81028000,0.0324,0.013523,0.002678,0.000431,0.002703
81029000,0.0324,0.013523,0.002678,0.000431,0.002233
81030000,0.0324,0.013523,0.002678,0.000431,0.002703
81031000,0.0324,0.013523,0.002678,0.000431,0.002586
81032000,0.0324,0.013523,0.002678,0.000431,0.002468
81033000,0.0324,0.013523,0.002678,0.000431,0.002468
81034000,0.0324,0.013523,0.002678,0.000431,0.002468
81035000,0.0324,0.013523,0.002678,0.000431,0.002821
81036000,0.0324,0.013523,0.002678,0.000431,0.002233
81037000,0.0324,0.013523,0.002678,0.000431,0.002703
81038000,0.0324,0.013523,0.002678,0.000431,0.002351
81039000,0.0324,0.013523,0.002678,0.000431,0.002586
81040000,0.0324,0.013523,0.002678,0.000431,0.002703
81041000,0.0324,0.013523,0.002678,0.000431,0.002351
81042000,0.0324,0.013523,0.002678,0.000431,0.002703
81043000,0.0324,0.013523,0.002678,0.000431,0.002468
81044000,0.0324,0.013523,0.002678,0.000431,0.002468
81045000,0.0324,0.013523,0.002678,0.000431,0.002586
81046000,0.0324,0.013523,0.002678,0.000431,0.003878
81047000,0.0324,0.013523,0.002678,0.000431,0.001645
81048000,0.0324,0.013523,0.002678,0.000431,0.001645
81049000,0.0324,0.013523,0.002678,0.000431,0.001763
81050000,0.0324,0.013523,0.002678,0.000431,0.001763
81051000,0.0324,0.013523,0.002678,0.000431,0.001763
81052000,0.0324,0.013523,0.002678,0.000431,0.001528
81053000,0.0324,0.013523,0.002678,0.000431,0.001763
81054000,0.0324,0.013523,0.002678,0.000431,0.001763
81055000,0.0324,0.013523,0.002678,0.000431,0.001763
81056000,0.0324,0.013523,0.002678,0.000431,0.001645
81057000,0.0324,0.013523,0.002678,0.000431,0.001763
81058000,0.0324,0.013523,0.002678,0.000431,0.001645
81059000,0.0324,0.013523,0.002678,0.000431,0.002586
81060000,0.0324,0.013523,0.002678,0.000431,0.001998
81061000,0.0324,0.013523,0.002678,0.000431,0.000940
81062000,0.0324,0.013523,0.002678,0.000431,0.000940
81063000,0.0324,0.013523,0.002678,0.000431,0.000705
81064000,0.0324,0.013523,0.002678,0.000431,0.201678
81065000,0.0324,0.013523,0.002678,0.000431,0.546741
81066000,0.0324,0.013523,0.002678,0.000431,0.432856
81067000,0.0324,0.013523,0.002678,0.000431,0.132572
81068000,0.0324,0.013523,0.002678,0.000431,0.133042
81069000,0.0324,0.013523,0.002678,0.000431,0.577063
81070000,0.0324,0.013523,0.002678,0.000431,0.241873
81071000,0.0324,0.013523,0.002678,0.000431,0.300402
81072000,0.0324,0.013523,0.002678,0.000431,0.291352
81073000,0.0324,0.013523,0.002678,0.000431,0.136685
81074000,0.0324,0.013523,0.002678,0.000431,0.177820
81075000,0.0324,0.013523,0.002678,0.000431,0.083798
81076000,0.0324,0.013523,0.002678,0.000431,0.476577
81077000,0.0324,0.013523,0.002678,0.000431,0.113415
81078000,0.0324,0.013523,0.002678,0.000431,0.058647
81079000,0.0324,0.013523,0.002678,0.000431,0.051595
81080000,0.0324,0.013523,0.002678,0.000431,0.042193
81081000,0.0324,0.013523,0.002678,0.000431,0.035964
81082000,0.0324,0.013523,0.002678,0.000431,0.033496
81083000,0.0324,0.013523,0.002678,0.000431,0.029617
81084000,0.0324,0.013523,0.002678,0.000431,0.029382
81085000,0.0324,0.013523,0.002678,0.000431,0.027149
81086000,0.0324,0.013523,0.002678,0.000431,0.025974
81087000,0.0324,0.013523,0.002678,0.000431,0.026796
81088000,0.0324,0.013523,0.002678,0.000431,0.023858
81089000,0.0324,0.013523,0.002678,0.000431,0.024798
81090000,0.0324,0.013523,0.002678,0.000431,0.022095
81091000,0.0324,0.013523,0.002678,0.000431,0.020332
81092000,0.0324,0.013523,0.002678,0.000431,0.017864
81093000,0.0324,0.013523,0.002678,0.000431,0.020097
81094000,0.0324,0.013523,0.002678,0.000431,0.016807
81095000,0.0324,0.013523,0.002678,0.000431,0.022448
81096000,0.0324,0.013523,0.002678,0.000431,0.013163
81097000,0.0324,0.013523,0.002678,0.000431,0.011753
81098000,0.0324,0.013523,0.002678,0.000431,0.012928
81099000,0.0324,0.013523,0.002678,0.000431,0.011988
81100000,0.0324,0.013523,0.002678,0.000431,0.011518
81101000,0.0324,0.013523,0.002678,0.000431,0.009167
81102000,0.0324,0.013523,0.002678,0.000431,0.007287
81103000,0.0324,0.013523,0.002678,0.000431,0.008932
81104000,0.0324,0.013523,0.002678,0.000431,0.003996
81105000,0.0324,0.013523,0.002678,0.000431,0.003996
81106000,0.0324,0.013523,0.002678,0.000431,0.003761
81107000,0.0324,0.013523,0.002678,0.000431,0.005994
81108000,0.0324,0.013523,0.002678,0.000431,0.003643
81109000,0.0324,0.013523,0.002678,0.000431,0.002468
81110000,0.0324,0.013523,0.002678,0.000431,0.004466
81111000,0.0324,0.013523,0.002678,0.000431,0.000940
81112000,0.0324,0.013523,0.002678,0.000431,0.000705
81113000,0.0324,0.013523,0.002678,0.000431,0.000940
81114000,0.0324,0.013523,0.002678,0.000431,0.000705
81115000,0.0324,0.013523,0.002678,0.000431,0.000940
81116000,0.0324,0.013523,0.002678,0.000431,0.000823
81117000,0.0324,0.013523,0.002678,0.000431,0.000823
81118000,0.0324,0.013523,0.002678,0.000431,0.000940
81119000,0.0324,0.013523,0.002678,0.000431,0.000705
81120000,0.0324,0.013523,0.002678,0.000431,0.000940
81121000,0.0324,0.013523,0.002678,0.000431,0.000823
81122000,0.0324,0.013523,0.002678,0.000431,0.000823
81123000,0.0324,0.013523,0.002678,0.000431,0.000823
81124000,0.0324,0.013523,0.002678,0.000431,0.000823
81125000,0.0324,0.013523,0.002678,0.000431,0.000823
81126000,0.0324,0.013523,0.002678,0.000431,0.000823
81127000,0.0324,0.013523,0.002678,0.000431,0.000940
81128000,0.0324,0.013523,0.002678,0.000431,0.000705
81129000,0.0324,0.013523,0.002678,0.000431,0.000823
81130000,0.0324,0.013523,0.002678,0.000431,0.000940
81131000,0.0324,0.013523,0.002678,0.000431,0.000823
81132000,0.0324,0.013523,0.002678,0.000431,0.000823
81133000,0.0324,0.013523,0.002678,0.000431,0.000823
81134000,0.0324,0.013523,0.002678,0.000431,0.000823
81135000,0.0324,0.013523,0.002678,0.000431,0.000823
81136000,0.0324,0.013523,0.002678,0.000431,0.000940
81137000,0.0324,0.013523,0.002678,0.000431,0.000823
81138000,0.0324,0.013523,0.002678,0.000431,0.000823
81139000,0.0324,0.013523,0.002678,0.000431,0.000705
81140000,0.0324,0.013523,0.002678,0.000431,0.000940
81141000,0.0324,0.013523,0.002678,0.000431,0.000940
81142000,0.0324,0.013523,0.002678,0.000431,0.000705
81143000,0.0324,0.013523,0.002678,0.000431,0.000940
81144000,0.0324,0.013523,0.002678,0.000431,0.000705
81145000,0.0324,0.013523,0.002678,0.000431,0.000940
81146000,0.0324,0.013523,0.002678,0.000431,0.000823
81147000,0.0324,0.013523,0.002678,0.000431,0.000823
81148000,0.0324,0.013523,0.002678,0.000431,0.000823
81149000,0.0324,0.013523,0.002678,0.000431,0.000823
81150000,0.0324,0.013523,0.002678,0.000431,0.000940
81151000,0.0324,0.013523,0.002678,0.000431,0.000823
81152000,0.0324,0.013523,0.002678,0.000431,0.000823
81153000,0.0324,0.013523,0.002678,0.000431,0.000823
81154000,0.0324,0.013523,0.002678,0.000431,0.000823
81155000,0.0324,0.013523,0.002678,0.000431,0.000823
81156000,0.0324,0.013523,0.002678,0.000431,0.000823
81157000,0.0324,0.013523,0.002678,0.000431,0.000823
81158000,0.0324,0.013523,0.002678,0.000431,0.000823
81159000,0.0324,0.013523,0.002678,0.000431,0.000940
81160000,0.0324,0.013523,0.002678,0.000431,0.000705
81161000,0.0324,0.013523,0.002678,0.000431,0.000940
81162000,0.0324,0.013523,0.002678,0.000431,0.000705
81163000,0.0324,0.013523,0.002678,0.000431,0.000940
81164000,0.0324,0.013523,0.002678,0.000431,0.000823
81165000,0.0324,0.013523,0.002678,0.000431,0.000823
81166000,0.0324,0.013523,0.002678,0.000431,0.000940
81167000,0.0324,0.013523,0.002678,0.000431,0.000705
81168000,0.0324,0.013523,0.002678,0.000431,0.000940
81169000,0.0324,0.013523,0.002678,0.000431,0.000823
81170000,0.0324,0.013523,0.002678,0.000431,0.000823
81171000,0.0324,0.013523,0.002678,0.000431,0.000823
81172000,0.0324,0.013523,0.002678,0.000431,0.000823
81173000,0.0324,0.013523,0.002678,0.000431,0.000823
81174000,0.0324,0.013523,0.002678,0.000431,0.000823
81175000,0.0324,0.013523,0.002678,0.000431,0.000940
81176000,0.0324,0.013523,0.002678,0.000431,0.000823
81177000,0.0324,0.013523,0.002678,0.000431,0.000823
81178000,0.0324,0.013523,0.002678,0.000431,0.000823
81179000,0.0324,0.013523,0.002678,0.000431,0.000823
81180000,0.0324,0.013523,0.002678,0.000431,0.000823
81181000,0.0324,0.013523,0.002678,0.000431,0.000823
81182000,0.0324,0.013523,0.002678,0.000431,0.000823
81183000,0.0324,0.013523,0.002678,0.000431,0.015161
81184000,0.0324,0.013523,0.002678,0.000431,0.490563
81185000,0.0324,0.013523,0.002678,0.000431,0.608091
81186000,0.0324,0.013523,0.002678,0.000431,0.133982
81187000,0.0324,0.013523,0.002678,0.000431,0.131632
81188000,0.0324,0.013523,0.002678,0.000431,0.221776
81189000,0.0324,0.013523,0.002678,0.000431,0.519357
81190000,0.0324,0.013523,0.002678,0.000431,0.243283
81191000,0.0324,0.013523,0.002678,0.000431,0.317914
81192000,0.0324,0.013523,0.002678,0.000431,0.218602
81193000,0.0324,0.013523,0.002678,0.000431,0.148203
81194000,0.0324,0.013523,0.002678,0.000431,0.142562
81195000,0.0324,0.013523,0.002678,0.000431,0.167008
81196000,0.0324,0.013523,0.002678,0.000431,0.423101
81197000,0.0324,0.013523,0.002678,0.000431,0.104953
81198000,0.0324,0.013523,0.002678,0.000431,0.080037
81199000,0.0324,0.013523,0.002678,0.000431,0.069342
81200000,0.0324,0.013523,0.002678,0.000431,0.056414
81201000,0.0324,0.013523,0.002678,0.000431,0.053123
81202000,0.0324,0.013523,0.002678,0.000431,0.042898
81203000,0.0324,0.013523,0.002678,0.000431,0.034788
81204000,0.0324,0.013523,0.002678,0.000431,0.036199
81205000,0.0324,0.013523,0.002678,0.000431,0.027972
81206000,0.0324,0.013523,0.002678,0.000431,0.027149
81207000,0.0324,0.013523,0.002678,0.000431,0.026326
81208000,0.0324,0.013523,0.002678,0.000431,0.022213
81209000,0.0324,0.013523,0.002678,0.000431,0.019157
81210000,0.0324,0.013523,0.002678,0.000431,0.017277
81211000,0.0324,0.013523,0.002678,0.000431,0.014338
81212000,0.0324,0.013523,0.002678,0.000431,0.015749
81213000,0.0324,0.013523,0.002678,0.000431,0.014456
81214000,0.0324,0.013523,0.002678,0.000431,0.016454
81215000,0.0324,0.013523,0.002678,0.000431,0.015161
81216000,0.0324,0.013523,0.002678,0.000431,0.013516
81217000,0.0324,0.013523,0.002678,0.000431,0.015984
81218000,0.0324,0.013523,0.002678,0.000431,0.012811
81219000,0.0324,0.013523,0.002678,0.000431,0.010813
81220000,0.0324,0.013523,0.002678,0.000431,0.011048
81221000,0.0324,0.013523,0.002678,0.000431,0.011165
81222000,0.0324,0.013523,0.002678,0.000431,0.011870
81223000,0.0324,0.013523,0.002678,0.000431,0.008580
81224000,0.0324,0.013523,0.002678,0.000431,0.008345
81225000,0.0324,0.013523,0.002678,0.000431,0.010460
81226000,0.0324,0.013523,0.002678,0.000431,0.010930
81227000,0.0324,0.013523,0.002678,0.000431,0.007639
81228000,0.0324,0.013523,0.002678,0.000431,0.007992
81229000,0.0324,0.013523,0.002678,0.000431,0.005171
81230000,0.0324,0.013523,0.002678,0.000431,0.006464
81231000,0.0324,0.013523,0.002678,0.000431,0.003878
81232000,0.0324,0.013523,0.002678,0.000431,0.004349
81233000,0.0324,0.013523,0.002678,0.000431,0.003878
81234000,0.0324,0.013523,0.002678,0.000431,0.004349
81235000,0.0324,0.013523,0.002678,0.000431,0.003996
81236000,0.0324,0.013523,0.002678,0.000431,0.003996
81237000,0.0324,0.013523,0.002678,0.000431,0.004466
81238000,0.0324,0.013523,0.002678,0.000431,0.003878
81239000,0.0324,0.013523,0.002678,0.000431,0.004231
81240000,0.0324,0.013523,0.002678,0.000431,0.004584
81241000,0.0324,0.013523,0.002678,0.000431,0.003643
81242000,0.0324,0.013523,0.002678,0.000431,0.004231
81243000,0.0324,0.013523,0.002678,0.000431,0.005524
81244000,0.0324,0.013523,0.002678,0.000431,0.003056
81245000,0.0324,0.013523,0.002678,0.000431,0.003408
81246000,0.0324,0.013523,0.002678,0.000431,0.005054
81247000,0.0324,0.013523,0.002678,0.000431,0.002468
81248000,0.0324,0.013523,0.002678,0.000431,0.002586
81249000,0.0324,0.013523,0.002678,0.000431,0.002116
81250000,0.0324,0.013523,0.002678,0.000431,0.002468
81251000,0.0324,0.013523,0.002678,0.000431,0.002703
81252000,0.0324,0.013523,0.002678,0.000431,0.001998
81253000,0.0324,0.013523,0.002678,0.000431,0.003408
81254000,0.0324,0.013523,0.002678,0.000431,0.002703
81255000,0.0324,0.013523,0.002678,0.000431,0.001293
81256000,0.0324,0.013523,0.002678,0.000431,0.001763
81257000,0.0324,0.013523,0.002678,0.000431,0.001410
81258000,0.0324,0.013523,0.002678,0.000431,0.001645
81259000,0.0324,0.013523,0.002678,0.000431,0.001645
81260000,0.0324,0.013523,0.002678,0.000431,0.001410
81261000,0.0324,0.013523,0.002678,0.000431,0.001410
81262000,0.0324,0.013523,0.002678,0.000431,0.001880
81263000,0.0324,0.013523,0.002678,0.000431,0.001410
81264000,0.0324,0.013523,0.002678,0.000431,0.001410
81265000,0.0324,0.013523,0.002678,0.000431,0.001645
81266000,0.0324,0.013523,0.002678,0.000431,0.001645
81267000,0.0324,0.013523,0.002678,0.000431,0.001410
81268000,0.0324,0.013523,0.002678,0.000431,0.001645
81269000,0.0324,0.013523,0.002678,0.000431,0.001410
81270000,0.0324,0.013523,0.002678,0.000431,0.001645
81271000,0.0324,0.013523,0.002678,0.000431,0.001410
81272000,0.0324,0.013523,0.002678,0.000431,0.001645
81273000,0.0324,0.013523,0.002678,0.000431,0.001645
81274000,0.0324,0.013523,0.002678,0.000431,0.001410
81275000,0.0324,0.013523,0.002678,0.000431,0.001645
81276000,0.0324,0.013523,0.002678,0.000431,0.001528
81277000,0.0324,0.013523,0.002678,0.000431,0.001528
81278000,0.0324,0.013523,0.002678,0.000431,0.001880
81279000,0.0324,0.013523,0.002678,0.000431,0.001645
81280000,0.0324,0.013523,0.002678,0.000431,0.001410
81281000,0.0324,0.013523,0.002678,0.000431,0.001645
81282000,0.0324,0.013523,0.002678,0.000431,0.001528
81283000,0.0324,0.013523,0.002678,0.000431,0.001645
81284000,0.0324,0.013523,0.002678,0.000431,0.001763
81285000,0.0324,0.013523,0.002678,0.000431,0.001410
81286000,0.0324,0.013523,0.002678,0.000431,0.001645
81287000,0.0324,0.013523,0.002678,0.000431,0.001645
81288000,0.0324,0.013523,0.002678,0.000431,0.001645
81289000,0.0324,0.013523,0.002678,0.000431,0.001645
81290000,0.0324,0.013523,0.002678,0.000431,0.001645
81291000,0.0324,0.013523,0.002678,0.000431,0.001410
81292000,0.0324,0.013523,0.002678,0.000431,0.001645
81293000,0.0324,0.013523,0.002678,0.000431,0.001645
81294000,0.0324,0.013523,0.002678,0.000431,0.001645
81295000,0.0324,0.013523,0.002678,0.000431,0.001645
81296000,0.0324,0.013523,0.002678,0.000431,0.001645
81297000,0.0324,0.013523,0.002678,0.000431,0.001410
81298000,0.0324,0.013523,0.002678,0.000431,0.001645
81299000,0.0324,0.013523,0.002678,0.000431,0.001645
81300000,0.0324,0.013523,0.002678,0.000431,0.001880
81301000,0.0324,0.013523,0.002678,0.000431,0.000940
81302000,0.0324,0.013523,0.002678,0.000431,0.000823
81303000,0.0324,0.013523,0.002678,0.000431,0.000940
81304000,0.0324,0.013523,0.002678,0.000431,0.000940
81305000,0.0324,0.013523,0.002678,0.000431,0.000705
81306000,0.0324,0.013523,0.002678,0.000431,0.000940
81307000,0.0324,0.013523,0.002678,0.000431,0.000940
81308000,0.0324,0.013523,0.002678,0.000431,0.000940
81309000,0.0324,0.013523,0.002678,0.000431,0.000705
81310000,0.0324,0.013523,0.002678,0.000431,0.000940
81311000,0.0324,0.013523,0.002678,0.000431,0.000940
81312000,0.0324,0.013523,0.002678,0.000431,0.000823
81313000,0.0324,0.013523,0.002678,0.000431,0.000823
81314000,0.0324,0.013523,0.002678,0.000431,0.000940
81315000,0.0324,0.013523,0.002678,0.000431,0.000940
81316000,0.0324,0.013523,0.002678,0.000431,0.000823
81317000,0.0324,0.013523,0.002678,0.000431,0.000823
81318000,0.0324,0.013523,0.002678,0.000431,0.000940
81319000,0.0324,0.013523,0.002678,0.000431,0.000823
81320000,0.0324,0.013523,0.002678,0.000431,0.000940
81321000,0.0324,0.013523,0.002678,0.000431,0.000823
81322000,0.0324,0.013523,0.002678,0.000431,0.000940
81323000,0.0324,0.013523,0.002678,0.000431,0.000823
81324000,0.0324,0.013523,0.002678,0.000431,0.000823
81325000,0.0324,0.013523,0.002678,0.000431,0.000940
81326000,0.0324,0.013523,0.002678,0.000431,0.000940
81327000,0.0324,0.013523,0.002678,0.000431,0.000940
81328000,0.0324,0.013523,0.002678,0.000431,0.000705
81329000,0.0324,0.013523,0.002678,0.000431,0.000940
81330000,0.0324,0.013523,0.002678,0.000431,0.000940
81331000,0.0324,0.013523,0.002678,0.000431,0.000823
81332000,0.0324,0.013523,0.002678,0.000431,0.000823
81333000,0.0324,0.013523,0.002678,0.000431,0.000940
81334000,0.0324,0.013523,0.002678,0.000431,0.000823
81335000,0.0324,0.013523,0.002678,0.000431,0.000940
81336000,0.0324,0.013523,0.002678,0.000431,0.000823
81337000,0.0324,0.013523,0.002678,0.000431,0.000940
81338000,0.0324,0.013523,0.002678,0.000431,0.000823
81339000,0.0324,0.013523,0.002678,0.000431,0.000823
81340000,0.0324,0.013523,0.002678,0.000431,0.000940
81341000,0.0324,0.013523,0.002678,0.000431,0.000940
81342000,0.0324,0.013523,0.002678,0.000431,0.000823
81343000,0.0324,0.013523,0.002678,0.000431,0.000823
81344000,0.0324,0.013523,0.002678,0.000431,0.000940
81345000,0.0324,0.013523,0.002678,0.000431,0.000940
81346000,0.0324,0.013523,0.002678,0.000431,0.000705
81347000,0.0324,0.013523,0.002678,0.000431,0.000940
81348000,0.0324,0.013523,0.002678,0.000431,0.000940
81349000,0.0324,0.013523,0.002678,0.000431,0.000940
81350000,0.0324,0.013523,0.002678,0.000431,0.000823
81351000,0.0324,0.013523,0.002678,0.000431,0.000823
81352000,0.0324,0.013523,0.002678,0.000431,0.000940
81353000,0.0324,0.013523,0.002678,0.000431,0.000823
81354000,0.0324,0.013523,0.002678,0.000431,0.000940
81355000,0.0324,0.013523,0.002678,0.000431,0.000823
81356000,0.0324,0.013523,0.002678,0.000431,0.000940
81357000,0.0324,0.013523,0.002678,0.000431,0.000823
81358000,0.0324,0.013523,0.002678,0.000431,0.000823
81359000,0.0324,0.013523,0.002678,0.000431,0.000940
81360000,0.0324,0.013523,0.002678,0.000431,0.000940
81361000,0.0324,0.013523,0.002678,0.000431,0.000823
81362000,0.0324,0.013523,0.002678,0.000431,0.015749
81363000,0.0324,0.013523,0.002678,0.000431,0.531110
81364000,0.0324,0.013523,0.002678,0.000431,0.601039
81365000,0.0324,0.013523,0.002678,0.000431,0.133042
81366000,0.0324,0.013523,0.002678,0.000431,0.133042
81367000,0.0324,0.013523,0.002678,0.000431,0.426745
81368000,0.0324,0.013523,0.002678,0.000431,0.323673
81369000,0.0324,0.013523,0.002678,0.000431,0.236467
81370000,0.0324,0.013523,0.002678,0.000431,0.296524
81371000,0.0324,0.013523,0.002678,0.000431,0.177938
81372000,0.0324,0.013523,0.002678,0.000431,0.137273
81373000,0.0324,0.013523,0.002678,0.000431,0.187105
81374000,0.0324,0.013523,0.002678,0.000431,0.098606
81375000,0.0324,0.013523,0.002678,0.000431,0.467292
81376000,0.0324,0.013523,0.002678,0.000431,0.063348
81377000,0.0324,0.013523,0.002678,0.000431,0.038079
81378000,0.0324,0.013523,0.002678,0.000431,0.029852
81379000,0.0324,0.013523,0.002678,0.000431,0.024093
81380000,0.0324,0.013523,0.002678,0.000431,0.021273
81381000,0.0324,0.013523,0.002678,0.000431,0.017042
81382000,0.0324,0.013523,0.002678,0.000431,0.016454
81383000,0.0324,0.013523,0.002678,0.000431,0.014573
81384000,0.0324,0.013523,0.002678,0.000431,0.013751
81385000,0.0324,0.013523,0.002678,0.000431,0.011165
81386000,0.0324,0.013523,0.002678,0.000431,0.013046
81387000,0.0324,0.013523,0.002678,0.000431,0.009755
81388000,0.0324,0.013523,0.002678,0.000431,0.009050
81389000,0.0324,0.013523,0.002678,0.000431,0.009285
81390000,0.0324,0.013523,0.002678,0.000431,0.008815
81391000,0.0324,0.013523,0.002678,0.000431,0.008697
81392000,0.0324,0.013523,0.002678,0.000431,0.013163
81393000,0.0324,0.013523,0.002678,0.000431,0.008227
81394000,0.0324,0.013523,0.002678,0.000431,0.008227
81395000,0.0324,0.013523,0.002678,0.000431,0.005876
81396000,0.0324,0.013523,0.002678,0.000431,0.005876
81397000,0.0324,0.013523,0.002678,0.000431,0.006111
81398000,0.0324,0.013523,0.002678,0.000431,0.005641
81399000,0.0324,0.013523,0.002678,0.000431,0.007992
81400000,0.0324,0.013523,0.002678,0.000431,0.004819
81401000,0.0324,0.013523,0.002678,0.000431,0.004936
81402000,0.0324,0.013523,0.002678,0.000431,0.005289
81403000,0.0324,0.013523,0.002678,0.000431,0.004701
81404000,0.0324,0.013523,0.002678,0.000431,0.005054
81405000,0.0324,0.013523,0.002678,0.000431,0.005994
81406000,0.0324,0.013523,0.002678,0.000431,0.006582
81407000,0.0324,0.013523,0.002678,0.000431,0.002468
81408000,0.0324,0.013523,0.002678,0.000431,0.002468
81409000,0.0324,0.013523,0.002678,0.000431,0.002703
81410000,0.0324,0.013523,0.002678,0.000431,0.002351
81411000,0.0324,0.013523,0.002678,0.000431,0.002468
81412000,0.0324,0.013523,0.002678,0.000431,0.002586
81413000,0.0324,0.013523,0.002678,0.000431,0.002586
81414000,0.0324,0.013523,0.002678,0.000431,0.002351
81415000,0.0324,0.013523,0.002678,0.000431,0.002586
81416000,0.0324,0.013523,0.002678,0.000431,0.002351
81417000,0.0324,0.013523,0.002678,0.000431,0.002586
81418000,0.0324,0.013523,0.002678,0.000431,0.002703
81419000,0.0324,0.013523,0.002678,0.000431,0.002468
81420000,0.0324,0.013523,0.002678,0.000431,0.004113
81421000,0.0324,0.013523,0.002678,0.000431,0.001528
81422000,0.0324,0.013523,0.002678,0.000431,0.001763
81423000,0.0324,0.013523,0.002678,0.000431,0.001528
81424000,0.0324,0.013523,0.002678,0.000431,0.001763
81425000,0.0324,0.013523,0.002678,0.000431,0.001763
81426000,0.0324,0.013523,0.002678,0.000431,0.001528
81427000,0.0324,0.013523,0.002678,0.000431,0.001763
81428000,0.0324,0.013523,0.002678,0.000431,0.001528
81429000,0.0324,0.013523,0.002678,0.000431,0.001880
81430000,0.0324,0.013523,0.002678,0.000431,0.001528
81431000,0.0324,0.013523,0.002678,0.000431,0.001645
81432000,0.0324,0.013523,0.002678,0.000431,0.001880
81433000,0.0324,0.013523,0.002678,0.000431,0.001528
81434000,0.0324,0.013523,0.002678,0.000431,0.001763
81435000,0.0324,0.013523,0.002678,0.000431,0.001645
81436000,0.0324,0.013523,0.002678,0.000431,0.001528
81437000,0.0324,0.013523,0.002678,0.000431,0.001763
81438000,0.0324,0.013523,0.002678,0.000431,0.001763
81439000,0.0324,0.013523,0.002678,0.000431,0.001645
81440000,0.0324,0.013523,0.002678,0.000431,0.001645
81441000,0.0324,0.013523,0.002678,0.000431,0.001645
81442000,0.0324,0.013523,0.002678,0.000431,0.001763
81443000,0.0324,0.013523,0.002678,0.000431,0.001410
81444000,0.0324,0.013523,0.002678,0.000431,0.001880
81445000,0.0324,0.013523,0.002678,0.000431,0.001528
81446000,0.0324,0.013523,0.002678,0.000431,0.001763
81447000,0.0324,0.013523,0.002678,0.000431,0.001645
81448000,0.0324,0.013523,0.002678,0.000431,0.001645
81449000,0.0324,0.013523,0.002678,0.000431,0.001763
81450000,0.0324,0.013523,0.002678,0.000431,0.005524
81451000,0.0324,0.013523,0.002678,0.000431,0.000823
81452000,0.0324,0.013523,0.002678,0.000431,0.000823
81453000,0.0324,0.013523,0.002678,0.000431,0.000705
81454000,0.0324,0.013523,0.002678,0.000431,0.000940
81455000,0.0324,0.013523,0.002678,0.000431,0.000940
81456000,0.0324,0.013523,0.002678,0.000431,0.000705
81457000,0.0324,0.013523,0.002678,0.000431,0.000940
81458000,0.0324,0.013523,0.002678,0.000431,0.000705
81459000,0.0324,0.013523,0.002678,0.000431,0.000940
81460000,0.0324,0.013523,0.002678,0.000431,0.000823
81461000,0.0324,0.013523,0.002678,0.000431,0.000823
81462000,0.0324,0.013523,0.002678,0.000431,0.000940
81463000,0.0324,0.013523,0.002678,0.000431,0.000705
81464000,0.0324,0.013523,0.002678,0.000431,0.000940
81465000,0.0324,0.013523,0.002678,0.000431,0.000705
81466000,0.0324,0.013523,0.002678,0.000431,0.000940
81467000,0.0324,0.013523,0.002678,0.000431,0.000823
81468000,0.0324,0.013523,0.002678,0.000431,0.000823
81469000,0.0324,0.013523,0.002678,0.000431,0.000823
81470000,0.0324,0.013523,0.002678,0.000431,0.000823
81471000,0.0324,0.013523,0.002678,0.000431,0.000705
81472000,0.0324,0.013523,0.002678,0.000431,0.000940
81473000,0.0324,0.013523,0.002678,0.000431,0.000940
81474000,0.0324,0.013523,0.002678,0.000431,0.195802
81475000,0.0324,0.013523,0.002678,0.000431,0.549679
81476000,0.0324,0.013523,0.002678,0.000431,0.404179
81477000,0.0324,0.013523,0.002678,0.000431,0.131632
81478000,0.0324,0.013523,0.002678,0.000431,0.133042
81479000,0.0324,0.013523,0.002678,0.000431,0.593282
81480000,0.0324,0.013523,0.002678,0.000431,0.279012
81481000,0.0324,0.013523,0.002678,0.000431,0.239522
81482000,0.0324,0.013523,0.002678,0.000431,0.270550
81483000,0.0324,0.013523,0.002678,0.000431,0.137390
81484000,0.0324,0.013523,0.002678,0.000431,0.141739
81485000,0.0324,0.013523,0.002678,0.000431,0.113062
81486000,0.0324,0.013523,0.002678,0.000431,0.341184
81487000,0.0324,0.013523,0.002678,0.000431,0.285241
81488000,0.0324,0.013523,0.002678,0.000431,0.089086
81489000,0.0324,0.013523,0.002678,0.000431,0.060645
81490000,0.0324,0.013523,0.002678,0.000431,0.060527
81491000,0.0324,0.013523,0.002678,0.000431,0.040312
81492000,0.0324,0.013523,0.002678,0.000431,0.029735
81493000,0.0324,0.013523,0.002678,0.000431,0.027149
81494000,0.0324,0.013523,0.002678,0.000431,0.026561
81495000,0.0324,0.013523,0.002678,0.000431,0.021273
81496000,0.0324,0.013523,0.002678,0.000431,0.022095
81497000,0.0324,0.013523,0.002678,0.000431,0.019275
81498000,0.0324,0.013523,0.002678,0.000431,0.018569
81499000,0.0324,0.013523,0.002678,0.000431,0.015396
81500000,0.0324,0.013523,0.002678,0.000431,0.014573
81501000,0.0324,0.013523,0.002678,0.000431,0.015396
81502000,0.0324,0.013523,0.002678,0.000431,0.012458
81503000,0.0324,0.013523,0.002678,0.000431,0.013633
81504000,0.0324,0.013523,0.002678,0.000431,0.010460
81505000,0.0324,0.013523,0.002678,0.000431,0.008462
81506000,0.0324,0.013523,0.002678,0.000431,0.008227
81507000,0.0324,0.013523,0.002678,0.000431,0.010107
81508000,0.0324,0.013523,0.002678,0.000431,0.008815
81509000,0.0324,0.013523,0.002678,0.000431,0.009285
81510000,0.0324,0.013523,0.002678,0.000431,0.007052
81511000,0.0324,0.013523,0.002678,0.000431,0.006464
81512000,0.0324,0.013523,0.002678,0.000431,0.009050
81513000,0.0324,0.013523,0.002678,0.000431,0.005171
81514000,0.0324,0.013523,0.002678,0.000431,0.005406
81515000,0.0324,0.013523,0.002678,0.000431,0.004349
81516000,0.0324,0.013523,0.002678,0.000431,0.005406
81517000,0.0324,0.013523,0.002678,0.000431,0.004819
81518000,0.0324,0.013523,0.002678,0.000431,0.005289
81519000,0.0324,0.013523,0.002678,0.000431,0.004701
81520000,0.0324,0.013523,0.002678,0.000431,0.007287
81521000,0.0324,0.013523,0.002678,0.000431,0.004466
81522000,0.0324,0.013523,0.002678,0.000431,0.003996
81523000,0.0324,0.013523,0.002678,0.000431,0.004349
81524000,0.0324,0.013523,0.002678,0.000431,0.004349
81525000,0.0324,0.013523,0.002678,0.000431,0.005876
81526000,0.0324,0.013523,0.002678,0.000431,0.003526
81527000,0.0324,0.013523,0.002678,0.000431,0.003173
81528000,0.0324,0.013523,0.002678,0.000431,0.003291
81529000,0.0324,0.013523,0.002678,0.000431,0.003408
81530000,0.0324,0.013523,0.002678,0.000431,0.004701
81531000,0.0324,0.013523,0.002678,0.000431,0.002351
81532000,0.0324,0.013523,0.002678,0.000431,0.002586
81533000,0.0324,0.013523,0.002678,0.000431,0.002586
81534000,0.0324,0.013523,0.002678,0.000431,0.002351
81535000,0.0324,0.013523,0.002678,0.000431,0.002351
81536000,0.0324,0.013523,0.002678,0.000431,0.002586
81537000,0.0324,0.013523,0.002678,0.000431,0.002233
81538000,0.0324,0.013523,0.002678,0.000431,0.002468
81539000,0.0324,0.013523,0.002678,0.000431,0.003056
81540000,0.0324,0.013523,0.002678,0.000431,0.001998
81541000,0.0324,0.013523,0.002678,0.000431,0.002703
81542000,0.0324,0.013523,0.002678,0.000431,0.002586
81543000,0.0324,0.013523,0.002678,0.000431,0.002586
81544000,0.0324,0.013523,0.002678,0.000431,0.002351
81545000,0.0324,0.013523,0.002678,0.000431,0.003056
81546000,0.0324,0.013523,0.002678,0.000431,0.000940
81547000,0.0324,0.013523,0.002678,0.000431,0.000940
81548000,0.0324,0.013523,0.002678,0.000431,0.000823
81549000,0.0324,0.013523,0.002678,0.000431,0.015161
81550000,0.0324,0.013523,0.002678,0.000431,0.532403
81551000,0.0324,0.013523,0.002678,0.000431,0.597983
81552000,0.0324,0.013523,0.002678,0.000431,0.137390
81553000,0.0324,0.013523,0.002678,0.000431,0.131161
81554000,0.0324,0.013523,0.002678,0.000431,0.451896
81555000,0.0324,0.013523,0.002678,0.000431,0.408645
81556000,0.0324,0.013523,0.002678,0.000431,0.271725
81557000,0.0324,0.013523,0.002678,0.000431,0.314153
81558000,0.0324,0.013523,0.002678,0.000431,0.143737
81559000,0.0324,0.013523,0.002678,0.000431,0.151729
81560000,0.0324,0.013523,0.002678,0.000431,0.097666
81561000,0.0324,0.013523,0.002678,0.000431,0.432856
81562000,0.0324,0.013523,0.002678,0.000431,0.122464
81563000,0.0324,0.013523,0.002678,0.000431,0.032203
81564000,0.0324,0.013523,0.002678,0.000431,0.027972
81565000,0.0324,0.013523,0.002678,0.000431,0.023623
81566000,0.0324,0.013523,0.002678,0.000431,0.024681
81567000,0.0324,0.013523,0.002678,0.000431,0.020450
81568000,0.0324,0.013523,0.002678,0.000431,0.017864
81569000,0.0324,0.013523,0.002678,0.000431,0.018099
81570000,0.0324,0.013523,0.002678,0.000431,0.019980
81571000,0.0324,0.013523,0.002678,0.000431,0.018099
81572000,0.0324,0.013523,0.002678,0.000431,0.019275
81573000,0.0324,0.013523,0.002678,0.000431,0.013986
81574000,0.0324,0.013523,0.002678,0.000431,0.012340
81575000,0.0324,0.013523,0.002678,0.000431,0.013516
81576000,0.0324,0.013523,0.002678,0.000431,0.013046
81577000,0.0324,0.013523,0.002678,0.000431,0.011988
81578000,0.0324,0.013523,0.002678,0.000431,0.012811
81579000,0.0324,0.013523,0.002678,0.000431,0.011400
81580000,0.0324,0.013523,0.002678,0.000431,0.012340
81581000,0.0324,0.013523,0.002678,0.000431,0.014221
81582000,0.0324,0.013523,0.002678,0.000431,0.011165
81583000,0.0324,0.013523,0.002678,0.000431,0.011165
81584000,0.0324,0.013523,0.002678,0.000431,0.011753
81585000,0.0324,0.013523,0.002678,0.000431,0.010578
81586000,0.0324,0.013523,0.002678,0.000431,0.012105
81587000,0.0324,0.013523,0.002678,0.000431,0.011635
81588000,0.0324,0.013523,0.002678,0.000431,0.011165
81589000,0.0324,0.013523,0.002678,0.000431,0.010930
81590000,0.0324,0.013523,0.002678,0.000431,0.012105
81591000,0.0324,0.013523,0.002678,0.000431,0.011518
81592000,0.0324,0.013523,0.002678,0.000431,0.011283
81593000,0.0324,0.013523,0.002678,0.000431,0.011165
81594000,0.0324,0.013523,0.002678,0.000431,0.011165
81595000,0.0324,0.013523,0.002678,0.000431,0.012105
81596000,0.0324,0.013523,0.002678,0.000431,0.011283
81597000,0.0324,0.013523,0.002678,0.000431,0.011165
81598000,0.0324,0.013523,0.002678,0.000431,0.012223
81599000,0.0324,0.013523,0.002678,0.000431,0.010107
81600000,0.0324,0.013523,0.002678,0.000431,0.013046
81601000,0.0324,0.013523,0.002678,0.000431,0.010578
81602000,0.0324,0.013523,0.002678,0.000431,0.008462
81603000,0.0324,0.013523,0.002678,0.000431,0.009050
81604000,0.0324,0.013523,0.002678,0.000431,0.009167
81605000,0.0324,0.013523,0.002678,0.000431,0.008932
81606000,0.0324,0.013523,0.002678,0.000431,0.008697
81607000,0.0324,0.013523,0.002678,0.000431,0.009050
81608000,0.0324,0.013523,0.002678,0.000431,0.008815
81609000,0.0324,0.013523,0.002678,0.000431,0.008815
81610000,0.0324,0.013523,0.002678,0.000431,0.007639
81611000,0.0324,0.013523,0.002678,0.000431,0.007757
81612000,0.0324,0.013523,0.002678,0.000431,0.008815
81613000,0.0324,0.013523,0.002678,0.000431,0.006934
81614000,0.0324,0.013523,0.002678,0.000431,0.006464
81615000,0.0324,0.013523,0.002678,0.000431,0.007169
81616000,0.0324,0.013523,0.002678,0.000431,0.006582
81617000,0.0324,0.013523,0.002678,0.000431,0.006934
81618000,0.0324,0.013523,0.002678,0.000431,0.007287
81619000,0.0324,0.013523,0.002678,0.000431,0.007169
81620000,0.0324,0.013523,0.002678,0.000431,0.007287
81621000,0.0324,0.013523,0.002678,0.000431,0.007992
81622000,0.0324,0.013523,0.002678,0.000431,0.005289
81623000,0.0324,0.013523,0.002678,0.000431,0.005289
81624000,0.0324,0.013523,0.002678,0.000431,0.004936
81625000,0.0324,0.013523,0.002678,0.000431,0.005289
81626000,0.0324,0.013523,0.002678,0.000431,0.005054
81627000,0.0324,0.013523,0.002678,0.000431,0.005289
81628000,0.0324,0.013523,0.002678,0.000431,0.006582
81629000,0.0324,0.013523,0.002678,0.000431,0.004231
81630000,0.0324,0.013523,0.002678,0.000431,0.004349
81631000,0.0324,0.013523,0.002678,0.000431,0.004466
81632000,0.0324,0.013523,0.002678,0.000431,0.004349
81633000,0.0324,0.013523,0.002678,0.000431,0.006699
81634000,0.0324,0.013523,0.002678,0.000431,0.003643
81635000,0.0324,0.013523,0.002678,0.000431,0.002703
81636000,0.0324,0.013523,0.002678,0.000431,0.002468
81637000,0.0324,0.013523,0.002678,0.000431,0.002703
81638000,0.0324,0.013523,0.002678,0.000431,0.002468
81639000,0.0324,0.013523,0.002678,0.000431,0.002703
81640000,0.0324,0.013523,0.002678,0.000431,0.002586
81641000,0.0324,0.013523,0.002678,0.000431,0.002586
81642000,0.0324,0.013523,0.002678,0.000431,0.002586
81643000,0.0324,0.013523,0.002678,0.000431,0.002586
81644000,0.0324,0.013523,0.002678,0.000431,0.002703
81645000,0.0324,0.013523,0.002678,0.000431,0.003878
81646000,0.0324,0.013523,0.002678,0.000431,0.001763
81647000,0.0324,0.013523,0.002678,0.000431,0.001880
81648000,0.0324,0.013523,0.002678,0.000431,0.001645
81649000,0.0324,0.013523,0.002678,0.000431,0.001763
81650000,0.0324,0.013523,0.002678,0.000431,0.001763
81651000,0.0324,0.013523,0.002678,0.000431,0.001880
81652000,0.0324,0.013523,0.002678,0.000431,0.001528
81653000,0.0324,0.013523,0.002678,0.000431,0.001763
81654000,0.0324,0.013523,0.002678,0.000431,0.001880
81655000,0.0324,0.013523,0.002678,0.000431,0.001763
81656000,0.0324,0.013523,0.002678,0.000431,0.001645
81657000,0.0324,0.013523,0.002678,0.000431,0.001763
81658000,0.0324,0.013523,0.002678,0.000431,0.001763
81659000,0.0324,0.013523,0.002678,0.000431,0.001880
81660000,0.0324,0.013523,0.002678,0.000431,0.001645
81661000,0.0324,0.013523,0.002678,0.000431,0.001763
81662000,0.0324,0.013523,0.002678,0.000431,0.001763
81663000,0.0324,0.013523,0.002678,0.000431,0.001763
81664000,0.0324,0.013523,0.002678,0.000431,0.001763
81665000,0.0324,0.013523,0.002678,0.000431,0.001763
81666000,0.0324,0.013523,0.002678,0.000431,0.001763
81667000,0.0324,0.013523,0.002678,0.000431,0.001645
81668000,0.0324,0.013523,0.002678,0.000431,0.001880
81669000,0.0324,0.013523,0.002678,0.000431,0.001763
81670000,0.0324,0.013523,0.002678,0.000431,0.004349
81671000,0.0324,0.013523,0.002678,0.000431,0.000823
81672000,0.0324,0.013523,0.002678,0.000431,0.000823
81673000,0.0324,0.013523,0.002678,0.000431,0.000940
81674000,0.0324,0.013523,0.002678,0.000431,0.000940
81675000,0.0324,0.013523,0.002678,0.000431,0.000823
81676000,0.0324,0.013523,0.002678,0.000431,0.000823
81677000,0.0324,0.013523,0.002678,0.000431,0.000940
81678000,0.0324,0.013523,0.002678,0.000431,0.000940
81679000,0.0324,0.013523,0.002678,0.000431,0.000705
81680000,0.0324,0.013523,0.002678,0.000431,0.000940
81681000,0.0324,0.013523,0.002678,0.000431,0.000940
81682000,0.0324,0.013523,0.002678,0.000431,0.000940
81683000,0.0324,0.013523,0.002678,0.000431,0.000823
81684000,0.0324,0.013523,0.002678,0.000431,0.000823
81685000,0.0324,0.013523,0.002678,0.000431,0.000940
81686000,0.0324,0.013523,0.002678,0.000431,0.000823
81687000,0.0324,0.013523,0.002678,0.000431,0.000940
81688000,0.0324,0.013523,0.002678,0.000431,0.000823
81689000,0.0324,0.013523,0.002678,0.000431,0.000940
81690000,0.0324,0.013523,0.002678,0.000431,0.000823
81691000,0.0324,0.013523,0.002678,0.000431,0.000823
81692000,0.0324,0.013523,0.002678,0.000431,0.000940
81693000,0.0324,0.013523,0.002678,0.000431,0.000940
81694000,0.0324,0.013523,0.002678,0.000431,0.000705
81695000,0.0324,0.013523,0.002678,0.000431,0.000940
81696000,0.0324,0.013523,0.002678,0.000431,0.000940
81697000,0.0324,0.013523,0.002678,0.000431,0.000940
81698000,0.0324,0.013523,0.002678,0.000431,0.000705
81699000,0.0324,0.013523,0.002678,0.000431,0.000940
81700000,0.0324,0.013523,0.002678,0.000431,0.000940
81701000,0.0324,0.013523,0.002678,0.000431,0.000823
81702000,0.0324,0.013523,0.002678,0.000431,0.000823
81703000,0.0324,0.013523,0.002678,0.000431,0.000940
81704000,0.0324,0.013523,0.002678,0.000431,0.000940
81705000,0.0324,0.013523,0.002678,0.000431,0.000823
81706000,0.0324,0.013523,0.002678,0.000431,0.000823
81707000,0.0324,0.013523,0.002678,0.000431,0.000940
81708000,0.0324,0.013523,0.002678,0.000431,0.000823
81709000,0.0324,0.013523,0.002678,0.000431,0.000940
81710000,0.0324,0.013523,0.002678,0.000431,0.000823
81711000,0.0324,0.013523,0.002678,0.000431,0.000940
81712000,0.0324,0.013523,0.002678,0.000431,0.000823
81713000,0.0324,0.013523,0.002678,0.000431,0.000823
81714000,0.0324,0.013523,0.002678,0.000431,0.000940
81715000,0.0324,0.013523,0.002678,0.000431,0.000940
81716000,0.0324,0.013523,0.002678,0.000431,0.000940
81717000,0.0324,0.013523,0.002678,0.000431,0.000705
81718000,0.0324,0.013523,0.002678,0.000431,0.000940
81719000,0.0324,0.013523,0.002678,0.000431,0.000940
81720000,0.0324,0.013523,0.002678,0.000431,0.000823
81721000,0.0324,0.013523,0.002678,0.000431,0.000823
81722000,0.0324,0.013523,0.002678,0.000431,0.000940
81723000,0.0324,0.013523,0.002678,0.000431,0.000940
81724000,0.0324,0.013523,0.002678,0.000431,0.000823
81725000,0.0324,0.013523,0.002678,0.000431,0.000823
81726000,0.0324,0.013523,0.002678,0.000431,0.000940
81727000,0.0324,0.013523,0.002678,0.000431,0.000823
81728000,0.0324,0.013523,0.002678,0.000431,0.000940
81729000,0.0324,0.013523,0.002678,0.000431,0.000823
81730000,0.0324,0.013523,0.002678,0.000431,0.000940
81731000,0.0324,0.013523,0.002678,0.000431,0.000823
81732000,0.0324,0.013523,0.002678,0.000431,0.001998
81733000,0.0324,0.013523,0.002678,0.000431,0.336483
81734000,0.0324,0.013523,0.002678,0.000431,0.682251
81735000,0.0324,0.013523,0.002678,0.000431,0.142914
81736000,0.0324,0.013523,0.002678,0.000431,0.132572
81737000,0.0324,0.013523,0.002678,0.000431,0.176762
81738000,0.0324,0.013523,0.002678,0.000431,0.649343
81739000,0.0324,0.013523,0.002678,0.000431,0.238817
81740000,0.0324,0.013523,0.002678,0.000431,0.308747
81741000,0.0324,0.013523,0.002678,0.000431,0.236702
81742000,0.0324,0.013523,0.002678,0.000431,0.135745
81743000,0.0324,0.013523,0.002678,0.000431,0.128106
81744000,0.0324,0.013523,0.002678,0.000431,0.236467
81745000,0.0324,0.013523,0.002678,0.000431,0.373857
81746000,0.0324,0.013523,0.002678,0.000431,0.097901
81747000,0.0324,0.013523,0.002678,0.000431,0.089674
81748000,0.0324,0.013523,0.002678,0.000431,0.072750
81749000,0.0324,0.013523,0.002678,0.000431,0.064993
81750000,0.0324,0.013523,0.002678,0.000431,0.058176
81751000,0.0324,0.013523,0.002678,0.000431,0.057119
81752000,0.0324,0.013523,0.002678,0.000431,0.042898
81753000,0.0324,0.013523,0.002678,0.000431,0.038197
81754000,0.0324,0.013523,0.002678,0.000431,0.034201
81755000,0.0324,0.013523,0.002678,0.000431,0.031145
81756000,0.0324,0.013523,0.002678,0.000431,0.030675
81757000,0.0324,0.013523,0.002678,0.000431,0.026914
81758000,0.0324,0.013523,0.002678,0.000431,0.025386
81759000,0.0324,0.013523,0.002678,0.000431,0.023388
81760000,0.0324,0.013523,0.002678,0.000431,0.023388
81761000,0.0324,0.013523,0.002678,0.000431,0.020567
81762000,0.0324,0.013523,0.002678,0.000431,0.017277
81763000,0.0324,0.013523,0.002678,0.000431,0.013633
81764000,0.0324,0.013523,0.002678,0.000431,0.016689
81765000,0.0324,0.013523,0.002678,0.000431,0.010930
81766000,0.0324,0.013523,0.002678,0.000431,0.011518
81767000,0.0324,0.013523,0.002678,0.000431,0.011518
81768000,0.0324,0.013523,0.002678,0.000431,0.013516
81769000,0.0324,0.013523,0.002678,0.000431,0.009755
81770000,0.0324,0.013523,0.002678,0.000431,0.011048
81771000,0.0324,0.013523,0.002678,0.000431,0.015514
81772000,0.0324,0.013523,0.002678,0.000431,0.010930
81773000,0.0324,0.013523,0.002678,0.000431,0.007874
81774000,0.0324,0.013523,0.002678,0.000431,0.007287
81775000,0.0324,0.013523,0.002678,0.000431,0.007052
81776000,0.0324,0.013523,0.002678,0.000431,0.007169
81777000,0.0324,0.013523,0.002678,0.000431,0.007169
81778000,0.0324,0.013523,0.002678,0.000431,0.007052
81779000,0.0324,0.013523,0.002678,0.000431,0.009050
81780000,0.0324,0.013523,0.002678,0.000431,0.005876
81781000,0.0324,0.013523,0.002678,0.000431,0.006699
81782000,0.0324,0.013523,0.002678,0.000431,0.006464
81783000,0.0324,0.013523,0.002678,0.000431,0.009520
81784000,0.0324,0.013523,0.002678,0.000431,0.004466
81785000,0.0324,0.013523,0.002678,0.000431,0.005524
81786000,0.0324,0.013523,0.002678,0.000431,0.004113
81787000,0.0324,0.013523,0.002678,0.000431,0.005054
81788000,0.0324,0.013523,0.002678,0.000431,0.004936
81789000,0.0324,0.013523,0.002678,0.000431,0.005641
81790000,0.0324,0.013523,0.002678,0.000431,0.003878
81791000,0.0324,0.013523,0.002678,0.000431,0.004231
81792000,0.0324,0.013523,0.002678,0.000431,0.003056
81793000,0.0324,0.013523,0.002678,0.000431,0.007052
81794000,0.0324,0.013523,0.002678,0.000431,0.002821
81795000,0.0324,0.013523,0.002678,0.000431,0.002703
81796000,0.0324,0.013523,0.002678,0.000431,0.001645
81797000,0.0324,0.013523,0.002678,0.000431,0.001645
81798000,0.0324,0.013523,0.002678,0.000431,0.001645
81799000,0.0324,0.013523,0.002678,0.000431,0.001645
81800000,0.0324,0.013523,0.002678,0.000431,0.001763
81801000,0.0324,0.013523,0.002678,0.000431,0.003173
81802000,0.0324,0.013523,0.002678,0.000431,0.000823
81803000,0.0324,0.013523,0.002678,0.000431,0.000823
81804000,0.0324,0.013523,0.002678,0.000431,0.000823
81805000,0.0324,0.013523,0.002678,0.000431,0.000823
81806000,0.0324,0.013523,0.002678,0.000431,0.000823
81807000,0.0324,0.013523,0.002678,0.000431,0.000940
81808000,0.0324,0.013523,0.002678,0.000431,0.000705
81809000,0.0324,0.013523,0.002678,0.000431,0.000940
81810000,0.0324,0.013523,0.002678,0.000431,0.000705
81811000,0.0324,0.013523,0.002678,0.000431,0.000705
81812000,0.0324,0.013523,0.002678,0.000431,0.000940
81813000,0.0324,0.013523,0.002678,0.000431,0.000823
81814000,0.0324,0.013523,0.002678,0.000431,0.000823
81815000,0.0324,0.013523,0.002678,0.000431,0.000940
81816000,0.0324,0.013523,0.002678,0.000431,0.000705
81817000,0.0324,0.013523,0.002678,0.000431,0.000940
81818000,0.0324,0.013523,0.002678,0.000431,0.000705
81819000,0.0324,0.013523,0.002678,0.000431,0.000940
81820000,0.0324,0.013523,0.002678,0.000431,0.000823
81821000,0.0324,0.013523,0.002678,0.000431,0.000823
81822000,0.0324,0.013523,0.002678,0.000431,0.000940
81823000,0.0324,0.013523,0.002678,0.000431,0.000705
81824000,0.0324,0.013523,0.002678,0.000431,0.000940
81825000,0.0324,0.013523,0.002678,0.000431,0.000823
81826000,0.0324,0.013523,0.002678,0.000431,0.000823
81827000,0.0324,0.013523,0.002678,0.000431,0.000823
81828000,0.0324,0.013523,0.002678,0.000431,0.000823
81829000,0.0324,0.013523,0.002678,0.000431,0.000940
81830000,0.0324,0.013523,0.002678,0.000431,0.000705
81831000,0.0324,0.013523,0.002678,0.000431,0.000940
81832000,0.0324,0.013523,0.002678,0.000431,0.000823
81833000,0.0324,0.013523,0.002678,0.000431,0.000705
81834000,0.0324,0.013523,0.002678,0.000431,0.000940
81835000,0.0324,0.013523,0.002678,0.000431,0.000823
81836000,0.0324,0.013523,0.002678,0.000431,0.000823
81837000,0.0324,0.013523,0.002678,0.000431,0.000823
81838000,0.0324,0.013523,0.002678,0.000431,0.000823
81839000,0.0324,0.013523,0.002678,0.000431,0.000823
81840000,0.0324,0.013523,0.002678,0.000431,0.000940
81841000,0.0324,0.013523,0.002678,0.000431,0.000705
81842000,0.0324,0.013523,0.002678,0.000431,0.184637
81843000,0.0324,0.013523,0.002678,0.000431,0.493736
81844000,0.0324,0.013523,0.002678,0.000431,0.534988
81845000,0.0324,0.013523,0.002678,0.000431,0.133042
81846000,0.0324,0.013523,0.002678,0.000431,0.132454
81847000,0.0324,0.013523,0.002678,0.000431,0.550855
81848000,0.0324,0.013523,0.002678,0.000431,0.256094
81849000,0.0324,0.013523,0.002678,0.000431,0.272665
81850000,0.0324,0.013523,0.002678,0.000431,0.282538
81851000,0.0324,0.013523,0.002678,0.000431,0.145030
81852000,0.0324,0.013523,0.002678,0.000431,0.138331
81853000,0.0324,0.013523,0.002678,0.000431,0.118939
81854000,0.0324,0.013523,0.002678,0.000431,0.407705
81855000,0.0324,0.013523,0.002678,0.000431,0.213431
81856000,0.0324,0.013523,0.002678,0.000431,0.084385
81857000,0.0324,0.013523,0.002678,0.000431,0.063583
81858000,0.0324,0.013523,0.002678,0.000431,0.055591
81859000,0.0324,0.013523,0.002678,0.000431,0.053005
81860000,0.0324,0.013523,0.002678,0.000431,0.042663
81861000,0.0324,0.013523,0.002678,0.000431,0.039725
81862000,0.0324,0.013523,0.002678,0.000431,0.037256
81863000,0.0324,0.013523,0.002678,0.000431,0.034436
81864000,0.0324,0.013523,0.002678,0.000431,0.032085
81865000,0.0324,0.013523,0.002678,0.000431,0.030440
81866000,0.0324,0.013523,0.002678,0.000431,0.032790
81867000,0.0324,0.013523,0.002678,0.000431,0.026796
81868000,0.0324,0.013523,0.002678,0.000431,0.028912
81869000,0.0324,0.013523,0.002678,0.000431,0.022565
81870000,0.0324,0.013523,0.002678,0.000431,0.022683
81871000,0.0324,0.013523,0.002678,0.000431,0.020215
81872000,0.0324,0.013523,0.002678,0.000431,0.020450
81873000,0.0324,0.013523,0.002678,0.000431,0.015279
81874000,0.0324,0.013523,0.002678,0.000431,0.016807
81875000,0.0324,0.013523,0.002678,0.000431,0.018569
81876000,0.0324,0.013523,0.002678,0.000431,0.014456
81877000,0.0324,0.013523,0.002678,0.000431,0.017277
81878000,0.0324,0.013523,0.002678,0.000431,0.015396
81879000,0.0324,0.013523,0.002678,0.000431,0.015396
81880000,0.0324,0.013523,0.002678,0.000431,0.015396
81881000,0.0324,0.013523,0.002678,0.000431,0.012223
81882000,0.0324,0.013523,0.002678,0.000431,0.010225
81883000,0.0324,0.013523,0.002678,0.000431,0.011635
81884000,0.0324,0.013523,0.002678,0.000431,0.009990
81885000,0.0324,0.013523,0.002678,0.000431,0.009637
81886000,0.0324,0.013523,0.002678,0.000431,0.009285
81887000,0.0324,0.013523,0.002678,0.000431,0.013398
81888000,0.0324,0.013523,0.002678,0.000431,0.008815
81889000,0.0324,0.013523,0.002678,0.000431,0.008697
81890000,0.0324,0.013523,0.002678,0.000431,0.007169
81891000,0.0324,0.013523,0.002678,0.000431,0.007404
81892000,0.0324,0.013523,0.002678,0.000431,0.008462
81893000,0.0324,0.013523,0.002678,0.000431,0.007992
81894000,0.0324,0.013523,0.002678,0.000431,0.007404
81895000,0.0324,0.013523,0.002678,0.000431,0.007874
81896000,0.0324,0.013523,0.002678,0.000431,0.007874
81897000,0.0324,0.013523,0.002678,0.000431,0.007639
81898000,0.0324,0.013523,0.002678,0.000431,0.007404
81899000,0.0324,0.013523,0.002678,0.000431,0.008109
81900000,0.0324,0.013523,0.002678,0.000431,0.007639
81901000,0.0324,0.013523,0.002678,0.000431,0.008580
81902000,0.0324,0.013523,0.002678,0.000431,0.007639
81903000,0.0324,0.013523,0.002678,0.000431,0.008345
81904000,0.0324,0.013523,0.002678,0.000431,0.008109
81905000,0.0324,0.013523,0.002678,0.000431,0.007404
81906000,0.0324,0.013523,0.002678,0.000431,0.006934
81907000,0.0324,0.013523,0.002678,0.000431,0.006464
81908000,0.0324,0.013523,0.002678,0.000431,0.007639
81909000,0.0324,0.013523,0.002678,0.000431,0.006582
81910000,0.0324,0.013523,0.002678,0.000431,0.006229
81911000,0.0324,0.013523,0.002678,0.000431,0.006934
81912000,0.0324,0.013523,0.002678,0.000431,0.005406
81913000,0.0324,0.013523,0.002678,0.000431,0.006934
81914000,0.0324,0.013523,0.002678,0.000431,0.005641
81915000,0.0324,0.013523,0.002678,0.000431,0.006229
81916000,0.0324,0.013523,0.002678,0.000431,0.005524
81917000,0.0324,0.013523,0.002678,0.000431,0.006111
81918000,0.0324,0.013523,0.002678,0.000431,0.005994
81919000,0.0324,0.013523,0.002678,0.000431,0.004466
81920000,0.0324,0.013523,0.002678,0.000431,0.005876
81921000,0.0324,0.013523,0.002678,0.000431,0.005524
81922000,0.0324,0.013523,0.002678,0.000431,0.005406
81923000,0.0324,0.013523,0.002678,0.000431,0.005641
81924000,0.0324,0.013523,0.002678,0.000431,0.005289
81925000,0.0324,0.013523,0.002678,0.000431,0.005876
81926000,0.0324,0.013523,0.002678,0.000431,0.004819
81927000,0.0324,0.013523,0.002678,0.000431,0.005759
81928000,0.0324,0.013523,0.002678,0.000431,0.005406
81929000,0.0324,0.013523,0.002678,0.000431,0.006699
81930000,0.0324,0.013523,0.002678,0.000431,0.004701
81931000,0.0324,0.013523,0.002678,0.000431,0.004231
81932000,0.0324,0.013523,0.002678,0.000431,0.004819
81933000,0.0324,0.013523,0.002678,0.000431,0.004231
81934000,0.0324,0.013523,0.002678,0.000431,0.004819
81935000,0.0324,0.013523,0.002678,0.000431,0.004584
81936000,0.0324,0.013523,0.002678,0.000431,0.004584
81937000,0.0324,0.013523,0.002678,0.000431,0.004584
81938000,0.0324,0.013523,0.002678,0.000431,0.004349
81939000,0.0324,0.013523,0.002678,0.000431,0.004819
81940000,0.0324,0.013523,0.002678,0.000431,0.005406
81941000,0.0324,0.013523,0.002678,0.000431,0.002703
81942000,0.0324,0.013523,0.002678,0.000431,0.003173
81943000,0.0324,0.013523,0.002678,0.000431,0.002938
81944000,0.0324,0.013523,0.002678,0.000431,0.003056
81945000,0.0324,0.013523,0.002678,0.000431,0.002821
81946000,0.0324,0.013523,0.002678,0.000431,0.002821
81947000,0.0324,0.013523,0.002678,0.000431,0.003526
81948000,0.0324,0.013523,0.002678,0.000431,0.002468
81949000,0.0324,0.013523,0.002678,0.000431,0.003056
81950000,0.0324,0.013523,0.002678,0.000431,0.003173
81951000,0.0324,0.013523,0.002678,0.000431,0.002821
81952000,0.0324,0.013523,0.002678,0.000431,0.003173
81953000,0.0324,0.013523,0.002678,0.000431,0.002938
81954000,0.0324,0.013523,0.002678,0.000431,0.003408
81955000,0.0324,0.013523,0.002678,0.000431,0.003408
81956000,0.0324,0.013523,0.002678,0.000431,0.002586
81957000,0.0324,0.013523,0.002678,0.000431,0.003173
81958000,0.0324,0.013523,0.002678,0.000431,0.002821
81959000,0.0324,0.013523,0.002678,0.000431,0.003291
81960000,0.0324,0.013523,0.002678,0.000431,0.002821
81961000,0.0324,0.013523,0.002678,0.000431,0.002703
81962000,0.0324,0.013523,0.002678,0.000431,0.003408
81963000,0.0324,0.013523,0.002678,0.000431,0.002586
81964000,0.0324,0.013523,0.002678,0.000431,0.003408
81965000,0.0324,0.013523,0.002678,0.000431,0.002703
81966000,0.0324,0.013523,0.002678,0.000431,0.003056
81967000,0.0324,0.013523,0.002678,0.000431,0.003056
81968000,0.0324,0.013523,0.002678,0.000431,0.002703
81969000,0.0324,0.013523,0.002678,0.000431,0.003173
81970000,0.0324,0.013523,0.002678,0.000431,0.002938
81971000,0.0324,0.013523,0.002678,0.000431,0.003056
81972000,0.0324,0.013523,0.002678,0.000431,0.002821
81973000,0.0324,0.013523,0.002678,0.000431,0.003056
81974000,0.0324,0.013523,0.002678,0.000431,0.003291
81975000,0.0324,0.013523,0.002678,0.000431,0.002586
81976000,0.0324,0.013523,0.002678,0.000431,0.003291
81977000,0.0324,0.013523,0.002678,0.000431,0.002821
81978000,0.0324,0.013523,0.002678,0.000431,0.003173
81979000,0.0324,0.013523,0.002678,0.000431,0.002938
81980000,0.0324,0.013523,0.002678,0.000431,0.002821
81981000,0.0324,0.013523,0.002678,0.000431,0.006464
81982000,0.0324,0.013523,0.002678,0.000431,0.001998
81983000,0.0324,0.013523,0.002678,0.000431,0.002116
81984000,0.0324,0.013523,0.002678,0.000431,0.002351
81985000,0.0324,0.013523,0.002678,0.000431,0.001880
81986000,0.0324,0.013523,0.002678,0.000431,0.002586
81987000,0.0324,0.013523,0.002678,0.000431,0.001645
81988000,0.0324,0.013523,0.002678,0.000431,0.002351
81989000,0.0324,0.013523,0.002678,0.000431,0.002116
81990000,0.0324,0.013523,0.002678,0.000431,0.001998
81991000,0.0324,0.013523,0.002678,0.000431,0.002586
81992000,0.0324,0.013523,0.002678,0.000431,0.001763
81993000,0.0324,0.013523,0.002678,0.000431,0.002351
81994000,0.0324,0.013523,0.002678,0.000431,0.001998
81995000,0.0324,0.013523,0.002678,0.000431,0.002116
81996000,0.0324,0.013523,0.002678,0.000431,0.002233
81997000,0.0324,0.013523,0.002678,0.000431,0.001880
81998000,0.0324,0.013523,0.002678,0.000431,0.002586
81999000,0.0324,0.013523,0.002678,0.000431,0.001880
