Cycle,Area(mm^2),PeakDynamic(W),SubthresholdLeakage(W),GateLeakage(W),RunTimeDynamic(W)
44000000,0.0324,0.013523,0.002678,0.000431,0.000823
44001000,0.0324,0.013523,0.002678,0.000431,0.000940
44002000,0.0324,0.013523,0.002678,0.000431,0.000705
44003000,0.0324,0.013523,0.002678,0.000431,0.000940
44004000,0.0324,0.013523,0.002678,0.000431,0.000705
44005000,0.0324,0.013523,0.002678,0.000431,0.000940
44006000,0.0324,0.013523,0.002678,0.000431,0.000940
44007000,0.0324,0.013523,0.002678,0.000431,0.000823
44008000,0.0324,0.013523,0.002678,0.000431,0.000823
44009000,0.0324,0.013523,0.002678,0.000431,0.000940
44010000,0.0324,0.013523,0.002678,0.000431,0.000823
44011000,0.0324,0.013523,0.002678,0.000431,0.000823
44012000,0.0324,0.013523,0.002678,0.000431,0.000823
44013000,0.0324,0.013523,0.002678,0.000431,0.000823
44014000,0.0324,0.013523,0.002678,0.000431,0.000940
44015000,0.0324,0.013523,0.002678,0.000431,0.001998
44016000,0.0324,0.013523,0.002678,0.000431,0.296289
44017000,0.0324,0.013523,0.002678,0.000431,0.686012
44018000,0.0324,0.013523,0.002678,0.000431,0.267142
44019000,0.0324,0.013523,0.002678,0.000431,0.132102
44020000,0.0324,0.013523,0.002678,0.000431,0.142327
44021000,0.0324,0.013523,0.002678,0.000431,0.639353
44022000,0.0324,0.013523,0.002678,0.000431,0.239522
44023000,0.0324,0.013523,0.002678,0.000431,0.267847
44024000,0.0324,0.013523,0.002678,0.000431,0.226359
44025000,0.0324,0.013523,0.002678,0.000431,0.143854
44026000,0.0324,0.013523,0.002678,0.000431,0.164657
44027000,0.0324,0.013523,0.002678,0.000431,0.139859
44028000,0.0324,0.013523,0.002678,0.000431,0.459065
44029000,0.0324,0.013523,0.002678,0.000431,0.114943
44030000,0.0324,0.013523,0.002678,0.000431,0.078861
44031000,0.0324,0.013523,0.002678,0.000431,0.078156
44032000,0.0324,0.013523,0.002678,0.000431,0.059939
44033000,0.0324,0.013523,0.002678,0.000431,0.051125
44034000,0.0324,0.013523,0.002678,0.000431,0.038197
44035000,0.0324,0.013523,0.002678,0.000431,0.030910
44036000,0.0324,0.013523,0.002678,0.000431,0.031615
44037000,0.0324,0.013523,0.002678,0.000431,0.032555
44038000,0.0324,0.013523,0.002678,0.000431,0.028324
44039000,0.0324,0.013523,0.002678,0.000431,0.017629
44040000,0.0324,0.013523,0.002678,0.000431,0.017512
44041000,0.0324,0.013523,0.002678,0.000431,0.013046
44042000,0.0324,0.013523,0.002678,0.000431,0.012340
44043000,0.0324,0.013523,0.002678,0.000431,0.012928
44044000,0.0324,0.013523,0.002678,0.000431,0.012811
44045000,0.0324,0.013523,0.002678,0.000431,0.015279
44046000,0.0324,0.013523,0.002678,0.000431,0.016454
44047000,0.0324,0.013523,0.002678,0.000431,0.010460
44048000,0.0324,0.013523,0.002678,0.000431,0.010813
44049000,0.0324,0.013523,0.002678,0.000431,0.008345
44050000,0.0324,0.013523,0.002678,0.000431,0.007874
44051000,0.0324,0.013523,0.002678,0.000431,0.009050
44052000,0.0324,0.013523,0.002678,0.000431,0.005406
44053000,0.0324,0.013523,0.002678,0.000431,0.003761
44054000,0.0324,0.013523,0.002678,0.000431,0.003878
44055000,0.0324,0.013523,0.002678,0.000431,0.003761
44056000,0.0324,0.013523,0.002678,0.000431,0.003761
44057000,0.0324,0.013523,0.002678,0.000431,0.003643
44058000,0.0324,0.013523,0.002678,0.000431,0.003526
44059000,0.0324,0.013523,0.002678,0.000431,0.003996
44060000,0.0324,0.013523,0.002678,0.000431,0.004819
44061000,0.0324,0.013523,0.002678,0.000431,0.004819
44062000,0.0324,0.013523,0.002678,0.000431,0.002468
44063000,0.0324,0.013523,0.002678,0.000431,0.002938
44064000,0.0324,0.013523,0.002678,0.000431,0.002938
44065000,0.0324,0.013523,0.002678,0.000431,0.002703
44066000,0.0324,0.013523,0.002678,0.000431,0.003173
44067000,0.0324,0.013523,0.002678,0.000431,0.002586
44068000,0.0324,0.013523,0.002678,0.000431,0.003056
44069000,0.0324,0.013523,0.002678,0.000431,0.002821
44070000,0.0324,0.013523,0.002678,0.000431,0.002703
44071000,0.0324,0.013523,0.002678,0.000431,0.002938
44072000,0.0324,0.013523,0.002678,0.000431,0.003056
44073000,0.0324,0.013523,0.002678,0.000431,0.002821
44074000,0.0324,0.013523,0.002678,0.000431,0.003056
44075000,0.0324,0.013523,0.002678,0.000431,0.002586
44076000,0.0324,0.013523,0.002678,0.000431,0.003056
44077000,0.0324,0.013523,0.002678,0.000431,0.002938
44078000,0.0324,0.013523,0.002678,0.000431,0.002703
44079000,0.0324,0.013523,0.002678,0.000431,0.003173
44080000,0.0324,0.013523,0.002678,0.000431,0.002468
44081000,0.0324,0.013523,0.002678,0.000431,0.003291
44082000,0.0324,0.013523,0.002678,0.000431,0.002586
44083000,0.0324,0.013523,0.002678,0.000431,0.002938
44084000,0.0324,0.013523,0.002678,0.000431,0.002938
44085000,0.0324,0.013523,0.002678,0.000431,0.002586
44086000,0.0324,0.013523,0.002678,0.000431,0.002938
44087000,0.0324,0.013523,0.002678,0.000431,0.002938
44088000,0.0324,0.013523,0.002678,0.000431,0.003056
44089000,0.0324,0.013523,0.002678,0.000431,0.002821
44090000,0.0324,0.013523,0.002678,0.000431,0.002821
44091000,0.0324,0.013523,0.002678,0.000431,0.002703
44092000,0.0324,0.013523,0.002678,0.000431,0.003173
44093000,0.0324,0.013523,0.002678,0.000431,0.002586
44094000,0.0324,0.013523,0.002678,0.000431,0.003291
44095000,0.0324,0.013523,0.002678,0.000431,0.002703
44096000,0.0324,0.013523,0.002678,0.000431,0.002821
44097000,0.0324,0.013523,0.002678,0.000431,0.003173
44098000,0.0324,0.013523,0.002678,0.000431,0.002233
44099000,0.0324,0.013523,0.002678,0.000431,0.003643
44100000,0.0324,0.013523,0.002678,0.000431,0.002468
44101000,0.0324,0.013523,0.002678,0.000431,0.002938
44102000,0.0324,0.013523,0.002678,0.000431,0.002938
44103000,0.0324,0.013523,0.002678,0.000431,0.002586
44104000,0.0324,0.013523,0.002678,0.000431,0.003291
44105000,0.0324,0.013523,0.002678,0.000431,0.002468
44106000,0.0324,0.013523,0.002678,0.000431,0.003056
44107000,0.0324,0.013523,0.002678,0.000431,0.002821
44108000,0.0324,0.013523,0.002678,0.000431,0.002938
44109000,0.0324,0.013523,0.002678,0.000431,0.002703
44110000,0.0324,0.013523,0.002678,0.000431,0.003056
44111000,0.0324,0.013523,0.002678,0.000431,0.002821
44112000,0.0324,0.013523,0.002678,0.000431,0.003056
44113000,0.0324,0.013523,0.002678,0.000431,0.002703
44114000,0.0324,0.013523,0.002678,0.000431,0.002938
44115000,0.0324,0.013523,0.002678,0.000431,0.003056
44116000,0.0324,0.013523,0.002678,0.000431,0.002586
44117000,0.0324,0.013523,0.002678,0.000431,0.003291
44118000,0.0324,0.013523,0.002678,0.000431,0.002233
44119000,0.0324,0.013523,0.002678,0.000431,0.003408
44120000,0.0324,0.013523,0.002678,0.000431,0.002703
44121000,0.0324,0.013523,0.002678,0.000431,0.002938
44122000,0.0324,0.013523,0.002678,0.000431,0.003291
44123000,0.0324,0.013523,0.002678,0.000431,0.002821
44124000,0.0324,0.013523,0.002678,0.000431,0.002821
44125000,0.0324,0.013523,0.002678,0.000431,0.002821
44126000,0.0324,0.013523,0.002678,0.000431,0.002938
44127000,0.0324,0.013523,0.002678,0.000431,0.002821
44128000,0.0324,0.013523,0.002678,0.000431,0.003056
44129000,0.0324,0.013523,0.002678,0.000431,0.002586
44130000,0.0324,0.013523,0.002678,0.000431,0.003173
44131000,0.0324,0.013523,0.002678,0.000431,0.002703
44132000,0.0324,0.013523,0.002678,0.000431,0.002938
44133000,0.0324,0.013523,0.002678,0.000431,0.002821
44134000,0.0324,0.013523,0.002678,0.000431,0.002938
44135000,0.0324,0.013523,0.002678,0.000431,0.002586
44136000,0.0324,0.013523,0.002678,0.000431,0.003173
44137000,0.0324,0.013523,0.002678,0.000431,0.003056
44138000,0.0324,0.013523,0.002678,0.000431,0.002821
44139000,0.0324,0.013523,0.002678,0.000431,0.002821
44140000,0.0324,0.013523,0.002678,0.000431,0.002703
44141000,0.0324,0.013523,0.002678,0.000431,0.003173
44142000,0.0324,0.013523,0.002678,0.000431,0.002586
44143000,0.0324,0.013523,0.002678,0.000431,0.003173
44144000,0.0324,0.013523,0.002678,0.000431,0.002703
44145000,0.0324,0.013523,0.002678,0.000431,0.002938
44146000,0.0324,0.013523,0.002678,0.000431,0.002821
44147000,0.0324,0.013523,0.002678,0.000431,0.002703
44148000,0.0324,0.013523,0.002678,0.000431,0.003291
44149000,0.0324,0.013523,0.002678,0.000431,0.002586
44150000,0.0324,0.013523,0.002678,0.000431,0.002938
44151000,0.0324,0.013523,0.002678,0.000431,0.004584
44152000,0.0324,0.013523,0.002678,0.000431,0.001175
44153000,0.0324,0.013523,0.002678,0.000431,0.000705
44154000,0.0324,0.013523,0.002678,0.000431,0.001175
44155000,0.0324,0.013523,0.002678,0.000431,0.000705
44156000,0.0324,0.013523,0.002678,0.000431,0.001058
44157000,0.0324,0.013523,0.002678,0.000431,0.000940
44158000,0.0324,0.013523,0.002678,0.000431,0.000823
44159000,0.0324,0.013523,0.002678,0.000431,0.000940
44160000,0.0324,0.013523,0.002678,0.000431,0.000940
44161000,0.0324,0.013523,0.002678,0.000431,0.001058
44162000,0.0324,0.013523,0.002678,0.000431,0.000823
44163000,0.0324,0.013523,0.002678,0.000431,0.000940
44164000,0.0324,0.013523,0.002678,0.000431,0.000940
44165000,0.0324,0.013523,0.002678,0.000431,0.000940
44166000,0.0324,0.013523,0.002678,0.000431,0.000823
44167000,0.0324,0.013523,0.002678,0.000431,0.001058
44168000,0.0324,0.013523,0.002678,0.000431,0.000823
44169000,0.0324,0.013523,0.002678,0.000431,0.001058
44170000,0.0324,0.013523,0.002678,0.000431,0.000940
44171000,0.0324,0.013523,0.002678,0.000431,0.000705
44172000,0.0324,0.013523,0.002678,0.000431,0.001175
44173000,0.0324,0.013523,0.002678,0.000431,0.000823
44174000,0.0324,0.013523,0.002678,0.000431,0.000940
44175000,0.0324,0.013523,0.002678,0.000431,0.000940
44176000,0.0324,0.013523,0.002678,0.000431,0.000823
44177000,0.0324,0.013523,0.002678,0.000431,0.001058
44178000,0.0324,0.013523,0.002678,0.000431,0.000823
44179000,0.0324,0.013523,0.002678,0.000431,0.001058
44180000,0.0324,0.013523,0.002678,0.000431,0.000823
44181000,0.0324,0.013523,0.002678,0.000431,0.000940
44182000,0.0324,0.013523,0.002678,0.000431,0.001058
44183000,0.0324,0.013523,0.002678,0.000431,0.000823
44184000,0.0324,0.013523,0.002678,0.000431,0.000940
44185000,0.0324,0.013523,0.002678,0.000431,0.000940
44186000,0.0324,0.013523,0.002678,0.000431,0.000940
44187000,0.0324,0.013523,0.002678,0.000431,0.000940
44188000,0.0324,0.013523,0.002678,0.000431,0.000940
44189000,0.0324,0.013523,0.002678,0.000431,0.000940
44190000,0.0324,0.013523,0.002678,0.000431,0.000940
44191000,0.0324,0.013523,0.002678,0.000431,0.000823
44192000,0.0324,0.013523,0.002678,0.000431,0.001058
44193000,0.0324,0.013523,0.002678,0.000431,0.000823
44194000,0.0324,0.013523,0.002678,0.000431,0.000940
44195000,0.0324,0.013523,0.002678,0.000431,0.001058
44196000,0.0324,0.013523,0.002678,0.000431,0.000705
44197000,0.0324,0.013523,0.002678,0.000431,0.001175
44198000,0.0324,0.013523,0.002678,0.000431,0.000823
44199000,0.0324,0.013523,0.002678,0.000431,0.000940
44200000,0.0324,0.013523,0.002678,0.000431,0.001175
44201000,0.0324,0.013523,0.002678,0.000431,0.001175
44202000,0.0324,0.013523,0.002678,0.000431,0.000823
44203000,0.0324,0.013523,0.002678,0.000431,0.000940
44204000,0.0324,0.013523,0.002678,0.000431,0.000940
44205000,0.0324,0.013523,0.002678,0.000431,0.000940
44206000,0.0324,0.013523,0.002678,0.000431,0.000823
44207000,0.0324,0.013523,0.002678,0.000431,0.001058
44208000,0.0324,0.013523,0.002678,0.000431,0.000940
44209000,0.0324,0.013523,0.002678,0.000431,0.000940
44210000,0.0324,0.013523,0.002678,0.000431,0.000940
44211000,0.0324,0.013523,0.002678,0.000431,0.000705
44212000,0.0324,0.013523,0.002678,0.000431,0.001175
44213000,0.0324,0.013523,0.002678,0.000431,0.000823
44214000,0.0324,0.013523,0.002678,0.000431,0.001058
44215000,0.0324,0.013523,0.002678,0.000431,0.000823
44216000,0.0324,0.013523,0.002678,0.000431,0.000823
44217000,0.0324,0.013523,0.002678,0.000431,0.001175
44218000,0.0324,0.013523,0.002678,0.000431,0.000705
44219000,0.0324,0.013523,0.002678,0.000431,0.001058
44220000,0.0324,0.013523,0.002678,0.000431,0.000940
44221000,0.0324,0.013523,0.002678,0.000431,0.002116
44222000,0.0324,0.013523,0.002678,0.000431,0.406177
44223000,0.0324,0.013523,0.002678,0.000431,0.681076
44224000,0.0324,0.013523,0.002678,0.000431,0.179113
44225000,0.0324,0.013523,0.002678,0.000431,0.133394
44226000,0.0324,0.013523,0.002678,0.000431,0.187340
44227000,0.0324,0.013523,0.002678,0.000431,0.564605
44228000,0.0324,0.013523,0.002678,0.000431,0.274898
44229000,0.0324,0.013523,0.002678,0.000431,0.299109
44230000,0.0324,0.013523,0.002678,0.000431,0.210963
44231000,0.0324,0.013523,0.002678,0.000431,0.138683
44232000,0.0324,0.013523,0.002678,0.000431,0.133630
44233000,0.0324,0.013523,0.002678,0.000431,0.253978
44234000,0.0324,0.013523,0.002678,0.000431,0.362927
44235000,0.0324,0.013523,0.002678,0.000431,0.063935
44236000,0.0324,0.013523,0.002678,0.000431,0.044426
44237000,0.0324,0.013523,0.002678,0.000431,0.040195
44238000,0.0324,0.013523,0.002678,0.000431,0.031027
44239000,0.0324,0.013523,0.002678,0.000431,0.030087
44240000,0.0324,0.013523,0.002678,0.000431,0.025269
44241000,0.0324,0.013523,0.002678,0.000431,0.025151
44242000,0.0324,0.013523,0.002678,0.000431,0.024563
44243000,0.0324,0.013523,0.002678,0.000431,0.017512
44244000,0.0324,0.013523,0.002678,0.000431,0.018099
44245000,0.0324,0.013523,0.002678,0.000431,0.016101
44246000,0.0324,0.013523,0.002678,0.000431,0.015631
44247000,0.0324,0.013523,0.002678,0.000431,0.015866
44248000,0.0324,0.013523,0.002678,0.000431,0.018805
44249000,0.0324,0.013523,0.002678,0.000431,0.015044
44250000,0.0324,0.013523,0.002678,0.000431,0.015631
44251000,0.0324,0.013523,0.002678,0.000431,0.014573
44252000,0.0324,0.013523,0.002678,0.000431,0.011283
44253000,0.0324,0.013523,0.002678,0.000431,0.014926
44254000,0.0324,0.013523,0.002678,0.000431,0.008932
44255000,0.0324,0.013523,0.002678,0.000431,0.011870
44256000,0.0324,0.013523,0.002678,0.000431,0.007639
44257000,0.0324,0.013523,0.002678,0.000431,0.008580
44258000,0.0324,0.013523,0.002678,0.000431,0.011048
44259000,0.0324,0.013523,0.002678,0.000431,0.005994
44260000,0.0324,0.013523,0.002678,0.000431,0.006817
44261000,0.0324,0.013523,0.002678,0.000431,0.006582
44262000,0.0324,0.013523,0.002678,0.000431,0.007522
44263000,0.0324,0.013523,0.002678,0.000431,0.004113
44264000,0.0324,0.013523,0.002678,0.000431,0.004113
44265000,0.0324,0.013523,0.002678,0.000431,0.004349
44266000,0.0324,0.013523,0.002678,0.000431,0.005406
44267000,0.0324,0.013523,0.002678,0.000431,0.003526
44268000,0.0324,0.013523,0.002678,0.000431,0.004584
44269000,0.0324,0.013523,0.002678,0.000431,0.001998
44270000,0.0324,0.013523,0.002678,0.000431,0.001528
44271000,0.0324,0.013523,0.002678,0.000431,0.001763
44272000,0.0324,0.013523,0.002678,0.000431,0.001763
44273000,0.0324,0.013523,0.002678,0.000431,0.001645
44274000,0.0324,0.013523,0.002678,0.000431,0.001645
44275000,0.0324,0.013523,0.002678,0.000431,0.001763
44276000,0.0324,0.013523,0.002678,0.000431,0.001880
44277000,0.0324,0.013523,0.002678,0.000431,0.001645
44278000,0.0324,0.013523,0.002678,0.000431,0.001645
44279000,0.0324,0.013523,0.002678,0.000431,0.001645
44280000,0.0324,0.013523,0.002678,0.000431,0.001763
44281000,0.0324,0.013523,0.002678,0.000431,0.001880
44282000,0.0324,0.013523,0.002678,0.000431,0.001528
44283000,0.0324,0.013523,0.002678,0.000431,0.001880
44284000,0.0324,0.013523,0.002678,0.000431,0.001528
44285000,0.0324,0.013523,0.002678,0.000431,0.001763
44286000,0.0324,0.013523,0.002678,0.000431,0.001880
44287000,0.0324,0.013523,0.002678,0.000431,0.001880
44288000,0.0324,0.013523,0.002678,0.000431,0.001763
44289000,0.0324,0.013523,0.002678,0.000431,0.001645
44290000,0.0324,0.013523,0.002678,0.000431,0.001880
44291000,0.0324,0.013523,0.002678,0.000431,0.001763
44292000,0.0324,0.013523,0.002678,0.000431,0.001763
44293000,0.0324,0.013523,0.002678,0.000431,0.001645
44294000,0.0324,0.013523,0.002678,0.000431,0.001763
44295000,0.0324,0.013523,0.002678,0.000431,0.001880
44296000,0.0324,0.013523,0.002678,0.000431,0.003173
44297000,0.0324,0.013523,0.002678,0.000431,0.000823
44298000,0.0324,0.013523,0.002678,0.000431,0.000940
44299000,0.0324,0.013523,0.002678,0.000431,0.000823
44300000,0.0324,0.013523,0.002678,0.000431,0.000940
44301000,0.0324,0.013523,0.002678,0.000431,0.000823
44302000,0.0324,0.013523,0.002678,0.000431,0.000823
44303000,0.0324,0.013523,0.002678,0.000431,0.000940
44304000,0.0324,0.013523,0.002678,0.000431,0.000940
44305000,0.0324,0.013523,0.002678,0.000431,0.000823
44306000,0.0324,0.013523,0.002678,0.000431,0.000823
44307000,0.0324,0.013523,0.002678,0.000431,0.000940
44308000,0.0324,0.013523,0.002678,0.000431,0.000940
44309000,0.0324,0.013523,0.002678,0.000431,0.000705
44310000,0.0324,0.013523,0.002678,0.000431,0.000940
44311000,0.0324,0.013523,0.002678,0.000431,0.000940
44312000,0.0324,0.013523,0.002678,0.000431,0.000940
44313000,0.0324,0.013523,0.002678,0.000431,0.000823
44314000,0.0324,0.013523,0.002678,0.000431,0.000823
44315000,0.0324,0.013523,0.002678,0.000431,0.000940
44316000,0.0324,0.013523,0.002678,0.000431,0.000823
44317000,0.0324,0.013523,0.002678,0.000431,0.000940
44318000,0.0324,0.013523,0.002678,0.000431,0.000823
44319000,0.0324,0.013523,0.002678,0.000431,0.000940
44320000,0.0324,0.013523,0.002678,0.000431,0.000823
44321000,0.0324,0.013523,0.002678,0.000431,0.000823
44322000,0.0324,0.013523,0.002678,0.000431,0.000940
44323000,0.0324,0.013523,0.002678,0.000431,0.000940
44324000,0.0324,0.013523,0.002678,0.000431,0.000823
44325000,0.0324,0.013523,0.002678,0.000431,0.000823
44326000,0.0324,0.013523,0.002678,0.000431,0.000940
44327000,0.0324,0.013523,0.002678,0.000431,0.000940
44328000,0.0324,0.013523,0.002678,0.000431,0.000705
44329000,0.0324,0.013523,0.002678,0.000431,0.000940
44330000,0.0324,0.013523,0.002678,0.000431,0.000940
44331000,0.0324,0.013523,0.002678,0.000431,0.000940
44332000,0.0324,0.013523,0.002678,0.000431,0.000705
44333000,0.0324,0.013523,0.002678,0.000431,0.000940
44334000,0.0324,0.013523,0.002678,0.000431,0.000940
44335000,0.0324,0.013523,0.002678,0.000431,0.000823
44336000,0.0324,0.013523,0.002678,0.000431,0.000823
44337000,0.0324,0.013523,0.002678,0.000431,0.000940
44338000,0.0324,0.013523,0.002678,0.000431,0.000940
44339000,0.0324,0.013523,0.002678,0.000431,0.000823
44340000,0.0324,0.013523,0.002678,0.000431,0.000823
44341000,0.0324,0.013523,0.002678,0.000431,0.000940
44342000,0.0324,0.013523,0.002678,0.000431,0.000823
44343000,0.0324,0.013523,0.002678,0.000431,0.000823
44344000,0.0324,0.013523,0.002678,0.000431,0.000940
44345000,0.0324,0.013523,0.002678,0.000431,0.000940
44346000,0.0324,0.013523,0.002678,0.000431,0.000940
44347000,0.0324,0.013523,0.002678,0.000431,0.000705
44348000,0.0324,0.013523,0.002678,0.000431,0.000940
44349000,0.0324,0.013523,0.002678,0.000431,0.000940
44350000,0.0324,0.013523,0.002678,0.000431,0.000823
44351000,0.0324,0.013523,0.002678,0.000431,0.000823
44352000,0.0324,0.013523,0.002678,0.000431,0.000940
44353000,0.0324,0.013523,0.002678,0.000431,0.000940
44354000,0.0324,0.013523,0.002678,0.000431,0.000823
44355000,0.0324,0.013523,0.002678,0.000431,0.000823
44356000,0.0324,0.013523,0.002678,0.000431,0.000940
44357000,0.0324,0.013523,0.002678,0.000431,0.000823
44358000,0.0324,0.013523,0.002678,0.000431,0.000940
44359000,0.0324,0.013523,0.002678,0.000431,0.000823
44360000,0.0324,0.013523,0.002678,0.000431,0.000940
44361000,0.0324,0.013523,0.002678,0.000431,0.000823
44362000,0.0324,0.013523,0.002678,0.000431,0.000823
44363000,0.0324,0.013523,0.002678,0.000431,0.000940
44364000,0.0324,0.013523,0.002678,0.000431,0.000940
44365000,0.0324,0.013523,0.002678,0.000431,0.000823
44366000,0.0324,0.013523,0.002678,0.000431,0.000823
44367000,0.0324,0.013523,0.002678,0.000431,0.000940
44368000,0.0324,0.013523,0.002678,0.000431,0.000940
44369000,0.0324,0.013523,0.002678,0.000431,0.000823
44370000,0.0324,0.013523,0.002678,0.000431,0.000823
44371000,0.0324,0.013523,0.002678,0.000431,0.000940
44372000,0.0324,0.013523,0.002678,0.000431,0.000940
44373000,0.0324,0.013523,0.002678,0.000431,0.000823
44374000,0.0324,0.013523,0.002678,0.000431,0.000823
44375000,0.0324,0.013523,0.002678,0.000431,0.000940
44376000,0.0324,0.013523,0.002678,0.000431,0.000823
44377000,0.0324,0.013523,0.002678,0.000431,0.000940
44378000,0.0324,0.013523,0.002678,0.000431,0.000823
44379000,0.0324,0.013523,0.002678,0.000431,0.000940
44380000,0.0324,0.013523,0.002678,0.000431,0.000823
44381000,0.0324,0.013523,0.002678,0.000431,0.000823
44382000,0.0324,0.013523,0.002678,0.000431,0.000940
44383000,0.0324,0.013523,0.002678,0.000431,0.000940
44384000,0.0324,0.013523,0.002678,0.000431,0.000705
44385000,0.0324,0.013523,0.002678,0.000431,0.000940
44386000,0.0324,0.013523,0.002678,0.000431,0.000940
44387000,0.0324,0.013523,0.002678,0.000431,0.000940
44388000,0.0324,0.013523,0.002678,0.000431,0.000705
44389000,0.0324,0.013523,0.002678,0.000431,0.000940
44390000,0.0324,0.013523,0.002678,0.000431,0.000940
44391000,0.0324,0.013523,0.002678,0.000431,0.000823
44392000,0.0324,0.013523,0.002678,0.000431,0.000823
44393000,0.0324,0.013523,0.002678,0.000431,0.000940
44394000,0.0324,0.013523,0.002678,0.000431,0.000940
44395000,0.0324,0.013523,0.002678,0.000431,0.000823
44396000,0.0324,0.013523,0.002678,0.000431,0.000823
44397000,0.0324,0.013523,0.002678,0.000431,0.000940
44398000,0.0324,0.013523,0.002678,0.000431,0.000823
44399000,0.0324,0.013523,0.002678,0.000431,0.000940
44400000,0.0324,0.013523,0.002678,0.000431,0.000823
44401000,0.0324,0.013523,0.002678,0.000431,0.000940
44402000,0.0324,0.013523,0.002678,0.000431,0.000823
44403000,0.0324,0.013523,0.002678,0.000431,0.000823
44404000,0.0324,0.013523,0.002678,0.000431,0.000940
44405000,0.0324,0.013523,0.002678,0.000431,0.000940
44406000,0.0324,0.013523,0.002678,0.000431,0.000940
44407000,0.0324,0.013523,0.002678,0.000431,0.000705
44408000,0.0324,0.013523,0.002678,0.000431,0.000940
44409000,0.0324,0.013523,0.002678,0.000431,0.000940
44410000,0.0324,0.013523,0.002678,0.000431,0.000823
44411000,0.0324,0.013523,0.002678,0.000431,0.000823
44412000,0.0324,0.013523,0.002678,0.000431,0.000940
44413000,0.0324,0.013523,0.002678,0.000431,0.000940
44414000,0.0324,0.013523,0.002678,0.000431,0.000823
44415000,0.0324,0.013523,0.002678,0.000431,0.000823
44416000,0.0324,0.013523,0.002678,0.000431,0.000940
44417000,0.0324,0.013523,0.002678,0.000431,0.000823
44418000,0.0324,0.013523,0.002678,0.000431,0.000940
44419000,0.0324,0.013523,0.002678,0.000431,0.000823
44420000,0.0324,0.013523,0.002678,0.000431,0.000940
44421000,0.0324,0.013523,0.002678,0.000431,0.000823
44422000,0.0324,0.013523,0.002678,0.000431,0.000823
44423000,0.0324,0.013523,0.002678,0.000431,0.000940
44424000,0.0324,0.013523,0.002678,0.000431,0.000940
44425000,0.0324,0.013523,0.002678,0.000431,0.000823
44426000,0.0324,0.013523,0.002678,0.000431,0.000823
44427000,0.0324,0.013523,0.002678,0.000431,0.000940
44428000,0.0324,0.013523,0.002678,0.000431,0.000940
44429000,0.0324,0.013523,0.002678,0.000431,0.000823
44430000,0.0324,0.013523,0.002678,0.000431,0.000823
44431000,0.0324,0.013523,0.002678,0.000431,0.000940
44432000,0.0324,0.013523,0.002678,0.000431,0.035729
44433000,0.0324,0.013523,0.002678,0.000431,0.497027
44434000,0.0324,0.013523,0.002678,0.000431,0.602567
44435000,0.0324,0.013523,0.002678,0.000431,0.131632
44436000,0.0324,0.013523,0.002678,0.000431,0.134217
44437000,0.0324,0.013523,0.002678,0.000431,0.518652
44438000,0.0324,0.013523,0.002678,0.000431,0.277131
44439000,0.0324,0.013523,0.002678,0.000431,0.299109
44440000,0.0324,0.013523,0.002678,0.000431,0.302518
44441000,0.0324,0.013523,0.002678,0.000431,0.143032
44442000,0.0324,0.013523,0.002678,0.000431,0.140916
44443000,0.0324,0.013523,0.002678,0.000431,0.113885
44444000,0.0324,0.013523,0.002678,0.000431,0.320852
44445000,0.0324,0.013523,0.002678,0.000431,0.316738
44446000,0.0324,0.013523,0.002678,0.000431,0.079567
44447000,0.0324,0.013523,0.002678,0.000431,0.070282
44448000,0.0324,0.013523,0.002678,0.000431,0.055121
44449000,0.0324,0.013523,0.002678,0.000431,0.042310
44450000,0.0324,0.013523,0.002678,0.000431,0.040077
44451000,0.0324,0.013523,0.002678,0.000431,0.040547
44452000,0.0324,0.013523,0.002678,0.000431,0.035729
44453000,0.0324,0.013523,0.002678,0.000431,0.026561
44454000,0.0324,0.013523,0.002678,0.000431,0.026561
44455000,0.0324,0.013523,0.002678,0.000431,0.022448
44456000,0.0324,0.013523,0.002678,0.000431,0.024093
44457000,0.0324,0.013523,0.002678,0.000431,0.017629
44458000,0.0324,0.013523,0.002678,0.000431,0.019040
44459000,0.0324,0.013523,0.002678,0.000431,0.016219
44460000,0.0324,0.013523,0.002678,0.000431,0.016924
44461000,0.0324,0.013523,0.002678,0.000431,0.014456
44462000,0.0324,0.013523,0.002678,0.000431,0.014103
44463000,0.0324,0.013523,0.002678,0.000431,0.016454
44464000,0.0324,0.013523,0.002678,0.000431,0.014103
44465000,0.0324,0.013523,0.002678,0.000431,0.012693
44466000,0.0324,0.013523,0.002678,0.000431,0.009990
44467000,0.0324,0.013523,0.002678,0.000431,0.009990
44468000,0.0324,0.013523,0.002678,0.000431,0.009872
44469000,0.0324,0.013523,0.002678,0.000431,0.009990
44470000,0.0324,0.013523,0.002678,0.000431,0.009285
44471000,0.0324,0.013523,0.002678,0.000431,0.010460
44472000,0.0324,0.013523,0.002678,0.000431,0.008109
44473000,0.0324,0.013523,0.002678,0.000431,0.007639
44474000,0.0324,0.013523,0.002678,0.000431,0.007522
44475000,0.0324,0.013523,0.002678,0.000431,0.007052
44476000,0.0324,0.013523,0.002678,0.000431,0.007287
44477000,0.0324,0.013523,0.002678,0.000431,0.007522
44478000,0.0324,0.013523,0.002678,0.000431,0.007874
44479000,0.0324,0.013523,0.002678,0.000431,0.006699
44480000,0.0324,0.013523,0.002678,0.000431,0.007992
44481000,0.0324,0.013523,0.002678,0.000431,0.006934
44482000,0.0324,0.013523,0.002678,0.000431,0.007287
44483000,0.0324,0.013523,0.002678,0.000431,0.008815
44484000,0.0324,0.013523,0.002678,0.000431,0.005641
44485000,0.0324,0.013523,0.002678,0.000431,0.005524
44486000,0.0324,0.013523,0.002678,0.000431,0.005524
44487000,0.0324,0.013523,0.002678,0.000431,0.005524
44488000,0.0324,0.013523,0.002678,0.000431,0.005994
44489000,0.0324,0.013523,0.002678,0.000431,0.005641
44490000,0.0324,0.013523,0.002678,0.000431,0.005641
44491000,0.0324,0.013523,0.002678,0.000431,0.005759
44492000,0.0324,0.013523,0.002678,0.000431,0.005524
44493000,0.0324,0.013523,0.002678,0.000431,0.005876
44494000,0.0324,0.013523,0.002678,0.000431,0.005524
44495000,0.0324,0.013523,0.002678,0.000431,0.005641
44496000,0.0324,0.013523,0.002678,0.000431,0.005759
44497000,0.0324,0.013523,0.002678,0.000431,0.005876
44498000,0.0324,0.013523,0.002678,0.000431,0.005524
44499000,0.0324,0.013523,0.002678,0.000431,0.005524
44500000,0.0324,0.013523,0.002678,0.000431,0.005994
44501000,0.0324,0.013523,0.002678,0.000431,0.007169
44502000,0.0324,0.013523,0.002678,0.000431,0.004349
44503000,0.0324,0.013523,0.002678,0.000431,0.003878
44504000,0.0324,0.013523,0.002678,0.000431,0.004231
44505000,0.0324,0.013523,0.002678,0.000431,0.003643
44506000,0.0324,0.013523,0.002678,0.000431,0.004466
44507000,0.0324,0.013523,0.002678,0.000431,0.004466
44508000,0.0324,0.013523,0.002678,0.000431,0.003526
44509000,0.0324,0.013523,0.002678,0.000431,0.004466
44510000,0.0324,0.013523,0.002678,0.000431,0.003643
44511000,0.0324,0.013523,0.002678,0.000431,0.004466
44512000,0.0324,0.013523,0.002678,0.000431,0.004113
44513000,0.0324,0.013523,0.002678,0.000431,0.003878
44514000,0.0324,0.013523,0.002678,0.000431,0.004231
44515000,0.0324,0.013523,0.002678,0.000431,0.003996
44516000,0.0324,0.013523,0.002678,0.000431,0.004231
44517000,0.0324,0.013523,0.002678,0.000431,0.003878
44518000,0.0324,0.013523,0.002678,0.000431,0.004349
44519000,0.0324,0.013523,0.002678,0.000431,0.003878
44520000,0.0324,0.013523,0.002678,0.000431,0.004231
44521000,0.0324,0.013523,0.002678,0.000431,0.003996
44522000,0.0324,0.013523,0.002678,0.000431,0.004113
44523000,0.0324,0.013523,0.002678,0.000431,0.004113
44524000,0.0324,0.013523,0.002678,0.000431,0.003878
44525000,0.0324,0.013523,0.002678,0.000431,0.004113
44526000,0.0324,0.013523,0.002678,0.000431,0.004819
44527000,0.0324,0.013523,0.002678,0.000431,0.003526
44528000,0.0324,0.013523,0.002678,0.000431,0.002586
44529000,0.0324,0.013523,0.002678,0.000431,0.002351
44530000,0.0324,0.013523,0.002678,0.000431,0.002468
44531000,0.0324,0.013523,0.002678,0.000431,0.002586
44532000,0.0324,0.013523,0.002678,0.000431,0.002586
44533000,0.0324,0.013523,0.002678,0.000431,0.002468
44534000,0.0324,0.013523,0.002678,0.000431,0.002586
44535000,0.0324,0.013523,0.002678,0.000431,0.002351
44536000,0.0324,0.013523,0.002678,0.000431,0.002586
44537000,0.0324,0.013523,0.002678,0.000431,0.003996
44538000,0.0324,0.013523,0.002678,0.000431,0.001645
44539000,0.0324,0.013523,0.002678,0.000431,0.001645
44540000,0.0324,0.013523,0.002678,0.000431,0.001645
44541000,0.0324,0.013523,0.002678,0.000431,0.001528
44542000,0.0324,0.013523,0.002678,0.000431,0.001880
44543000,0.0324,0.013523,0.002678,0.000431,0.001763
44544000,0.0324,0.013523,0.002678,0.000431,0.001528
44545000,0.0324,0.013523,0.002678,0.000431,0.001763
44546000,0.0324,0.013523,0.002678,0.000431,0.001528
44547000,0.0324,0.013523,0.002678,0.000431,0.001645
44548000,0.0324,0.013523,0.002678,0.000431,0.001880
44549000,0.0324,0.013523,0.002678,0.000431,0.001645
44550000,0.0324,0.013523,0.002678,0.000431,0.001645
44551000,0.0324,0.013523,0.002678,0.000431,0.001645
44552000,0.0324,0.013523,0.002678,0.000431,0.001645
44553000,0.0324,0.013523,0.002678,0.000431,0.001763
44554000,0.0324,0.013523,0.002678,0.000431,0.001645
44555000,0.0324,0.013523,0.002678,0.000431,0.001645
44556000,0.0324,0.013523,0.002678,0.000431,0.001763
44557000,0.0324,0.013523,0.002678,0.000431,0.001645
44558000,0.0324,0.013523,0.002678,0.000431,0.001645
44559000,0.0324,0.013523,0.002678,0.000431,0.001763
44560000,0.0324,0.013523,0.002678,0.000431,0.001645
44561000,0.0324,0.013523,0.002678,0.000431,0.001645
44562000,0.0324,0.013523,0.002678,0.000431,0.001645
44563000,0.0324,0.013523,0.002678,0.000431,0.001763
44564000,0.0324,0.013523,0.002678,0.000431,0.001528
44565000,0.0324,0.013523,0.002678,0.000431,0.001763
44566000,0.0324,0.013523,0.002678,0.000431,0.001763
44567000,0.0324,0.013523,0.002678,0.000431,0.001528
44568000,0.0324,0.013523,0.002678,0.000431,0.001763
44569000,0.0324,0.013523,0.002678,0.000431,0.001528
44570000,0.0324,0.013523,0.002678,0.000431,0.001763
44571000,0.0324,0.013523,0.002678,0.000431,0.001763
44572000,0.0324,0.013523,0.002678,0.000431,0.001528
44573000,0.0324,0.013523,0.002678,0.000431,0.001880
44574000,0.0324,0.013523,0.002678,0.000431,0.001528
44575000,0.0324,0.013523,0.002678,0.000431,0.001763
44576000,0.0324,0.013523,0.002678,0.000431,0.003173
44577000,0.0324,0.013523,0.002678,0.000431,0.002703
44578000,0.0324,0.013523,0.002678,0.000431,0.000823
44579000,0.0324,0.013523,0.002678,0.000431,0.000823
44580000,0.0324,0.013523,0.002678,0.000431,0.000940
44581000,0.0324,0.013523,0.002678,0.000431,0.000705
44582000,0.0324,0.013523,0.002678,0.000431,0.000940
44583000,0.0324,0.013523,0.002678,0.000431,0.000823
44584000,0.0324,0.013523,0.002678,0.000431,0.000823
44585000,0.0324,0.013523,0.002678,0.000431,0.000823
44586000,0.0324,0.013523,0.002678,0.000431,0.000823
44587000,0.0324,0.013523,0.002678,0.000431,0.000823
44588000,0.0324,0.013523,0.002678,0.000431,0.000823
44589000,0.0324,0.013523,0.002678,0.000431,0.000823
44590000,0.0324,0.013523,0.002678,0.000431,0.000940
44591000,0.0324,0.013523,0.002678,0.000431,0.000823
44592000,0.0324,0.013523,0.002678,0.000431,0.000823
44593000,0.0324,0.013523,0.002678,0.000431,0.000823
44594000,0.0324,0.013523,0.002678,0.000431,0.000705
44595000,0.0324,0.013523,0.002678,0.000431,0.000940
44596000,0.0324,0.013523,0.002678,0.000431,0.000940
44597000,0.0324,0.013523,0.002678,0.000431,0.000705
44598000,0.0324,0.013523,0.002678,0.000431,0.000940
44599000,0.0324,0.013523,0.002678,0.000431,0.000705
44600000,0.0324,0.013523,0.002678,0.000431,0.000940
44601000,0.0324,0.013523,0.002678,0.000431,0.000823
44602000,0.0324,0.013523,0.002678,0.000431,0.000823
44603000,0.0324,0.013523,0.002678,0.000431,0.000940
44604000,0.0324,0.013523,0.002678,0.000431,0.000705
44605000,0.0324,0.013523,0.002678,0.000431,0.000940
44606000,0.0324,0.013523,0.002678,0.000431,0.000823
44607000,0.0324,0.013523,0.002678,0.000431,0.000823
44608000,0.0324,0.013523,0.002678,0.000431,0.000823
44609000,0.0324,0.013523,0.002678,0.000431,0.000823
44610000,0.0324,0.013523,0.002678,0.000431,0.000940
44611000,0.0324,0.013523,0.002678,0.000431,0.000705
44612000,0.0324,0.013523,0.002678,0.000431,0.000940
44613000,0.0324,0.013523,0.002678,0.000431,0.000705
44614000,0.0324,0.013523,0.002678,0.000431,0.000940
44615000,0.0324,0.013523,0.002678,0.000431,0.000823
44616000,0.0324,0.013523,0.002678,0.000431,0.000823
44617000,0.0324,0.013523,0.002678,0.000431,0.000705
44618000,0.0324,0.013523,0.002678,0.000431,0.000940
44619000,0.0324,0.013523,0.002678,0.000431,0.000940
44620000,0.0324,0.013523,0.002678,0.000431,0.000705
44621000,0.0324,0.013523,0.002678,0.000431,0.000940
44622000,0.0324,0.013523,0.002678,0.000431,0.000705
44623000,0.0324,0.013523,0.002678,0.000431,0.000940
44624000,0.0324,0.013523,0.002678,0.000431,0.000823
44625000,0.0324,0.013523,0.002678,0.000431,0.000823
44626000,0.0324,0.013523,0.002678,0.000431,0.000940
44627000,0.0324,0.013523,0.002678,0.000431,0.000705
44628000,0.0324,0.013523,0.002678,0.000431,0.000940
44629000,0.0324,0.013523,0.002678,0.000431,0.000823
44630000,0.0324,0.013523,0.002678,0.000431,0.000823
44631000,0.0324,0.013523,0.002678,0.000431,0.000823
44632000,0.0324,0.013523,0.002678,0.000431,0.000823
44633000,0.0324,0.013523,0.002678,0.000431,0.000823
44634000,0.0324,0.013523,0.002678,0.000431,0.000823
44635000,0.0324,0.013523,0.002678,0.000431,0.000940
44636000,0.0324,0.013523,0.002678,0.000431,0.000823
44637000,0.0324,0.013523,0.002678,0.000431,0.000823
44638000,0.0324,0.013523,0.002678,0.000431,0.000823
44639000,0.0324,0.013523,0.002678,0.000431,0.000823
44640000,0.0324,0.013523,0.002678,0.000431,0.000823
44641000,0.0324,0.013523,0.002678,0.000431,0.000823
44642000,0.0324,0.013523,0.002678,0.000431,0.000823
44643000,0.0324,0.013523,0.002678,0.000431,0.000823
44644000,0.0324,0.013523,0.002678,0.000431,0.000940
44645000,0.0324,0.013523,0.002678,0.000431,0.000823
44646000,0.0324,0.013523,0.002678,0.000431,0.000823
44647000,0.0324,0.013523,0.002678,0.000431,0.000705
44648000,0.0324,0.013523,0.002678,0.000431,0.000940
44649000,0.0324,0.013523,0.002678,0.000431,0.000940
44650000,0.0324,0.013523,0.002678,0.000431,0.000705
44651000,0.0324,0.013523,0.002678,0.000431,0.000940
44652000,0.0324,0.013523,0.002678,0.000431,0.000705
44653000,0.0324,0.013523,0.002678,0.000431,0.000940
44654000,0.0324,0.013523,0.002678,0.000431,0.000823
44655000,0.0324,0.013523,0.002678,0.000431,0.000823
44656000,0.0324,0.013523,0.002678,0.000431,0.000940
44657000,0.0324,0.013523,0.002678,0.000431,0.000705
44658000,0.0324,0.013523,0.002678,0.000431,0.000940
44659000,0.0324,0.013523,0.002678,0.000431,0.000823
44660000,0.0324,0.013523,0.002678,0.000431,0.000823
44661000,0.0324,0.013523,0.002678,0.000431,0.000823
44662000,0.0324,0.013523,0.002678,0.000431,0.000823
44663000,0.0324,0.013523,0.002678,0.000431,0.000823
44664000,0.0324,0.013523,0.002678,0.000431,0.000823
44665000,0.0324,0.013523,0.002678,0.000431,0.000940
44666000,0.0324,0.013523,0.002678,0.000431,0.000705
44667000,0.0324,0.013523,0.002678,0.000431,0.000940
44668000,0.0324,0.013523,0.002678,0.000431,0.000823
44669000,0.0324,0.013523,0.002678,0.000431,0.000823
44670000,0.0324,0.013523,0.002678,0.000431,0.000705
44671000,0.0324,0.013523,0.002678,0.000431,0.000940
44672000,0.0324,0.013523,0.002678,0.000431,0.000940
44673000,0.0324,0.013523,0.002678,0.000431,0.000705
44674000,0.0324,0.013523,0.002678,0.000431,0.000940
44675000,0.0324,0.013523,0.002678,0.000431,0.000705
44676000,0.0324,0.013523,0.002678,0.000431,0.000940
44677000,0.0324,0.013523,0.002678,0.000431,0.000823
44678000,0.0324,0.013523,0.002678,0.000431,0.000823
44679000,0.0324,0.013523,0.002678,0.000431,0.000940
44680000,0.0324,0.013523,0.002678,0.000431,0.000705
44681000,0.0324,0.013523,0.002678,0.000431,0.000940
44682000,0.0324,0.013523,0.002678,0.000431,0.000823
44683000,0.0324,0.013523,0.002678,0.000431,0.000823
44684000,0.0324,0.013523,0.002678,0.000431,0.000823
44685000,0.0324,0.013523,0.002678,0.000431,0.000823
44686000,0.0324,0.013523,0.002678,0.000431,0.000823
44687000,0.0324,0.013523,0.002678,0.000431,0.000823
44688000,0.0324,0.013523,0.002678,0.000431,0.000940
44689000,0.0324,0.013523,0.002678,0.000431,0.000705
44690000,0.0324,0.013523,0.002678,0.000431,0.000823
44691000,0.0324,0.013523,0.002678,0.000431,0.000940
44692000,0.0324,0.013523,0.002678,0.000431,0.000823
44693000,0.0324,0.013523,0.002678,0.000431,0.000823
44694000,0.0324,0.013523,0.002678,0.000431,0.000823
44695000,0.0324,0.013523,0.002678,0.000431,0.000705
44696000,0.0324,0.013523,0.002678,0.000431,0.000940
44697000,0.0324,0.013523,0.002678,0.000431,0.000940
44698000,0.0324,0.013523,0.002678,0.000431,0.000705
44699000,0.0324,0.013523,0.002678,0.000431,0.000940
44700000,0.0324,0.013523,0.002678,0.000431,0.000705
44701000,0.0324,0.013523,0.002678,0.000431,0.000940
44702000,0.0324,0.013523,0.002678,0.000431,0.000940
44703000,0.0324,0.013523,0.002678,0.000431,0.000705
44704000,0.0324,0.013523,0.002678,0.000431,0.000940
44705000,0.0324,0.013523,0.002678,0.000431,0.000705
44706000,0.0324,0.013523,0.002678,0.000431,0.000940
44707000,0.0324,0.013523,0.002678,0.000431,0.000823
44708000,0.0324,0.013523,0.002678,0.000431,0.000823
44709000,0.0324,0.013523,0.002678,0.000431,0.000940
44710000,0.0324,0.013523,0.002678,0.000431,0.000705
44711000,0.0324,0.013523,0.002678,0.000431,0.000940
44712000,0.0324,0.013523,0.002678,0.000431,0.000823
44713000,0.0324,0.013523,0.002678,0.000431,0.000823
44714000,0.0324,0.013523,0.002678,0.000431,0.071575
44715000,0.0324,0.013523,0.002678,0.000431,0.537221
44716000,0.0324,0.013523,0.002678,0.000431,0.581294
44717000,0.0324,0.013523,0.002678,0.000431,0.131632
44718000,0.0324,0.013523,0.002678,0.000431,0.133512
44719000,0.0324,0.013523,0.002678,0.000431,0.630186
44720000,0.0324,0.013523,0.002678,0.000431,0.248102
44721000,0.0324,0.013523,0.002678,0.000431,0.263968
44722000,0.0324,0.013523,0.002678,0.000431,0.279717
44723000,0.0324,0.013523,0.002678,0.000431,0.139623
44724000,0.0324,0.013523,0.002678,0.000431,0.162424
44725000,0.0324,0.013523,0.002678,0.000431,0.150436
44726000,0.0324,0.013523,0.002678,0.000431,0.469408
44727000,0.0324,0.013523,0.002678,0.000431,0.107891
44728000,0.0324,0.013523,0.002678,0.000431,0.070752
44729000,0.0324,0.013523,0.002678,0.000431,0.062055
44730000,0.0324,0.013523,0.002678,0.000431,0.055708
44731000,0.0324,0.013523,0.002678,0.000431,0.043015
44732000,0.0324,0.013523,0.002678,0.000431,0.040782
44733000,0.0324,0.013523,0.002678,0.000431,0.032555
44734000,0.0324,0.013523,0.002678,0.000431,0.033378
44735000,0.0324,0.013523,0.002678,0.000431,0.025856
44736000,0.0324,0.013523,0.002678,0.000431,0.024328
44737000,0.0324,0.013523,0.002678,0.000431,0.020450
44738000,0.0324,0.013523,0.002678,0.000431,0.026326
44739000,0.0324,0.013523,0.002678,0.000431,0.019745
44740000,0.0324,0.013523,0.002678,0.000431,0.017629
44741000,0.0324,0.013523,0.002678,0.000431,0.016101
44742000,0.0324,0.013523,0.002678,0.000431,0.015866
44743000,0.0324,0.013523,0.002678,0.000431,0.011988
44744000,0.0324,0.013523,0.002678,0.000431,0.009167
44745000,0.0324,0.013523,0.002678,0.000431,0.008932
44746000,0.0324,0.013523,0.002678,0.000431,0.014573
44747000,0.0324,0.013523,0.002678,0.000431,0.005641
44748000,0.0324,0.013523,0.002678,0.000431,0.006347
44749000,0.0324,0.013523,0.002678,0.000431,0.005759
44750000,0.0324,0.013523,0.002678,0.000431,0.005171
44751000,0.0324,0.013523,0.002678,0.000431,0.005289
44752000,0.0324,0.013523,0.002678,0.000431,0.005054
44753000,0.0324,0.013523,0.002678,0.000431,0.005289
44754000,0.0324,0.013523,0.002678,0.000431,0.005054
44755000,0.0324,0.013523,0.002678,0.000431,0.004701
44756000,0.0324,0.013523,0.002678,0.000431,0.004584
44757000,0.0324,0.013523,0.002678,0.000431,0.004584
44758000,0.0324,0.013523,0.002678,0.000431,0.006464
44759000,0.0324,0.013523,0.002678,0.000431,0.003526
44760000,0.0324,0.013523,0.002678,0.000431,0.003173
44761000,0.0324,0.013523,0.002678,0.000431,0.003291
44762000,0.0324,0.013523,0.002678,0.000431,0.003526
44763000,0.0324,0.013523,0.002678,0.000431,0.003056
44764000,0.0324,0.013523,0.002678,0.000431,0.003291
44765000,0.0324,0.013523,0.002678,0.000431,0.003291
44766000,0.0324,0.013523,0.002678,0.000431,0.003291
44767000,0.0324,0.013523,0.002678,0.000431,0.004701
44768000,0.0324,0.013523,0.002678,0.000431,0.003996
44769000,0.0324,0.013523,0.002678,0.000431,0.003056
44770000,0.0324,0.013523,0.002678,0.000431,0.001645
44771000,0.0324,0.013523,0.002678,0.000431,0.001410
44772000,0.0324,0.013523,0.002678,0.000431,0.071222
44773000,0.0324,0.013523,0.002678,0.000431,0.552265
44774000,0.0324,0.013523,0.002678,0.000431,0.591519
44775000,0.0324,0.013523,0.002678,0.000431,0.132454
44776000,0.0324,0.013523,0.002678,0.000431,0.134452
44777000,0.0324,0.013523,0.002678,0.000431,0.589051
44778000,0.0324,0.013523,0.002678,0.000431,0.234116
44779000,0.0324,0.013523,0.002678,0.000431,0.324613
44780000,0.0324,0.013523,0.002678,0.000431,0.303810
44781000,0.0324,0.013523,0.002678,0.000431,0.142092
44782000,0.0324,0.013523,0.002678,0.000431,0.135040
44783000,0.0324,0.013523,0.002678,0.000431,0.229533
44784000,0.0324,0.013523,0.002678,0.000431,0.402299
44785000,0.0324,0.013523,0.002678,0.000431,0.079802
44786000,0.0324,0.013523,0.002678,0.000431,0.075571
44787000,0.0324,0.013523,0.002678,0.000431,0.058412
44788000,0.0324,0.013523,0.002678,0.000431,0.049479
44789000,0.0324,0.013523,0.002678,0.000431,0.045366
44790000,0.0324,0.013523,0.002678,0.000431,0.031498
44791000,0.0324,0.013523,0.002678,0.000431,0.022565
44792000,0.0324,0.013523,0.002678,0.000431,0.021390
44793000,0.0324,0.013523,0.002678,0.000431,0.017512
44794000,0.0324,0.013523,0.002678,0.000431,0.022800
44795000,0.0324,0.013523,0.002678,0.000431,0.019745
44796000,0.0324,0.013523,0.002678,0.000431,0.014926
44797000,0.0324,0.013523,0.002678,0.000431,0.011165
44798000,0.0324,0.013523,0.002678,0.000431,0.010342
44799000,0.0324,0.013523,0.002678,0.000431,0.012811
44800000,0.0324,0.013523,0.002678,0.000431,0.009050
44801000,0.0324,0.013523,0.002678,0.000431,0.008345
44802000,0.0324,0.013523,0.002678,0.000431,0.010695
44803000,0.0324,0.013523,0.002678,0.000431,0.009050
44804000,0.0324,0.013523,0.002678,0.000431,0.008580
44805000,0.0324,0.013523,0.002678,0.000431,0.009285
44806000,0.0324,0.013523,0.002678,0.000431,0.005641
44807000,0.0324,0.013523,0.002678,0.000431,0.005876
44808000,0.0324,0.013523,0.002678,0.000431,0.006229
44809000,0.0324,0.013523,0.002678,0.000431,0.006347
44810000,0.0324,0.013523,0.002678,0.000431,0.005171
44811000,0.0324,0.013523,0.002678,0.000431,0.004466
44812000,0.0324,0.013523,0.002678,0.000431,0.005289
44813000,0.0324,0.013523,0.002678,0.000431,0.004701
44814000,0.0324,0.013523,0.002678,0.000431,0.007287
44815000,0.0324,0.013523,0.002678,0.000431,0.004231
44816000,0.0324,0.013523,0.002678,0.000431,0.003996
44817000,0.0324,0.013523,0.002678,0.000431,0.004113
44818000,0.0324,0.013523,0.002678,0.000431,0.004231
44819000,0.0324,0.013523,0.002678,0.000431,0.004113
44820000,0.0324,0.013523,0.002678,0.000431,0.003996
44821000,0.0324,0.013523,0.002678,0.000431,0.004231
44822000,0.0324,0.013523,0.002678,0.000431,0.004113
44823000,0.0324,0.013523,0.002678,0.000431,0.004466
44824000,0.0324,0.013523,0.002678,0.000431,0.003173
44825000,0.0324,0.013523,0.002678,0.000431,0.003526
44826000,0.0324,0.013523,0.002678,0.000431,0.003408
44827000,0.0324,0.013523,0.002678,0.000431,0.003526
44828000,0.0324,0.013523,0.002678,0.000431,0.003291
44829000,0.0324,0.013523,0.002678,0.000431,0.003408
44830000,0.0324,0.013523,0.002678,0.000431,0.003761
44831000,0.0324,0.013523,0.002678,0.000431,0.003291
44832000,0.0324,0.013523,0.002678,0.000431,0.004466
44833000,0.0324,0.013523,0.002678,0.000431,0.002586
44834000,0.0324,0.013523,0.002678,0.000431,0.002703
44835000,0.0324,0.013523,0.002678,0.000431,0.002351
44836000,0.0324,0.013523,0.002678,0.000431,0.002703
44837000,0.0324,0.013523,0.002678,0.000431,0.005876
44838000,0.0324,0.013523,0.002678,0.000431,0.001645
44839000,0.0324,0.013523,0.002678,0.000431,0.001763
44840000,0.0324,0.013523,0.002678,0.000431,0.001528
44841000,0.0324,0.013523,0.002678,0.000431,0.001880
44842000,0.0324,0.013523,0.002678,0.000431,0.001763
44843000,0.0324,0.013523,0.002678,0.000431,0.001763
44844000,0.0324,0.013523,0.002678,0.000431,0.001645
44845000,0.0324,0.013523,0.002678,0.000431,0.001880
44846000,0.0324,0.013523,0.002678,0.000431,0.001880
44847000,0.0324,0.013523,0.002678,0.000431,0.001410
44848000,0.0324,0.013523,0.002678,0.000431,0.001880
44849000,0.0324,0.013523,0.002678,0.000431,0.001880
44850000,0.0324,0.013523,0.002678,0.000431,0.001880
44851000,0.0324,0.013523,0.002678,0.000431,0.001410
44852000,0.0324,0.013523,0.002678,0.000431,0.001880
44853000,0.0324,0.013523,0.002678,0.000431,0.001645
44854000,0.0324,0.013523,0.002678,0.000431,0.001763
44855000,0.0324,0.013523,0.002678,0.000431,0.001645
44856000,0.0324,0.013523,0.002678,0.000431,0.003526
44857000,0.0324,0.013523,0.002678,0.000431,0.000940
44858000,0.0324,0.013523,0.002678,0.000431,0.000823
44859000,0.0324,0.013523,0.002678,0.000431,0.000823
44860000,0.0324,0.013523,0.002678,0.000431,0.000940
44861000,0.0324,0.013523,0.002678,0.000431,0.000823
44862000,0.0324,0.013523,0.002678,0.000431,0.000940
44863000,0.0324,0.013523,0.002678,0.000431,0.000823
44864000,0.0324,0.013523,0.002678,0.000431,0.000940
44865000,0.0324,0.013523,0.002678,0.000431,0.000823
44866000,0.0324,0.013523,0.002678,0.000431,0.000823
44867000,0.0324,0.013523,0.002678,0.000431,0.000940
44868000,0.0324,0.013523,0.002678,0.000431,0.000940
44869000,0.0324,0.013523,0.002678,0.000431,0.000823
44870000,0.0324,0.013523,0.002678,0.000431,0.000823
44871000,0.0324,0.013523,0.002678,0.000431,0.000940
44872000,0.0324,0.013523,0.002678,0.000431,0.000940
44873000,0.0324,0.013523,0.002678,0.000431,0.000823
44874000,0.0324,0.013523,0.002678,0.000431,0.000823
44875000,0.0324,0.013523,0.002678,0.000431,0.000940
44876000,0.0324,0.013523,0.002678,0.000431,0.000823
44877000,0.0324,0.013523,0.002678,0.000431,0.000940
44878000,0.0324,0.013523,0.002678,0.000431,0.000823
44879000,0.0324,0.013523,0.002678,0.000431,0.000940
44880000,0.0324,0.013523,0.002678,0.000431,0.000823
44881000,0.0324,0.013523,0.002678,0.000431,0.000823
44882000,0.0324,0.013523,0.002678,0.000431,0.000940
44883000,0.0324,0.013523,0.002678,0.000431,0.000940
44884000,0.0324,0.013523,0.002678,0.000431,0.000823
44885000,0.0324,0.013523,0.002678,0.000431,0.000823
44886000,0.0324,0.013523,0.002678,0.000431,0.000940
44887000,0.0324,0.013523,0.002678,0.000431,0.000940
44888000,0.0324,0.013523,0.002678,0.000431,0.000705
44889000,0.0324,0.013523,0.002678,0.000431,0.000940
44890000,0.0324,0.013523,0.002678,0.000431,0.000940
44891000,0.0324,0.013523,0.002678,0.000431,0.000940
44892000,0.0324,0.013523,0.002678,0.000431,0.000705
44893000,0.0324,0.013523,0.002678,0.000431,0.000940
44894000,0.0324,0.013523,0.002678,0.000431,0.000940
44895000,0.0324,0.013523,0.002678,0.000431,0.000823
44896000,0.0324,0.013523,0.002678,0.000431,0.000823
44897000,0.0324,0.013523,0.002678,0.000431,0.000940
44898000,0.0324,0.013523,0.002678,0.000431,0.000940
44899000,0.0324,0.013523,0.002678,0.000431,0.000823
44900000,0.0324,0.013523,0.002678,0.000431,0.000823
44901000,0.0324,0.013523,0.002678,0.000431,0.000940
44902000,0.0324,0.013523,0.002678,0.000431,0.000823
44903000,0.0324,0.013523,0.002678,0.000431,0.000940
44904000,0.0324,0.013523,0.002678,0.000431,0.000823
44905000,0.0324,0.013523,0.002678,0.000431,0.000940
44906000,0.0324,0.013523,0.002678,0.000431,0.000940
44907000,0.0324,0.013523,0.002678,0.000431,0.000705
44908000,0.0324,0.013523,0.002678,0.000431,0.000940
44909000,0.0324,0.013523,0.002678,0.000431,0.000940
44910000,0.0324,0.013523,0.002678,0.000431,0.000940
44911000,0.0324,0.013523,0.002678,0.000431,0.000705
44912000,0.0324,0.013523,0.002678,0.000431,0.000940
44913000,0.0324,0.013523,0.002678,0.000431,0.000940
44914000,0.0324,0.013523,0.002678,0.000431,0.000823
44915000,0.0324,0.013523,0.002678,0.000431,0.000823
44916000,0.0324,0.013523,0.002678,0.000431,0.000940
44917000,0.0324,0.013523,0.002678,0.000431,0.000823
44918000,0.0324,0.013523,0.002678,0.000431,0.000940
44919000,0.0324,0.013523,0.002678,0.000431,0.000823
44920000,0.0324,0.013523,0.002678,0.000431,0.000940
44921000,0.0324,0.013523,0.002678,0.000431,0.000823
44922000,0.0324,0.013523,0.002678,0.000431,0.000823
44923000,0.0324,0.013523,0.002678,0.000431,0.000940
44924000,0.0324,0.013523,0.002678,0.000431,0.000940
44925000,0.0324,0.013523,0.002678,0.000431,0.000823
44926000,0.0324,0.013523,0.002678,0.000431,0.000823
44927000,0.0324,0.013523,0.002678,0.000431,0.000940
44928000,0.0324,0.013523,0.002678,0.000431,0.000940
44929000,0.0324,0.013523,0.002678,0.000431,0.000705
44930000,0.0324,0.013523,0.002678,0.000431,0.000940
44931000,0.0324,0.013523,0.002678,0.000431,0.000940
44932000,0.0324,0.013523,0.002678,0.000431,0.000940
44933000,0.0324,0.013523,0.002678,0.000431,0.000823
44934000,0.0324,0.013523,0.002678,0.000431,0.000823
44935000,0.0324,0.013523,0.002678,0.000431,0.000940
44936000,0.0324,0.013523,0.002678,0.000431,0.000823
44937000,0.0324,0.013523,0.002678,0.000431,0.000940
44938000,0.0324,0.013523,0.002678,0.000431,0.000823
44939000,0.0324,0.013523,0.002678,0.000431,0.000940
44940000,0.0324,0.013523,0.002678,0.000431,0.000823
44941000,0.0324,0.013523,0.002678,0.000431,0.000823
44942000,0.0324,0.013523,0.002678,0.000431,0.000940
44943000,0.0324,0.013523,0.002678,0.000431,0.000940
44944000,0.0324,0.013523,0.002678,0.000431,0.000823
44945000,0.0324,0.013523,0.002678,0.000431,0.000823
44946000,0.0324,0.013523,0.002678,0.000431,0.000940
44947000,0.0324,0.013523,0.002678,0.000431,0.000940
44948000,0.0324,0.013523,0.002678,0.000431,0.000705
44949000,0.0324,0.013523,0.002678,0.000431,0.000940
44950000,0.0324,0.013523,0.002678,0.000431,0.000940
44951000,0.0324,0.013523,0.002678,0.000431,0.000940
44952000,0.0324,0.013523,0.002678,0.000431,0.000705
44953000,0.0324,0.013523,0.002678,0.000431,0.000940
44954000,0.0324,0.013523,0.002678,0.000431,0.000940
44955000,0.0324,0.013523,0.002678,0.000431,0.000823
44956000,0.0324,0.013523,0.002678,0.000431,0.000823
44957000,0.0324,0.013523,0.002678,0.000431,0.000940
44958000,0.0324,0.013523,0.002678,0.000431,0.000940
44959000,0.0324,0.013523,0.002678,0.000431,0.000823
44960000,0.0324,0.013523,0.002678,0.000431,0.000823
44961000,0.0324,0.013523,0.002678,0.000431,0.000940
44962000,0.0324,0.013523,0.002678,0.000431,0.000823
44963000,0.0324,0.013523,0.002678,0.000431,0.000823
44964000,0.0324,0.013523,0.002678,0.000431,0.015161
44965000,0.0324,0.013523,0.002678,0.000431,0.572480
44966000,0.0324,0.013523,0.002678,0.000431,0.579649
44967000,0.0324,0.013523,0.002678,0.000431,0.142562
44968000,0.0324,0.013523,0.002678,0.000431,0.137508
44969000,0.0324,0.013523,0.002678,0.000431,0.488330
44970000,0.0324,0.013523,0.002678,0.000431,0.344475
44971000,0.0324,0.013523,0.002678,0.000431,0.273723
44972000,0.0324,0.013523,0.002678,0.000431,0.287944
44973000,0.0324,0.013523,0.002678,0.000431,0.142914
44974000,0.0324,0.013523,0.002678,0.000431,0.166655
44975000,0.0324,0.013523,0.002678,0.000431,0.098489
44976000,0.0324,0.013523,0.002678,0.000431,0.457185
44977000,0.0324,0.013523,0.002678,0.000431,0.164304
44978000,0.0324,0.013523,0.002678,0.000431,0.085090
44979000,0.0324,0.013523,0.002678,0.000431,0.062407
44980000,0.0324,0.013523,0.002678,0.000431,0.057824
44981000,0.0324,0.013523,0.002678,0.000431,0.039372
44982000,0.0324,0.013523,0.002678,0.000431,0.034436
44983000,0.0324,0.013523,0.002678,0.000431,0.028089
44984000,0.0324,0.013523,0.002678,0.000431,0.027502
44985000,0.0324,0.013523,0.002678,0.000431,0.024446
44986000,0.0324,0.013523,0.002678,0.000431,0.017864
44987000,0.0324,0.013523,0.002678,0.000431,0.017629
44988000,0.0324,0.013523,0.002678,0.000431,0.017277
44989000,0.0324,0.013523,0.002678,0.000431,0.017982
44990000,0.0324,0.013523,0.002678,0.000431,0.016454
44991000,0.0324,0.013523,0.002678,0.000431,0.018099
44992000,0.0324,0.013523,0.002678,0.000431,0.018922
44993000,0.0324,0.013523,0.002678,0.000431,0.016101
44994000,0.0324,0.013523,0.002678,0.000431,0.014573
44995000,0.0324,0.013523,0.002678,0.000431,0.020685
44996000,0.0324,0.013523,0.002678,0.000431,0.014926
44997000,0.0324,0.013523,0.002678,0.000431,0.013633
44998000,0.0324,0.013523,0.002678,0.000431,0.012928
44999000,0.0324,0.013523,0.002678,0.000431,0.008697
