Cycle,Area(mm^2),PeakDynamic(W),SubthresholdLeakage(W),GateLeakage(W),RunTimeDynamic(W)
12000000,0.0324,0.013523,0.002678,0.000431,0.002351
12001000,0.0324,0.013523,0.002678,0.000431,0.002351
12002000,0.0324,0.013523,0.002678,0.000431,0.002116
12003000,0.0324,0.013523,0.002678,0.000431,0.000823
12004000,0.0324,0.013523,0.002678,0.000431,0.000823
12005000,0.0324,0.013523,0.002678,0.000431,0.000940
12006000,0.0324,0.013523,0.002678,0.000431,0.000823
12007000,0.0324,0.013523,0.002678,0.000431,0.000823
12008000,0.0324,0.013523,0.002678,0.000431,0.002233
12009000,0.0324,0.013523,0.002678,0.000431,0.370919
12010000,0.0324,0.013523,0.002678,0.000431,0.712456
12011000,0.0324,0.013523,0.002678,0.000431,0.139976
12012000,0.0324,0.013523,0.002678,0.000431,0.134922
12013000,0.0324,0.013523,0.002678,0.000431,0.179583
12014000,0.0324,0.013523,0.002678,0.000431,0.630656
12015000,0.0324,0.013523,0.002678,0.000431,0.243753
12016000,0.0324,0.013523,0.002678,0.000431,0.268787
12017000,0.0324,0.013523,0.002678,0.000431,0.215194
12018000,0.0324,0.013523,0.002678,0.000431,0.143502
12019000,0.0324,0.013523,0.002678,0.000431,0.147145
12020000,0.0324,0.013523,0.002678,0.000431,0.194157
12021000,0.0324,0.013523,0.002678,0.000431,0.439085
12022000,0.0324,0.013523,0.002678,0.000431,0.074278
12023000,0.0324,0.013523,0.002678,0.000431,0.056531
12024000,0.0324,0.013523,0.002678,0.000431,0.044778
12025000,0.0324,0.013523,0.002678,0.000431,0.031380
12026000,0.0324,0.013523,0.002678,0.000431,0.037962
12027000,0.0324,0.013523,0.002678,0.000431,0.025621
12028000,0.0324,0.013523,0.002678,0.000431,0.016336
12029000,0.0324,0.013523,0.002678,0.000431,0.011400
12030000,0.0324,0.013523,0.002678,0.000431,0.011870
12031000,0.0324,0.013523,0.002678,0.000431,0.008109
12032000,0.0324,0.013523,0.002678,0.000431,0.009637
12033000,0.0324,0.013523,0.002678,0.000431,0.007169
12034000,0.0324,0.013523,0.002678,0.000431,0.009285
12035000,0.0324,0.013523,0.002678,0.000431,0.007874
12036000,0.0324,0.013523,0.002678,0.000431,0.004466
12037000,0.0324,0.013523,0.002678,0.000431,0.005759
12038000,0.0324,0.013523,0.002678,0.000431,0.003643
12039000,0.0324,0.013523,0.002678,0.000431,0.003526
12040000,0.0324,0.013523,0.002678,0.000431,0.003173
12041000,0.0324,0.013523,0.002678,0.000431,0.003526
12042000,0.0324,0.013523,0.002678,0.000431,0.003291
12043000,0.0324,0.013523,0.002678,0.000431,0.003408
12044000,0.0324,0.013523,0.002678,0.000431,0.003526
12045000,0.0324,0.013523,0.002678,0.000431,0.003291
12046000,0.0324,0.013523,0.002678,0.000431,0.003526
12047000,0.0324,0.013523,0.002678,0.000431,0.003291
12048000,0.0324,0.013523,0.002678,0.000431,0.003408
12049000,0.0324,0.013523,0.002678,0.000431,0.003408
12050000,0.0324,0.013523,0.002678,0.000431,0.005641
12051000,0.0324,0.013523,0.002678,0.000431,0.002468
12052000,0.0324,0.013523,0.002678,0.000431,0.002703
12053000,0.0324,0.013523,0.002678,0.000431,0.002351
12054000,0.0324,0.013523,0.002678,0.000431,0.005054
12055000,0.0324,0.013523,0.002678,0.000431,0.001528
12056000,0.0324,0.013523,0.002678,0.000431,0.001763
12057000,0.0324,0.013523,0.002678,0.000431,0.001763
12058000,0.0324,0.013523,0.002678,0.000431,0.001528
12059000,0.0324,0.013523,0.002678,0.000431,0.001880
12060000,0.0324,0.013523,0.002678,0.000431,0.001645
12061000,0.0324,0.013523,0.002678,0.000431,0.001645
12062000,0.0324,0.013523,0.002678,0.000431,0.001763
12063000,0.0324,0.013523,0.002678,0.000431,0.001763
12064000,0.0324,0.013523,0.002678,0.000431,0.001645
12065000,0.0324,0.013523,0.002678,0.000431,0.001645
12066000,0.0324,0.013523,0.002678,0.000431,0.001880
12067000,0.0324,0.013523,0.002678,0.000431,0.001528
12068000,0.0324,0.013523,0.002678,0.000431,0.001880
12069000,0.0324,0.013523,0.002678,0.000431,0.001645
12070000,0.0324,0.013523,0.002678,0.000431,0.001763
12071000,0.0324,0.013523,0.002678,0.000431,0.001880
12072000,0.0324,0.013523,0.002678,0.000431,0.001763
12073000,0.0324,0.013523,0.002678,0.000431,0.004231
12074000,0.0324,0.013523,0.002678,0.000431,0.000940
12075000,0.0324,0.013523,0.002678,0.000431,0.000823
12076000,0.0324,0.013523,0.002678,0.000431,0.000940
12077000,0.0324,0.013523,0.002678,0.000431,0.000823
12078000,0.0324,0.013523,0.002678,0.000431,0.000940
12079000,0.0324,0.013523,0.002678,0.000431,0.000823
12080000,0.0324,0.013523,0.002678,0.000431,0.000823
12081000,0.0324,0.013523,0.002678,0.000431,0.000940
12082000,0.0324,0.013523,0.002678,0.000431,0.000940
12083000,0.0324,0.013523,0.002678,0.000431,0.000823
12084000,0.0324,0.013523,0.002678,0.000431,0.000823
12085000,0.0324,0.013523,0.002678,0.000431,0.000940
12086000,0.0324,0.013523,0.002678,0.000431,0.000940
12087000,0.0324,0.013523,0.002678,0.000431,0.000823
12088000,0.0324,0.013523,0.002678,0.000431,0.000823
12089000,0.0324,0.013523,0.002678,0.000431,0.000940
12090000,0.0324,0.013523,0.002678,0.000431,0.000940
12091000,0.0324,0.013523,0.002678,0.000431,0.000823
12092000,0.0324,0.013523,0.002678,0.000431,0.000823
12093000,0.0324,0.013523,0.002678,0.000431,0.000940
12094000,0.0324,0.013523,0.002678,0.000431,0.000823
12095000,0.0324,0.013523,0.002678,0.000431,0.000940
12096000,0.0324,0.013523,0.002678,0.000431,0.000823
12097000,0.0324,0.013523,0.002678,0.000431,0.000940
12098000,0.0324,0.013523,0.002678,0.000431,0.000823
12099000,0.0324,0.013523,0.002678,0.000431,0.000823
12100000,0.0324,0.013523,0.002678,0.000431,0.000940
12101000,0.0324,0.013523,0.002678,0.000431,0.000940
12102000,0.0324,0.013523,0.002678,0.000431,0.000823
12103000,0.0324,0.013523,0.002678,0.000431,0.000823
12104000,0.0324,0.013523,0.002678,0.000431,0.000940
12105000,0.0324,0.013523,0.002678,0.000431,0.000940
12106000,0.0324,0.013523,0.002678,0.000431,0.000705
12107000,0.0324,0.013523,0.002678,0.000431,0.000940
12108000,0.0324,0.013523,0.002678,0.000431,0.000940
12109000,0.0324,0.013523,0.002678,0.000431,0.000940
12110000,0.0324,0.013523,0.002678,0.000431,0.000705
12111000,0.0324,0.013523,0.002678,0.000431,0.000940
12112000,0.0324,0.013523,0.002678,0.000431,0.000940
12113000,0.0324,0.013523,0.002678,0.000431,0.000823
12114000,0.0324,0.013523,0.002678,0.000431,0.000940
12115000,0.0324,0.013523,0.002678,0.000431,0.000823
12116000,0.0324,0.013523,0.002678,0.000431,0.000940
12117000,0.0324,0.013523,0.002678,0.000431,0.000823
12118000,0.0324,0.013523,0.002678,0.000431,0.000823
12119000,0.0324,0.013523,0.002678,0.000431,0.000940
12120000,0.0324,0.013523,0.002678,0.000431,0.000940
12121000,0.0324,0.013523,0.002678,0.000431,0.000705
12122000,0.0324,0.013523,0.002678,0.000431,0.000940
12123000,0.0324,0.013523,0.002678,0.000431,0.000940
12124000,0.0324,0.013523,0.002678,0.000431,0.000940
12125000,0.0324,0.013523,0.002678,0.000431,0.000705
12126000,0.0324,0.013523,0.002678,0.000431,0.000940
12127000,0.0324,0.013523,0.002678,0.000431,0.000940
12128000,0.0324,0.013523,0.002678,0.000431,0.000823
12129000,0.0324,0.013523,0.002678,0.000431,0.000823
12130000,0.0324,0.013523,0.002678,0.000431,0.000940
12131000,0.0324,0.013523,0.002678,0.000431,0.000940
12132000,0.0324,0.013523,0.002678,0.000431,0.000823
12133000,0.0324,0.013523,0.002678,0.000431,0.000823
12134000,0.0324,0.013523,0.002678,0.000431,0.000940
12135000,0.0324,0.013523,0.002678,0.000431,0.000823
12136000,0.0324,0.013523,0.002678,0.000431,0.000940
12137000,0.0324,0.013523,0.002678,0.000431,0.000823
12138000,0.0324,0.013523,0.002678,0.000431,0.000940
12139000,0.0324,0.013523,0.002678,0.000431,0.000823
12140000,0.0324,0.013523,0.002678,0.000431,0.000823
12141000,0.0324,0.013523,0.002678,0.000431,0.000940
12142000,0.0324,0.013523,0.002678,0.000431,0.000940
12143000,0.0324,0.013523,0.002678,0.000431,0.000823
12144000,0.0324,0.013523,0.002678,0.000431,0.000823
12145000,0.0324,0.013523,0.002678,0.000431,0.211433
12146000,0.0324,0.013523,0.002678,0.000431,0.621019
12147000,0.0324,0.013523,0.002678,0.000431,0.412171
12148000,0.0324,0.013523,0.002678,0.000431,0.132219
12149000,0.0324,0.013523,0.002678,0.000431,0.139976
12150000,0.0324,0.013523,0.002678,0.000431,0.641586
12151000,0.0324,0.013523,0.002678,0.000431,0.231413
12152000,0.0324,0.013523,0.002678,0.000431,0.275956
12153000,0.0324,0.013523,0.002678,0.000431,0.240463
12154000,0.0324,0.013523,0.002678,0.000431,0.146558
12155000,0.0324,0.013523,0.002678,0.000431,0.139741
12156000,0.0324,0.013523,0.002678,0.000431,0.219778
12157000,0.0324,0.013523,0.002678,0.000431,0.391134
12158000,0.0324,0.013523,0.002678,0.000431,0.059704
12159000,0.0324,0.013523,0.002678,0.000431,0.039842
12160000,0.0324,0.013523,0.002678,0.000431,0.036904
12161000,0.0324,0.013523,0.002678,0.000431,0.019980
12162000,0.0324,0.013523,0.002678,0.000431,0.017747
12163000,0.0324,0.013523,0.002678,0.000431,0.015631
12164000,0.0324,0.013523,0.002678,0.000431,0.012928
12165000,0.0324,0.013523,0.002678,0.000431,0.009755
12166000,0.0324,0.013523,0.002678,0.000431,0.009167
12167000,0.0324,0.013523,0.002678,0.000431,0.008932
12168000,0.0324,0.013523,0.002678,0.000431,0.011518
12169000,0.0324,0.013523,0.002678,0.000431,0.006229
12170000,0.0324,0.013523,0.002678,0.000431,0.005289
12171000,0.0324,0.013523,0.002678,0.000431,0.005994
12172000,0.0324,0.013523,0.002678,0.000431,0.005524
12173000,0.0324,0.013523,0.002678,0.000431,0.004113
12174000,0.0324,0.013523,0.002678,0.000431,0.004466
12175000,0.0324,0.013523,0.002678,0.000431,0.005876
12176000,0.0324,0.013523,0.002678,0.000431,0.003291
12177000,0.0324,0.013523,0.002678,0.000431,0.003526
12178000,0.0324,0.013523,0.002678,0.000431,0.003408
12179000,0.0324,0.013523,0.002678,0.000431,0.005171
12180000,0.0324,0.013523,0.002678,0.000431,0.003408
12181000,0.0324,0.013523,0.002678,0.000431,0.214606
12182000,0.0324,0.013523,0.002678,0.000431,0.625250
12183000,0.0324,0.013523,0.002678,0.000431,0.365160
12184000,0.0324,0.013523,0.002678,0.000431,0.132572
12185000,0.0324,0.013523,0.002678,0.000431,0.135510
12186000,0.0324,0.013523,0.002678,0.000431,0.636650
12187000,0.0324,0.013523,0.002678,0.000431,0.236937
12188000,0.0324,0.013523,0.002678,0.000431,0.238230
12189000,0.0324,0.013523,0.002678,0.000431,0.234234
12190000,0.0324,0.013523,0.002678,0.000431,0.139976
12191000,0.0324,0.013523,0.002678,0.000431,0.173824
12192000,0.0324,0.013523,0.002678,0.000431,0.097666
12193000,0.0324,0.013523,0.002678,0.000431,0.490563
12194000,0.0324,0.013523,0.002678,0.000431,0.133630
12195000,0.0324,0.013523,0.002678,0.000431,0.060292
12196000,0.0324,0.013523,0.002678,0.000431,0.043956
12197000,0.0324,0.013523,0.002678,0.000431,0.029735
12198000,0.0324,0.013523,0.002678,0.000431,0.025504
12199000,0.0324,0.013523,0.002678,0.000431,0.015631
12200000,0.0324,0.013523,0.002678,0.000431,0.015631
12201000,0.0324,0.013523,0.002678,0.000431,0.015161
12202000,0.0324,0.013523,0.002678,0.000431,0.011283
12203000,0.0324,0.013523,0.002678,0.000431,0.008932
12204000,0.0324,0.013523,0.002678,0.000431,0.014338
12205000,0.0324,0.013523,0.002678,0.000431,0.007052
12206000,0.0324,0.013523,0.002678,0.000431,0.004936
12207000,0.0324,0.013523,0.002678,0.000431,0.005054
12208000,0.0324,0.013523,0.002678,0.000431,0.005289
12209000,0.0324,0.013523,0.002678,0.000431,0.005406
12210000,0.0324,0.013523,0.002678,0.000431,0.004819
12211000,0.0324,0.013523,0.002678,0.000431,0.006582
12212000,0.0324,0.013523,0.002678,0.000431,0.003643
12213000,0.0324,0.013523,0.002678,0.000431,0.003526
12214000,0.0324,0.013523,0.002678,0.000431,0.003408
12215000,0.0324,0.013523,0.002678,0.000431,0.003526
12216000,0.0324,0.013523,0.002678,0.000431,0.003526
12217000,0.0324,0.013523,0.002678,0.000431,0.003526
12218000,0.0324,0.013523,0.002678,0.000431,0.003408
12219000,0.0324,0.013523,0.002678,0.000431,0.003761
12220000,0.0324,0.013523,0.002678,0.000431,0.003408
12221000,0.0324,0.013523,0.002678,0.000431,0.003408
12222000,0.0324,0.013523,0.002678,0.000431,0.003526
12223000,0.0324,0.013523,0.002678,0.000431,0.003526
12224000,0.0324,0.013523,0.002678,0.000431,0.003526
12225000,0.0324,0.013523,0.002678,0.000431,0.003408
12226000,0.0324,0.013523,0.002678,0.000431,0.007169
12227000,0.0324,0.013523,0.002678,0.000431,0.002821
12228000,0.0324,0.013523,0.002678,0.000431,0.002468
12229000,0.0324,0.013523,0.002678,0.000431,0.002703
12230000,0.0324,0.013523,0.002678,0.000431,0.002586
12231000,0.0324,0.013523,0.002678,0.000431,0.002586
12232000,0.0324,0.013523,0.002678,0.000431,0.002821
12233000,0.0324,0.013523,0.002678,0.000431,0.002351
12234000,0.0324,0.013523,0.002678,0.000431,0.002586
12235000,0.0324,0.013523,0.002678,0.000431,0.002821
12236000,0.0324,0.013523,0.002678,0.000431,0.004466
12237000,0.0324,0.013523,0.002678,0.000431,0.001763
12238000,0.0324,0.013523,0.002678,0.000431,0.001645
12239000,0.0324,0.013523,0.002678,0.000431,0.001763
12240000,0.0324,0.013523,0.002678,0.000431,0.001763
12241000,0.0324,0.013523,0.002678,0.000431,0.001763
12242000,0.0324,0.013523,0.002678,0.000431,0.001763
12243000,0.0324,0.013523,0.002678,0.000431,0.001763
12244000,0.0324,0.013523,0.002678,0.000431,0.001645
12245000,0.0324,0.013523,0.002678,0.000431,0.001763
12246000,0.0324,0.013523,0.002678,0.000431,0.003878
12247000,0.0324,0.013523,0.002678,0.000431,0.000823
12248000,0.0324,0.013523,0.002678,0.000431,0.000823
12249000,0.0324,0.013523,0.002678,0.000431,0.000940
12250000,0.0324,0.013523,0.002678,0.000431,0.000940
12251000,0.0324,0.013523,0.002678,0.000431,0.000705
12252000,0.0324,0.013523,0.002678,0.000431,0.000940
12253000,0.0324,0.013523,0.002678,0.000431,0.000940
12254000,0.0324,0.013523,0.002678,0.000431,0.000940
12255000,0.0324,0.013523,0.002678,0.000431,0.000705
12256000,0.0324,0.013523,0.002678,0.000431,0.000940
12257000,0.0324,0.013523,0.002678,0.000431,0.000940
12258000,0.0324,0.013523,0.002678,0.000431,0.000823
12259000,0.0324,0.013523,0.002678,0.000431,0.000940
12260000,0.0324,0.013523,0.002678,0.000431,0.000823
12261000,0.0324,0.013523,0.002678,0.000431,0.000940
12262000,0.0324,0.013523,0.002678,0.000431,0.000823
12263000,0.0324,0.013523,0.002678,0.000431,0.000823
12264000,0.0324,0.013523,0.002678,0.000431,0.000940
12265000,0.0324,0.013523,0.002678,0.000431,0.000940
12266000,0.0324,0.013523,0.002678,0.000431,0.000823
12267000,0.0324,0.013523,0.002678,0.000431,0.000823
12268000,0.0324,0.013523,0.002678,0.000431,0.000940
12269000,0.0324,0.013523,0.002678,0.000431,0.000940
12270000,0.0324,0.013523,0.002678,0.000431,0.000705
12271000,0.0324,0.013523,0.002678,0.000431,0.000940
12272000,0.0324,0.013523,0.002678,0.000431,0.000940
12273000,0.0324,0.013523,0.002678,0.000431,0.000940
12274000,0.0324,0.013523,0.002678,0.000431,0.000705
12275000,0.0324,0.013523,0.002678,0.000431,0.000940
12276000,0.0324,0.013523,0.002678,0.000431,0.000940
12277000,0.0324,0.013523,0.002678,0.000431,0.000823
12278000,0.0324,0.013523,0.002678,0.000431,0.000823
12279000,0.0324,0.013523,0.002678,0.000431,0.000940
12280000,0.0324,0.013523,0.002678,0.000431,0.000823
12281000,0.0324,0.013523,0.002678,0.000431,0.000940
12282000,0.0324,0.013523,0.002678,0.000431,0.000823
12283000,0.0324,0.013523,0.002678,0.000431,0.000940
12284000,0.0324,0.013523,0.002678,0.000431,0.000823
12285000,0.0324,0.013523,0.002678,0.000431,0.000823
12286000,0.0324,0.013523,0.002678,0.000431,0.000940
12287000,0.0324,0.013523,0.002678,0.000431,0.000940
12288000,0.0324,0.013523,0.002678,0.000431,0.000823
12289000,0.0324,0.013523,0.002678,0.000431,0.000823
12290000,0.0324,0.013523,0.002678,0.000431,0.000940
12291000,0.0324,0.013523,0.002678,0.000431,0.000940
12292000,0.0324,0.013523,0.002678,0.000431,0.000823
12293000,0.0324,0.013523,0.002678,0.000431,0.000823
12294000,0.0324,0.013523,0.002678,0.000431,0.000940
12295000,0.0324,0.013523,0.002678,0.000431,0.000940
12296000,0.0324,0.013523,0.002678,0.000431,0.000823
12297000,0.0324,0.013523,0.002678,0.000431,0.000823
12298000,0.0324,0.013523,0.002678,0.000431,0.000940
12299000,0.0324,0.013523,0.002678,0.000431,0.000823
12300000,0.0324,0.013523,0.002678,0.000431,0.000940
12301000,0.0324,0.013523,0.002678,0.000431,0.000823
12302000,0.0324,0.013523,0.002678,0.000431,0.000940
12303000,0.0324,0.013523,0.002678,0.000431,0.000823
12304000,0.0324,0.013523,0.002678,0.000431,0.000823
12305000,0.0324,0.013523,0.002678,0.000431,0.000940
12306000,0.0324,0.013523,0.002678,0.000431,0.000940
12307000,0.0324,0.013523,0.002678,0.000431,0.000823
12308000,0.0324,0.013523,0.002678,0.000431,0.000823
12309000,0.0324,0.013523,0.002678,0.000431,0.000940
12310000,0.0324,0.013523,0.002678,0.000431,0.000940
12311000,0.0324,0.013523,0.002678,0.000431,0.000705
12312000,0.0324,0.013523,0.002678,0.000431,0.000940
12313000,0.0324,0.013523,0.002678,0.000431,0.000940
12314000,0.0324,0.013523,0.002678,0.000431,0.000940
12315000,0.0324,0.013523,0.002678,0.000431,0.000823
12316000,0.0324,0.013523,0.002678,0.000431,0.000823
12317000,0.0324,0.013523,0.002678,0.000431,0.000940
12318000,0.0324,0.013523,0.002678,0.000431,0.000823
12319000,0.0324,0.013523,0.002678,0.000431,0.000940
12320000,0.0324,0.013523,0.002678,0.000431,0.000823
12321000,0.0324,0.013523,0.002678,0.000431,0.000940
12322000,0.0324,0.013523,0.002678,0.000431,0.000823
12323000,0.0324,0.013523,0.002678,0.000431,0.000823
12324000,0.0324,0.013523,0.002678,0.000431,0.000940
12325000,0.0324,0.013523,0.002678,0.000431,0.000940
12326000,0.0324,0.013523,0.002678,0.000431,0.000705
12327000,0.0324,0.013523,0.002678,0.000431,0.000940
12328000,0.0324,0.013523,0.002678,0.000431,0.000940
12329000,0.0324,0.013523,0.002678,0.000431,0.000940
12330000,0.0324,0.013523,0.002678,0.000431,0.000705
12331000,0.0324,0.013523,0.002678,0.000431,0.000940
12332000,0.0324,0.013523,0.002678,0.000431,0.000940
12333000,0.0324,0.013523,0.002678,0.000431,0.000823
12334000,0.0324,0.013523,0.002678,0.000431,0.000823
12335000,0.0324,0.013523,0.002678,0.000431,0.000940
12336000,0.0324,0.013523,0.002678,0.000431,0.000940
12337000,0.0324,0.013523,0.002678,0.000431,0.000823
12338000,0.0324,0.013523,0.002678,0.000431,0.000823
12339000,0.0324,0.013523,0.002678,0.000431,0.000940
12340000,0.0324,0.013523,0.002678,0.000431,0.000823
12341000,0.0324,0.013523,0.002678,0.000431,0.000940
12342000,0.0324,0.013523,0.002678,0.000431,0.000823
12343000,0.0324,0.013523,0.002678,0.000431,0.000940
12344000,0.0324,0.013523,0.002678,0.000431,0.000823
12345000,0.0324,0.013523,0.002678,0.000431,0.000823
12346000,0.0324,0.013523,0.002678,0.000431,0.000940
12347000,0.0324,0.013523,0.002678,0.000431,0.000940
12348000,0.0324,0.013523,0.002678,0.000431,0.000823
12349000,0.0324,0.013523,0.002678,0.000431,0.000823
12350000,0.0324,0.013523,0.002678,0.000431,0.000940
12351000,0.0324,0.013523,0.002678,0.000431,0.000940
12352000,0.0324,0.013523,0.002678,0.000431,0.000823
12353000,0.0324,0.013523,0.002678,0.000431,0.000823
12354000,0.0324,0.013523,0.002678,0.000431,0.002116
12355000,0.0324,0.013523,0.002678,0.000431,0.389136
12356000,0.0324,0.013523,0.002678,0.000431,0.713161
12357000,0.0324,0.013523,0.002678,0.000431,0.159486
12358000,0.0324,0.013523,0.002678,0.000431,0.134570
12359000,0.0324,0.013523,0.002678,0.000431,0.155490
12360000,0.0324,0.013523,0.002678,0.000431,0.639118
12361000,0.0324,0.013523,0.002678,0.000431,0.245046
12362000,0.0324,0.013523,0.002678,0.000431,0.282773
12363000,0.0324,0.013523,0.002678,0.000431,0.211081
12364000,0.0324,0.013523,0.002678,0.000431,0.139036
12365000,0.0324,0.013523,0.002678,0.000431,0.142209
12366000,0.0324,0.013523,0.002678,0.000431,0.236937
12367000,0.0324,0.013523,0.002678,0.000431,0.335543
12368000,0.0324,0.013523,0.002678,0.000431,0.362809
12369000,0.0324,0.013523,0.002678,0.000431,0.633594
12370000,0.0324,0.013523,0.002678,0.000431,0.131632
12371000,0.0324,0.013523,0.002678,0.000431,0.133042
12372000,0.0324,0.013523,0.002678,0.000431,0.202736
12373000,0.0324,0.013523,0.002678,0.000431,0.625603
12374000,0.0324,0.013523,0.002678,0.000431,0.244694
12375000,0.0324,0.013523,0.002678,0.000431,0.245164
12376000,0.0324,0.013523,0.002678,0.000431,0.224244
12377000,0.0324,0.013523,0.002678,0.000431,0.143737
12378000,0.0324,0.013523,0.002678,0.000431,0.179466
12379000,0.0324,0.013523,0.002678,0.000431,0.084503
12380000,0.0324,0.013523,0.002678,0.000431,0.498790
12381000,0.0324,0.013523,0.002678,0.000431,0.105070
12382000,0.0324,0.013523,0.002678,0.000431,0.059234
12383000,0.0324,0.013523,0.002678,0.000431,0.058059
12384000,0.0324,0.013523,0.002678,0.000431,0.037844
12385000,0.0324,0.013523,0.002678,0.000431,0.031262
12386000,0.0324,0.013523,0.002678,0.000431,0.026209
12387000,0.0324,0.013523,0.002678,0.000431,0.022213
12388000,0.0324,0.013523,0.002678,0.000431,0.014456
12389000,0.0324,0.013523,0.002678,0.000431,0.010930
12390000,0.0324,0.013523,0.002678,0.000431,0.009637
12391000,0.0324,0.013523,0.002678,0.000431,0.011165
12392000,0.0324,0.013523,0.002678,0.000431,0.009872
12393000,0.0324,0.013523,0.002678,0.000431,0.009167
12394000,0.0324,0.013523,0.002678,0.000431,0.009050
12395000,0.0324,0.013523,0.002678,0.000431,0.008580
12396000,0.0324,0.013523,0.002678,0.000431,0.009050
12397000,0.0324,0.013523,0.002678,0.000431,0.008227
12398000,0.0324,0.013523,0.002678,0.000431,0.009167
12399000,0.0324,0.013523,0.002678,0.000431,0.009050
12400000,0.0324,0.013523,0.002678,0.000431,0.009167
12401000,0.0324,0.013523,0.002678,0.000431,0.008462
12402000,0.0324,0.013523,0.002678,0.000431,0.009050
12403000,0.0324,0.013523,0.002678,0.000431,0.009285
12404000,0.0324,0.013523,0.002678,0.000431,0.008462
12405000,0.0324,0.013523,0.002678,0.000431,0.009050
12406000,0.0324,0.013523,0.002678,0.000431,0.008462
12407000,0.0324,0.013523,0.002678,0.000431,0.008227
12408000,0.0324,0.013523,0.002678,0.000431,0.008462
12409000,0.0324,0.013523,0.002678,0.000431,0.010107
12410000,0.0324,0.013523,0.002678,0.000431,0.006699
12411000,0.0324,0.013523,0.002678,0.000431,0.006699
12412000,0.0324,0.013523,0.002678,0.000431,0.006347
12413000,0.0324,0.013523,0.002678,0.000431,0.006582
12414000,0.0324,0.013523,0.002678,0.000431,0.006934
12415000,0.0324,0.013523,0.002678,0.000431,0.007052
12416000,0.0324,0.013523,0.002678,0.000431,0.005994
12417000,0.0324,0.013523,0.002678,0.000431,0.006347
12418000,0.0324,0.013523,0.002678,0.000431,0.009050
12419000,0.0324,0.013523,0.002678,0.000431,0.005289
12420000,0.0324,0.013523,0.002678,0.000431,0.004466
12421000,0.0324,0.013523,0.002678,0.000431,0.005054
12422000,0.0324,0.013523,0.002678,0.000431,0.005171
12423000,0.0324,0.013523,0.002678,0.000431,0.005054
12424000,0.0324,0.013523,0.002678,0.000431,0.004936
12425000,0.0324,0.013523,0.002678,0.000431,0.005054
12426000,0.0324,0.013523,0.002678,0.000431,0.005054
12427000,0.0324,0.013523,0.002678,0.000431,0.004936
12428000,0.0324,0.013523,0.002678,0.000431,0.004819
12429000,0.0324,0.013523,0.002678,0.000431,0.005406
12430000,0.0324,0.013523,0.002678,0.000431,0.004936
12431000,0.0324,0.013523,0.002678,0.000431,0.004584
12432000,0.0324,0.013523,0.002678,0.000431,0.005289
12433000,0.0324,0.013523,0.002678,0.000431,0.005171
12434000,0.0324,0.013523,0.002678,0.000431,0.005054
12435000,0.0324,0.013523,0.002678,0.000431,0.004936
12436000,0.0324,0.013523,0.002678,0.000431,0.005054
12437000,0.0324,0.013523,0.002678,0.000431,0.004936
12438000,0.0324,0.013523,0.002678,0.000431,0.004936
12439000,0.0324,0.013523,0.002678,0.000431,0.005054
12440000,0.0324,0.013523,0.002678,0.000431,0.005289
12441000,0.0324,0.013523,0.002678,0.000431,0.004936
12442000,0.0324,0.013523,0.002678,0.000431,0.004936
12443000,0.0324,0.013523,0.002678,0.000431,0.004819
12444000,0.0324,0.013523,0.002678,0.000431,0.005054
12445000,0.0324,0.013523,0.002678,0.000431,0.005171
12446000,0.0324,0.013523,0.002678,0.000431,0.004936
12447000,0.0324,0.013523,0.002678,0.000431,0.005171
12448000,0.0324,0.013523,0.002678,0.000431,0.004819
12449000,0.0324,0.013523,0.002678,0.000431,0.004936
12450000,0.0324,0.013523,0.002678,0.000431,0.005171
12451000,0.0324,0.013523,0.002678,0.000431,0.005171
12452000,0.0324,0.013523,0.002678,0.000431,0.005054
12453000,0.0324,0.013523,0.002678,0.000431,0.004819
12454000,0.0324,0.013523,0.002678,0.000431,0.005054
12455000,0.0324,0.013523,0.002678,0.000431,0.005171
12456000,0.0324,0.013523,0.002678,0.000431,0.004936
12457000,0.0324,0.013523,0.002678,0.000431,0.005054
12458000,0.0324,0.013523,0.002678,0.000431,0.005171
12459000,0.0324,0.013523,0.002678,0.000431,0.004819
12460000,0.0324,0.013523,0.002678,0.000431,0.004936
12461000,0.0324,0.013523,0.002678,0.000431,0.005289
12462000,0.0324,0.013523,0.002678,0.000431,0.004936
12463000,0.0324,0.013523,0.002678,0.000431,0.004819
12464000,0.0324,0.013523,0.002678,0.000431,0.005289
12465000,0.0324,0.013523,0.002678,0.000431,0.004936
12466000,0.0324,0.013523,0.002678,0.000431,0.005171
12467000,0.0324,0.013523,0.002678,0.000431,0.004584
12468000,0.0324,0.013523,0.002678,0.000431,0.005524
12469000,0.0324,0.013523,0.002678,0.000431,0.004584
12470000,0.0324,0.013523,0.002678,0.000431,0.005289
12471000,0.0324,0.013523,0.002678,0.000431,0.005054
12472000,0.0324,0.013523,0.002678,0.000431,0.004701
12473000,0.0324,0.013523,0.002678,0.000431,0.005289
12474000,0.0324,0.013523,0.002678,0.000431,0.004936
12475000,0.0324,0.013523,0.002678,0.000431,0.005054
12476000,0.0324,0.013523,0.002678,0.000431,0.004936
12477000,0.0324,0.013523,0.002678,0.000431,0.004936
12478000,0.0324,0.013523,0.002678,0.000431,0.005171
12479000,0.0324,0.013523,0.002678,0.000431,0.005054
12480000,0.0324,0.013523,0.002678,0.000431,0.005054
12481000,0.0324,0.013523,0.002678,0.000431,0.004701
12482000,0.0324,0.013523,0.002678,0.000431,0.005171
12483000,0.0324,0.013523,0.002678,0.000431,0.005289
12484000,0.0324,0.013523,0.002678,0.000431,0.004936
12485000,0.0324,0.013523,0.002678,0.000431,0.004819
12486000,0.0324,0.013523,0.002678,0.000431,0.005171
12487000,0.0324,0.013523,0.002678,0.000431,0.005171
12488000,0.0324,0.013523,0.002678,0.000431,0.004584
12489000,0.0324,0.013523,0.002678,0.000431,0.005406
12490000,0.0324,0.013523,0.002678,0.000431,0.005054
12491000,0.0324,0.013523,0.002678,0.000431,0.004701
12492000,0.0324,0.013523,0.002678,0.000431,0.005054
12493000,0.0324,0.013523,0.002678,0.000431,0.005054
12494000,0.0324,0.013523,0.002678,0.000431,0.005289
12495000,0.0324,0.013523,0.002678,0.000431,0.004701
12496000,0.0324,0.013523,0.002678,0.000431,0.004819
12497000,0.0324,0.013523,0.002678,0.000431,0.005406
12498000,0.0324,0.013523,0.002678,0.000431,0.004936
12499000,0.0324,0.013523,0.002678,0.000431,0.004936
12500000,0.0324,0.013523,0.002678,0.000431,0.005289
12501000,0.0324,0.013523,0.002678,0.000431,0.005054
12502000,0.0324,0.013523,0.002678,0.000431,0.005054
12503000,0.0324,0.013523,0.002678,0.000431,0.004584
12504000,0.0324,0.013523,0.002678,0.000431,0.005171
12505000,0.0324,0.013523,0.002678,0.000431,0.005289
12506000,0.0324,0.013523,0.002678,0.000431,0.004936
12507000,0.0324,0.013523,0.002678,0.000431,0.004936
12508000,0.0324,0.013523,0.002678,0.000431,0.004936
12509000,0.0324,0.013523,0.002678,0.000431,0.004936
12510000,0.0324,0.013523,0.002678,0.000431,0.005171
12511000,0.0324,0.013523,0.002678,0.000431,0.005054
12512000,0.0324,0.013523,0.002678,0.000431,0.004936
12513000,0.0324,0.013523,0.002678,0.000431,0.004936
12514000,0.0324,0.013523,0.002678,0.000431,0.004819
12515000,0.0324,0.013523,0.002678,0.000431,0.005406
12516000,0.0324,0.013523,0.002678,0.000431,0.005054
12517000,0.0324,0.013523,0.002678,0.000431,0.004936
12518000,0.0324,0.013523,0.002678,0.000431,0.004819
12519000,0.0324,0.013523,0.002678,0.000431,0.005054
12520000,0.0324,0.013523,0.002678,0.000431,0.004936
12521000,0.0324,0.013523,0.002678,0.000431,0.005289
12522000,0.0324,0.013523,0.002678,0.000431,0.005171
12523000,0.0324,0.013523,0.002678,0.000431,0.004819
12524000,0.0324,0.013523,0.002678,0.000431,0.004819
12525000,0.0324,0.013523,0.002678,0.000431,0.005994
12526000,0.0324,0.013523,0.002678,0.000431,0.004466
12527000,0.0324,0.013523,0.002678,0.000431,0.003878
12528000,0.0324,0.013523,0.002678,0.000431,0.004231
12529000,0.0324,0.013523,0.002678,0.000431,0.003761
12530000,0.0324,0.013523,0.002678,0.000431,0.003526
12531000,0.0324,0.013523,0.002678,0.000431,0.003408
12532000,0.0324,0.013523,0.002678,0.000431,0.003408
12533000,0.0324,0.013523,0.002678,0.000431,0.003291
12534000,0.0324,0.013523,0.002678,0.000431,0.003643
12535000,0.0324,0.013523,0.002678,0.000431,0.003291
12536000,0.0324,0.013523,0.002678,0.000431,0.003291
12537000,0.0324,0.013523,0.002678,0.000431,0.004113
12538000,0.0324,0.013523,0.002678,0.000431,0.002938
12539000,0.0324,0.013523,0.002678,0.000431,0.001880
12540000,0.0324,0.013523,0.002678,0.000431,0.001645
12541000,0.0324,0.013523,0.002678,0.000431,0.001645
12542000,0.0324,0.013523,0.002678,0.000431,0.001880
12543000,0.0324,0.013523,0.002678,0.000431,0.001763
12544000,0.0324,0.013523,0.002678,0.000431,0.001763
12545000,0.0324,0.013523,0.002678,0.000431,0.001645
12546000,0.0324,0.013523,0.002678,0.000431,0.001880
12547000,0.0324,0.013523,0.002678,0.000431,0.001763
12548000,0.0324,0.013523,0.002678,0.000431,0.001645
12549000,0.0324,0.013523,0.002678,0.000431,0.001763
12550000,0.0324,0.013523,0.002678,0.000431,0.001880
12551000,0.0324,0.013523,0.002678,0.000431,0.001645
12552000,0.0324,0.013523,0.002678,0.000431,0.001763
12553000,0.0324,0.013523,0.002678,0.000431,0.001763
12554000,0.0324,0.013523,0.002678,0.000431,0.001880
12555000,0.0324,0.013523,0.002678,0.000431,0.001528
12556000,0.0324,0.013523,0.002678,0.000431,0.001763
12557000,0.0324,0.013523,0.002678,0.000431,0.001880
12558000,0.0324,0.013523,0.002678,0.000431,0.001880
12559000,0.0324,0.013523,0.002678,0.000431,0.001645
12560000,0.0324,0.013523,0.002678,0.000431,0.001645
12561000,0.0324,0.013523,0.002678,0.000431,0.003526
12562000,0.0324,0.013523,0.002678,0.000431,0.000940
12563000,0.0324,0.013523,0.002678,0.000431,0.000823
12564000,0.0324,0.013523,0.002678,0.000431,0.000940
12565000,0.0324,0.013523,0.002678,0.000431,0.000823
12566000,0.0324,0.013523,0.002678,0.000431,0.000940
12567000,0.0324,0.013523,0.002678,0.000431,0.000823
12568000,0.0324,0.013523,0.002678,0.000431,0.000940
12569000,0.0324,0.013523,0.002678,0.000431,0.000823
12570000,0.0324,0.013523,0.002678,0.000431,0.000823
12571000,0.0324,0.013523,0.002678,0.000431,0.000940
12572000,0.0324,0.013523,0.002678,0.000431,0.000940
12573000,0.0324,0.013523,0.002678,0.000431,0.000823
12574000,0.0324,0.013523,0.002678,0.000431,0.000823
12575000,0.0324,0.013523,0.002678,0.000431,0.000940
12576000,0.0324,0.013523,0.002678,0.000431,0.000940
12577000,0.0324,0.013523,0.002678,0.000431,0.000823
12578000,0.0324,0.013523,0.002678,0.000431,0.000823
12579000,0.0324,0.013523,0.002678,0.000431,0.000940
12580000,0.0324,0.013523,0.002678,0.000431,0.000940
12581000,0.0324,0.013523,0.002678,0.000431,0.000823
12582000,0.0324,0.013523,0.002678,0.000431,0.000823
12583000,0.0324,0.013523,0.002678,0.000431,0.000940
12584000,0.0324,0.013523,0.002678,0.000431,0.000823
12585000,0.0324,0.013523,0.002678,0.000431,0.000940
12586000,0.0324,0.013523,0.002678,0.000431,0.000823
12587000,0.0324,0.013523,0.002678,0.000431,0.000940
12588000,0.0324,0.013523,0.002678,0.000431,0.000823
12589000,0.0324,0.013523,0.002678,0.000431,0.000823
12590000,0.0324,0.013523,0.002678,0.000431,0.000940
12591000,0.0324,0.013523,0.002678,0.000431,0.000940
12592000,0.0324,0.013523,0.002678,0.000431,0.000823
12593000,0.0324,0.013523,0.002678,0.000431,0.000823
12594000,0.0324,0.013523,0.002678,0.000431,0.000940
12595000,0.0324,0.013523,0.002678,0.000431,0.000940
12596000,0.0324,0.013523,0.002678,0.000431,0.000705
12597000,0.0324,0.013523,0.002678,0.000431,0.000940
12598000,0.0324,0.013523,0.002678,0.000431,0.000940
12599000,0.0324,0.013523,0.002678,0.000431,0.000940
12600000,0.0324,0.013523,0.002678,0.000431,0.000823
12601000,0.0324,0.013523,0.002678,0.000431,0.000823
12602000,0.0324,0.013523,0.002678,0.000431,0.000940
12603000,0.0324,0.013523,0.002678,0.000431,0.000823
12604000,0.0324,0.013523,0.002678,0.000431,0.000940
12605000,0.0324,0.013523,0.002678,0.000431,0.000823
12606000,0.0324,0.013523,0.002678,0.000431,0.000940
12607000,0.0324,0.013523,0.002678,0.000431,0.000823
12608000,0.0324,0.013523,0.002678,0.000431,0.000823
12609000,0.0324,0.013523,0.002678,0.000431,0.000940
12610000,0.0324,0.013523,0.002678,0.000431,0.000940
12611000,0.0324,0.013523,0.002678,0.000431,0.000705
12612000,0.0324,0.013523,0.002678,0.000431,0.000940
12613000,0.0324,0.013523,0.002678,0.000431,0.000940
12614000,0.0324,0.013523,0.002678,0.000431,0.000940
12615000,0.0324,0.013523,0.002678,0.000431,0.000705
12616000,0.0324,0.013523,0.002678,0.000431,0.000940
12617000,0.0324,0.013523,0.002678,0.000431,0.000940
12618000,0.0324,0.013523,0.002678,0.000431,0.000823
12619000,0.0324,0.013523,0.002678,0.000431,0.000823
12620000,0.0324,0.013523,0.002678,0.000431,0.000940
12621000,0.0324,0.013523,0.002678,0.000431,0.000940
12622000,0.0324,0.013523,0.002678,0.000431,0.000823
12623000,0.0324,0.013523,0.002678,0.000431,0.000823
12624000,0.0324,0.013523,0.002678,0.000431,0.000940
12625000,0.0324,0.013523,0.002678,0.000431,0.000823
12626000,0.0324,0.013523,0.002678,0.000431,0.000940
12627000,0.0324,0.013523,0.002678,0.000431,0.000823
12628000,0.0324,0.013523,0.002678,0.000431,0.000940
12629000,0.0324,0.013523,0.002678,0.000431,0.000823
12630000,0.0324,0.013523,0.002678,0.000431,0.000823
12631000,0.0324,0.013523,0.002678,0.000431,0.000940
12632000,0.0324,0.013523,0.002678,0.000431,0.000940
12633000,0.0324,0.013523,0.002678,0.000431,0.000823
12634000,0.0324,0.013523,0.002678,0.000431,0.000823
12635000,0.0324,0.013523,0.002678,0.000431,0.000940
12636000,0.0324,0.013523,0.002678,0.000431,0.000940
12637000,0.0324,0.013523,0.002678,0.000431,0.000823
12638000,0.0324,0.013523,0.002678,0.000431,0.000823
12639000,0.0324,0.013523,0.002678,0.000431,0.000940
12640000,0.0324,0.013523,0.002678,0.000431,0.000940
12641000,0.0324,0.013523,0.002678,0.000431,0.000823
12642000,0.0324,0.013523,0.002678,0.000431,0.000823
12643000,0.0324,0.013523,0.002678,0.000431,0.000940
12644000,0.0324,0.013523,0.002678,0.000431,0.000823
12645000,0.0324,0.013523,0.002678,0.000431,0.000940
12646000,0.0324,0.013523,0.002678,0.000431,0.000823
12647000,0.0324,0.013523,0.002678,0.000431,0.000940
12648000,0.0324,0.013523,0.002678,0.000431,0.000823
12649000,0.0324,0.013523,0.002678,0.000431,0.000823
12650000,0.0324,0.013523,0.002678,0.000431,0.000940
12651000,0.0324,0.013523,0.002678,0.000431,0.000940
12652000,0.0324,0.013523,0.002678,0.000431,0.000823
12653000,0.0324,0.013523,0.002678,0.000431,0.000823
12654000,0.0324,0.013523,0.002678,0.000431,0.000940
12655000,0.0324,0.013523,0.002678,0.000431,0.000940
12656000,0.0324,0.013523,0.002678,0.000431,0.000705
12657000,0.0324,0.013523,0.002678,0.000431,0.000940
12658000,0.0324,0.013523,0.002678,0.000431,0.000940
12659000,0.0324,0.013523,0.002678,0.000431,0.000823
12660000,0.0324,0.013523,0.002678,0.000431,0.000940
12661000,0.0324,0.013523,0.002678,0.000431,0.000823
12662000,0.0324,0.013523,0.002678,0.000431,0.000940
12663000,0.0324,0.013523,0.002678,0.000431,0.000823
12664000,0.0324,0.013523,0.002678,0.000431,0.000823
12665000,0.0324,0.013523,0.002678,0.000431,0.000940
12666000,0.0324,0.013523,0.002678,0.000431,0.000823
12667000,0.0324,0.013523,0.002678,0.000431,0.000940
12668000,0.0324,0.013523,0.002678,0.000431,0.000823
12669000,0.0324,0.013523,0.002678,0.000431,0.000940
12670000,0.0324,0.013523,0.002678,0.000431,0.000940
12671000,0.0324,0.013523,0.002678,0.000431,0.000823
12672000,0.0324,0.013523,0.002678,0.000431,0.000823
12673000,0.0324,0.013523,0.002678,0.000431,0.000940
12674000,0.0324,0.013523,0.002678,0.000431,0.000940
12675000,0.0324,0.013523,0.002678,0.000431,0.000705
12676000,0.0324,0.013523,0.002678,0.000431,0.000940
12677000,0.0324,0.013523,0.002678,0.000431,0.000940
12678000,0.0324,0.013523,0.002678,0.000431,0.000940
12679000,0.0324,0.013523,0.002678,0.000431,0.000705
12680000,0.0324,0.013523,0.002678,0.000431,0.000940
12681000,0.0324,0.013523,0.002678,0.000431,0.000940
12682000,0.0324,0.013523,0.002678,0.000431,0.000823
12683000,0.0324,0.013523,0.002678,0.000431,0.000823
12684000,0.0324,0.013523,0.002678,0.000431,0.000940
12685000,0.0324,0.013523,0.002678,0.000431,0.000940
12686000,0.0324,0.013523,0.002678,0.000431,0.000823
12687000,0.0324,0.013523,0.002678,0.000431,0.000823
12688000,0.0324,0.013523,0.002678,0.000431,0.000940
12689000,0.0324,0.013523,0.002678,0.000431,0.000823
12690000,0.0324,0.013523,0.002678,0.000431,0.000823
12691000,0.0324,0.013523,0.002678,0.000431,0.000940
12692000,0.0324,0.013523,0.002678,0.000431,0.000940
12693000,0.0324,0.013523,0.002678,0.000431,0.000823
12694000,0.0324,0.013523,0.002678,0.000431,0.000823
12695000,0.0324,0.013523,0.002678,0.000431,0.000940
12696000,0.0324,0.013523,0.002678,0.000431,0.000940
12697000,0.0324,0.013523,0.002678,0.000431,0.000823
12698000,0.0324,0.013523,0.002678,0.000431,0.000823
12699000,0.0324,0.013523,0.002678,0.000431,0.000940
12700000,0.0324,0.013523,0.002678,0.000431,0.000940
12701000,0.0324,0.013523,0.002678,0.000431,0.000823
12702000,0.0324,0.013523,0.002678,0.000431,0.000823
12703000,0.0324,0.013523,0.002678,0.000431,0.000940
12704000,0.0324,0.013523,0.002678,0.000431,0.000823
12705000,0.0324,0.013523,0.002678,0.000431,0.000940
12706000,0.0324,0.013523,0.002678,0.000431,0.000823
12707000,0.0324,0.013523,0.002678,0.000431,0.000940
12708000,0.0324,0.013523,0.002678,0.000431,0.000823
12709000,0.0324,0.013523,0.002678,0.000431,0.000823
12710000,0.0324,0.013523,0.002678,0.000431,0.000940
12711000,0.0324,0.013523,0.002678,0.000431,0.000940
12712000,0.0324,0.013523,0.002678,0.000431,0.000823
12713000,0.0324,0.013523,0.002678,0.000431,0.000823
12714000,0.0324,0.013523,0.002678,0.000431,0.000940
12715000,0.0324,0.013523,0.002678,0.000431,0.000940
12716000,0.0324,0.013523,0.002678,0.000431,0.000705
12717000,0.0324,0.013523,0.002678,0.000431,0.000940
12718000,0.0324,0.013523,0.002678,0.000431,0.000940
12719000,0.0324,0.013523,0.002678,0.000431,0.000940
12720000,0.0324,0.013523,0.002678,0.000431,0.000823
12721000,0.0324,0.013523,0.002678,0.000431,0.000823
12722000,0.0324,0.013523,0.002678,0.000431,0.000940
12723000,0.0324,0.013523,0.002678,0.000431,0.000823
12724000,0.0324,0.013523,0.002678,0.000431,0.000940
12725000,0.0324,0.013523,0.002678,0.000431,0.000823
12726000,0.0324,0.013523,0.002678,0.000431,0.000940
12727000,0.0324,0.013523,0.002678,0.000431,0.000823
12728000,0.0324,0.013523,0.002678,0.000431,0.000823
12729000,0.0324,0.013523,0.002678,0.000431,0.000940
12730000,0.0324,0.013523,0.002678,0.000431,0.000940
12731000,0.0324,0.013523,0.002678,0.000431,0.000705
12732000,0.0324,0.013523,0.002678,0.000431,0.000940
12733000,0.0324,0.013523,0.002678,0.000431,0.000940
12734000,0.0324,0.013523,0.002678,0.000431,0.000940
12735000,0.0324,0.013523,0.002678,0.000431,0.000705
12736000,0.0324,0.013523,0.002678,0.000431,0.000940
12737000,0.0324,0.013523,0.002678,0.000431,0.000940
12738000,0.0324,0.013523,0.002678,0.000431,0.000823
12739000,0.0324,0.013523,0.002678,0.000431,0.000823
12740000,0.0324,0.013523,0.002678,0.000431,0.000940
12741000,0.0324,0.013523,0.002678,0.000431,0.000940
12742000,0.0324,0.013523,0.002678,0.000431,0.000823
12743000,0.0324,0.013523,0.002678,0.000431,0.000823
12744000,0.0324,0.013523,0.002678,0.000431,0.000940
12745000,0.0324,0.013523,0.002678,0.000431,0.000823
12746000,0.0324,0.013523,0.002678,0.000431,0.000940
12747000,0.0324,0.013523,0.002678,0.000431,0.000823
12748000,0.0324,0.013523,0.002678,0.000431,0.000940
12749000,0.0324,0.013523,0.002678,0.000431,0.000823
12750000,0.0324,0.013523,0.002678,0.000431,0.000823
12751000,0.0324,0.013523,0.002678,0.000431,0.000940
12752000,0.0324,0.013523,0.002678,0.000431,0.000940
12753000,0.0324,0.013523,0.002678,0.000431,0.000823
12754000,0.0324,0.013523,0.002678,0.000431,0.000823
12755000,0.0324,0.013523,0.002678,0.000431,0.000940
12756000,0.0324,0.013523,0.002678,0.000431,0.000940
12757000,0.0324,0.013523,0.002678,0.000431,0.000823
12758000,0.0324,0.013523,0.002678,0.000431,0.000823
12759000,0.0324,0.013523,0.002678,0.000431,0.000940
12760000,0.0324,0.013523,0.002678,0.000431,0.000940
12761000,0.0324,0.013523,0.002678,0.000431,0.000823
12762000,0.0324,0.013523,0.002678,0.000431,0.000823
12763000,0.0324,0.013523,0.002678,0.000431,0.000940
12764000,0.0324,0.013523,0.002678,0.000431,0.000823
12765000,0.0324,0.013523,0.002678,0.000431,0.000940
12766000,0.0324,0.013523,0.002678,0.000431,0.000823
12767000,0.0324,0.013523,0.002678,0.000431,0.000940
12768000,0.0324,0.013523,0.002678,0.000431,0.000823
12769000,0.0324,0.013523,0.002678,0.000431,0.000823
12770000,0.0324,0.013523,0.002678,0.000431,0.000940
12771000,0.0324,0.013523,0.002678,0.000431,0.000940
12772000,0.0324,0.013523,0.002678,0.000431,0.000823
12773000,0.0324,0.013523,0.002678,0.000431,0.000823
12774000,0.0324,0.013523,0.002678,0.000431,0.000940
12775000,0.0324,0.013523,0.002678,0.000431,0.000940
12776000,0.0324,0.013523,0.002678,0.000431,0.000705
12777000,0.0324,0.013523,0.002678,0.000431,0.000940
12778000,0.0324,0.013523,0.002678,0.000431,0.000940
12779000,0.0324,0.013523,0.002678,0.000431,0.000823
12780000,0.0324,0.013523,0.002678,0.000431,0.000940
12781000,0.0324,0.013523,0.002678,0.000431,0.000823
12782000,0.0324,0.013523,0.002678,0.000431,0.000940
12783000,0.0324,0.013523,0.002678,0.000431,0.000823
12784000,0.0324,0.013523,0.002678,0.000431,0.000823
12785000,0.0324,0.013523,0.002678,0.000431,0.000940
12786000,0.0324,0.013523,0.002678,0.000431,0.000940
12787000,0.0324,0.013523,0.002678,0.000431,0.000823
12788000,0.0324,0.013523,0.002678,0.000431,0.000823
12789000,0.0324,0.013523,0.002678,0.000431,0.000940
12790000,0.0324,0.013523,0.002678,0.000431,0.000940
12791000,0.0324,0.013523,0.002678,0.000431,0.000705
12792000,0.0324,0.013523,0.002678,0.000431,0.000940
12793000,0.0324,0.013523,0.002678,0.000431,0.000940
12794000,0.0324,0.013523,0.002678,0.000431,0.000940
12795000,0.0324,0.013523,0.002678,0.000431,0.000705
12796000,0.0324,0.013523,0.002678,0.000431,0.000940
12797000,0.0324,0.013523,0.002678,0.000431,0.000940
12798000,0.0324,0.013523,0.002678,0.000431,0.000823
12799000,0.0324,0.013523,0.002678,0.000431,0.000823
12800000,0.0324,0.013523,0.002678,0.000431,0.000940
12801000,0.0324,0.013523,0.002678,0.000431,0.000940
12802000,0.0324,0.013523,0.002678,0.000431,0.000823
12803000,0.0324,0.013523,0.002678,0.000431,0.000823
12804000,0.0324,0.013523,0.002678,0.000431,0.000940
12805000,0.0324,0.013523,0.002678,0.000431,0.000823
12806000,0.0324,0.013523,0.002678,0.000431,0.000940
12807000,0.0324,0.013523,0.002678,0.000431,0.000823
12808000,0.0324,0.013523,0.002678,0.000431,0.000940
12809000,0.0324,0.013523,0.002678,0.000431,0.000823
12810000,0.0324,0.013523,0.002678,0.000431,0.000823
12811000,0.0324,0.013523,0.002678,0.000431,0.000940
12812000,0.0324,0.013523,0.002678,0.000431,0.000940
12813000,0.0324,0.013523,0.002678,0.000431,0.000940
12814000,0.0324,0.013523,0.002678,0.000431,0.000705
12815000,0.0324,0.013523,0.002678,0.000431,0.000940
12816000,0.0324,0.013523,0.002678,0.000431,0.000940
12817000,0.0324,0.013523,0.002678,0.000431,0.000823
12818000,0.0324,0.013523,0.002678,0.000431,0.000823
12819000,0.0324,0.013523,0.002678,0.000431,0.000940
12820000,0.0324,0.013523,0.002678,0.000431,0.000823
12821000,0.0324,0.013523,0.002678,0.000431,0.000940
12822000,0.0324,0.013523,0.002678,0.000431,0.000823
12823000,0.0324,0.013523,0.002678,0.000431,0.000940
12824000,0.0324,0.013523,0.002678,0.000431,0.000823
12825000,0.0324,0.013523,0.002678,0.000431,0.000823
12826000,0.0324,0.013523,0.002678,0.000431,0.000940
12827000,0.0324,0.013523,0.002678,0.000431,0.000940
12828000,0.0324,0.013523,0.002678,0.000431,0.000823
12829000,0.0324,0.013523,0.002678,0.000431,0.000823
12830000,0.0324,0.013523,0.002678,0.000431,0.000940
12831000,0.0324,0.013523,0.002678,0.000431,0.000940
12832000,0.0324,0.013523,0.002678,0.000431,0.000705
12833000,0.0324,0.013523,0.002678,0.000431,0.000940
12834000,0.0324,0.013523,0.002678,0.000431,0.000940
12835000,0.0324,0.013523,0.002678,0.000431,0.000940
12836000,0.0324,0.013523,0.002678,0.000431,0.000705
12837000,0.0324,0.013523,0.002678,0.000431,0.000940
12838000,0.0324,0.013523,0.002678,0.000431,0.000940
12839000,0.0324,0.013523,0.002678,0.000431,0.000823
12840000,0.0324,0.013523,0.002678,0.000431,0.000940
12841000,0.0324,0.013523,0.002678,0.000431,0.000823
12842000,0.0324,0.013523,0.002678,0.000431,0.000940
12843000,0.0324,0.013523,0.002678,0.000431,0.000823
12844000,0.0324,0.013523,0.002678,0.000431,0.000823
12845000,0.0324,0.013523,0.002678,0.000431,0.000940
12846000,0.0324,0.013523,0.002678,0.000431,0.000940
12847000,0.0324,0.013523,0.002678,0.000431,0.000823
12848000,0.0324,0.013523,0.002678,0.000431,0.000823
12849000,0.0324,0.013523,0.002678,0.000431,0.000940
12850000,0.0324,0.013523,0.002678,0.000431,0.000940
12851000,0.0324,0.013523,0.002678,0.000431,0.000705
12852000,0.0324,0.013523,0.002678,0.000431,0.000940
12853000,0.0324,0.013523,0.002678,0.000431,0.000940
12854000,0.0324,0.013523,0.002678,0.000431,0.000940
12855000,0.0324,0.013523,0.002678,0.000431,0.000705
12856000,0.0324,0.013523,0.002678,0.000431,0.000940
12857000,0.0324,0.013523,0.002678,0.000431,0.000940
12858000,0.0324,0.013523,0.002678,0.000431,0.000823
12859000,0.0324,0.013523,0.002678,0.000431,0.000823
12860000,0.0324,0.013523,0.002678,0.000431,0.000940
12861000,0.0324,0.013523,0.002678,0.000431,0.000823
12862000,0.0324,0.013523,0.002678,0.000431,0.000940
12863000,0.0324,0.013523,0.002678,0.000431,0.000823
12864000,0.0324,0.013523,0.002678,0.000431,0.000940
12865000,0.0324,0.013523,0.002678,0.000431,0.000823
12866000,0.0324,0.013523,0.002678,0.000431,0.000823
12867000,0.0324,0.013523,0.002678,0.000431,0.000940
12868000,0.0324,0.013523,0.002678,0.000431,0.000940
12869000,0.0324,0.013523,0.002678,0.000431,0.000823
12870000,0.0324,0.013523,0.002678,0.000431,0.000823
12871000,0.0324,0.013523,0.002678,0.000431,0.000940
12872000,0.0324,0.013523,0.002678,0.000431,0.000940
12873000,0.0324,0.013523,0.002678,0.000431,0.000823
12874000,0.0324,0.013523,0.002678,0.000431,0.000823
12875000,0.0324,0.013523,0.002678,0.000431,0.000940
12876000,0.0324,0.013523,0.002678,0.000431,0.000940
12877000,0.0324,0.013523,0.002678,0.000431,0.000823
12878000,0.0324,0.013523,0.002678,0.000431,0.000823
12879000,0.0324,0.013523,0.002678,0.000431,0.000940
12880000,0.0324,0.013523,0.002678,0.000431,0.000823
12881000,0.0324,0.013523,0.002678,0.000431,0.000940
12882000,0.0324,0.013523,0.002678,0.000431,0.000823
12883000,0.0324,0.013523,0.002678,0.000431,0.000940
12884000,0.0324,0.013523,0.002678,0.000431,0.000823
12885000,0.0324,0.013523,0.002678,0.000431,0.000823
12886000,0.0324,0.013523,0.002678,0.000431,0.000940
12887000,0.0324,0.013523,0.002678,0.000431,0.068049
12888000,0.0324,0.013523,0.002678,0.000431,0.511718
12889000,0.0324,0.013523,0.002678,0.000431,0.601509
12890000,0.0324,0.013523,0.002678,0.000431,0.131161
12891000,0.0324,0.013523,0.002678,0.000431,0.133982
12892000,0.0324,0.013523,0.002678,0.000431,0.554263
12893000,0.0324,0.013523,0.002678,0.000431,0.237524
12894000,0.0324,0.013523,0.002678,0.000431,0.273018
12895000,0.0324,0.013523,0.002678,0.000431,0.323790
12896000,0.0324,0.013523,0.002678,0.000431,0.144207
12897000,0.0324,0.013523,0.002678,0.000431,0.141621
12898000,0.0324,0.013523,0.002678,0.000431,0.108831
12899000,0.0324,0.013523,0.002678,0.000431,0.399831
12900000,0.0324,0.013523,0.002678,0.000431,0.226242
12901000,0.0324,0.013523,0.002678,0.000431,0.065111
12902000,0.0324,0.013523,0.002678,0.000431,0.041958
12903000,0.0324,0.013523,0.002678,0.000431,0.035611
12904000,0.0324,0.013523,0.002678,0.000431,0.031380
12905000,0.0324,0.013523,0.002678,0.000431,0.027149
12906000,0.0324,0.013523,0.002678,0.000431,0.024446
12907000,0.0324,0.013523,0.002678,0.000431,0.017394
12908000,0.0324,0.013523,0.002678,0.000431,0.017042
12909000,0.0324,0.013523,0.002678,0.000431,0.015396
12910000,0.0324,0.013523,0.002678,0.000431,0.011048
12911000,0.0324,0.013523,0.002678,0.000431,0.012693
12912000,0.0324,0.013523,0.002678,0.000431,0.013046
12913000,0.0324,0.013523,0.002678,0.000431,0.011753
12914000,0.0324,0.013523,0.002678,0.000431,0.004349
12915000,0.0324,0.013523,0.002678,0.000431,0.007992
12916000,0.0324,0.013523,0.002678,0.000431,0.002821
12917000,0.0324,0.013523,0.002678,0.000431,0.002703
12918000,0.0324,0.013523,0.002678,0.000431,0.002468
12919000,0.0324,0.013523,0.002678,0.000431,0.002703
12920000,0.0324,0.013523,0.002678,0.000431,0.002586
12921000,0.0324,0.013523,0.002678,0.000431,0.002468
12922000,0.0324,0.013523,0.002678,0.000431,0.002586
12923000,0.0324,0.013523,0.002678,0.000431,0.002703
12924000,0.0324,0.013523,0.002678,0.000431,0.003643
12925000,0.0324,0.013523,0.002678,0.000431,0.002703
12926000,0.0324,0.013523,0.002678,0.000431,0.001763
12927000,0.0324,0.013523,0.002678,0.000431,0.001763
12928000,0.0324,0.013523,0.002678,0.000431,0.001763
12929000,0.0324,0.013523,0.002678,0.000431,0.001528
12930000,0.0324,0.013523,0.002678,0.000431,0.001763
12931000,0.0324,0.013523,0.002678,0.000431,0.001763
12932000,0.0324,0.013523,0.002678,0.000431,0.001763
12933000,0.0324,0.013523,0.002678,0.000431,0.001763
12934000,0.0324,0.013523,0.002678,0.000431,0.001645
12935000,0.0324,0.013523,0.002678,0.000431,0.001763
12936000,0.0324,0.013523,0.002678,0.000431,0.001645
12937000,0.0324,0.013523,0.002678,0.000431,0.001763
12938000,0.0324,0.013523,0.002678,0.000431,0.001645
12939000,0.0324,0.013523,0.002678,0.000431,0.001763
12940000,0.0324,0.013523,0.002678,0.000431,0.001763
12941000,0.0324,0.013523,0.002678,0.000431,0.003056
12942000,0.0324,0.013523,0.002678,0.000431,0.002116
12943000,0.0324,0.013523,0.002678,0.000431,0.000940
12944000,0.0324,0.013523,0.002678,0.000431,0.000940
12945000,0.0324,0.013523,0.002678,0.000431,0.000940
12946000,0.0324,0.013523,0.002678,0.000431,0.000823
12947000,0.0324,0.013523,0.002678,0.000431,0.000823
12948000,0.0324,0.013523,0.002678,0.000431,0.000940
12949000,0.0324,0.013523,0.002678,0.000431,0.000940
12950000,0.0324,0.013523,0.002678,0.000431,0.000823
12951000,0.0324,0.013523,0.002678,0.000431,0.000823
12952000,0.0324,0.013523,0.002678,0.000431,0.000940
12953000,0.0324,0.013523,0.002678,0.000431,0.000705
12954000,0.0324,0.013523,0.002678,0.000431,0.000940
12955000,0.0324,0.013523,0.002678,0.000431,0.000823
12956000,0.0324,0.013523,0.002678,0.000431,0.000823
12957000,0.0324,0.013523,0.002678,0.000431,0.000940
12958000,0.0324,0.013523,0.002678,0.000431,0.000705
12959000,0.0324,0.013523,0.002678,0.000431,0.000940
12960000,0.0324,0.013523,0.002678,0.000431,0.000823
12961000,0.0324,0.013523,0.002678,0.000431,0.000823
12962000,0.0324,0.013523,0.002678,0.000431,0.000823
12963000,0.0324,0.013523,0.002678,0.000431,0.000823
12964000,0.0324,0.013523,0.002678,0.000431,0.000940
12965000,0.0324,0.013523,0.002678,0.000431,0.000705
12966000,0.0324,0.013523,0.002678,0.000431,0.000940
12967000,0.0324,0.013523,0.002678,0.000431,0.000823
12968000,0.0324,0.013523,0.002678,0.000431,0.000823
12969000,0.0324,0.013523,0.002678,0.000431,0.000823
12970000,0.0324,0.013523,0.002678,0.000431,0.000823
12971000,0.0324,0.013523,0.002678,0.000431,0.000823
12972000,0.0324,0.013523,0.002678,0.000431,0.000823
12973000,0.0324,0.013523,0.002678,0.000431,0.000940
12974000,0.0324,0.013523,0.002678,0.000431,0.000823
12975000,0.0324,0.013523,0.002678,0.000431,0.000823
12976000,0.0324,0.013523,0.002678,0.000431,0.000705
12977000,0.0324,0.013523,0.002678,0.000431,0.000940
12978000,0.0324,0.013523,0.002678,0.000431,0.000940
12979000,0.0324,0.013523,0.002678,0.000431,0.000705
12980000,0.0324,0.013523,0.002678,0.000431,0.000940
12981000,0.0324,0.013523,0.002678,0.000431,0.000705
12982000,0.0324,0.013523,0.002678,0.000431,0.000940
12983000,0.0324,0.013523,0.002678,0.000431,0.000823
12984000,0.0324,0.013523,0.002678,0.000431,0.000823
12985000,0.0324,0.013523,0.002678,0.000431,0.000940
12986000,0.0324,0.013523,0.002678,0.000431,0.000705
12987000,0.0324,0.013523,0.002678,0.000431,0.000940
12988000,0.0324,0.013523,0.002678,0.000431,0.000823
12989000,0.0324,0.013523,0.002678,0.000431,0.000823
12990000,0.0324,0.013523,0.002678,0.000431,0.000823
12991000,0.0324,0.013523,0.002678,0.000431,0.000823
12992000,0.0324,0.013523,0.002678,0.000431,0.000940
12993000,0.0324,0.013523,0.002678,0.000431,0.000705
12994000,0.0324,0.013523,0.002678,0.000431,0.000940
12995000,0.0324,0.013523,0.002678,0.000431,0.000705
12996000,0.0324,0.013523,0.002678,0.000431,0.000823
12997000,0.0324,0.013523,0.002678,0.000431,0.000940
12998000,0.0324,0.013523,0.002678,0.000431,0.000823
12999000,0.0324,0.013523,0.002678,0.000431,0.000823
