Cycle,Area(mm^2),PeakDynamic(W),SubthresholdLeakage(W),GateLeakage(W),RunTimeDynamic(W)
132000000,0.0324,0.013523,0.002678,0.000431,0.000823
132001000,0.0324,0.013523,0.002678,0.000431,0.246457
132002000,0.0324,0.013523,0.002678,0.000431,0.679078
132003000,0.0324,0.013523,0.002678,0.000431,0.486214
132004000,0.0324,0.013523,0.002678,0.000431,0.135510
132005000,0.0324,0.013523,0.002678,0.000431,0.239287
132006000,0.0324,0.013523,0.002678,0.000431,0.534048
132007000,0.0324,0.013523,0.002678,0.000431,0.251628
132008000,0.0324,0.013523,0.002678,0.000431,0.357286
132009000,0.0324,0.013523,0.002678,0.000431,0.142679
132010000,0.0324,0.013523,0.002678,0.000431,0.146088
132011000,0.0324,0.013523,0.002678,0.000431,0.226007
132012000,0.0324,0.013523,0.002678,0.000431,0.530640
132013000,0.0324,0.013523,0.002678,0.000431,0.231766
132014000,0.0324,0.013523,0.002678,0.000431,0.201326
132015000,0.0324,0.013523,0.002678,0.000431,0.178878
132016000,0.0324,0.013523,0.002678,0.000431,0.148086
132017000,0.0324,0.013523,0.002678,0.000431,0.115765
132018000,0.0324,0.013523,0.002678,0.000431,0.099546
132019000,0.0324,0.013523,0.002678,0.000431,0.085208
132020000,0.0324,0.013523,0.002678,0.000431,0.069224
132021000,0.0324,0.013523,0.002678,0.000431,0.062995
132022000,0.0324,0.013523,0.002678,0.000431,0.044426
132023000,0.0324,0.013523,0.002678,0.000431,0.035141
132024000,0.0324,0.013523,0.002678,0.000431,0.027149
132025000,0.0324,0.013523,0.002678,0.000431,0.024211
132026000,0.0324,0.013523,0.002678,0.000431,0.022330
132027000,0.0324,0.013523,0.002678,0.000431,0.020097
132028000,0.0324,0.013523,0.002678,0.000431,0.017512
132029000,0.0324,0.013523,0.002678,0.000431,0.016924
132030000,0.0324,0.013523,0.002678,0.000431,0.016571
132031000,0.0324,0.013523,0.002678,0.000431,0.016689
132032000,0.0324,0.013523,0.002678,0.000431,0.016336
132033000,0.0324,0.013523,0.002678,0.000431,0.014926
132034000,0.0324,0.013523,0.002678,0.000431,0.013281
132035000,0.0324,0.013523,0.002678,0.000431,0.009637
132036000,0.0324,0.013523,0.002678,0.000431,0.010342
132037000,0.0324,0.013523,0.002678,0.000431,0.009755
132038000,0.0324,0.013523,0.002678,0.000431,0.014456
132039000,0.0324,0.013523,0.002678,0.000431,0.008345
132040000,0.0324,0.013523,0.002678,0.000431,0.008345
132041000,0.0324,0.013523,0.002678,0.000431,0.008109
132042000,0.0324,0.013523,0.002678,0.000431,0.008580
132043000,0.0324,0.013523,0.002678,0.000431,0.007757
132044000,0.0324,0.013523,0.002678,0.000431,0.008345
132045000,0.0324,0.013523,0.002678,0.000431,0.010813
132046000,0.0324,0.013523,0.002678,0.000431,0.006229
132047000,0.0324,0.013523,0.002678,0.000431,0.009755
132048000,0.0324,0.013523,0.002678,0.000431,0.005289
132049000,0.0324,0.013523,0.002678,0.000431,0.005759
132050000,0.0324,0.013523,0.002678,0.000431,0.005876
132051000,0.0324,0.013523,0.002678,0.000431,0.005406
132052000,0.0324,0.013523,0.002678,0.000431,0.005994
132053000,0.0324,0.013523,0.002678,0.000431,0.005406
132054000,0.0324,0.013523,0.002678,0.000431,0.005994
132055000,0.0324,0.013523,0.002678,0.000431,0.005759
132056000,0.0324,0.013523,0.002678,0.000431,0.005171
132057000,0.0324,0.013523,0.002678,0.000431,0.006111
132058000,0.0324,0.013523,0.002678,0.000431,0.007052
132059000,0.0324,0.013523,0.002678,0.000431,0.005054
132060000,0.0324,0.013523,0.002678,0.000431,0.002586
132061000,0.0324,0.013523,0.002678,0.000431,0.002233
132062000,0.0324,0.013523,0.002678,0.000431,0.002586
132063000,0.0324,0.013523,0.002678,0.000431,0.002233
132064000,0.0324,0.013523,0.002678,0.000431,0.002468
132065000,0.0324,0.013523,0.002678,0.000431,0.002703
132066000,0.0324,0.013523,0.002678,0.000431,0.001998
132067000,0.0324,0.013523,0.002678,0.000431,0.002703
132068000,0.0324,0.013523,0.002678,0.000431,0.002233
132069000,0.0324,0.013523,0.002678,0.000431,0.002586
132070000,0.0324,0.013523,0.002678,0.000431,0.002351
132071000,0.0324,0.013523,0.002678,0.000431,0.002233
132072000,0.0324,0.013523,0.002678,0.000431,0.002586
132073000,0.0324,0.013523,0.002678,0.000431,0.003643
132074000,0.0324,0.013523,0.002678,0.000431,0.000823
132075000,0.0324,0.013523,0.002678,0.000431,0.000823
132076000,0.0324,0.013523,0.002678,0.000431,0.000823
132077000,0.0324,0.013523,0.002678,0.000431,0.000823
132078000,0.0324,0.013523,0.002678,0.000431,0.000940
132079000,0.0324,0.013523,0.002678,0.000431,0.000705
132080000,0.0324,0.013523,0.002678,0.000431,0.000940
132081000,0.0324,0.013523,0.002678,0.000431,0.000705
132082000,0.0324,0.013523,0.002678,0.000431,0.000940
132083000,0.0324,0.013523,0.002678,0.000431,0.000940
132084000,0.0324,0.013523,0.002678,0.000431,0.000705
132085000,0.0324,0.013523,0.002678,0.000431,0.000940
132086000,0.0324,0.013523,0.002678,0.000431,0.000705
132087000,0.0324,0.013523,0.002678,0.000431,0.000940
132088000,0.0324,0.013523,0.002678,0.000431,0.000823
132089000,0.0324,0.013523,0.002678,0.000431,0.000823
132090000,0.0324,0.013523,0.002678,0.000431,0.000823
132091000,0.0324,0.013523,0.002678,0.000431,0.000823
132092000,0.0324,0.013523,0.002678,0.000431,0.000940
132093000,0.0324,0.013523,0.002678,0.000431,0.000823
132094000,0.0324,0.013523,0.002678,0.000431,0.000823
132095000,0.0324,0.013523,0.002678,0.000431,0.000823
132096000,0.0324,0.013523,0.002678,0.000431,0.000823
132097000,0.0324,0.013523,0.002678,0.000431,0.000823
132098000,0.0324,0.013523,0.002678,0.000431,0.000823
132099000,0.0324,0.013523,0.002678,0.000431,0.000940
132100000,0.0324,0.013523,0.002678,0.000431,0.000705
132101000,0.0324,0.013523,0.002678,0.000431,0.000940
132102000,0.0324,0.013523,0.002678,0.000431,0.000823
132103000,0.0324,0.013523,0.002678,0.000431,0.000823
132104000,0.0324,0.013523,0.002678,0.000431,0.000823
132105000,0.0324,0.013523,0.002678,0.000431,0.000823
132106000,0.0324,0.013523,0.002678,0.000431,0.000940
132107000,0.0324,0.013523,0.002678,0.000431,0.000705
132108000,0.0324,0.013523,0.002678,0.000431,0.000940
132109000,0.0324,0.013523,0.002678,0.000431,0.000705
132110000,0.0324,0.013523,0.002678,0.000431,0.000940
132111000,0.0324,0.013523,0.002678,0.000431,0.000823
132112000,0.0324,0.013523,0.002678,0.000431,0.000823
132113000,0.0324,0.013523,0.002678,0.000431,0.000940
132114000,0.0324,0.013523,0.002678,0.000431,0.000705
132115000,0.0324,0.013523,0.002678,0.000431,0.000940
132116000,0.0324,0.013523,0.002678,0.000431,0.000823
132117000,0.0324,0.013523,0.002678,0.000431,0.000823
132118000,0.0324,0.013523,0.002678,0.000431,0.000823
132119000,0.0324,0.013523,0.002678,0.000431,0.000823
132120000,0.0324,0.013523,0.002678,0.000431,0.000823
132121000,0.0324,0.013523,0.002678,0.000431,0.000823
132122000,0.0324,0.013523,0.002678,0.000431,0.000940
132123000,0.0324,0.013523,0.002678,0.000431,0.000823
132124000,0.0324,0.013523,0.002678,0.000431,0.000823
132125000,0.0324,0.013523,0.002678,0.000431,0.000823
132126000,0.0324,0.013523,0.002678,0.000431,0.000823
132127000,0.0324,0.013523,0.002678,0.000431,0.000823
132128000,0.0324,0.013523,0.002678,0.000431,0.000823
132129000,0.0324,0.013523,0.002678,0.000431,0.014103
132130000,0.0324,0.013523,0.002678,0.000431,0.728205
132131000,0.0324,0.013523,0.002678,0.000431,0.624427
132132000,0.0324,0.013523,0.002678,0.000431,0.142679
132133000,0.0324,0.013523,0.002678,0.000431,0.138918
132134000,0.0324,0.013523,0.002678,0.000431,0.610324
132135000,0.0324,0.013523,0.002678,0.000431,0.262205
132136000,0.0324,0.013523,0.002678,0.000431,0.321322
132137000,0.0324,0.013523,0.002678,0.000431,0.154550
132138000,0.0324,0.013523,0.002678,0.000431,0.170181
132139000,0.0324,0.013523,0.002678,0.000431,0.131749
132140000,0.0324,0.013523,0.002678,0.000431,0.512188
132141000,0.0324,0.013523,0.002678,0.000431,0.221541
132142000,0.0324,0.013523,0.002678,0.000431,0.182756
132143000,0.0324,0.013523,0.002678,0.000431,0.164422
132144000,0.0324,0.013523,0.002678,0.000431,0.144207
132145000,0.0324,0.013523,0.002678,0.000431,0.122112
132146000,0.0324,0.013523,0.002678,0.000431,0.109066
132147000,0.0324,0.013523,0.002678,0.000431,0.091790
132148000,0.0324,0.013523,0.002678,0.000431,0.084855
132149000,0.0324,0.013523,0.002678,0.000431,0.075453
132150000,0.0324,0.013523,0.002678,0.000431,0.072045
132151000,0.0324,0.013523,0.002678,0.000431,0.059352
132152000,0.0324,0.013523,0.002678,0.000431,0.060527
132153000,0.0324,0.013523,0.002678,0.000431,0.055708
132154000,0.0324,0.013523,0.002678,0.000431,0.046541
132155000,0.0324,0.013523,0.002678,0.000431,0.047834
132156000,0.0324,0.013523,0.002678,0.000431,0.041723
132157000,0.0324,0.013523,0.002678,0.000431,0.039019
132158000,0.0324,0.013523,0.002678,0.000431,0.035846
132159000,0.0324,0.013523,0.002678,0.000431,0.032555
132160000,0.0324,0.013523,0.002678,0.000431,0.032085
132161000,0.0324,0.013523,0.002678,0.000431,0.029029
132162000,0.0324,0.013523,0.002678,0.000431,0.032320
132163000,0.0324,0.013523,0.002678,0.000431,0.032203
132164000,0.0324,0.013523,0.002678,0.000431,0.025856
132165000,0.0324,0.013523,0.002678,0.000431,0.031262
132166000,0.0324,0.013523,0.002678,0.000431,0.022565
132167000,0.0324,0.013523,0.002678,0.000431,0.024681
132168000,0.0324,0.013523,0.002678,0.000431,0.023976
132169000,0.0324,0.013523,0.002678,0.000431,0.020332
132170000,0.0324,0.013523,0.002678,0.000431,0.025034
132171000,0.0324,0.013523,0.002678,0.000431,0.022213
132172000,0.0324,0.013523,0.002678,0.000431,0.019980
132173000,0.0324,0.013523,0.002678,0.000431,0.023153
132174000,0.0324,0.013523,0.002678,0.000431,0.022330
132175000,0.0324,0.013523,0.002678,0.000431,0.021038
132176000,0.0324,0.013523,0.002678,0.000431,0.017277
132177000,0.0324,0.013523,0.002678,0.000431,0.016101
132178000,0.0324,0.013523,0.002678,0.000431,0.014221
132179000,0.0324,0.013523,0.002678,0.000431,0.012928
132180000,0.0324,0.013523,0.002678,0.000431,0.013281
132181000,0.0324,0.013523,0.002678,0.000431,0.012928
132182000,0.0324,0.013523,0.002678,0.000431,0.011048
132183000,0.0324,0.013523,0.002678,0.000431,0.016336
132184000,0.0324,0.013523,0.002678,0.000431,0.010930
132185000,0.0324,0.013523,0.002678,0.000431,0.011988
132186000,0.0324,0.013523,0.002678,0.000431,0.011635
132187000,0.0324,0.013523,0.002678,0.000431,0.011048
132188000,0.0324,0.013523,0.002678,0.000431,0.011400
132189000,0.0324,0.013523,0.002678,0.000431,0.012928
132190000,0.0324,0.013523,0.002678,0.000431,0.010342
132191000,0.0324,0.013523,0.002678,0.000431,0.013046
132192000,0.0324,0.013523,0.002678,0.000431,0.010578
132193000,0.0324,0.013523,0.002678,0.000431,0.011400
132194000,0.0324,0.013523,0.002678,0.000431,0.012340
132195000,0.0324,0.013523,0.002678,0.000431,0.011400
132196000,0.0324,0.013523,0.002678,0.000431,0.011988
132197000,0.0324,0.013523,0.002678,0.000431,0.010225
132198000,0.0324,0.013523,0.002678,0.000431,0.010460
132199000,0.0324,0.013523,0.002678,0.000431,0.011518
132200000,0.0324,0.013523,0.002678,0.000431,0.009755
132201000,0.0324,0.013523,0.002678,0.000431,0.011635
132202000,0.0324,0.013523,0.002678,0.000431,0.006934
132203000,0.0324,0.013523,0.002678,0.000431,0.008580
132204000,0.0324,0.013523,0.002678,0.000431,0.006934
132205000,0.0324,0.013523,0.002678,0.000431,0.007404
132206000,0.0324,0.013523,0.002678,0.000431,0.008227
132207000,0.0324,0.013523,0.002678,0.000431,0.007052
132208000,0.0324,0.013523,0.002678,0.000431,0.007404
132209000,0.0324,0.013523,0.002678,0.000431,0.008227
132210000,0.0324,0.013523,0.002678,0.000431,0.006582
132211000,0.0324,0.013523,0.002678,0.000431,0.007992
132212000,0.0324,0.013523,0.002678,0.000431,0.007639
132213000,0.0324,0.013523,0.002678,0.000431,0.006229
132214000,0.0324,0.013523,0.002678,0.000431,0.008580
132215000,0.0324,0.013523,0.002678,0.000431,0.006347
132216000,0.0324,0.013523,0.002678,0.000431,0.008227
132217000,0.0324,0.013523,0.002678,0.000431,0.006817
132218000,0.0324,0.013523,0.002678,0.000431,0.007052
132219000,0.0324,0.013523,0.002678,0.000431,0.007052
132220000,0.0324,0.013523,0.002678,0.000431,0.006464
132221000,0.0324,0.013523,0.002678,0.000431,0.007522
132222000,0.0324,0.013523,0.002678,0.000431,0.006582
132223000,0.0324,0.013523,0.002678,0.000431,0.007052
132224000,0.0324,0.013523,0.002678,0.000431,0.005641
132225000,0.0324,0.013523,0.002678,0.000431,0.005054
132226000,0.0324,0.013523,0.002678,0.000431,0.005759
132227000,0.0324,0.013523,0.002678,0.000431,0.005524
132228000,0.0324,0.013523,0.002678,0.000431,0.005289
132229000,0.0324,0.013523,0.002678,0.000431,0.005641
132230000,0.0324,0.013523,0.002678,0.000431,0.004819
132231000,0.0324,0.013523,0.002678,0.000431,0.005759
132232000,0.0324,0.013523,0.002678,0.000431,0.006229
132233000,0.0324,0.013523,0.002678,0.000431,0.004584
132234000,0.0324,0.013523,0.002678,0.000431,0.006229
132235000,0.0324,0.013523,0.002678,0.000431,0.004584
132236000,0.0324,0.013523,0.002678,0.000431,0.005994
132237000,0.0324,0.013523,0.002678,0.000431,0.005524
132238000,0.0324,0.013523,0.002678,0.000431,0.005054
132239000,0.0324,0.013523,0.002678,0.000431,0.006347
132240000,0.0324,0.013523,0.002678,0.000431,0.004701
132241000,0.0324,0.013523,0.002678,0.000431,0.005759
132242000,0.0324,0.013523,0.002678,0.000431,0.006817
132243000,0.0324,0.013523,0.002678,0.000431,0.006111
132244000,0.0324,0.013523,0.002678,0.000431,0.005054
132245000,0.0324,0.013523,0.002678,0.000431,0.004231
132246000,0.0324,0.013523,0.002678,0.000431,0.004584
132247000,0.0324,0.013523,0.002678,0.000431,0.004819
132248000,0.0324,0.013523,0.002678,0.000431,0.004349
132249000,0.0324,0.013523,0.002678,0.000431,0.004819
132250000,0.0324,0.013523,0.002678,0.000431,0.004819
132251000,0.0324,0.013523,0.002678,0.000431,0.003996
132252000,0.0324,0.013523,0.002678,0.000431,0.005524
132253000,0.0324,0.013523,0.002678,0.000431,0.004231
132254000,0.0324,0.013523,0.002678,0.000431,0.004819
132255000,0.0324,0.013523,0.002678,0.000431,0.004231
132256000,0.0324,0.013523,0.002678,0.000431,0.005054
132257000,0.0324,0.013523,0.002678,0.000431,0.005171
132258000,0.0324,0.013523,0.002678,0.000431,0.003761
132259000,0.0324,0.013523,0.002678,0.000431,0.005524
132260000,0.0324,0.013523,0.002678,0.000431,0.003878
132261000,0.0324,0.013523,0.002678,0.000431,0.005054
132262000,0.0324,0.013523,0.002678,0.000431,0.004701
132263000,0.0324,0.013523,0.002678,0.000431,0.004349
132264000,0.0324,0.013523,0.002678,0.000431,0.004819
132265000,0.0324,0.013523,0.002678,0.000431,0.006582
132266000,0.0324,0.013523,0.002678,0.000431,0.004819
132267000,0.0324,0.013523,0.002678,0.000431,0.002351
132268000,0.0324,0.013523,0.002678,0.000431,0.004466
132269000,0.0324,0.013523,0.002678,0.000431,0.001763
132270000,0.0324,0.013523,0.002678,0.000431,0.001645
132271000,0.0324,0.013523,0.002678,0.000431,0.001645
132272000,0.0324,0.013523,0.002678,0.000431,0.001410
132273000,0.0324,0.013523,0.002678,0.000431,0.001880
132274000,0.0324,0.013523,0.002678,0.000431,0.001880
132275000,0.0324,0.013523,0.002678,0.000431,0.001410
132276000,0.0324,0.013523,0.002678,0.000431,0.004584
132277000,0.0324,0.013523,0.002678,0.000431,0.000940
132278000,0.0324,0.013523,0.002678,0.000431,0.000940
132279000,0.0324,0.013523,0.002678,0.000431,0.000705
132280000,0.0324,0.013523,0.002678,0.000431,0.000940
132281000,0.0324,0.013523,0.002678,0.000431,0.000940
132282000,0.0324,0.013523,0.002678,0.000431,0.000823
132283000,0.0324,0.013523,0.002678,0.000431,0.000823
132284000,0.0324,0.013523,0.002678,0.000431,0.000940
132285000,0.0324,0.013523,0.002678,0.000431,0.000940
132286000,0.0324,0.013523,0.002678,0.000431,0.000823
132287000,0.0324,0.013523,0.002678,0.000431,0.000823
132288000,0.0324,0.013523,0.002678,0.000431,0.000940
132289000,0.0324,0.013523,0.002678,0.000431,0.000823
132290000,0.0324,0.013523,0.002678,0.000431,0.000940
132291000,0.0324,0.013523,0.002678,0.000431,0.000823
132292000,0.0324,0.013523,0.002678,0.000431,0.000940
132293000,0.0324,0.013523,0.002678,0.000431,0.000823
132294000,0.0324,0.013523,0.002678,0.000431,0.000823
132295000,0.0324,0.013523,0.002678,0.000431,0.000940
132296000,0.0324,0.013523,0.002678,0.000431,0.000940
132297000,0.0324,0.013523,0.002678,0.000431,0.000823
132298000,0.0324,0.013523,0.002678,0.000431,0.000823
132299000,0.0324,0.013523,0.002678,0.000431,0.000940
132300000,0.0324,0.013523,0.002678,0.000431,0.000940
132301000,0.0324,0.013523,0.002678,0.000431,0.000823
132302000,0.0324,0.013523,0.002678,0.000431,0.000823
132303000,0.0324,0.013523,0.002678,0.000431,0.000940
132304000,0.0324,0.013523,0.002678,0.000431,0.000823
132305000,0.0324,0.013523,0.002678,0.000431,0.000940
132306000,0.0324,0.013523,0.002678,0.000431,0.000823
132307000,0.0324,0.013523,0.002678,0.000431,0.000940
132308000,0.0324,0.013523,0.002678,0.000431,0.000823
132309000,0.0324,0.013523,0.002678,0.000431,0.000823
132310000,0.0324,0.013523,0.002678,0.000431,0.000940
132311000,0.0324,0.013523,0.002678,0.000431,0.000940
132312000,0.0324,0.013523,0.002678,0.000431,0.000823
132313000,0.0324,0.013523,0.002678,0.000431,0.000823
132314000,0.0324,0.013523,0.002678,0.000431,0.000940
132315000,0.0324,0.013523,0.002678,0.000431,0.000940
132316000,0.0324,0.013523,0.002678,0.000431,0.000705
132317000,0.0324,0.013523,0.002678,0.000431,0.000940
132318000,0.0324,0.013523,0.002678,0.000431,0.000940
132319000,0.0324,0.013523,0.002678,0.000431,0.000940
132320000,0.0324,0.013523,0.002678,0.000431,0.000705
132321000,0.0324,0.013523,0.002678,0.000431,0.000940
132322000,0.0324,0.013523,0.002678,0.000431,0.000940
132323000,0.0324,0.013523,0.002678,0.000431,0.000823
132324000,0.0324,0.013523,0.002678,0.000431,0.000940
132325000,0.0324,0.013523,0.002678,0.000431,0.000823
132326000,0.0324,0.013523,0.002678,0.000431,0.000940
132327000,0.0324,0.013523,0.002678,0.000431,0.000823
132328000,0.0324,0.013523,0.002678,0.000431,0.000823
132329000,0.0324,0.013523,0.002678,0.000431,0.000940
132330000,0.0324,0.013523,0.002678,0.000431,0.000823
132331000,0.0324,0.013523,0.002678,0.000431,0.000940
132332000,0.0324,0.013523,0.002678,0.000431,0.000823
132333000,0.0324,0.013523,0.002678,0.000431,0.000940
132334000,0.0324,0.013523,0.002678,0.000431,0.000940
132335000,0.0324,0.013523,0.002678,0.000431,0.000705
132336000,0.0324,0.013523,0.002678,0.000431,0.000940
132337000,0.0324,0.013523,0.002678,0.000431,0.000940
132338000,0.0324,0.013523,0.002678,0.000431,0.000940
132339000,0.0324,0.013523,0.002678,0.000431,0.000705
132340000,0.0324,0.013523,0.002678,0.000431,0.000940
132341000,0.0324,0.013523,0.002678,0.000431,0.000940
132342000,0.0324,0.013523,0.002678,0.000431,0.000940
132343000,0.0324,0.013523,0.002678,0.000431,0.002116
132344000,0.0324,0.013523,0.002678,0.000431,0.305573
132345000,0.0324,0.013523,0.002678,0.000431,0.766754
132346000,0.0324,0.013523,0.002678,0.000431,0.287239
132347000,0.0324,0.013523,0.002678,0.000431,0.134922
132348000,0.0324,0.013523,0.002678,0.000431,0.471170
132349000,0.0324,0.013523,0.002678,0.000431,0.343417
132350000,0.0324,0.013523,0.002678,0.000431,0.237995
132351000,0.0324,0.013523,0.002678,0.000431,0.273371
132352000,0.0324,0.013523,0.002678,0.000431,0.162659
132353000,0.0324,0.013523,0.002678,0.000431,0.131514
132354000,0.0324,0.013523,0.002678,0.000431,0.287356
132355000,0.0324,0.013523,0.002678,0.000431,0.405120
132356000,0.0324,0.013523,0.002678,0.000431,0.144912
132357000,0.0324,0.013523,0.002678,0.000431,0.130691
132358000,0.0324,0.013523,0.002678,0.000431,0.113532
132359000,0.0324,0.013523,0.002678,0.000431,0.089556
132360000,0.0324,0.013523,0.002678,0.000431,0.077569
132361000,0.0324,0.013523,0.002678,0.000431,0.060880
132362000,0.0324,0.013523,0.002678,0.000431,0.044778
132363000,0.0324,0.013523,0.002678,0.000431,0.043603
132364000,0.0324,0.013523,0.002678,0.000431,0.027267
132365000,0.0324,0.013523,0.002678,0.000431,0.028089
132366000,0.0324,0.013523,0.002678,0.000431,0.023271
132367000,0.0324,0.013523,0.002678,0.000431,0.019510
132368000,0.0324,0.013523,0.002678,0.000431,0.017159
132369000,0.0324,0.013523,0.002678,0.000431,0.014221
132370000,0.0324,0.013523,0.002678,0.000431,0.015514
132371000,0.0324,0.013523,0.002678,0.000431,0.019040
132372000,0.0324,0.013523,0.002678,0.000431,0.012576
132373000,0.0324,0.013523,0.002678,0.000431,0.012811
132374000,0.0324,0.013523,0.002678,0.000431,0.014691
132375000,0.0324,0.013523,0.002678,0.000431,0.012105
132376000,0.0324,0.013523,0.002678,0.000431,0.009520
132377000,0.0324,0.013523,0.002678,0.000431,0.009520
132378000,0.0324,0.013523,0.002678,0.000431,0.009637
132379000,0.0324,0.013523,0.002678,0.000431,0.011283
132380000,0.0324,0.013523,0.002678,0.000431,0.009050
132381000,0.0324,0.013523,0.002678,0.000431,0.010107
132382000,0.0324,0.013523,0.002678,0.000431,0.009285
132383000,0.0324,0.013523,0.002678,0.000431,0.004701
132384000,0.0324,0.013523,0.002678,0.000431,0.005171
132385000,0.0324,0.013523,0.002678,0.000431,0.007522
132386000,0.0324,0.013523,0.002678,0.000431,0.003761
132387000,0.0324,0.013523,0.002678,0.000431,0.004349
132388000,0.0324,0.013523,0.002678,0.000431,0.003761
132389000,0.0324,0.013523,0.002678,0.000431,0.004349
132390000,0.0324,0.013523,0.002678,0.000431,0.004113
132391000,0.0324,0.013523,0.002678,0.000431,0.003761
132392000,0.0324,0.013523,0.002678,0.000431,0.004231
132393000,0.0324,0.013523,0.002678,0.000431,0.004231
132394000,0.0324,0.013523,0.002678,0.000431,0.003761
132395000,0.0324,0.013523,0.002678,0.000431,0.004231
132396000,0.0324,0.013523,0.002678,0.000431,0.004113
132397000,0.0324,0.013523,0.002678,0.000431,0.003996
132398000,0.0324,0.013523,0.002678,0.000431,0.004113
132399000,0.0324,0.013523,0.002678,0.000431,0.003878
132400000,0.0324,0.013523,0.002678,0.000431,0.004231
132401000,0.0324,0.013523,0.002678,0.000431,0.004113
132402000,0.0324,0.013523,0.002678,0.000431,0.004113
132403000,0.0324,0.013523,0.002678,0.000431,0.003761
132404000,0.0324,0.013523,0.002678,0.000431,0.004231
132405000,0.0324,0.013523,0.002678,0.000431,0.004349
132406000,0.0324,0.013523,0.002678,0.000431,0.003643
132407000,0.0324,0.013523,0.002678,0.000431,0.004584
132408000,0.0324,0.013523,0.002678,0.000431,0.003878
132409000,0.0324,0.013523,0.002678,0.000431,0.006934
132410000,0.0324,0.013523,0.002678,0.000431,0.003173
132411000,0.0324,0.013523,0.002678,0.000431,0.003173
132412000,0.0324,0.013523,0.002678,0.000431,0.003291
132413000,0.0324,0.013523,0.002678,0.000431,0.003291
132414000,0.0324,0.013523,0.002678,0.000431,0.003291
132415000,0.0324,0.013523,0.002678,0.000431,0.002821
132416000,0.0324,0.013523,0.002678,0.000431,0.003526
132417000,0.0324,0.013523,0.002678,0.000431,0.002351
132418000,0.0324,0.013523,0.002678,0.000431,0.002703
132419000,0.0324,0.013523,0.002678,0.000431,0.002351
132420000,0.0324,0.013523,0.002678,0.000431,0.002586
132421000,0.0324,0.013523,0.002678,0.000431,0.003643
132422000,0.0324,0.013523,0.002678,0.000431,0.002821
132423000,0.0324,0.013523,0.002678,0.000431,0.001763
132424000,0.0324,0.013523,0.002678,0.000431,0.001528
132425000,0.0324,0.013523,0.002678,0.000431,0.001880
132426000,0.0324,0.013523,0.002678,0.000431,0.001528
132427000,0.0324,0.013523,0.002678,0.000431,0.001763
132428000,0.0324,0.013523,0.002678,0.000431,0.001645
132429000,0.0324,0.013523,0.002678,0.000431,0.001645
132430000,0.0324,0.013523,0.002678,0.000431,0.001880
132431000,0.0324,0.013523,0.002678,0.000431,0.001528
132432000,0.0324,0.013523,0.002678,0.000431,0.001763
132433000,0.0324,0.013523,0.002678,0.000431,0.001528
132434000,0.0324,0.013523,0.002678,0.000431,0.001763
132435000,0.0324,0.013523,0.002678,0.000431,0.001645
132436000,0.0324,0.013523,0.002678,0.000431,0.001645
132437000,0.0324,0.013523,0.002678,0.000431,0.001763
132438000,0.0324,0.013523,0.002678,0.000431,0.001528
132439000,0.0324,0.013523,0.002678,0.000431,0.001880
132440000,0.0324,0.013523,0.002678,0.000431,0.001528
132441000,0.0324,0.013523,0.002678,0.000431,0.001763
132442000,0.0324,0.013523,0.002678,0.000431,0.001528
132443000,0.0324,0.013523,0.002678,0.000431,0.001763
132444000,0.0324,0.013523,0.002678,0.000431,0.001763
132445000,0.0324,0.013523,0.002678,0.000431,0.001528
132446000,0.0324,0.013523,0.002678,0.000431,0.001763
132447000,0.0324,0.013523,0.002678,0.000431,0.001528
132448000,0.0324,0.013523,0.002678,0.000431,0.001763
132449000,0.0324,0.013523,0.002678,0.000431,0.001763
132450000,0.0324,0.013523,0.002678,0.000431,0.001645
132451000,0.0324,0.013523,0.002678,0.000431,0.001763
132452000,0.0324,0.013523,0.002678,0.000431,0.001528
132453000,0.0324,0.013523,0.002678,0.000431,0.001645
132454000,0.0324,0.013523,0.002678,0.000431,0.001763
132455000,0.0324,0.013523,0.002678,0.000431,0.001763
132456000,0.0324,0.013523,0.002678,0.000431,0.001528
132457000,0.0324,0.013523,0.002678,0.000431,0.001763
132458000,0.0324,0.013523,0.002678,0.000431,0.001528
132459000,0.0324,0.013523,0.002678,0.000431,0.001763
132460000,0.0324,0.013523,0.002678,0.000431,0.001763
132461000,0.0324,0.013523,0.002678,0.000431,0.001763
132462000,0.0324,0.013523,0.002678,0.000431,0.001645
132463000,0.0324,0.013523,0.002678,0.000431,0.001645
132464000,0.0324,0.013523,0.002678,0.000431,0.001645
132465000,0.0324,0.013523,0.002678,0.000431,0.001763
132466000,0.0324,0.013523,0.002678,0.000431,0.001645
132467000,0.0324,0.013523,0.002678,0.000431,0.001645
132468000,0.0324,0.013523,0.002678,0.000431,0.001645
132469000,0.0324,0.013523,0.002678,0.000431,0.001763
132470000,0.0324,0.013523,0.002678,0.000431,0.001645
132471000,0.0324,0.013523,0.002678,0.000431,0.001645
132472000,0.0324,0.013523,0.002678,0.000431,0.001645
132473000,0.0324,0.013523,0.002678,0.000431,0.001763
132474000,0.0324,0.013523,0.002678,0.000431,0.001763
132475000,0.0324,0.013523,0.002678,0.000431,0.001528
132476000,0.0324,0.013523,0.002678,0.000431,0.003291
132477000,0.0324,0.013523,0.002678,0.000431,0.000705
132478000,0.0324,0.013523,0.002678,0.000431,0.000940
132479000,0.0324,0.013523,0.002678,0.000431,0.000823
132480000,0.0324,0.013523,0.002678,0.000431,0.000823
132481000,0.0324,0.013523,0.002678,0.000431,0.000940
132482000,0.0324,0.013523,0.002678,0.000431,0.000705
132483000,0.0324,0.013523,0.002678,0.000431,0.000940
132484000,0.0324,0.013523,0.002678,0.000431,0.000823
132485000,0.0324,0.013523,0.002678,0.000431,0.000823
132486000,0.0324,0.013523,0.002678,0.000431,0.000823
132487000,0.0324,0.013523,0.002678,0.000431,0.000823
132488000,0.0324,0.013523,0.002678,0.000431,0.000823
132489000,0.0324,0.013523,0.002678,0.000431,0.000823
132490000,0.0324,0.013523,0.002678,0.000431,0.000940
132491000,0.0324,0.013523,0.002678,0.000431,0.000823
132492000,0.0324,0.013523,0.002678,0.000431,0.000823
132493000,0.0324,0.013523,0.002678,0.000431,0.000823
132494000,0.0324,0.013523,0.002678,0.000431,0.000823
132495000,0.0324,0.013523,0.002678,0.000431,0.000705
132496000,0.0324,0.013523,0.002678,0.000431,0.000940
132497000,0.0324,0.013523,0.002678,0.000431,0.000940
132498000,0.0324,0.013523,0.002678,0.000431,0.000705
132499000,0.0324,0.013523,0.002678,0.000431,0.000940
132500000,0.0324,0.013523,0.002678,0.000431,0.000705
132501000,0.0324,0.013523,0.002678,0.000431,0.000940
132502000,0.0324,0.013523,0.002678,0.000431,0.000823
132503000,0.0324,0.013523,0.002678,0.000431,0.000823
132504000,0.0324,0.013523,0.002678,0.000431,0.000940
132505000,0.0324,0.013523,0.002678,0.000431,0.019040
132506000,0.0324,0.013523,0.002678,0.000431,0.673789
132507000,0.0324,0.013523,0.002678,0.000431,0.564840
132508000,0.0324,0.013523,0.002678,0.000431,0.137743
132509000,0.0324,0.013523,0.002678,0.000431,0.135628
132510000,0.0324,0.013523,0.002678,0.000431,0.610089
132511000,0.0324,0.013523,0.002678,0.000431,0.252568
132512000,0.0324,0.013523,0.002678,0.000431,0.324143
132513000,0.0324,0.013523,0.002678,0.000431,0.180641
132514000,0.0324,0.013523,0.002678,0.000431,0.162777
132515000,0.0324,0.013523,0.002678,0.000431,0.097548
132516000,0.0324,0.013523,0.002678,0.000431,0.474696
132517000,0.0324,0.013523,0.002678,0.000431,0.243989
132518000,0.0324,0.013523,0.002678,0.000431,0.166890
132519000,0.0324,0.013523,0.002678,0.000431,0.139623
132520000,0.0324,0.013523,0.002678,0.000431,0.119056
132521000,0.0324,0.013523,0.002678,0.000431,0.101779
132522000,0.0324,0.013523,0.002678,0.000431,0.075571
132523000,0.0324,0.013523,0.002678,0.000431,0.062995
132524000,0.0324,0.013523,0.002678,0.000431,0.047599
132525000,0.0324,0.013523,0.002678,0.000431,0.045013
132526000,0.0324,0.013523,0.002678,0.000431,0.039842
132527000,0.0324,0.013523,0.002678,0.000431,0.038314
132528000,0.0324,0.013523,0.002678,0.000431,0.029147
132529000,0.0324,0.013523,0.002678,0.000431,0.020097
132530000,0.0324,0.013523,0.002678,0.000431,0.014926
132531000,0.0324,0.013523,0.002678,0.000431,0.010578
132532000,0.0324,0.013523,0.002678,0.000431,0.013633
132533000,0.0324,0.013523,0.002678,0.000431,0.006934
132534000,0.0324,0.013523,0.002678,0.000431,0.010813
132535000,0.0324,0.013523,0.002678,0.000431,0.006817
132536000,0.0324,0.013523,0.002678,0.000431,0.009872
132537000,0.0324,0.013523,0.002678,0.000431,0.007639
132538000,0.0324,0.013523,0.002678,0.000431,0.006229
132539000,0.0324,0.013523,0.002678,0.000431,0.005524
132540000,0.0324,0.013523,0.002678,0.000431,0.005289
132541000,0.0324,0.013523,0.002678,0.000431,0.005289
132542000,0.0324,0.013523,0.002678,0.000431,0.005759
132543000,0.0324,0.013523,0.002678,0.000431,0.006817
132544000,0.0324,0.013523,0.002678,0.000431,0.005524
132545000,0.0324,0.013523,0.002678,0.000431,0.005054
132546000,0.0324,0.013523,0.002678,0.000431,0.003408
132547000,0.0324,0.013523,0.002678,0.000431,0.003291
132548000,0.0324,0.013523,0.002678,0.000431,0.003643
132549000,0.0324,0.013523,0.002678,0.000431,0.002938
132550000,0.0324,0.013523,0.002678,0.000431,0.004584
132551000,0.0324,0.013523,0.002678,0.000431,0.002468
132552000,0.0324,0.013523,0.002678,0.000431,0.002468
132553000,0.0324,0.013523,0.002678,0.000431,0.002468
132554000,0.0324,0.013523,0.002678,0.000431,0.002468
132555000,0.0324,0.013523,0.002678,0.000431,0.002586
132556000,0.0324,0.013523,0.002678,0.000431,0.002468
132557000,0.0324,0.013523,0.002678,0.000431,0.003996
132558000,0.0324,0.013523,0.002678,0.000431,0.001763
132559000,0.0324,0.013523,0.002678,0.000431,0.001763
132560000,0.0324,0.013523,0.002678,0.000431,0.001763
132561000,0.0324,0.013523,0.002678,0.000431,0.001645
132562000,0.0324,0.013523,0.002678,0.000431,0.001528
132563000,0.0324,0.013523,0.002678,0.000431,0.001880
132564000,0.0324,0.013523,0.002678,0.000431,0.001880
132565000,0.0324,0.013523,0.002678,0.000431,0.001528
132566000,0.0324,0.013523,0.002678,0.000431,0.001763
132567000,0.0324,0.013523,0.002678,0.000431,0.001645
132568000,0.0324,0.013523,0.002678,0.000431,0.001880
132569000,0.0324,0.013523,0.002678,0.000431,0.001645
132570000,0.0324,0.013523,0.002678,0.000431,0.001645
132571000,0.0324,0.013523,0.002678,0.000431,0.001880
132572000,0.0324,0.013523,0.002678,0.000431,0.001645
132573000,0.0324,0.013523,0.002678,0.000431,0.001645
132574000,0.0324,0.013523,0.002678,0.000431,0.001645
132575000,0.0324,0.013523,0.002678,0.000431,0.001880
132576000,0.0324,0.013523,0.002678,0.000431,0.001763
132577000,0.0324,0.013523,0.002678,0.000431,0.001645
132578000,0.0324,0.013523,0.002678,0.000431,0.001763
132579000,0.0324,0.013523,0.002678,0.000431,0.001645
132580000,0.0324,0.013523,0.002678,0.000431,0.001645
132581000,0.0324,0.013523,0.002678,0.000431,0.001763
132582000,0.0324,0.013523,0.002678,0.000431,0.001763
132583000,0.0324,0.013523,0.002678,0.000431,0.001763
132584000,0.0324,0.013523,0.002678,0.000431,0.001645
132585000,0.0324,0.013523,0.002678,0.000431,0.001528
132586000,0.0324,0.013523,0.002678,0.000431,0.001880
132587000,0.0324,0.013523,0.002678,0.000431,0.001880
132588000,0.0324,0.013523,0.002678,0.000431,0.001528
132589000,0.0324,0.013523,0.002678,0.000431,0.001763
132590000,0.0324,0.013523,0.002678,0.000431,0.001645
132591000,0.0324,0.013523,0.002678,0.000431,0.002703
132592000,0.0324,0.013523,0.002678,0.000431,0.001998
132593000,0.0324,0.013523,0.002678,0.000431,0.000823
132594000,0.0324,0.013523,0.002678,0.000431,0.000940
132595000,0.0324,0.013523,0.002678,0.000431,0.000705
132596000,0.0324,0.013523,0.002678,0.000431,0.000940
132597000,0.0324,0.013523,0.002678,0.000431,0.000823
132598000,0.0324,0.013523,0.002678,0.000431,0.000823
132599000,0.0324,0.013523,0.002678,0.000431,0.000823
132600000,0.0324,0.013523,0.002678,0.000431,0.000823
132601000,0.0324,0.013523,0.002678,0.000431,0.000823
132602000,0.0324,0.013523,0.002678,0.000431,0.000823
132603000,0.0324,0.013523,0.002678,0.000431,0.000823
132604000,0.0324,0.013523,0.002678,0.000431,0.000823
132605000,0.0324,0.013523,0.002678,0.000431,0.000940
132606000,0.0324,0.013523,0.002678,0.000431,0.000705
132607000,0.0324,0.013523,0.002678,0.000431,0.000940
132608000,0.0324,0.013523,0.002678,0.000431,0.000705
132609000,0.0324,0.013523,0.002678,0.000431,0.000940
132610000,0.0324,0.013523,0.002678,0.000431,0.000940
132611000,0.0324,0.013523,0.002678,0.000431,0.000705
132612000,0.0324,0.013523,0.002678,0.000431,0.000940
132613000,0.0324,0.013523,0.002678,0.000431,0.000705
132614000,0.0324,0.013523,0.002678,0.000431,0.000940
132615000,0.0324,0.013523,0.002678,0.000431,0.000823
132616000,0.0324,0.013523,0.002678,0.000431,0.000823
132617000,0.0324,0.013523,0.002678,0.000431,0.000823
132618000,0.0324,0.013523,0.002678,0.000431,0.000823
132619000,0.0324,0.013523,0.002678,0.000431,0.000940
132620000,0.0324,0.013523,0.002678,0.000431,0.000705
132621000,0.0324,0.013523,0.002678,0.000431,0.000940
132622000,0.0324,0.013523,0.002678,0.000431,0.000823
132623000,0.0324,0.013523,0.002678,0.000431,0.000823
132624000,0.0324,0.013523,0.002678,0.000431,0.000823
132625000,0.0324,0.013523,0.002678,0.000431,0.000823
132626000,0.0324,0.013523,0.002678,0.000431,0.000823
132627000,0.0324,0.013523,0.002678,0.000431,0.000823
132628000,0.0324,0.013523,0.002678,0.000431,0.000823
132629000,0.0324,0.013523,0.002678,0.000431,0.000823
132630000,0.0324,0.013523,0.002678,0.000431,0.000940
132631000,0.0324,0.013523,0.002678,0.000431,0.000823
132632000,0.0324,0.013523,0.002678,0.000431,0.000823
132633000,0.0324,0.013523,0.002678,0.000431,0.000705
132634000,0.0324,0.013523,0.002678,0.000431,0.000940
132635000,0.0324,0.013523,0.002678,0.000431,0.000823
132636000,0.0324,0.013523,0.002678,0.000431,0.000823
132637000,0.0324,0.013523,0.002678,0.000431,0.000940
132638000,0.0324,0.013523,0.002678,0.000431,0.000705
132639000,0.0324,0.013523,0.002678,0.000431,0.000940
132640000,0.0324,0.013523,0.002678,0.000431,0.000823
132641000,0.0324,0.013523,0.002678,0.000431,0.000823
132642000,0.0324,0.013523,0.002678,0.000431,0.000823
132643000,0.0324,0.013523,0.002678,0.000431,0.000823
132644000,0.0324,0.013523,0.002678,0.000431,0.000705
132645000,0.0324,0.013523,0.002678,0.000431,0.000940
132646000,0.0324,0.013523,0.002678,0.000431,0.000940
132647000,0.0324,0.013523,0.002678,0.000431,0.000705
132648000,0.0324,0.013523,0.002678,0.000431,0.000940
132649000,0.0324,0.013523,0.002678,0.000431,0.000705
132650000,0.0324,0.013523,0.002678,0.000431,0.000940
132651000,0.0324,0.013523,0.002678,0.000431,0.000823
132652000,0.0324,0.013523,0.002678,0.000431,0.000823
132653000,0.0324,0.013523,0.002678,0.000431,0.000940
132654000,0.0324,0.013523,0.002678,0.000431,0.000705
132655000,0.0324,0.013523,0.002678,0.000431,0.000940
132656000,0.0324,0.013523,0.002678,0.000431,0.000823
132657000,0.0324,0.013523,0.002678,0.000431,0.000823
132658000,0.0324,0.013523,0.002678,0.000431,0.001528
132659000,0.0324,0.013523,0.002678,0.000431,0.460358
132660000,0.0324,0.013523,0.002678,0.000431,0.745364
132661000,0.0324,0.013523,0.002678,0.000431,0.150671
132662000,0.0324,0.013523,0.002678,0.000431,0.133982
132663000,0.0324,0.013523,0.002678,0.000431,0.490210
132664000,0.0324,0.013523,0.002678,0.000431,0.376325
132665000,0.0324,0.013523,0.002678,0.000431,0.232001
132666000,0.0324,0.013523,0.002678,0.000431,0.289002
132667000,0.0324,0.013523,0.002678,0.000431,0.144442
132668000,0.0324,0.013523,0.002678,0.000431,0.143384
132669000,0.0324,0.013523,0.002678,0.000431,0.237995
132670000,0.0324,0.013523,0.002678,0.000431,0.480455
132671000,0.0324,0.013523,0.002678,0.000431,0.147733
132672000,0.0324,0.013523,0.002678,0.000431,0.135275
132673000,0.0324,0.013523,0.002678,0.000431,0.110241
132674000,0.0324,0.013523,0.002678,0.000431,0.078861
132675000,0.0324,0.013523,0.002678,0.000431,0.073690
132676000,0.0324,0.013523,0.002678,0.000431,0.035141
132677000,0.0324,0.013523,0.002678,0.000431,0.038667
132678000,0.0324,0.013523,0.002678,0.000431,0.027502
132679000,0.0324,0.013523,0.002678,0.000431,0.014926
132680000,0.0324,0.013523,0.002678,0.000431,0.014926
132681000,0.0324,0.013523,0.002678,0.000431,0.014809
132682000,0.0324,0.013523,0.002678,0.000431,0.016924
132683000,0.0324,0.013523,0.002678,0.000431,0.016219
132684000,0.0324,0.013523,0.002678,0.000431,0.013163
132685000,0.0324,0.013523,0.002678,0.000431,0.011988
132686000,0.0324,0.013523,0.002678,0.000431,0.009755
132687000,0.0324,0.013523,0.002678,0.000431,0.010813
132688000,0.0324,0.013523,0.002678,0.000431,0.007992
132689000,0.0324,0.013523,0.002678,0.000431,0.007874
132690000,0.0324,0.013523,0.002678,0.000431,0.007757
132691000,0.0324,0.013523,0.002678,0.000431,0.009050
132692000,0.0324,0.013523,0.002678,0.000431,0.007287
132693000,0.0324,0.013523,0.002678,0.000431,0.006582
132694000,0.0324,0.013523,0.002678,0.000431,0.006347
132695000,0.0324,0.013523,0.002678,0.000431,0.006464
132696000,0.0324,0.013523,0.002678,0.000431,0.006111
132697000,0.0324,0.013523,0.002678,0.000431,0.006347
132698000,0.0324,0.013523,0.002678,0.000431,0.007052
132699000,0.0324,0.013523,0.002678,0.000431,0.006464
132700000,0.0324,0.013523,0.002678,0.000431,0.004584
132701000,0.0324,0.013523,0.002678,0.000431,0.007052
132702000,0.0324,0.013523,0.002678,0.000431,0.003643
132703000,0.0324,0.013523,0.002678,0.000431,0.004231
132704000,0.0324,0.013523,0.002678,0.000431,0.003878
132705000,0.0324,0.013523,0.002678,0.000431,0.004113
132706000,0.0324,0.013523,0.002678,0.000431,0.003996
132707000,0.0324,0.013523,0.002678,0.000431,0.004113
132708000,0.0324,0.013523,0.002678,0.000431,0.004466
132709000,0.0324,0.013523,0.002678,0.000431,0.004113
132710000,0.0324,0.013523,0.002678,0.000431,0.003878
132711000,0.0324,0.013523,0.002678,0.000431,0.004584
132712000,0.0324,0.013523,0.002678,0.000431,0.003291
132713000,0.0324,0.013523,0.002678,0.000431,0.003408
132714000,0.0324,0.013523,0.002678,0.000431,0.003526
132715000,0.0324,0.013523,0.002678,0.000431,0.003291
132716000,0.0324,0.013523,0.002678,0.000431,0.003526
132717000,0.0324,0.013523,0.002678,0.000431,0.003291
132718000,0.0324,0.013523,0.002678,0.000431,0.003291
132719000,0.0324,0.013523,0.002678,0.000431,0.003408
132720000,0.0324,0.013523,0.002678,0.000431,0.003643
132721000,0.0324,0.013523,0.002678,0.000431,0.003291
132722000,0.0324,0.013523,0.002678,0.000431,0.005524
132723000,0.0324,0.013523,0.002678,0.000431,0.002821
132724000,0.0324,0.013523,0.002678,0.000431,0.002586
132725000,0.0324,0.013523,0.002678,0.000431,0.002586
132726000,0.0324,0.013523,0.002678,0.000431,0.002468
132727000,0.0324,0.013523,0.002678,0.000431,0.002586
132728000,0.0324,0.013523,0.002678,0.000431,0.002468
132729000,0.0324,0.013523,0.002678,0.000431,0.002586
132730000,0.0324,0.013523,0.002678,0.000431,0.002586
132731000,0.0324,0.013523,0.002678,0.000431,0.002703
132732000,0.0324,0.013523,0.002678,0.000431,0.002351
132733000,0.0324,0.013523,0.002678,0.000431,0.002586
132734000,0.0324,0.013523,0.002678,0.000431,0.004584
132735000,0.0324,0.013523,0.002678,0.000431,0.001645
132736000,0.0324,0.013523,0.002678,0.000431,0.001880
132737000,0.0324,0.013523,0.002678,0.000431,0.003526
132738000,0.0324,0.013523,0.002678,0.000431,0.000823
132739000,0.0324,0.013523,0.002678,0.000431,0.000823
132740000,0.0324,0.013523,0.002678,0.000431,0.000823
132741000,0.0324,0.013523,0.002678,0.000431,0.000823
132742000,0.0324,0.013523,0.002678,0.000431,0.000823
132743000,0.0324,0.013523,0.002678,0.000431,0.000823
132744000,0.0324,0.013523,0.002678,0.000431,0.000823
132745000,0.0324,0.013523,0.002678,0.000431,0.000940
132746000,0.0324,0.013523,0.002678,0.000431,0.000823
132747000,0.0324,0.013523,0.002678,0.000431,0.000823
132748000,0.0324,0.013523,0.002678,0.000431,0.000705
132749000,0.0324,0.013523,0.002678,0.000431,0.000940
132750000,0.0324,0.013523,0.002678,0.000431,0.000940
132751000,0.0324,0.013523,0.002678,0.000431,0.000705
132752000,0.0324,0.013523,0.002678,0.000431,0.000940
132753000,0.0324,0.013523,0.002678,0.000431,0.000705
132754000,0.0324,0.013523,0.002678,0.000431,0.000940
132755000,0.0324,0.013523,0.002678,0.000431,0.000823
132756000,0.0324,0.013523,0.002678,0.000431,0.000823
132757000,0.0324,0.013523,0.002678,0.000431,0.000940
132758000,0.0324,0.013523,0.002678,0.000431,0.000705
132759000,0.0324,0.013523,0.002678,0.000431,0.000940
132760000,0.0324,0.013523,0.002678,0.000431,0.000823
132761000,0.0324,0.013523,0.002678,0.000431,0.000823
132762000,0.0324,0.013523,0.002678,0.000431,0.000823
132763000,0.0324,0.013523,0.002678,0.000431,0.000823
132764000,0.0324,0.013523,0.002678,0.000431,0.000823
132765000,0.0324,0.013523,0.002678,0.000431,0.000823
132766000,0.0324,0.013523,0.002678,0.000431,0.000940
132767000,0.0324,0.013523,0.002678,0.000431,0.000705
132768000,0.0324,0.013523,0.002678,0.000431,0.000940
132769000,0.0324,0.013523,0.002678,0.000431,0.000823
132770000,0.0324,0.013523,0.002678,0.000431,0.000823
132771000,0.0324,0.013523,0.002678,0.000431,0.000705
132772000,0.0324,0.013523,0.002678,0.000431,0.000940
132773000,0.0324,0.013523,0.002678,0.000431,0.000940
132774000,0.0324,0.013523,0.002678,0.000431,0.000705
132775000,0.0324,0.013523,0.002678,0.000431,0.000940
132776000,0.0324,0.013523,0.002678,0.000431,0.000705
132777000,0.0324,0.013523,0.002678,0.000431,0.000940
132778000,0.0324,0.013523,0.002678,0.000431,0.000823
132779000,0.0324,0.013523,0.002678,0.000431,0.000823
132780000,0.0324,0.013523,0.002678,0.000431,0.000940
132781000,0.0324,0.013523,0.002678,0.000431,0.000705
132782000,0.0324,0.013523,0.002678,0.000431,0.000940
132783000,0.0324,0.013523,0.002678,0.000431,0.000823
132784000,0.0324,0.013523,0.002678,0.000431,0.000823
132785000,0.0324,0.013523,0.002678,0.000431,0.000823
132786000,0.0324,0.013523,0.002678,0.000431,0.000823
132787000,0.0324,0.013523,0.002678,0.000431,0.000940
132788000,0.0324,0.013523,0.002678,0.000431,0.000705
132789000,0.0324,0.013523,0.002678,0.000431,0.000940
132790000,0.0324,0.013523,0.002678,0.000431,0.000823
132791000,0.0324,0.013523,0.002678,0.000431,0.000705
132792000,0.0324,0.013523,0.002678,0.000431,0.000940
132793000,0.0324,0.013523,0.002678,0.000431,0.000823
132794000,0.0324,0.013523,0.002678,0.000431,0.000823
132795000,0.0324,0.013523,0.002678,0.000431,0.000823
132796000,0.0324,0.013523,0.002678,0.000431,0.000823
132797000,0.0324,0.013523,0.002678,0.000431,0.000823
132798000,0.0324,0.013523,0.002678,0.000431,0.000940
132799000,0.0324,0.013523,0.002678,0.000431,0.000823
132800000,0.0324,0.013523,0.002678,0.000431,0.000823
132801000,0.0324,0.013523,0.002678,0.000431,0.000705
132802000,0.0324,0.013523,0.002678,0.000431,0.000940
132803000,0.0324,0.013523,0.002678,0.000431,0.000940
132804000,0.0324,0.013523,0.002678,0.000431,0.000705
132805000,0.0324,0.013523,0.002678,0.000431,0.000940
132806000,0.0324,0.013523,0.002678,0.000431,0.000705
132807000,0.0324,0.013523,0.002678,0.000431,0.000940
132808000,0.0324,0.013523,0.002678,0.000431,0.000823
132809000,0.0324,0.013523,0.002678,0.000431,0.000823
132810000,0.0324,0.013523,0.002678,0.000431,0.000940
132811000,0.0324,0.013523,0.002678,0.000431,0.000705
132812000,0.0324,0.013523,0.002678,0.000431,0.000940
132813000,0.0324,0.013523,0.002678,0.000431,0.000705
132814000,0.0324,0.013523,0.002678,0.000431,0.000940
132815000,0.0324,0.013523,0.002678,0.000431,0.000823
132816000,0.0324,0.013523,0.002678,0.000431,0.000823
132817000,0.0324,0.013523,0.002678,0.000431,0.000823
132818000,0.0324,0.013523,0.002678,0.000431,0.000823
132819000,0.0324,0.013523,0.002678,0.000431,0.000940
132820000,0.0324,0.013523,0.002678,0.000431,0.000705
132821000,0.0324,0.013523,0.002678,0.000431,0.000940
132822000,0.0324,0.013523,0.002678,0.000431,0.000823
132823000,0.0324,0.013523,0.002678,0.000431,0.000823
132824000,0.0324,0.013523,0.002678,0.000431,0.000705
132825000,0.0324,0.013523,0.002678,0.000431,0.000940
132826000,0.0324,0.013523,0.002678,0.000431,0.000940
132827000,0.0324,0.013523,0.002678,0.000431,0.000705
132828000,0.0324,0.013523,0.002678,0.000431,0.001998
132829000,0.0324,0.013523,0.002678,0.000431,0.429801
132830000,0.0324,0.013523,0.002678,0.000431,0.748890
132831000,0.0324,0.013523,0.002678,0.000431,0.215077
132832000,0.0324,0.013523,0.002678,0.000431,0.134922
132833000,0.0324,0.013523,0.002678,0.000431,0.494324
132834000,0.0324,0.013523,0.002678,0.000431,0.262675
132835000,0.0324,0.013523,0.002678,0.000431,0.295818
132836000,0.0324,0.013523,0.002678,0.000431,0.279129
132837000,0.0324,0.013523,0.002678,0.000431,0.148556
132838000,0.0324,0.013523,0.002678,0.000431,0.110476
132839000,0.0324,0.013523,0.002678,0.000431,0.405707
132840000,0.0324,0.013523,0.002678,0.000431,0.359636
132841000,0.0324,0.013523,0.002678,0.000431,0.147968
132842000,0.0324,0.013523,0.002678,0.000431,0.135392
132843000,0.0324,0.013523,0.002678,0.000431,0.106951
132844000,0.0324,0.013523,0.002678,0.000431,0.091084
132845000,0.0324,0.013523,0.002678,0.000431,0.079332
132846000,0.0324,0.013523,0.002678,0.000431,0.069694
132847000,0.0324,0.013523,0.002678,0.000431,0.071692
132848000,0.0324,0.013523,0.002678,0.000431,0.063583
132849000,0.0324,0.013523,0.002678,0.000431,0.058764
132850000,0.0324,0.013523,0.002678,0.000431,0.055238
132851000,0.0324,0.013523,0.002678,0.000431,0.039489
132852000,0.0324,0.013523,0.002678,0.000431,0.040430
132853000,0.0324,0.013523,0.002678,0.000431,0.042310
132854000,0.0324,0.013523,0.002678,0.000431,0.032555
132855000,0.0324,0.013523,0.002678,0.000431,0.030675
132856000,0.0324,0.013523,0.002678,0.000431,0.028794
132857000,0.0324,0.013523,0.002678,0.000431,0.032790
132858000,0.0324,0.013523,0.002678,0.000431,0.028559
132859000,0.0324,0.013523,0.002678,0.000431,0.030087
132860000,0.0324,0.013523,0.002678,0.000431,0.029500
132861000,0.0324,0.013523,0.002678,0.000431,0.036316
132862000,0.0324,0.013523,0.002678,0.000431,0.025739
132863000,0.0324,0.013523,0.002678,0.000431,0.026444
132864000,0.0324,0.013523,0.002678,0.000431,0.024798
132865000,0.0324,0.013523,0.002678,0.000431,0.025269
132866000,0.0324,0.013523,0.002678,0.000431,0.025269
132867000,0.0324,0.013523,0.002678,0.000431,0.022213
132868000,0.0324,0.013523,0.002678,0.000431,0.022448
132869000,0.0324,0.013523,0.002678,0.000431,0.020567
132870000,0.0324,0.013523,0.002678,0.000431,0.017394
132871000,0.0324,0.013523,0.002678,0.000431,0.019157
132872000,0.0324,0.013523,0.002678,0.000431,0.020685
132873000,0.0324,0.013523,0.002678,0.000431,0.018922
132874000,0.0324,0.013523,0.002678,0.000431,0.012223
132875000,0.0324,0.013523,0.002678,0.000431,0.011753
132876000,0.0324,0.013523,0.002678,0.000431,0.005876
132877000,0.0324,0.013523,0.002678,0.000431,0.005524
132878000,0.0324,0.013523,0.002678,0.000431,0.004936
132879000,0.0324,0.013523,0.002678,0.000431,0.007052
132880000,0.0324,0.013523,0.002678,0.000431,0.004466
132881000,0.0324,0.013523,0.002678,0.000431,0.007404
132882000,0.0324,0.013523,0.002678,0.000431,0.002233
132883000,0.0324,0.013523,0.002678,0.000431,0.001528
132884000,0.0324,0.013523,0.002678,0.000431,0.014103
132885000,0.0324,0.013523,0.002678,0.000431,0.738195
132886000,0.0324,0.013523,0.002678,0.000431,0.542510
132887000,0.0324,0.013523,0.002678,0.000431,0.136450
132888000,0.0324,0.013523,0.002678,0.000431,0.175117
132889000,0.0324,0.013523,0.002678,0.000431,0.564370
132890000,0.0324,0.013523,0.002678,0.000431,0.288649
132891000,0.0324,0.013523,0.002678,0.000431,0.300049
132892000,0.0324,0.013523,0.002678,0.000431,0.155607
132893000,0.0324,0.013523,0.002678,0.000431,0.105188
132894000,0.0324,0.013523,0.002678,0.000431,0.387843
132895000,0.0324,0.013523,0.002678,0.000431,0.327316
132896000,0.0324,0.013523,0.002678,0.000431,0.149026
132897000,0.0324,0.013523,0.002678,0.000431,0.138683
132898000,0.0324,0.013523,0.002678,0.000431,0.113062
132899000,0.0324,0.013523,0.002678,0.000431,0.115530
132900000,0.0324,0.013523,0.002678,0.000431,0.081565
132901000,0.0324,0.013523,0.002678,0.000431,0.079919
132902000,0.0324,0.013523,0.002678,0.000431,0.062525
132903000,0.0324,0.013523,0.002678,0.000431,0.061937
132904000,0.0324,0.013523,0.002678,0.000431,0.056296
132905000,0.0324,0.013523,0.002678,0.000431,0.048892
132906000,0.0324,0.013523,0.002678,0.000431,0.043368
132907000,0.0324,0.013523,0.002678,0.000431,0.045013
132908000,0.0324,0.013523,0.002678,0.000431,0.047129
132909000,0.0324,0.013523,0.002678,0.000431,0.035258
132910000,0.0324,0.013523,0.002678,0.000431,0.033731
132911000,0.0324,0.013523,0.002678,0.000431,0.037139
132912000,0.0324,0.013523,0.002678,0.000431,0.026326
132913000,0.0324,0.013523,0.002678,0.000431,0.024798
132914000,0.0324,0.013523,0.002678,0.000431,0.021155
132915000,0.0324,0.013523,0.002678,0.000431,0.011165
132916000,0.0324,0.013523,0.002678,0.000431,0.009755
132917000,0.0324,0.013523,0.002678,0.000431,0.011870
132918000,0.0324,0.013523,0.002678,0.000431,0.013398
132919000,0.0324,0.013523,0.002678,0.000431,0.009402
132920000,0.0324,0.013523,0.002678,0.000431,0.006229
132921000,0.0324,0.013523,0.002678,0.000431,0.007522
132922000,0.0324,0.013523,0.002678,0.000431,0.006934
132923000,0.0324,0.013523,0.002678,0.000431,0.006464
132924000,0.0324,0.013523,0.002678,0.000431,0.007287
132925000,0.0324,0.013523,0.002678,0.000431,0.007404
132926000,0.0324,0.013523,0.002678,0.000431,0.006817
132927000,0.0324,0.013523,0.002678,0.000431,0.007052
132928000,0.0324,0.013523,0.002678,0.000431,0.007404
132929000,0.0324,0.013523,0.002678,0.000431,0.007404
132930000,0.0324,0.013523,0.002678,0.000431,0.007169
132931000,0.0324,0.013523,0.002678,0.000431,0.007992
132932000,0.0324,0.013523,0.002678,0.000431,0.008697
132933000,0.0324,0.013523,0.002678,0.000431,0.004936
132934000,0.0324,0.013523,0.002678,0.000431,0.004584
132935000,0.0324,0.013523,0.002678,0.000431,0.006817
132936000,0.0324,0.013523,0.002678,0.000431,0.003761
132937000,0.0324,0.013523,0.002678,0.000431,0.003996
132938000,0.0324,0.013523,0.002678,0.000431,0.003643
132939000,0.0324,0.013523,0.002678,0.000431,0.004584
132940000,0.0324,0.013523,0.002678,0.000431,0.004466
132941000,0.0324,0.013523,0.002678,0.000431,0.003878
132942000,0.0324,0.013523,0.002678,0.000431,0.004701
132943000,0.0324,0.013523,0.002678,0.000431,0.004113
132944000,0.0324,0.013523,0.002678,0.000431,0.004231
132945000,0.0324,0.013523,0.002678,0.000431,0.003878
132946000,0.0324,0.013523,0.002678,0.000431,0.003761
132947000,0.0324,0.013523,0.002678,0.000431,0.003291
132948000,0.0324,0.013523,0.002678,0.000431,0.004113
132949000,0.0324,0.013523,0.002678,0.000431,0.003878
132950000,0.0324,0.013523,0.002678,0.000431,0.003526
132951000,0.0324,0.013523,0.002678,0.000431,0.003526
132952000,0.0324,0.013523,0.002678,0.000431,0.003878
132953000,0.0324,0.013523,0.002678,0.000431,0.003996
132954000,0.0324,0.013523,0.002678,0.000431,0.002938
132955000,0.0324,0.013523,0.002678,0.000431,0.003996
132956000,0.0324,0.013523,0.002678,0.000431,0.003291
132957000,0.0324,0.013523,0.002678,0.000431,0.003878
132958000,0.0324,0.013523,0.002678,0.000431,0.004113
132959000,0.0324,0.013523,0.002678,0.000431,0.003173
132960000,0.0324,0.013523,0.002678,0.000431,0.003761
132961000,0.0324,0.013523,0.002678,0.000431,0.002703
132962000,0.0324,0.013523,0.002678,0.000431,0.003408
132963000,0.0324,0.013523,0.002678,0.000431,0.003761
132964000,0.0324,0.013523,0.002678,0.000431,0.002351
132965000,0.0324,0.013523,0.002678,0.000431,0.003761
132966000,0.0324,0.013523,0.002678,0.000431,0.002586
132967000,0.0324,0.013523,0.002678,0.000431,0.003526
132968000,0.0324,0.013523,0.002678,0.000431,0.003291
132969000,0.0324,0.013523,0.002678,0.000431,0.002821
132970000,0.0324,0.013523,0.002678,0.000431,0.003761
132971000,0.0324,0.013523,0.002678,0.000431,0.002586
132972000,0.0324,0.013523,0.002678,0.000431,0.003526
132973000,0.0324,0.013523,0.002678,0.000431,0.002703
132974000,0.0324,0.013523,0.002678,0.000431,0.002351
132975000,0.0324,0.013523,0.002678,0.000431,0.002468
132976000,0.0324,0.013523,0.002678,0.000431,0.002351
132977000,0.0324,0.013523,0.002678,0.000431,0.002703
132978000,0.0324,0.013523,0.002678,0.000431,0.002233
132979000,0.0324,0.013523,0.002678,0.000431,0.002468
132980000,0.0324,0.013523,0.002678,0.000431,0.002586
132981000,0.0324,0.013523,0.002678,0.000431,0.005054
132982000,0.0324,0.013523,0.002678,0.000431,0.001645
132983000,0.0324,0.013523,0.002678,0.000431,0.001645
132984000,0.0324,0.013523,0.002678,0.000431,0.001410
132985000,0.0324,0.013523,0.002678,0.000431,0.001645
132986000,0.0324,0.013523,0.002678,0.000431,0.001645
132987000,0.0324,0.013523,0.002678,0.000431,0.001410
132988000,0.0324,0.013523,0.002678,0.000431,0.001880
132989000,0.0324,0.013523,0.002678,0.000431,0.001410
132990000,0.0324,0.013523,0.002678,0.000431,0.001528
132991000,0.0324,0.013523,0.002678,0.000431,0.001293
132992000,0.0324,0.013523,0.002678,0.000431,0.001645
132993000,0.0324,0.013523,0.002678,0.000431,0.001410
132994000,0.0324,0.013523,0.002678,0.000431,0.001645
132995000,0.0324,0.013523,0.002678,0.000431,0.001880
132996000,0.0324,0.013523,0.002678,0.000431,0.001175
132997000,0.0324,0.013523,0.002678,0.000431,0.001880
132998000,0.0324,0.013523,0.002678,0.000431,0.001410
132999000,0.0324,0.013523,0.002678,0.000431,0.001645
