Cycle,Area(mm^2),PeakDynamic(W),SubthresholdLeakage(W),GateLeakage(W),RunTimeDynamic(W)
143000000,0.0324,0.013523,0.002678,0.000431,0.007404
143001000,0.0324,0.013523,0.002678,0.000431,0.007404
143002000,0.0324,0.013523,0.002678,0.000431,0.007404
143003000,0.0324,0.013523,0.002678,0.000431,0.009872
143004000,0.0324,0.013523,0.002678,0.000431,0.006111
143005000,0.0324,0.013523,0.002678,0.000431,0.005641
143006000,0.0324,0.013523,0.002678,0.000431,0.005524
143007000,0.0324,0.013523,0.002678,0.000431,0.005994
143008000,0.0324,0.013523,0.002678,0.000431,0.005759
143009000,0.0324,0.013523,0.002678,0.000431,0.005994
143010000,0.0324,0.013523,0.002678,0.000431,0.005641
143011000,0.0324,0.013523,0.002678,0.000431,0.005994
143012000,0.0324,0.013523,0.002678,0.000431,0.005994
143013000,0.0324,0.013523,0.002678,0.000431,0.006111
143014000,0.0324,0.013523,0.002678,0.000431,0.005759
143015000,0.0324,0.013523,0.002678,0.000431,0.005994
143016000,0.0324,0.013523,0.002678,0.000431,0.006229
143017000,0.0324,0.013523,0.002678,0.000431,0.005524
143018000,0.0324,0.013523,0.002678,0.000431,0.006229
143019000,0.0324,0.013523,0.002678,0.000431,0.006111
143020000,0.0324,0.013523,0.002678,0.000431,0.005289
143021000,0.0324,0.013523,0.002678,0.000431,0.005054
143022000,0.0324,0.013523,0.002678,0.000431,0.005054
143023000,0.0324,0.013523,0.002678,0.000431,0.005171
143024000,0.0324,0.013523,0.002678,0.000431,0.006699
143025000,0.0324,0.013523,0.002678,0.000431,0.004584
143026000,0.0324,0.013523,0.002678,0.000431,0.005289
143027000,0.0324,0.013523,0.002678,0.000431,0.003526
143028000,0.0324,0.013523,0.002678,0.000431,0.003643
143029000,0.0324,0.013523,0.002678,0.000431,0.004819
143030000,0.0324,0.013523,0.002678,0.000431,0.002586
143031000,0.0324,0.013523,0.002678,0.000431,0.002586
143032000,0.0324,0.013523,0.002678,0.000431,0.006111
143033000,0.0324,0.013523,0.002678,0.000431,0.001763
143034000,0.0324,0.013523,0.002678,0.000431,0.001528
143035000,0.0324,0.013523,0.002678,0.000431,0.001880
143036000,0.0324,0.013523,0.002678,0.000431,0.001763
143037000,0.0324,0.013523,0.002678,0.000431,0.001645
143038000,0.0324,0.013523,0.002678,0.000431,0.001645
143039000,0.0324,0.013523,0.002678,0.000431,0.001763
143040000,0.0324,0.013523,0.002678,0.000431,0.001763
143041000,0.0324,0.013523,0.002678,0.000431,0.001645
143042000,0.0324,0.013523,0.002678,0.000431,0.001645
143043000,0.0324,0.013523,0.002678,0.000431,0.003291
143044000,0.0324,0.013523,0.002678,0.000431,0.000940
143045000,0.0324,0.013523,0.002678,0.000431,0.000940
143046000,0.0324,0.013523,0.002678,0.000431,0.000705
143047000,0.0324,0.013523,0.002678,0.000431,0.000940
143048000,0.0324,0.013523,0.002678,0.000431,0.000940
143049000,0.0324,0.013523,0.002678,0.000431,0.000940
143050000,0.0324,0.013523,0.002678,0.000431,0.000705
143051000,0.0324,0.013523,0.002678,0.000431,0.000940
143052000,0.0324,0.013523,0.002678,0.000431,0.000940
143053000,0.0324,0.013523,0.002678,0.000431,0.000823
143054000,0.0324,0.013523,0.002678,0.000431,0.000940
143055000,0.0324,0.013523,0.002678,0.000431,0.000823
143056000,0.0324,0.013523,0.002678,0.000431,0.000940
143057000,0.0324,0.013523,0.002678,0.000431,0.000823
143058000,0.0324,0.013523,0.002678,0.000431,0.000823
143059000,0.0324,0.013523,0.002678,0.000431,0.000940
143060000,0.0324,0.013523,0.002678,0.000431,0.000823
143061000,0.0324,0.013523,0.002678,0.000431,0.000940
143062000,0.0324,0.013523,0.002678,0.000431,0.000823
143063000,0.0324,0.013523,0.002678,0.000431,0.000940
143064000,0.0324,0.013523,0.002678,0.000431,0.000940
143065000,0.0324,0.013523,0.002678,0.000431,0.000705
143066000,0.0324,0.013523,0.002678,0.000431,0.000940
143067000,0.0324,0.013523,0.002678,0.000431,0.000940
143068000,0.0324,0.013523,0.002678,0.000431,0.000940
143069000,0.0324,0.013523,0.002678,0.000431,0.000705
143070000,0.0324,0.013523,0.002678,0.000431,0.000940
143071000,0.0324,0.013523,0.002678,0.000431,0.000940
143072000,0.0324,0.013523,0.002678,0.000431,0.000823
143073000,0.0324,0.013523,0.002678,0.000431,0.000823
143074000,0.0324,0.013523,0.002678,0.000431,0.000940
143075000,0.0324,0.013523,0.002678,0.000431,0.000823
143076000,0.0324,0.013523,0.002678,0.000431,0.026796
143077000,0.0324,0.013523,0.002678,0.000431,0.772983
143078000,0.0324,0.013523,0.002678,0.000431,0.580707
143079000,0.0324,0.013523,0.002678,0.000431,0.134217
143080000,0.0324,0.013523,0.002678,0.000431,0.136333
143081000,0.0324,0.013523,0.002678,0.000431,0.536751
143082000,0.0324,0.013523,0.002678,0.000431,0.238112
143083000,0.0324,0.013523,0.002678,0.000431,0.308982
143084000,0.0324,0.013523,0.002678,0.000431,0.205792
143085000,0.0324,0.013523,0.002678,0.000431,0.153844
143086000,0.0324,0.013523,0.002678,0.000431,0.118703
143087000,0.0324,0.013523,0.002678,0.000431,0.367393
143088000,0.0324,0.013523,0.002678,0.000431,0.366688
143089000,0.0324,0.013523,0.002678,0.000431,0.166890
143090000,0.0324,0.013523,0.002678,0.000431,0.152434
143091000,0.0324,0.013523,0.002678,0.000431,0.127518
143092000,0.0324,0.013523,0.002678,0.000431,0.119879
143093000,0.0324,0.013523,0.002678,0.000431,0.097666
143094000,0.0324,0.013523,0.002678,0.000431,0.082152
143095000,0.0324,0.013523,0.002678,0.000431,0.075101
143096000,0.0324,0.013523,0.002678,0.000431,0.071927
143097000,0.0324,0.013523,0.002678,0.000431,0.051360
143098000,0.0324,0.013523,0.002678,0.000431,0.054533
143099000,0.0324,0.013523,0.002678,0.000431,0.043250
143100000,0.0324,0.013523,0.002678,0.000431,0.041017
143101000,0.0324,0.013523,0.002678,0.000431,0.027384
143102000,0.0324,0.013523,0.002678,0.000431,0.030557
143103000,0.0324,0.013523,0.002678,0.000431,0.025974
143104000,0.0324,0.013523,0.002678,0.000431,0.031733
143105000,0.0324,0.013523,0.002678,0.000431,0.017512
143106000,0.0324,0.013523,0.002678,0.000431,0.018569
143107000,0.0324,0.013523,0.002678,0.000431,0.018805
143108000,0.0324,0.013523,0.002678,0.000431,0.016336
143109000,0.0324,0.013523,0.002678,0.000431,0.017042
143110000,0.0324,0.013523,0.002678,0.000431,0.017394
143111000,0.0324,0.013523,0.002678,0.000431,0.016924
143112000,0.0324,0.013523,0.002678,0.000431,0.018569
143113000,0.0324,0.013523,0.002678,0.000431,0.015396
143114000,0.0324,0.013523,0.002678,0.000431,0.016336
143115000,0.0324,0.013523,0.002678,0.000431,0.017277
143116000,0.0324,0.013523,0.002678,0.000431,0.013281
143117000,0.0324,0.013523,0.002678,0.000431,0.013633
143118000,0.0324,0.013523,0.002678,0.000431,0.012458
143119000,0.0324,0.013523,0.002678,0.000431,0.012693
143120000,0.0324,0.013523,0.002678,0.000431,0.012928
143121000,0.0324,0.013523,0.002678,0.000431,0.016689
143122000,0.0324,0.013523,0.002678,0.000431,0.011165
143123000,0.0324,0.013523,0.002678,0.000431,0.010342
143124000,0.0324,0.013523,0.002678,0.000431,0.011518
143125000,0.0324,0.013523,0.002678,0.000431,0.010930
143126000,0.0324,0.013523,0.002678,0.000431,0.012223
143127000,0.0324,0.013523,0.002678,0.000431,0.010225
143128000,0.0324,0.013523,0.002678,0.000431,0.010225
143129000,0.0324,0.013523,0.002678,0.000431,0.013046
143130000,0.0324,0.013523,0.002678,0.000431,0.012105
143131000,0.0324,0.013523,0.002678,0.000431,0.008697
143132000,0.0324,0.013523,0.002678,0.000431,0.009520
143133000,0.0324,0.013523,0.002678,0.000431,0.010107
143134000,0.0324,0.013523,0.002678,0.000431,0.011753
143135000,0.0324,0.013523,0.002678,0.000431,0.004231
143136000,0.0324,0.013523,0.002678,0.000431,0.004819
143137000,0.0324,0.013523,0.002678,0.000431,0.002938
143138000,0.0324,0.013523,0.002678,0.000431,0.004936
143139000,0.0324,0.013523,0.002678,0.000431,0.001880
143140000,0.0324,0.013523,0.002678,0.000431,0.002116
143141000,0.0324,0.013523,0.002678,0.000431,0.001763
143142000,0.0324,0.013523,0.002678,0.000431,0.002116
143143000,0.0324,0.013523,0.002678,0.000431,0.002116
143144000,0.0324,0.013523,0.002678,0.000431,0.003643
143145000,0.0324,0.013523,0.002678,0.000431,0.001410
143146000,0.0324,0.013523,0.002678,0.000431,0.000940
143147000,0.0324,0.013523,0.002678,0.000431,0.001293
143148000,0.0324,0.013523,0.002678,0.000431,0.000823
143149000,0.0324,0.013523,0.002678,0.000431,0.001058
143150000,0.0324,0.013523,0.002678,0.000431,0.001293
143151000,0.0324,0.013523,0.002678,0.000431,0.000823
143152000,0.0324,0.013523,0.002678,0.000431,0.001175
143153000,0.0324,0.013523,0.002678,0.000431,0.001058
143154000,0.0324,0.013523,0.002678,0.000431,0.001058
143155000,0.0324,0.013523,0.002678,0.000431,0.001175
143156000,0.0324,0.013523,0.002678,0.000431,0.000823
143157000,0.0324,0.013523,0.002678,0.000431,0.001410
143158000,0.0324,0.013523,0.002678,0.000431,0.000823
143159000,0.0324,0.013523,0.002678,0.000431,0.001058
143160000,0.0324,0.013523,0.002678,0.000431,0.001175
143161000,0.0324,0.013523,0.002678,0.000431,0.001058
143162000,0.0324,0.013523,0.002678,0.000431,0.001410
143163000,0.0324,0.013523,0.002678,0.000431,0.000940
143164000,0.0324,0.013523,0.002678,0.000431,0.001293
143165000,0.0324,0.013523,0.002678,0.000431,0.001175
143166000,0.0324,0.013523,0.002678,0.000431,0.041605
143167000,0.0324,0.013523,0.002678,0.000431,0.700115
143168000,0.0324,0.013523,0.002678,0.000431,0.563783
143169000,0.0324,0.013523,0.002678,0.000431,0.133982
143170000,0.0324,0.013523,0.002678,0.000431,0.146088
143171000,0.0324,0.013523,0.002678,0.000431,0.614672
143172000,0.0324,0.013523,0.002678,0.000431,0.262558
143173000,0.0324,0.013523,0.002678,0.000431,0.323790
143174000,0.0324,0.013523,0.002678,0.000431,0.140446
143175000,0.0324,0.013523,0.002678,0.000431,0.183344
143176000,0.0324,0.013523,0.002678,0.000431,0.107303
143177000,0.0324,0.013523,0.002678,0.000431,0.554851
143178000,0.0324,0.013523,0.002678,0.000431,0.294526
143179000,0.0324,0.013523,0.002678,0.000431,0.198740
143180000,0.0324,0.013523,0.002678,0.000431,0.178525
143181000,0.0324,0.013523,0.002678,0.000431,0.133982
143182000,0.0324,0.013523,0.002678,0.000431,0.109889
143183000,0.0324,0.013523,0.002678,0.000431,0.100839
143184000,0.0324,0.013523,0.002678,0.000431,0.094375
143185000,0.0324,0.013523,0.002678,0.000431,0.066756
143186000,0.0324,0.013523,0.002678,0.000431,0.042780
143187000,0.0324,0.013523,0.002678,0.000431,0.042193
143188000,0.0324,0.013523,0.002678,0.000431,0.033025
143189000,0.0324,0.013523,0.002678,0.000431,0.030910
143190000,0.0324,0.013523,0.002678,0.000431,0.030792
143191000,0.0324,0.013523,0.002678,0.000431,0.028324
143192000,0.0324,0.013523,0.002678,0.000431,0.022683
143193000,0.0324,0.013523,0.002678,0.000431,0.023506
143194000,0.0324,0.013523,0.002678,0.000431,0.015514
143195000,0.0324,0.013523,0.002678,0.000431,0.024916
143196000,0.0324,0.013523,0.002678,0.000431,0.014338
143197000,0.0324,0.013523,0.002678,0.000431,0.013986
143198000,0.0324,0.013523,0.002678,0.000431,0.009167
143199000,0.0324,0.013523,0.002678,0.000431,0.012576
143200000,0.0324,0.013523,0.002678,0.000431,0.005171
143201000,0.0324,0.013523,0.002678,0.000431,0.005054
143202000,0.0324,0.013523,0.002678,0.000431,0.005171
143203000,0.0324,0.013523,0.002678,0.000431,0.006111
143204000,0.0324,0.013523,0.002678,0.000431,0.003761
143205000,0.0324,0.013523,0.002678,0.000431,0.003878
143206000,0.0324,0.013523,0.002678,0.000431,0.003291
143207000,0.0324,0.013523,0.002678,0.000431,0.004349
143208000,0.0324,0.013523,0.002678,0.000431,0.003408
143209000,0.0324,0.013523,0.002678,0.000431,0.003878
143210000,0.0324,0.013523,0.002678,0.000431,0.003878
143211000,0.0324,0.013523,0.002678,0.000431,0.003291
143212000,0.0324,0.013523,0.002678,0.000431,0.004231
143213000,0.0324,0.013523,0.002678,0.000431,0.003526
143214000,0.0324,0.013523,0.002678,0.000431,0.003996
143215000,0.0324,0.013523,0.002678,0.000431,0.003761
143216000,0.0324,0.013523,0.002678,0.000431,0.007169
143217000,0.0324,0.013523,0.002678,0.000431,0.003291
143218000,0.0324,0.013523,0.002678,0.000431,0.002703
143219000,0.0324,0.013523,0.002678,0.000431,0.002586
143220000,0.0324,0.013523,0.002678,0.000431,0.003408
143221000,0.0324,0.013523,0.002678,0.000431,0.002821
143222000,0.0324,0.013523,0.002678,0.000431,0.002821
143223000,0.0324,0.013523,0.002678,0.000431,0.002938
143224000,0.0324,0.013523,0.002678,0.000431,0.002821
143225000,0.0324,0.013523,0.002678,0.000431,0.003173
143226000,0.0324,0.013523,0.002678,0.000431,0.002586
143227000,0.0324,0.013523,0.002678,0.000431,0.003173
143228000,0.0324,0.013523,0.002678,0.000431,0.002938
143229000,0.0324,0.013523,0.002678,0.000431,0.002703
143230000,0.0324,0.013523,0.002678,0.000431,0.003291
143231000,0.0324,0.013523,0.002678,0.000431,0.002351
143232000,0.0324,0.013523,0.002678,0.000431,0.003408
143233000,0.0324,0.013523,0.002678,0.000431,0.002821
143234000,0.0324,0.013523,0.002678,0.000431,0.002586
143235000,0.0324,0.013523,0.002678,0.000431,0.003526
143236000,0.0324,0.013523,0.002678,0.000431,0.002468
143237000,0.0324,0.013523,0.002678,0.000431,0.003056
143238000,0.0324,0.013523,0.002678,0.000431,0.003056
143239000,0.0324,0.013523,0.002678,0.000431,0.002703
143240000,0.0324,0.013523,0.002678,0.000431,0.003173
143241000,0.0324,0.013523,0.002678,0.000431,0.002703
143242000,0.0324,0.013523,0.002678,0.000431,0.002821
143243000,0.0324,0.013523,0.002678,0.000431,0.003291
143244000,0.0324,0.013523,0.002678,0.000431,0.002703
143245000,0.0324,0.013523,0.002678,0.000431,0.003291
143246000,0.0324,0.013523,0.002678,0.000431,0.005289
143247000,0.0324,0.013523,0.002678,0.000431,0.001880
143248000,0.0324,0.013523,0.002678,0.000431,0.001528
143249000,0.0324,0.013523,0.002678,0.000431,0.001763
143250000,0.0324,0.013523,0.002678,0.000431,0.001763
143251000,0.0324,0.013523,0.002678,0.000431,0.001763
143252000,0.0324,0.013523,0.002678,0.000431,0.001528
143253000,0.0324,0.013523,0.002678,0.000431,0.001763
143254000,0.0324,0.013523,0.002678,0.000431,0.001763
143255000,0.0324,0.013523,0.002678,0.000431,0.001763
143256000,0.0324,0.013523,0.002678,0.000431,0.001880
143257000,0.0324,0.013523,0.002678,0.000431,0.001645
143258000,0.0324,0.013523,0.002678,0.000431,0.001763
143259000,0.0324,0.013523,0.002678,0.000431,0.001528
143260000,0.0324,0.013523,0.002678,0.000431,0.001880
143261000,0.0324,0.013523,0.002678,0.000431,0.001880
143262000,0.0324,0.013523,0.002678,0.000431,0.001528
143263000,0.0324,0.013523,0.002678,0.000431,0.001763
143264000,0.0324,0.013523,0.002678,0.000431,0.001645
143265000,0.0324,0.013523,0.002678,0.000431,0.001763
143266000,0.0324,0.013523,0.002678,0.000431,0.001763
143267000,0.0324,0.013523,0.002678,0.000431,0.001645
143268000,0.0324,0.013523,0.002678,0.000431,0.001763
143269000,0.0324,0.013523,0.002678,0.000431,0.001645
143270000,0.0324,0.013523,0.002678,0.000431,0.001763
143271000,0.0324,0.013523,0.002678,0.000431,0.001645
143272000,0.0324,0.013523,0.002678,0.000431,0.001880
143273000,0.0324,0.013523,0.002678,0.000431,0.001528
143274000,0.0324,0.013523,0.002678,0.000431,0.001763
143275000,0.0324,0.013523,0.002678,0.000431,0.001645
143276000,0.0324,0.013523,0.002678,0.000431,0.001645
143277000,0.0324,0.013523,0.002678,0.000431,0.001645
143278000,0.0324,0.013523,0.002678,0.000431,0.001645
143279000,0.0324,0.013523,0.002678,0.000431,0.001645
143280000,0.0324,0.013523,0.002678,0.000431,0.001645
143281000,0.0324,0.013523,0.002678,0.000431,0.001880
143282000,0.0324,0.013523,0.002678,0.000431,0.001528
143283000,0.0324,0.013523,0.002678,0.000431,0.001763
143284000,0.0324,0.013523,0.002678,0.000431,0.001645
143285000,0.0324,0.013523,0.002678,0.000431,0.001763
143286000,0.0324,0.013523,0.002678,0.000431,0.001880
143287000,0.0324,0.013523,0.002678,0.000431,0.001528
143288000,0.0324,0.013523,0.002678,0.000431,0.001763
143289000,0.0324,0.013523,0.002678,0.000431,0.004231
143290000,0.0324,0.013523,0.002678,0.000431,0.000823
143291000,0.0324,0.013523,0.002678,0.000431,0.000823
143292000,0.0324,0.013523,0.002678,0.000431,0.000940
143293000,0.0324,0.013523,0.002678,0.000431,0.000940
143294000,0.0324,0.013523,0.002678,0.000431,0.000823
143295000,0.0324,0.013523,0.002678,0.000431,0.000823
143296000,0.0324,0.013523,0.002678,0.000431,0.000940
143297000,0.0324,0.013523,0.002678,0.000431,0.000823
143298000,0.0324,0.013523,0.002678,0.000431,0.000940
143299000,0.0324,0.013523,0.002678,0.000431,0.000823
143300000,0.0324,0.013523,0.002678,0.000431,0.000940
143301000,0.0324,0.013523,0.002678,0.000431,0.000823
143302000,0.0324,0.013523,0.002678,0.000431,0.000823
143303000,0.0324,0.013523,0.002678,0.000431,0.000823
143304000,0.0324,0.013523,0.002678,0.000431,0.000823
143305000,0.0324,0.013523,0.002678,0.000431,0.000823
143306000,0.0324,0.013523,0.002678,0.000431,0.000823
143307000,0.0324,0.013523,0.002678,0.000431,0.000940
143308000,0.0324,0.013523,0.002678,0.000431,0.000823
143309000,0.0324,0.013523,0.002678,0.000431,0.000823
143310000,0.0324,0.013523,0.002678,0.000431,0.000705
143311000,0.0324,0.013523,0.002678,0.000431,0.000940
143312000,0.0324,0.013523,0.002678,0.000431,0.000940
143313000,0.0324,0.013523,0.002678,0.000431,0.000940
143314000,0.0324,0.013523,0.002678,0.000431,0.000705
143315000,0.0324,0.013523,0.002678,0.000431,0.000940
143316000,0.0324,0.013523,0.002678,0.000431,0.000940
143317000,0.0324,0.013523,0.002678,0.000431,0.000823
143318000,0.0324,0.013523,0.002678,0.000431,0.000940
143319000,0.0324,0.013523,0.002678,0.000431,0.000823
143320000,0.0324,0.013523,0.002678,0.000431,0.000940
143321000,0.0324,0.013523,0.002678,0.000431,0.000823
143322000,0.0324,0.013523,0.002678,0.000431,0.001058
143323000,0.0324,0.013523,0.002678,0.000431,0.000940
143324000,0.0324,0.013523,0.002678,0.000431,0.000823
143325000,0.0324,0.013523,0.002678,0.000431,0.000823
143326000,0.0324,0.013523,0.002678,0.000431,0.000940
143327000,0.0324,0.013523,0.002678,0.000431,0.000823
143328000,0.0324,0.013523,0.002678,0.000431,0.000940
143329000,0.0324,0.013523,0.002678,0.000431,0.000823
143330000,0.0324,0.013523,0.002678,0.000431,0.000940
143331000,0.0324,0.013523,0.002678,0.000431,0.000823
143332000,0.0324,0.013523,0.002678,0.000431,0.000823
143333000,0.0324,0.013523,0.002678,0.000431,0.000940
143334000,0.0324,0.013523,0.002678,0.000431,0.000940
143335000,0.0324,0.013523,0.002678,0.000431,0.000823
143336000,0.0324,0.013523,0.002678,0.000431,0.000940
143337000,0.0324,0.013523,0.002678,0.000431,0.000940
143338000,0.0324,0.013523,0.002678,0.000431,0.000823
143339000,0.0324,0.013523,0.002678,0.000431,0.000940
143340000,0.0324,0.013523,0.002678,0.000431,0.178173
143341000,0.0324,0.013523,0.002678,0.000431,0.759350
143342000,0.0324,0.013523,0.002678,0.000431,0.509015
143343000,0.0324,0.013523,0.002678,0.000431,0.134335
143344000,0.0324,0.013523,0.002678,0.000431,0.276309
143345000,0.0324,0.013523,0.002678,0.000431,0.485979
143346000,0.0324,0.013523,0.002678,0.000431,0.304516
143347000,0.0324,0.013523,0.002678,0.000431,0.288062
143348000,0.0324,0.013523,0.002678,0.000431,0.156783
143349000,0.0324,0.013523,0.002678,0.000431,0.122699
143350000,0.0324,0.013523,0.002678,0.000431,0.315681
143351000,0.0324,0.013523,0.002678,0.000431,0.469995
143352000,0.0324,0.013523,0.002678,0.000431,0.200973
143353000,0.0324,0.013523,0.002678,0.000431,0.190866
143354000,0.0324,0.013523,0.002678,0.000431,0.139506
143355000,0.0324,0.013523,0.002678,0.000431,0.104953
143356000,0.0324,0.013523,0.002678,0.000431,0.083798
143357000,0.0324,0.013523,0.002678,0.000431,0.060762
143358000,0.0324,0.013523,0.002678,0.000431,0.041487
143359000,0.0324,0.013523,0.002678,0.000431,0.035494
143360000,0.0324,0.013523,0.002678,0.000431,0.033496
143361000,0.0324,0.013523,0.002678,0.000431,0.026796
143362000,0.0324,0.013523,0.002678,0.000431,0.017982
143363000,0.0324,0.013523,0.002678,0.000431,0.014338
143364000,0.0324,0.013523,0.002678,0.000431,0.017512
143365000,0.0324,0.013523,0.002678,0.000431,0.009990
143366000,0.0324,0.013523,0.002678,0.000431,0.013398
143367000,0.0324,0.013523,0.002678,0.000431,0.008109
143368000,0.0324,0.013523,0.002678,0.000431,0.007287
143369000,0.0324,0.013523,0.002678,0.000431,0.007169
143370000,0.0324,0.013523,0.002678,0.000431,0.007404
143371000,0.0324,0.013523,0.002678,0.000431,0.010107
143372000,0.0324,0.013523,0.002678,0.000431,0.009637
143373000,0.0324,0.013523,0.002678,0.000431,0.005759
143374000,0.0324,0.013523,0.002678,0.000431,0.006699
143375000,0.0324,0.013523,0.002678,0.000431,0.005171
143376000,0.0324,0.013523,0.002678,0.000431,0.002703
143377000,0.0324,0.013523,0.002678,0.000431,0.003761
143378000,0.0324,0.013523,0.002678,0.000431,0.001880
143379000,0.0324,0.013523,0.002678,0.000431,0.001645
143380000,0.0324,0.013523,0.002678,0.000431,0.001645
143381000,0.0324,0.013523,0.002678,0.000431,0.001763
143382000,0.0324,0.013523,0.002678,0.000431,0.001528
143383000,0.0324,0.013523,0.002678,0.000431,0.001763
143384000,0.0324,0.013523,0.002678,0.000431,0.001763
143385000,0.0324,0.013523,0.002678,0.000431,0.001645
143386000,0.0324,0.013523,0.002678,0.000431,0.001645
143387000,0.0324,0.013523,0.002678,0.000431,0.001645
143388000,0.0324,0.013523,0.002678,0.000431,0.001645
143389000,0.0324,0.013523,0.002678,0.000431,0.001645
143390000,0.0324,0.013523,0.002678,0.000431,0.001763
143391000,0.0324,0.013523,0.002678,0.000431,0.001645
143392000,0.0324,0.013523,0.002678,0.000431,0.001645
143393000,0.0324,0.013523,0.002678,0.000431,0.001763
143394000,0.0324,0.013523,0.002678,0.000431,0.001528
143395000,0.0324,0.013523,0.002678,0.000431,0.001763
143396000,0.0324,0.013523,0.002678,0.000431,0.001645
143397000,0.0324,0.013523,0.002678,0.000431,0.001763
143398000,0.0324,0.013523,0.002678,0.000431,0.001645
143399000,0.0324,0.013523,0.002678,0.000431,0.001528
143400000,0.0324,0.013523,0.002678,0.000431,0.001645
143401000,0.0324,0.013523,0.002678,0.000431,0.001880
143402000,0.0324,0.013523,0.002678,0.000431,0.001645
143403000,0.0324,0.013523,0.002678,0.000431,0.001645
143404000,0.0324,0.013523,0.002678,0.000431,0.001645
143405000,0.0324,0.013523,0.002678,0.000431,0.001645
143406000,0.0324,0.013523,0.002678,0.000431,0.001763
143407000,0.0324,0.013523,0.002678,0.000431,0.001645
143408000,0.0324,0.013523,0.002678,0.000431,0.001645
143409000,0.0324,0.013523,0.002678,0.000431,0.001528
143410000,0.0324,0.013523,0.002678,0.000431,0.003173
143411000,0.0324,0.013523,0.002678,0.000431,0.000940
143412000,0.0324,0.013523,0.002678,0.000431,0.000823
143413000,0.0324,0.013523,0.002678,0.000431,0.000823
143414000,0.0324,0.013523,0.002678,0.000431,0.000940
143415000,0.0324,0.013523,0.002678,0.000431,0.000705
143416000,0.0324,0.013523,0.002678,0.000431,0.000940
143417000,0.0324,0.013523,0.002678,0.000431,0.000823
143418000,0.0324,0.013523,0.002678,0.000431,0.000823
143419000,0.0324,0.013523,0.002678,0.000431,0.000823
143420000,0.0324,0.013523,0.002678,0.000431,0.000823
143421000,0.0324,0.013523,0.002678,0.000431,0.000823
143422000,0.0324,0.013523,0.002678,0.000431,0.000823
143423000,0.0324,0.013523,0.002678,0.000431,0.000940
143424000,0.0324,0.013523,0.002678,0.000431,0.000705
143425000,0.0324,0.013523,0.002678,0.000431,0.000940
143426000,0.0324,0.013523,0.002678,0.000431,0.000705
143427000,0.0324,0.013523,0.002678,0.000431,0.000940
143428000,0.0324,0.013523,0.002678,0.000431,0.000823
143429000,0.0324,0.013523,0.002678,0.000431,0.000823
143430000,0.0324,0.013523,0.002678,0.000431,0.000940
143431000,0.0324,0.013523,0.002678,0.000431,0.000705
143432000,0.0324,0.013523,0.002678,0.000431,0.000940
143433000,0.0324,0.013523,0.002678,0.000431,0.000823
143434000,0.0324,0.013523,0.002678,0.000431,0.000823
143435000,0.0324,0.013523,0.002678,0.000431,0.000823
143436000,0.0324,0.013523,0.002678,0.000431,0.000823
143437000,0.0324,0.013523,0.002678,0.000431,0.000823
143438000,0.0324,0.013523,0.002678,0.000431,0.000823
143439000,0.0324,0.013523,0.002678,0.000431,0.000940
143440000,0.0324,0.013523,0.002678,0.000431,0.000705
143441000,0.0324,0.013523,0.002678,0.000431,0.000823
143442000,0.0324,0.013523,0.002678,0.000431,0.000940
143443000,0.0324,0.013523,0.002678,0.000431,0.000823
143444000,0.0324,0.013523,0.002678,0.000431,0.000823
143445000,0.0324,0.013523,0.002678,0.000431,0.000823
143446000,0.0324,0.013523,0.002678,0.000431,0.000705
143447000,0.0324,0.013523,0.002678,0.000431,0.000940
143448000,0.0324,0.013523,0.002678,0.000431,0.000940
143449000,0.0324,0.013523,0.002678,0.000431,0.000823
143450000,0.0324,0.013523,0.002678,0.000431,0.000823
143451000,0.0324,0.013523,0.002678,0.000431,0.000705
143452000,0.0324,0.013523,0.002678,0.000431,0.000940
143453000,0.0324,0.013523,0.002678,0.000431,0.000940
143454000,0.0324,0.013523,0.002678,0.000431,0.000705
143455000,0.0324,0.013523,0.002678,0.000431,0.000940
143456000,0.0324,0.013523,0.002678,0.000431,0.000705
143457000,0.0324,0.013523,0.002678,0.000431,0.000940
143458000,0.0324,0.013523,0.002678,0.000431,0.000823
143459000,0.0324,0.013523,0.002678,0.000431,0.000823
143460000,0.0324,0.013523,0.002678,0.000431,0.000823
143461000,0.0324,0.013523,0.002678,0.000431,0.000823
143462000,0.0324,0.013523,0.002678,0.000431,0.000940
143463000,0.0324,0.013523,0.002678,0.000431,0.005406
143464000,0.0324,0.013523,0.002678,0.000431,0.566838
143465000,0.0324,0.013523,0.002678,0.000431,0.754178
143466000,0.0324,0.013523,0.002678,0.000431,0.136568
143467000,0.0324,0.013523,0.002678,0.000431,0.134452
143468000,0.0324,0.013523,0.002678,0.000431,0.517947
143469000,0.0324,0.013523,0.002678,0.000431,0.274781
143470000,0.0324,0.013523,0.002678,0.000431,0.253391
143471000,0.0324,0.013523,0.002678,0.000431,0.237289
143472000,0.0324,0.013523,0.002678,0.000431,0.149496
143473000,0.0324,0.013523,0.002678,0.000431,0.133865
143474000,0.0324,0.013523,0.002678,0.000431,0.327081
143475000,0.0324,0.013523,0.002678,0.000431,0.477635
143476000,0.0324,0.013523,0.002678,0.000431,0.241755
143477000,0.0324,0.013523,0.002678,0.000431,0.180876
143478000,0.0324,0.013523,0.002678,0.000431,0.162894
143479000,0.0324,0.013523,0.002678,0.000431,0.146205
143480000,0.0324,0.013523,0.002678,0.000431,0.109889
143481000,0.0324,0.013523,0.002678,0.000431,0.096608
143482000,0.0324,0.013523,0.002678,0.000431,0.076393
143483000,0.0324,0.013523,0.002678,0.000431,0.071340
143484000,0.0324,0.013523,0.002678,0.000431,0.069224
143485000,0.0324,0.013523,0.002678,0.000431,0.055473
143486000,0.0324,0.013523,0.002678,0.000431,0.050537
143487000,0.0324,0.013523,0.002678,0.000431,0.051595
143488000,0.0324,0.013523,0.002678,0.000431,0.041723
143489000,0.0324,0.013523,0.002678,0.000431,0.039137
143490000,0.0324,0.013523,0.002678,0.000431,0.047951
143491000,0.0324,0.013523,0.002678,0.000431,0.041017
143492000,0.0324,0.013523,0.002678,0.000431,0.035494
143493000,0.0324,0.013523,0.002678,0.000431,0.033143
143494000,0.0324,0.013523,0.002678,0.000431,0.028559
143495000,0.0324,0.013523,0.002678,0.000431,0.024328
143496000,0.0324,0.013523,0.002678,0.000431,0.024798
143497000,0.0324,0.013523,0.002678,0.000431,0.030440
143498000,0.0324,0.013523,0.002678,0.000431,0.022330
143499000,0.0324,0.013523,0.002678,0.000431,0.022330
143500000,0.0324,0.013523,0.002678,0.000431,0.023976
143501000,0.0324,0.013523,0.002678,0.000431,0.016807
143502000,0.0324,0.013523,0.002678,0.000431,0.020215
143503000,0.0324,0.013523,0.002678,0.000431,0.018569
143504000,0.0324,0.013523,0.002678,0.000431,0.017394
143505000,0.0324,0.013523,0.002678,0.000431,0.018569
143506000,0.0324,0.013523,0.002678,0.000431,0.022683
143507000,0.0324,0.013523,0.002678,0.000431,0.015749
143508000,0.0324,0.013523,0.002678,0.000431,0.015396
143509000,0.0324,0.013523,0.002678,0.000431,0.016924
143510000,0.0324,0.013523,0.002678,0.000431,0.014691
143511000,0.0324,0.013523,0.002678,0.000431,0.014221
143512000,0.0324,0.013523,0.002678,0.000431,0.017042
143513000,0.0324,0.013523,0.002678,0.000431,0.015279
143514000,0.0324,0.013523,0.002678,0.000431,0.012223
143515000,0.0324,0.013523,0.002678,0.000431,0.014456
143516000,0.0324,0.013523,0.002678,0.000431,0.011283
143517000,0.0324,0.013523,0.002678,0.000431,0.012340
143518000,0.0324,0.013523,0.002678,0.000431,0.012458
143519000,0.0324,0.013523,0.002678,0.000431,0.010813
143520000,0.0324,0.013523,0.002678,0.000431,0.013516
143521000,0.0324,0.013523,0.002678,0.000431,0.010578
143522000,0.0324,0.013523,0.002678,0.000431,0.012458
143523000,0.0324,0.013523,0.002678,0.000431,0.011518
143524000,0.0324,0.013523,0.002678,0.000431,0.012105
143525000,0.0324,0.013523,0.002678,0.000431,0.011048
143526000,0.0324,0.013523,0.002678,0.000431,0.012223
143527000,0.0324,0.013523,0.002678,0.000431,0.011635
143528000,0.0324,0.013523,0.002678,0.000431,0.011870
143529000,0.0324,0.013523,0.002678,0.000431,0.011283
143530000,0.0324,0.013523,0.002678,0.000431,0.012340
143531000,0.0324,0.013523,0.002678,0.000431,0.011165
143532000,0.0324,0.013523,0.002678,0.000431,0.012105
143533000,0.0324,0.013523,0.002678,0.000431,0.012928
143534000,0.0324,0.013523,0.002678,0.000431,0.010342
143535000,0.0324,0.013523,0.002678,0.000431,0.013046
143536000,0.0324,0.013523,0.002678,0.000431,0.011870
143537000,0.0324,0.013523,0.002678,0.000431,0.011518
143538000,0.0324,0.013523,0.002678,0.000431,0.014221
143539000,0.0324,0.013523,0.002678,0.000431,0.009990
143540000,0.0324,0.013523,0.002678,0.000431,0.011283
143541000,0.0324,0.013523,0.002678,0.000431,0.011518
143542000,0.0324,0.013523,0.002678,0.000431,0.010695
143543000,0.0324,0.013523,0.002678,0.000431,0.010813
143544000,0.0324,0.013523,0.002678,0.000431,0.011283
143545000,0.0324,0.013523,0.002678,0.000431,0.010342
143546000,0.0324,0.013523,0.002678,0.000431,0.012340
143547000,0.0324,0.013523,0.002678,0.000431,0.009637
143548000,0.0324,0.013523,0.002678,0.000431,0.013751
143549000,0.0324,0.013523,0.002678,0.000431,0.009167
143550000,0.0324,0.013523,0.002678,0.000431,0.011048
143551000,0.0324,0.013523,0.002678,0.000431,0.010225
143552000,0.0324,0.013523,0.002678,0.000431,0.013986
143553000,0.0324,0.013523,0.002678,0.000431,0.009872
143554000,0.0324,0.013523,0.002678,0.000431,0.007052
143555000,0.0324,0.013523,0.002678,0.000431,0.008580
143556000,0.0324,0.013523,0.002678,0.000431,0.007169
143557000,0.0324,0.013523,0.002678,0.000431,0.007522
143558000,0.0324,0.013523,0.002678,0.000431,0.010342
143559000,0.0324,0.013523,0.002678,0.000431,0.006464
143560000,0.0324,0.013523,0.002678,0.000431,0.006934
143561000,0.0324,0.013523,0.002678,0.000431,0.007287
143562000,0.0324,0.013523,0.002678,0.000431,0.006111
143563000,0.0324,0.013523,0.002678,0.000431,0.007404
143564000,0.0324,0.013523,0.002678,0.000431,0.006817
143565000,0.0324,0.013523,0.002678,0.000431,0.006464
143566000,0.0324,0.013523,0.002678,0.000431,0.007874
143567000,0.0324,0.013523,0.002678,0.000431,0.005759
143568000,0.0324,0.013523,0.002678,0.000431,0.007757
143569000,0.0324,0.013523,0.002678,0.000431,0.006934
143570000,0.0324,0.013523,0.002678,0.000431,0.006582
143571000,0.0324,0.013523,0.002678,0.000431,0.007169
143572000,0.0324,0.013523,0.002678,0.000431,0.006464
143573000,0.0324,0.013523,0.002678,0.000431,0.007404
143574000,0.0324,0.013523,0.002678,0.000431,0.006699
143575000,0.0324,0.013523,0.002678,0.000431,0.006817
143576000,0.0324,0.013523,0.002678,0.000431,0.007052
143577000,0.0324,0.013523,0.002678,0.000431,0.006817
143578000,0.0324,0.013523,0.002678,0.000431,0.006582
143579000,0.0324,0.013523,0.002678,0.000431,0.007404
143580000,0.0324,0.013523,0.002678,0.000431,0.005524
143581000,0.0324,0.013523,0.002678,0.000431,0.007757
143582000,0.0324,0.013523,0.002678,0.000431,0.004113
143583000,0.0324,0.013523,0.002678,0.000431,0.005171
143584000,0.0324,0.013523,0.002678,0.000431,0.006229
143585000,0.0324,0.013523,0.002678,0.000431,0.002821
143586000,0.0324,0.013523,0.002678,0.000431,0.003408
143587000,0.0324,0.013523,0.002678,0.000431,0.003526
143588000,0.0324,0.013523,0.002678,0.000431,0.002703
143589000,0.0324,0.013523,0.002678,0.000431,0.003643
143590000,0.0324,0.013523,0.002678,0.000431,0.002938
143591000,0.0324,0.013523,0.002678,0.000431,0.003408
143592000,0.0324,0.013523,0.002678,0.000431,0.002938
143593000,0.0324,0.013523,0.002678,0.000431,0.003408
143594000,0.0324,0.013523,0.002678,0.000431,0.003056
143595000,0.0324,0.013523,0.002678,0.000431,0.003526
143596000,0.0324,0.013523,0.002678,0.000431,0.003173
143597000,0.0324,0.013523,0.002678,0.000431,0.002821
143598000,0.0324,0.013523,0.002678,0.000431,0.003643
143599000,0.0324,0.013523,0.002678,0.000431,0.003056
143600000,0.0324,0.013523,0.002678,0.000431,0.003408
143601000,0.0324,0.013523,0.002678,0.000431,0.003408
143602000,0.0324,0.013523,0.002678,0.000431,0.002821
143603000,0.0324,0.013523,0.002678,0.000431,0.002938
143604000,0.0324,0.013523,0.002678,0.000431,0.005759
143605000,0.0324,0.013523,0.002678,0.000431,0.001880
143606000,0.0324,0.013523,0.002678,0.000431,0.001645
143607000,0.0324,0.013523,0.002678,0.000431,0.001645
143608000,0.0324,0.013523,0.002678,0.000431,0.001645
143609000,0.0324,0.013523,0.002678,0.000431,0.001645
143610000,0.0324,0.013523,0.002678,0.000431,0.001645
143611000,0.0324,0.013523,0.002678,0.000431,0.001645
143612000,0.0324,0.013523,0.002678,0.000431,0.001645
143613000,0.0324,0.013523,0.002678,0.000431,0.001880
143614000,0.0324,0.013523,0.002678,0.000431,0.001645
143615000,0.0324,0.013523,0.002678,0.000431,0.001645
143616000,0.0324,0.013523,0.002678,0.000431,0.001645
143617000,0.0324,0.013523,0.002678,0.000431,0.001410
143618000,0.0324,0.013523,0.002678,0.000431,0.001880
143619000,0.0324,0.013523,0.002678,0.000431,0.001880
143620000,0.0324,0.013523,0.002678,0.000431,0.001410
143621000,0.0324,0.013523,0.002678,0.000431,0.001880
143622000,0.0324,0.013523,0.002678,0.000431,0.001410
143623000,0.0324,0.013523,0.002678,0.000431,0.001880
143624000,0.0324,0.013523,0.002678,0.000431,0.001645
143625000,0.0324,0.013523,0.002678,0.000431,0.001645
143626000,0.0324,0.013523,0.002678,0.000431,0.001880
143627000,0.0324,0.013523,0.002678,0.000431,0.001410
143628000,0.0324,0.013523,0.002678,0.000431,0.001880
143629000,0.0324,0.013523,0.002678,0.000431,0.001645
143630000,0.0324,0.013523,0.002678,0.000431,0.001645
143631000,0.0324,0.013523,0.002678,0.000431,0.001645
143632000,0.0324,0.013523,0.002678,0.000431,0.001645
143633000,0.0324,0.013523,0.002678,0.000431,0.001880
143634000,0.0324,0.013523,0.002678,0.000431,0.001410
143635000,0.0324,0.013523,0.002678,0.000431,0.001880
143636000,0.0324,0.013523,0.002678,0.000431,0.001645
143637000,0.0324,0.013523,0.002678,0.000431,0.001645
143638000,0.0324,0.013523,0.002678,0.000431,0.001645
143639000,0.0324,0.013523,0.002678,0.000431,0.001645
143640000,0.0324,0.013523,0.002678,0.000431,0.001410
143641000,0.0324,0.013523,0.002678,0.000431,0.001880
143642000,0.0324,0.013523,0.002678,0.000431,0.001880
143643000,0.0324,0.013523,0.002678,0.000431,0.001410
143644000,0.0324,0.013523,0.002678,0.000431,0.001880
143645000,0.0324,0.013523,0.002678,0.000431,0.001410
143646000,0.0324,0.013523,0.002678,0.000431,0.001880
143647000,0.0324,0.013523,0.002678,0.000431,0.001880
143648000,0.0324,0.013523,0.002678,0.000431,0.001410
143649000,0.0324,0.013523,0.002678,0.000431,0.001880
143650000,0.0324,0.013523,0.002678,0.000431,0.001410
143651000,0.0324,0.013523,0.002678,0.000431,0.001880
143652000,0.0324,0.013523,0.002678,0.000431,0.001410
143653000,0.0324,0.013523,0.002678,0.000431,0.016454
143654000,0.0324,0.013523,0.002678,0.000431,0.798134
143655000,0.0324,0.013523,0.002678,0.000431,0.594693
143656000,0.0324,0.013523,0.002678,0.000431,0.134570
143657000,0.0324,0.013523,0.002678,0.000431,0.136333
143658000,0.0324,0.013523,0.002678,0.000431,0.578004
143659000,0.0324,0.013523,0.002678,0.000431,0.250100
143660000,0.0324,0.013523,0.002678,0.000431,0.296641
143661000,0.0324,0.013523,0.002678,0.000431,0.174529
143662000,0.0324,0.013523,0.002678,0.000431,0.162189
143663000,0.0324,0.013523,0.002678,0.000431,0.114708
143664000,0.0324,0.013523,0.002678,0.000431,0.469878
143665000,0.0324,0.013523,0.002678,0.000431,0.334368
143666000,0.0324,0.013523,0.002678,0.000431,0.200856
143667000,0.0324,0.013523,0.002678,0.000431,0.170298
143668000,0.0324,0.013523,0.002678,0.000431,0.133512
143669000,0.0324,0.013523,0.002678,0.000431,0.111534
143670000,0.0324,0.013523,0.002678,0.000431,0.083680
143671000,0.0324,0.013523,0.002678,0.000431,0.070987
143672000,0.0324,0.013523,0.002678,0.000431,0.067461
143673000,0.0324,0.013523,0.002678,0.000431,0.043956
143674000,0.0324,0.013523,0.002678,0.000431,0.046071
143675000,0.0324,0.013523,0.002678,0.000431,0.035023
143676000,0.0324,0.013523,0.002678,0.000431,0.036199
143677000,0.0324,0.013523,0.002678,0.000431,0.027267
143678000,0.0324,0.013523,0.002678,0.000431,0.026679
143679000,0.0324,0.013523,0.002678,0.000431,0.019745
143680000,0.0324,0.013523,0.002678,0.000431,0.020097
143681000,0.0324,0.013523,0.002678,0.000431,0.019745
143682000,0.0324,0.013523,0.002678,0.000431,0.011283
143683000,0.0324,0.013523,0.002678,0.000431,0.011753
143684000,0.0324,0.013523,0.002678,0.000431,0.011400
143685000,0.0324,0.013523,0.002678,0.000431,0.016101
143686000,0.0324,0.013523,0.002678,0.000431,0.008580
143687000,0.0324,0.013523,0.002678,0.000431,0.009285
143688000,0.0324,0.013523,0.002678,0.000431,0.012693
143689000,0.0324,0.013523,0.002678,0.000431,0.008345
143690000,0.0324,0.013523,0.002678,0.000431,0.008345
143691000,0.0324,0.013523,0.002678,0.000431,0.008462
143692000,0.0324,0.013523,0.002678,0.000431,0.008815
143693000,0.0324,0.013523,0.002678,0.000431,0.008345
143694000,0.0324,0.013523,0.002678,0.000431,0.007522
143695000,0.0324,0.013523,0.002678,0.000431,0.009520
143696000,0.0324,0.013523,0.002678,0.000431,0.008462
143697000,0.0324,0.013523,0.002678,0.000431,0.008580
143698000,0.0324,0.013523,0.002678,0.000431,0.009167
143699000,0.0324,0.013523,0.002678,0.000431,0.010930
143700000,0.0324,0.013523,0.002678,0.000431,0.008580
143701000,0.0324,0.013523,0.002678,0.000431,0.007052
143702000,0.0324,0.013523,0.002678,0.000431,0.006699
143703000,0.0324,0.013523,0.002678,0.000431,0.005876
143704000,0.0324,0.013523,0.002678,0.000431,0.005524
143705000,0.0324,0.013523,0.002678,0.000431,0.006229
143706000,0.0324,0.013523,0.002678,0.000431,0.005759
143707000,0.0324,0.013523,0.002678,0.000431,0.006582
143708000,0.0324,0.013523,0.002678,0.000431,0.005876
143709000,0.0324,0.013523,0.002678,0.000431,0.005406
143710000,0.0324,0.013523,0.002678,0.000431,0.004349
143711000,0.0324,0.013523,0.002678,0.000431,0.002351
143712000,0.0324,0.013523,0.002678,0.000431,0.004466
143713000,0.0324,0.013523,0.002678,0.000431,0.001763
143714000,0.0324,0.013523,0.002678,0.000431,0.001763
143715000,0.0324,0.013523,0.002678,0.000431,0.001645
143716000,0.0324,0.013523,0.002678,0.000431,0.001645
143717000,0.0324,0.013523,0.002678,0.000431,0.001880
143718000,0.0324,0.013523,0.002678,0.000431,0.001528
143719000,0.0324,0.013523,0.002678,0.000431,0.001880
143720000,0.0324,0.013523,0.002678,0.000431,0.001528
143721000,0.0324,0.013523,0.002678,0.000431,0.001880
143722000,0.0324,0.013523,0.002678,0.000431,0.001645
143723000,0.0324,0.013523,0.002678,0.000431,0.001645
143724000,0.0324,0.013523,0.002678,0.000431,0.001880
143725000,0.0324,0.013523,0.002678,0.000431,0.001645
143726000,0.0324,0.013523,0.002678,0.000431,0.001645
143727000,0.0324,0.013523,0.002678,0.000431,0.001528
143728000,0.0324,0.013523,0.002678,0.000431,0.001763
143729000,0.0324,0.013523,0.002678,0.000431,0.001645
143730000,0.0324,0.013523,0.002678,0.000431,0.001763
143731000,0.0324,0.013523,0.002678,0.000431,0.001645
143732000,0.0324,0.013523,0.002678,0.000431,0.001645
143733000,0.0324,0.013523,0.002678,0.000431,0.001763
143734000,0.0324,0.013523,0.002678,0.000431,0.001528
143735000,0.0324,0.013523,0.002678,0.000431,0.001528
143736000,0.0324,0.013523,0.002678,0.000431,0.001880
143737000,0.0324,0.013523,0.002678,0.000431,0.001528
143738000,0.0324,0.013523,0.002678,0.000431,0.001645
143739000,0.0324,0.013523,0.002678,0.000431,0.001645
143740000,0.0324,0.013523,0.002678,0.000431,0.001763
143741000,0.0324,0.013523,0.002678,0.000431,0.001763
143742000,0.0324,0.013523,0.002678,0.000431,0.001528
143743000,0.0324,0.013523,0.002678,0.000431,0.001645
143744000,0.0324,0.013523,0.002678,0.000431,0.001645
143745000,0.0324,0.013523,0.002678,0.000431,0.001880
143746000,0.0324,0.013523,0.002678,0.000431,0.003408
143747000,0.0324,0.013523,0.002678,0.000431,0.000940
143748000,0.0324,0.013523,0.002678,0.000431,0.000705
143749000,0.0324,0.013523,0.002678,0.000431,0.000940
143750000,0.0324,0.013523,0.002678,0.000431,0.000940
143751000,0.0324,0.013523,0.002678,0.000431,0.000823
143752000,0.0324,0.013523,0.002678,0.000431,0.000823
143753000,0.0324,0.013523,0.002678,0.000431,0.000940
143754000,0.0324,0.013523,0.002678,0.000431,0.000940
143755000,0.0324,0.013523,0.002678,0.000431,0.000823
143756000,0.0324,0.013523,0.002678,0.000431,0.001058
143757000,0.0324,0.013523,0.002678,0.000431,0.000705
143758000,0.0324,0.013523,0.002678,0.000431,0.014456
143759000,0.0324,0.013523,0.002678,0.000431,0.797781
143760000,0.0324,0.013523,0.002678,0.000431,0.563078
143761000,0.0324,0.013523,0.002678,0.000431,0.150319
143762000,0.0324,0.013523,0.002678,0.000431,0.163247
143763000,0.0324,0.013523,0.002678,0.000431,0.602920
143764000,0.0324,0.013523,0.002678,0.000431,0.267259
143765000,0.0324,0.013523,0.002678,0.000431,0.317796
143766000,0.0324,0.013523,0.002678,0.000431,0.147498
143767000,0.0324,0.013523,0.002678,0.000431,0.162189
143768000,0.0324,0.013523,0.002678,0.000431,0.163834
143769000,0.0324,0.013523,0.002678,0.000431,0.521237
143770000,0.0324,0.013523,0.002678,0.000431,0.231295
143771000,0.0324,0.013523,0.002678,0.000431,0.185695
143772000,0.0324,0.013523,0.002678,0.000431,0.153727
143773000,0.0324,0.013523,0.002678,0.000431,0.120701
143774000,0.0324,0.013523,0.002678,0.000431,0.118468
143775000,0.0324,0.013523,0.002678,0.000431,0.093787
143776000,0.0324,0.013523,0.002678,0.000431,0.077451
143777000,0.0324,0.013523,0.002678,0.000431,0.060997
143778000,0.0324,0.013523,0.002678,0.000431,0.049127
143779000,0.0324,0.013523,0.002678,0.000431,0.043133
143780000,0.0324,0.013523,0.002678,0.000431,0.041958
143781000,0.0324,0.013523,0.002678,0.000431,0.035729
143782000,0.0324,0.013523,0.002678,0.000431,0.031968
143783000,0.0324,0.013523,0.002678,0.000431,0.034788
143784000,0.0324,0.013523,0.002678,0.000431,0.027972
143785000,0.0324,0.013523,0.002678,0.000431,0.017982
143786000,0.0324,0.013523,0.002678,0.000431,0.015866
143787000,0.0324,0.013523,0.002678,0.000431,0.013868
143788000,0.0324,0.013523,0.002678,0.000431,0.013868
143789000,0.0324,0.013523,0.002678,0.000431,0.017747
143790000,0.0324,0.013523,0.002678,0.000431,0.008462
143791000,0.0324,0.013523,0.002678,0.000431,0.008697
143792000,0.0324,0.013523,0.002678,0.000431,0.008345
143793000,0.0324,0.013523,0.002678,0.000431,0.013751
143794000,0.0324,0.013523,0.002678,0.000431,0.006582
143795000,0.0324,0.013523,0.002678,0.000431,0.006582
143796000,0.0324,0.013523,0.002678,0.000431,0.006817
143797000,0.0324,0.013523,0.002678,0.000431,0.006699
143798000,0.0324,0.013523,0.002678,0.000431,0.007169
143799000,0.0324,0.013523,0.002678,0.000431,0.006347
143800000,0.0324,0.013523,0.002678,0.000431,0.006934
143801000,0.0324,0.013523,0.002678,0.000431,0.006699
143802000,0.0324,0.013523,0.002678,0.000431,0.006699
143803000,0.0324,0.013523,0.002678,0.000431,0.007757
143804000,0.0324,0.013523,0.002678,0.000431,0.005994
143805000,0.0324,0.013523,0.002678,0.000431,0.005759
143806000,0.0324,0.013523,0.002678,0.000431,0.005994
143807000,0.0324,0.013523,0.002678,0.000431,0.005876
143808000,0.0324,0.013523,0.002678,0.000431,0.007287
143809000,0.0324,0.013523,0.002678,0.000431,0.005406
143810000,0.0324,0.013523,0.002678,0.000431,0.004819
143811000,0.0324,0.013523,0.002678,0.000431,0.005406
143812000,0.0324,0.013523,0.002678,0.000431,0.004819
143813000,0.0324,0.013523,0.002678,0.000431,0.005759
143814000,0.0324,0.013523,0.002678,0.000431,0.006582
143815000,0.0324,0.013523,0.002678,0.000431,0.005171
143816000,0.0324,0.013523,0.002678,0.000431,0.003761
143817000,0.0324,0.013523,0.002678,0.000431,0.003291
143818000,0.0324,0.013523,0.002678,0.000431,0.003291
143819000,0.0324,0.013523,0.002678,0.000431,0.003408
143820000,0.0324,0.013523,0.002678,0.000431,0.003173
143821000,0.0324,0.013523,0.002678,0.000431,0.003526
143822000,0.0324,0.013523,0.002678,0.000431,0.003291
143823000,0.0324,0.013523,0.002678,0.000431,0.005759
143824000,0.0324,0.013523,0.002678,0.000431,0.002468
143825000,0.0324,0.013523,0.002678,0.000431,0.002468
143826000,0.0324,0.013523,0.002678,0.000431,0.002703
143827000,0.0324,0.013523,0.002678,0.000431,0.002468
143828000,0.0324,0.013523,0.002678,0.000431,0.002468
143829000,0.0324,0.013523,0.002678,0.000431,0.002468
143830000,0.0324,0.013523,0.002678,0.000431,0.002586
143831000,0.0324,0.013523,0.002678,0.000431,0.002468
143832000,0.0324,0.013523,0.002678,0.000431,0.002468
143833000,0.0324,0.013523,0.002678,0.000431,0.002586
143834000,0.0324,0.013523,0.002678,0.000431,0.002351
143835000,0.0324,0.013523,0.002678,0.000431,0.002703
143836000,0.0324,0.013523,0.002678,0.000431,0.002351
143837000,0.0324,0.013523,0.002678,0.000431,0.002468
143838000,0.0324,0.013523,0.002678,0.000431,0.002351
143839000,0.0324,0.013523,0.002678,0.000431,0.002703
143840000,0.0324,0.013523,0.002678,0.000431,0.002586
143841000,0.0324,0.013523,0.002678,0.000431,0.002351
143842000,0.0324,0.013523,0.002678,0.000431,0.002703
143843000,0.0324,0.013523,0.002678,0.000431,0.002233
143844000,0.0324,0.013523,0.002678,0.000431,0.002703
143845000,0.0324,0.013523,0.002678,0.000431,0.002468
143846000,0.0324,0.013523,0.002678,0.000431,0.002468
143847000,0.0324,0.013523,0.002678,0.000431,0.002703
143848000,0.0324,0.013523,0.002678,0.000431,0.002233
143849000,0.0324,0.013523,0.002678,0.000431,0.002703
143850000,0.0324,0.013523,0.002678,0.000431,0.002468
143851000,0.0324,0.013523,0.002678,0.000431,0.002586
143852000,0.0324,0.013523,0.002678,0.000431,0.002468
143853000,0.0324,0.013523,0.002678,0.000431,0.002468
143854000,0.0324,0.013523,0.002678,0.000431,0.002586
143855000,0.0324,0.013523,0.002678,0.000431,0.002351
143856000,0.0324,0.013523,0.002678,0.000431,0.002703
143857000,0.0324,0.013523,0.002678,0.000431,0.002233
143858000,0.0324,0.013523,0.002678,0.000431,0.002586
143859000,0.0324,0.013523,0.002678,0.000431,0.002586
143860000,0.0324,0.013523,0.002678,0.000431,0.002586
143861000,0.0324,0.013523,0.002678,0.000431,0.002586
143862000,0.0324,0.013523,0.002678,0.000431,0.002351
143863000,0.0324,0.013523,0.002678,0.000431,0.002351
143864000,0.0324,0.013523,0.002678,0.000431,0.002703
143865000,0.0324,0.013523,0.002678,0.000431,0.002703
143866000,0.0324,0.013523,0.002678,0.000431,0.002233
143867000,0.0324,0.013523,0.002678,0.000431,0.002703
143868000,0.0324,0.013523,0.002678,0.000431,0.002233
143869000,0.0324,0.013523,0.002678,0.000431,0.002703
143870000,0.0324,0.013523,0.002678,0.000431,0.002703
143871000,0.0324,0.013523,0.002678,0.000431,0.002351
143872000,0.0324,0.013523,0.002678,0.000431,0.002703
143873000,0.0324,0.013523,0.002678,0.000431,0.002233
143874000,0.0324,0.013523,0.002678,0.000431,0.002703
143875000,0.0324,0.013523,0.002678,0.000431,0.002468
143876000,0.0324,0.013523,0.002678,0.000431,0.002468
143877000,0.0324,0.013523,0.002678,0.000431,0.002468
143878000,0.0324,0.013523,0.002678,0.000431,0.002468
143879000,0.0324,0.013523,0.002678,0.000431,0.002703
143880000,0.0324,0.013523,0.002678,0.000431,0.002351
143881000,0.0324,0.013523,0.002678,0.000431,0.002703
143882000,0.0324,0.013523,0.002678,0.000431,0.002233
143883000,0.0324,0.013523,0.002678,0.000431,0.002703
143884000,0.0324,0.013523,0.002678,0.000431,0.002586
143885000,0.0324,0.013523,0.002678,0.000431,0.002351
143886000,0.0324,0.013523,0.002678,0.000431,0.002351
143887000,0.0324,0.013523,0.002678,0.000431,0.002586
143888000,0.0324,0.013523,0.002678,0.000431,0.002821
143889000,0.0324,0.013523,0.002678,0.000431,0.002233
143890000,0.0324,0.013523,0.002678,0.000431,0.002703
143891000,0.0324,0.013523,0.002678,0.000431,0.002351
143892000,0.0324,0.013523,0.002678,0.000431,0.002586
143893000,0.0324,0.013523,0.002678,0.000431,0.002703
143894000,0.0324,0.013523,0.002678,0.000431,0.002351
143895000,0.0324,0.013523,0.002678,0.000431,0.002703
143896000,0.0324,0.013523,0.002678,0.000431,0.002233
143897000,0.0324,0.013523,0.002678,0.000431,0.002703
143898000,0.0324,0.013523,0.002678,0.000431,0.002468
143899000,0.0324,0.013523,0.002678,0.000431,0.002468
143900000,0.0324,0.013523,0.002678,0.000431,0.002468
143901000,0.0324,0.013523,0.002678,0.000431,0.002468
143902000,0.0324,0.013523,0.002678,0.000431,0.002586
143903000,0.0324,0.013523,0.002678,0.000431,0.002351
143904000,0.0324,0.013523,0.002678,0.000431,0.002586
143905000,0.0324,0.013523,0.002678,0.000431,0.002468
143906000,0.0324,0.013523,0.002678,0.000431,0.002586
143907000,0.0324,0.013523,0.002678,0.000431,0.002468
143908000,0.0324,0.013523,0.002678,0.000431,0.002586
143909000,0.0324,0.013523,0.002678,0.000431,0.002351
143910000,0.0324,0.013523,0.002678,0.000431,0.002586
143911000,0.0324,0.013523,0.002678,0.000431,0.002468
143912000,0.0324,0.013523,0.002678,0.000431,0.002468
143913000,0.0324,0.013523,0.002678,0.000431,0.002821
143914000,0.0324,0.013523,0.002678,0.000431,0.002351
143915000,0.0324,0.013523,0.002678,0.000431,0.002586
143916000,0.0324,0.013523,0.002678,0.000431,0.002233
143917000,0.0324,0.013523,0.002678,0.000431,0.002703
143918000,0.0324,0.013523,0.002678,0.000431,0.002703
143919000,0.0324,0.013523,0.002678,0.000431,0.002233
143920000,0.0324,0.013523,0.002678,0.000431,0.002821
143921000,0.0324,0.013523,0.002678,0.000431,0.002116
143922000,0.0324,0.013523,0.002678,0.000431,0.002821
143923000,0.0324,0.013523,0.002678,0.000431,0.002468
143924000,0.0324,0.013523,0.002678,0.000431,0.002468
143925000,0.0324,0.013523,0.002678,0.000431,0.002468
143926000,0.0324,0.013523,0.002678,0.000431,0.002468
143927000,0.0324,0.013523,0.002678,0.000431,0.002703
143928000,0.0324,0.013523,0.002678,0.000431,0.002233
143929000,0.0324,0.013523,0.002678,0.000431,0.004701
143930000,0.0324,0.013523,0.002678,0.000431,0.001528
143931000,0.0324,0.013523,0.002678,0.000431,0.001880
143932000,0.0324,0.013523,0.002678,0.000431,0.001528
143933000,0.0324,0.013523,0.002678,0.000431,0.001763
143934000,0.0324,0.013523,0.002678,0.000431,0.001645
143935000,0.0324,0.013523,0.002678,0.000431,0.001645
143936000,0.0324,0.013523,0.002678,0.000431,0.001880
143937000,0.0324,0.013523,0.002678,0.000431,0.001410
143938000,0.0324,0.013523,0.002678,0.000431,0.001880
143939000,0.0324,0.013523,0.002678,0.000431,0.001528
143940000,0.0324,0.013523,0.002678,0.000431,0.001763
143941000,0.0324,0.013523,0.002678,0.000431,0.001645
143942000,0.0324,0.013523,0.002678,0.000431,0.001645
143943000,0.0324,0.013523,0.002678,0.000431,0.001763
143944000,0.0324,0.013523,0.002678,0.000431,0.001528
143945000,0.0324,0.013523,0.002678,0.000431,0.001880
143946000,0.0324,0.013523,0.002678,0.000431,0.001410
143947000,0.0324,0.013523,0.002678,0.000431,0.001763
143948000,0.0324,0.013523,0.002678,0.000431,0.001763
143949000,0.0324,0.013523,0.002678,0.000431,0.001645
143950000,0.0324,0.013523,0.002678,0.000431,0.001645
143951000,0.0324,0.013523,0.002678,0.000431,0.001645
143952000,0.0324,0.013523,0.002678,0.000431,0.001528
143953000,0.0324,0.013523,0.002678,0.000431,0.001763
143954000,0.0324,0.013523,0.002678,0.000431,0.001763
143955000,0.0324,0.013523,0.002678,0.000431,0.001645
143956000,0.0324,0.013523,0.002678,0.000431,0.001763
143957000,0.0324,0.013523,0.002678,0.000431,0.001528
143958000,0.0324,0.013523,0.002678,0.000431,0.001763
143959000,0.0324,0.013523,0.002678,0.000431,0.001645
143960000,0.0324,0.013523,0.002678,0.000431,0.001645
143961000,0.0324,0.013523,0.002678,0.000431,0.001880
143962000,0.0324,0.013523,0.002678,0.000431,0.001410
143963000,0.0324,0.013523,0.002678,0.000431,0.001880
143964000,0.0324,0.013523,0.002678,0.000431,0.001528
143965000,0.0324,0.013523,0.002678,0.000431,0.001763
143966000,0.0324,0.013523,0.002678,0.000431,0.001763
143967000,0.0324,0.013523,0.002678,0.000431,0.001528
143968000,0.0324,0.013523,0.002678,0.000431,0.001880
143969000,0.0324,0.013523,0.002678,0.000431,0.001528
143970000,0.0324,0.013523,0.002678,0.000431,0.001763
143971000,0.0324,0.013523,0.002678,0.000431,0.001645
143972000,0.0324,0.013523,0.002678,0.000431,0.001645
143973000,0.0324,0.013523,0.002678,0.000431,0.001645
143974000,0.0324,0.013523,0.002678,0.000431,0.001645
143975000,0.0324,0.013523,0.002678,0.000431,0.001880
143976000,0.0324,0.013523,0.002678,0.000431,0.001410
143977000,0.0324,0.013523,0.002678,0.000431,0.001880
143978000,0.0324,0.013523,0.002678,0.000431,0.001645
143979000,0.0324,0.013523,0.002678,0.000431,0.001645
143980000,0.0324,0.013523,0.002678,0.000431,0.001528
143981000,0.0324,0.013523,0.002678,0.000431,0.001763
143982000,0.0324,0.013523,0.002678,0.000431,0.001645
143983000,0.0324,0.013523,0.002678,0.000431,0.001645
143984000,0.0324,0.013523,0.002678,0.000431,0.001880
143985000,0.0324,0.013523,0.002678,0.000431,0.001410
143986000,0.0324,0.013523,0.002678,0.000431,0.001880
143987000,0.0324,0.013523,0.002678,0.000431,0.001528
143988000,0.0324,0.013523,0.002678,0.000431,0.001763
143989000,0.0324,0.013523,0.002678,0.000431,0.001880
143990000,0.0324,0.013523,0.002678,0.000431,0.001410
143991000,0.0324,0.013523,0.002678,0.000431,0.001880
143992000,0.0324,0.013523,0.002678,0.000431,0.001528
143993000,0.0324,0.013523,0.002678,0.000431,0.001763
143994000,0.0324,0.013523,0.002678,0.000431,0.001645
143995000,0.0324,0.013523,0.002678,0.000431,0.001645
143996000,0.0324,0.013523,0.002678,0.000431,0.001645
143997000,0.0324,0.013523,0.002678,0.000431,0.001645
143998000,0.0324,0.013523,0.002678,0.000431,0.001763
143999000,0.0324,0.013523,0.002678,0.000431,0.001528
