Cycle,Area(mm^2),PeakDynamic(W),SubthresholdLeakage(W),GateLeakage(W),RunTimeDynamic(W)
74000000,0.0324,0.013523,0.002678,0.000431,0.005759
74001000,0.0324,0.013523,0.002678,0.000431,0.003526
74002000,0.0324,0.013523,0.002678,0.000431,0.003408
74003000,0.0324,0.013523,0.002678,0.000431,0.003408
74004000,0.0324,0.013523,0.002678,0.000431,0.003526
74005000,0.0324,0.013523,0.002678,0.000431,0.003526
74006000,0.0324,0.013523,0.002678,0.000431,0.003173
74007000,0.0324,0.013523,0.002678,0.000431,0.003643
74008000,0.0324,0.013523,0.002678,0.000431,0.003408
74009000,0.0324,0.013523,0.002678,0.000431,0.003408
74010000,0.0324,0.013523,0.002678,0.000431,0.003526
74011000,0.0324,0.013523,0.002678,0.000431,0.003291
74012000,0.0324,0.013523,0.002678,0.000431,0.004466
74013000,0.0324,0.013523,0.002678,0.000431,0.003643
74014000,0.0324,0.013523,0.002678,0.000431,0.002586
74015000,0.0324,0.013523,0.002678,0.000431,0.002586
74016000,0.0324,0.013523,0.002678,0.000431,0.002468
74017000,0.0324,0.013523,0.002678,0.000431,0.002586
74018000,0.0324,0.013523,0.002678,0.000431,0.002468
74019000,0.0324,0.013523,0.002678,0.000431,0.002821
74020000,0.0324,0.013523,0.002678,0.000431,0.004349
74021000,0.0324,0.013523,0.002678,0.000431,0.001645
74022000,0.0324,0.013523,0.002678,0.000431,0.001645
74023000,0.0324,0.013523,0.002678,0.000431,0.001645
74024000,0.0324,0.013523,0.002678,0.000431,0.001763
74025000,0.0324,0.013523,0.002678,0.000431,0.002586
74026000,0.0324,0.013523,0.002678,0.000431,0.002116
74027000,0.0324,0.013523,0.002678,0.000431,0.000705
74028000,0.0324,0.013523,0.002678,0.000431,0.000940
74029000,0.0324,0.013523,0.002678,0.000431,0.000823
74030000,0.0324,0.013523,0.002678,0.000431,0.001528
74031000,0.0324,0.013523,0.002678,0.000431,0.353995
74032000,0.0324,0.013523,0.002678,0.000431,0.691536
74033000,0.0324,0.013523,0.002678,0.000431,0.142327
74034000,0.0324,0.013523,0.002678,0.000431,0.133512
74035000,0.0324,0.013523,0.002678,0.000431,0.132102
74036000,0.0324,0.013523,0.002678,0.000431,0.606328
74037000,0.0324,0.013523,0.002678,0.000431,0.226712
74038000,0.0324,0.013523,0.002678,0.000431,0.310862
74039000,0.0324,0.013523,0.002678,0.000431,0.244929
74040000,0.0324,0.013523,0.002678,0.000431,0.142562
74041000,0.0324,0.013523,0.002678,0.000431,0.176645
74042000,0.0324,0.013523,0.002678,0.000431,0.089439
74043000,0.0324,0.013523,0.002678,0.000431,0.449780
74044000,0.0324,0.013523,0.002678,0.000431,0.075688
74045000,0.0324,0.013523,0.002678,0.000431,0.024916
74046000,0.0324,0.013523,0.002678,0.000431,0.023388
74047000,0.0324,0.013523,0.002678,0.000431,0.021743
74048000,0.0324,0.013523,0.002678,0.000431,0.016924
74049000,0.0324,0.013523,0.002678,0.000431,0.015631
74050000,0.0324,0.013523,0.002678,0.000431,0.011870
74051000,0.0324,0.013523,0.002678,0.000431,0.010930
74052000,0.0324,0.013523,0.002678,0.000431,0.011988
74053000,0.0324,0.013523,0.002678,0.000431,0.011400
74054000,0.0324,0.013523,0.002678,0.000431,0.013633
74055000,0.0324,0.013523,0.002678,0.000431,0.009755
74056000,0.0324,0.013523,0.002678,0.000431,0.009990
74057000,0.0324,0.013523,0.002678,0.000431,0.009402
74058000,0.0324,0.013523,0.002678,0.000431,0.009872
74059000,0.0324,0.013523,0.002678,0.000431,0.008227
74060000,0.0324,0.013523,0.002678,0.000431,0.008697
74061000,0.0324,0.013523,0.002678,0.000431,0.007639
74062000,0.0324,0.013523,0.002678,0.000431,0.009402
74063000,0.0324,0.013523,0.002678,0.000431,0.006464
74064000,0.0324,0.013523,0.002678,0.000431,0.006817
74065000,0.0324,0.013523,0.002678,0.000431,0.007052
74066000,0.0324,0.013523,0.002678,0.000431,0.009402
74067000,0.0324,0.013523,0.002678,0.000431,0.005171
74068000,0.0324,0.013523,0.002678,0.000431,0.004819
74069000,0.0324,0.013523,0.002678,0.000431,0.007052
74070000,0.0324,0.013523,0.002678,0.000431,0.006229
74071000,0.0324,0.013523,0.002678,0.000431,0.003291
74072000,0.0324,0.013523,0.002678,0.000431,0.003643
74073000,0.0324,0.013523,0.002678,0.000431,0.005054
74074000,0.0324,0.013523,0.002678,0.000431,0.002586
74075000,0.0324,0.013523,0.002678,0.000431,0.002351
74076000,0.0324,0.013523,0.002678,0.000431,0.002703
74077000,0.0324,0.013523,0.002678,0.000431,0.002586
74078000,0.0324,0.013523,0.002678,0.000431,0.002233
74079000,0.0324,0.013523,0.002678,0.000431,0.002703
74080000,0.0324,0.013523,0.002678,0.000431,0.002468
74081000,0.0324,0.013523,0.002678,0.000431,0.002586
74082000,0.0324,0.013523,0.002678,0.000431,0.002468
74083000,0.0324,0.013523,0.002678,0.000431,0.002351
74084000,0.0324,0.013523,0.002678,0.000431,0.002703
74085000,0.0324,0.013523,0.002678,0.000431,0.002468
74086000,0.0324,0.013523,0.002678,0.000431,0.002586
74087000,0.0324,0.013523,0.002678,0.000431,0.002468
74088000,0.0324,0.013523,0.002678,0.000431,0.002351
74089000,0.0324,0.013523,0.002678,0.000431,0.002703
74090000,0.0324,0.013523,0.002678,0.000431,0.002586
74091000,0.0324,0.013523,0.002678,0.000431,0.002351
74092000,0.0324,0.013523,0.002678,0.000431,0.002586
74093000,0.0324,0.013523,0.002678,0.000431,0.002468
74094000,0.0324,0.013523,0.002678,0.000431,0.002468
74095000,0.0324,0.013523,0.002678,0.000431,0.002703
74096000,0.0324,0.013523,0.002678,0.000431,0.002351
74097000,0.0324,0.013523,0.002678,0.000431,0.003878
74098000,0.0324,0.013523,0.002678,0.000431,0.001528
74099000,0.0324,0.013523,0.002678,0.000431,0.001880
74100000,0.0324,0.013523,0.002678,0.000431,0.001645
74101000,0.0324,0.013523,0.002678,0.000431,0.001645
74102000,0.0324,0.013523,0.002678,0.000431,0.001645
74103000,0.0324,0.013523,0.002678,0.000431,0.001528
74104000,0.0324,0.013523,0.002678,0.000431,0.001880
74105000,0.0324,0.013523,0.002678,0.000431,0.001645
74106000,0.0324,0.013523,0.002678,0.000431,0.001645
74107000,0.0324,0.013523,0.002678,0.000431,0.001763
74108000,0.0324,0.013523,0.002678,0.000431,0.001528
74109000,0.0324,0.013523,0.002678,0.000431,0.001763
74110000,0.0324,0.013523,0.002678,0.000431,0.001763
74111000,0.0324,0.013523,0.002678,0.000431,0.001528
74112000,0.0324,0.013523,0.002678,0.000431,0.001763
74113000,0.0324,0.013523,0.002678,0.000431,0.001645
74114000,0.0324,0.013523,0.002678,0.000431,0.001645
74115000,0.0324,0.013523,0.002678,0.000431,0.001763
74116000,0.0324,0.013523,0.002678,0.000431,0.001528
74117000,0.0324,0.013523,0.002678,0.000431,0.001763
74118000,0.0324,0.013523,0.002678,0.000431,0.001763
74119000,0.0324,0.013523,0.002678,0.000431,0.001645
74120000,0.0324,0.013523,0.002678,0.000431,0.001645
74121000,0.0324,0.013523,0.002678,0.000431,0.001645
74122000,0.0324,0.013523,0.002678,0.000431,0.001763
74123000,0.0324,0.013523,0.002678,0.000431,0.001645
74124000,0.0324,0.013523,0.002678,0.000431,0.001645
74125000,0.0324,0.013523,0.002678,0.000431,0.001645
74126000,0.0324,0.013523,0.002678,0.000431,0.001645
74127000,0.0324,0.013523,0.002678,0.000431,0.001763
74128000,0.0324,0.013523,0.002678,0.000431,0.001645
74129000,0.0324,0.013523,0.002678,0.000431,0.001763
74130000,0.0324,0.013523,0.002678,0.000431,0.001645
74131000,0.0324,0.013523,0.002678,0.000431,0.001528
74132000,0.0324,0.013523,0.002678,0.000431,0.001763
74133000,0.0324,0.013523,0.002678,0.000431,0.001763
74134000,0.0324,0.013523,0.002678,0.000431,0.001645
74135000,0.0324,0.013523,0.002678,0.000431,0.001645
74136000,0.0324,0.013523,0.002678,0.000431,0.001528
74137000,0.0324,0.013523,0.002678,0.000431,0.001880
74138000,0.0324,0.013523,0.002678,0.000431,0.001645
74139000,0.0324,0.013523,0.002678,0.000431,0.001645
74140000,0.0324,0.013523,0.002678,0.000431,0.001645
74141000,0.0324,0.013523,0.002678,0.000431,0.001645
74142000,0.0324,0.013523,0.002678,0.000431,0.001763
74143000,0.0324,0.013523,0.002678,0.000431,0.001763
74144000,0.0324,0.013523,0.002678,0.000431,0.001528
74145000,0.0324,0.013523,0.002678,0.000431,0.001763
74146000,0.0324,0.013523,0.002678,0.000431,0.001528
74147000,0.0324,0.013523,0.002678,0.000431,0.001763
74148000,0.0324,0.013523,0.002678,0.000431,0.001763
74149000,0.0324,0.013523,0.002678,0.000431,0.001645
74150000,0.0324,0.013523,0.002678,0.000431,0.001645
74151000,0.0324,0.013523,0.002678,0.000431,0.001528
74152000,0.0324,0.013523,0.002678,0.000431,0.001880
74153000,0.0324,0.013523,0.002678,0.000431,0.001645
74154000,0.0324,0.013523,0.002678,0.000431,0.001645
74155000,0.0324,0.013523,0.002678,0.000431,0.001645
74156000,0.0324,0.013523,0.002678,0.000431,0.001528
74157000,0.0324,0.013523,0.002678,0.000431,0.001880
74158000,0.0324,0.013523,0.002678,0.000431,0.001645
74159000,0.0324,0.013523,0.002678,0.000431,0.001645
74160000,0.0324,0.013523,0.002678,0.000431,0.001763
74161000,0.0324,0.013523,0.002678,0.000431,0.001528
74162000,0.0324,0.013523,0.002678,0.000431,0.001763
74163000,0.0324,0.013523,0.002678,0.000431,0.001763
74164000,0.0324,0.013523,0.002678,0.000431,0.001528
74165000,0.0324,0.013523,0.002678,0.000431,0.001763
74166000,0.0324,0.013523,0.002678,0.000431,0.001645
74167000,0.0324,0.013523,0.002678,0.000431,0.001645
74168000,0.0324,0.013523,0.002678,0.000431,0.001763
74169000,0.0324,0.013523,0.002678,0.000431,0.001528
74170000,0.0324,0.013523,0.002678,0.000431,0.001763
74171000,0.0324,0.013523,0.002678,0.000431,0.001763
74172000,0.0324,0.013523,0.002678,0.000431,0.001645
74173000,0.0324,0.013523,0.002678,0.000431,0.001645
74174000,0.0324,0.013523,0.002678,0.000431,0.001645
74175000,0.0324,0.013523,0.002678,0.000431,0.001645
74176000,0.0324,0.013523,0.002678,0.000431,0.001763
74177000,0.0324,0.013523,0.002678,0.000431,0.001645
74178000,0.0324,0.013523,0.002678,0.000431,0.001645
74179000,0.0324,0.013523,0.002678,0.000431,0.001528
74180000,0.0324,0.013523,0.002678,0.000431,0.001880
74181000,0.0324,0.013523,0.002678,0.000431,0.001645
74182000,0.0324,0.013523,0.002678,0.000431,0.001645
74183000,0.0324,0.013523,0.002678,0.000431,0.001763
74184000,0.0324,0.013523,0.002678,0.000431,0.001528
74185000,0.0324,0.013523,0.002678,0.000431,0.001763
74186000,0.0324,0.013523,0.002678,0.000431,0.001645
74187000,0.0324,0.013523,0.002678,0.000431,0.001645
74188000,0.0324,0.013523,0.002678,0.000431,0.001645
74189000,0.0324,0.013523,0.002678,0.000431,0.001645
74190000,0.0324,0.013523,0.002678,0.000431,0.001880
74191000,0.0324,0.013523,0.002678,0.000431,0.001528
74192000,0.0324,0.013523,0.002678,0.000431,0.001763
74193000,0.0324,0.013523,0.002678,0.000431,0.001645
74194000,0.0324,0.013523,0.002678,0.000431,0.001528
74195000,0.0324,0.013523,0.002678,0.000431,0.001763
74196000,0.0324,0.013523,0.002678,0.000431,0.001763
74197000,0.0324,0.013523,0.002678,0.000431,0.001528
74198000,0.0324,0.013523,0.002678,0.000431,0.001763
74199000,0.0324,0.013523,0.002678,0.000431,0.001528
74200000,0.0324,0.013523,0.002678,0.000431,0.001763
74201000,0.0324,0.013523,0.002678,0.000431,0.001763
74202000,0.0324,0.013523,0.002678,0.000431,0.001645
74203000,0.0324,0.013523,0.002678,0.000431,0.001763
74204000,0.0324,0.013523,0.002678,0.000431,0.001410
74205000,0.0324,0.013523,0.002678,0.000431,0.001880
74206000,0.0324,0.013523,0.002678,0.000431,0.001763
74207000,0.0324,0.013523,0.002678,0.000431,0.001528
74208000,0.0324,0.013523,0.002678,0.000431,0.001763
74209000,0.0324,0.013523,0.002678,0.000431,0.001528
74210000,0.0324,0.013523,0.002678,0.000431,0.001880
74211000,0.0324,0.013523,0.002678,0.000431,0.001528
74212000,0.0324,0.013523,0.002678,0.000431,0.001763
74213000,0.0324,0.013523,0.002678,0.000431,0.001763
74214000,0.0324,0.013523,0.002678,0.000431,0.001528
74215000,0.0324,0.013523,0.002678,0.000431,0.001763
74216000,0.0324,0.013523,0.002678,0.000431,0.001528
74217000,0.0324,0.013523,0.002678,0.000431,0.001645
74218000,0.0324,0.013523,0.002678,0.000431,0.001763
74219000,0.0324,0.013523,0.002678,0.000431,0.001763
74220000,0.0324,0.013523,0.002678,0.000431,0.001528
74221000,0.0324,0.013523,0.002678,0.000431,0.001763
74222000,0.0324,0.013523,0.002678,0.000431,0.001645
74223000,0.0324,0.013523,0.002678,0.000431,0.001645
74224000,0.0324,0.013523,0.002678,0.000431,0.001880
74225000,0.0324,0.013523,0.002678,0.000431,0.001528
74226000,0.0324,0.013523,0.002678,0.000431,0.001763
74227000,0.0324,0.013523,0.002678,0.000431,0.001410
74228000,0.0324,0.013523,0.002678,0.000431,0.001880
74229000,0.0324,0.013523,0.002678,0.000431,0.001763
74230000,0.0324,0.013523,0.002678,0.000431,0.001528
74231000,0.0324,0.013523,0.002678,0.000431,0.001763
74232000,0.0324,0.013523,0.002678,0.000431,0.001528
74233000,0.0324,0.013523,0.002678,0.000431,0.001880
74234000,0.0324,0.013523,0.002678,0.000431,0.001645
74235000,0.0324,0.013523,0.002678,0.000431,0.001645
74236000,0.0324,0.013523,0.002678,0.000431,0.001645
74237000,0.0324,0.013523,0.002678,0.000431,0.001528
74238000,0.0324,0.013523,0.002678,0.000431,0.001880
74239000,0.0324,0.013523,0.002678,0.000431,0.001645
74240000,0.0324,0.013523,0.002678,0.000431,0.001645
74241000,0.0324,0.013523,0.002678,0.000431,0.001528
74242000,0.0324,0.013523,0.002678,0.000431,0.001763
74243000,0.0324,0.013523,0.002678,0.000431,0.001528
74244000,0.0324,0.013523,0.002678,0.000431,0.001880
74245000,0.0324,0.013523,0.002678,0.000431,0.001528
74246000,0.0324,0.013523,0.002678,0.000431,0.001763
74247000,0.0324,0.013523,0.002678,0.000431,0.001410
74248000,0.0324,0.013523,0.002678,0.000431,0.001880
74249000,0.0324,0.013523,0.002678,0.000431,0.001880
74250000,0.0324,0.013523,0.002678,0.000431,0.001410
74251000,0.0324,0.013523,0.002678,0.000431,0.001880
74252000,0.0324,0.013523,0.002678,0.000431,0.001410
74253000,0.0324,0.013523,0.002678,0.000431,0.001880
74254000,0.0324,0.013523,0.002678,0.000431,0.001645
74255000,0.0324,0.013523,0.002678,0.000431,0.001645
74256000,0.0324,0.013523,0.002678,0.000431,0.001763
74257000,0.0324,0.013523,0.002678,0.000431,0.001528
74258000,0.0324,0.013523,0.002678,0.000431,0.001880
74259000,0.0324,0.013523,0.002678,0.000431,0.001528
74260000,0.0324,0.013523,0.002678,0.000431,0.001763
74261000,0.0324,0.013523,0.002678,0.000431,0.001528
74262000,0.0324,0.013523,0.002678,0.000431,0.001763
74263000,0.0324,0.013523,0.002678,0.000431,0.001645
74264000,0.0324,0.013523,0.002678,0.000431,0.001645
74265000,0.0324,0.013523,0.002678,0.000431,0.001645
74266000,0.0324,0.013523,0.002678,0.000431,0.001645
74267000,0.0324,0.013523,0.002678,0.000431,0.001763
74268000,0.0324,0.013523,0.002678,0.000431,0.001645
74269000,0.0324,0.013523,0.002678,0.000431,0.001763
74270000,0.0324,0.013523,0.002678,0.000431,0.001528
74271000,0.0324,0.013523,0.002678,0.000431,0.001763
74272000,0.0324,0.013523,0.002678,0.000431,0.001528
74273000,0.0324,0.013523,0.002678,0.000431,0.001763
74274000,0.0324,0.013523,0.002678,0.000431,0.001880
74275000,0.0324,0.013523,0.002678,0.000431,0.001410
74276000,0.0324,0.013523,0.002678,0.000431,0.001880
74277000,0.0324,0.013523,0.002678,0.000431,0.001528
74278000,0.0324,0.013523,0.002678,0.000431,0.001763
74279000,0.0324,0.013523,0.002678,0.000431,0.001645
74280000,0.0324,0.013523,0.002678,0.000431,0.001645
74281000,0.0324,0.013523,0.002678,0.000431,0.001880
74282000,0.0324,0.013523,0.002678,0.000431,0.001410
74283000,0.0324,0.013523,0.002678,0.000431,0.001880
74284000,0.0324,0.013523,0.002678,0.000431,0.001645
74285000,0.0324,0.013523,0.002678,0.000431,0.001645
74286000,0.0324,0.013523,0.002678,0.000431,0.001645
74287000,0.0324,0.013523,0.002678,0.000431,0.001645
74288000,0.0324,0.013523,0.002678,0.000431,0.001763
74289000,0.0324,0.013523,0.002678,0.000431,0.001528
74290000,0.0324,0.013523,0.002678,0.000431,0.001763
74291000,0.0324,0.013523,0.002678,0.000431,0.001645
74292000,0.0324,0.013523,0.002678,0.000431,0.001763
74293000,0.0324,0.013523,0.002678,0.000431,0.001528
74294000,0.0324,0.013523,0.002678,0.000431,0.001763
74295000,0.0324,0.013523,0.002678,0.000431,0.001410
74296000,0.0324,0.013523,0.002678,0.000431,0.001880
74297000,0.0324,0.013523,0.002678,0.000431,0.001880
74298000,0.0324,0.013523,0.002678,0.000431,0.001410
74299000,0.0324,0.013523,0.002678,0.000431,0.001880
74300000,0.0324,0.013523,0.002678,0.000431,0.001410
74301000,0.0324,0.013523,0.002678,0.000431,0.001880
74302000,0.0324,0.013523,0.002678,0.000431,0.001763
74303000,0.0324,0.013523,0.002678,0.000431,0.001528
74304000,0.0324,0.013523,0.002678,0.000431,0.001763
74305000,0.0324,0.013523,0.002678,0.000431,0.001528
74306000,0.0324,0.013523,0.002678,0.000431,0.001880
74307000,0.0324,0.013523,0.002678,0.000431,0.001528
74308000,0.0324,0.013523,0.002678,0.000431,0.001763
74309000,0.0324,0.013523,0.002678,0.000431,0.001763
74310000,0.0324,0.013523,0.002678,0.000431,0.001528
74311000,0.0324,0.013523,0.002678,0.000431,0.001763
74312000,0.0324,0.013523,0.002678,0.000431,0.001528
74313000,0.0324,0.013523,0.002678,0.000431,0.001880
74314000,0.0324,0.013523,0.002678,0.000431,0.001528
74315000,0.0324,0.013523,0.002678,0.000431,0.001645
74316000,0.0324,0.013523,0.002678,0.000431,0.001763
74317000,0.0324,0.013523,0.002678,0.000431,0.001645
74318000,0.0324,0.013523,0.002678,0.000431,0.001763
74319000,0.0324,0.013523,0.002678,0.000431,0.001528
74320000,0.0324,0.013523,0.002678,0.000431,0.001645
74321000,0.0324,0.013523,0.002678,0.000431,0.001645
74322000,0.0324,0.013523,0.002678,0.000431,0.001880
74323000,0.0324,0.013523,0.002678,0.000431,0.001410
74324000,0.0324,0.013523,0.002678,0.000431,0.001880
74325000,0.0324,0.013523,0.002678,0.000431,0.001645
74326000,0.0324,0.013523,0.002678,0.000431,0.001645
74327000,0.0324,0.013523,0.002678,0.000431,0.001880
74328000,0.0324,0.013523,0.002678,0.000431,0.001410
74329000,0.0324,0.013523,0.002678,0.000431,0.001880
74330000,0.0324,0.013523,0.002678,0.000431,0.001528
74331000,0.0324,0.013523,0.002678,0.000431,0.001763
74332000,0.0324,0.013523,0.002678,0.000431,0.001763
74333000,0.0324,0.013523,0.002678,0.000431,0.001528
74334000,0.0324,0.013523,0.002678,0.000431,0.001763
74335000,0.0324,0.013523,0.002678,0.000431,0.001645
74336000,0.0324,0.013523,0.002678,0.000431,0.001763
74337000,0.0324,0.013523,0.002678,0.000431,0.001528
74338000,0.0324,0.013523,0.002678,0.000431,0.001763
74339000,0.0324,0.013523,0.002678,0.000431,0.001645
74340000,0.0324,0.013523,0.002678,0.000431,0.001645
74341000,0.0324,0.013523,0.002678,0.000431,0.001645
74342000,0.0324,0.013523,0.002678,0.000431,0.001645
74343000,0.0324,0.013523,0.002678,0.000431,0.001528
74344000,0.0324,0.013523,0.002678,0.000431,0.001880
74345000,0.0324,0.013523,0.002678,0.000431,0.001763
74346000,0.0324,0.013523,0.002678,0.000431,0.001528
74347000,0.0324,0.013523,0.002678,0.000431,0.001763
74348000,0.0324,0.013523,0.002678,0.000431,0.001410
74349000,0.0324,0.013523,0.002678,0.000431,0.001880
74350000,0.0324,0.013523,0.002678,0.000431,0.001880
74351000,0.0324,0.013523,0.002678,0.000431,0.001410
74352000,0.0324,0.013523,0.002678,0.000431,0.001880
74353000,0.0324,0.013523,0.002678,0.000431,0.001410
74354000,0.0324,0.013523,0.002678,0.000431,0.001880
74355000,0.0324,0.013523,0.002678,0.000431,0.001763
74356000,0.0324,0.013523,0.002678,0.000431,0.001528
74357000,0.0324,0.013523,0.002678,0.000431,0.001763
74358000,0.0324,0.013523,0.002678,0.000431,0.001528
74359000,0.0324,0.013523,0.002678,0.000431,0.001880
74360000,0.0324,0.013523,0.002678,0.000431,0.001528
74361000,0.0324,0.013523,0.002678,0.000431,0.001763
74362000,0.0324,0.013523,0.002678,0.000431,0.001763
74363000,0.0324,0.013523,0.002678,0.000431,0.001528
74364000,0.0324,0.013523,0.002678,0.000431,0.001763
74365000,0.0324,0.013523,0.002678,0.000431,0.001645
74366000,0.0324,0.013523,0.002678,0.000431,0.001645
74367000,0.0324,0.013523,0.002678,0.000431,0.001645
74368000,0.0324,0.013523,0.002678,0.000431,0.001645
74369000,0.0324,0.013523,0.002678,0.000431,0.001763
74370000,0.0324,0.013523,0.002678,0.000431,0.001528
74371000,0.0324,0.013523,0.002678,0.000431,0.001763
74372000,0.0324,0.013523,0.002678,0.000431,0.001763
74373000,0.0324,0.013523,0.002678,0.000431,0.001645
74374000,0.0324,0.013523,0.002678,0.000431,0.001645
74375000,0.0324,0.013523,0.002678,0.000431,0.001528
74376000,0.0324,0.013523,0.002678,0.000431,0.001645
74377000,0.0324,0.013523,0.002678,0.000431,0.001880
74378000,0.0324,0.013523,0.002678,0.000431,0.001645
74379000,0.0324,0.013523,0.002678,0.000431,0.001645
74380000,0.0324,0.013523,0.002678,0.000431,0.001645
74381000,0.0324,0.013523,0.002678,0.000431,0.001645
74382000,0.0324,0.013523,0.002678,0.000431,0.001763
74383000,0.0324,0.013523,0.002678,0.000431,0.001763
74384000,0.0324,0.013523,0.002678,0.000431,0.001528
74385000,0.0324,0.013523,0.002678,0.000431,0.001763
74386000,0.0324,0.013523,0.002678,0.000431,0.001528
74387000,0.0324,0.013523,0.002678,0.000431,0.001763
74388000,0.0324,0.013523,0.002678,0.000431,0.001763
74389000,0.0324,0.013523,0.002678,0.000431,0.001528
74390000,0.0324,0.013523,0.002678,0.000431,0.001763
74391000,0.0324,0.013523,0.002678,0.000431,0.001645
74392000,0.0324,0.013523,0.002678,0.000431,0.001763
74393000,0.0324,0.013523,0.002678,0.000431,0.001645
74394000,0.0324,0.013523,0.002678,0.000431,0.001645
74395000,0.0324,0.013523,0.002678,0.000431,0.001763
74396000,0.0324,0.013523,0.002678,0.000431,0.001528
74397000,0.0324,0.013523,0.002678,0.000431,0.001763
74398000,0.0324,0.013523,0.002678,0.000431,0.001528
74399000,0.0324,0.013523,0.002678,0.000431,0.001880
74400000,0.0324,0.013523,0.002678,0.000431,0.001528
74401000,0.0324,0.013523,0.002678,0.000431,0.001645
74402000,0.0324,0.013523,0.002678,0.000431,0.001880
74403000,0.0324,0.013523,0.002678,0.000431,0.001528
74404000,0.0324,0.013523,0.002678,0.000431,0.001763
74405000,0.0324,0.013523,0.002678,0.000431,0.001645
74406000,0.0324,0.013523,0.002678,0.000431,0.001528
74407000,0.0324,0.013523,0.002678,0.000431,0.001763
74408000,0.0324,0.013523,0.002678,0.000431,0.001763
74409000,0.0324,0.013523,0.002678,0.000431,0.001528
74410000,0.0324,0.013523,0.002678,0.000431,0.001763
74411000,0.0324,0.013523,0.002678,0.000431,0.001645
74412000,0.0324,0.013523,0.002678,0.000431,0.001763
74413000,0.0324,0.013523,0.002678,0.000431,0.001763
74414000,0.0324,0.013523,0.002678,0.000431,0.001528
74415000,0.0324,0.013523,0.002678,0.000431,0.001763
74416000,0.0324,0.013523,0.002678,0.000431,0.001528
74417000,0.0324,0.013523,0.002678,0.000431,0.001763
74418000,0.0324,0.013523,0.002678,0.000431,0.001645
74419000,0.0324,0.013523,0.002678,0.000431,0.001645
74420000,0.0324,0.013523,0.002678,0.000431,0.001763
74421000,0.0324,0.013523,0.002678,0.000431,0.001645
74422000,0.0324,0.013523,0.002678,0.000431,0.001763
74423000,0.0324,0.013523,0.002678,0.000431,0.001410
74424000,0.0324,0.013523,0.002678,0.000431,0.001880
74425000,0.0324,0.013523,0.002678,0.000431,0.001763
74426000,0.0324,0.013523,0.002678,0.000431,0.001528
74427000,0.0324,0.013523,0.002678,0.000431,0.001763
74428000,0.0324,0.013523,0.002678,0.000431,0.001528
74429000,0.0324,0.013523,0.002678,0.000431,0.001880
74430000,0.0324,0.013523,0.002678,0.000431,0.001528
74431000,0.0324,0.013523,0.002678,0.000431,0.001763
74432000,0.0324,0.013523,0.002678,0.000431,0.001763
74433000,0.0324,0.013523,0.002678,0.000431,0.001528
74434000,0.0324,0.013523,0.002678,0.000431,0.001645
74435000,0.0324,0.013523,0.002678,0.000431,0.001763
74436000,0.0324,0.013523,0.002678,0.000431,0.001763
74437000,0.0324,0.013523,0.002678,0.000431,0.001528
74438000,0.0324,0.013523,0.002678,0.000431,0.001763
74439000,0.0324,0.013523,0.002678,0.000431,0.001528
74440000,0.0324,0.013523,0.002678,0.000431,0.001763
74441000,0.0324,0.013523,0.002678,0.000431,0.002938
74442000,0.0324,0.013523,0.002678,0.000431,0.000705
74443000,0.0324,0.013523,0.002678,0.000431,0.000940
74444000,0.0324,0.013523,0.002678,0.000431,0.000823
74445000,0.0324,0.013523,0.002678,0.000431,0.000823
74446000,0.0324,0.013523,0.002678,0.000431,0.000705
74447000,0.0324,0.013523,0.002678,0.000431,0.000940
74448000,0.0324,0.013523,0.002678,0.000431,0.000940
74449000,0.0324,0.013523,0.002678,0.000431,0.000705
74450000,0.0324,0.013523,0.002678,0.000431,0.000940
74451000,0.0324,0.013523,0.002678,0.000431,0.000705
74452000,0.0324,0.013523,0.002678,0.000431,0.000940
74453000,0.0324,0.013523,0.002678,0.000431,0.000823
74454000,0.0324,0.013523,0.002678,0.000431,0.000823
74455000,0.0324,0.013523,0.002678,0.000431,0.000940
74456000,0.0324,0.013523,0.002678,0.000431,0.000705
74457000,0.0324,0.013523,0.002678,0.000431,0.000940
74458000,0.0324,0.013523,0.002678,0.000431,0.000705
74459000,0.0324,0.013523,0.002678,0.000431,0.000940
74460000,0.0324,0.013523,0.002678,0.000431,0.000823
74461000,0.0324,0.013523,0.002678,0.000431,0.000823
74462000,0.0324,0.013523,0.002678,0.000431,0.000823
74463000,0.0324,0.013523,0.002678,0.000431,0.000823
74464000,0.0324,0.013523,0.002678,0.000431,0.000940
74465000,0.0324,0.013523,0.002678,0.000431,0.000705
74466000,0.0324,0.013523,0.002678,0.000431,0.000823
74467000,0.0324,0.013523,0.002678,0.000431,0.000940
74468000,0.0324,0.013523,0.002678,0.000431,0.000823
74469000,0.0324,0.013523,0.002678,0.000431,0.000823
74470000,0.0324,0.013523,0.002678,0.000431,0.000823
74471000,0.0324,0.013523,0.002678,0.000431,0.000705
74472000,0.0324,0.013523,0.002678,0.000431,0.000940
74473000,0.0324,0.013523,0.002678,0.000431,0.000940
74474000,0.0324,0.013523,0.002678,0.000431,0.000705
74475000,0.0324,0.013523,0.002678,0.000431,0.000940
74476000,0.0324,0.013523,0.002678,0.000431,0.000705
74477000,0.0324,0.013523,0.002678,0.000431,0.000940
74478000,0.0324,0.013523,0.002678,0.000431,0.000940
74479000,0.0324,0.013523,0.002678,0.000431,0.000705
74480000,0.0324,0.013523,0.002678,0.000431,0.000940
74481000,0.0324,0.013523,0.002678,0.000431,0.000705
74482000,0.0324,0.013523,0.002678,0.000431,0.000940
74483000,0.0324,0.013523,0.002678,0.000431,0.000823
74484000,0.0324,0.013523,0.002678,0.000431,0.000823
74485000,0.0324,0.013523,0.002678,0.000431,0.000823
74486000,0.0324,0.013523,0.002678,0.000431,0.000823
74487000,0.0324,0.013523,0.002678,0.000431,0.000940
74488000,0.0324,0.013523,0.002678,0.000431,0.000705
74489000,0.0324,0.013523,0.002678,0.000431,0.000940
74490000,0.0324,0.013523,0.002678,0.000431,0.000823
74491000,0.0324,0.013523,0.002678,0.000431,0.000823
74492000,0.0324,0.013523,0.002678,0.000431,0.000823
74493000,0.0324,0.013523,0.002678,0.000431,0.000823
74494000,0.0324,0.013523,0.002678,0.000431,0.000940
74495000,0.0324,0.013523,0.002678,0.000431,0.000705
74496000,0.0324,0.013523,0.002678,0.000431,0.000940
74497000,0.0324,0.013523,0.002678,0.000431,0.000823
74498000,0.0324,0.013523,0.002678,0.000431,0.000823
74499000,0.0324,0.013523,0.002678,0.000431,0.000705
74500000,0.0324,0.013523,0.002678,0.000431,0.000940
74501000,0.0324,0.013523,0.002678,0.000431,0.000940
74502000,0.0324,0.013523,0.002678,0.000431,0.000705
74503000,0.0324,0.013523,0.002678,0.000431,0.000940
74504000,0.0324,0.013523,0.002678,0.000431,0.000705
74505000,0.0324,0.013523,0.002678,0.000431,0.000940
74506000,0.0324,0.013523,0.002678,0.000431,0.000940
74507000,0.0324,0.013523,0.002678,0.000431,0.000705
74508000,0.0324,0.013523,0.002678,0.000431,0.000940
74509000,0.0324,0.013523,0.002678,0.000431,0.000705
74510000,0.0324,0.013523,0.002678,0.000431,0.000940
74511000,0.0324,0.013523,0.002678,0.000431,0.000823
74512000,0.0324,0.013523,0.002678,0.000431,0.000823
74513000,0.0324,0.013523,0.002678,0.000431,0.000823
74514000,0.0324,0.013523,0.002678,0.000431,0.000823
74515000,0.0324,0.013523,0.002678,0.000431,0.000940
74516000,0.0324,0.013523,0.002678,0.000431,0.000823
74517000,0.0324,0.013523,0.002678,0.000431,0.000823
74518000,0.0324,0.013523,0.002678,0.000431,0.000823
74519000,0.0324,0.013523,0.002678,0.000431,0.000823
74520000,0.0324,0.013523,0.002678,0.000431,0.000823
74521000,0.0324,0.013523,0.002678,0.000431,0.000823
74522000,0.0324,0.013523,0.002678,0.000431,0.000940
74523000,0.0324,0.013523,0.002678,0.000431,0.000705
74524000,0.0324,0.013523,0.002678,0.000431,0.000823
74525000,0.0324,0.013523,0.002678,0.000431,0.000940
74526000,0.0324,0.013523,0.002678,0.000431,0.000823
74527000,0.0324,0.013523,0.002678,0.000431,0.000823
74528000,0.0324,0.013523,0.002678,0.000431,0.000823
74529000,0.0324,0.013523,0.002678,0.000431,0.000823
74530000,0.0324,0.013523,0.002678,0.000431,0.000823
74531000,0.0324,0.013523,0.002678,0.000431,0.000940
74532000,0.0324,0.013523,0.002678,0.000431,0.000823
74533000,0.0324,0.013523,0.002678,0.000431,0.000823
74534000,0.0324,0.013523,0.002678,0.000431,0.000705
74535000,0.0324,0.013523,0.002678,0.000431,0.000940
74536000,0.0324,0.013523,0.002678,0.000431,0.000940
74537000,0.0324,0.013523,0.002678,0.000431,0.000705
74538000,0.0324,0.013523,0.002678,0.000431,0.000940
74539000,0.0324,0.013523,0.002678,0.000431,0.000705
74540000,0.0324,0.013523,0.002678,0.000431,0.000940
74541000,0.0324,0.013523,0.002678,0.000431,0.000823
74542000,0.0324,0.013523,0.002678,0.000431,0.000823
74543000,0.0324,0.013523,0.002678,0.000431,0.000823
74544000,0.0324,0.013523,0.002678,0.000431,0.000823
74545000,0.0324,0.013523,0.002678,0.000431,0.000940
74546000,0.0324,0.013523,0.002678,0.000431,0.000705
74547000,0.0324,0.013523,0.002678,0.000431,0.000940
74548000,0.0324,0.013523,0.002678,0.000431,0.000823
74549000,0.0324,0.013523,0.002678,0.000431,0.000823
74550000,0.0324,0.013523,0.002678,0.000431,0.000823
74551000,0.0324,0.013523,0.002678,0.000431,0.000823
74552000,0.0324,0.013523,0.002678,0.000431,0.000940
74553000,0.0324,0.013523,0.002678,0.000431,0.000705
74554000,0.0324,0.013523,0.002678,0.000431,0.000940
74555000,0.0324,0.013523,0.002678,0.000431,0.000823
74556000,0.0324,0.013523,0.002678,0.000431,0.000823
74557000,0.0324,0.013523,0.002678,0.000431,0.000705
74558000,0.0324,0.013523,0.002678,0.000431,0.000940
74559000,0.0324,0.013523,0.002678,0.000431,0.000940
74560000,0.0324,0.013523,0.002678,0.000431,0.000705
74561000,0.0324,0.013523,0.002678,0.000431,0.000940
74562000,0.0324,0.013523,0.002678,0.000431,0.000705
74563000,0.0324,0.013523,0.002678,0.000431,0.000940
74564000,0.0324,0.013523,0.002678,0.000431,0.000823
74565000,0.0324,0.013523,0.002678,0.000431,0.000823
74566000,0.0324,0.013523,0.002678,0.000431,0.000940
74567000,0.0324,0.013523,0.002678,0.000431,0.000705
74568000,0.0324,0.013523,0.002678,0.000431,0.000940
74569000,0.0324,0.013523,0.002678,0.000431,0.000823
74570000,0.0324,0.013523,0.002678,0.000431,0.000823
74571000,0.0324,0.013523,0.002678,0.000431,0.000823
74572000,0.0324,0.013523,0.002678,0.000431,0.000823
74573000,0.0324,0.013523,0.002678,0.000431,0.000823
74574000,0.0324,0.013523,0.002678,0.000431,0.000823
74575000,0.0324,0.013523,0.002678,0.000431,0.000940
74576000,0.0324,0.013523,0.002678,0.000431,0.000823
74577000,0.0324,0.013523,0.002678,0.000431,0.000823
74578000,0.0324,0.013523,0.002678,0.000431,0.000823
74579000,0.0324,0.013523,0.002678,0.000431,0.000823
74580000,0.0324,0.013523,0.002678,0.000431,0.000823
74581000,0.0324,0.013523,0.002678,0.000431,0.000823
74582000,0.0324,0.013523,0.002678,0.000431,0.000823
74583000,0.0324,0.013523,0.002678,0.000431,0.000823
74584000,0.0324,0.013523,0.002678,0.000431,0.000940
74585000,0.0324,0.013523,0.002678,0.000431,0.000823
74586000,0.0324,0.013523,0.002678,0.000431,0.000823
74587000,0.0324,0.013523,0.002678,0.000431,0.000705
74588000,0.0324,0.013523,0.002678,0.000431,0.000940
74589000,0.0324,0.013523,0.002678,0.000431,0.000940
74590000,0.0324,0.013523,0.002678,0.000431,0.000705
74591000,0.0324,0.013523,0.002678,0.000431,0.000940
74592000,0.0324,0.013523,0.002678,0.000431,0.000705
74593000,0.0324,0.013523,0.002678,0.000431,0.000940
74594000,0.0324,0.013523,0.002678,0.000431,0.000940
74595000,0.0324,0.013523,0.002678,0.000431,0.000705
74596000,0.0324,0.013523,0.002678,0.000431,0.000940
74597000,0.0324,0.013523,0.002678,0.000431,0.000705
74598000,0.0324,0.013523,0.002678,0.000431,0.000940
74599000,0.0324,0.013523,0.002678,0.000431,0.000823
74600000,0.0324,0.013523,0.002678,0.000431,0.000823
74601000,0.0324,0.013523,0.002678,0.000431,0.000940
74602000,0.0324,0.013523,0.002678,0.000431,0.000705
74603000,0.0324,0.013523,0.002678,0.000431,0.000940
74604000,0.0324,0.013523,0.002678,0.000431,0.000823
74605000,0.0324,0.013523,0.002678,0.000431,0.000823
74606000,0.0324,0.013523,0.002678,0.000431,0.000823
74607000,0.0324,0.013523,0.002678,0.000431,0.000823
74608000,0.0324,0.013523,0.002678,0.000431,0.000823
74609000,0.0324,0.013523,0.002678,0.000431,0.000823
74610000,0.0324,0.013523,0.002678,0.000431,0.000940
74611000,0.0324,0.013523,0.002678,0.000431,0.000705
74612000,0.0324,0.013523,0.002678,0.000431,0.000940
74613000,0.0324,0.013523,0.002678,0.000431,0.000823
74614000,0.0324,0.013523,0.002678,0.000431,0.000823
74615000,0.0324,0.013523,0.002678,0.000431,0.000823
74616000,0.0324,0.013523,0.002678,0.000431,0.000823
74617000,0.0324,0.013523,0.002678,0.000431,0.000940
74618000,0.0324,0.013523,0.002678,0.000431,0.000705
74619000,0.0324,0.013523,0.002678,0.000431,0.000940
74620000,0.0324,0.013523,0.002678,0.000431,0.000705
74621000,0.0324,0.013523,0.002678,0.000431,0.000940
74622000,0.0324,0.013523,0.002678,0.000431,0.000940
74623000,0.0324,0.013523,0.002678,0.000431,0.000705
74624000,0.0324,0.013523,0.002678,0.000431,0.000940
74625000,0.0324,0.013523,0.002678,0.000431,0.000705
74626000,0.0324,0.013523,0.002678,0.000431,0.000940
74627000,0.0324,0.013523,0.002678,0.000431,0.000823
74628000,0.0324,0.013523,0.002678,0.000431,0.000823
74629000,0.0324,0.013523,0.002678,0.000431,0.000940
74630000,0.0324,0.013523,0.002678,0.000431,0.000705
74631000,0.0324,0.013523,0.002678,0.000431,0.000940
74632000,0.0324,0.013523,0.002678,0.000431,0.000823
74633000,0.0324,0.013523,0.002678,0.000431,0.000823
74634000,0.0324,0.013523,0.002678,0.000431,0.000823
74635000,0.0324,0.013523,0.002678,0.000431,0.000823
74636000,0.0324,0.013523,0.002678,0.000431,0.000823
74637000,0.0324,0.013523,0.002678,0.000431,0.000823
74638000,0.0324,0.013523,0.002678,0.000431,0.000940
74639000,0.0324,0.013523,0.002678,0.000431,0.000823
74640000,0.0324,0.013523,0.002678,0.000431,0.000823
74641000,0.0324,0.013523,0.002678,0.000431,0.000823
74642000,0.0324,0.013523,0.002678,0.000431,0.000823
74643000,0.0324,0.013523,0.002678,0.000431,0.000823
74644000,0.0324,0.013523,0.002678,0.000431,0.000823
74645000,0.0324,0.013523,0.002678,0.000431,0.000823
74646000,0.0324,0.013523,0.002678,0.000431,0.000823
74647000,0.0324,0.013523,0.002678,0.000431,0.000940
74648000,0.0324,0.013523,0.002678,0.000431,0.000823
74649000,0.0324,0.013523,0.002678,0.000431,0.000823
74650000,0.0324,0.013523,0.002678,0.000431,0.000705
74651000,0.0324,0.013523,0.002678,0.000431,0.000940
74652000,0.0324,0.013523,0.002678,0.000431,0.000940
74653000,0.0324,0.013523,0.002678,0.000431,0.000705
74654000,0.0324,0.013523,0.002678,0.000431,0.000940
74655000,0.0324,0.013523,0.002678,0.000431,0.000705
74656000,0.0324,0.013523,0.002678,0.000431,0.000940
74657000,0.0324,0.013523,0.002678,0.000431,0.000940
74658000,0.0324,0.013523,0.002678,0.000431,0.000705
74659000,0.0324,0.013523,0.002678,0.000431,0.000940
74660000,0.0324,0.013523,0.002678,0.000431,0.000705
74661000,0.0324,0.013523,0.002678,0.000431,0.000940
74662000,0.0324,0.013523,0.002678,0.000431,0.000823
74663000,0.0324,0.013523,0.002678,0.000431,0.000823
74664000,0.0324,0.013523,0.002678,0.000431,0.000940
74665000,0.0324,0.013523,0.002678,0.000431,0.000705
74666000,0.0324,0.013523,0.002678,0.000431,0.000940
74667000,0.0324,0.013523,0.002678,0.000431,0.000823
74668000,0.0324,0.013523,0.002678,0.000431,0.000823
74669000,0.0324,0.013523,0.002678,0.000431,0.000823
74670000,0.0324,0.013523,0.002678,0.000431,0.000823
74671000,0.0324,0.013523,0.002678,0.000431,0.000823
74672000,0.0324,0.013523,0.002678,0.000431,0.000823
74673000,0.0324,0.013523,0.002678,0.000431,0.000940
74674000,0.0324,0.013523,0.002678,0.000431,0.000705
74675000,0.0324,0.013523,0.002678,0.000431,0.000940
74676000,0.0324,0.013523,0.002678,0.000431,0.000823
74677000,0.0324,0.013523,0.002678,0.000431,0.000823
74678000,0.0324,0.013523,0.002678,0.000431,0.000823
74679000,0.0324,0.013523,0.002678,0.000431,0.000823
74680000,0.0324,0.013523,0.002678,0.000431,0.000940
74681000,0.0324,0.013523,0.002678,0.000431,0.000705
74682000,0.0324,0.013523,0.002678,0.000431,0.000940
74683000,0.0324,0.013523,0.002678,0.000431,0.000705
74684000,0.0324,0.013523,0.002678,0.000431,0.000940
74685000,0.0324,0.013523,0.002678,0.000431,0.000823
74686000,0.0324,0.013523,0.002678,0.000431,0.000823
74687000,0.0324,0.013523,0.002678,0.000431,0.000940
74688000,0.0324,0.013523,0.002678,0.000431,0.000705
74689000,0.0324,0.013523,0.002678,0.000431,0.000940
74690000,0.0324,0.013523,0.002678,0.000431,0.000823
74691000,0.0324,0.013523,0.002678,0.000431,0.000823
74692000,0.0324,0.013523,0.002678,0.000431,0.000823
74693000,0.0324,0.013523,0.002678,0.000431,0.000823
74694000,0.0324,0.013523,0.002678,0.000431,0.000940
74695000,0.0324,0.013523,0.002678,0.000431,0.000705
74696000,0.0324,0.013523,0.002678,0.000431,0.000940
74697000,0.0324,0.013523,0.002678,0.000431,0.000823
74698000,0.0324,0.013523,0.002678,0.000431,0.000823
74699000,0.0324,0.013523,0.002678,0.000431,0.000823
74700000,0.0324,0.013523,0.002678,0.000431,0.000823
74701000,0.0324,0.013523,0.002678,0.000431,0.000940
74702000,0.0324,0.013523,0.002678,0.000431,0.000705
74703000,0.0324,0.013523,0.002678,0.000431,0.000823
74704000,0.0324,0.013523,0.002678,0.000431,0.000823
74705000,0.0324,0.013523,0.002678,0.000431,0.000940
74706000,0.0324,0.013523,0.002678,0.000431,0.000823
74707000,0.0324,0.013523,0.002678,0.000431,0.000823
74708000,0.0324,0.013523,0.002678,0.000431,0.000705
74709000,0.0324,0.013523,0.002678,0.000431,0.000940
74710000,0.0324,0.013523,0.002678,0.000431,0.000940
74711000,0.0324,0.013523,0.002678,0.000431,0.000705
74712000,0.0324,0.013523,0.002678,0.000431,0.000940
74713000,0.0324,0.013523,0.002678,0.000431,0.000705
74714000,0.0324,0.013523,0.002678,0.000431,0.000940
74715000,0.0324,0.013523,0.002678,0.000431,0.000823
74716000,0.0324,0.013523,0.002678,0.000431,0.000823
74717000,0.0324,0.013523,0.002678,0.000431,0.000940
74718000,0.0324,0.013523,0.002678,0.000431,0.000705
74719000,0.0324,0.013523,0.002678,0.000431,0.000940
74720000,0.0324,0.013523,0.002678,0.000431,0.000823
74721000,0.0324,0.013523,0.002678,0.000431,0.000823
74722000,0.0324,0.013523,0.002678,0.000431,0.000823
74723000,0.0324,0.013523,0.002678,0.000431,0.000823
74724000,0.0324,0.013523,0.002678,0.000431,0.000823
74725000,0.0324,0.013523,0.002678,0.000431,0.000823
74726000,0.0324,0.013523,0.002678,0.000431,0.000940
74727000,0.0324,0.013523,0.002678,0.000431,0.000823
74728000,0.0324,0.013523,0.002678,0.000431,0.000823
74729000,0.0324,0.013523,0.002678,0.000431,0.000823
74730000,0.0324,0.013523,0.002678,0.000431,0.000823
74731000,0.0324,0.013523,0.002678,0.000431,0.000823
74732000,0.0324,0.013523,0.002678,0.000431,0.000823
74733000,0.0324,0.013523,0.002678,0.000431,0.000940
74734000,0.0324,0.013523,0.002678,0.000431,0.000705
74735000,0.0324,0.013523,0.002678,0.000431,0.000940
74736000,0.0324,0.013523,0.002678,0.000431,0.001410
74737000,0.0324,0.013523,0.002678,0.000431,0.323555
74738000,0.0324,0.013523,0.002678,0.000431,0.682486
74739000,0.0324,0.013523,0.002678,0.000431,0.142209
74740000,0.0324,0.013523,0.002678,0.000431,0.132689
74741000,0.0324,0.013523,0.002678,0.000431,0.132454
74742000,0.0324,0.013523,0.002678,0.000431,0.603742
74743000,0.0324,0.013523,0.002678,0.000431,0.217545
74744000,0.0324,0.013523,0.002678,0.000431,0.271843
74745000,0.0324,0.013523,0.002678,0.000431,0.295818
74746000,0.0324,0.013523,0.002678,0.000431,0.139741
74747000,0.0324,0.013523,0.002678,0.000431,0.144442
74748000,0.0324,0.013523,0.002678,0.000431,0.105423
74749000,0.0324,0.013523,0.002678,0.000431,0.390781
74750000,0.0324,0.013523,0.002678,0.000431,0.173707
74751000,0.0324,0.013523,0.002678,0.000431,0.032673
74752000,0.0324,0.013523,0.002678,0.000431,0.027031
74753000,0.0324,0.013523,0.002678,0.000431,0.022918
74754000,0.0324,0.013523,0.002678,0.000431,0.021390
74755000,0.0324,0.013523,0.002678,0.000431,0.019745
74756000,0.0324,0.013523,0.002678,0.000431,0.021390
74757000,0.0324,0.013523,0.002678,0.000431,0.015749
74758000,0.0324,0.013523,0.002678,0.000431,0.013751
74759000,0.0324,0.013523,0.002678,0.000431,0.013398
74760000,0.0324,0.013523,0.002678,0.000431,0.011518
74761000,0.0324,0.013523,0.002678,0.000431,0.008815
74762000,0.0324,0.013523,0.002678,0.000431,0.009755
74763000,0.0324,0.013523,0.002678,0.000431,0.009167
74764000,0.0324,0.013523,0.002678,0.000431,0.010225
74765000,0.0324,0.013523,0.002678,0.000431,0.009402
74766000,0.0324,0.013523,0.002678,0.000431,0.008462
74767000,0.0324,0.013523,0.002678,0.000431,0.010695
74768000,0.0324,0.013523,0.002678,0.000431,0.006699
74769000,0.0324,0.013523,0.002678,0.000431,0.008109
74770000,0.0324,0.013523,0.002678,0.000431,0.007169
74771000,0.0324,0.013523,0.002678,0.000431,0.007639
74772000,0.0324,0.013523,0.002678,0.000431,0.007757
74773000,0.0324,0.013523,0.002678,0.000431,0.007287
74774000,0.0324,0.013523,0.002678,0.000431,0.007757
74775000,0.0324,0.013523,0.002678,0.000431,0.007169
74776000,0.0324,0.013523,0.002678,0.000431,0.007639
74777000,0.0324,0.013523,0.002678,0.000431,0.007522
74778000,0.0324,0.013523,0.002678,0.000431,0.007522
74779000,0.0324,0.013523,0.002678,0.000431,0.007522
74780000,0.0324,0.013523,0.002678,0.000431,0.007522
74781000,0.0324,0.013523,0.002678,0.000431,0.007639
74782000,0.0324,0.013523,0.002678,0.000431,0.007169
74783000,0.0324,0.013523,0.002678,0.000431,0.008462
74784000,0.0324,0.013523,0.002678,0.000431,0.005759
74785000,0.0324,0.013523,0.002678,0.000431,0.006111
74786000,0.0324,0.013523,0.002678,0.000431,0.005994
74787000,0.0324,0.013523,0.002678,0.000431,0.005759
74788000,0.0324,0.013523,0.002678,0.000431,0.006229
74789000,0.0324,0.013523,0.002678,0.000431,0.005759
74790000,0.0324,0.013523,0.002678,0.000431,0.005759
74791000,0.0324,0.013523,0.002678,0.000431,0.007169
74792000,0.0324,0.013523,0.002678,0.000431,0.005406
74793000,0.0324,0.013523,0.002678,0.000431,0.004936
74794000,0.0324,0.013523,0.002678,0.000431,0.007287
74795000,0.0324,0.013523,0.002678,0.000431,0.004466
74796000,0.0324,0.013523,0.002678,0.000431,0.003996
74797000,0.0324,0.013523,0.002678,0.000431,0.004349
74798000,0.0324,0.013523,0.002678,0.000431,0.004231
74799000,0.0324,0.013523,0.002678,0.000431,0.004349
74800000,0.0324,0.013523,0.002678,0.000431,0.004349
74801000,0.0324,0.013523,0.002678,0.000431,0.003996
74802000,0.0324,0.013523,0.002678,0.000431,0.004231
74803000,0.0324,0.013523,0.002678,0.000431,0.004466
74804000,0.0324,0.013523,0.002678,0.000431,0.004466
74805000,0.0324,0.013523,0.002678,0.000431,0.003761
74806000,0.0324,0.013523,0.002678,0.000431,0.004466
74807000,0.0324,0.013523,0.002678,0.000431,0.004349
74808000,0.0324,0.013523,0.002678,0.000431,0.004466
74809000,0.0324,0.013523,0.002678,0.000431,0.003761
74810000,0.0324,0.013523,0.002678,0.000431,0.004584
74811000,0.0324,0.013523,0.002678,0.000431,0.004349
74812000,0.0324,0.013523,0.002678,0.000431,0.004113
74813000,0.0324,0.013523,0.002678,0.000431,0.004466
74814000,0.0324,0.013523,0.002678,0.000431,0.004113
74815000,0.0324,0.013523,0.002678,0.000431,0.004466
74816000,0.0324,0.013523,0.002678,0.000431,0.003996
74817000,0.0324,0.013523,0.002678,0.000431,0.004349
74818000,0.0324,0.013523,0.002678,0.000431,0.004466
74819000,0.0324,0.013523,0.002678,0.000431,0.003996
74820000,0.0324,0.013523,0.002678,0.000431,0.004466
74821000,0.0324,0.013523,0.002678,0.000431,0.004231
74822000,0.0324,0.013523,0.002678,0.000431,0.004466
74823000,0.0324,0.013523,0.002678,0.000431,0.003878
74824000,0.0324,0.013523,0.002678,0.000431,0.004349
74825000,0.0324,0.013523,0.002678,0.000431,0.004231
74826000,0.0324,0.013523,0.002678,0.000431,0.004466
74827000,0.0324,0.013523,0.002678,0.000431,0.004349
74828000,0.0324,0.013523,0.002678,0.000431,0.003878
74829000,0.0324,0.013523,0.002678,0.000431,0.004466
74830000,0.0324,0.013523,0.002678,0.000431,0.004231
74831000,0.0324,0.013523,0.002678,0.000431,0.004466
74832000,0.0324,0.013523,0.002678,0.000431,0.003996
74833000,0.0324,0.013523,0.002678,0.000431,0.004466
74834000,0.0324,0.013523,0.002678,0.000431,0.004349
74835000,0.0324,0.013523,0.002678,0.000431,0.003996
74836000,0.0324,0.013523,0.002678,0.000431,0.004466
74837000,0.0324,0.013523,0.002678,0.000431,0.004231
74838000,0.0324,0.013523,0.002678,0.000431,0.004231
74839000,0.0324,0.013523,0.002678,0.000431,0.004231
74840000,0.0324,0.013523,0.002678,0.000431,0.004349
74841000,0.0324,0.013523,0.002678,0.000431,0.004466
74842000,0.0324,0.013523,0.002678,0.000431,0.003878
74843000,0.0324,0.013523,0.002678,0.000431,0.004466
74844000,0.0324,0.013523,0.002678,0.000431,0.005171
74845000,0.0324,0.013523,0.002678,0.000431,0.004701
74846000,0.0324,0.013523,0.002678,0.000431,0.003173
74847000,0.0324,0.013523,0.002678,0.000431,0.003408
74848000,0.0324,0.013523,0.002678,0.000431,0.003643
74849000,0.0324,0.013523,0.002678,0.000431,0.003526
74850000,0.0324,0.013523,0.002678,0.000431,0.003291
74851000,0.0324,0.013523,0.002678,0.000431,0.004936
74852000,0.0324,0.013523,0.002678,0.000431,0.002703
74853000,0.0324,0.013523,0.002678,0.000431,0.002586
74854000,0.0324,0.013523,0.002678,0.000431,0.002586
74855000,0.0324,0.013523,0.002678,0.000431,0.002586
74856000,0.0324,0.013523,0.002678,0.000431,0.002586
74857000,0.0324,0.013523,0.002678,0.000431,0.002468
74858000,0.0324,0.013523,0.002678,0.000431,0.002586
74859000,0.0324,0.013523,0.002678,0.000431,0.002821
74860000,0.0324,0.013523,0.002678,0.000431,0.002703
74861000,0.0324,0.013523,0.002678,0.000431,0.002351
74862000,0.0324,0.013523,0.002678,0.000431,0.002586
74863000,0.0324,0.013523,0.002678,0.000431,0.002703
74864000,0.0324,0.013523,0.002678,0.000431,0.002586
74865000,0.0324,0.013523,0.002678,0.000431,0.002351
74866000,0.0324,0.013523,0.002678,0.000431,0.002703
74867000,0.0324,0.013523,0.002678,0.000431,0.002821
74868000,0.0324,0.013523,0.002678,0.000431,0.002703
74869000,0.0324,0.013523,0.002678,0.000431,0.002233
74870000,0.0324,0.013523,0.002678,0.000431,0.002703
74871000,0.0324,0.013523,0.002678,0.000431,0.002586
74872000,0.0324,0.013523,0.002678,0.000431,0.002586
74873000,0.0324,0.013523,0.002678,0.000431,0.002586
74874000,0.0324,0.013523,0.002678,0.000431,0.002821
74875000,0.0324,0.013523,0.002678,0.000431,0.004349
74876000,0.0324,0.013523,0.002678,0.000431,0.001645
74877000,0.0324,0.013523,0.002678,0.000431,0.001645
74878000,0.0324,0.013523,0.002678,0.000431,0.001880
74879000,0.0324,0.013523,0.002678,0.000431,0.001645
74880000,0.0324,0.013523,0.002678,0.000431,0.001880
74881000,0.0324,0.013523,0.002678,0.000431,0.001645
74882000,0.0324,0.013523,0.002678,0.000431,0.001880
74883000,0.0324,0.013523,0.002678,0.000431,0.001763
74884000,0.0324,0.013523,0.002678,0.000431,0.001528
74885000,0.0324,0.013523,0.002678,0.000431,0.001880
74886000,0.0324,0.013523,0.002678,0.000431,0.001880
74887000,0.0324,0.013523,0.002678,0.000431,0.001880
74888000,0.0324,0.013523,0.002678,0.000431,0.001410
74889000,0.0324,0.013523,0.002678,0.000431,0.001880
74890000,0.0324,0.013523,0.002678,0.000431,0.001880
74891000,0.0324,0.013523,0.002678,0.000431,0.001645
74892000,0.0324,0.013523,0.002678,0.000431,0.001645
74893000,0.0324,0.013523,0.002678,0.000431,0.001880
74894000,0.0324,0.013523,0.002678,0.000431,0.001763
74895000,0.0324,0.013523,0.002678,0.000431,0.001763
74896000,0.0324,0.013523,0.002678,0.000431,0.001645
74897000,0.0324,0.013523,0.002678,0.000431,0.001880
74898000,0.0324,0.013523,0.002678,0.000431,0.001645
74899000,0.0324,0.013523,0.002678,0.000431,0.001763
74900000,0.0324,0.013523,0.002678,0.000431,0.001763
74901000,0.0324,0.013523,0.002678,0.000431,0.002703
74902000,0.0324,0.013523,0.002678,0.000431,0.001763
74903000,0.0324,0.013523,0.002678,0.000431,0.000823
74904000,0.0324,0.013523,0.002678,0.000431,0.000940
74905000,0.0324,0.013523,0.002678,0.000431,0.000940
74906000,0.0324,0.013523,0.002678,0.000431,0.000823
74907000,0.0324,0.013523,0.002678,0.000431,0.000823
74908000,0.0324,0.013523,0.002678,0.000431,0.000940
74909000,0.0324,0.013523,0.002678,0.000431,0.000940
74910000,0.0324,0.013523,0.002678,0.000431,0.000823
74911000,0.0324,0.013523,0.002678,0.000431,0.000823
74912000,0.0324,0.013523,0.002678,0.000431,0.000940
74913000,0.0324,0.013523,0.002678,0.000431,0.000823
74914000,0.0324,0.013523,0.002678,0.000431,0.000940
74915000,0.0324,0.013523,0.002678,0.000431,0.000823
74916000,0.0324,0.013523,0.002678,0.000431,0.000940
74917000,0.0324,0.013523,0.002678,0.000431,0.000823
74918000,0.0324,0.013523,0.002678,0.000431,0.000823
74919000,0.0324,0.013523,0.002678,0.000431,0.000940
74920000,0.0324,0.013523,0.002678,0.000431,0.000940
74921000,0.0324,0.013523,0.002678,0.000431,0.000823
74922000,0.0324,0.013523,0.002678,0.000431,0.000823
74923000,0.0324,0.013523,0.002678,0.000431,0.000940
74924000,0.0324,0.013523,0.002678,0.000431,0.000940
74925000,0.0324,0.013523,0.002678,0.000431,0.000705
74926000,0.0324,0.013523,0.002678,0.000431,0.000940
74927000,0.0324,0.013523,0.002678,0.000431,0.000940
74928000,0.0324,0.013523,0.002678,0.000431,0.000940
74929000,0.0324,0.013523,0.002678,0.000431,0.000705
74930000,0.0324,0.013523,0.002678,0.000431,0.000940
74931000,0.0324,0.013523,0.002678,0.000431,0.000940
74932000,0.0324,0.013523,0.002678,0.000431,0.000823
74933000,0.0324,0.013523,0.002678,0.000431,0.000823
74934000,0.0324,0.013523,0.002678,0.000431,0.000940
74935000,0.0324,0.013523,0.002678,0.000431,0.000940
74936000,0.0324,0.013523,0.002678,0.000431,0.000823
74937000,0.0324,0.013523,0.002678,0.000431,0.000823
74938000,0.0324,0.013523,0.002678,0.000431,0.000940
74939000,0.0324,0.013523,0.002678,0.000431,0.000823
74940000,0.0324,0.013523,0.002678,0.000431,0.000940
74941000,0.0324,0.013523,0.002678,0.000431,0.000823
74942000,0.0324,0.013523,0.002678,0.000431,0.000940
74943000,0.0324,0.013523,0.002678,0.000431,0.000823
74944000,0.0324,0.013523,0.002678,0.000431,0.000823
74945000,0.0324,0.013523,0.002678,0.000431,0.000940
74946000,0.0324,0.013523,0.002678,0.000431,0.000940
74947000,0.0324,0.013523,0.002678,0.000431,0.000940
74948000,0.0324,0.013523,0.002678,0.000431,0.000705
74949000,0.0324,0.013523,0.002678,0.000431,0.000940
74950000,0.0324,0.013523,0.002678,0.000431,0.000940
74951000,0.0324,0.013523,0.002678,0.000431,0.000823
74952000,0.0324,0.013523,0.002678,0.000431,0.000823
74953000,0.0324,0.013523,0.002678,0.000431,0.000940
74954000,0.0324,0.013523,0.002678,0.000431,0.000823
74955000,0.0324,0.013523,0.002678,0.000431,0.000940
74956000,0.0324,0.013523,0.002678,0.000431,0.000823
74957000,0.0324,0.013523,0.002678,0.000431,0.000940
74958000,0.0324,0.013523,0.002678,0.000431,0.000823
74959000,0.0324,0.013523,0.002678,0.000431,0.000823
74960000,0.0324,0.013523,0.002678,0.000431,0.000940
74961000,0.0324,0.013523,0.002678,0.000431,0.000940
74962000,0.0324,0.013523,0.002678,0.000431,0.000823
74963000,0.0324,0.013523,0.002678,0.000431,0.000823
74964000,0.0324,0.013523,0.002678,0.000431,0.000940
74965000,0.0324,0.013523,0.002678,0.000431,0.000940
74966000,0.0324,0.013523,0.002678,0.000431,0.000705
74967000,0.0324,0.013523,0.002678,0.000431,0.000940
74968000,0.0324,0.013523,0.002678,0.000431,0.000940
74969000,0.0324,0.013523,0.002678,0.000431,0.000940
74970000,0.0324,0.013523,0.002678,0.000431,0.000823
74971000,0.0324,0.013523,0.002678,0.000431,0.000823
74972000,0.0324,0.013523,0.002678,0.000431,0.000940
74973000,0.0324,0.013523,0.002678,0.000431,0.000823
74974000,0.0324,0.013523,0.002678,0.000431,0.000940
74975000,0.0324,0.013523,0.002678,0.000431,0.000823
74976000,0.0324,0.013523,0.002678,0.000431,0.000940
74977000,0.0324,0.013523,0.002678,0.000431,0.000823
74978000,0.0324,0.013523,0.002678,0.000431,0.000823
74979000,0.0324,0.013523,0.002678,0.000431,0.000940
74980000,0.0324,0.013523,0.002678,0.000431,0.000940
74981000,0.0324,0.013523,0.002678,0.000431,0.000823
74982000,0.0324,0.013523,0.002678,0.000431,0.000823
74983000,0.0324,0.013523,0.002678,0.000431,0.000940
74984000,0.0324,0.013523,0.002678,0.000431,0.000940
74985000,0.0324,0.013523,0.002678,0.000431,0.000705
74986000,0.0324,0.013523,0.002678,0.000431,0.000940
74987000,0.0324,0.013523,0.002678,0.000431,0.000940
74988000,0.0324,0.013523,0.002678,0.000431,0.000940
74989000,0.0324,0.013523,0.002678,0.000431,0.000705
74990000,0.0324,0.013523,0.002678,0.000431,0.000940
74991000,0.0324,0.013523,0.002678,0.000431,0.000940
74992000,0.0324,0.013523,0.002678,0.000431,0.000823
74993000,0.0324,0.013523,0.002678,0.000431,0.000823
74994000,0.0324,0.013523,0.002678,0.000431,0.000940
74995000,0.0324,0.013523,0.002678,0.000431,0.000940
74996000,0.0324,0.013523,0.002678,0.000431,0.000823
74997000,0.0324,0.013523,0.002678,0.000431,0.000823
74998000,0.0324,0.013523,0.002678,0.000431,0.000940
74999000,0.0324,0.013523,0.002678,0.000431,0.000823
