Cycle,Area(mm^2),PeakDynamic(W),SubthresholdLeakage(W),GateLeakage(W),RunTimeDynamic(W)
21000000,0.0324,0.013523,0.002678,0.000431,0.002351
21001000,0.0324,0.013523,0.002678,0.000431,0.002703
21002000,0.0324,0.013523,0.002678,0.000431,0.002586
21003000,0.0324,0.013523,0.002678,0.000431,0.002351
21004000,0.0324,0.013523,0.002678,0.000431,0.002586
21005000,0.0324,0.013523,0.002678,0.000431,0.002586
21006000,0.0324,0.013523,0.002678,0.000431,0.002703
21007000,0.0324,0.013523,0.002678,0.000431,0.002233
21008000,0.0324,0.013523,0.002678,0.000431,0.002586
21009000,0.0324,0.013523,0.002678,0.000431,0.002821
21010000,0.0324,0.013523,0.002678,0.000431,0.002351
21011000,0.0324,0.013523,0.002678,0.000431,0.002351
21012000,0.0324,0.013523,0.002678,0.000431,0.002703
21013000,0.0324,0.013523,0.002678,0.000431,0.002703
21014000,0.0324,0.013523,0.002678,0.000431,0.002351
21015000,0.0324,0.013523,0.002678,0.000431,0.002351
21016000,0.0324,0.013523,0.002678,0.000431,0.002821
21017000,0.0324,0.013523,0.002678,0.000431,0.002468
21018000,0.0324,0.013523,0.002678,0.000431,0.002586
21019000,0.0324,0.013523,0.002678,0.000431,0.002468
21020000,0.0324,0.013523,0.002678,0.000431,0.002586
21021000,0.0324,0.013523,0.002678,0.000431,0.002468
21022000,0.0324,0.013523,0.002678,0.000431,0.002468
21023000,0.0324,0.013523,0.002678,0.000431,0.002586
21024000,0.0324,0.013523,0.002678,0.000431,0.002586
21025000,0.0324,0.013523,0.002678,0.000431,0.002468
21026000,0.0324,0.013523,0.002678,0.000431,0.002468
21027000,0.0324,0.013523,0.002678,0.000431,0.002586
21028000,0.0324,0.013523,0.002678,0.000431,0.002821
21029000,0.0324,0.013523,0.002678,0.000431,0.002233
21030000,0.0324,0.013523,0.002678,0.000431,0.002468
21031000,0.0324,0.013523,0.002678,0.000431,0.002821
21032000,0.0324,0.013523,0.002678,0.000431,0.002586
21033000,0.0324,0.013523,0.002678,0.000431,0.002351
21034000,0.0324,0.013523,0.002678,0.000431,0.002351
21035000,0.0324,0.013523,0.002678,0.000431,0.002821
21036000,0.0324,0.013523,0.002678,0.000431,0.002468
21037000,0.0324,0.013523,0.002678,0.000431,0.002468
21038000,0.0324,0.013523,0.002678,0.000431,0.002586
21039000,0.0324,0.013523,0.002678,0.000431,0.002468
21040000,0.0324,0.013523,0.002678,0.000431,0.002586
21041000,0.0324,0.013523,0.002678,0.000431,0.002351
21042000,0.0324,0.013523,0.002678,0.000431,0.002703
21043000,0.0324,0.013523,0.002678,0.000431,0.002703
21044000,0.0324,0.013523,0.002678,0.000431,0.002233
21045000,0.0324,0.013523,0.002678,0.000431,0.002586
21046000,0.0324,0.013523,0.002678,0.000431,0.002586
21047000,0.0324,0.013523,0.002678,0.000431,0.002703
21048000,0.0324,0.013523,0.002678,0.000431,0.002233
21049000,0.0324,0.013523,0.002678,0.000431,0.002586
21050000,0.0324,0.013523,0.002678,0.000431,0.002821
21051000,0.0324,0.013523,0.002678,0.000431,0.002468
21052000,0.0324,0.013523,0.002678,0.000431,0.002233
21053000,0.0324,0.013523,0.002678,0.000431,0.002703
21054000,0.0324,0.013523,0.002678,0.000431,0.002703
21055000,0.0324,0.013523,0.002678,0.000431,0.002468
21056000,0.0324,0.013523,0.002678,0.000431,0.002468
21057000,0.0324,0.013523,0.002678,0.000431,0.002586
21058000,0.0324,0.013523,0.002678,0.000431,0.002468
21059000,0.0324,0.013523,0.002678,0.000431,0.002586
21060000,0.0324,0.013523,0.002678,0.000431,0.002468
21061000,0.0324,0.013523,0.002678,0.000431,0.002586
21062000,0.0324,0.013523,0.002678,0.000431,0.002703
21063000,0.0324,0.013523,0.002678,0.000431,0.005289
21064000,0.0324,0.013523,0.002678,0.000431,0.000940
21065000,0.0324,0.013523,0.002678,0.000431,0.000940
21066000,0.0324,0.013523,0.002678,0.000431,0.000823
21067000,0.0324,0.013523,0.002678,0.000431,0.000823
21068000,0.0324,0.013523,0.002678,0.000431,0.000940
21069000,0.0324,0.013523,0.002678,0.000431,0.000940
21070000,0.0324,0.013523,0.002678,0.000431,0.000705
21071000,0.0324,0.013523,0.002678,0.000431,0.000940
21072000,0.0324,0.013523,0.002678,0.000431,0.000940
21073000,0.0324,0.013523,0.002678,0.000431,0.000940
21074000,0.0324,0.013523,0.002678,0.000431,0.000705
21075000,0.0324,0.013523,0.002678,0.000431,0.000940
21076000,0.0324,0.013523,0.002678,0.000431,0.000940
21077000,0.0324,0.013523,0.002678,0.000431,0.000823
21078000,0.0324,0.013523,0.002678,0.000431,0.000940
21079000,0.0324,0.013523,0.002678,0.000431,0.000823
21080000,0.0324,0.013523,0.002678,0.000431,0.000940
21081000,0.0324,0.013523,0.002678,0.000431,0.000823
21082000,0.0324,0.013523,0.002678,0.000431,0.000823
21083000,0.0324,0.013523,0.002678,0.000431,0.000940
21084000,0.0324,0.013523,0.002678,0.000431,0.000823
21085000,0.0324,0.013523,0.002678,0.000431,0.000823
21086000,0.0324,0.013523,0.002678,0.000431,0.000940
21087000,0.0324,0.013523,0.002678,0.000431,0.000940
21088000,0.0324,0.013523,0.002678,0.000431,0.000940
21089000,0.0324,0.013523,0.002678,0.000431,0.101662
21090000,0.0324,0.013523,0.002678,0.000431,0.487859
21091000,0.0324,0.013523,0.002678,0.000431,0.526996
21092000,0.0324,0.013523,0.002678,0.000431,0.134452
21093000,0.0324,0.013523,0.002678,0.000431,0.131632
21094000,0.0324,0.013523,0.002678,0.000431,0.572480
21095000,0.0324,0.013523,0.002678,0.000431,0.244224
21096000,0.0324,0.013523,0.002678,0.000431,0.262088
21097000,0.0324,0.013523,0.002678,0.000431,0.338481
21098000,0.0324,0.013523,0.002678,0.000431,0.141504
21099000,0.0324,0.013523,0.002678,0.000431,0.150436
21100000,0.0324,0.013523,0.002678,0.000431,0.101897
21101000,0.0324,0.013523,0.002678,0.000431,0.441671
21102000,0.0324,0.013523,0.002678,0.000431,0.103660
21103000,0.0324,0.013523,0.002678,0.000431,0.023506
21104000,0.0324,0.013523,0.002678,0.000431,0.020802
21105000,0.0324,0.013523,0.002678,0.000431,0.008815
21106000,0.0324,0.013523,0.002678,0.000431,0.008227
21107000,0.0324,0.013523,0.002678,0.000431,0.005406
21108000,0.0324,0.013523,0.002678,0.000431,0.002468
21109000,0.0324,0.013523,0.002678,0.000431,0.003526
21110000,0.0324,0.013523,0.002678,0.000431,0.001645
21111000,0.0324,0.013523,0.002678,0.000431,0.002586
21112000,0.0324,0.013523,0.002678,0.000431,0.001998
21113000,0.0324,0.013523,0.002678,0.000431,0.000823
21114000,0.0324,0.013523,0.002678,0.000431,0.000823
21115000,0.0324,0.013523,0.002678,0.000431,0.000823
21116000,0.0324,0.013523,0.002678,0.000431,0.000823
21117000,0.0324,0.013523,0.002678,0.000431,0.000940
21118000,0.0324,0.013523,0.002678,0.000431,0.000705
21119000,0.0324,0.013523,0.002678,0.000431,0.000940
21120000,0.0324,0.013523,0.002678,0.000431,0.000823
21121000,0.0324,0.013523,0.002678,0.000431,0.000823
21122000,0.0324,0.013523,0.002678,0.000431,0.000823
21123000,0.0324,0.013523,0.002678,0.000431,0.000823
21124000,0.0324,0.013523,0.002678,0.000431,0.000940
21125000,0.0324,0.013523,0.002678,0.000431,0.000705
21126000,0.0324,0.013523,0.002678,0.000431,0.000823
21127000,0.0324,0.013523,0.002678,0.000431,0.000940
21128000,0.0324,0.013523,0.002678,0.000431,0.000823
21129000,0.0324,0.013523,0.002678,0.000431,0.000823
21130000,0.0324,0.013523,0.002678,0.000431,0.000823
21131000,0.0324,0.013523,0.002678,0.000431,0.000705
21132000,0.0324,0.013523,0.002678,0.000431,0.000940
21133000,0.0324,0.013523,0.002678,0.000431,0.000940
21134000,0.0324,0.013523,0.002678,0.000431,0.000705
21135000,0.0324,0.013523,0.002678,0.000431,0.000940
21136000,0.0324,0.013523,0.002678,0.000431,0.000705
21137000,0.0324,0.013523,0.002678,0.000431,0.000940
21138000,0.0324,0.013523,0.002678,0.000431,0.000823
21139000,0.0324,0.013523,0.002678,0.000431,0.000823
21140000,0.0324,0.013523,0.002678,0.000431,0.000940
21141000,0.0324,0.013523,0.002678,0.000431,0.000705
21142000,0.0324,0.013523,0.002678,0.000431,0.000940
21143000,0.0324,0.013523,0.002678,0.000431,0.000823
21144000,0.0324,0.013523,0.002678,0.000431,0.000823
21145000,0.0324,0.013523,0.002678,0.000431,0.000823
21146000,0.0324,0.013523,0.002678,0.000431,0.000823
21147000,0.0324,0.013523,0.002678,0.000431,0.000823
21148000,0.0324,0.013523,0.002678,0.000431,0.000823
21149000,0.0324,0.013523,0.002678,0.000431,0.000940
21150000,0.0324,0.013523,0.002678,0.000431,0.000705
21151000,0.0324,0.013523,0.002678,0.000431,0.000940
21152000,0.0324,0.013523,0.002678,0.000431,0.000823
21153000,0.0324,0.013523,0.002678,0.000431,0.000823
21154000,0.0324,0.013523,0.002678,0.000431,0.000823
21155000,0.0324,0.013523,0.002678,0.000431,0.000823
21156000,0.0324,0.013523,0.002678,0.000431,0.000940
21157000,0.0324,0.013523,0.002678,0.000431,0.000705
21158000,0.0324,0.013523,0.002678,0.000431,0.000940
21159000,0.0324,0.013523,0.002678,0.000431,0.000705
21160000,0.0324,0.013523,0.002678,0.000431,0.000940
21161000,0.0324,0.013523,0.002678,0.000431,0.000940
21162000,0.0324,0.013523,0.002678,0.000431,0.000705
21163000,0.0324,0.013523,0.002678,0.000431,0.000940
21164000,0.0324,0.013523,0.002678,0.000431,0.000705
21165000,0.0324,0.013523,0.002678,0.000431,0.000940
21166000,0.0324,0.013523,0.002678,0.000431,0.000823
21167000,0.0324,0.013523,0.002678,0.000431,0.000823
21168000,0.0324,0.013523,0.002678,0.000431,0.000823
21169000,0.0324,0.013523,0.002678,0.000431,0.000823
21170000,0.0324,0.013523,0.002678,0.000431,0.000940
21171000,0.0324,0.013523,0.002678,0.000431,0.000705
21172000,0.0324,0.013523,0.002678,0.000431,0.000940
21173000,0.0324,0.013523,0.002678,0.000431,0.000823
21174000,0.0324,0.013523,0.002678,0.000431,0.000823
21175000,0.0324,0.013523,0.002678,0.000431,0.000823
21176000,0.0324,0.013523,0.002678,0.000431,0.000823
21177000,0.0324,0.013523,0.002678,0.000431,0.000823
21178000,0.0324,0.013523,0.002678,0.000431,0.000823
21179000,0.0324,0.013523,0.002678,0.000431,0.000823
21180000,0.0324,0.013523,0.002678,0.000431,0.000823
21181000,0.0324,0.013523,0.002678,0.000431,0.000940
21182000,0.0324,0.013523,0.002678,0.000431,0.000823
21183000,0.0324,0.013523,0.002678,0.000431,0.000823
21184000,0.0324,0.013523,0.002678,0.000431,0.000705
21185000,0.0324,0.013523,0.002678,0.000431,0.000940
21186000,0.0324,0.013523,0.002678,0.000431,0.000940
21187000,0.0324,0.013523,0.002678,0.000431,0.000705
21188000,0.0324,0.013523,0.002678,0.000431,0.000940
21189000,0.0324,0.013523,0.002678,0.000431,0.000705
21190000,0.0324,0.013523,0.002678,0.000431,0.000940
21191000,0.0324,0.013523,0.002678,0.000431,0.000823
21192000,0.0324,0.013523,0.002678,0.000431,0.000823
21193000,0.0324,0.013523,0.002678,0.000431,0.000940
21194000,0.0324,0.013523,0.002678,0.000431,0.000705
21195000,0.0324,0.013523,0.002678,0.000431,0.000940
21196000,0.0324,0.013523,0.002678,0.000431,0.000823
21197000,0.0324,0.013523,0.002678,0.000431,0.000823
21198000,0.0324,0.013523,0.002678,0.000431,0.000823
21199000,0.0324,0.013523,0.002678,0.000431,0.000823
21200000,0.0324,0.013523,0.002678,0.000431,0.000823
21201000,0.0324,0.013523,0.002678,0.000431,0.000823
21202000,0.0324,0.013523,0.002678,0.000431,0.000940
21203000,0.0324,0.013523,0.002678,0.000431,0.000705
21204000,0.0324,0.013523,0.002678,0.000431,0.000940
21205000,0.0324,0.013523,0.002678,0.000431,0.000823
21206000,0.0324,0.013523,0.002678,0.000431,0.000823
21207000,0.0324,0.013523,0.002678,0.000431,0.000705
21208000,0.0324,0.013523,0.002678,0.000431,0.000940
21209000,0.0324,0.013523,0.002678,0.000431,0.000940
21210000,0.0324,0.013523,0.002678,0.000431,0.000705
21211000,0.0324,0.013523,0.002678,0.000431,0.000940
21212000,0.0324,0.013523,0.002678,0.000431,0.000705
21213000,0.0324,0.013523,0.002678,0.000431,0.000940
21214000,0.0324,0.013523,0.002678,0.000431,0.000823
21215000,0.0324,0.013523,0.002678,0.000431,0.000823
21216000,0.0324,0.013523,0.002678,0.000431,0.000940
21217000,0.0324,0.013523,0.002678,0.000431,0.000705
21218000,0.0324,0.013523,0.002678,0.000431,0.000940
21219000,0.0324,0.013523,0.002678,0.000431,0.000823
21220000,0.0324,0.013523,0.002678,0.000431,0.000823
21221000,0.0324,0.013523,0.002678,0.000431,0.000823
21222000,0.0324,0.013523,0.002678,0.000431,0.000823
21223000,0.0324,0.013523,0.002678,0.000431,0.000940
21224000,0.0324,0.013523,0.002678,0.000431,0.000940
21225000,0.0324,0.013523,0.002678,0.000431,0.000823
21226000,0.0324,0.013523,0.002678,0.000431,0.000823
21227000,0.0324,0.013523,0.002678,0.000431,0.000940
21228000,0.0324,0.013523,0.002678,0.000431,0.000940
21229000,0.0324,0.013523,0.002678,0.000431,0.000705
21230000,0.0324,0.013523,0.002678,0.000431,0.000940
21231000,0.0324,0.013523,0.002678,0.000431,0.000940
21232000,0.0324,0.013523,0.002678,0.000431,0.000705
21233000,0.0324,0.013523,0.002678,0.000431,0.000940
21234000,0.0324,0.013523,0.002678,0.000431,0.000705
21235000,0.0324,0.013523,0.002678,0.000431,0.000940
21236000,0.0324,0.013523,0.002678,0.000431,0.000823
21237000,0.0324,0.013523,0.002678,0.000431,0.000823
21238000,0.0324,0.013523,0.002678,0.000431,0.000940
21239000,0.0324,0.013523,0.002678,0.000431,0.000705
21240000,0.0324,0.013523,0.002678,0.000431,0.000940
21241000,0.0324,0.013523,0.002678,0.000431,0.000823
21242000,0.0324,0.013523,0.002678,0.000431,0.000823
21243000,0.0324,0.013523,0.002678,0.000431,0.000823
21244000,0.0324,0.013523,0.002678,0.000431,0.000823
21245000,0.0324,0.013523,0.002678,0.000431,0.000940
21246000,0.0324,0.013523,0.002678,0.000431,0.000705
21247000,0.0324,0.013523,0.002678,0.000431,0.000940
21248000,0.0324,0.013523,0.002678,0.000431,0.000823
21249000,0.0324,0.013523,0.002678,0.000431,0.000823
21250000,0.0324,0.013523,0.002678,0.000431,0.000823
21251000,0.0324,0.013523,0.002678,0.000431,0.000823
21252000,0.0324,0.013523,0.002678,0.000431,0.000705
21253000,0.0324,0.013523,0.002678,0.000431,0.000940
21254000,0.0324,0.013523,0.002678,0.000431,0.000940
21255000,0.0324,0.013523,0.002678,0.000431,0.000705
21256000,0.0324,0.013523,0.002678,0.000431,0.000940
21257000,0.0324,0.013523,0.002678,0.000431,0.000705
21258000,0.0324,0.013523,0.002678,0.000431,0.000940
21259000,0.0324,0.013523,0.002678,0.000431,0.000940
21260000,0.0324,0.013523,0.002678,0.000431,0.000705
21261000,0.0324,0.013523,0.002678,0.000431,0.000940
21262000,0.0324,0.013523,0.002678,0.000431,0.000705
21263000,0.0324,0.013523,0.002678,0.000431,0.000940
21264000,0.0324,0.013523,0.002678,0.000431,0.000823
21265000,0.0324,0.013523,0.002678,0.000431,0.000823
21266000,0.0324,0.013523,0.002678,0.000431,0.000823
21267000,0.0324,0.013523,0.002678,0.000431,0.000823
21268000,0.0324,0.013523,0.002678,0.000431,0.000940
21269000,0.0324,0.013523,0.002678,0.000431,0.000705
21270000,0.0324,0.013523,0.002678,0.000431,0.000940
21271000,0.0324,0.013523,0.002678,0.000431,0.000823
21272000,0.0324,0.013523,0.002678,0.000431,0.000705
21273000,0.0324,0.013523,0.002678,0.000431,0.000940
21274000,0.0324,0.013523,0.002678,0.000431,0.000823
21275000,0.0324,0.013523,0.002678,0.000431,0.000823
21276000,0.0324,0.013523,0.002678,0.000431,0.000823
21277000,0.0324,0.013523,0.002678,0.000431,0.000823
21278000,0.0324,0.013523,0.002678,0.000431,0.000823
21279000,0.0324,0.013523,0.002678,0.000431,0.000940
21280000,0.0324,0.013523,0.002678,0.000431,0.000823
21281000,0.0324,0.013523,0.002678,0.000431,0.000823
21282000,0.0324,0.013523,0.002678,0.000431,0.000705
21283000,0.0324,0.013523,0.002678,0.000431,0.000940
21284000,0.0324,0.013523,0.002678,0.000431,0.000940
21285000,0.0324,0.013523,0.002678,0.000431,0.000705
21286000,0.0324,0.013523,0.002678,0.000431,0.000940
21287000,0.0324,0.013523,0.002678,0.000431,0.000705
21288000,0.0324,0.013523,0.002678,0.000431,0.000940
21289000,0.0324,0.013523,0.002678,0.000431,0.000823
21290000,0.0324,0.013523,0.002678,0.000431,0.000823
21291000,0.0324,0.013523,0.002678,0.000431,0.000823
21292000,0.0324,0.013523,0.002678,0.000431,0.000823
21293000,0.0324,0.013523,0.002678,0.000431,0.000940
21294000,0.0324,0.013523,0.002678,0.000431,0.000705
21295000,0.0324,0.013523,0.002678,0.000431,0.000940
21296000,0.0324,0.013523,0.002678,0.000431,0.000823
21297000,0.0324,0.013523,0.002678,0.000431,0.000823
21298000,0.0324,0.013523,0.002678,0.000431,0.000823
21299000,0.0324,0.013523,0.002678,0.000431,0.000823
21300000,0.0324,0.013523,0.002678,0.000431,0.000940
21301000,0.0324,0.013523,0.002678,0.000431,0.000705
21302000,0.0324,0.013523,0.002678,0.000431,0.000940
21303000,0.0324,0.013523,0.002678,0.000431,0.000705
21304000,0.0324,0.013523,0.002678,0.000431,0.000940
21305000,0.0324,0.013523,0.002678,0.000431,0.000705
21306000,0.0324,0.013523,0.002678,0.000431,0.000940
21307000,0.0324,0.013523,0.002678,0.000431,0.000940
21308000,0.0324,0.013523,0.002678,0.000431,0.000705
21309000,0.0324,0.013523,0.002678,0.000431,0.000940
21310000,0.0324,0.013523,0.002678,0.000431,0.000705
21311000,0.0324,0.013523,0.002678,0.000431,0.000940
21312000,0.0324,0.013523,0.002678,0.000431,0.000823
21313000,0.0324,0.013523,0.002678,0.000431,0.000823
21314000,0.0324,0.013523,0.002678,0.000431,0.000823
21315000,0.0324,0.013523,0.002678,0.000431,0.000823
21316000,0.0324,0.013523,0.002678,0.000431,0.000940
21317000,0.0324,0.013523,0.002678,0.000431,0.000705
21318000,0.0324,0.013523,0.002678,0.000431,0.000940
21319000,0.0324,0.013523,0.002678,0.000431,0.000823
21320000,0.0324,0.013523,0.002678,0.000431,0.000823
21321000,0.0324,0.013523,0.002678,0.000431,0.000823
21322000,0.0324,0.013523,0.002678,0.000431,0.000823
21323000,0.0324,0.013523,0.002678,0.000431,0.000823
21324000,0.0324,0.013523,0.002678,0.000431,0.000823
21325000,0.0324,0.013523,0.002678,0.000431,0.000823
21326000,0.0324,0.013523,0.002678,0.000431,0.000940
21327000,0.0324,0.013523,0.002678,0.000431,0.000823
21328000,0.0324,0.013523,0.002678,0.000431,0.000823
21329000,0.0324,0.013523,0.002678,0.000431,0.000823
21330000,0.0324,0.013523,0.002678,0.000431,0.000705
21331000,0.0324,0.013523,0.002678,0.000431,0.000940
21332000,0.0324,0.013523,0.002678,0.000431,0.000940
21333000,0.0324,0.013523,0.002678,0.000431,0.000705
21334000,0.0324,0.013523,0.002678,0.000431,0.000940
21335000,0.0324,0.013523,0.002678,0.000431,0.000705
21336000,0.0324,0.013523,0.002678,0.000431,0.000940
21337000,0.0324,0.013523,0.002678,0.000431,0.000823
21338000,0.0324,0.013523,0.002678,0.000431,0.000823
21339000,0.0324,0.013523,0.002678,0.000431,0.000940
21340000,0.0324,0.013523,0.002678,0.000431,0.000705
21341000,0.0324,0.013523,0.002678,0.000431,0.000940
21342000,0.0324,0.013523,0.002678,0.000431,0.000823
21343000,0.0324,0.013523,0.002678,0.000431,0.000940
21344000,0.0324,0.013523,0.002678,0.000431,0.000823
21345000,0.0324,0.013523,0.002678,0.000431,0.000940
21346000,0.0324,0.013523,0.002678,0.000431,0.032908
21347000,0.0324,0.013523,0.002678,0.000431,0.454481
21348000,0.0324,0.013523,0.002678,0.000431,0.594810
21349000,0.0324,0.013523,0.002678,0.000431,0.130691
21350000,0.0324,0.013523,0.002678,0.000431,0.133042
21351000,0.0324,0.013523,0.002678,0.000431,0.513716
21352000,0.0324,0.013523,0.002678,0.000431,0.308394
21353000,0.0324,0.013523,0.002678,0.000431,0.243283
21354000,0.0324,0.013523,0.002678,0.000431,0.327669
21355000,0.0324,0.013523,0.002678,0.000431,0.135510
21356000,0.0324,0.013523,0.002678,0.000431,0.148438
21357000,0.0324,0.013523,0.002678,0.000431,0.119174
21358000,0.0324,0.013523,0.002678,0.000431,0.318031
21359000,0.0324,0.013523,0.002678,0.000431,0.280775
21360000,0.0324,0.013523,0.002678,0.000431,0.042780
21361000,0.0324,0.013523,0.002678,0.000431,0.034436
21362000,0.0324,0.013523,0.002678,0.000431,0.019745
21363000,0.0324,0.013523,0.002678,0.000431,0.013986
21364000,0.0324,0.013523,0.002678,0.000431,0.008345
21365000,0.0324,0.013523,0.002678,0.000431,0.009755
21366000,0.0324,0.013523,0.002678,0.000431,0.007639
21367000,0.0324,0.013523,0.002678,0.000431,0.006111
21368000,0.0324,0.013523,0.002678,0.000431,0.007287
21369000,0.0324,0.013523,0.002678,0.000431,0.004936
21370000,0.0324,0.013523,0.002678,0.000431,0.005759
21371000,0.0324,0.013523,0.002678,0.000431,0.007287
21372000,0.0324,0.013523,0.002678,0.000431,0.003526
21373000,0.0324,0.013523,0.002678,0.000431,0.003408
21374000,0.0324,0.013523,0.002678,0.000431,0.003173
21375000,0.0324,0.013523,0.002678,0.000431,0.003643
21376000,0.0324,0.013523,0.002678,0.000431,0.003408
21377000,0.0324,0.013523,0.002678,0.000431,0.004701
21378000,0.0324,0.013523,0.002678,0.000431,0.002586
21379000,0.0324,0.013523,0.002678,0.000431,0.002586
21380000,0.0324,0.013523,0.002678,0.000431,0.004584
21381000,0.0324,0.013523,0.002678,0.000431,0.000823
21382000,0.0324,0.013523,0.002678,0.000431,0.000940
21383000,0.0324,0.013523,0.002678,0.000431,0.000823
21384000,0.0324,0.013523,0.002678,0.000431,0.000940
21385000,0.0324,0.013523,0.002678,0.000431,0.000823
21386000,0.0324,0.013523,0.002678,0.000431,0.000940
21387000,0.0324,0.013523,0.002678,0.000431,0.000823
21388000,0.0324,0.013523,0.002678,0.000431,0.000823
21389000,0.0324,0.013523,0.002678,0.000431,0.000940
21390000,0.0324,0.013523,0.002678,0.000431,0.000940
21391000,0.0324,0.013523,0.002678,0.000431,0.000823
21392000,0.0324,0.013523,0.002678,0.000431,0.000823
21393000,0.0324,0.013523,0.002678,0.000431,0.000940
21394000,0.0324,0.013523,0.002678,0.000431,0.000940
21395000,0.0324,0.013523,0.002678,0.000431,0.000705
21396000,0.0324,0.013523,0.002678,0.000431,0.000940
21397000,0.0324,0.013523,0.002678,0.000431,0.000940
21398000,0.0324,0.013523,0.002678,0.000431,0.000940
21399000,0.0324,0.013523,0.002678,0.000431,0.000705
21400000,0.0324,0.013523,0.002678,0.000431,0.000940
21401000,0.0324,0.013523,0.002678,0.000431,0.000940
21402000,0.0324,0.013523,0.002678,0.000431,0.000823
21403000,0.0324,0.013523,0.002678,0.000431,0.000940
21404000,0.0324,0.013523,0.002678,0.000431,0.000823
21405000,0.0324,0.013523,0.002678,0.000431,0.000940
21406000,0.0324,0.013523,0.002678,0.000431,0.000823
21407000,0.0324,0.013523,0.002678,0.000431,0.000823
21408000,0.0324,0.013523,0.002678,0.000431,0.000940
21409000,0.0324,0.013523,0.002678,0.000431,0.000940
21410000,0.0324,0.013523,0.002678,0.000431,0.000705
21411000,0.0324,0.013523,0.002678,0.000431,0.000940
21412000,0.0324,0.013523,0.002678,0.000431,0.000940
21413000,0.0324,0.013523,0.002678,0.000431,0.000940
21414000,0.0324,0.013523,0.002678,0.000431,0.000705
21415000,0.0324,0.013523,0.002678,0.000431,0.000940
21416000,0.0324,0.013523,0.002678,0.000431,0.000940
21417000,0.0324,0.013523,0.002678,0.000431,0.000823
21418000,0.0324,0.013523,0.002678,0.000431,0.000823
21419000,0.0324,0.013523,0.002678,0.000431,0.000940
21420000,0.0324,0.013523,0.002678,0.000431,0.000940
21421000,0.0324,0.013523,0.002678,0.000431,0.000823
21422000,0.0324,0.013523,0.002678,0.000431,0.000823
21423000,0.0324,0.013523,0.002678,0.000431,0.000940
21424000,0.0324,0.013523,0.002678,0.000431,0.000823
21425000,0.0324,0.013523,0.002678,0.000431,0.000940
21426000,0.0324,0.013523,0.002678,0.000431,0.000823
21427000,0.0324,0.013523,0.002678,0.000431,0.000940
21428000,0.0324,0.013523,0.002678,0.000431,0.000823
21429000,0.0324,0.013523,0.002678,0.000431,0.000823
21430000,0.0324,0.013523,0.002678,0.000431,0.000940
21431000,0.0324,0.013523,0.002678,0.000431,0.000940
21432000,0.0324,0.013523,0.002678,0.000431,0.000823
21433000,0.0324,0.013523,0.002678,0.000431,0.000823
21434000,0.0324,0.013523,0.002678,0.000431,0.000940
21435000,0.0324,0.013523,0.002678,0.000431,0.000940
21436000,0.0324,0.013523,0.002678,0.000431,0.000823
21437000,0.0324,0.013523,0.002678,0.000431,0.000823
21438000,0.0324,0.013523,0.002678,0.000431,0.000940
21439000,0.0324,0.013523,0.002678,0.000431,0.000940
21440000,0.0324,0.013523,0.002678,0.000431,0.000823
21441000,0.0324,0.013523,0.002678,0.000431,0.000823
21442000,0.0324,0.013523,0.002678,0.000431,0.000940
21443000,0.0324,0.013523,0.002678,0.000431,0.000823
21444000,0.0324,0.013523,0.002678,0.000431,0.000940
21445000,0.0324,0.013523,0.002678,0.000431,0.000823
21446000,0.0324,0.013523,0.002678,0.000431,0.000940
21447000,0.0324,0.013523,0.002678,0.000431,0.000823
21448000,0.0324,0.013523,0.002678,0.000431,0.000823
21449000,0.0324,0.013523,0.002678,0.000431,0.000940
21450000,0.0324,0.013523,0.002678,0.000431,0.000940
21451000,0.0324,0.013523,0.002678,0.000431,0.000823
21452000,0.0324,0.013523,0.002678,0.000431,0.000823
21453000,0.0324,0.013523,0.002678,0.000431,0.000940
21454000,0.0324,0.013523,0.002678,0.000431,0.000940
21455000,0.0324,0.013523,0.002678,0.000431,0.000705
21456000,0.0324,0.013523,0.002678,0.000431,0.000940
21457000,0.0324,0.013523,0.002678,0.000431,0.000940
21458000,0.0324,0.013523,0.002678,0.000431,0.000823
21459000,0.0324,0.013523,0.002678,0.000431,0.000823
21460000,0.0324,0.013523,0.002678,0.000431,0.206732
21461000,0.0324,0.013523,0.002678,0.000431,0.607503
21462000,0.0324,0.013523,0.002678,0.000431,0.347883
21463000,0.0324,0.013523,0.002678,0.000431,0.130691
21464000,0.0324,0.013523,0.002678,0.000431,0.152434
21465000,0.0324,0.013523,0.002678,0.000431,0.635005
21466000,0.0324,0.013523,0.002678,0.000431,0.229885
21467000,0.0324,0.013523,0.002678,0.000431,0.254449
21468000,0.0324,0.013523,0.002678,0.000431,0.239757
21469000,0.0324,0.013523,0.002678,0.000431,0.140329
21470000,0.0324,0.013523,0.002678,0.000431,0.174764
21471000,0.0324,0.013523,0.002678,0.000431,0.107773
21472000,0.0324,0.013523,0.002678,0.000431,0.483511
21473000,0.0324,0.013523,0.002678,0.000431,0.068872
21474000,0.0324,0.013523,0.002678,0.000431,0.048892
21475000,0.0324,0.013523,0.002678,0.000431,0.041135
21476000,0.0324,0.013523,0.002678,0.000431,0.031850
21477000,0.0324,0.013523,0.002678,0.000431,0.017982
21478000,0.0324,0.013523,0.002678,0.000431,0.019040
21479000,0.0324,0.013523,0.002678,0.000431,0.019627
21480000,0.0324,0.013523,0.002678,0.000431,0.015161
21481000,0.0324,0.013523,0.002678,0.000431,0.013046
21482000,0.0324,0.013523,0.002678,0.000431,0.012223
21483000,0.0324,0.013523,0.002678,0.000431,0.013751
21484000,0.0324,0.013523,0.002678,0.000431,0.004466
21485000,0.0324,0.013523,0.002678,0.000431,0.004466
21486000,0.0324,0.013523,0.002678,0.000431,0.004349
21487000,0.0324,0.013523,0.002678,0.000431,0.005876
21488000,0.0324,0.013523,0.002678,0.000431,0.004936
21489000,0.0324,0.013523,0.002678,0.000431,0.003761
21490000,0.0324,0.013523,0.002678,0.000431,0.002938
21491000,0.0324,0.013523,0.002678,0.000431,0.001645
21492000,0.0324,0.013523,0.002678,0.000431,0.001880
21493000,0.0324,0.013523,0.002678,0.000431,0.004349
21494000,0.0324,0.013523,0.002678,0.000431,0.000823
21495000,0.0324,0.013523,0.002678,0.000431,0.002351
21496000,0.0324,0.013523,0.002678,0.000431,0.382437
21497000,0.0324,0.013523,0.002678,0.000431,0.698000
21498000,0.0324,0.013523,0.002678,0.000431,0.144207
21499000,0.0324,0.013523,0.002678,0.000431,0.134570
21500000,0.0324,0.013523,0.002678,0.000431,0.235762
21501000,0.0324,0.013523,0.002678,0.000431,0.513716
21502000,0.0324,0.013523,0.002678,0.000431,0.265379
21503000,0.0324,0.013523,0.002678,0.000431,0.296406
21504000,0.0324,0.013523,0.002678,0.000431,0.181699
21505000,0.0324,0.013523,0.002678,0.000431,0.145735
21506000,0.0324,0.013523,0.002678,0.000431,0.144795
21507000,0.0324,0.013523,0.002678,0.000431,0.239052
21508000,0.0324,0.013523,0.002678,0.000431,0.354465
21509000,0.0324,0.013523,0.002678,0.000431,0.042545
21510000,0.0324,0.013523,0.002678,0.000431,0.030087
21511000,0.0324,0.013523,0.002678,0.000431,0.029029
21512000,0.0324,0.013523,0.002678,0.000431,0.018452
21513000,0.0324,0.013523,0.002678,0.000431,0.017629
21514000,0.0324,0.013523,0.002678,0.000431,0.018805
21515000,0.0324,0.013523,0.002678,0.000431,0.010578
21516000,0.0324,0.013523,0.002678,0.000431,0.010578
21517000,0.0324,0.013523,0.002678,0.000431,0.009872
21518000,0.0324,0.013523,0.002678,0.000431,0.015044
21519000,0.0324,0.013523,0.002678,0.000431,0.006111
21520000,0.0324,0.013523,0.002678,0.000431,0.007874
21521000,0.0324,0.013523,0.002678,0.000431,0.005406
21522000,0.0324,0.013523,0.002678,0.000431,0.006111
21523000,0.0324,0.013523,0.002678,0.000431,0.006582
21524000,0.0324,0.013523,0.002678,0.000431,0.005641
21525000,0.0324,0.013523,0.002678,0.000431,0.002821
21526000,0.0324,0.013523,0.002678,0.000431,0.002586
21527000,0.0324,0.013523,0.002678,0.000431,0.002468
21528000,0.0324,0.013523,0.002678,0.000431,0.002703
21529000,0.0324,0.013523,0.002678,0.000431,0.003408
21530000,0.0324,0.013523,0.002678,0.000431,0.002821
21531000,0.0324,0.013523,0.002678,0.000431,0.001645
21532000,0.0324,0.013523,0.002678,0.000431,0.001763
21533000,0.0324,0.013523,0.002678,0.000431,0.001880
21534000,0.0324,0.013523,0.002678,0.000431,0.001645
21535000,0.0324,0.013523,0.002678,0.000431,0.001763
21536000,0.0324,0.013523,0.002678,0.000431,0.001763
21537000,0.0324,0.013523,0.002678,0.000431,0.001645
21538000,0.0324,0.013523,0.002678,0.000431,0.001880
21539000,0.0324,0.013523,0.002678,0.000431,0.001763
21540000,0.0324,0.013523,0.002678,0.000431,0.001645
21541000,0.0324,0.013523,0.002678,0.000431,0.001645
21542000,0.0324,0.013523,0.002678,0.000431,0.001763
21543000,0.0324,0.013523,0.002678,0.000431,0.001763
21544000,0.0324,0.013523,0.002678,0.000431,0.001763
21545000,0.0324,0.013523,0.002678,0.000431,0.001645
21546000,0.0324,0.013523,0.002678,0.000431,0.001763
21547000,0.0324,0.013523,0.002678,0.000431,0.001645
21548000,0.0324,0.013523,0.002678,0.000431,0.001763
21549000,0.0324,0.013523,0.002678,0.000431,0.001763
21550000,0.0324,0.013523,0.002678,0.000431,0.001645
21551000,0.0324,0.013523,0.002678,0.000431,0.001763
21552000,0.0324,0.013523,0.002678,0.000431,0.001645
21553000,0.0324,0.013523,0.002678,0.000431,0.001763
21554000,0.0324,0.013523,0.002678,0.000431,0.001763
21555000,0.0324,0.013523,0.002678,0.000431,0.001645
21556000,0.0324,0.013523,0.002678,0.000431,0.001763
21557000,0.0324,0.013523,0.002678,0.000431,0.001645
21558000,0.0324,0.013523,0.002678,0.000431,0.001880
21559000,0.0324,0.013523,0.002678,0.000431,0.001645
21560000,0.0324,0.013523,0.002678,0.000431,0.001645
21561000,0.0324,0.013523,0.002678,0.000431,0.001880
21562000,0.0324,0.013523,0.002678,0.000431,0.001763
21563000,0.0324,0.013523,0.002678,0.000431,0.001645
21564000,0.0324,0.013523,0.002678,0.000431,0.001763
21565000,0.0324,0.013523,0.002678,0.000431,0.001880
21566000,0.0324,0.013523,0.002678,0.000431,0.001763
21567000,0.0324,0.013523,0.002678,0.000431,0.001528
21568000,0.0324,0.013523,0.002678,0.000431,0.001880
21569000,0.0324,0.013523,0.002678,0.000431,0.001880
21570000,0.0324,0.013523,0.002678,0.000431,0.001645
21571000,0.0324,0.013523,0.002678,0.000431,0.001763
21572000,0.0324,0.013523,0.002678,0.000431,0.001763
21573000,0.0324,0.013523,0.002678,0.000431,0.001880
21574000,0.0324,0.013523,0.002678,0.000431,0.001645
21575000,0.0324,0.013523,0.002678,0.000431,0.001645
21576000,0.0324,0.013523,0.002678,0.000431,0.002938
21577000,0.0324,0.013523,0.002678,0.000431,0.002351
21578000,0.0324,0.013523,0.002678,0.000431,0.000823
21579000,0.0324,0.013523,0.002678,0.000431,0.000705
21580000,0.0324,0.013523,0.002678,0.000431,0.000940
21581000,0.0324,0.013523,0.002678,0.000431,0.000823
21582000,0.0324,0.013523,0.002678,0.000431,0.000823
21583000,0.0324,0.013523,0.002678,0.000431,0.000823
21584000,0.0324,0.013523,0.002678,0.000431,0.000823
21585000,0.0324,0.013523,0.002678,0.000431,0.000823
21586000,0.0324,0.013523,0.002678,0.000431,0.000940
21587000,0.0324,0.013523,0.002678,0.000431,0.000823
21588000,0.0324,0.013523,0.002678,0.000431,0.000823
21589000,0.0324,0.013523,0.002678,0.000431,0.000940
21590000,0.0324,0.013523,0.002678,0.000431,0.000823
21591000,0.0324,0.013523,0.002678,0.000431,0.000823
21592000,0.0324,0.013523,0.002678,0.000431,0.000940
21593000,0.0324,0.013523,0.002678,0.000431,0.000940
21594000,0.0324,0.013523,0.002678,0.000431,0.000823
21595000,0.0324,0.013523,0.002678,0.000431,0.000823
21596000,0.0324,0.013523,0.002678,0.000431,0.000940
21597000,0.0324,0.013523,0.002678,0.000431,0.000940
21598000,0.0324,0.013523,0.002678,0.000431,0.000705
21599000,0.0324,0.013523,0.002678,0.000431,0.000940
21600000,0.0324,0.013523,0.002678,0.000431,0.000940
21601000,0.0324,0.013523,0.002678,0.000431,0.000823
21602000,0.0324,0.013523,0.002678,0.000431,0.000823
21603000,0.0324,0.013523,0.002678,0.000431,0.000940
21604000,0.0324,0.013523,0.002678,0.000431,0.000940
21605000,0.0324,0.013523,0.002678,0.000431,0.000823
21606000,0.0324,0.013523,0.002678,0.000431,0.000823
21607000,0.0324,0.013523,0.002678,0.000431,0.000940
21608000,0.0324,0.013523,0.002678,0.000431,0.000823
21609000,0.0324,0.013523,0.002678,0.000431,0.000940
21610000,0.0324,0.013523,0.002678,0.000431,0.000823
21611000,0.0324,0.013523,0.002678,0.000431,0.000940
21612000,0.0324,0.013523,0.002678,0.000431,0.000940
21613000,0.0324,0.013523,0.002678,0.000431,0.000705
21614000,0.0324,0.013523,0.002678,0.000431,0.000940
21615000,0.0324,0.013523,0.002678,0.000431,0.000940
21616000,0.0324,0.013523,0.002678,0.000431,0.000940
21617000,0.0324,0.013523,0.002678,0.000431,0.000705
21618000,0.0324,0.013523,0.002678,0.000431,0.000940
21619000,0.0324,0.013523,0.002678,0.000431,0.000940
21620000,0.0324,0.013523,0.002678,0.000431,0.000823
21621000,0.0324,0.013523,0.002678,0.000431,0.000823
21622000,0.0324,0.013523,0.002678,0.000431,0.000940
21623000,0.0324,0.013523,0.002678,0.000431,0.000940
21624000,0.0324,0.013523,0.002678,0.000431,0.000823
21625000,0.0324,0.013523,0.002678,0.000431,0.000823
21626000,0.0324,0.013523,0.002678,0.000431,0.000940
21627000,0.0324,0.013523,0.002678,0.000431,0.000823
21628000,0.0324,0.013523,0.002678,0.000431,0.000940
21629000,0.0324,0.013523,0.002678,0.000431,0.000823
21630000,0.0324,0.013523,0.002678,0.000431,0.068989
21631000,0.0324,0.013523,0.002678,0.000431,0.437675
21632000,0.0324,0.013523,0.002678,0.000431,0.602097
21633000,0.0324,0.013523,0.002678,0.000431,0.131161
21634000,0.0324,0.013523,0.002678,0.000431,0.134922
21635000,0.0324,0.013523,0.002678,0.000431,0.555791
21636000,0.0324,0.013523,0.002678,0.000431,0.284536
21637000,0.0324,0.013523,0.002678,0.000431,0.241050
21638000,0.0324,0.013523,0.002678,0.000431,0.299932
21639000,0.0324,0.013523,0.002678,0.000431,0.137978
21640000,0.0324,0.013523,0.002678,0.000431,0.147615
21641000,0.0324,0.013523,0.002678,0.000431,0.117058
21642000,0.0324,0.013523,0.002678,0.000431,0.319089
21643000,0.0324,0.013523,0.002678,0.000431,0.289002
21644000,0.0324,0.013523,0.002678,0.000431,0.043838
21645000,0.0324,0.013523,0.002678,0.000431,0.033496
21646000,0.0324,0.013523,0.002678,0.000431,0.024916
21647000,0.0324,0.013523,0.002678,0.000431,0.018099
21648000,0.0324,0.013523,0.002678,0.000431,0.012223
21649000,0.0324,0.013523,0.002678,0.000431,0.011870
21650000,0.0324,0.013523,0.002678,0.000431,0.012928
21651000,0.0324,0.013523,0.002678,0.000431,0.012105
21652000,0.0324,0.013523,0.002678,0.000431,0.009637
21653000,0.0324,0.013523,0.002678,0.000431,0.007874
21654000,0.0324,0.013523,0.002678,0.000431,0.009285
21655000,0.0324,0.013523,0.002678,0.000431,0.005759
21656000,0.0324,0.013523,0.002678,0.000431,0.008462
21657000,0.0324,0.013523,0.002678,0.000431,0.006582
21658000,0.0324,0.013523,0.002678,0.000431,0.003996
21659000,0.0324,0.013523,0.002678,0.000431,0.004113
21660000,0.0324,0.013523,0.002678,0.000431,0.004113
21661000,0.0324,0.013523,0.002678,0.000431,0.003996
21662000,0.0324,0.013523,0.002678,0.000431,0.004231
21663000,0.0324,0.013523,0.002678,0.000431,0.004936
21664000,0.0324,0.013523,0.002678,0.000431,0.004584
21665000,0.0324,0.013523,0.002678,0.000431,0.003526
21666000,0.0324,0.013523,0.002678,0.000431,0.002468
21667000,0.0324,0.013523,0.002678,0.000431,0.002586
21668000,0.0324,0.013523,0.002678,0.000431,0.002821
21669000,0.0324,0.013523,0.002678,0.000431,0.002821
21670000,0.0324,0.013523,0.002678,0.000431,0.002468
21671000,0.0324,0.013523,0.002678,0.000431,0.003761
21672000,0.0324,0.013523,0.002678,0.000431,0.001880
21673000,0.0324,0.013523,0.002678,0.000431,0.001528
21674000,0.0324,0.013523,0.002678,0.000431,0.001763
21675000,0.0324,0.013523,0.002678,0.000431,0.004349
21676000,0.0324,0.013523,0.002678,0.000431,0.000940
21677000,0.0324,0.013523,0.002678,0.000431,0.000823
21678000,0.0324,0.013523,0.002678,0.000431,0.000823
21679000,0.0324,0.013523,0.002678,0.000431,0.000940
21680000,0.0324,0.013523,0.002678,0.000431,0.000705
21681000,0.0324,0.013523,0.002678,0.000431,0.000940
21682000,0.0324,0.013523,0.002678,0.000431,0.000823
21683000,0.0324,0.013523,0.002678,0.000431,0.000823
21684000,0.0324,0.013523,0.002678,0.000431,0.000823
21685000,0.0324,0.013523,0.002678,0.000431,0.000823
21686000,0.0324,0.013523,0.002678,0.000431,0.000940
21687000,0.0324,0.013523,0.002678,0.000431,0.000705
21688000,0.0324,0.013523,0.002678,0.000431,0.000940
21689000,0.0324,0.013523,0.002678,0.000431,0.000823
21690000,0.0324,0.013523,0.002678,0.000431,0.000823
21691000,0.0324,0.013523,0.002678,0.000431,0.000823
21692000,0.0324,0.013523,0.002678,0.000431,0.000823
21693000,0.0324,0.013523,0.002678,0.000431,0.000823
21694000,0.0324,0.013523,0.002678,0.000431,0.000823
21695000,0.0324,0.013523,0.002678,0.000431,0.000823
21696000,0.0324,0.013523,0.002678,0.000431,0.000823
21697000,0.0324,0.013523,0.002678,0.000431,0.000940
21698000,0.0324,0.013523,0.002678,0.000431,0.000823
21699000,0.0324,0.013523,0.002678,0.000431,0.000823
21700000,0.0324,0.013523,0.002678,0.000431,0.000705
21701000,0.0324,0.013523,0.002678,0.000431,0.000940
21702000,0.0324,0.013523,0.002678,0.000431,0.000940
21703000,0.0324,0.013523,0.002678,0.000431,0.000940
21704000,0.0324,0.013523,0.002678,0.000431,0.000705
21705000,0.0324,0.013523,0.002678,0.000431,0.000940
21706000,0.0324,0.013523,0.002678,0.000431,0.000940
21707000,0.0324,0.013523,0.002678,0.000431,0.000823
21708000,0.0324,0.013523,0.002678,0.000431,0.000823
21709000,0.0324,0.013523,0.002678,0.000431,0.000940
21710000,0.0324,0.013523,0.002678,0.000431,0.000940
21711000,0.0324,0.013523,0.002678,0.000431,0.002586
21712000,0.0324,0.013523,0.002678,0.000431,0.402299
21713000,0.0324,0.013523,0.002678,0.000431,0.676962
21714000,0.0324,0.013523,0.002678,0.000431,0.131161
21715000,0.0324,0.013523,0.002678,0.000431,0.134922
21716000,0.0324,0.013523,0.002678,0.000431,0.273371
21717000,0.0324,0.013523,0.002678,0.000431,0.493736
21718000,0.0324,0.013523,0.002678,0.000431,0.263028
21719000,0.0324,0.013523,0.002678,0.000431,0.379851
21720000,0.0324,0.013523,0.002678,0.000431,0.171591
21721000,0.0324,0.013523,0.002678,0.000431,0.152081
21722000,0.0324,0.013523,0.002678,0.000431,0.103307
21723000,0.0324,0.013523,0.002678,0.000431,0.425922
21724000,0.0324,0.013523,0.002678,0.000431,0.135863
21725000,0.0324,0.013523,0.002678,0.000431,0.039842
21726000,0.0324,0.013523,0.002678,0.000431,0.027737
21727000,0.0324,0.013523,0.002678,0.000431,0.029970
21728000,0.0324,0.013523,0.002678,0.000431,0.019157
21729000,0.0324,0.013523,0.002678,0.000431,0.019275
21730000,0.0324,0.013523,0.002678,0.000431,0.013516
21731000,0.0324,0.013523,0.002678,0.000431,0.011165
21732000,0.0324,0.013523,0.002678,0.000431,0.011518
21733000,0.0324,0.013523,0.002678,0.000431,0.009872
21734000,0.0324,0.013523,0.002678,0.000431,0.010107
21735000,0.0324,0.013523,0.002678,0.000431,0.009402
21736000,0.0324,0.013523,0.002678,0.000431,0.009285
21737000,0.0324,0.013523,0.002678,0.000431,0.009520
21738000,0.0324,0.013523,0.002678,0.000431,0.010695
21739000,0.0324,0.013523,0.002678,0.000431,0.008462
21740000,0.0324,0.013523,0.002678,0.000431,0.008697
21741000,0.0324,0.013523,0.002678,0.000431,0.007874
21742000,0.0324,0.013523,0.002678,0.000431,0.009402
21743000,0.0324,0.013523,0.002678,0.000431,0.008109
21744000,0.0324,0.013523,0.002678,0.000431,0.010460
21745000,0.0324,0.013523,0.002678,0.000431,0.006582
21746000,0.0324,0.013523,0.002678,0.000431,0.006817
21747000,0.0324,0.013523,0.002678,0.000431,0.006817
21748000,0.0324,0.013523,0.002678,0.000431,0.006582
21749000,0.0324,0.013523,0.002678,0.000431,0.006699
21750000,0.0324,0.013523,0.002678,0.000431,0.007639
21751000,0.0324,0.013523,0.002678,0.000431,0.007404
21752000,0.0324,0.013523,0.002678,0.000431,0.005406
21753000,0.0324,0.013523,0.002678,0.000431,0.005876
21754000,0.0324,0.013523,0.002678,0.000431,0.006111
21755000,0.0324,0.013523,0.002678,0.000431,0.005641
21756000,0.0324,0.013523,0.002678,0.000431,0.005759
21757000,0.0324,0.013523,0.002678,0.000431,0.005876
21758000,0.0324,0.013523,0.002678,0.000431,0.006464
21759000,0.0324,0.013523,0.002678,0.000431,0.005289
21760000,0.0324,0.013523,0.002678,0.000431,0.005876
21761000,0.0324,0.013523,0.002678,0.000431,0.007874
21762000,0.0324,0.013523,0.002678,0.000431,0.004584
21763000,0.0324,0.013523,0.002678,0.000431,0.007639
21764000,0.0324,0.013523,0.002678,0.000431,0.003526
21765000,0.0324,0.013523,0.002678,0.000431,0.003761
21766000,0.0324,0.013523,0.002678,0.000431,0.002938
21767000,0.0324,0.013523,0.002678,0.000431,0.003173
21768000,0.0324,0.013523,0.002678,0.000431,0.003761
21769000,0.0324,0.013523,0.002678,0.000431,0.002938
21770000,0.0324,0.013523,0.002678,0.000431,0.003291
21771000,0.0324,0.013523,0.002678,0.000431,0.003408
21772000,0.0324,0.013523,0.002678,0.000431,0.003526
21773000,0.0324,0.013523,0.002678,0.000431,0.002938
21774000,0.0324,0.013523,0.002678,0.000431,0.003291
21775000,0.0324,0.013523,0.002678,0.000431,0.003643
21776000,0.0324,0.013523,0.002678,0.000431,0.002938
21777000,0.0324,0.013523,0.002678,0.000431,0.003291
21778000,0.0324,0.013523,0.002678,0.000431,0.003643
21779000,0.0324,0.013523,0.002678,0.000431,0.002938
21780000,0.0324,0.013523,0.002678,0.000431,0.003408
21781000,0.0324,0.013523,0.002678,0.000431,0.003291
21782000,0.0324,0.013523,0.002678,0.000431,0.003526
21783000,0.0324,0.013523,0.002678,0.000431,0.003056
21784000,0.0324,0.013523,0.002678,0.000431,0.003291
21785000,0.0324,0.013523,0.002678,0.000431,0.003643
21786000,0.0324,0.013523,0.002678,0.000431,0.002821
21787000,0.0324,0.013523,0.002678,0.000431,0.003408
21788000,0.0324,0.013523,0.002678,0.000431,0.003526
21789000,0.0324,0.013523,0.002678,0.000431,0.003408
21790000,0.0324,0.013523,0.002678,0.000431,0.002938
21791000,0.0324,0.013523,0.002678,0.000431,0.003291
21792000,0.0324,0.013523,0.002678,0.000431,0.003643
21793000,0.0324,0.013523,0.002678,0.000431,0.002938
21794000,0.0324,0.013523,0.002678,0.000431,0.003291
21795000,0.0324,0.013523,0.002678,0.000431,0.003761
21796000,0.0324,0.013523,0.002678,0.000431,0.003173
21797000,0.0324,0.013523,0.002678,0.000431,0.002938
21798000,0.0324,0.013523,0.002678,0.000431,0.003291
21799000,0.0324,0.013523,0.002678,0.000431,0.003761
21800000,0.0324,0.013523,0.002678,0.000431,0.002938
21801000,0.0324,0.013523,0.002678,0.000431,0.003173
21802000,0.0324,0.013523,0.002678,0.000431,0.004819
21803000,0.0324,0.013523,0.002678,0.000431,0.002351
21804000,0.0324,0.013523,0.002678,0.000431,0.002116
21805000,0.0324,0.013523,0.002678,0.000431,0.002586
21806000,0.0324,0.013523,0.002678,0.000431,0.002586
21807000,0.0324,0.013523,0.002678,0.000431,0.002116
21808000,0.0324,0.013523,0.002678,0.000431,0.002351
21809000,0.0324,0.013523,0.002678,0.000431,0.002821
21810000,0.0324,0.013523,0.002678,0.000431,0.002351
21811000,0.0324,0.013523,0.002678,0.000431,0.002116
21812000,0.0324,0.013523,0.002678,0.000431,0.002821
21813000,0.0324,0.013523,0.002678,0.000431,0.002351
21814000,0.0324,0.013523,0.002678,0.000431,0.002116
21815000,0.0324,0.013523,0.002678,0.000431,0.002351
21816000,0.0324,0.013523,0.002678,0.000431,0.002821
21817000,0.0324,0.013523,0.002678,0.000431,0.002468
21818000,0.0324,0.013523,0.002678,0.000431,0.001998
21819000,0.0324,0.013523,0.002678,0.000431,0.002821
21820000,0.0324,0.013523,0.002678,0.000431,0.002351
21821000,0.0324,0.013523,0.002678,0.000431,0.002116
21822000,0.0324,0.013523,0.002678,0.000431,0.002586
21823000,0.0324,0.013523,0.002678,0.000431,0.002586
21824000,0.0324,0.013523,0.002678,0.000431,0.002468
21825000,0.0324,0.013523,0.002678,0.000431,0.001998
21826000,0.0324,0.013523,0.002678,0.000431,0.002821
21827000,0.0324,0.013523,0.002678,0.000431,0.002351
21828000,0.0324,0.013523,0.002678,0.000431,0.002116
21829000,0.0324,0.013523,0.002678,0.000431,0.002821
21830000,0.0324,0.013523,0.002678,0.000431,0.002351
21831000,0.0324,0.013523,0.002678,0.000431,0.002116
21832000,0.0324,0.013523,0.002678,0.000431,0.002351
21833000,0.0324,0.013523,0.002678,0.000431,0.002821
21834000,0.0324,0.013523,0.002678,0.000431,0.002468
21835000,0.0324,0.013523,0.002678,0.000431,0.001998
21836000,0.0324,0.013523,0.002678,0.000431,0.002821
21837000,0.0324,0.013523,0.002678,0.000431,0.002351
21838000,0.0324,0.013523,0.002678,0.000431,0.002116
21839000,0.0324,0.013523,0.002678,0.000431,0.002586
21840000,0.0324,0.013523,0.002678,0.000431,0.002586
21841000,0.0324,0.013523,0.002678,0.000431,0.002468
21842000,0.0324,0.013523,0.002678,0.000431,0.001998
21843000,0.0324,0.013523,0.002678,0.000431,0.002821
21844000,0.0324,0.013523,0.002678,0.000431,0.002351
21845000,0.0324,0.013523,0.002678,0.000431,0.002116
21846000,0.0324,0.013523,0.002678,0.000431,0.002821
21847000,0.0324,0.013523,0.002678,0.000431,0.002351
21848000,0.0324,0.013523,0.002678,0.000431,0.001998
21849000,0.0324,0.013523,0.002678,0.000431,0.001645
21850000,0.0324,0.013523,0.002678,0.000431,0.001645
21851000,0.0324,0.013523,0.002678,0.000431,0.001645
21852000,0.0324,0.013523,0.002678,0.000431,0.193216
21853000,0.0324,0.013523,0.002678,0.000431,0.519945
21854000,0.0324,0.013523,0.002678,0.000431,0.428860
21855000,0.0324,0.013523,0.002678,0.000431,0.133159
21856000,0.0324,0.013523,0.002678,0.000431,0.132102
21857000,0.0324,0.013523,0.002678,0.000431,0.578239
21858000,0.0324,0.013523,0.002678,0.000431,0.246457
21859000,0.0324,0.013523,0.002678,0.000431,0.264086
21860000,0.0324,0.013523,0.002678,0.000431,0.304045
21861000,0.0324,0.013523,0.002678,0.000431,0.143267
21862000,0.0324,0.013523,0.002678,0.000431,0.150671
21863000,0.0324,0.013523,0.002678,0.000431,0.105893
21864000,0.0324,0.013523,0.002678,0.000431,0.441318
21865000,0.0324,0.013523,0.002678,0.000431,0.105658
21866000,0.0324,0.013523,0.002678,0.000431,0.021860
21867000,0.0324,0.013523,0.002678,0.000431,0.018099
21868000,0.0324,0.013523,0.002678,0.000431,0.011283
21869000,0.0324,0.013523,0.002678,0.000431,0.008227
21870000,0.0324,0.013523,0.002678,0.000431,0.007639
21871000,0.0324,0.013523,0.002678,0.000431,0.006229
21872000,0.0324,0.013523,0.002678,0.000431,0.005994
21873000,0.0324,0.013523,0.002678,0.000431,0.006817
21874000,0.0324,0.013523,0.002678,0.000431,0.005171
21875000,0.0324,0.013523,0.002678,0.000431,0.004819
21876000,0.0324,0.013523,0.002678,0.000431,0.004819
21877000,0.0324,0.013523,0.002678,0.000431,0.004936
21878000,0.0324,0.013523,0.002678,0.000431,0.005641
21879000,0.0324,0.013523,0.002678,0.000431,0.003643
21880000,0.0324,0.013523,0.002678,0.000431,0.004936
21881000,0.0324,0.013523,0.002678,0.000431,0.004466
21882000,0.0324,0.013523,0.002678,0.000431,0.000940
21883000,0.0324,0.013523,0.002678,0.000431,0.000940
21884000,0.0324,0.013523,0.002678,0.000431,0.000823
21885000,0.0324,0.013523,0.002678,0.000431,0.000823
21886000,0.0324,0.013523,0.002678,0.000431,0.000940
21887000,0.0324,0.013523,0.002678,0.000431,0.000940
21888000,0.0324,0.013523,0.002678,0.000431,0.035023
21889000,0.0324,0.013523,0.002678,0.000431,0.436265
21890000,0.0324,0.013523,0.002678,0.000431,0.601157
21891000,0.0324,0.013523,0.002678,0.000431,0.130691
21892000,0.0324,0.013523,0.002678,0.000431,0.133159
21893000,0.0324,0.013523,0.002678,0.000431,0.470700
21894000,0.0324,0.013523,0.002678,0.000431,0.304986
21895000,0.0324,0.013523,0.002678,0.000431,0.227300
21896000,0.0324,0.013523,0.002678,0.000431,0.351292
21897000,0.0324,0.013523,0.002678,0.000431,0.180758
21898000,0.0324,0.013523,0.002678,0.000431,0.141857
21899000,0.0324,0.013523,0.002678,0.000431,0.132807
21900000,0.0324,0.013523,0.002678,0.000431,0.236114
21901000,0.0324,0.013523,0.002678,0.000431,0.340127
21902000,0.0324,0.013523,0.002678,0.000431,0.041135
21903000,0.0324,0.013523,0.002678,0.000431,0.025856
21904000,0.0324,0.013523,0.002678,0.000431,0.024916
21905000,0.0324,0.013523,0.002678,0.000431,0.024328
21906000,0.0324,0.013523,0.002678,0.000431,0.016807
21907000,0.0324,0.013523,0.002678,0.000431,0.017394
21908000,0.0324,0.013523,0.002678,0.000431,0.012340
21909000,0.0324,0.013523,0.002678,0.000431,0.010813
21910000,0.0324,0.013523,0.002678,0.000431,0.009755
21911000,0.0324,0.013523,0.002678,0.000431,0.009755
21912000,0.0324,0.013523,0.002678,0.000431,0.009402
21913000,0.0324,0.013523,0.002678,0.000431,0.009167
21914000,0.0324,0.013523,0.002678,0.000431,0.008697
21915000,0.0324,0.013523,0.002678,0.000431,0.008932
21916000,0.0324,0.013523,0.002678,0.000431,0.008227
21917000,0.0324,0.013523,0.002678,0.000431,0.008227
21918000,0.0324,0.013523,0.002678,0.000431,0.006111
21919000,0.0324,0.013523,0.002678,0.000431,0.005994
21920000,0.0324,0.013523,0.002678,0.000431,0.005524
21921000,0.0324,0.013523,0.002678,0.000431,0.006229
21922000,0.0324,0.013523,0.002678,0.000431,0.005994
21923000,0.0324,0.013523,0.002678,0.000431,0.006699
21924000,0.0324,0.013523,0.002678,0.000431,0.005171
21925000,0.0324,0.013523,0.002678,0.000431,0.005994
21926000,0.0324,0.013523,0.002678,0.000431,0.004113
21927000,0.0324,0.013523,0.002678,0.000431,0.003408
21928000,0.0324,0.013523,0.002678,0.000431,0.003526
21929000,0.0324,0.013523,0.002678,0.000431,0.005054
21930000,0.0324,0.013523,0.002678,0.000431,0.002821
21931000,0.0324,0.013523,0.002678,0.000431,0.002468
21932000,0.0324,0.013523,0.002678,0.000431,0.002821
21933000,0.0324,0.013523,0.002678,0.000431,0.003643
21934000,0.0324,0.013523,0.002678,0.000431,0.001763
21935000,0.0324,0.013523,0.002678,0.000431,0.001528
21936000,0.0324,0.013523,0.002678,0.000431,0.001880
21937000,0.0324,0.013523,0.002678,0.000431,0.001763
21938000,0.0324,0.013523,0.002678,0.000431,0.001528
21939000,0.0324,0.013523,0.002678,0.000431,0.001880
21940000,0.0324,0.013523,0.002678,0.000431,0.001645
21941000,0.0324,0.013523,0.002678,0.000431,0.001763
21942000,0.0324,0.013523,0.002678,0.000431,0.001645
21943000,0.0324,0.013523,0.002678,0.000431,0.001763
21944000,0.0324,0.013523,0.002678,0.000431,0.001763
21945000,0.0324,0.013523,0.002678,0.000431,0.001645
21946000,0.0324,0.013523,0.002678,0.000431,0.001763
21947000,0.0324,0.013523,0.002678,0.000431,0.001645
21948000,0.0324,0.013523,0.002678,0.000431,0.001880
21949000,0.0324,0.013523,0.002678,0.000431,0.001645
21950000,0.0324,0.013523,0.002678,0.000431,0.001645
21951000,0.0324,0.013523,0.002678,0.000431,0.001763
21952000,0.0324,0.013523,0.002678,0.000431,0.001645
21953000,0.0324,0.013523,0.002678,0.000431,0.001880
21954000,0.0324,0.013523,0.002678,0.000431,0.001528
21955000,0.0324,0.013523,0.002678,0.000431,0.001763
21956000,0.0324,0.013523,0.002678,0.000431,0.001645
21957000,0.0324,0.013523,0.002678,0.000431,0.001763
21958000,0.0324,0.013523,0.002678,0.000431,0.001763
21959000,0.0324,0.013523,0.002678,0.000431,0.003761
21960000,0.0324,0.013523,0.002678,0.000431,0.000705
21961000,0.0324,0.013523,0.002678,0.000431,0.000940
21962000,0.0324,0.013523,0.002678,0.000431,0.000940
21963000,0.0324,0.013523,0.002678,0.000431,0.000705
21964000,0.0324,0.013523,0.002678,0.000431,0.000940
21965000,0.0324,0.013523,0.002678,0.000431,0.000705
21966000,0.0324,0.013523,0.002678,0.000431,0.000940
21967000,0.0324,0.013523,0.002678,0.000431,0.000823
21968000,0.0324,0.013523,0.002678,0.000431,0.000823
21969000,0.0324,0.013523,0.002678,0.000431,0.000940
21970000,0.0324,0.013523,0.002678,0.000431,0.000705
21971000,0.0324,0.013523,0.002678,0.000431,0.000940
21972000,0.0324,0.013523,0.002678,0.000431,0.000823
21973000,0.0324,0.013523,0.002678,0.000431,0.000823
21974000,0.0324,0.013523,0.002678,0.000431,0.000823
21975000,0.0324,0.013523,0.002678,0.000431,0.000823
21976000,0.0324,0.013523,0.002678,0.000431,0.000823
21977000,0.0324,0.013523,0.002678,0.000431,0.000823
21978000,0.0324,0.013523,0.002678,0.000431,0.000940
21979000,0.0324,0.013523,0.002678,0.000431,0.000705
21980000,0.0324,0.013523,0.002678,0.000431,0.000940
21981000,0.0324,0.013523,0.002678,0.000431,0.000823
21982000,0.0324,0.013523,0.002678,0.000431,0.000823
21983000,0.0324,0.013523,0.002678,0.000431,0.000823
21984000,0.0324,0.013523,0.002678,0.000431,0.000823
21985000,0.0324,0.013523,0.002678,0.000431,0.000940
21986000,0.0324,0.013523,0.002678,0.000431,0.000705
21987000,0.0324,0.013523,0.002678,0.000431,0.000940
21988000,0.0324,0.013523,0.002678,0.000431,0.000705
21989000,0.0324,0.013523,0.002678,0.000431,0.000940
21990000,0.0324,0.013523,0.002678,0.000431,0.000823
21991000,0.0324,0.013523,0.002678,0.000431,0.000823
21992000,0.0324,0.013523,0.002678,0.000431,0.000940
21993000,0.0324,0.013523,0.002678,0.000431,0.000705
21994000,0.0324,0.013523,0.002678,0.000431,0.000940
21995000,0.0324,0.013523,0.002678,0.000431,0.000823
21996000,0.0324,0.013523,0.002678,0.000431,0.000940
21997000,0.0324,0.013523,0.002678,0.000431,0.000823
21998000,0.0324,0.013523,0.002678,0.000431,0.000940
21999000,0.0324,0.013523,0.002678,0.000431,0.000823
