Cycle,Area(mm^2),PeakDynamic(W),SubthresholdLeakage(W),GateLeakage(W),RunTimeDynamic(W)
42000000,0.0324,0.013523,0.002678,0.000431,0.000940
42001000,0.0324,0.013523,0.002678,0.000431,0.000823
42002000,0.0324,0.013523,0.002678,0.000431,0.000940
42003000,0.0324,0.013523,0.002678,0.000431,0.000823
42004000,0.0324,0.013523,0.002678,0.000431,0.000823
42005000,0.0324,0.013523,0.002678,0.000431,0.000940
42006000,0.0324,0.013523,0.002678,0.000431,0.000940
42007000,0.0324,0.013523,0.002678,0.000431,0.000823
42008000,0.0324,0.013523,0.002678,0.000431,0.000940
42009000,0.0324,0.013523,0.002678,0.000431,0.000823
42010000,0.0324,0.013523,0.002678,0.000431,0.000940
42011000,0.0324,0.013523,0.002678,0.000431,0.000823
42012000,0.0324,0.013523,0.002678,0.000431,0.000823
42013000,0.0324,0.013523,0.002678,0.000431,0.000940
42014000,0.0324,0.013523,0.002678,0.000431,0.000940
42015000,0.0324,0.013523,0.002678,0.000431,0.000823
42016000,0.0324,0.013523,0.002678,0.000431,0.000823
42017000,0.0324,0.013523,0.002678,0.000431,0.000940
42018000,0.0324,0.013523,0.002678,0.000431,0.000940
42019000,0.0324,0.013523,0.002678,0.000431,0.000823
42020000,0.0324,0.013523,0.002678,0.000431,0.000823
42021000,0.0324,0.013523,0.002678,0.000431,0.000940
42022000,0.0324,0.013523,0.002678,0.000431,0.000940
42023000,0.0324,0.013523,0.002678,0.000431,0.000823
42024000,0.0324,0.013523,0.002678,0.000431,0.000823
42025000,0.0324,0.013523,0.002678,0.000431,0.000940
42026000,0.0324,0.013523,0.002678,0.000431,0.000823
42027000,0.0324,0.013523,0.002678,0.000431,0.000940
42028000,0.0324,0.013523,0.002678,0.000431,0.000823
42029000,0.0324,0.013523,0.002678,0.000431,0.000940
42030000,0.0324,0.013523,0.002678,0.000431,0.000823
42031000,0.0324,0.013523,0.002678,0.000431,0.000823
42032000,0.0324,0.013523,0.002678,0.000431,0.000940
42033000,0.0324,0.013523,0.002678,0.000431,0.000940
42034000,0.0324,0.013523,0.002678,0.000431,0.000705
42035000,0.0324,0.013523,0.002678,0.000431,0.000940
42036000,0.0324,0.013523,0.002678,0.000431,0.000940
42037000,0.0324,0.013523,0.002678,0.000431,0.000940
42038000,0.0324,0.013523,0.002678,0.000431,0.000705
42039000,0.0324,0.013523,0.002678,0.000431,0.000940
42040000,0.0324,0.013523,0.002678,0.000431,0.000940
42041000,0.0324,0.013523,0.002678,0.000431,0.000823
42042000,0.0324,0.013523,0.002678,0.000431,0.000823
42043000,0.0324,0.013523,0.002678,0.000431,0.000940
42044000,0.0324,0.013523,0.002678,0.000431,0.000940
42045000,0.0324,0.013523,0.002678,0.000431,0.000823
42046000,0.0324,0.013523,0.002678,0.000431,0.000823
42047000,0.0324,0.013523,0.002678,0.000431,0.000940
42048000,0.0324,0.013523,0.002678,0.000431,0.000823
42049000,0.0324,0.013523,0.002678,0.000431,0.000940
42050000,0.0324,0.013523,0.002678,0.000431,0.000823
42051000,0.0324,0.013523,0.002678,0.000431,0.000940
42052000,0.0324,0.013523,0.002678,0.000431,0.000823
42053000,0.0324,0.013523,0.002678,0.000431,0.000823
42054000,0.0324,0.013523,0.002678,0.000431,0.000940
42055000,0.0324,0.013523,0.002678,0.000431,0.000940
42056000,0.0324,0.013523,0.002678,0.000431,0.000940
42057000,0.0324,0.013523,0.002678,0.000431,0.000705
42058000,0.0324,0.013523,0.002678,0.000431,0.000940
42059000,0.0324,0.013523,0.002678,0.000431,0.000940
42060000,0.0324,0.013523,0.002678,0.000431,0.000823
42061000,0.0324,0.013523,0.002678,0.000431,0.000823
42062000,0.0324,0.013523,0.002678,0.000431,0.000940
42063000,0.0324,0.013523,0.002678,0.000431,0.000940
42064000,0.0324,0.013523,0.002678,0.000431,0.000823
42065000,0.0324,0.013523,0.002678,0.000431,0.000823
42066000,0.0324,0.013523,0.002678,0.000431,0.000940
42067000,0.0324,0.013523,0.002678,0.000431,0.000823
42068000,0.0324,0.013523,0.002678,0.000431,0.000940
42069000,0.0324,0.013523,0.002678,0.000431,0.000823
42070000,0.0324,0.013523,0.002678,0.000431,0.000940
42071000,0.0324,0.013523,0.002678,0.000431,0.000823
42072000,0.0324,0.013523,0.002678,0.000431,0.000823
42073000,0.0324,0.013523,0.002678,0.000431,0.000940
42074000,0.0324,0.013523,0.002678,0.000431,0.000940
42075000,0.0324,0.013523,0.002678,0.000431,0.000823
42076000,0.0324,0.013523,0.002678,0.000431,0.000823
42077000,0.0324,0.013523,0.002678,0.000431,0.000940
42078000,0.0324,0.013523,0.002678,0.000431,0.000940
42079000,0.0324,0.013523,0.002678,0.000431,0.000823
42080000,0.0324,0.013523,0.002678,0.000431,0.000823
42081000,0.0324,0.013523,0.002678,0.000431,0.000940
42082000,0.0324,0.013523,0.002678,0.000431,0.000823
42083000,0.0324,0.013523,0.002678,0.000431,0.000940
42084000,0.0324,0.013523,0.002678,0.000431,0.000823
42085000,0.0324,0.013523,0.002678,0.000431,0.000940
42086000,0.0324,0.013523,0.002678,0.000431,0.000823
42087000,0.0324,0.013523,0.002678,0.000431,0.000823
42088000,0.0324,0.013523,0.002678,0.000431,0.000940
42089000,0.0324,0.013523,0.002678,0.000431,0.000940
42090000,0.0324,0.013523,0.002678,0.000431,0.000823
42091000,0.0324,0.013523,0.002678,0.000431,0.000823
42092000,0.0324,0.013523,0.002678,0.000431,0.000940
42093000,0.0324,0.013523,0.002678,0.000431,0.000940
42094000,0.0324,0.013523,0.002678,0.000431,0.000705
42095000,0.0324,0.013523,0.002678,0.000431,0.000940
42096000,0.0324,0.013523,0.002678,0.000431,0.000940
42097000,0.0324,0.013523,0.002678,0.000431,0.000940
42098000,0.0324,0.013523,0.002678,0.000431,0.000705
42099000,0.0324,0.013523,0.002678,0.000431,0.000940
42100000,0.0324,0.013523,0.002678,0.000431,0.000940
42101000,0.0324,0.013523,0.002678,0.000431,0.000823
42102000,0.0324,0.013523,0.002678,0.000431,0.000823
42103000,0.0324,0.013523,0.002678,0.000431,0.000940
42104000,0.0324,0.013523,0.002678,0.000431,0.000940
42105000,0.0324,0.013523,0.002678,0.000431,0.000823
42106000,0.0324,0.013523,0.002678,0.000431,0.000823
42107000,0.0324,0.013523,0.002678,0.000431,0.000940
42108000,0.0324,0.013523,0.002678,0.000431,0.000823
42109000,0.0324,0.013523,0.002678,0.000431,0.000940
42110000,0.0324,0.013523,0.002678,0.000431,0.000823
42111000,0.0324,0.013523,0.002678,0.000431,0.000940
42112000,0.0324,0.013523,0.002678,0.000431,0.000940
42113000,0.0324,0.013523,0.002678,0.000431,0.000705
42114000,0.0324,0.013523,0.002678,0.000431,0.000940
42115000,0.0324,0.013523,0.002678,0.000431,0.000940
42116000,0.0324,0.013523,0.002678,0.000431,0.000940
42117000,0.0324,0.013523,0.002678,0.000431,0.000705
42118000,0.0324,0.013523,0.002678,0.000431,0.000940
42119000,0.0324,0.013523,0.002678,0.000431,0.000940
42120000,0.0324,0.013523,0.002678,0.000431,0.000823
42121000,0.0324,0.013523,0.002678,0.000431,0.000823
42122000,0.0324,0.013523,0.002678,0.000431,0.000940
42123000,0.0324,0.013523,0.002678,0.000431,0.000823
42124000,0.0324,0.013523,0.002678,0.000431,0.000940
42125000,0.0324,0.013523,0.002678,0.000431,0.000823
42126000,0.0324,0.013523,0.002678,0.000431,0.000940
42127000,0.0324,0.013523,0.002678,0.000431,0.000823
42128000,0.0324,0.013523,0.002678,0.000431,0.000823
42129000,0.0324,0.013523,0.002678,0.000431,0.000940
42130000,0.0324,0.013523,0.002678,0.000431,0.000940
42131000,0.0324,0.013523,0.002678,0.000431,0.000823
42132000,0.0324,0.013523,0.002678,0.000431,0.000823
42133000,0.0324,0.013523,0.002678,0.000431,0.000940
42134000,0.0324,0.013523,0.002678,0.000431,0.000940
42135000,0.0324,0.013523,0.002678,0.000431,0.000705
42136000,0.0324,0.013523,0.002678,0.000431,0.000940
42137000,0.0324,0.013523,0.002678,0.000431,0.000940
42138000,0.0324,0.013523,0.002678,0.000431,0.000940
42139000,0.0324,0.013523,0.002678,0.000431,0.000823
42140000,0.0324,0.013523,0.002678,0.000431,0.000823
42141000,0.0324,0.013523,0.002678,0.000431,0.000940
42142000,0.0324,0.013523,0.002678,0.000431,0.000823
42143000,0.0324,0.013523,0.002678,0.000431,0.000940
42144000,0.0324,0.013523,0.002678,0.000431,0.000823
42145000,0.0324,0.013523,0.002678,0.000431,0.000940
42146000,0.0324,0.013523,0.002678,0.000431,0.000823
42147000,0.0324,0.013523,0.002678,0.000431,0.000823
42148000,0.0324,0.013523,0.002678,0.000431,0.000940
42149000,0.0324,0.013523,0.002678,0.000431,0.000940
42150000,0.0324,0.013523,0.002678,0.000431,0.000823
42151000,0.0324,0.013523,0.002678,0.000431,0.000823
42152000,0.0324,0.013523,0.002678,0.000431,0.000940
42153000,0.0324,0.013523,0.002678,0.000431,0.000940
42154000,0.0324,0.013523,0.002678,0.000431,0.000705
42155000,0.0324,0.013523,0.002678,0.000431,0.000940
42156000,0.0324,0.013523,0.002678,0.000431,0.000940
42157000,0.0324,0.013523,0.002678,0.000431,0.000940
42158000,0.0324,0.013523,0.002678,0.000431,0.000705
42159000,0.0324,0.013523,0.002678,0.000431,0.000940
42160000,0.0324,0.013523,0.002678,0.000431,0.001645
42161000,0.0324,0.013523,0.002678,0.000431,0.349881
42162000,0.0324,0.013523,0.002678,0.000431,0.672731
42163000,0.0324,0.013523,0.002678,0.000431,0.175470
42164000,0.0324,0.013523,0.002678,0.000431,0.133042
42165000,0.0324,0.013523,0.002678,0.000431,0.132572
42166000,0.0324,0.013523,0.002678,0.000431,0.597396
42167000,0.0324,0.013523,0.002678,0.000431,0.224714
42168000,0.0324,0.013523,0.002678,0.000431,0.307924
42169000,0.0324,0.013523,0.002678,0.000431,0.257974
42170000,0.0324,0.013523,0.002678,0.000431,0.142444
42171000,0.0324,0.013523,0.002678,0.000431,0.178525
42172000,0.0324,0.013523,0.002678,0.000431,0.082505
42173000,0.0324,0.013523,0.002678,0.000431,0.480925
42174000,0.0324,0.013523,0.002678,0.000431,0.093552
42175000,0.0324,0.013523,0.002678,0.000431,0.039137
42176000,0.0324,0.013523,0.002678,0.000431,0.033848
42177000,0.0324,0.013523,0.002678,0.000431,0.018569
42178000,0.0324,0.013523,0.002678,0.000431,0.016807
42179000,0.0324,0.013523,0.002678,0.000431,0.015866
42180000,0.0324,0.013523,0.002678,0.000431,0.016101
42181000,0.0324,0.013523,0.002678,0.000431,0.012340
42182000,0.0324,0.013523,0.002678,0.000431,0.012223
42183000,0.0324,0.013523,0.002678,0.000431,0.011165
42184000,0.0324,0.013523,0.002678,0.000431,0.009990
42185000,0.0324,0.013523,0.002678,0.000431,0.011870
42186000,0.0324,0.013523,0.002678,0.000431,0.008932
42187000,0.0324,0.013523,0.002678,0.000431,0.008580
42188000,0.0324,0.013523,0.002678,0.000431,0.005759
42189000,0.0324,0.013523,0.002678,0.000431,0.005876
42190000,0.0324,0.013523,0.002678,0.000431,0.008580
42191000,0.0324,0.013523,0.002678,0.000431,0.005054
42192000,0.0324,0.013523,0.002678,0.000431,0.004936
42193000,0.0324,0.013523,0.002678,0.000431,0.005054
42194000,0.0324,0.013523,0.002678,0.000431,0.005289
42195000,0.0324,0.013523,0.002678,0.000431,0.005289
42196000,0.0324,0.013523,0.002678,0.000431,0.004936
42197000,0.0324,0.013523,0.002678,0.000431,0.007639
42198000,0.0324,0.013523,0.002678,0.000431,0.004231
42199000,0.0324,0.013523,0.002678,0.000431,0.004349
42200000,0.0324,0.013523,0.002678,0.000431,0.004349
42201000,0.0324,0.013523,0.002678,0.000431,0.004113
42202000,0.0324,0.013523,0.002678,0.000431,0.004113
42203000,0.0324,0.013523,0.002678,0.000431,0.004349
42204000,0.0324,0.013523,0.002678,0.000431,0.004349
42205000,0.0324,0.013523,0.002678,0.000431,0.004113
42206000,0.0324,0.013523,0.002678,0.000431,0.004349
42207000,0.0324,0.013523,0.002678,0.000431,0.003878
42208000,0.0324,0.013523,0.002678,0.000431,0.005641
42209000,0.0324,0.013523,0.002678,0.000431,0.003526
42210000,0.0324,0.013523,0.002678,0.000431,0.003408
42211000,0.0324,0.013523,0.002678,0.000431,0.003408
42212000,0.0324,0.013523,0.002678,0.000431,0.003291
42213000,0.0324,0.013523,0.002678,0.000431,0.003643
42214000,0.0324,0.013523,0.002678,0.000431,0.006582
42215000,0.0324,0.013523,0.002678,0.000431,0.001880
42216000,0.0324,0.013523,0.002678,0.000431,0.004936
42217000,0.0324,0.013523,0.002678,0.000431,0.000823
42218000,0.0324,0.013523,0.002678,0.000431,0.000823
42219000,0.0324,0.013523,0.002678,0.000431,0.000823
42220000,0.0324,0.013523,0.002678,0.000431,0.000823
42221000,0.0324,0.013523,0.002678,0.000431,0.000823
42222000,0.0324,0.013523,0.002678,0.000431,0.000940
42223000,0.0324,0.013523,0.002678,0.000431,0.000705
42224000,0.0324,0.013523,0.002678,0.000431,0.000940
42225000,0.0324,0.013523,0.002678,0.000431,0.000705
42226000,0.0324,0.013523,0.002678,0.000431,0.000940
42227000,0.0324,0.013523,0.002678,0.000431,0.000940
42228000,0.0324,0.013523,0.002678,0.000431,0.000705
42229000,0.0324,0.013523,0.002678,0.000431,0.000940
42230000,0.0324,0.013523,0.002678,0.000431,0.000705
42231000,0.0324,0.013523,0.002678,0.000431,0.000940
42232000,0.0324,0.013523,0.002678,0.000431,0.000823
42233000,0.0324,0.013523,0.002678,0.000431,0.000823
42234000,0.0324,0.013523,0.002678,0.000431,0.000823
42235000,0.0324,0.013523,0.002678,0.000431,0.000823
42236000,0.0324,0.013523,0.002678,0.000431,0.000940
42237000,0.0324,0.013523,0.002678,0.000431,0.000705
42238000,0.0324,0.013523,0.002678,0.000431,0.000940
42239000,0.0324,0.013523,0.002678,0.000431,0.000823
42240000,0.0324,0.013523,0.002678,0.000431,0.000823
42241000,0.0324,0.013523,0.002678,0.000431,0.000823
42242000,0.0324,0.013523,0.002678,0.000431,0.000823
42243000,0.0324,0.013523,0.002678,0.000431,0.000823
42244000,0.0324,0.013523,0.002678,0.000431,0.000823
42245000,0.0324,0.013523,0.002678,0.000431,0.000823
42246000,0.0324,0.013523,0.002678,0.000431,0.000823
42247000,0.0324,0.013523,0.002678,0.000431,0.000940
42248000,0.0324,0.013523,0.002678,0.000431,0.000823
42249000,0.0324,0.013523,0.002678,0.000431,0.000823
42250000,0.0324,0.013523,0.002678,0.000431,0.000705
42251000,0.0324,0.013523,0.002678,0.000431,0.000940
42252000,0.0324,0.013523,0.002678,0.000431,0.000940
42253000,0.0324,0.013523,0.002678,0.000431,0.000705
42254000,0.0324,0.013523,0.002678,0.000431,0.000940
42255000,0.0324,0.013523,0.002678,0.000431,0.000705
42256000,0.0324,0.013523,0.002678,0.000431,0.000940
42257000,0.0324,0.013523,0.002678,0.000431,0.000823
42258000,0.0324,0.013523,0.002678,0.000431,0.000823
42259000,0.0324,0.013523,0.002678,0.000431,0.000940
42260000,0.0324,0.013523,0.002678,0.000431,0.000705
42261000,0.0324,0.013523,0.002678,0.000431,0.000940
42262000,0.0324,0.013523,0.002678,0.000431,0.000823
42263000,0.0324,0.013523,0.002678,0.000431,0.000823
42264000,0.0324,0.013523,0.002678,0.000431,0.000823
42265000,0.0324,0.013523,0.002678,0.000431,0.000823
42266000,0.0324,0.013523,0.002678,0.000431,0.000823
42267000,0.0324,0.013523,0.002678,0.000431,0.000823
42268000,0.0324,0.013523,0.002678,0.000431,0.000940
42269000,0.0324,0.013523,0.002678,0.000431,0.000705
42270000,0.0324,0.013523,0.002678,0.000431,0.000940
42271000,0.0324,0.013523,0.002678,0.000431,0.000823
42272000,0.0324,0.013523,0.002678,0.000431,0.000823
42273000,0.0324,0.013523,0.002678,0.000431,0.000705
42274000,0.0324,0.013523,0.002678,0.000431,0.000940
42275000,0.0324,0.013523,0.002678,0.000431,0.000940
42276000,0.0324,0.013523,0.002678,0.000431,0.000705
42277000,0.0324,0.013523,0.002678,0.000431,0.000940
42278000,0.0324,0.013523,0.002678,0.000431,0.000705
42279000,0.0324,0.013523,0.002678,0.000431,0.000940
42280000,0.0324,0.013523,0.002678,0.000431,0.000823
42281000,0.0324,0.013523,0.002678,0.000431,0.000823
42282000,0.0324,0.013523,0.002678,0.000431,0.000940
42283000,0.0324,0.013523,0.002678,0.000431,0.000705
42284000,0.0324,0.013523,0.002678,0.000431,0.000940
42285000,0.0324,0.013523,0.002678,0.000431,0.000823
42286000,0.0324,0.013523,0.002678,0.000431,0.000823
42287000,0.0324,0.013523,0.002678,0.000431,0.000823
42288000,0.0324,0.013523,0.002678,0.000431,0.000823
42289000,0.0324,0.013523,0.002678,0.000431,0.000823
42290000,0.0324,0.013523,0.002678,0.000431,0.000823
42291000,0.0324,0.013523,0.002678,0.000431,0.000940
42292000,0.0324,0.013523,0.002678,0.000431,0.000705
42293000,0.0324,0.013523,0.002678,0.000431,0.000823
42294000,0.0324,0.013523,0.002678,0.000431,0.000940
42295000,0.0324,0.013523,0.002678,0.000431,0.000823
42296000,0.0324,0.013523,0.002678,0.000431,0.000823
42297000,0.0324,0.013523,0.002678,0.000431,0.000823
42298000,0.0324,0.013523,0.002678,0.000431,0.000823
42299000,0.0324,0.013523,0.002678,0.000431,0.000823
42300000,0.0324,0.013523,0.002678,0.000431,0.000940
42301000,0.0324,0.013523,0.002678,0.000431,0.000940
42302000,0.0324,0.013523,0.002678,0.000431,0.000823
42303000,0.0324,0.013523,0.002678,0.000431,0.003643
42304000,0.0324,0.013523,0.002678,0.000431,0.383377
42305000,0.0324,0.013523,0.002678,0.000431,0.702348
42306000,0.0324,0.013523,0.002678,0.000431,0.135745
42307000,0.0324,0.013523,0.002678,0.000431,0.135392
42308000,0.0324,0.013523,0.002678,0.000431,0.146088
42309000,0.0324,0.013523,0.002678,0.000431,0.592342
42310000,0.0324,0.013523,0.002678,0.000431,0.289354
42311000,0.0324,0.013523,0.002678,0.000431,0.257622
42312000,0.0324,0.013523,0.002678,0.000431,0.245869
42313000,0.0324,0.013523,0.002678,0.000431,0.137390
42314000,0.0324,0.013523,0.002678,0.000431,0.158193
42315000,0.0324,0.013523,0.002678,0.000431,0.144795
42316000,0.0324,0.013523,0.002678,0.000431,0.450250
42317000,0.0324,0.013523,0.002678,0.000431,0.053005
42318000,0.0324,0.013523,0.002678,0.000431,0.035611
42319000,0.0324,0.013523,0.002678,0.000431,0.026796
42320000,0.0324,0.013523,0.002678,0.000431,0.018569
42321000,0.0324,0.013523,0.002678,0.000431,0.014573
42322000,0.0324,0.013523,0.002678,0.000431,0.013516
42323000,0.0324,0.013523,0.002678,0.000431,0.009755
42324000,0.0324,0.013523,0.002678,0.000431,0.012105
42325000,0.0324,0.013523,0.002678,0.000431,0.008932
42326000,0.0324,0.013523,0.002678,0.000431,0.009755
42327000,0.0324,0.013523,0.002678,0.000431,0.009050
42328000,0.0324,0.013523,0.002678,0.000431,0.007522
42329000,0.0324,0.013523,0.002678,0.000431,0.008227
42330000,0.0324,0.013523,0.002678,0.000431,0.006817
42331000,0.0324,0.013523,0.002678,0.000431,0.006347
42332000,0.0324,0.013523,0.002678,0.000431,0.007052
42333000,0.0324,0.013523,0.002678,0.000431,0.006347
42334000,0.0324,0.013523,0.002678,0.000431,0.006229
42335000,0.0324,0.013523,0.002678,0.000431,0.007052
42336000,0.0324,0.013523,0.002678,0.000431,0.006229
42337000,0.0324,0.013523,0.002678,0.000431,0.006934
42338000,0.0324,0.013523,0.002678,0.000431,0.006699
42339000,0.0324,0.013523,0.002678,0.000431,0.006229
42340000,0.0324,0.013523,0.002678,0.000431,0.006934
42341000,0.0324,0.013523,0.002678,0.000431,0.006229
42342000,0.0324,0.013523,0.002678,0.000431,0.006817
42343000,0.0324,0.013523,0.002678,0.000431,0.007052
42344000,0.0324,0.013523,0.002678,0.000431,0.004701
42345000,0.0324,0.013523,0.002678,0.000431,0.005171
42346000,0.0324,0.013523,0.002678,0.000431,0.005054
42347000,0.0324,0.013523,0.002678,0.000431,0.004819
42348000,0.0324,0.013523,0.002678,0.000431,0.005524
42349000,0.0324,0.013523,0.002678,0.000431,0.004349
42350000,0.0324,0.013523,0.002678,0.000431,0.005524
42351000,0.0324,0.013523,0.002678,0.000431,0.005876
42352000,0.0324,0.013523,0.002678,0.000431,0.004466
42353000,0.0324,0.013523,0.002678,0.000431,0.004349
42354000,0.0324,0.013523,0.002678,0.000431,0.003996
42355000,0.0324,0.013523,0.002678,0.000431,0.004584
42356000,0.0324,0.013523,0.002678,0.000431,0.003878
42357000,0.0324,0.013523,0.002678,0.000431,0.004349
42358000,0.0324,0.013523,0.002678,0.000431,0.004231
42359000,0.0324,0.013523,0.002678,0.000431,0.004231
42360000,0.0324,0.013523,0.002678,0.000431,0.004349
42361000,0.0324,0.013523,0.002678,0.000431,0.003996
42362000,0.0324,0.013523,0.002678,0.000431,0.004113
42363000,0.0324,0.013523,0.002678,0.000431,0.004349
42364000,0.0324,0.013523,0.002678,0.000431,0.003996
42365000,0.0324,0.013523,0.002678,0.000431,0.004349
42366000,0.0324,0.013523,0.002678,0.000431,0.004231
42367000,0.0324,0.013523,0.002678,0.000431,0.003996
42368000,0.0324,0.013523,0.002678,0.000431,0.004701
42369000,0.0324,0.013523,0.002678,0.000431,0.004113
42370000,0.0324,0.013523,0.002678,0.000431,0.003996
42371000,0.0324,0.013523,0.002678,0.000431,0.005171
42372000,0.0324,0.013523,0.002678,0.000431,0.003408
42373000,0.0324,0.013523,0.002678,0.000431,0.003643
42374000,0.0324,0.013523,0.002678,0.000431,0.005171
42375000,0.0324,0.013523,0.002678,0.000431,0.002703
42376000,0.0324,0.013523,0.002678,0.000431,0.003408
42377000,0.0324,0.013523,0.002678,0.000431,0.002468
42378000,0.0324,0.013523,0.002678,0.000431,0.014926
42379000,0.0324,0.013523,0.002678,0.000431,0.487154
42380000,0.0324,0.013523,0.002678,0.000431,0.593987
42381000,0.0324,0.013523,0.002678,0.000431,0.134922
42382000,0.0324,0.013523,0.002678,0.000431,0.130691
42383000,0.0324,0.013523,0.002678,0.000431,0.246809
42384000,0.0324,0.013523,0.002678,0.000431,0.553323
42385000,0.0324,0.013523,0.002678,0.000431,0.244811
42386000,0.0324,0.013523,0.002678,0.000431,0.260795
42387000,0.0324,0.013523,0.002678,0.000431,0.200738
42388000,0.0324,0.013523,0.002678,0.000431,0.137978
42389000,0.0324,0.013523,0.002678,0.000431,0.167713
42390000,0.0324,0.013523,0.002678,0.000431,0.132807
42391000,0.0324,0.013523,0.002678,0.000431,0.442494
42392000,0.0324,0.013523,0.002678,0.000431,0.052183
42393000,0.0324,0.013523,0.002678,0.000431,0.029617
42394000,0.0324,0.013523,0.002678,0.000431,0.025621
42395000,0.0324,0.013523,0.002678,0.000431,0.024328
42396000,0.0324,0.013523,0.002678,0.000431,0.023271
42397000,0.0324,0.013523,0.002678,0.000431,0.020802
42398000,0.0324,0.013523,0.002678,0.000431,0.019627
42399000,0.0324,0.013523,0.002678,0.000431,0.022800
42400000,0.0324,0.013523,0.002678,0.000431,0.020802
42401000,0.0324,0.013523,0.002678,0.000431,0.017864
42402000,0.0324,0.013523,0.002678,0.000431,0.017629
42403000,0.0324,0.013523,0.002678,0.000431,0.015984
42404000,0.0324,0.013523,0.002678,0.000431,0.015749
42405000,0.0324,0.013523,0.002678,0.000431,0.015279
42406000,0.0324,0.013523,0.002678,0.000431,0.012928
42407000,0.0324,0.013523,0.002678,0.000431,0.012693
42408000,0.0324,0.013523,0.002678,0.000431,0.013281
42409000,0.0324,0.013523,0.002678,0.000431,0.011753
42410000,0.0324,0.013523,0.002678,0.000431,0.015984
42411000,0.0324,0.013523,0.002678,0.000431,0.010695
42412000,0.0324,0.013523,0.002678,0.000431,0.012458
42413000,0.0324,0.013523,0.002678,0.000431,0.011870
42414000,0.0324,0.013523,0.002678,0.000431,0.011048
42415000,0.0324,0.013523,0.002678,0.000431,0.011988
42416000,0.0324,0.013523,0.002678,0.000431,0.011518
42417000,0.0324,0.013523,0.002678,0.000431,0.011753
42418000,0.0324,0.013523,0.002678,0.000431,0.011753
42419000,0.0324,0.013523,0.002678,0.000431,0.011048
42420000,0.0324,0.013523,0.002678,0.000431,0.011988
42421000,0.0324,0.013523,0.002678,0.000431,0.011283
42422000,0.0324,0.013523,0.002678,0.000431,0.011165
42423000,0.0324,0.013523,0.002678,0.000431,0.011283
42424000,0.0324,0.013523,0.002678,0.000431,0.011635
42425000,0.0324,0.013523,0.002678,0.000431,0.010225
42426000,0.0324,0.013523,0.002678,0.000431,0.009872
42427000,0.0324,0.013523,0.002678,0.000431,0.009637
42428000,0.0324,0.013523,0.002678,0.000431,0.010107
42429000,0.0324,0.013523,0.002678,0.000431,0.009872
42430000,0.0324,0.013523,0.002678,0.000431,0.009637
42431000,0.0324,0.013523,0.002678,0.000431,0.010225
42432000,0.0324,0.013523,0.002678,0.000431,0.011048
42433000,0.0324,0.013523,0.002678,0.000431,0.009285
42434000,0.0324,0.013523,0.002678,0.000431,0.008697
42435000,0.0324,0.013523,0.002678,0.000431,0.009285
42436000,0.0324,0.013523,0.002678,0.000431,0.011400
42437000,0.0324,0.013523,0.002678,0.000431,0.008932
42438000,0.0324,0.013523,0.002678,0.000431,0.008109
42439000,0.0324,0.013523,0.002678,0.000431,0.008580
42440000,0.0324,0.013523,0.002678,0.000431,0.005524
42441000,0.0324,0.013523,0.002678,0.000431,0.007169
42442000,0.0324,0.013523,0.002678,0.000431,0.005171
42443000,0.0324,0.013523,0.002678,0.000431,0.006347
42444000,0.0324,0.013523,0.002678,0.000431,0.005406
42445000,0.0324,0.013523,0.002678,0.000431,0.005876
42446000,0.0324,0.013523,0.002678,0.000431,0.005524
42447000,0.0324,0.013523,0.002678,0.000431,0.005759
42448000,0.0324,0.013523,0.002678,0.000431,0.005641
42449000,0.0324,0.013523,0.002678,0.000431,0.006347
42450000,0.0324,0.013523,0.002678,0.000431,0.005054
42451000,0.0324,0.013523,0.002678,0.000431,0.006229
42452000,0.0324,0.013523,0.002678,0.000431,0.005524
42453000,0.0324,0.013523,0.002678,0.000431,0.005994
42454000,0.0324,0.013523,0.002678,0.000431,0.005759
42455000,0.0324,0.013523,0.002678,0.000431,0.005524
42456000,0.0324,0.013523,0.002678,0.000431,0.005994
42457000,0.0324,0.013523,0.002678,0.000431,0.005759
42458000,0.0324,0.013523,0.002678,0.000431,0.005524
42459000,0.0324,0.013523,0.002678,0.000431,0.005876
42460000,0.0324,0.013523,0.002678,0.000431,0.005406
42461000,0.0324,0.013523,0.002678,0.000431,0.005994
42462000,0.0324,0.013523,0.002678,0.000431,0.006464
42463000,0.0324,0.013523,0.002678,0.000431,0.005054
42464000,0.0324,0.013523,0.002678,0.000431,0.006229
42465000,0.0324,0.013523,0.002678,0.000431,0.005289
42466000,0.0324,0.013523,0.002678,0.000431,0.006111
42467000,0.0324,0.013523,0.002678,0.000431,0.006111
42468000,0.0324,0.013523,0.002678,0.000431,0.005406
42469000,0.0324,0.013523,0.002678,0.000431,0.005524
42470000,0.0324,0.013523,0.002678,0.000431,0.005759
42471000,0.0324,0.013523,0.002678,0.000431,0.005406
42472000,0.0324,0.013523,0.002678,0.000431,0.004466
42473000,0.0324,0.013523,0.002678,0.000431,0.003878
42474000,0.0324,0.013523,0.002678,0.000431,0.004231
42475000,0.0324,0.013523,0.002678,0.000431,0.004113
42476000,0.0324,0.013523,0.002678,0.000431,0.004231
42477000,0.0324,0.013523,0.002678,0.000431,0.004584
42478000,0.0324,0.013523,0.002678,0.000431,0.003761
42479000,0.0324,0.013523,0.002678,0.000431,0.004701
42480000,0.0324,0.013523,0.002678,0.000431,0.003878
42481000,0.0324,0.013523,0.002678,0.000431,0.004231
42482000,0.0324,0.013523,0.002678,0.000431,0.004349
42483000,0.0324,0.013523,0.002678,0.000431,0.003996
42484000,0.0324,0.013523,0.002678,0.000431,0.004584
42485000,0.0324,0.013523,0.002678,0.000431,0.003996
42486000,0.0324,0.013523,0.002678,0.000431,0.004231
42487000,0.0324,0.013523,0.002678,0.000431,0.004349
42488000,0.0324,0.013523,0.002678,0.000431,0.003878
42489000,0.0324,0.013523,0.002678,0.000431,0.004466
42490000,0.0324,0.013523,0.002678,0.000431,0.004231
42491000,0.0324,0.013523,0.002678,0.000431,0.003996
42492000,0.0324,0.013523,0.002678,0.000431,0.004231
42493000,0.0324,0.013523,0.002678,0.000431,0.004349
42494000,0.0324,0.013523,0.002678,0.000431,0.004113
42495000,0.0324,0.013523,0.002678,0.000431,0.004466
42496000,0.0324,0.013523,0.002678,0.000431,0.003878
42497000,0.0324,0.013523,0.002678,0.000431,0.004466
42498000,0.0324,0.013523,0.002678,0.000431,0.003761
42499000,0.0324,0.013523,0.002678,0.000431,0.004584
42500000,0.0324,0.013523,0.002678,0.000431,0.005406
42501000,0.0324,0.013523,0.002678,0.000431,0.002703
42502000,0.0324,0.013523,0.002678,0.000431,0.002468
42503000,0.0324,0.013523,0.002678,0.000431,0.002703
42504000,0.0324,0.013523,0.002678,0.000431,0.002703
42505000,0.0324,0.013523,0.002678,0.000431,0.002586
42506000,0.0324,0.013523,0.002678,0.000431,0.002703
42507000,0.0324,0.013523,0.002678,0.000431,0.002468
42508000,0.0324,0.013523,0.002678,0.000431,0.002821
42509000,0.0324,0.013523,0.002678,0.000431,0.002586
42510000,0.0324,0.013523,0.002678,0.000431,0.002468
42511000,0.0324,0.013523,0.002678,0.000431,0.004466
42512000,0.0324,0.013523,0.002678,0.000431,0.001763
42513000,0.0324,0.013523,0.002678,0.000431,0.001763
42514000,0.0324,0.013523,0.002678,0.000431,0.001763
42515000,0.0324,0.013523,0.002678,0.000431,0.001763
42516000,0.0324,0.013523,0.002678,0.000431,0.001763
42517000,0.0324,0.013523,0.002678,0.000431,0.001645
42518000,0.0324,0.013523,0.002678,0.000431,0.001880
42519000,0.0324,0.013523,0.002678,0.000431,0.001763
42520000,0.0324,0.013523,0.002678,0.000431,0.001763
42521000,0.0324,0.013523,0.002678,0.000431,0.001645
42522000,0.0324,0.013523,0.002678,0.000431,0.001763
42523000,0.0324,0.013523,0.002678,0.000431,0.001880
42524000,0.0324,0.013523,0.002678,0.000431,0.001645
42525000,0.0324,0.013523,0.002678,0.000431,0.001763
42526000,0.0324,0.013523,0.002678,0.000431,0.001763
42527000,0.0324,0.013523,0.002678,0.000431,0.001645
42528000,0.0324,0.013523,0.002678,0.000431,0.001880
42529000,0.0324,0.013523,0.002678,0.000431,0.001763
42530000,0.0324,0.013523,0.002678,0.000431,0.001763
42531000,0.0324,0.013523,0.002678,0.000431,0.001645
42532000,0.0324,0.013523,0.002678,0.000431,0.001763
42533000,0.0324,0.013523,0.002678,0.000431,0.001880
42534000,0.0324,0.013523,0.002678,0.000431,0.001645
42535000,0.0324,0.013523,0.002678,0.000431,0.001763
42536000,0.0324,0.013523,0.002678,0.000431,0.001763
42537000,0.0324,0.013523,0.002678,0.000431,0.001880
42538000,0.0324,0.013523,0.002678,0.000431,0.001645
42539000,0.0324,0.013523,0.002678,0.000431,0.001763
42540000,0.0324,0.013523,0.002678,0.000431,0.001763
42541000,0.0324,0.013523,0.002678,0.000431,0.001763
42542000,0.0324,0.013523,0.002678,0.000431,0.003996
42543000,0.0324,0.013523,0.002678,0.000431,0.000823
42544000,0.0324,0.013523,0.002678,0.000431,0.000823
42545000,0.0324,0.013523,0.002678,0.000431,0.000940
42546000,0.0324,0.013523,0.002678,0.000431,0.000823
42547000,0.0324,0.013523,0.002678,0.000431,0.074513
42548000,0.0324,0.013523,0.002678,0.000431,0.494206
42549000,0.0324,0.013523,0.002678,0.000431,0.542510
42550000,0.0324,0.013523,0.002678,0.000431,0.132219
42551000,0.0324,0.013523,0.002678,0.000431,0.133865
42552000,0.0324,0.013523,0.002678,0.000431,0.579767
42553000,0.0324,0.013523,0.002678,0.000431,0.231060
42554000,0.0324,0.013523,0.002678,0.000431,0.315916
42555000,0.0324,0.013523,0.002678,0.000431,0.268199
42556000,0.0324,0.013523,0.002678,0.000431,0.137390
42557000,0.0324,0.013523,0.002678,0.000431,0.148086
42558000,0.0324,0.013523,0.002678,0.000431,0.103777
42559000,0.0324,0.013523,0.002678,0.000431,0.403944
42560000,0.0324,0.013523,0.002678,0.000431,0.214724
42561000,0.0324,0.013523,0.002678,0.000431,0.069577
42562000,0.0324,0.013523,0.002678,0.000431,0.062995
42563000,0.0324,0.013523,0.002678,0.000431,0.059587
42564000,0.0324,0.013523,0.002678,0.000431,0.042310
42565000,0.0324,0.013523,0.002678,0.000431,0.043720
42566000,0.0324,0.013523,0.002678,0.000431,0.028912
42567000,0.0324,0.013523,0.002678,0.000431,0.027149
42568000,0.0324,0.013523,0.002678,0.000431,0.029735
42569000,0.0324,0.013523,0.002678,0.000431,0.024916
42570000,0.0324,0.013523,0.002678,0.000431,0.019157
42571000,0.0324,0.013523,0.002678,0.000431,0.019275
42572000,0.0324,0.013523,0.002678,0.000431,0.019040
42573000,0.0324,0.013523,0.002678,0.000431,0.019745
42574000,0.0324,0.013523,0.002678,0.000431,0.019157
42575000,0.0324,0.013523,0.002678,0.000431,0.016336
42576000,0.0324,0.013523,0.002678,0.000431,0.019040
42577000,0.0324,0.013523,0.002678,0.000431,0.015161
42578000,0.0324,0.013523,0.002678,0.000431,0.016101
42579000,0.0324,0.013523,0.002678,0.000431,0.010813
42580000,0.0324,0.013523,0.002678,0.000431,0.010460
42581000,0.0324,0.013523,0.002678,0.000431,0.013868
42582000,0.0324,0.013523,0.002678,0.000431,0.009402
42583000,0.0324,0.013523,0.002678,0.000431,0.008580
42584000,0.0324,0.013523,0.002678,0.000431,0.007404
42585000,0.0324,0.013523,0.002678,0.000431,0.007639
42586000,0.0324,0.013523,0.002678,0.000431,0.007522
42587000,0.0324,0.013523,0.002678,0.000431,0.007639
42588000,0.0324,0.013523,0.002678,0.000431,0.008932
42589000,0.0324,0.013523,0.002678,0.000431,0.008815
42590000,0.0324,0.013523,0.002678,0.000431,0.006817
42591000,0.0324,0.013523,0.002678,0.000431,0.004113
42592000,0.0324,0.013523,0.002678,0.000431,0.003996
42593000,0.0324,0.013523,0.002678,0.000431,0.006347
42594000,0.0324,0.013523,0.002678,0.000431,0.005406
42595000,0.0324,0.013523,0.002678,0.000431,0.002586
42596000,0.0324,0.013523,0.002678,0.000431,0.005524
42597000,0.0324,0.013523,0.002678,0.000431,0.002233
42598000,0.0324,0.013523,0.002678,0.000431,0.000940
42599000,0.0324,0.013523,0.002678,0.000431,0.000823
42600000,0.0324,0.013523,0.002678,0.000431,0.000823
42601000,0.0324,0.013523,0.002678,0.000431,0.000823
42602000,0.0324,0.013523,0.002678,0.000431,0.000823
42603000,0.0324,0.013523,0.002678,0.000431,0.000823
42604000,0.0324,0.013523,0.002678,0.000431,0.000823
42605000,0.0324,0.013523,0.002678,0.000431,0.000940
42606000,0.0324,0.013523,0.002678,0.000431,0.000705
42607000,0.0324,0.013523,0.002678,0.000431,0.000940
42608000,0.0324,0.013523,0.002678,0.000431,0.000823
42609000,0.0324,0.013523,0.002678,0.000431,0.000823
42610000,0.0324,0.013523,0.002678,0.000431,0.000705
42611000,0.0324,0.013523,0.002678,0.000431,0.000940
42612000,0.0324,0.013523,0.002678,0.000431,0.000940
42613000,0.0324,0.013523,0.002678,0.000431,0.000705
42614000,0.0324,0.013523,0.002678,0.000431,0.000940
42615000,0.0324,0.013523,0.002678,0.000431,0.000705
42616000,0.0324,0.013523,0.002678,0.000431,0.000940
42617000,0.0324,0.013523,0.002678,0.000431,0.000823
42618000,0.0324,0.013523,0.002678,0.000431,0.000823
42619000,0.0324,0.013523,0.002678,0.000431,0.000940
42620000,0.0324,0.013523,0.002678,0.000431,0.000705
42621000,0.0324,0.013523,0.002678,0.000431,0.000940
42622000,0.0324,0.013523,0.002678,0.000431,0.000823
42623000,0.0324,0.013523,0.002678,0.000431,0.000823
42624000,0.0324,0.013523,0.002678,0.000431,0.000823
42625000,0.0324,0.013523,0.002678,0.000431,0.000823
42626000,0.0324,0.013523,0.002678,0.000431,0.000940
42627000,0.0324,0.013523,0.002678,0.000431,0.000705
42628000,0.0324,0.013523,0.002678,0.000431,0.000940
42629000,0.0324,0.013523,0.002678,0.000431,0.000823
42630000,0.0324,0.013523,0.002678,0.000431,0.000705
42631000,0.0324,0.013523,0.002678,0.000431,0.000940
42632000,0.0324,0.013523,0.002678,0.000431,0.000823
42633000,0.0324,0.013523,0.002678,0.000431,0.000823
42634000,0.0324,0.013523,0.002678,0.000431,0.000823
42635000,0.0324,0.013523,0.002678,0.000431,0.000823
42636000,0.0324,0.013523,0.002678,0.000431,0.000823
42637000,0.0324,0.013523,0.002678,0.000431,0.000940
42638000,0.0324,0.013523,0.002678,0.000431,0.000823
42639000,0.0324,0.013523,0.002678,0.000431,0.000823
42640000,0.0324,0.013523,0.002678,0.000431,0.000705
42641000,0.0324,0.013523,0.002678,0.000431,0.000940
42642000,0.0324,0.013523,0.002678,0.000431,0.000940
42643000,0.0324,0.013523,0.002678,0.000431,0.000705
42644000,0.0324,0.013523,0.002678,0.000431,0.000940
42645000,0.0324,0.013523,0.002678,0.000431,0.000705
42646000,0.0324,0.013523,0.002678,0.000431,0.000940
42647000,0.0324,0.013523,0.002678,0.000431,0.000823
42648000,0.0324,0.013523,0.002678,0.000431,0.000823
42649000,0.0324,0.013523,0.002678,0.000431,0.000940
42650000,0.0324,0.013523,0.002678,0.000431,0.000705
42651000,0.0324,0.013523,0.002678,0.000431,0.000940
42652000,0.0324,0.013523,0.002678,0.000431,0.000705
42653000,0.0324,0.013523,0.002678,0.000431,0.000940
42654000,0.0324,0.013523,0.002678,0.000431,0.000823
42655000,0.0324,0.013523,0.002678,0.000431,0.000823
42656000,0.0324,0.013523,0.002678,0.000431,0.000823
42657000,0.0324,0.013523,0.002678,0.000431,0.000823
42658000,0.0324,0.013523,0.002678,0.000431,0.000940
42659000,0.0324,0.013523,0.002678,0.000431,0.000705
42660000,0.0324,0.013523,0.002678,0.000431,0.000940
42661000,0.0324,0.013523,0.002678,0.000431,0.000823
42662000,0.0324,0.013523,0.002678,0.000431,0.000823
42663000,0.0324,0.013523,0.002678,0.000431,0.000705
42664000,0.0324,0.013523,0.002678,0.000431,0.000940
42665000,0.0324,0.013523,0.002678,0.000431,0.000940
42666000,0.0324,0.013523,0.002678,0.000431,0.000705
42667000,0.0324,0.013523,0.002678,0.000431,0.000940
42668000,0.0324,0.013523,0.002678,0.000431,0.000705
42669000,0.0324,0.013523,0.002678,0.000431,0.000940
42670000,0.0324,0.013523,0.002678,0.000431,0.000823
42671000,0.0324,0.013523,0.002678,0.000431,0.000823
42672000,0.0324,0.013523,0.002678,0.000431,0.000940
42673000,0.0324,0.013523,0.002678,0.000431,0.000705
42674000,0.0324,0.013523,0.002678,0.000431,0.000940
42675000,0.0324,0.013523,0.002678,0.000431,0.000823
42676000,0.0324,0.013523,0.002678,0.000431,0.000823
42677000,0.0324,0.013523,0.002678,0.000431,0.000823
42678000,0.0324,0.013523,0.002678,0.000431,0.000823
42679000,0.0324,0.013523,0.002678,0.000431,0.000823
42680000,0.0324,0.013523,0.002678,0.000431,0.000823
42681000,0.0324,0.013523,0.002678,0.000431,0.000940
42682000,0.0324,0.013523,0.002678,0.000431,0.000705
42683000,0.0324,0.013523,0.002678,0.000431,0.000823
42684000,0.0324,0.013523,0.002678,0.000431,0.000940
42685000,0.0324,0.013523,0.002678,0.000431,0.000823
42686000,0.0324,0.013523,0.002678,0.000431,0.000823
42687000,0.0324,0.013523,0.002678,0.000431,0.000823
42688000,0.0324,0.013523,0.002678,0.000431,0.000823
42689000,0.0324,0.013523,0.002678,0.000431,0.000823
42690000,0.0324,0.013523,0.002678,0.000431,0.000823
42691000,0.0324,0.013523,0.002678,0.000431,0.000823
42692000,0.0324,0.013523,0.002678,0.000431,0.000940
42693000,0.0324,0.013523,0.002678,0.000431,0.000705
42694000,0.0324,0.013523,0.002678,0.000431,0.000940
42695000,0.0324,0.013523,0.002678,0.000431,0.000823
42696000,0.0324,0.013523,0.002678,0.000431,0.000823
42697000,0.0324,0.013523,0.002678,0.000431,0.000705
42698000,0.0324,0.013523,0.002678,0.000431,0.000940
42699000,0.0324,0.013523,0.002678,0.000431,0.000940
42700000,0.0324,0.013523,0.002678,0.000431,0.000705
42701000,0.0324,0.013523,0.002678,0.000431,0.000940
42702000,0.0324,0.013523,0.002678,0.000431,0.000705
42703000,0.0324,0.013523,0.002678,0.000431,0.000940
42704000,0.0324,0.013523,0.002678,0.000431,0.000705
42705000,0.0324,0.013523,0.002678,0.000431,0.000940
42706000,0.0324,0.013523,0.002678,0.000431,0.000823
42707000,0.0324,0.013523,0.002678,0.000431,0.000823
42708000,0.0324,0.013523,0.002678,0.000431,0.000940
42709000,0.0324,0.013523,0.002678,0.000431,0.000705
42710000,0.0324,0.013523,0.002678,0.000431,0.000940
42711000,0.0324,0.013523,0.002678,0.000431,0.000823
42712000,0.0324,0.013523,0.002678,0.000431,0.000823
42713000,0.0324,0.013523,0.002678,0.000431,0.000823
42714000,0.0324,0.013523,0.002678,0.000431,0.000823
42715000,0.0324,0.013523,0.002678,0.000431,0.000823
42716000,0.0324,0.013523,0.002678,0.000431,0.000823
42717000,0.0324,0.013523,0.002678,0.000431,0.000940
42718000,0.0324,0.013523,0.002678,0.000431,0.000705
42719000,0.0324,0.013523,0.002678,0.000431,0.000823
42720000,0.0324,0.013523,0.002678,0.000431,0.000940
42721000,0.0324,0.013523,0.002678,0.000431,0.000823
42722000,0.0324,0.013523,0.002678,0.000431,0.000823
42723000,0.0324,0.013523,0.002678,0.000431,0.000823
42724000,0.0324,0.013523,0.002678,0.000431,0.000705
42725000,0.0324,0.013523,0.002678,0.000431,0.000940
42726000,0.0324,0.013523,0.002678,0.000431,0.000940
42727000,0.0324,0.013523,0.002678,0.000431,0.000705
42728000,0.0324,0.013523,0.002678,0.000431,0.000940
42729000,0.0324,0.013523,0.002678,0.000431,0.000705
42730000,0.0324,0.013523,0.002678,0.000431,0.000940
42731000,0.0324,0.013523,0.002678,0.000431,0.000940
42732000,0.0324,0.013523,0.002678,0.000431,0.000705
42733000,0.0324,0.013523,0.002678,0.000431,0.000940
42734000,0.0324,0.013523,0.002678,0.000431,0.000705
42735000,0.0324,0.013523,0.002678,0.000431,0.194627
42736000,0.0324,0.013523,0.002678,0.000431,0.481160
42737000,0.0324,0.013523,0.002678,0.000431,0.519240
42738000,0.0324,0.013523,0.002678,0.000431,0.133982
42739000,0.0324,0.013523,0.002678,0.000431,0.130809
42740000,0.0324,0.013523,0.002678,0.000431,0.583880
42741000,0.0324,0.013523,0.002678,0.000431,0.258562
42742000,0.0324,0.013523,0.002678,0.000431,0.276426
42743000,0.0324,0.013523,0.002678,0.000431,0.310274
42744000,0.0324,0.013523,0.002678,0.000431,0.142914
42745000,0.0324,0.013523,0.002678,0.000431,0.161719
42746000,0.0324,0.013523,0.002678,0.000431,0.119291
42747000,0.0324,0.013523,0.002678,0.000431,0.459065
42748000,0.0324,0.013523,0.002678,0.000431,0.063935
42749000,0.0324,0.013523,0.002678,0.000431,0.044308
42750000,0.0324,0.013523,0.002678,0.000431,0.039137
42751000,0.0324,0.013523,0.002678,0.000431,0.028324
42752000,0.0324,0.013523,0.002678,0.000431,0.024446
42753000,0.0324,0.013523,0.002678,0.000431,0.025504
42754000,0.0324,0.013523,0.002678,0.000431,0.023271
42755000,0.0324,0.013523,0.002678,0.000431,0.016807
42756000,0.0324,0.013523,0.002678,0.000431,0.019627
42757000,0.0324,0.013523,0.002678,0.000431,0.013163
42758000,0.0324,0.013523,0.002678,0.000431,0.011048
42759000,0.0324,0.013523,0.002678,0.000431,0.013398
42760000,0.0324,0.013523,0.002678,0.000431,0.009167
42761000,0.0324,0.013523,0.002678,0.000431,0.011870
42762000,0.0324,0.013523,0.002678,0.000431,0.007757
42763000,0.0324,0.013523,0.002678,0.000431,0.009402
42764000,0.0324,0.013523,0.002678,0.000431,0.006817
42765000,0.0324,0.013523,0.002678,0.000431,0.006347
42766000,0.0324,0.013523,0.002678,0.000431,0.007874
42767000,0.0324,0.013523,0.002678,0.000431,0.007404
42768000,0.0324,0.013523,0.002678,0.000431,0.005759
42769000,0.0324,0.013523,0.002678,0.000431,0.005759
42770000,0.0324,0.013523,0.002678,0.000431,0.005759
42771000,0.0324,0.013523,0.002678,0.000431,0.005759
42772000,0.0324,0.013523,0.002678,0.000431,0.005994
42773000,0.0324,0.013523,0.002678,0.000431,0.005641
42774000,0.0324,0.013523,0.002678,0.000431,0.005994
42775000,0.0324,0.013523,0.002678,0.000431,0.005994
42776000,0.0324,0.013523,0.002678,0.000431,0.006934
42777000,0.0324,0.013523,0.002678,0.000431,0.004936
42778000,0.0324,0.013523,0.002678,0.000431,0.005289
42779000,0.0324,0.013523,0.002678,0.000431,0.004936
42780000,0.0324,0.013523,0.002678,0.000431,0.004701
42781000,0.0324,0.013523,0.002678,0.000431,0.004936
42782000,0.0324,0.013523,0.002678,0.000431,0.005524
42783000,0.0324,0.013523,0.002678,0.000431,0.004819
42784000,0.0324,0.013523,0.002678,0.000431,0.006582
42785000,0.0324,0.013523,0.002678,0.000431,0.004466
42786000,0.0324,0.013523,0.002678,0.000431,0.004349
42787000,0.0324,0.013523,0.002678,0.000431,0.003878
42788000,0.0324,0.013523,0.002678,0.000431,0.003996
42789000,0.0324,0.013523,0.002678,0.000431,0.004466
42790000,0.0324,0.013523,0.002678,0.000431,0.003996
42791000,0.0324,0.013523,0.002678,0.000431,0.003996
42792000,0.0324,0.013523,0.002678,0.000431,0.004466
42793000,0.0324,0.013523,0.002678,0.000431,0.003996
42794000,0.0324,0.013523,0.002678,0.000431,0.004113
42795000,0.0324,0.013523,0.002678,0.000431,0.003878
42796000,0.0324,0.013523,0.002678,0.000431,0.004466
42797000,0.0324,0.013523,0.002678,0.000431,0.004231
42798000,0.0324,0.013523,0.002678,0.000431,0.003761
42799000,0.0324,0.013523,0.002678,0.000431,0.004466
42800000,0.0324,0.013523,0.002678,0.000431,0.003996
42801000,0.0324,0.013523,0.002678,0.000431,0.004231
42802000,0.0324,0.013523,0.002678,0.000431,0.003996
42803000,0.0324,0.013523,0.002678,0.000431,0.004231
42804000,0.0324,0.013523,0.002678,0.000431,0.004113
42805000,0.0324,0.013523,0.002678,0.000431,0.005994
42806000,0.0324,0.013523,0.002678,0.000431,0.003408
42807000,0.0324,0.013523,0.002678,0.000431,0.003291
42808000,0.0324,0.013523,0.002678,0.000431,0.003291
42809000,0.0324,0.013523,0.002678,0.000431,0.003291
42810000,0.0324,0.013523,0.002678,0.000431,0.003291
42811000,0.0324,0.013523,0.002678,0.000431,0.003526
42812000,0.0324,0.013523,0.002678,0.000431,0.003056
42813000,0.0324,0.013523,0.002678,0.000431,0.003291
42814000,0.0324,0.013523,0.002678,0.000431,0.003643
42815000,0.0324,0.013523,0.002678,0.000431,0.003173
42816000,0.0324,0.013523,0.002678,0.000431,0.003056
42817000,0.0324,0.013523,0.002678,0.000431,0.003761
42818000,0.0324,0.013523,0.002678,0.000431,0.001880
42819000,0.0324,0.013523,0.002678,0.000431,0.001645
42820000,0.0324,0.013523,0.002678,0.000431,0.001410
42821000,0.0324,0.013523,0.002678,0.000431,0.001880
42822000,0.0324,0.013523,0.002678,0.000431,0.001645
42823000,0.0324,0.013523,0.002678,0.000431,0.001645
42824000,0.0324,0.013523,0.002678,0.000431,0.001410
42825000,0.0324,0.013523,0.002678,0.000431,0.001880
42826000,0.0324,0.013523,0.002678,0.000431,0.001645
42827000,0.0324,0.013523,0.002678,0.000431,0.001410
42828000,0.0324,0.013523,0.002678,0.000431,0.001880
42829000,0.0324,0.013523,0.002678,0.000431,0.001645
42830000,0.0324,0.013523,0.002678,0.000431,0.001645
42831000,0.0324,0.013523,0.002678,0.000431,0.001528
42832000,0.0324,0.013523,0.002678,0.000431,0.001763
42833000,0.0324,0.013523,0.002678,0.000431,0.001645
42834000,0.0324,0.013523,0.002678,0.000431,0.001645
42835000,0.0324,0.013523,0.002678,0.000431,0.001645
42836000,0.0324,0.013523,0.002678,0.000431,0.001645
42837000,0.0324,0.013523,0.002678,0.000431,0.001645
42838000,0.0324,0.013523,0.002678,0.000431,0.001645
42839000,0.0324,0.013523,0.002678,0.000431,0.001645
42840000,0.0324,0.013523,0.002678,0.000431,0.001645
42841000,0.0324,0.013523,0.002678,0.000431,0.001645
42842000,0.0324,0.013523,0.002678,0.000431,0.001645
42843000,0.0324,0.013523,0.002678,0.000431,0.001763
42844000,0.0324,0.013523,0.002678,0.000431,0.001528
42845000,0.0324,0.013523,0.002678,0.000431,0.001645
42846000,0.0324,0.013523,0.002678,0.000431,0.001645
42847000,0.0324,0.013523,0.002678,0.000431,0.001880
42848000,0.0324,0.013523,0.002678,0.000431,0.001293
42849000,0.0324,0.013523,0.002678,0.000431,0.001763
42850000,0.0324,0.013523,0.002678,0.000431,0.001880
42851000,0.0324,0.013523,0.002678,0.000431,0.001645
42852000,0.0324,0.013523,0.002678,0.000431,0.001410
42853000,0.0324,0.013523,0.002678,0.000431,0.001645
42854000,0.0324,0.013523,0.002678,0.000431,0.001880
42855000,0.0324,0.013523,0.002678,0.000431,0.001645
42856000,0.0324,0.013523,0.002678,0.000431,0.001410
42857000,0.0324,0.013523,0.002678,0.000431,0.001880
42858000,0.0324,0.013523,0.002678,0.000431,0.001645
42859000,0.0324,0.013523,0.002678,0.000431,0.001410
42860000,0.0324,0.013523,0.002678,0.000431,0.001763
42861000,0.0324,0.013523,0.002678,0.000431,0.001763
42862000,0.0324,0.013523,0.002678,0.000431,0.001645
42863000,0.0324,0.013523,0.002678,0.000431,0.001410
42864000,0.0324,0.013523,0.002678,0.000431,0.001880
42865000,0.0324,0.013523,0.002678,0.000431,0.001645
42866000,0.0324,0.013523,0.002678,0.000431,0.001645
42867000,0.0324,0.013523,0.002678,0.000431,0.001645
42868000,0.0324,0.013523,0.002678,0.000431,0.001645
42869000,0.0324,0.013523,0.002678,0.000431,0.001645
42870000,0.0324,0.013523,0.002678,0.000431,0.001645
42871000,0.0324,0.013523,0.002678,0.000431,0.001645
42872000,0.0324,0.013523,0.002678,0.000431,0.001763
42873000,0.0324,0.013523,0.002678,0.000431,0.001528
42874000,0.0324,0.013523,0.002678,0.000431,0.001645
42875000,0.0324,0.013523,0.002678,0.000431,0.001645
42876000,0.0324,0.013523,0.002678,0.000431,0.001645
42877000,0.0324,0.013523,0.002678,0.000431,0.001528
42878000,0.0324,0.013523,0.002678,0.000431,0.001763
42879000,0.0324,0.013523,0.002678,0.000431,0.001880
42880000,0.0324,0.013523,0.002678,0.000431,0.001410
42881000,0.0324,0.013523,0.002678,0.000431,0.001645
42882000,0.0324,0.013523,0.002678,0.000431,0.001645
42883000,0.0324,0.013523,0.002678,0.000431,0.002468
42884000,0.0324,0.013523,0.002678,0.000431,0.262440
42885000,0.0324,0.013523,0.002678,0.000431,0.642292
42886000,0.0324,0.013523,0.002678,0.000431,0.276309
42887000,0.0324,0.013523,0.002678,0.000431,0.130691
42888000,0.0324,0.013523,0.002678,0.000431,0.134922
42889000,0.0324,0.013523,0.002678,0.000431,0.605858
42890000,0.0324,0.013523,0.002678,0.000431,0.230355
42891000,0.0324,0.013523,0.002678,0.000431,0.289472
42892000,0.0324,0.013523,0.002678,0.000431,0.270197
42893000,0.0324,0.013523,0.002678,0.000431,0.142209
42894000,0.0324,0.013523,0.002678,0.000431,0.170651
42895000,0.0324,0.013523,0.002678,0.000431,0.097666
42896000,0.0324,0.013523,0.002678,0.000431,0.461181
42897000,0.0324,0.013523,0.002678,0.000431,0.092495
42898000,0.0324,0.013523,0.002678,0.000431,0.046776
42899000,0.0324,0.013523,0.002678,0.000431,0.040312
42900000,0.0324,0.013523,0.002678,0.000431,0.036669
42901000,0.0324,0.013523,0.002678,0.000431,0.023741
42902000,0.0324,0.013523,0.002678,0.000431,0.022565
42903000,0.0324,0.013523,0.002678,0.000431,0.021625
42904000,0.0324,0.013523,0.002678,0.000431,0.017394
42905000,0.0324,0.013523,0.002678,0.000431,0.020450
42906000,0.0324,0.013523,0.002678,0.000431,0.017864
42907000,0.0324,0.013523,0.002678,0.000431,0.011518
42908000,0.0324,0.013523,0.002678,0.000431,0.015044
42909000,0.0324,0.013523,0.002678,0.000431,0.009637
42910000,0.0324,0.013523,0.002678,0.000431,0.009285
42911000,0.0324,0.013523,0.002678,0.000431,0.011518
42912000,0.0324,0.013523,0.002678,0.000431,0.009285
42913000,0.0324,0.013523,0.002678,0.000431,0.007874
42914000,0.0324,0.013523,0.002678,0.000431,0.008815
42915000,0.0324,0.013523,0.002678,0.000431,0.008227
42916000,0.0324,0.013523,0.002678,0.000431,0.008345
42917000,0.0324,0.013523,0.002678,0.000431,0.008580
42918000,0.0324,0.013523,0.002678,0.000431,0.008697
42919000,0.0324,0.013523,0.002678,0.000431,0.008345
42920000,0.0324,0.013523,0.002678,0.000431,0.008462
42921000,0.0324,0.013523,0.002678,0.000431,0.008227
42922000,0.0324,0.013523,0.002678,0.000431,0.008697
42923000,0.0324,0.013523,0.002678,0.000431,0.008462
42924000,0.0324,0.013523,0.002678,0.000431,0.010342
42925000,0.0324,0.013523,0.002678,0.000431,0.007052
42926000,0.0324,0.013523,0.002678,0.000431,0.009402
42927000,0.0324,0.013523,0.002678,0.000431,0.005524
42928000,0.0324,0.013523,0.002678,0.000431,0.005054
42929000,0.0324,0.013523,0.002678,0.000431,0.004701
42930000,0.0324,0.013523,0.002678,0.000431,0.005171
42931000,0.0324,0.013523,0.002678,0.000431,0.004936
42932000,0.0324,0.013523,0.002678,0.000431,0.005406
42933000,0.0324,0.013523,0.002678,0.000431,0.004584
42934000,0.0324,0.013523,0.002678,0.000431,0.005876
42935000,0.0324,0.013523,0.002678,0.000431,0.004466
42936000,0.0324,0.013523,0.002678,0.000431,0.003291
42937000,0.0324,0.013523,0.002678,0.000431,0.003643
42938000,0.0324,0.013523,0.002678,0.000431,0.003291
42939000,0.0324,0.013523,0.002678,0.000431,0.003526
42940000,0.0324,0.013523,0.002678,0.000431,0.003408
42941000,0.0324,0.013523,0.002678,0.000431,0.003526
42942000,0.0324,0.013523,0.002678,0.000431,0.003291
42943000,0.0324,0.013523,0.002678,0.000431,0.004936
42944000,0.0324,0.013523,0.002678,0.000431,0.003878
42945000,0.0324,0.013523,0.002678,0.000431,0.001763
42946000,0.0324,0.013523,0.002678,0.000431,0.001763
42947000,0.0324,0.013523,0.002678,0.000431,0.001763
42948000,0.0324,0.013523,0.002678,0.000431,0.001645
42949000,0.0324,0.013523,0.002678,0.000431,0.001763
42950000,0.0324,0.013523,0.002678,0.000431,0.001763
42951000,0.0324,0.013523,0.002678,0.000431,0.001410
42952000,0.0324,0.013523,0.002678,0.000431,0.001880
42953000,0.0324,0.013523,0.002678,0.000431,0.003173
42954000,0.0324,0.013523,0.002678,0.000431,0.000940
42955000,0.0324,0.013523,0.002678,0.000431,0.000705
42956000,0.0324,0.013523,0.002678,0.000431,0.000940
42957000,0.0324,0.013523,0.002678,0.000431,0.000940
42958000,0.0324,0.013523,0.002678,0.000431,0.000823
42959000,0.0324,0.013523,0.002678,0.000431,0.000823
42960000,0.0324,0.013523,0.002678,0.000431,0.000940
42961000,0.0324,0.013523,0.002678,0.000431,0.000940
42962000,0.0324,0.013523,0.002678,0.000431,0.000823
42963000,0.0324,0.013523,0.002678,0.000431,0.000823
42964000,0.0324,0.013523,0.002678,0.000431,0.000940
42965000,0.0324,0.013523,0.002678,0.000431,0.000823
42966000,0.0324,0.013523,0.002678,0.000431,0.000940
42967000,0.0324,0.013523,0.002678,0.000431,0.000823
42968000,0.0324,0.013523,0.002678,0.000431,0.000940
42969000,0.0324,0.013523,0.002678,0.000431,0.000823
42970000,0.0324,0.013523,0.002678,0.000431,0.000823
42971000,0.0324,0.013523,0.002678,0.000431,0.000940
42972000,0.0324,0.013523,0.002678,0.000431,0.000940
42973000,0.0324,0.013523,0.002678,0.000431,0.000940
42974000,0.0324,0.013523,0.002678,0.000431,0.000705
42975000,0.0324,0.013523,0.002678,0.000431,0.000940
42976000,0.0324,0.013523,0.002678,0.000431,0.000940
42977000,0.0324,0.013523,0.002678,0.000431,0.000823
42978000,0.0324,0.013523,0.002678,0.000431,0.000823
42979000,0.0324,0.013523,0.002678,0.000431,0.000940
42980000,0.0324,0.013523,0.002678,0.000431,0.000823
42981000,0.0324,0.013523,0.002678,0.000431,0.000940
42982000,0.0324,0.013523,0.002678,0.000431,0.000823
42983000,0.0324,0.013523,0.002678,0.000431,0.000940
42984000,0.0324,0.013523,0.002678,0.000431,0.000823
42985000,0.0324,0.013523,0.002678,0.000431,0.000823
42986000,0.0324,0.013523,0.002678,0.000431,0.000940
42987000,0.0324,0.013523,0.002678,0.000431,0.000940
42988000,0.0324,0.013523,0.002678,0.000431,0.000823
42989000,0.0324,0.013523,0.002678,0.000431,0.000823
42990000,0.0324,0.013523,0.002678,0.000431,0.000940
42991000,0.0324,0.013523,0.002678,0.000431,0.000940
42992000,0.0324,0.013523,0.002678,0.000431,0.000705
42993000,0.0324,0.013523,0.002678,0.000431,0.000940
42994000,0.0324,0.013523,0.002678,0.000431,0.014338
42995000,0.0324,0.013523,0.002678,0.000431,0.474696
42996000,0.0324,0.013523,0.002678,0.000431,0.603390
42997000,0.0324,0.013523,0.002678,0.000431,0.138331
42998000,0.0324,0.013523,0.002678,0.000431,0.130691
42999000,0.0324,0.013523,0.002678,0.000431,0.222951
